SpectraSuite Data File
++++++++++++++++++++++++++++++++++++
Date: Fri Oct 25 12:10:23 EDT 2013
User: price-jones
Dark Spectrum Present: No
Reference Spectrum Present: No
Number of Sampled Component Spectra: 1
Spectrometers: USB2+H05261
Integration Time (usec): 100000 (USB2+H05261)
Spectra Averaged: 1 (USB2+H05261)
Boxcar Smoothing: 0 (USB2+H05261)
Correct for Electrical Dark: No (USB2+H05261)
Strobe/Lamp Enabled: No (USB2+H05261)
Correct for Detector Non-linearity: No (USB2+H05261)
Correct for Stray Light: No (USB2+H05261)
Number of Pixels in Processed Spectrum: 2048
>>>>>Begin Processed Spectral Data<<<<<
365.73	374.49
365.92	374.49
366.12	374.49
366.32	255.12
366.52	208.31
366.72	283.20
366.91	138.09
367.11	238.73
367.31	212.99
367.51	273.84
367.70	259.80
367.90	278.52
368.10	210.65
368.30	229.37
368.49	252.78
368.69	259.80
368.89	252.78
369.09	266.82
369.28	273.84
369.48	266.82
369.68	266.82
369.87	322.99
370.07	276.18
370.27	390.87
370.47	358.10
370.66	365.12
370.86	308.95
371.06	376.83
371.25	430.66
371.45	388.53
371.65	386.19
371.84	360.44
372.04	351.08
372.24	430.66
372.44	388.53
372.63	449.38
372.83	416.62
373.03	416.62
373.22	418.96
373.42	374.49
373.62	402.57
373.81	470.45
374.01	397.89
374.21	423.64
374.40	433.00
374.60	447.04
374.79	442.36
374.99	433.00
375.19	489.17
375.38	344.06
375.58	425.98
375.78	416.62
375.97	463.43
376.17	498.53
376.37	395.55
376.56	383.85
376.76	397.89
376.95	493.85
377.15	451.72
377.35	421.30
377.54	433.00
377.74	386.19
377.93	428.32
378.13	414.27
378.33	409.59
378.52	386.19
378.72	451.72
378.91	493.85
379.11	500.87
379.31	395.55
379.50	369.80
379.70	369.80
379.89	440.02
380.09	407.25
380.28	421.30
380.48	402.57
380.68	395.55
380.87	376.83
381.07	365.12
381.26	418.96
381.46	379.17
381.65	381.51
381.85	365.12
382.04	306.61
382.24	379.17
382.43	458.74
382.63	463.43
382.83	322.99
383.02	353.42
383.22	376.83
383.41	311.29
383.61	475.13
383.80	383.85
384.00	437.68
384.19	388.53
384.39	386.19
384.58	409.59
384.78	362.78
384.97	449.38
385.17	376.83
385.36	402.57
385.56	339.38
385.75	437.68
385.95	418.96
386.14	358.10
386.34	341.72
386.53	421.30
386.72	409.59
386.92	430.66
387.11	475.13
387.31	402.57
387.50	479.81
387.70	355.76
387.89	400.23
388.09	404.91
388.28	332.36
388.48	344.06
388.67	402.57
388.86	397.89
389.06	344.06
389.25	447.04
389.45	411.93
389.64	421.30
389.84	411.93
390.03	433.00
390.22	360.44
390.42	416.62
390.61	393.21
390.81	440.02
391.00	400.23
391.19	435.34
391.39	416.62
391.58	346.40
391.78	447.04
391.97	372.15
392.16	379.17
392.36	482.15
392.55	454.06
392.75	449.38
392.94	393.21
393.13	409.59
393.33	416.62
393.52	416.62
393.71	428.32
393.91	369.80
394.10	437.68
394.29	381.51
394.49	388.53
394.68	362.78
394.88	409.59
395.07	376.83
395.26	463.43
395.46	400.23
395.65	423.64
395.84	351.08
396.04	505.56
396.23	440.02
396.42	447.04
396.62	367.46
396.81	421.30
397.00	404.91
397.19	332.36
397.39	454.06
397.58	390.87
397.77	351.08
397.97	482.15
398.16	416.62
398.35	472.79
398.55	297.25
398.74	351.08
398.93	360.44
399.12	369.80
399.32	416.62
399.51	442.36
399.70	330.02
399.90	388.53
400.09	390.87
400.28	376.83
400.47	393.21
400.67	372.15
400.86	409.59
401.05	437.68
401.24	402.57
401.44	454.06
401.63	409.59
401.82	381.51
402.01	386.19
402.21	360.44
402.40	365.12
402.59	388.53
402.78	416.62
402.97	423.64
403.17	425.98
403.36	367.46
403.55	428.32
403.74	369.80
403.93	425.98
404.13	428.32
404.32	383.85
404.51	344.06
404.70	374.49
404.89	409.59
405.09	374.49
405.28	369.80
405.47	362.78
405.66	411.93
405.85	393.21
406.05	440.02
406.24	416.62
406.43	409.59
406.62	440.02
406.81	404.91
407.00	369.80
407.20	421.30
407.39	440.02
407.58	421.30
407.77	418.96
407.96	472.79
408.15	428.32
408.34	383.85
408.54	428.32
408.73	505.56
408.92	430.66
409.11	393.21
409.30	437.68
409.49	341.72
409.68	447.04
409.87	444.70
410.07	416.62
410.26	416.62
410.45	409.59
410.64	430.66
410.83	376.83
411.02	381.51
411.21	421.30
411.40	444.70
411.59	369.80
411.78	365.12
411.98	379.17
412.17	433.00
412.36	440.02
412.55	360.44
412.74	360.44
412.93	409.59
413.12	461.09
413.31	402.57
413.50	402.57
413.69	423.64
413.88	451.72
414.07	327.68
414.26	327.68
414.45	395.55
414.64	313.63
414.83	437.68
415.02	393.21
415.22	425.98
415.41	463.43
415.60	458.74
415.79	411.93
415.98	425.98
416.17	456.40
416.36	379.17
416.55	374.49
416.74	435.34
416.93	489.17
417.12	414.27
417.31	435.34
417.50	423.64
417.69	458.74
417.88	454.06
418.07	404.91
418.26	355.76
418.45	376.83
418.64	423.64
418.83	374.49
419.02	454.06
419.21	428.32
419.39	372.15
419.58	454.06
419.77	409.59
419.96	437.68
420.15	433.00
420.34	440.02
420.53	365.12
420.72	393.21
420.91	409.59
421.10	411.93
421.29	400.23
421.48	402.57
421.67	428.32
421.86	393.21
422.05	484.49
422.24	440.02
422.43	400.23
422.61	414.27
422.80	353.42
422.99	435.34
423.18	409.59
423.37	376.83
423.56	423.64
423.75	358.10
423.94	395.55
424.13	365.12
424.32	339.38
424.50	407.25
424.69	477.47
424.88	442.36
425.07	430.66
425.26	425.98
425.45	353.42
425.64	404.91
425.83	353.42
426.01	468.11
426.20	400.23
426.39	421.30
426.58	372.15
426.77	362.78
426.96	386.19
427.15	442.36
427.33	390.87
427.52	458.74
427.71	397.89
427.90	468.11
428.09	390.87
428.28	390.87
428.46	397.89
428.65	388.53
428.84	327.68
429.03	425.98
429.22	454.06
429.40	365.12
429.59	334.70
429.78	454.06
429.97	376.83
430.16	463.43
430.34	369.80
430.53	376.83
430.72	386.19
430.91	461.09
431.10	423.64
431.28	362.78
431.47	510.24
431.66	381.51
431.85	355.76
432.03	402.57
432.22	414.27
432.41	458.74
432.60	458.74
432.79	414.27
432.97	470.45
433.16	344.06
433.35	348.74
433.54	437.68
433.72	358.10
433.91	449.38
434.10	449.38
434.28	395.55
434.47	407.25
434.66	472.79
434.85	428.32
435.03	454.06
435.22	402.57
435.41	449.38
435.59	353.42
435.78	376.83
435.97	433.00
436.16	423.64
436.34	440.02
436.53	421.30
436.72	428.32
436.90	428.32
437.09	444.70
437.28	421.30
437.46	381.51
437.65	390.87
437.84	409.59
438.02	447.04
438.21	414.27
438.40	416.62
438.58	402.57
438.77	388.53
438.96	400.23
439.14	435.34
439.33	381.51
439.52	414.27
439.70	353.42
439.89	451.72
440.08	395.55
440.26	456.40
440.45	482.15
440.63	437.68
440.82	425.98
441.01	386.19
441.19	369.80
441.38	397.89
441.57	517.26
441.75	407.25
441.94	369.80
442.12	416.62
442.31	386.19
442.50	409.59
442.68	435.34
442.87	353.42
443.05	463.43
443.24	383.85
443.43	376.83
443.61	449.38
443.80	458.74
443.98	376.83
444.17	456.40
444.35	468.11
444.54	444.70
444.73	351.08
444.91	451.72
445.10	393.21
445.28	435.34
445.47	416.62
445.65	454.06
445.84	430.66
446.02	423.64
446.21	355.76
446.39	395.55
446.58	444.70
446.77	372.15
446.95	395.55
447.14	437.68
447.32	388.53
447.51	334.70
447.69	423.64
447.88	428.32
448.06	451.72
448.25	379.17
448.43	360.44
448.62	430.66
448.80	425.98
448.99	428.32
449.17	463.43
449.36	351.08
449.54	414.27
449.73	332.36
449.91	386.19
450.10	362.78
450.28	454.06
450.46	472.79
450.65	437.68
450.83	407.25
451.02	421.30
451.20	433.00
451.39	428.32
451.57	444.70
451.76	372.15
451.94	477.47
452.13	402.57
452.31	470.45
452.49	393.21
452.68	428.32
452.86	430.66
453.05	411.93
453.23	411.93
453.42	379.17
453.60	451.72
453.78	437.68
453.97	376.83
454.15	393.21
454.34	400.23
454.52	423.64
454.70	435.34
454.89	461.09
455.07	358.10
455.26	447.04
455.44	423.64
455.62	435.34
455.81	507.90
455.99	360.44
456.17	454.06
456.36	374.49
456.54	379.17
456.73	369.80
456.91	425.98
457.09	437.68
457.28	414.27
457.46	395.55
457.64	374.49
457.83	411.93
458.01	425.98
458.19	388.53
458.38	348.74
458.56	507.90
458.74	397.89
458.93	428.32
459.11	390.87
459.29	381.51
459.48	404.91
459.66	447.04
459.84	409.59
460.03	500.87
460.21	341.72
460.39	386.19
460.57	414.27
460.76	346.40
460.94	404.91
461.12	409.59
461.31	454.06
461.49	360.44
461.67	367.46
461.85	421.30
462.04	430.66
462.22	791.10
462.40	393.21
462.59	449.38
462.77	402.57
462.95	440.02
463.13	395.55
463.32	409.59
463.50	414.27
463.68	456.40
463.86	383.85
464.05	308.95
464.23	461.09
464.41	411.93
464.59	395.55
464.78	395.55
464.96	351.08
465.14	444.70
465.32	404.91
465.50	430.66
465.69	409.59
465.87	334.70
466.05	440.02
466.23	372.15
466.41	381.51
466.60	395.55
466.78	416.62
466.96	440.02
467.14	456.40
467.32	503.22
467.51	482.15
467.69	390.87
467.87	423.64
468.05	435.34
468.23	435.34
468.41	423.64
468.60	407.25
468.78	421.30
468.96	437.68
469.14	442.36
469.32	372.15
469.50	418.96
469.69	409.59
469.87	423.64
470.05	358.10
470.23	440.02
470.41	411.93
470.59	437.68
470.77	372.15
470.95	322.99
471.14	393.21
471.32	440.02
471.50	498.53
471.68	365.12
471.86	468.11
472.04	390.87
472.22	451.72
472.40	390.87
472.58	418.96
472.77	388.53
472.95	409.59
473.13	402.57
473.31	449.38
473.49	433.00
473.67	388.53
473.85	411.93
474.03	451.72
474.21	411.93
474.39	475.13
474.57	456.40
474.75	456.40
474.93	383.85
475.12	397.89
475.30	416.62
475.48	374.49
475.66	423.64
475.84	425.98
476.02	407.25
476.20	409.59
476.38	416.62
476.56	554.71
476.74	437.68
476.92	442.36
477.10	330.02
477.28	397.89
477.46	444.70
477.64	397.89
477.82	425.98
478.00	451.72
478.18	416.62
478.36	393.21
478.54	393.21
478.72	409.59
478.90	437.68
479.08	454.06
479.26	386.19
479.44	386.19
479.62	348.74
479.80	421.30
479.98	447.04
480.16	468.11
480.34	402.57
480.52	348.74
480.70	437.68
480.88	428.32
481.06	437.68
481.24	430.66
481.41	433.00
481.59	404.91
481.77	355.76
481.95	414.27
482.13	418.96
482.31	411.93
482.49	365.12
482.67	442.36
482.85	339.38
483.03	435.34
483.21	425.98
483.39	395.55
483.57	472.79
483.74	451.72
483.92	461.09
484.10	393.21
484.28	411.93
484.46	496.19
484.64	376.83
484.82	416.62
485.00	388.53
485.18	472.79
485.35	433.00
485.53	423.64
485.71	470.45
485.89	388.53
486.07	423.64
486.25	468.11
486.43	355.76
486.61	411.93
486.78	395.55
486.96	395.55
487.14	468.11
487.32	425.98
487.50	346.40
487.68	400.23
487.85	409.59
488.03	393.21
488.21	402.57
488.39	397.89
488.57	421.30
488.75	402.57
488.92	472.79
489.10	470.45
489.28	449.38
489.46	388.53
489.64	421.30
489.81	390.87
489.99	435.34
490.17	376.83
490.35	458.74
490.53	414.27
490.70	435.34
490.88	454.06
491.06	379.17
491.24	447.04
491.41	376.83
491.59	395.55
491.77	423.64
491.95	465.77
492.13	393.21
492.30	348.74
492.48	397.89
492.66	390.87
492.84	348.74
493.01	486.83
493.19	475.13
493.37	486.83
493.54	367.46
493.72	477.47
493.90	383.85
494.08	437.68
494.25	395.55
494.43	397.89
494.61	465.77
494.79	383.85
494.96	409.59
495.14	421.30
495.32	334.70
495.49	423.64
495.67	409.59
495.85	376.83
496.02	416.62
496.20	465.77
496.38	372.15
496.55	430.66
496.73	388.53
496.91	327.68
497.09	414.27
497.26	381.51
497.44	360.44
497.62	411.93
497.79	423.64
497.97	489.17
498.14	458.74
498.32	395.55
498.50	418.96
498.67	444.70
498.85	425.98
499.03	435.34
499.20	407.25
499.38	393.21
499.56	355.76
499.73	351.08
499.91	444.70
500.08	486.83
500.26	463.43
500.44	461.09
500.61	475.13
500.79	369.80
500.97	409.59
501.14	477.47
501.32	468.11
501.49	458.74
501.67	374.49
501.84	491.51
502.02	423.64
502.20	407.25
502.37	395.55
502.55	435.34
502.72	395.55
502.90	463.43
503.07	440.02
503.25	386.19
503.43	421.30
503.60	411.93
503.78	386.19
503.95	433.00
504.13	386.19
504.30	404.91
504.48	383.85
504.65	470.45
504.83	362.78
505.01	390.87
505.18	430.66
505.36	444.70
505.53	388.53
505.71	322.99
505.88	458.74
506.06	365.12
506.23	388.53
506.41	451.72
506.58	388.53
506.76	337.04
506.93	404.91
507.11	402.57
507.28	383.85
507.46	451.72
507.63	440.02
507.81	339.38
507.98	397.89
508.16	395.55
508.33	442.36
508.50	409.59
508.68	414.27
508.85	470.45
509.03	433.00
509.20	402.57
509.38	430.66
509.55	418.96
509.73	407.25
509.90	433.00
510.08	435.34
510.25	498.53
510.42	407.25
510.60	397.89
510.77	435.34
510.95	339.38
511.12	367.46
511.30	425.98
511.47	444.70
511.64	482.15
511.82	374.49
511.99	369.80
512.17	433.00
512.34	430.66
512.51	393.21
512.69	421.30
512.86	402.57
513.04	428.32
513.21	418.96
513.38	425.98
513.56	423.64
513.73	372.15
513.90	461.09
514.08	369.80
514.25	465.77
514.43	486.83
514.60	418.96
514.77	390.87
514.95	360.44
515.12	390.87
515.29	409.59
515.47	470.45
515.64	404.91
515.81	472.79
515.99	369.80
516.16	486.83
516.33	444.70
516.51	355.76
516.68	437.68
516.85	355.76
517.03	358.10
517.20	425.98
517.37	423.64
517.54	435.34
517.72	388.53
517.89	416.62
518.06	374.49
518.24	360.44
518.41	411.93
518.58	414.27
518.75	346.40
518.93	409.59
519.10	397.89
519.27	383.85
519.45	437.68
519.62	456.40
519.79	484.49
519.96	449.38
520.14	433.00
520.31	440.02
520.48	402.57
520.65	393.21
520.83	414.27
521.00	416.62
521.17	320.65
521.34	337.04
521.52	421.30
521.69	425.98
521.86	444.70
522.03	435.34
522.20	397.89
522.38	381.51
522.55	383.85
522.72	393.21
522.89	355.76
523.07	430.66
523.24	390.87
523.41	411.93
523.58	383.85
523.75	414.27
523.92	386.19
524.10	416.62
524.27	421.30
524.44	369.80
524.61	484.49
524.78	334.70
524.96	395.55
525.13	388.53
525.30	519.60
525.47	503.22
525.64	454.06
525.81	381.51
525.98	421.30
526.16	409.59
526.33	470.45
526.50	320.65
526.67	449.38
526.84	390.87
527.01	388.53
527.18	383.85
527.36	421.30
527.53	381.51
527.70	421.30
527.87	428.32
528.04	454.06
528.21	390.87
528.38	404.91
528.55	374.49
528.72	400.23
528.89	430.66
529.07	383.85
529.24	407.25
529.41	500.87
529.58	416.62
529.75	367.46
529.92	400.23
530.09	425.98
530.26	489.17
530.43	416.62
530.60	416.62
530.77	407.25
530.94	390.87
531.11	437.68
531.28	390.87
531.46	365.12
531.63	360.44
531.80	472.79
531.97	440.02
532.14	395.55
532.31	425.98
532.48	393.21
532.65	381.51
532.82	418.96
532.99	362.78
533.16	517.26
533.33	404.91
533.50	482.15
533.67	418.96
533.84	435.34
534.01	414.27
534.18	379.17
534.35	369.80
534.52	390.87
534.69	400.23
534.86	369.80
535.03	414.27
535.20	369.80
535.37	461.09
535.54	374.49
535.71	433.00
535.88	411.93
536.05	454.06
536.22	395.55
536.38	395.55
536.55	421.30
536.72	482.15
536.89	447.04
537.06	383.85
537.23	379.17
537.40	376.83
537.57	407.25
537.74	407.25
537.91	482.15
538.08	395.55
538.25	332.36
538.42	404.91
538.59	461.09
538.75	369.80
538.92	397.89
539.09	451.72
539.26	416.62
539.43	440.02
539.60	456.40
539.77	400.23
539.94	358.10
540.11	374.49
540.28	386.19
540.44	416.62
540.61	379.17
540.78	409.59
540.95	414.27
541.12	430.66
541.29	374.49
541.46	475.13
541.62	437.68
541.79	428.32
541.96	315.97
542.13	386.19
542.30	327.68
542.47	449.38
542.63	414.27
542.80	355.76
542.97	435.34
543.14	393.21
543.31	397.89
543.48	463.43
543.64	489.17
543.81	409.59
543.98	397.89
544.15	430.66
544.32	430.66
544.48	505.56
544.65	407.25
544.82	372.15
544.99	416.62
545.16	428.32
545.32	430.66
545.49	397.89
545.66	411.93
545.83	418.96
546.00	388.53
546.16	430.66
546.33	465.77
546.50	379.17
546.67	393.21
546.83	322.99
547.00	395.55
547.17	395.55
547.34	461.09
547.50	437.68
547.67	423.64
547.84	442.36
548.00	447.04
548.17	430.66
548.34	346.40
548.51	451.72
548.67	465.77
548.84	440.02
549.01	379.17
549.18	407.25
549.34	383.85
549.51	393.21
549.68	463.43
549.84	414.27
550.01	358.10
550.18	433.00
550.34	472.79
550.51	428.32
550.68	472.79
550.84	379.17
551.01	404.91
551.18	430.66
551.34	444.70
551.51	468.11
551.68	437.68
551.84	512.58
552.01	411.93
552.18	397.89
552.34	421.30
552.51	395.55
552.68	437.68
552.84	442.36
553.01	421.30
553.18	393.21
553.34	402.57
553.51	416.62
553.67	421.30
553.84	479.81
554.01	491.51
554.17	491.51
554.34	437.68
554.51	430.66
554.67	458.74
554.84	456.40
555.00	374.49
555.17	421.30
555.33	411.93
555.50	374.49
555.67	425.98
555.83	395.55
556.00	360.44
556.16	498.53
556.33	404.91
556.50	425.98
556.66	472.79
556.83	404.91
556.99	414.27
557.16	458.74
557.32	376.83
557.49	402.57
557.65	344.06
557.82	444.70
557.98	376.83
558.15	425.98
558.32	444.70
558.48	395.55
558.65	414.27
558.81	463.43
558.98	437.68
559.14	376.83
559.31	435.34
559.47	390.87
559.64	383.85
559.80	470.45
559.97	330.02
560.13	414.27
560.30	435.34
560.46	402.57
560.63	440.02
560.79	358.10
560.96	465.77
561.12	353.42
561.29	440.02
561.45	437.68
561.61	411.93
561.78	543.00
561.94	472.79
562.11	484.49
562.27	482.15
562.44	475.13
562.60	491.51
562.77	418.96
562.93	550.03
563.10	491.51
563.26	341.72
563.42	390.87
563.59	390.87
563.75	376.83
563.92	402.57
564.08	388.53
564.24	456.40
564.41	461.09
564.57	390.87
564.74	362.78
564.90	423.64
565.07	461.09
565.23	444.70
565.39	458.74
565.56	449.38
565.72	369.80
565.88	388.53
566.05	421.30
566.21	397.89
566.38	435.34
566.54	440.02
566.70	395.55
566.87	351.08
567.03	409.59
567.19	376.83
567.36	416.62
567.52	407.25
567.68	411.93
567.85	407.25
568.01	395.55
568.17	409.59
568.34	418.96
568.50	437.68
568.66	372.15
568.83	440.02
568.99	390.87
569.15	414.27
569.32	421.30
569.48	451.72
569.64	409.59
569.81	344.06
569.97	397.89
570.13	440.02
570.30	388.53
570.46	463.43
570.62	428.32
570.78	477.47
570.95	388.53
571.11	414.27
571.27	454.06
571.43	376.83
571.60	416.62
571.76	404.91
571.92	388.53
572.09	362.78
572.25	369.80
572.41	332.36
572.57	402.57
572.74	477.47
572.90	472.79
573.06	388.53
573.22	395.55
573.38	395.55
573.55	447.04
573.71	416.62
573.87	395.55
574.03	407.25
574.20	404.91
574.36	437.68
574.52	444.70
574.68	379.17
574.84	475.13
575.01	376.83
575.17	409.59
575.33	402.57
575.49	421.30
575.65	484.49
575.82	418.96
575.98	388.53
576.14	332.36
576.30	397.89
576.46	397.89
576.62	351.08
576.79	486.83
576.95	414.27
577.11	402.57
577.27	404.91
577.43	402.57
577.59	379.17
577.75	491.51
577.92	411.93
578.08	376.83
578.24	484.49
578.40	461.09
578.56	458.74
578.72	407.25
578.88	395.55
579.04	383.85
579.21	435.34
579.37	355.76
579.53	451.72
579.69	428.32
579.85	411.93
580.01	449.38
580.17	449.38
580.33	442.36
580.49	416.62
580.65	444.70
580.82	451.72
580.98	344.06
581.14	451.72
581.30	433.00
581.46	409.59
581.62	482.15
581.78	348.74
581.94	411.93
582.10	437.68
582.26	444.70
582.42	404.91
582.58	397.89
582.74	418.96
582.90	407.25
583.06	428.32
583.22	430.66
583.38	395.55
583.54	449.38
583.70	421.30
583.86	470.45
584.02	346.40
584.18	472.79
584.34	397.89
584.50	414.27
584.66	367.46
584.82	397.89
584.98	353.42
585.14	332.36
585.30	430.66
585.46	390.87
585.62	440.02
585.78	451.72
585.94	503.22
586.10	409.59
586.26	444.70
586.42	404.91
586.58	376.83
586.74	423.64
586.90	447.04
587.06	393.21
587.22	489.17
587.38	437.68
587.54	416.62
587.70	430.66
587.86	407.25
588.02	390.87
588.18	383.85
588.34	418.96
588.49	440.02
588.65	507.90
588.81	418.96
588.97	409.59
589.13	421.30
589.29	381.51
589.45	489.17
589.61	425.98
589.77	390.87
589.93	383.85
590.08	421.30
590.24	386.19
590.40	360.44
590.56	404.91
590.72	458.74
590.88	397.89
591.04	444.70
591.20	404.91
591.35	390.87
591.51	444.70
591.67	454.06
591.83	456.40
591.99	402.57
592.15	407.25
592.31	411.93
592.46	379.17
592.62	414.27
592.78	423.64
592.94	383.85
593.10	395.55
593.26	444.70
593.41	437.68
593.57	386.19
593.73	407.25
593.89	454.06
594.05	404.91
594.20	437.68
594.36	390.87
594.52	360.44
594.68	388.53
594.84	454.06
594.99	362.78
595.15	425.98
595.31	393.21
595.47	442.36
595.62	376.83
595.78	397.89
595.94	390.87
596.10	386.19
596.25	418.96
596.41	454.06
596.57	337.04
596.73	404.91
596.88	358.10
597.04	440.02
597.20	418.96
597.36	423.64
597.51	440.02
597.67	393.21
597.83	337.04
597.99	454.06
598.14	416.62
598.30	456.40
598.46	442.36
598.61	470.45
598.77	477.47
598.93	404.91
599.09	348.74
599.24	400.23
599.40	414.27
599.56	454.06
599.71	409.59
599.87	433.00
600.03	435.34
600.18	447.04
600.34	454.06
600.50	454.06
600.65	388.53
600.81	400.23
600.97	390.87
601.12	411.93
601.28	435.34
601.44	433.00
601.59	395.55
601.75	428.32
601.91	425.98
602.06	360.44
602.22	449.38
602.37	486.83
602.53	365.12
602.69	414.27
602.84	449.38
603.00	379.17
603.16	484.49
603.31	404.91
603.47	435.34
603.62	369.80
603.78	346.40
603.94	407.25
604.09	421.30
604.25	430.66
604.40	418.96
604.56	411.93
604.71	435.34
604.87	409.59
605.03	454.06
605.18	475.13
605.34	376.83
605.49	430.66
605.65	416.62
605.80	430.66
605.96	397.89
606.12	379.17
606.27	337.04
606.43	400.23
606.58	386.19
606.74	437.68
606.89	367.46
607.05	421.30
607.20	433.00
607.36	351.08
607.51	383.85
607.67	334.70
607.82	411.93
607.98	430.66
608.13	416.62
608.29	402.57
608.44	456.40
608.60	388.53
608.75	411.93
608.91	400.23
609.06	442.36
609.22	428.32
609.37	388.53
609.53	430.66
609.68	400.23
609.84	437.68
609.99	404.91
610.15	421.30
