SpectraSuite Data File
++++++++++++++++++++++++++++++++++++
Date: Fri Oct 25 12:10:30 EDT 2013
User: price-jones
Dark Spectrum Present: No
Reference Spectrum Present: No
Number of Sampled Component Spectra: 1
Spectrometers: USB2+H05261
Integration Time (usec): 100000 (USB2+H05261)
Spectra Averaged: 1 (USB2+H05261)
Boxcar Smoothing: 0 (USB2+H05261)
Correct for Electrical Dark: No (USB2+H05261)
Strobe/Lamp Enabled: No (USB2+H05261)
Correct for Detector Non-linearity: No (USB2+H05261)
Correct for Stray Light: No (USB2+H05261)
Number of Pixels in Processed Spectrum: 2048
>>>>>Begin Processed Spectral Data<<<<<
365.73	416.62
365.92	416.62
366.12	416.62
366.32	276.18
366.52	229.37
366.72	243.42
366.91	264.48
367.11	222.35
367.31	198.95
367.51	212.99
367.70	264.48
367.90	198.95
368.10	264.48
368.30	257.46
368.49	304.27
368.69	334.70
368.89	278.52
369.09	229.37
369.28	252.78
369.48	269.16
369.68	215.33
369.87	259.80
370.07	327.68
370.27	346.40
370.47	325.33
370.66	344.06
370.86	325.33
371.06	374.49
371.25	341.72
371.45	306.61
371.65	437.68
371.84	339.38
372.04	351.08
372.24	407.25
372.44	325.33
372.63	355.76
372.83	402.57
373.03	390.87
373.22	355.76
373.42	423.64
373.62	395.55
373.81	390.87
374.01	423.64
374.21	463.43
374.40	486.83
374.60	414.27
374.79	418.96
374.99	416.62
375.19	402.57
375.38	456.40
375.58	456.40
375.78	397.89
375.97	451.72
376.17	540.66
376.37	400.23
376.56	435.34
376.76	425.98
376.95	454.06
377.15	493.85
377.35	407.25
377.54	383.85
377.74	369.80
377.93	339.38
378.13	379.17
378.33	386.19
378.52	402.57
378.72	409.59
378.91	397.89
379.11	503.22
379.31	390.87
379.50	383.85
379.70	411.93
379.89	407.25
380.09	423.64
380.28	423.64
380.48	397.89
380.68	414.27
380.87	404.91
381.07	416.62
381.26	458.74
381.46	376.83
381.65	425.98
381.85	372.15
382.04	454.06
382.24	372.15
382.43	315.97
382.63	362.78
382.83	362.78
383.02	400.23
383.22	461.09
383.41	386.19
383.61	428.32
383.80	465.77
384.00	458.74
384.19	386.19
384.39	433.00
384.58	360.44
384.78	402.57
384.97	454.06
385.17	423.64
385.36	351.08
385.56	411.93
385.75	390.87
385.95	428.32
386.14	388.53
386.34	376.83
386.53	414.27
386.72	346.40
386.92	442.36
387.11	367.46
387.31	433.00
387.50	376.83
387.70	372.15
387.89	372.15
388.09	334.70
388.28	440.02
388.48	369.80
388.67	402.57
388.86	388.53
389.06	348.74
389.25	393.21
389.45	433.00
389.64	411.93
389.84	423.64
390.03	458.74
390.22	414.27
390.42	430.66
390.61	362.78
390.81	383.85
391.00	330.02
391.19	430.66
391.39	341.72
391.58	360.44
391.78	407.25
391.97	372.15
392.16	414.27
392.36	423.64
392.55	383.85
392.75	388.53
392.94	440.02
393.13	456.40
393.33	437.68
393.52	404.91
393.71	388.53
393.91	421.30
394.10	411.93
394.29	447.04
394.49	409.59
394.68	365.12
394.88	418.96
395.07	423.64
395.26	341.72
395.46	397.89
395.65	435.34
395.84	404.91
396.04	491.51
396.23	437.68
396.42	416.62
396.62	444.70
396.81	428.32
397.00	390.87
397.19	414.27
397.39	407.25
397.58	472.79
397.77	393.21
397.97	425.98
398.16	376.83
398.35	334.70
398.55	404.91
398.74	381.51
398.93	454.06
399.12	416.62
399.32	423.64
399.51	414.27
399.70	442.36
399.90	423.64
400.09	376.83
400.28	428.32
400.47	334.70
400.67	430.66
400.86	334.70
401.05	435.34
401.24	435.34
401.44	463.43
401.63	390.87
401.82	379.17
402.01	344.06
402.21	414.27
402.40	444.70
402.59	388.53
402.78	383.85
402.97	379.17
403.17	402.57
403.36	430.66
403.55	449.38
403.74	428.32
403.93	407.25
404.13	376.83
404.32	416.62
404.51	360.44
404.70	383.85
404.89	416.62
405.09	479.81
405.28	451.72
405.47	451.72
405.66	383.85
405.85	425.98
406.05	360.44
406.24	372.15
406.43	407.25
406.62	416.62
406.81	449.38
407.00	430.66
407.20	454.06
407.39	376.83
407.58	362.78
407.77	425.98
407.96	456.40
408.15	334.70
408.34	395.55
408.54	346.40
408.73	383.85
408.92	362.78
409.11	423.64
409.30	428.32
409.49	416.62
409.68	397.89
409.87	447.04
410.07	395.55
410.26	407.25
410.45	358.10
410.64	454.06
410.83	397.89
411.02	315.97
411.21	444.70
411.40	388.53
411.59	470.45
411.78	353.42
411.98	430.66
412.17	386.19
412.36	435.34
412.55	376.83
412.74	421.30
412.93	421.30
413.12	367.46
413.31	409.59
413.50	421.30
413.69	393.21
413.88	463.43
414.07	397.89
414.26	428.32
414.45	404.91
414.64	498.53
414.83	409.59
415.02	437.68
415.22	390.87
415.41	533.64
415.60	374.49
415.79	458.74
415.98	437.68
416.17	444.70
416.36	344.06
416.55	421.30
416.74	372.15
416.93	421.30
417.12	351.08
417.31	374.49
417.50	381.51
417.69	421.30
417.88	461.09
418.07	395.55
418.26	344.06
418.45	360.44
418.64	414.27
418.83	411.93
419.02	404.91
419.21	407.25
419.39	461.09
419.58	437.68
419.77	383.85
419.96	322.99
420.15	444.70
420.34	374.49
420.53	355.76
420.72	400.23
420.91	414.27
421.10	367.46
421.29	402.57
421.48	475.13
421.67	428.32
421.86	442.36
422.05	390.87
422.24	409.59
422.43	414.27
422.61	400.23
422.80	451.72
422.99	456.40
423.18	407.25
423.37	433.00
423.56	404.91
423.75	433.00
423.94	355.76
424.13	421.30
424.32	390.87
424.50	400.23
424.69	390.87
424.88	456.40
425.07	435.34
425.26	393.21
425.45	376.83
425.64	475.13
425.83	465.77
426.01	421.30
426.20	421.30
426.39	404.91
426.58	400.23
426.77	386.19
426.96	397.89
427.15	409.59
427.33	393.21
427.52	475.13
427.71	421.30
427.90	454.06
428.09	416.62
428.28	372.15
428.46	358.10
428.65	388.53
428.84	360.44
429.03	430.66
429.22	430.66
429.40	386.19
429.59	400.23
429.78	454.06
429.97	433.00
430.16	362.78
430.34	402.57
430.53	416.62
430.72	404.91
430.91	451.72
431.10	388.53
431.28	381.51
431.47	428.32
431.66	433.00
431.85	425.98
432.03	416.62
432.22	414.27
432.41	402.57
432.60	388.53
432.79	400.23
432.97	400.23
433.16	433.00
433.35	353.42
433.54	411.93
433.72	435.34
433.91	379.17
434.10	402.57
434.28	369.80
434.47	362.78
434.66	437.68
434.85	388.53
435.03	440.02
435.22	367.46
435.41	414.27
435.59	444.70
435.78	404.91
435.97	369.80
436.16	409.59
436.34	461.09
436.53	397.89
436.72	381.51
436.90	449.38
437.09	400.23
437.28	332.36
437.46	442.36
437.65	437.68
437.84	482.15
438.02	461.09
438.21	458.74
438.40	433.00
438.58	334.70
438.77	351.08
438.96	416.62
439.14	397.89
439.33	369.80
439.52	423.64
439.70	411.93
439.89	418.96
440.08	461.09
440.26	353.42
440.45	437.68
440.63	388.53
440.82	402.57
441.01	360.44
441.19	416.62
441.38	397.89
441.57	449.38
441.75	461.09
441.94	360.44
442.12	465.77
442.31	351.08
442.50	456.40
442.68	409.59
442.87	395.55
443.05	374.49
443.24	444.70
443.43	393.21
443.61	414.27
443.80	435.34
443.98	414.27
444.17	409.59
444.35	468.11
444.54	430.66
444.73	369.80
444.91	447.04
445.10	358.10
445.28	376.83
445.47	437.68
445.65	325.33
445.84	442.36
446.02	425.98
446.21	409.59
446.39	407.25
446.58	454.06
446.77	411.93
446.95	425.98
447.14	374.49
447.32	475.13
447.51	402.57
447.69	440.02
447.88	468.11
448.06	425.98
448.25	402.57
448.43	397.89
448.62	299.59
448.80	360.44
448.99	442.36
449.17	404.91
449.36	414.27
449.54	479.81
449.73	442.36
449.91	407.25
450.10	332.36
450.28	428.32
450.46	468.11
450.65	388.53
450.83	442.36
451.02	397.89
451.20	386.19
451.39	470.45
451.57	393.21
451.76	416.62
451.94	421.30
452.13	365.12
452.31	489.17
452.49	461.09
452.68	381.51
452.86	365.12
453.05	454.06
453.23	442.36
453.42	433.00
453.60	400.23
453.78	404.91
453.97	428.32
454.15	395.55
454.34	449.38
454.52	397.89
454.70	421.30
454.89	414.27
455.07	456.40
455.26	414.27
455.44	411.93
455.62	369.80
455.81	442.36
455.99	437.68
456.17	372.15
456.36	437.68
456.54	423.64
456.73	395.55
456.91	358.10
457.09	472.79
457.28	397.89
457.46	400.23
457.64	393.21
457.83	472.79
458.01	388.53
458.19	374.49
458.38	386.19
458.56	425.98
458.74	390.87
458.93	440.02
459.11	435.34
459.29	355.76
459.48	386.19
459.66	430.66
459.84	337.04
460.03	440.02
460.21	423.64
460.39	393.21
460.57	433.00
460.76	421.30
460.94	402.57
461.12	404.91
461.31	395.55
461.49	458.74
461.67	442.36
461.85	390.87
462.04	393.21
462.22	744.29
462.40	458.74
462.59	444.70
462.77	418.96
462.95	435.34
463.13	402.57
463.32	465.77
463.50	369.80
463.68	393.21
463.86	456.40
464.05	386.19
464.23	428.32
464.41	367.46
464.59	475.13
464.78	409.59
464.96	421.30
465.14	386.19
465.32	379.17
465.50	334.70
465.69	409.59
465.87	383.85
466.05	367.46
466.23	414.27
466.41	372.15
466.60	463.43
466.78	442.36
466.96	468.11
467.14	388.53
467.32	390.87
467.51	451.72
467.69	407.25
467.87	465.77
468.05	365.12
468.23	454.06
468.41	440.02
468.60	418.96
468.78	341.72
468.96	372.15
469.14	435.34
469.32	400.23
469.50	374.49
469.69	416.62
469.87	388.53
470.05	463.43
470.23	418.96
470.41	372.15
470.59	365.12
470.77	411.93
470.95	367.46
471.14	486.83
471.32	383.85
471.50	435.34
471.68	355.76
471.86	379.17
472.04	381.51
472.22	411.93
472.40	393.21
472.58	425.98
472.77	386.19
472.95	430.66
473.13	479.81
473.31	479.81
473.49	418.96
473.67	376.83
473.85	393.21
474.03	458.74
474.21	379.17
474.39	437.68
474.57	430.66
474.75	355.76
474.93	444.70
475.12	442.36
475.30	456.40
475.48	416.62
475.66	351.08
475.84	407.25
476.02	449.38
476.20	458.74
476.38	428.32
476.56	479.81
476.74	397.89
476.92	334.70
477.10	393.21
477.28	451.72
477.46	484.49
477.64	383.85
477.82	447.04
478.00	421.30
478.18	379.17
478.36	388.53
478.54	421.30
478.72	341.72
478.90	416.62
479.08	472.79
479.26	425.98
479.44	461.09
479.62	444.70
479.80	346.40
479.98	376.83
480.16	414.27
480.34	407.25
480.52	386.19
480.70	402.57
480.88	344.06
481.06	351.08
481.24	400.23
481.41	484.49
481.59	475.13
481.77	355.76
481.95	447.04
482.13	433.00
482.31	458.74
482.49	369.80
482.67	322.99
482.85	430.66
483.03	390.87
483.21	428.32
483.39	475.13
483.57	437.68
483.74	472.79
483.92	449.38
484.10	372.15
484.28	442.36
484.46	400.23
484.64	411.93
484.82	395.55
485.00	367.46
485.18	379.17
485.35	404.91
485.53	374.49
485.71	386.19
485.89	376.83
486.07	472.79
486.25	479.81
486.43	440.02
486.61	430.66
486.78	486.83
486.96	404.91
487.14	383.85
487.32	402.57
487.50	390.87
487.68	423.64
487.85	379.17
488.03	507.90
488.21	428.32
488.39	451.72
488.57	358.10
488.75	423.64
488.92	512.58
489.10	397.89
489.28	416.62
489.46	416.62
489.64	397.89
489.81	395.55
489.99	421.30
490.17	430.66
490.35	393.21
490.53	414.27
490.70	402.57
490.88	414.27
491.06	411.93
491.24	400.23
491.41	491.51
491.59	423.64
491.77	339.38
491.95	379.17
492.13	400.23
492.30	402.57
492.48	421.30
492.66	397.89
492.84	355.76
493.01	411.93
493.19	381.51
493.37	451.72
493.54	402.57
493.72	498.53
493.90	369.80
494.08	517.26
494.25	444.70
494.43	437.68
494.61	383.85
494.79	437.68
494.96	327.68
495.14	440.02
495.32	381.51
495.49	421.30
495.67	416.62
495.85	400.23
496.02	400.23
496.20	409.59
496.38	376.83
496.55	423.64
496.73	484.49
496.91	444.70
497.09	449.38
497.26	407.25
497.44	390.87
497.62	372.15
497.79	404.91
497.97	374.49
498.14	447.04
498.32	461.09
498.50	393.21
498.67	484.49
498.85	360.44
499.03	411.93
499.20	411.93
499.38	393.21
499.56	400.23
499.73	442.36
499.91	400.23
500.08	411.93
500.26	423.64
500.44	374.49
500.61	477.47
500.79	414.27
500.97	409.59
501.14	484.49
501.32	369.80
501.49	388.53
501.67	421.30
501.84	376.83
502.02	386.19
502.20	418.96
502.37	442.36
502.55	463.43
502.72	395.55
502.90	435.34
503.07	449.38
503.25	498.53
503.43	440.02
503.60	414.27
503.78	449.38
503.95	402.57
504.13	372.15
504.30	423.64
504.48	454.06
504.65	411.93
504.83	416.62
505.01	451.72
505.18	395.55
505.36	400.23
505.53	402.57
505.71	416.62
505.88	472.79
506.06	386.19
506.23	374.49
506.41	395.55
506.58	479.81
506.76	435.34
506.93	433.00
507.11	416.62
507.28	468.11
507.46	418.96
507.63	388.53
507.81	339.38
507.98	489.17
508.16	374.49
508.33	449.38
508.50	407.25
508.68	451.72
508.85	418.96
509.03	395.55
509.20	407.25
509.38	456.40
509.55	430.66
509.73	397.89
509.90	491.51
510.08	374.49
510.25	404.91
510.42	367.46
510.60	447.04
510.77	358.10
510.95	390.87
511.12	400.23
511.30	402.57
511.47	416.62
511.64	430.66
511.82	449.38
511.99	362.78
512.17	388.53
512.34	390.87
512.51	346.40
512.69	353.42
512.86	407.25
513.04	388.53
513.21	386.19
513.38	372.15
513.56	442.36
513.73	386.19
513.90	383.85
514.08	404.91
514.25	442.36
514.43	477.47
514.60	444.70
514.77	433.00
514.95	355.76
515.12	379.17
515.29	418.96
515.47	374.49
515.64	447.04
515.81	421.30
515.99	454.06
516.16	435.34
516.33	477.47
516.51	390.87
516.68	365.12
516.85	454.06
517.03	365.12
517.20	428.32
517.37	451.72
517.54	421.30
517.72	374.49
517.89	379.17
518.06	421.30
518.24	484.49
518.41	423.64
518.58	421.30
518.75	315.97
518.93	421.30
519.10	433.00
519.27	372.15
519.45	351.08
519.62	470.45
519.79	454.06
519.96	358.10
520.14	409.59
520.31	456.40
520.48	416.62
520.65	433.00
520.83	374.49
521.00	353.42
521.17	393.21
521.34	425.98
521.52	416.62
521.69	430.66
521.86	416.62
522.03	428.32
522.20	489.17
522.38	440.02
522.55	409.59
522.72	327.68
522.89	407.25
523.07	407.25
523.24	358.10
523.41	362.78
523.58	407.25
523.75	437.68
523.92	463.43
524.10	423.64
524.27	425.98
524.44	425.98
524.61	458.74
524.78	379.17
524.96	486.83
525.13	482.15
525.30	390.87
525.47	425.98
525.64	414.27
525.81	437.68
525.98	435.34
526.16	456.40
526.33	393.21
526.50	372.15
526.67	411.93
526.84	421.30
527.01	348.74
527.18	454.06
527.36	458.74
527.53	388.53
527.70	470.45
527.87	423.64
528.04	449.38
528.21	430.66
528.38	449.38
528.55	416.62
528.72	475.13
528.89	510.24
529.07	393.21
529.24	454.06
529.41	395.55
529.58	442.36
529.75	390.87
529.92	440.02
530.09	440.02
530.26	411.93
530.43	433.00
530.60	369.80
530.77	440.02
530.94	437.68
531.11	348.74
531.28	456.40
531.46	402.57
531.63	472.79
531.80	358.10
531.97	433.00
532.14	379.17
532.31	437.68
532.48	425.98
532.65	442.36
532.82	374.49
532.99	465.77
533.16	526.62
533.33	365.12
533.50	423.64
533.67	360.44
533.84	451.72
534.01	423.64
534.18	440.02
534.35	440.02
534.52	433.00
534.69	428.32
534.86	397.89
535.03	360.44
535.20	411.93
535.37	472.79
535.54	390.87
535.71	337.04
535.88	395.55
536.05	395.55
536.22	369.80
536.38	409.59
536.55	348.74
536.72	418.96
536.89	414.27
537.06	353.42
537.23	393.21
537.40	421.30
537.57	416.62
537.74	524.28
537.91	512.58
538.08	414.27
538.25	407.25
538.42	496.19
538.59	465.77
538.75	409.59
538.92	421.30
539.09	414.27
539.26	400.23
539.43	397.89
539.60	388.53
539.77	491.51
539.94	472.79
540.11	444.70
540.28	411.93
540.44	447.04
540.61	442.36
540.78	383.85
540.95	418.96
541.12	414.27
541.29	435.34
541.46	430.66
541.62	400.23
541.79	451.72
541.96	437.68
542.13	418.96
542.30	423.64
542.47	458.74
542.63	379.17
542.80	472.79
542.97	456.40
543.14	358.10
543.31	416.62
543.48	390.87
543.64	414.27
543.81	348.74
543.98	442.36
544.15	414.27
544.32	372.15
544.48	409.59
544.65	421.30
544.82	447.04
544.99	468.11
545.16	355.76
545.32	435.34
545.49	475.13
545.66	440.02
545.83	425.98
546.00	330.02
546.16	430.66
546.33	416.62
546.50	390.87
546.67	470.45
546.83	454.06
547.00	397.89
547.17	404.91
547.34	444.70
547.50	425.98
547.67	449.38
547.84	425.98
548.00	416.62
548.17	486.83
548.34	397.89
548.51	449.38
548.67	397.89
548.84	430.66
549.01	381.51
549.18	435.34
549.34	437.68
549.51	358.10
549.68	437.68
549.84	442.36
550.01	407.25
550.18	442.36
550.34	468.11
550.51	393.21
550.68	484.49
550.84	430.66
551.01	458.74
551.18	397.89
551.34	418.96
551.51	444.70
551.68	425.98
551.84	416.62
552.01	386.19
552.18	393.21
552.34	341.72
552.51	416.62
552.68	425.98
552.84	404.91
553.01	395.55
553.18	456.40
553.34	409.59
553.51	318.31
553.67	428.32
553.84	442.36
554.01	402.57
554.17	346.40
554.34	379.17
554.51	437.68
554.67	425.98
554.84	418.96
555.00	496.19
555.17	463.43
555.33	444.70
555.50	477.47
555.67	397.89
555.83	358.10
556.00	447.04
556.16	496.19
556.33	456.40
556.50	430.66
556.66	358.10
556.83	465.77
556.99	379.17
557.16	411.93
557.32	421.30
557.49	404.91
557.65	456.40
557.82	409.59
557.98	491.51
558.15	346.40
558.32	423.64
558.48	447.04
558.65	440.02
558.81	355.76
558.98	381.51
559.14	493.85
559.31	393.21
559.47	456.40
559.64	486.83
559.80	386.19
559.97	390.87
560.13	400.23
560.30	458.74
560.46	486.83
560.63	409.59
560.79	358.10
560.96	327.68
561.12	362.78
561.29	444.70
561.45	449.38
561.61	334.70
561.78	510.24
561.94	358.10
562.11	421.30
562.27	437.68
562.44	393.21
562.60	376.83
562.77	503.22
562.93	507.90
563.10	388.53
563.26	402.57
563.42	411.93
563.59	472.79
563.75	463.43
563.92	379.17
564.08	449.38
564.24	416.62
564.41	486.83
564.57	437.68
564.74	339.38
564.90	433.00
565.07	358.10
565.23	400.23
565.39	437.68
565.56	433.00
565.72	409.59
565.88	411.93
566.05	374.49
566.21	425.98
566.38	447.04
566.54	416.62
566.70	409.59
566.87	407.25
567.03	418.96
567.19	393.21
567.36	423.64
567.52	440.02
567.68	437.68
567.85	440.02
568.01	355.76
568.17	388.53
568.34	407.25
568.50	437.68
568.66	400.23
568.83	414.27
568.99	376.83
569.15	451.72
569.32	430.66
569.48	388.53
569.64	463.43
569.81	416.62
569.97	355.76
570.13	442.36
570.30	416.62
570.46	388.53
570.62	313.63
570.78	402.57
570.95	365.12
571.11	486.83
571.27	449.38
571.43	355.76
571.60	395.55
571.76	458.74
571.92	407.25
572.09	486.83
572.25	449.38
572.41	393.21
572.57	444.70
572.74	496.19
572.90	379.17
573.06	418.96
573.22	491.51
573.38	411.93
573.55	416.62
573.71	456.40
573.87	493.85
574.03	400.23
574.20	407.25
574.36	461.09
574.52	365.12
574.68	353.42
574.84	440.02
575.01	376.83
575.17	524.28
575.33	414.27
575.49	418.96
575.65	393.21
575.82	374.49
575.98	416.62
576.14	400.23
576.30	447.04
576.46	395.55
576.62	346.40
576.79	479.81
576.95	369.80
577.11	465.77
577.27	423.64
577.43	400.23
577.59	496.19
577.75	381.51
577.92	348.74
578.08	451.72
578.24	440.02
578.40	440.02
578.56	458.74
578.72	390.87
578.88	400.23
579.04	407.25
579.21	416.62
579.37	428.32
579.53	421.30
579.69	393.21
579.85	395.55
580.01	381.51
580.17	355.76
580.33	465.77
580.49	393.21
580.65	449.38
580.82	421.30
580.98	451.72
581.14	423.64
581.30	358.10
581.46	330.02
581.62	447.04
581.78	407.25
581.94	425.98
582.10	418.96
582.26	341.72
582.42	435.34
582.58	428.32
582.74	402.57
582.90	510.24
583.06	470.45
583.22	407.25
583.38	407.25
583.54	447.04
583.70	486.83
583.86	428.32
584.02	376.83
584.18	360.44
584.34	400.23
584.50	437.68
584.66	360.44
584.82	353.42
584.98	409.59
585.14	421.30
585.30	470.45
585.46	409.59
585.62	393.21
585.78	393.21
585.94	379.17
586.10	402.57
586.26	365.12
586.42	421.30
586.58	397.89
586.74	507.90
586.90	456.40
587.06	421.30
587.22	346.40
587.38	381.51
587.54	409.59
587.70	472.79
587.86	425.98
588.02	348.74
588.18	383.85
588.34	414.27
588.49	334.70
588.65	372.15
588.81	435.34
588.97	379.17
589.13	433.00
589.29	444.70
589.45	444.70
589.61	348.74
589.77	456.40
589.93	444.70
590.08	369.80
590.24	442.36
590.40	444.70
590.56	458.74
590.72	423.64
590.88	437.68
591.04	444.70
591.20	409.59
591.35	397.89
591.51	468.11
591.67	346.40
591.83	409.59
591.99	521.94
592.15	393.21
592.31	404.91
592.46	423.64
592.62	456.40
592.78	437.68
592.94	390.87
593.10	423.64
593.26	376.83
593.41	461.09
593.57	369.80
593.73	395.55
593.89	451.72
594.05	404.91
594.20	353.42
594.36	407.25
594.52	437.68
594.68	430.66
594.84	418.96
594.99	444.70
595.15	416.62
595.31	500.87
595.47	468.11
595.62	435.34
595.78	402.57
595.94	386.19
596.10	428.32
596.25	372.15
596.41	477.47
596.57	409.59
596.73	367.46
596.88	407.25
597.04	418.96
597.20	458.74
597.36	482.15
597.51	472.79
597.67	461.09
597.83	404.91
597.99	365.12
598.14	402.57
598.30	465.77
598.46	437.68
598.61	409.59
598.77	433.00
598.93	409.59
599.09	393.21
599.24	414.27
599.40	421.30
599.56	491.51
599.71	451.72
599.87	400.23
600.03	447.04
600.18	444.70
600.34	390.87
600.50	425.98
600.65	435.34
600.81	421.30
600.97	468.11
601.12	362.78
601.28	435.34
601.44	472.79
601.59	376.83
601.75	402.57
601.91	407.25
602.06	418.96
602.22	435.34
602.37	416.62
602.53	374.49
602.69	374.49
602.84	416.62
603.00	409.59
603.16	337.04
603.31	444.70
603.47	388.53
603.62	444.70
603.78	400.23
603.94	407.25
604.09	376.83
604.25	418.96
604.40	449.38
604.56	416.62
604.71	423.64
604.87	463.43
605.03	435.34
605.18	454.06
605.34	442.36
605.49	435.34
605.65	381.51
605.80	430.66
605.96	367.46
606.12	404.91
606.27	379.17
606.43	416.62
606.58	344.06
606.74	454.06
606.89	430.66
607.05	402.57
607.20	510.24
607.36	449.38
607.51	428.32
607.67	416.62
607.82	395.55
607.98	435.34
608.13	482.15
608.29	409.59
608.44	454.06
608.60	416.62
608.75	454.06
608.91	393.21
609.06	407.25
609.22	505.56
609.37	393.21
609.53	421.30
609.68	482.15
609.84	428.32
609.99	454.06
610.15	425.98
