SpectraSuite Data File
++++++++++++++++++++++++++++++++++++
Date: Fri Oct 25 12:11:32 EDT 2013
User: price-jones
Dark Spectrum Present: No
Reference Spectrum Present: No
Number of Sampled Component Spectra: 1
Spectrometers: USB2+H05261
Integration Time (usec): 100000 (USB2+H05261)
Spectra Averaged: 1 (USB2+H05261)
Boxcar Smoothing: 0 (USB2+H05261)
Correct for Electrical Dark: No (USB2+H05261)
Strobe/Lamp Enabled: No (USB2+H05261)
Correct for Detector Non-linearity: No (USB2+H05261)
Correct for Stray Light: No (USB2+H05261)
Number of Pixels in Processed Spectrum: 2048
>>>>>Begin Processed Spectral Data<<<<<
365.73	339.38
365.92	339.38
366.12	339.38
366.32	180.22
366.52	224.69
366.72	248.10
366.91	215.33
367.11	278.52
367.31	259.80
367.51	285.55
367.70	259.80
367.90	283.20
368.10	236.39
368.30	330.02
368.49	269.16
368.69	252.78
368.89	292.57
369.09	273.84
369.28	287.89
369.48	243.42
369.68	266.82
369.87	280.86
370.07	255.12
370.27	294.91
370.47	325.33
370.66	383.85
370.86	390.87
371.06	393.21
371.25	367.46
371.45	299.59
371.65	433.00
371.84	407.25
372.04	355.76
372.24	407.25
372.44	402.57
372.63	484.49
372.83	383.85
373.03	425.98
373.22	390.87
373.42	437.68
373.62	362.78
373.81	388.53
374.01	411.93
374.21	444.70
374.40	372.15
374.60	418.96
374.79	470.45
374.99	395.55
375.19	402.57
375.38	416.62
375.58	407.25
375.78	456.40
375.97	442.36
376.17	433.00
376.37	409.59
376.56	397.89
376.76	425.98
376.95	430.66
377.15	451.72
377.35	458.74
377.54	435.34
377.74	355.76
377.93	447.04
378.13	416.62
378.33	397.89
378.52	437.68
378.72	423.64
378.91	423.64
379.11	421.30
379.31	400.23
379.50	325.33
379.70	484.49
379.89	470.45
380.09	407.25
380.28	390.87
380.48	402.57
380.68	407.25
380.87	395.55
381.07	344.06
381.26	395.55
381.46	393.21
381.65	472.79
381.85	388.53
382.04	430.66
382.24	428.32
382.43	404.91
382.63	428.32
382.83	339.38
383.02	425.98
383.22	456.40
383.41	463.43
383.61	444.70
383.80	425.98
384.00	409.59
384.19	451.72
384.39	379.17
384.58	386.19
384.78	479.81
384.97	351.08
385.17	470.45
385.36	428.32
385.56	435.34
385.75	355.76
385.95	383.85
386.14	409.59
386.34	409.59
386.53	344.06
386.72	407.25
386.92	468.11
387.11	444.70
387.31	390.87
387.50	449.38
387.70	393.21
387.89	402.57
388.09	381.51
388.28	376.83
388.48	327.68
388.67	365.12
388.86	397.89
389.06	449.38
389.25	374.49
389.45	423.64
389.64	409.59
389.84	440.02
390.03	379.17
390.22	433.00
390.42	395.55
390.61	362.78
390.81	365.12
391.00	428.32
391.19	456.40
391.39	358.10
391.58	404.91
391.78	423.64
391.97	339.38
392.16	325.33
392.36	489.17
392.55	369.80
392.75	397.89
392.94	421.30
393.13	447.04
393.33	421.30
393.52	360.44
393.71	470.45
393.91	423.64
394.10	388.53
394.29	428.32
394.49	381.51
394.68	351.08
394.88	428.32
395.07	383.85
395.26	423.64
395.46	358.10
395.65	442.36
395.84	444.70
396.04	440.02
396.23	397.89
396.42	367.46
396.62	458.74
396.81	402.57
397.00	430.66
397.19	463.43
397.39	404.91
397.58	414.27
397.77	418.96
397.97	395.55
398.16	355.76
398.35	458.74
398.55	337.04
398.74	418.96
398.93	428.32
399.12	386.19
399.32	428.32
399.51	402.57
399.70	435.34
399.90	397.89
400.09	442.36
400.28	390.87
400.47	337.04
400.67	409.59
400.86	409.59
401.05	416.62
401.24	451.72
401.44	395.55
401.63	423.64
401.82	327.68
402.01	409.59
402.21	397.89
402.40	421.30
402.59	454.06
402.78	402.57
402.97	461.09
403.17	395.55
403.36	475.13
403.55	440.02
403.74	411.93
403.93	383.85
404.13	411.93
404.32	386.19
404.51	376.83
404.70	433.00
404.89	355.76
405.09	528.96
405.28	416.62
405.47	390.87
405.66	334.70
405.85	470.45
406.05	477.47
406.24	411.93
406.43	390.87
406.62	454.06
406.81	440.02
407.00	428.32
407.20	425.98
407.39	386.19
407.58	435.34
407.77	409.59
407.96	423.64
408.15	418.96
408.34	451.72
408.54	451.72
408.73	390.87
408.92	376.83
409.11	393.21
409.30	521.94
409.49	402.57
409.68	414.27
409.87	402.57
410.07	362.78
410.26	425.98
410.45	334.70
410.64	334.70
410.83	348.74
411.02	404.91
411.21	400.23
411.40	435.34
411.59	404.91
411.78	409.59
411.98	416.62
412.17	395.55
412.36	451.72
412.55	435.34
412.74	428.32
412.93	414.27
413.12	440.02
413.31	435.34
413.50	402.57
413.69	458.74
413.88	454.06
414.07	402.57
414.26	402.57
414.45	379.17
414.64	465.77
414.83	451.72
415.02	400.23
415.22	430.66
415.41	461.09
415.60	383.85
415.79	390.87
415.98	428.32
416.17	425.98
416.36	409.59
416.55	381.51
416.74	454.06
416.93	447.04
417.12	484.49
417.31	418.96
417.50	409.59
417.69	486.83
417.88	409.59
418.07	423.64
418.26	423.64
418.45	437.68
418.64	397.89
418.83	416.62
419.02	393.21
419.21	369.80
419.39	414.27
419.58	435.34
419.77	386.19
419.96	447.04
420.15	447.04
420.34	444.70
420.53	442.36
420.72	456.40
420.91	416.62
421.10	447.04
421.29	374.49
421.48	400.23
421.67	435.34
421.86	362.78
422.05	383.85
422.24	444.70
422.43	386.19
422.61	409.59
422.80	433.00
422.99	372.15
423.18	360.44
423.37	400.23
423.56	423.64
423.75	458.74
423.94	414.27
424.13	388.53
424.32	367.46
424.50	393.21
424.69	386.19
424.88	407.25
425.07	414.27
425.26	418.96
425.45	433.00
425.64	447.04
425.83	400.23
426.01	461.09
426.20	386.19
426.39	451.72
426.58	325.33
426.77	442.36
426.96	433.00
427.15	430.66
427.33	416.62
427.52	402.57
427.71	379.17
427.90	425.98
428.09	423.64
428.28	421.30
428.46	449.38
428.65	407.25
428.84	339.38
429.03	400.23
429.22	344.06
429.40	421.30
429.59	416.62
429.78	507.90
429.97	372.15
430.16	416.62
430.34	400.23
430.53	428.32
430.72	421.30
430.91	430.66
431.10	433.00
431.28	327.68
431.47	390.87
431.66	409.59
431.85	423.64
432.03	421.30
432.22	428.32
432.41	386.19
432.60	353.42
432.79	386.19
432.97	400.23
433.16	468.11
433.35	442.36
433.54	444.70
433.72	409.59
433.91	425.98
434.10	440.02
434.28	393.21
434.47	395.55
434.66	395.55
434.85	393.21
435.03	376.83
435.22	468.11
435.41	482.15
435.59	423.64
435.78	465.77
435.97	447.04
436.16	393.21
436.34	430.66
436.53	365.12
436.72	400.23
436.90	409.59
437.09	404.91
437.28	341.72
437.46	322.99
437.65	414.27
437.84	395.55
438.02	414.27
438.21	454.06
438.40	346.40
438.58	423.64
438.77	418.96
438.96	390.87
439.14	428.32
439.33	425.98
439.52	330.02
439.70	463.43
439.89	468.11
440.08	472.79
440.26	440.02
440.45	400.23
440.63	423.64
440.82	374.49
441.01	461.09
441.19	355.76
441.38	388.53
441.57	428.32
441.75	423.64
441.94	430.66
442.12	430.66
442.31	402.57
442.50	414.27
442.68	433.00
442.87	367.46
443.05	400.23
443.24	435.34
443.43	430.66
443.61	402.57
443.80	400.23
443.98	390.87
444.17	407.25
444.35	482.15
444.54	386.19
444.73	414.27
444.91	393.21
445.10	479.81
445.28	369.80
445.47	374.49
445.65	468.11
445.84	390.87
446.02	360.44
446.21	461.09
446.39	409.59
446.58	351.08
446.77	428.32
446.95	416.62
447.14	421.30
447.32	491.51
447.51	400.23
447.69	447.04
447.88	395.55
448.06	351.08
448.25	379.17
448.43	379.17
448.62	407.25
448.80	388.53
448.99	465.77
449.17	365.12
449.36	444.70
449.54	449.38
449.73	437.68
449.91	393.21
450.10	442.36
450.28	479.81
450.46	423.64
450.65	463.43
450.83	418.96
451.02	388.53
451.20	374.49
451.39	456.40
451.57	395.55
451.76	418.96
451.94	346.40
452.13	418.96
452.31	440.02
452.49	402.57
452.68	428.32
452.86	437.68
453.05	416.62
453.23	458.74
453.42	374.49
453.60	341.72
453.78	409.59
453.97	421.30
454.15	414.27
454.34	423.64
454.52	449.38
454.70	395.55
454.89	425.98
455.07	374.49
455.26	386.19
455.44	482.15
455.62	454.06
455.81	425.98
455.99	437.68
456.17	365.12
456.36	390.87
456.54	449.38
456.73	437.68
456.91	348.74
457.09	348.74
457.28	393.21
457.46	454.06
457.64	430.66
457.83	449.38
458.01	418.96
458.19	425.98
458.38	456.40
458.56	425.98
458.74	402.57
458.93	430.66
459.11	360.44
459.29	367.46
459.48	463.43
459.66	479.81
459.84	379.17
460.03	458.74
460.21	416.62
460.39	383.85
460.57	409.59
460.76	437.68
460.94	440.02
461.12	463.43
461.31	421.30
461.49	348.74
461.67	393.21
461.85	369.80
462.04	388.53
462.22	779.40
462.40	477.47
462.59	517.26
462.77	447.04
462.95	374.49
463.13	414.27
463.32	435.34
463.50	447.04
463.68	435.34
463.86	442.36
464.05	449.38
464.23	418.96
464.41	430.66
464.59	477.47
464.78	404.91
464.96	360.44
465.14	386.19
465.32	423.64
465.50	437.68
465.69	423.64
465.87	461.09
466.05	402.57
466.23	430.66
466.41	477.47
466.60	395.55
466.78	348.74
466.96	489.17
467.14	369.80
467.32	456.40
467.51	444.70
467.69	470.45
467.87	421.30
468.05	376.83
468.23	433.00
468.41	475.13
468.60	435.34
468.78	444.70
468.96	454.06
469.14	463.43
469.32	404.91
469.50	355.76
469.69	418.96
469.87	482.15
470.05	442.36
470.23	418.96
470.41	463.43
470.59	414.27
470.77	327.68
470.95	505.56
471.14	470.45
471.32	503.22
471.50	423.64
471.68	486.83
471.86	360.44
472.04	334.70
472.22	411.93
472.40	362.78
472.58	381.51
472.77	376.83
472.95	374.49
473.13	404.91
473.31	454.06
473.49	386.19
473.67	437.68
473.85	421.30
474.03	491.51
474.21	344.06
474.39	379.17
474.57	491.51
474.75	395.55
474.93	355.76
475.12	451.72
475.30	449.38
475.48	390.87
475.66	393.21
475.84	451.72
476.02	451.72
476.20	390.87
476.38	482.15
476.56	491.51
476.74	374.49
476.92	409.59
477.10	458.74
477.28	400.23
477.46	374.49
477.64	402.57
477.82	355.76
478.00	430.66
478.18	433.00
478.36	491.51
478.54	411.93
478.72	451.72
478.90	414.27
479.08	451.72
479.26	475.13
479.44	461.09
479.62	416.62
479.80	355.76
479.98	369.80
480.16	423.64
480.34	440.02
480.52	407.25
480.70	402.57
480.88	454.06
481.06	493.85
481.24	449.38
481.41	393.21
481.59	376.83
481.77	390.87
481.95	463.43
482.13	477.47
482.31	379.17
482.49	360.44
482.67	447.04
482.85	358.10
483.03	355.76
483.21	456.40
483.39	521.94
483.57	430.66
483.74	407.25
483.92	423.64
484.10	428.32
484.28	402.57
484.46	397.89
484.64	344.06
484.82	397.89
485.00	397.89
485.18	454.06
485.35	400.23
485.53	388.53
485.71	458.74
485.89	416.62
486.07	299.59
486.25	433.00
486.43	447.04
486.61	411.93
486.78	458.74
486.96	414.27
487.14	388.53
487.32	430.66
487.50	404.91
487.68	493.85
487.85	395.55
488.03	451.72
488.21	493.85
488.39	416.62
488.57	414.27
488.75	402.57
488.92	465.77
489.10	313.63
489.28	491.51
489.46	407.25
489.64	477.47
489.81	393.21
489.99	411.93
490.17	475.13
490.35	531.30
490.53	383.85
490.70	435.34
490.88	379.17
491.06	470.45
491.24	433.00
491.41	421.30
491.59	421.30
491.77	362.78
491.95	386.19
492.13	470.45
492.30	381.51
492.48	409.59
492.66	442.36
492.84	390.87
493.01	465.77
493.19	404.91
493.37	442.36
493.54	470.45
493.72	423.64
493.90	404.91
494.08	362.78
494.25	369.80
494.43	379.17
494.61	433.00
494.79	418.96
494.96	388.53
495.14	440.02
495.32	428.32
495.49	421.30
495.67	376.83
495.85	423.64
496.02	393.21
496.20	463.43
496.38	451.72
496.55	463.43
496.73	376.83
496.91	430.66
497.09	444.70
497.26	421.30
497.44	367.46
497.62	379.17
497.79	369.80
497.97	383.85
498.14	433.00
498.32	411.93
498.50	440.02
498.67	416.62
498.85	411.93
499.03	381.51
499.20	344.06
499.38	351.08
499.56	372.15
499.73	456.40
499.91	411.93
500.08	456.40
500.26	484.49
500.44	407.25
500.61	479.81
500.79	454.06
500.97	425.98
501.14	444.70
501.32	397.89
501.49	433.00
501.67	404.91
501.84	447.04
502.02	379.17
502.20	416.62
502.37	404.91
502.55	465.77
502.72	409.59
502.90	332.36
503.07	421.30
503.25	423.64
503.43	402.57
503.60	360.44
503.78	404.91
503.95	393.21
504.13	397.89
504.30	437.68
504.48	425.98
504.65	454.06
504.83	477.47
505.01	400.23
505.18	458.74
505.36	308.95
505.53	395.55
505.71	409.59
505.88	414.27
506.06	341.72
506.23	397.89
506.41	381.51
506.58	397.89
506.76	433.00
506.93	395.55
507.11	430.66
507.28	393.21
507.46	395.55
507.63	418.96
507.81	477.47
507.98	386.19
508.16	418.96
508.33	402.57
508.50	456.40
508.68	472.79
508.85	433.00
509.03	442.36
509.20	430.66
509.38	372.15
509.55	451.72
509.73	444.70
509.90	418.96
510.08	409.59
510.25	381.51
510.42	376.83
510.60	430.66
510.77	365.12
510.95	416.62
511.12	524.28
511.30	383.85
511.47	400.23
511.64	409.59
511.82	390.87
511.99	489.17
512.17	348.74
512.34	369.80
512.51	362.78
512.69	360.44
512.86	465.77
513.04	421.30
513.21	411.93
513.38	348.74
513.56	421.30
513.73	440.02
513.90	367.46
514.08	428.32
514.25	449.38
514.43	425.98
514.60	383.85
514.77	414.27
514.95	428.32
515.12	306.61
515.29	411.93
515.47	411.93
515.64	369.80
515.81	414.27
515.99	400.23
516.16	400.23
516.33	433.00
516.51	397.89
516.68	337.04
516.85	451.72
517.03	393.21
517.20	430.66
517.37	365.12
517.54	353.42
517.72	428.32
517.89	372.15
518.06	454.06
518.24	491.51
518.41	402.57
518.58	498.53
518.75	440.02
518.93	404.91
519.10	390.87
519.27	393.21
519.45	470.45
519.62	463.43
519.79	421.30
519.96	327.68
520.14	374.49
520.31	409.59
520.48	390.87
520.65	461.09
520.83	355.76
521.00	425.98
521.17	383.85
521.34	484.49
521.52	458.74
521.69	489.17
521.86	440.02
522.03	407.25
522.20	388.53
522.38	418.96
522.55	416.62
522.72	388.53
522.89	489.17
523.07	461.09
523.24	428.32
523.41	362.78
523.58	369.80
523.75	461.09
523.92	475.13
524.10	461.09
524.27	444.70
524.44	372.15
524.61	449.38
524.78	365.12
524.96	442.36
525.13	397.89
525.30	468.11
525.47	388.53
525.64	425.98
525.81	418.96
525.98	456.40
526.16	402.57
526.33	402.57
526.50	404.91
526.67	395.55
526.84	390.87
527.01	468.11
527.18	451.72
527.36	444.70
527.53	409.59
527.70	421.30
527.87	407.25
528.04	416.62
528.21	379.17
528.38	423.64
528.55	376.83
528.72	386.19
528.89	447.04
529.07	358.10
529.24	435.34
529.41	505.56
529.58	423.64
529.75	346.40
529.92	428.32
530.09	458.74
530.26	468.11
530.43	404.91
530.60	402.57
530.77	428.32
530.94	463.43
531.11	475.13
531.28	353.42
531.46	449.38
531.63	388.53
531.80	447.04
531.97	379.17
532.14	379.17
532.31	423.64
532.48	440.02
532.65	404.91
532.82	407.25
532.99	325.33
533.16	388.53
533.33	418.96
533.50	414.27
533.67	421.30
533.84	388.53
534.01	425.98
534.18	463.43
534.35	407.25
534.52	369.80
534.69	442.36
534.86	423.64
535.03	414.27
535.20	418.96
535.37	475.13
535.54	437.68
535.71	425.98
535.88	465.77
536.05	411.93
536.22	386.19
536.38	414.27
536.55	482.15
536.72	362.78
536.89	428.32
537.06	428.32
537.23	425.98
537.40	344.06
537.57	360.44
537.74	447.04
537.91	440.02
538.08	404.91
538.25	470.45
538.42	435.34
538.59	395.55
538.75	430.66
538.92	367.46
539.09	411.93
539.26	365.12
539.43	430.66
539.60	444.70
539.77	395.55
539.94	407.25
540.11	463.43
540.28	411.93
540.44	477.47
540.61	437.68
540.78	367.46
540.95	390.87
541.12	521.94
541.29	414.27
541.46	468.11
541.62	388.53
541.79	505.56
541.96	374.49
542.13	393.21
542.30	437.68
542.47	463.43
542.63	437.68
542.80	395.55
542.97	423.64
543.14	433.00
543.31	437.68
543.48	414.27
543.64	479.81
543.81	416.62
543.98	425.98
544.15	414.27
544.32	395.55
544.48	416.62
544.65	442.36
544.82	414.27
544.99	433.00
545.16	388.53
545.32	407.25
545.49	449.38
545.66	447.04
545.83	386.19
546.00	379.17
546.16	444.70
546.33	416.62
546.50	407.25
546.67	404.91
546.83	449.38
547.00	360.44
547.17	351.08
547.34	433.00
547.50	360.44
547.67	386.19
547.84	353.42
548.00	430.66
548.17	397.89
548.34	409.59
548.51	395.55
548.67	425.98
548.84	440.02
549.01	395.55
549.18	454.06
549.34	458.74
549.51	383.85
549.68	461.09
549.84	449.38
550.01	372.15
550.18	458.74
550.34	444.70
550.51	304.27
550.68	407.25
550.84	390.87
551.01	425.98
551.18	414.27
551.34	437.68
551.51	449.38
551.68	456.40
551.84	442.36
552.01	416.62
552.18	411.93
552.34	440.02
552.51	388.53
552.68	407.25
552.84	369.80
553.01	442.36
553.18	442.36
553.34	449.38
553.51	355.76
553.67	421.30
553.84	386.19
554.01	400.23
554.17	444.70
554.34	409.59
554.51	402.57
554.67	418.96
554.84	383.85
555.00	414.27
555.17	425.98
555.33	463.43
555.50	461.09
555.67	475.13
555.83	397.89
556.00	456.40
556.16	540.66
556.33	440.02
556.50	358.10
556.66	433.00
556.83	402.57
556.99	397.89
557.16	393.21
557.32	344.06
557.49	435.34
557.65	475.13
557.82	404.91
557.98	395.55
558.15	475.13
558.32	381.51
558.48	454.06
558.65	510.24
558.81	388.53
558.98	454.06
559.14	447.04
559.31	421.30
559.47	386.19
559.64	334.70
559.80	376.83
559.97	358.10
560.13	409.59
560.30	435.34
560.46	423.64
560.63	400.23
560.79	430.66
560.96	449.38
561.12	435.34
561.29	393.21
561.45	416.62
561.61	512.58
561.78	440.02
561.94	465.77
562.11	407.25
562.27	395.55
562.44	449.38
562.60	388.53
562.77	444.70
562.93	451.72
563.10	425.98
563.26	437.68
563.42	421.30
563.59	416.62
563.75	418.96
563.92	416.62
564.08	372.15
564.24	414.27
564.41	437.68
564.57	423.64
564.74	376.83
564.90	421.30
565.07	444.70
565.23	430.66
565.39	414.27
565.56	360.44
565.72	437.68
565.88	416.62
566.05	351.08
566.21	463.43
566.38	447.04
566.54	479.81
566.70	395.55
566.87	416.62
567.03	442.36
567.19	348.74
567.36	440.02
567.52	383.85
567.68	423.64
567.85	315.97
568.01	461.09
568.17	484.49
568.34	423.64
568.50	440.02
568.66	390.87
568.83	493.85
568.99	386.19
569.15	458.74
569.32	372.15
569.48	386.19
569.64	376.83
569.81	425.98
569.97	393.21
570.13	393.21
570.30	376.83
570.46	372.15
570.62	355.76
570.78	411.93
570.95	461.09
571.11	454.06
571.27	456.40
571.43	379.17
571.60	454.06
571.76	435.34
571.92	374.49
572.09	440.02
572.25	379.17
572.41	411.93
572.57	360.44
572.74	461.09
572.90	449.38
573.06	346.40
573.22	444.70
573.38	482.15
573.55	451.72
573.71	416.62
573.87	379.17
574.03	437.68
574.20	430.66
574.36	442.36
574.52	449.38
574.68	472.79
574.84	425.98
575.01	388.53
575.17	397.89
575.33	379.17
575.49	451.72
575.65	444.70
575.82	407.25
575.98	379.17
576.14	465.77
576.30	428.32
576.46	383.85
576.62	395.55
576.79	421.30
576.95	423.64
577.11	437.68
577.27	503.22
577.43	428.32
577.59	360.44
577.75	505.56
577.92	479.81
578.08	423.64
578.24	341.72
578.40	411.93
578.56	390.87
578.72	442.36
578.88	472.79
579.04	430.66
579.21	470.45
579.37	491.51
579.53	425.98
579.69	458.74
579.85	407.25
580.01	365.12
580.17	416.62
580.33	362.78
580.49	383.85
580.65	369.80
580.82	442.36
580.98	376.83
581.14	435.34
581.30	423.64
581.46	479.81
581.62	416.62
581.78	428.32
581.94	397.89
582.10	486.83
582.26	435.34
582.42	397.89
582.58	383.85
582.74	423.64
582.90	486.83
583.06	369.80
583.22	393.21
583.38	437.68
583.54	397.89
583.70	442.36
583.86	470.45
584.02	409.59
584.18	376.83
584.34	418.96
584.50	435.34
584.66	458.74
584.82	369.80
584.98	402.57
585.14	418.96
585.30	390.87
585.46	433.00
585.62	425.98
585.78	381.51
585.94	407.25
586.10	470.45
586.26	428.32
586.42	409.59
586.58	421.30
586.74	348.74
586.90	447.04
587.06	461.09
587.22	444.70
587.38	407.25
587.54	379.17
587.70	376.83
587.86	468.11
588.02	407.25
588.18	423.64
588.34	416.62
588.49	397.89
588.65	367.46
588.81	468.11
588.97	362.78
589.13	421.30
589.29	463.43
589.45	416.62
589.61	451.72
589.77	454.06
589.93	437.68
590.08	390.87
590.24	341.72
590.40	395.55
590.56	449.38
590.72	404.91
590.88	402.57
591.04	416.62
591.20	397.89
591.35	428.32
591.51	400.23
591.67	447.04
591.83	451.72
591.99	444.70
592.15	423.64
592.31	425.98
592.46	425.98
592.62	444.70
592.78	397.89
592.94	379.17
593.10	435.34
593.26	330.02
593.41	404.91
593.57	369.80
593.73	433.00
593.89	404.91
594.05	404.91
594.20	449.38
594.36	423.64
594.52	425.98
594.68	449.38
594.84	390.87
594.99	435.34
595.15	423.64
595.31	421.30
595.47	472.79
595.62	421.30
595.78	376.83
595.94	402.57
596.10	414.27
596.25	416.62
596.41	482.15
596.57	447.04
596.73	458.74
596.88	332.36
597.04	348.74
597.20	395.55
597.36	458.74
597.51	402.57
597.67	414.27
597.83	465.77
597.99	449.38
598.14	395.55
598.30	475.13
598.46	411.93
598.61	379.17
598.77	418.96
598.93	416.62
599.09	383.85
599.24	404.91
599.40	489.17
599.56	470.45
599.71	428.32
599.87	423.64
600.03	416.62
600.18	449.38
600.34	440.02
600.50	372.15
600.65	404.91
600.81	374.49
600.97	376.83
601.12	418.96
601.28	482.15
601.44	447.04
601.59	418.96
601.75	418.96
601.91	484.49
602.06	425.98
602.22	543.00
602.37	472.79
602.53	355.76
602.69	444.70
602.84	407.25
603.00	367.46
603.16	428.32
603.31	360.44
603.47	444.70
603.62	416.62
603.78	425.98
603.94	404.91
604.09	362.78
604.25	435.34
604.40	388.53
604.56	465.77
604.71	470.45
604.87	416.62
605.03	383.85
605.18	379.17
605.34	463.43
605.49	383.85
605.65	465.77
605.80	376.83
605.96	372.15
606.12	423.64
606.27	374.49
606.43	454.06
606.58	414.27
606.74	440.02
606.89	353.42
607.05	435.34
607.20	461.09
607.36	414.27
607.51	428.32
607.67	414.27
607.82	444.70
607.98	395.55
608.13	351.08
608.29	414.27
608.44	404.91
608.60	421.30
608.75	456.40
608.91	449.38
609.06	423.64
609.22	404.91
609.37	437.68
609.53	425.98
609.68	369.80
609.84	365.12
609.99	372.15
610.15	402.57
