SpectraSuite Data File
++++++++++++++++++++++++++++++++++++
Date: Fri Oct 25 12:11:23 EDT 2013
User: price-jones
Dark Spectrum Present: No
Reference Spectrum Present: No
Number of Sampled Component Spectra: 1
Spectrometers: USB2+H05261
Integration Time (usec): 100000 (USB2+H05261)
Spectra Averaged: 1 (USB2+H05261)
Boxcar Smoothing: 0 (USB2+H05261)
Correct for Electrical Dark: No (USB2+H05261)
Strobe/Lamp Enabled: No (USB2+H05261)
Correct for Detector Non-linearity: No (USB2+H05261)
Correct for Stray Light: No (USB2+H05261)
Number of Pixels in Processed Spectrum: 2048
>>>>>Begin Processed Spectral Data<<<<<
365.73	320.65
365.92	320.65
366.12	320.65
366.32	287.89
366.52	299.59
366.72	297.25
366.91	255.12
367.11	238.73
367.31	257.46
367.51	234.05
367.70	278.52
367.90	203.63
368.10	222.35
368.30	278.52
368.49	184.90
368.69	264.48
368.89	245.76
369.09	227.03
369.28	177.88
369.48	259.80
369.68	313.63
369.87	182.56
370.07	318.31
370.27	444.70
370.47	299.59
370.66	353.42
370.86	409.59
371.06	341.72
371.25	353.42
371.45	339.38
371.65	423.64
371.84	313.63
372.04	437.68
372.24	454.06
372.44	423.64
372.63	421.30
372.83	444.70
373.03	379.17
373.22	449.38
373.42	376.83
373.62	428.32
373.81	397.89
374.01	435.34
374.21	414.27
374.40	416.62
374.60	433.00
374.79	444.70
374.99	355.76
375.19	475.13
375.38	409.59
375.58	433.00
375.78	458.74
375.97	381.51
376.17	500.87
376.37	440.02
376.56	416.62
376.76	367.46
376.95	360.44
377.15	428.32
377.35	423.64
377.54	423.64
377.74	330.02
377.93	402.57
378.13	379.17
378.33	322.99
378.52	435.34
378.72	437.68
378.91	388.53
379.11	402.57
379.31	456.40
379.50	369.80
379.70	430.66
379.89	447.04
380.09	372.15
380.28	425.98
380.48	367.46
380.68	376.83
380.87	372.15
381.07	447.04
381.26	430.66
381.46	442.36
381.65	397.89
381.85	437.68
382.04	461.09
382.24	437.68
382.43	435.34
382.63	348.74
382.83	404.91
383.02	461.09
383.22	362.78
383.41	447.04
383.61	390.87
383.80	416.62
384.00	433.00
384.19	383.85
384.39	369.80
384.58	318.31
384.78	393.21
384.97	421.30
385.17	390.87
385.36	409.59
385.56	304.27
385.75	404.91
385.95	435.34
386.14	463.43
386.34	491.51
386.53	447.04
386.72	369.80
386.92	465.77
387.11	320.65
387.31	470.45
387.50	425.98
387.70	351.08
387.89	395.55
388.09	475.13
388.28	468.11
388.48	411.93
388.67	402.57
388.86	360.44
389.06	404.91
389.25	367.46
389.45	400.23
389.64	407.25
389.84	330.02
390.03	477.47
390.22	461.09
390.42	451.72
390.61	423.64
390.81	390.87
391.00	454.06
391.19	437.68
391.39	418.96
391.58	440.02
391.78	393.21
391.97	449.38
392.16	437.68
392.36	461.09
392.55	393.21
392.75	404.91
392.94	435.34
393.13	437.68
393.33	454.06
393.52	393.21
393.71	416.62
393.91	397.89
394.10	404.91
394.29	402.57
394.49	447.04
394.68	456.40
394.88	458.74
395.07	423.64
395.26	395.55
395.46	447.04
395.65	337.04
395.84	454.06
396.04	472.79
396.23	425.98
396.42	425.98
396.62	337.04
396.81	421.30
397.00	447.04
397.19	435.34
397.39	404.91
397.58	374.49
397.77	388.53
397.97	386.19
398.16	449.38
398.35	418.96
398.55	449.38
398.74	390.87
398.93	409.59
399.12	395.55
399.32	517.26
399.51	428.32
399.70	381.51
399.90	489.17
400.09	355.76
400.28	409.59
400.47	421.30
400.67	423.64
400.86	414.27
401.05	407.25
401.24	440.02
401.44	451.72
401.63	397.89
401.82	379.17
402.01	409.59
402.21	334.70
402.40	402.57
402.59	407.25
402.78	383.85
402.97	397.89
403.17	421.30
403.36	440.02
403.55	367.46
403.74	461.09
403.93	416.62
404.13	444.70
404.32	344.06
404.51	407.25
404.70	358.10
404.89	369.80
405.09	409.59
405.28	411.93
405.47	421.30
405.66	444.70
405.85	435.34
406.05	416.62
406.24	411.93
406.43	379.17
406.62	442.36
406.81	430.66
407.00	421.30
407.20	367.46
407.39	407.25
407.58	367.46
407.77	395.55
407.96	386.19
408.15	475.13
408.34	397.89
408.54	435.34
408.73	381.51
408.92	346.40
409.11	423.64
409.30	449.38
409.49	449.38
409.68	353.42
409.87	369.80
410.07	411.93
410.26	423.64
410.45	404.91
410.64	416.62
410.83	458.74
411.02	325.33
411.21	404.91
411.40	414.27
411.59	430.66
411.78	369.80
411.98	444.70
412.17	409.59
412.36	444.70
412.55	475.13
412.74	465.77
412.93	390.87
413.12	421.30
413.31	381.51
413.50	372.15
413.69	386.19
413.88	442.36
414.07	454.06
414.26	411.93
414.45	477.47
414.64	423.64
414.83	344.06
415.02	351.08
415.22	400.23
415.41	418.96
415.60	346.40
415.79	372.15
415.98	404.91
416.17	451.72
416.36	393.21
416.55	404.91
416.74	486.83
416.93	353.42
417.12	318.31
417.31	437.68
417.50	348.74
417.69	416.62
417.88	362.78
418.07	367.46
418.26	344.06
418.45	358.10
418.64	411.93
418.83	369.80
419.02	348.74
419.21	423.64
419.39	442.36
419.58	379.17
419.77	383.85
419.96	397.89
420.15	372.15
420.34	393.21
420.53	418.96
420.72	400.23
420.91	393.21
421.10	442.36
421.29	388.53
421.48	465.77
421.67	404.91
421.86	369.80
422.05	365.12
422.24	351.08
422.43	465.77
422.61	397.89
422.80	428.32
422.99	367.46
423.18	334.70
423.37	414.27
423.56	358.10
423.75	409.59
423.94	381.51
424.13	414.27
424.32	374.49
424.50	456.40
424.69	442.36
424.88	435.34
425.07	454.06
425.26	430.66
425.45	411.93
425.64	430.66
425.83	428.32
426.01	437.68
426.20	379.17
426.39	416.62
426.58	423.64
426.77	433.00
426.96	449.38
427.15	393.21
427.33	463.43
427.52	416.62
427.71	330.02
427.90	461.09
428.09	365.12
428.28	348.74
428.46	449.38
428.65	440.02
428.84	442.36
429.03	440.02
429.22	484.49
429.40	407.25
429.59	390.87
429.78	409.59
429.97	400.23
430.16	365.12
430.34	425.98
430.53	376.83
430.72	400.23
430.91	458.74
431.10	400.23
431.28	435.34
431.47	440.02
431.66	430.66
431.85	388.53
432.03	421.30
432.22	451.72
432.41	348.74
432.60	402.57
432.79	444.70
432.97	435.34
433.16	379.17
433.35	425.98
433.54	390.87
433.72	369.80
433.91	468.11
434.10	423.64
434.28	463.43
434.47	423.64
434.66	383.85
434.85	383.85
435.03	362.78
435.22	458.74
435.41	404.91
435.59	433.00
435.78	341.72
435.97	374.49
436.16	411.93
436.34	369.80
436.53	365.12
436.72	409.59
436.90	430.66
437.09	416.62
437.28	395.55
437.46	402.57
437.65	388.53
437.84	442.36
438.02	423.64
438.21	463.43
438.40	407.25
438.58	418.96
438.77	369.80
438.96	421.30
439.14	402.57
439.33	484.49
439.52	397.89
439.70	458.74
439.89	372.15
440.08	379.17
440.26	409.59
440.45	442.36
440.63	407.25
440.82	390.87
441.01	430.66
441.19	362.78
441.38	404.91
441.57	374.49
441.75	367.46
441.94	416.62
442.12	425.98
442.31	402.57
442.50	407.25
442.68	458.74
442.87	433.00
443.05	369.80
443.24	423.64
443.43	418.96
443.61	372.15
443.80	395.55
443.98	414.27
444.17	425.98
444.35	433.00
444.54	362.78
444.73	435.34
444.91	444.70
445.10	456.40
445.28	442.36
445.47	482.15
445.65	411.93
445.84	341.72
446.02	435.34
446.21	428.32
446.39	367.46
446.58	437.68
446.77	390.87
446.95	390.87
447.14	367.46
447.32	440.02
447.51	465.77
447.69	428.32
447.88	498.53
448.06	449.38
448.25	383.85
448.43	414.27
448.62	454.06
448.80	383.85
448.99	454.06
449.17	362.78
449.36	386.19
449.54	397.89
449.73	337.04
449.91	418.96
450.10	414.27
450.28	454.06
450.46	416.62
450.65	468.11
450.83	379.17
451.02	374.49
451.20	379.17
451.39	414.27
451.57	348.74
451.76	428.32
451.94	395.55
452.13	463.43
452.31	461.09
452.49	451.72
452.68	395.55
452.86	430.66
453.05	486.83
453.23	411.93
453.42	407.25
453.60	372.15
453.78	397.89
453.97	449.38
454.15	376.83
454.34	372.15
454.52	421.30
454.70	437.68
454.89	444.70
455.07	433.00
455.26	414.27
455.44	442.36
455.62	348.74
455.81	423.64
455.99	395.55
456.17	402.57
456.36	407.25
456.54	435.34
456.73	390.87
456.91	379.17
457.09	451.72
457.28	416.62
457.46	423.64
457.64	388.53
457.83	433.00
458.01	379.17
458.19	451.72
458.38	414.27
458.56	421.30
458.74	367.46
458.93	442.36
459.11	402.57
459.29	365.12
459.48	444.70
459.66	512.58
459.84	449.38
460.03	435.34
460.21	437.68
460.39	362.78
460.57	447.04
460.76	372.15
460.94	402.57
461.12	428.32
461.31	477.47
461.49	447.04
461.67	421.30
461.85	416.62
462.04	388.53
462.22	791.10
462.40	463.43
462.59	402.57
462.77	320.65
462.95	423.64
463.13	404.91
463.32	430.66
463.50	428.32
463.68	353.42
463.86	365.12
464.05	393.21
464.23	463.43
464.41	402.57
464.59	437.68
464.78	451.72
464.96	425.98
465.14	465.77
465.32	440.02
465.50	433.00
465.69	351.08
465.87	311.29
466.05	416.62
466.23	362.78
466.41	369.80
466.60	395.55
466.78	428.32
466.96	470.45
467.14	365.12
467.32	479.81
467.51	475.13
467.69	430.66
467.87	454.06
468.05	458.74
468.23	454.06
468.41	414.27
468.60	411.93
468.78	414.27
468.96	496.19
469.14	418.96
469.32	402.57
469.50	397.89
469.69	465.77
469.87	407.25
470.05	409.59
470.23	407.25
470.41	428.32
470.59	447.04
470.77	397.89
470.95	386.19
471.14	447.04
471.32	381.51
471.50	454.06
471.68	411.93
471.86	465.77
472.04	346.40
472.22	458.74
472.40	411.93
472.58	411.93
472.77	383.85
472.95	397.89
473.13	435.34
473.31	428.32
473.49	491.51
473.67	428.32
473.85	430.66
474.03	418.96
474.21	463.43
474.39	489.17
474.57	358.10
474.75	386.19
474.93	397.89
475.12	404.91
475.30	430.66
475.48	407.25
475.66	362.78
475.84	414.27
476.02	421.30
476.20	423.64
476.38	472.79
476.56	498.53
476.74	421.30
476.92	512.58
477.10	449.38
477.28	390.87
477.46	404.91
477.64	425.98
477.82	379.17
478.00	409.59
478.18	409.59
478.36	407.25
478.54	344.06
478.72	416.62
478.90	423.64
479.08	423.64
479.26	423.64
479.44	393.21
479.62	435.34
479.80	454.06
479.98	390.87
480.16	402.57
480.34	414.27
480.52	374.49
480.70	348.74
480.88	440.02
481.06	430.66
481.24	458.74
481.41	423.64
481.59	449.38
481.77	451.72
481.95	355.76
482.13	484.49
482.31	442.36
482.49	442.36
482.67	414.27
482.85	430.66
483.03	428.32
483.21	442.36
483.39	330.02
483.57	344.06
483.74	442.36
483.92	437.68
484.10	397.89
484.28	411.93
484.46	505.56
484.64	414.27
484.82	372.15
485.00	451.72
485.18	411.93
485.35	381.51
485.53	404.91
485.71	430.66
485.89	404.91
486.07	400.23
486.25	409.59
486.43	440.02
486.61	337.04
486.78	423.64
486.96	386.19
487.14	369.80
487.32	479.81
487.50	484.49
487.68	416.62
487.85	447.04
488.03	374.49
488.21	390.87
488.39	454.06
488.57	435.34
488.75	421.30
488.92	503.22
489.10	341.72
489.28	496.19
489.46	465.77
489.64	355.76
489.81	369.80
489.99	451.72
490.17	421.30
490.35	444.70
490.53	411.93
490.70	376.83
490.88	470.45
491.06	379.17
491.24	416.62
491.41	440.02
491.59	404.91
491.77	379.17
491.95	390.87
492.13	355.76
492.30	407.25
492.48	428.32
492.66	425.98
492.84	414.27
493.01	332.36
493.19	358.10
493.37	423.64
493.54	437.68
493.72	421.30
493.90	463.43
494.08	393.21
494.25	390.87
494.43	381.51
494.61	367.46
494.79	332.36
494.96	456.40
495.14	479.81
495.32	425.98
495.49	458.74
495.67	404.91
495.85	388.53
496.02	360.44
496.20	451.72
496.38	414.27
496.55	470.45
496.73	353.42
496.91	404.91
497.09	442.36
497.26	407.25
497.44	430.66
497.62	505.56
497.79	428.32
497.97	433.00
498.14	393.21
498.32	430.66
498.50	404.91
498.67	351.08
498.85	416.62
499.03	397.89
499.20	393.21
499.38	456.40
499.56	458.74
499.73	400.23
499.91	355.76
500.08	423.64
500.26	383.85
500.44	447.04
500.61	430.66
500.79	433.00
500.97	440.02
501.14	418.96
501.32	404.91
501.49	351.08
501.67	409.59
501.84	472.79
502.02	369.80
502.20	388.53
502.37	482.15
502.55	386.19
502.72	442.36
502.90	440.02
503.07	339.38
503.25	369.80
503.43	313.63
503.60	360.44
503.78	477.47
503.95	362.78
504.13	353.42
504.30	458.74
504.48	451.72
504.65	514.92
504.83	477.47
505.01	423.64
505.18	414.27
505.36	444.70
505.53	416.62
505.71	407.25
505.88	444.70
506.06	430.66
506.23	400.23
506.41	346.40
506.58	393.21
506.76	423.64
506.93	400.23
507.11	418.96
507.28	407.25
507.46	461.09
507.63	461.09
507.81	475.13
507.98	372.15
508.16	423.64
508.33	339.38
508.50	369.80
508.68	386.19
508.85	393.21
509.03	393.21
509.20	376.83
509.38	414.27
509.55	372.15
509.73	463.43
509.90	414.27
510.08	334.70
510.25	411.93
510.42	433.00
510.60	411.93
510.77	409.59
510.95	472.79
511.12	428.32
511.30	435.34
511.47	442.36
511.64	435.34
511.82	423.64
511.99	496.19
512.17	379.17
512.34	381.51
512.51	411.93
512.69	383.85
512.86	468.11
513.04	435.34
513.21	428.32
513.38	393.21
513.56	390.87
513.73	383.85
513.90	348.74
514.08	435.34
514.25	461.09
514.43	482.15
514.60	414.27
514.77	442.36
514.95	416.62
515.12	374.49
515.29	383.85
515.47	411.93
515.64	402.57
515.81	409.59
515.99	411.93
516.16	372.15
516.33	402.57
516.51	433.00
516.68	404.91
516.85	397.89
517.03	440.02
517.20	423.64
517.37	386.19
517.54	468.11
517.72	458.74
517.89	388.53
518.06	390.87
518.24	411.93
518.41	475.13
518.58	437.68
518.75	428.32
518.93	341.72
519.10	437.68
519.27	358.10
519.45	421.30
519.62	404.91
519.79	409.59
519.96	435.34
520.14	397.89
520.31	440.02
520.48	440.02
520.65	372.15
520.83	472.79
521.00	393.21
521.17	465.77
521.34	416.62
521.52	344.06
521.69	379.17
521.86	404.91
522.03	407.25
522.20	416.62
522.38	418.96
522.55	447.04
522.72	395.55
522.89	421.30
523.07	447.04
523.24	395.55
523.41	395.55
523.58	414.27
523.75	388.53
523.92	358.10
524.10	397.89
524.27	404.91
524.44	376.83
524.61	383.85
524.78	320.65
524.96	428.32
525.13	400.23
525.30	451.72
525.47	386.19
525.64	428.32
525.81	442.36
525.98	440.02
526.16	362.78
526.33	393.21
526.50	402.57
526.67	395.55
526.84	402.57
527.01	344.06
527.18	475.13
527.36	423.64
527.53	411.93
527.70	463.43
527.87	418.96
528.04	416.62
528.21	465.77
528.38	484.49
528.55	482.15
528.72	463.43
528.89	390.87
529.07	433.00
529.24	411.93
529.41	482.15
529.58	367.46
529.75	390.87
529.92	411.93
530.09	447.04
530.26	372.15
530.43	428.32
530.60	409.59
530.77	351.08
530.94	390.87
531.11	402.57
531.28	454.06
531.46	334.70
531.63	428.32
531.80	430.66
531.97	437.68
532.14	409.59
532.31	409.59
532.48	484.49
532.65	425.98
532.82	395.55
532.99	407.25
533.16	449.38
533.33	411.93
533.50	390.87
533.67	367.46
533.84	454.06
534.01	442.36
534.18	397.89
534.35	393.21
534.52	442.36
534.69	393.21
534.86	369.80
535.03	393.21
535.20	353.42
535.37	484.49
535.54	444.70
535.71	493.85
535.88	463.43
536.05	482.15
536.22	435.34
536.38	381.51
536.55	411.93
536.72	458.74
536.89	390.87
537.06	437.68
537.23	409.59
537.40	507.90
537.57	437.68
537.74	440.02
537.91	407.25
538.08	372.15
538.25	409.59
538.42	299.59
538.59	404.91
538.75	411.93
538.92	454.06
539.09	479.81
539.26	447.04
539.43	411.93
539.60	449.38
539.77	402.57
539.94	428.32
540.11	435.34
540.28	430.66
540.44	421.30
540.61	402.57
540.78	421.30
540.95	449.38
541.12	409.59
541.29	456.40
541.46	489.17
541.62	425.98
541.79	437.68
541.96	407.25
542.13	433.00
542.30	362.78
542.47	447.04
542.63	454.06
542.80	383.85
542.97	409.59
543.14	447.04
543.31	416.62
543.48	425.98
543.64	505.56
543.81	425.98
543.98	367.46
544.15	397.89
544.32	425.98
544.48	365.12
544.65	477.47
544.82	374.49
544.99	287.89
545.16	418.96
545.32	360.44
545.49	454.06
545.66	395.55
545.83	409.59
546.00	390.87
546.16	404.91
546.33	433.00
546.50	444.70
546.67	423.64
546.83	451.72
547.00	423.64
547.17	390.87
547.34	372.15
547.50	393.21
547.67	416.62
547.84	330.02
548.00	433.00
548.17	365.12
548.34	390.87
548.51	397.89
548.67	451.72
548.84	437.68
549.01	416.62
549.18	423.64
549.34	423.64
549.51	381.51
549.68	369.80
549.84	374.49
550.01	407.25
550.18	493.85
550.34	486.83
550.51	442.36
550.68	444.70
550.84	416.62
551.01	500.87
551.18	423.64
551.34	447.04
551.51	428.32
551.68	433.00
551.84	395.55
552.01	414.27
552.18	435.34
552.34	447.04
552.51	435.34
552.68	430.66
552.84	442.36
553.01	456.40
553.18	454.06
553.34	435.34
553.51	367.46
553.67	440.02
553.84	433.00
554.01	477.47
554.17	393.21
554.34	437.68
554.51	388.53
554.67	395.55
554.84	461.09
555.00	440.02
555.17	367.46
555.33	437.68
555.50	393.21
555.67	444.70
555.83	468.11
556.00	407.25
556.16	592.16
556.33	421.30
556.50	423.64
556.66	451.72
556.83	407.25
556.99	430.66
557.16	409.59
557.32	407.25
557.49	442.36
557.65	369.80
557.82	442.36
557.98	517.26
558.15	437.68
558.32	479.81
558.48	444.70
558.65	470.45
558.81	444.70
558.98	433.00
559.14	449.38
559.31	477.47
559.47	461.09
559.64	465.77
559.80	383.85
559.97	451.72
560.13	477.47
560.30	449.38
560.46	433.00
560.63	418.96
560.79	407.25
560.96	423.64
561.12	360.44
561.29	390.87
561.45	393.21
561.61	351.08
561.78	503.22
561.94	397.89
562.11	374.49
562.27	425.98
562.44	402.57
562.60	372.15
562.77	421.30
562.93	428.32
563.10	437.68
563.26	416.62
563.42	397.89
563.59	447.04
563.75	444.70
563.92	437.68
564.08	545.34
564.24	447.04
564.41	440.02
564.57	458.74
564.74	337.04
564.90	418.96
565.07	407.25
565.23	402.57
565.39	407.25
565.56	388.53
565.72	402.57
565.88	421.30
566.05	440.02
566.21	411.93
566.38	379.17
566.54	435.34
566.70	416.62
566.87	421.30
567.03	407.25
567.19	447.04
567.36	379.17
567.52	456.40
567.68	402.57
567.85	472.79
568.01	402.57
568.17	381.51
568.34	369.80
568.50	451.72
568.66	442.36
568.83	470.45
568.99	425.98
569.15	463.43
569.32	320.65
569.48	369.80
569.64	376.83
569.81	496.19
569.97	442.36
570.13	449.38
570.30	503.22
570.46	440.02
570.62	374.49
570.78	461.09
570.95	425.98
571.11	433.00
571.27	435.34
571.43	454.06
571.60	341.72
571.76	451.72
571.92	358.10
572.09	414.27
572.25	390.87
572.41	437.68
572.57	411.93
572.74	423.64
572.90	447.04
573.06	411.93
573.22	463.43
573.38	444.70
573.55	416.62
573.71	510.24
573.87	421.30
574.03	355.76
574.20	381.51
574.36	423.64
574.52	402.57
574.68	461.09
574.84	332.36
575.01	348.74
575.17	440.02
575.33	381.51
575.49	486.83
575.65	428.32
575.82	374.49
575.98	416.62
576.14	383.85
576.30	402.57
576.46	442.36
576.62	430.66
576.79	503.22
576.95	484.49
577.11	404.91
577.27	376.83
577.43	374.49
577.59	395.55
577.75	372.15
577.92	440.02
578.08	440.02
578.24	386.19
578.40	400.23
578.56	397.89
578.72	402.57
578.88	411.93
579.04	339.38
579.21	458.74
579.37	407.25
579.53	376.83
579.69	402.57
579.85	374.49
580.01	428.32
580.17	407.25
580.33	383.85
580.49	477.47
580.65	397.89
580.82	456.40
580.98	362.78
581.14	409.59
581.30	411.93
581.46	486.83
581.62	463.43
581.78	330.02
581.94	449.38
582.10	418.96
582.26	470.45
582.42	437.68
582.58	386.19
582.74	374.49
582.90	496.19
583.06	484.49
583.22	344.06
583.38	402.57
583.54	414.27
583.70	411.93
583.86	425.98
584.02	360.44
584.18	411.93
584.34	358.10
584.50	409.59
584.66	449.38
584.82	362.78
584.98	496.19
585.14	454.06
585.30	379.17
585.46	362.78
585.62	362.78
585.78	395.55
585.94	414.27
586.10	400.23
586.26	409.59
586.42	409.59
586.58	454.06
586.74	409.59
586.90	404.91
587.06	407.25
587.22	440.02
587.38	428.32
587.54	315.97
587.70	418.96
587.86	409.59
588.02	397.89
588.18	440.02
588.34	400.23
588.49	367.46
588.65	491.51
588.81	369.80
588.97	362.78
589.13	451.72
589.29	519.60
589.45	372.15
589.61	430.66
589.77	397.89
589.93	381.51
590.08	358.10
590.24	381.51
590.40	414.27
590.56	379.17
590.72	423.64
590.88	362.78
591.04	353.42
591.20	390.87
591.35	414.27
591.51	425.98
591.67	454.06
591.83	423.64
591.99	409.59
592.15	409.59
592.31	486.83
592.46	451.72
592.62	418.96
592.78	372.15
592.94	348.74
593.10	383.85
593.26	421.30
593.41	388.53
593.57	407.25
593.73	409.59
593.89	414.27
594.05	421.30
594.20	381.51
594.36	456.40
594.52	409.59
594.68	409.59
594.84	425.98
594.99	472.79
595.15	463.43
595.31	393.21
595.47	454.06
595.62	414.27
595.78	475.13
595.94	397.89
596.10	463.43
596.25	421.30
596.41	514.92
596.57	400.23
596.73	449.38
596.88	393.21
597.04	393.21
597.20	428.32
597.36	456.40
597.51	383.85
597.67	365.12
597.83	390.87
597.99	442.36
598.14	423.64
598.30	491.51
598.46	468.11
598.61	423.64
598.77	402.57
598.93	479.81
599.09	386.19
599.24	433.00
599.40	407.25
599.56	411.93
599.71	440.02
599.87	369.80
600.03	341.72
600.18	416.62
600.34	449.38
600.50	369.80
600.65	440.02
600.81	428.32
600.97	369.80
601.12	425.98
601.28	428.32
601.44	461.09
601.59	397.89
601.75	475.13
601.91	374.49
602.06	442.36
602.22	451.72
602.37	526.62
602.53	435.34
602.69	468.11
602.84	461.09
603.00	435.34
603.16	416.62
603.31	449.38
603.47	456.40
603.62	409.59
603.78	411.93
603.94	376.83
604.09	409.59
604.25	437.68
604.40	463.43
604.56	386.19
604.71	409.59
604.87	400.23
605.03	374.49
605.18	430.66
605.34	475.13
605.49	411.93
605.65	442.36
605.80	442.36
605.96	472.79
606.12	442.36
606.27	524.28
606.43	435.34
606.58	435.34
606.74	395.55
606.89	458.74
607.05	465.77
607.20	435.34
607.36	444.70
607.51	381.51
607.67	444.70
607.82	449.38
607.98	430.66
608.13	421.30
608.29	458.74
608.44	486.83
608.60	437.68
608.75	479.81
608.91	421.30
609.06	505.56
609.22	423.64
609.37	414.27
609.53	365.12
609.68	402.57
609.84	383.85
609.99	395.55
610.15	416.62
