SpectraSuite Data File
++++++++++++++++++++++++++++++++++++
Date: Fri Oct 25 12:10:15 EDT 2013
User: price-jones
Dark Spectrum Present: No
Reference Spectrum Present: No
Number of Sampled Component Spectra: 1
Spectrometers: USB2+H05261
Integration Time (usec): 100000 (USB2+H05261)
Spectra Averaged: 1 (USB2+H05261)
Boxcar Smoothing: 0 (USB2+H05261)
Correct for Electrical Dark: No (USB2+H05261)
Strobe/Lamp Enabled: No (USB2+H05261)
Correct for Detector Non-linearity: No (USB2+H05261)
Correct for Stray Light: No (USB2+H05261)
Number of Pixels in Processed Spectrum: 2048
>>>>>Begin Processed Spectral Data<<<<<
365.73	318.31
365.92	318.31
366.12	318.31
366.32	231.71
366.52	212.99
366.72	215.33
366.91	212.99
367.11	241.08
367.31	236.39
367.51	327.68
367.70	238.73
367.90	236.39
368.10	248.10
368.30	255.12
368.49	259.80
368.69	245.76
368.89	283.20
369.09	294.91
369.28	257.46
369.48	222.35
369.68	325.33
369.87	285.55
370.07	273.84
370.27	393.21
370.47	334.70
370.66	252.78
370.86	327.68
371.06	308.95
371.25	362.78
371.45	404.91
371.65	313.63
371.84	376.83
372.04	435.34
372.24	456.40
372.44	400.23
372.63	402.57
372.83	423.64
373.03	353.42
373.22	402.57
373.42	416.62
373.62	402.57
373.81	355.76
374.01	409.59
374.21	400.23
374.40	372.15
374.60	437.68
374.79	409.59
374.99	355.76
375.19	458.74
375.38	454.06
375.58	388.53
375.78	404.91
375.97	414.27
376.17	505.56
376.37	416.62
376.56	395.55
376.76	355.76
376.95	362.78
377.15	388.53
377.35	369.80
377.54	414.27
377.74	393.21
377.93	437.68
378.13	374.49
378.33	423.64
378.52	414.27
378.72	322.99
378.91	423.64
379.11	355.76
379.31	379.17
379.50	407.25
379.70	444.70
379.89	425.98
380.09	318.31
380.28	355.76
380.48	379.17
380.68	428.32
380.87	442.36
381.07	416.62
381.26	393.21
381.46	383.85
381.65	402.57
381.85	444.70
382.04	435.34
382.24	411.93
382.43	381.51
382.63	383.85
382.83	383.85
383.02	447.04
383.22	388.53
383.41	383.85
383.61	423.64
383.80	456.40
384.00	411.93
384.19	379.17
384.39	414.27
384.58	430.66
384.78	440.02
384.97	414.27
385.17	381.51
385.36	421.30
385.56	465.77
385.75	362.78
385.95	421.30
386.14	437.68
386.34	365.12
386.53	435.34
386.72	505.56
386.92	414.27
387.11	421.30
387.31	411.93
387.50	433.00
387.70	344.06
387.89	355.76
388.09	402.57
388.28	475.13
388.48	341.72
388.67	414.27
388.86	362.78
389.06	430.66
389.25	407.25
389.45	376.83
389.64	400.23
389.84	482.15
390.03	383.85
390.22	458.74
390.42	449.38
390.61	449.38
390.81	395.55
391.00	421.30
391.19	435.34
391.39	437.68
391.58	409.59
391.78	386.19
391.97	437.68
392.16	381.51
392.36	430.66
392.55	421.30
392.75	393.21
392.94	425.98
393.13	348.74
393.33	332.36
393.52	414.27
393.71	400.23
393.91	437.68
394.10	337.04
394.29	339.38
394.49	393.21
394.68	360.44
394.88	423.64
395.07	409.59
395.26	430.66
395.46	379.17
395.65	505.56
395.84	447.04
396.04	381.51
396.23	402.57
396.42	372.15
396.62	416.62
396.81	421.30
397.00	325.33
397.19	367.46
397.39	407.25
397.58	433.00
397.77	402.57
397.97	395.55
398.16	402.57
398.35	381.51
398.55	395.55
398.74	414.27
398.93	411.93
399.12	393.21
399.32	491.51
399.51	418.96
399.70	386.19
399.90	297.25
400.09	423.64
400.28	416.62
400.47	351.08
400.67	365.12
400.86	376.83
401.05	456.40
401.24	411.93
401.44	395.55
401.63	376.83
401.82	374.49
402.01	351.08
402.21	414.27
402.40	386.19
402.59	444.70
402.78	355.76
402.97	456.40
403.17	428.32
403.36	451.72
403.55	369.80
403.74	372.15
403.93	386.19
404.13	388.53
404.32	416.62
404.51	416.62
404.70	498.53
404.89	365.12
405.09	454.06
405.28	435.34
405.47	388.53
405.66	428.32
405.85	423.64
406.05	468.11
406.24	402.57
406.43	411.93
406.62	400.23
406.81	397.89
407.00	411.93
407.20	351.08
407.39	402.57
407.58	390.87
407.77	437.68
407.96	458.74
408.15	353.42
408.34	369.80
408.54	390.87
408.73	404.91
408.92	458.74
409.11	400.23
409.30	433.00
409.49	393.21
409.68	383.85
409.87	355.76
410.07	360.44
410.26	463.43
410.45	376.83
410.64	332.36
410.83	376.83
411.02	360.44
411.21	475.13
411.40	400.23
411.59	376.83
411.78	418.96
411.98	489.17
412.17	376.83
412.36	383.85
412.55	414.27
412.74	381.51
412.93	418.96
413.12	442.36
413.31	411.93
413.50	435.34
413.69	404.91
413.88	468.11
414.07	390.87
414.26	421.30
414.45	372.15
414.64	505.56
414.83	447.04
415.02	458.74
415.22	470.45
415.41	351.08
415.60	421.30
415.79	360.44
415.98	416.62
416.17	325.33
416.36	346.40
416.55	409.59
416.74	442.36
416.93	491.51
417.12	423.64
417.31	388.53
417.50	365.12
417.69	451.72
417.88	400.23
418.07	414.27
418.26	393.21
418.45	440.02
418.64	383.85
418.83	423.64
419.02	440.02
419.21	456.40
419.39	397.89
419.58	383.85
419.77	475.13
419.96	372.15
420.15	402.57
420.34	428.32
420.53	414.27
420.72	423.64
420.91	386.19
421.10	397.89
421.29	369.80
421.48	435.34
421.67	383.85
421.86	475.13
422.05	379.17
422.24	425.98
422.43	435.34
422.61	425.98
422.80	386.19
422.99	397.89
423.18	407.25
423.37	383.85
423.56	425.98
423.75	447.04
423.94	390.87
424.13	423.64
424.32	397.89
424.50	348.74
424.69	395.55
424.88	423.64
425.07	505.56
425.26	383.85
425.45	383.85
425.64	388.53
425.83	451.72
426.01	461.09
426.20	428.32
426.39	409.59
426.58	381.51
426.77	411.93
426.96	433.00
427.15	458.74
427.33	379.17
427.52	381.51
427.71	402.57
427.90	379.17
428.09	353.42
428.28	404.91
428.46	430.66
428.65	383.85
428.84	407.25
429.03	383.85
429.22	374.49
429.40	451.72
429.59	416.62
429.78	435.34
429.97	397.89
430.16	362.78
430.34	461.09
430.53	355.76
430.72	376.83
430.91	402.57
431.10	383.85
431.28	374.49
431.47	451.72
431.66	337.04
431.85	411.93
432.03	486.83
432.22	442.36
432.41	409.59
432.60	421.30
432.79	414.27
432.97	407.25
433.16	428.32
433.35	393.21
433.54	411.93
433.72	388.53
433.91	479.81
434.10	423.64
434.28	451.72
434.47	367.46
434.66	395.55
434.85	386.19
435.03	437.68
435.22	458.74
435.41	472.79
435.59	393.21
435.78	507.90
435.97	444.70
436.16	416.62
436.34	402.57
436.53	360.44
436.72	372.15
436.90	397.89
437.09	416.62
437.28	351.08
437.46	402.57
437.65	472.79
437.84	430.66
438.02	423.64
438.21	517.26
438.40	414.27
438.58	372.15
438.77	397.89
438.96	461.09
439.14	353.42
439.33	416.62
439.52	397.89
439.70	383.85
439.89	362.78
440.08	491.51
440.26	397.89
440.45	388.53
440.63	407.25
440.82	479.81
441.01	425.98
441.19	435.34
441.38	376.83
441.57	458.74
441.75	430.66
441.94	397.89
442.12	416.62
442.31	512.58
442.50	416.62
442.68	430.66
442.87	402.57
443.05	404.91
443.24	374.49
443.43	437.68
443.61	440.02
443.80	433.00
443.98	463.43
444.17	416.62
444.35	376.83
444.54	383.85
444.73	414.27
444.91	404.91
445.10	383.85
445.28	397.89
445.47	407.25
445.65	388.53
445.84	449.38
446.02	409.59
446.21	376.83
446.39	409.59
446.58	416.62
446.77	454.06
446.95	346.40
447.14	416.62
447.32	451.72
447.51	435.34
447.69	365.12
447.88	428.32
448.06	425.98
448.25	393.21
448.43	423.64
448.62	372.15
448.80	470.45
448.99	475.13
449.17	451.72
449.36	416.62
449.54	449.38
449.73	397.89
449.91	423.64
450.10	365.12
450.28	407.25
450.46	437.68
450.65	451.72
450.83	416.62
451.02	407.25
451.20	411.93
451.39	318.31
451.57	456.40
451.76	423.64
451.94	430.66
452.13	395.55
452.31	440.02
452.49	404.91
452.68	379.17
452.86	428.32
453.05	409.59
453.23	334.70
453.42	362.78
453.60	372.15
453.78	461.09
453.97	475.13
454.15	447.04
454.34	465.77
454.52	355.76
454.70	437.68
454.89	421.30
455.07	407.25
455.26	433.00
455.44	383.85
455.62	440.02
455.81	395.55
455.99	388.53
456.17	449.38
456.36	423.64
456.54	369.80
456.73	447.04
456.91	374.49
457.09	442.36
457.28	449.38
457.46	484.49
457.64	458.74
457.83	365.12
458.01	393.21
458.19	372.15
458.38	425.98
458.56	397.89
458.74	451.72
458.93	444.70
459.11	383.85
459.29	414.27
459.48	444.70
459.66	470.45
459.84	442.36
460.03	388.53
460.21	374.49
460.39	430.66
460.57	400.23
460.76	390.87
460.94	390.87
461.12	444.70
461.31	435.34
461.49	444.70
461.67	402.57
461.85	449.38
462.04	477.47
462.22	800.46
462.40	386.19
462.59	451.72
462.77	433.00
462.95	437.68
463.13	411.93
463.32	369.80
463.50	425.98
463.68	367.46
463.86	477.47
464.05	493.85
464.23	468.11
464.41	411.93
464.59	369.80
464.78	365.12
464.96	421.30
465.14	414.27
465.32	433.00
465.50	397.89
465.69	397.89
465.87	358.10
466.05	421.30
466.23	409.59
466.41	381.51
466.60	376.83
466.78	400.23
466.96	381.51
467.14	416.62
467.32	407.25
467.51	418.96
467.69	414.27
467.87	416.62
468.05	519.60
468.23	409.59
468.41	397.89
468.60	409.59
468.78	383.85
468.96	498.53
469.14	484.49
469.32	407.25
469.50	430.66
469.69	430.66
469.87	402.57
470.05	409.59
470.23	421.30
470.41	402.57
470.59	409.59
470.77	475.13
470.95	402.57
471.14	400.23
471.32	404.91
471.50	395.55
471.68	507.90
471.86	491.51
472.04	346.40
472.22	421.30
472.40	428.32
472.58	456.40
472.77	372.15
472.95	388.53
473.13	498.53
473.31	367.46
473.49	390.87
473.67	409.59
473.85	414.27
474.03	409.59
474.21	418.96
474.39	433.00
474.57	423.64
474.75	402.57
474.93	435.34
475.12	339.38
475.30	418.96
475.48	388.53
475.66	374.49
475.84	372.15
476.02	386.19
476.20	416.62
476.38	430.66
476.56	451.72
476.74	393.21
476.92	383.85
477.10	468.11
477.28	365.12
477.46	463.43
477.64	383.85
477.82	379.17
478.00	388.53
478.18	393.21
478.36	423.64
478.54	437.68
478.72	390.87
478.90	425.98
479.08	442.36
479.26	397.89
479.44	315.97
479.62	442.36
479.80	416.62
479.98	418.96
480.16	458.74
480.34	402.57
480.52	386.19
480.70	449.38
480.88	407.25
481.06	440.02
481.24	411.93
481.41	475.13
481.59	421.30
481.77	397.89
481.95	437.68
482.13	447.04
482.31	437.68
482.49	425.98
482.67	449.38
482.85	423.64
483.03	390.87
483.21	355.76
483.39	348.74
483.57	486.83
483.74	425.98
483.92	468.11
484.10	358.10
484.28	430.66
484.46	465.77
484.64	404.91
484.82	437.68
485.00	383.85
485.18	430.66
485.35	411.93
485.53	458.74
485.71	454.06
485.89	390.87
486.07	386.19
486.25	463.43
486.43	442.36
486.61	491.51
486.78	409.59
486.96	362.78
487.14	407.25
487.32	355.76
487.50	437.68
487.68	423.64
487.85	374.49
488.03	468.11
488.21	388.53
488.39	397.89
488.57	374.49
488.75	381.51
488.92	500.87
489.10	433.00
489.28	393.21
489.46	440.02
489.64	430.66
489.81	477.47
489.99	397.89
490.17	383.85
490.35	433.00
490.53	348.74
490.70	404.91
490.88	475.13
491.06	440.02
491.24	444.70
491.41	507.90
491.59	475.13
491.77	456.40
491.95	402.57
492.13	425.98
492.30	433.00
492.48	379.17
492.66	456.40
492.84	411.93
493.01	404.91
493.19	433.00
493.37	491.51
493.54	437.68
493.72	428.32
493.90	428.32
494.08	409.59
494.25	421.30
494.43	440.02
494.61	447.04
494.79	416.62
494.96	402.57
495.14	414.27
495.32	430.66
495.49	428.32
495.67	451.72
495.85	376.83
496.02	414.27
496.20	355.76
496.38	465.77
496.55	386.19
496.73	442.36
496.91	463.43
497.09	463.43
497.26	461.09
497.44	435.34
497.62	400.23
497.79	400.23
497.97	440.02
498.14	449.38
498.32	425.98
498.50	372.15
498.67	393.21
498.85	411.93
499.03	423.64
499.20	451.72
499.38	395.55
499.56	353.42
499.73	397.89
499.91	404.91
500.08	425.98
500.26	411.93
500.44	454.06
500.61	468.11
500.79	325.33
500.97	414.27
501.14	437.68
501.32	414.27
501.49	444.70
501.67	386.19
501.84	388.53
502.02	369.80
502.20	428.32
502.37	451.72
502.55	430.66
502.72	388.53
502.90	411.93
503.07	388.53
503.25	407.25
503.43	393.21
503.60	411.93
503.78	362.78
503.95	397.89
504.13	355.76
504.30	404.91
504.48	416.62
504.65	468.11
504.83	470.45
505.01	397.89
505.18	440.02
505.36	395.55
505.53	437.68
505.71	381.51
505.88	454.06
506.06	388.53
506.23	402.57
506.41	360.44
506.58	435.34
506.76	395.55
506.93	393.21
507.11	330.02
507.28	454.06
507.46	428.32
507.63	425.98
507.81	348.74
507.98	444.70
508.16	423.64
508.33	428.32
508.50	507.90
508.68	411.93
508.85	362.78
509.03	383.85
509.20	451.72
509.38	433.00
509.55	461.09
509.73	400.23
509.90	411.93
510.08	395.55
510.25	454.06
510.42	433.00
510.60	376.83
510.77	479.81
510.95	383.85
511.12	372.15
511.30	414.27
511.47	444.70
511.64	442.36
511.82	416.62
511.99	388.53
512.17	416.62
512.34	465.77
512.51	383.85
512.69	433.00
512.86	461.09
513.04	358.10
513.21	430.66
513.38	397.89
513.56	386.19
513.73	379.17
513.90	430.66
514.08	367.46
514.25	425.98
514.43	440.02
514.60	402.57
514.77	425.98
514.95	341.72
515.12	337.04
515.29	414.27
515.47	503.22
515.64	416.62
515.81	386.19
515.99	409.59
516.16	437.68
516.33	421.30
516.51	418.96
516.68	454.06
516.85	372.15
517.03	440.02
517.20	475.13
517.37	454.06
517.54	386.19
517.72	409.59
517.89	414.27
518.06	379.17
518.24	383.85
518.41	484.49
518.58	454.06
518.75	435.34
518.93	507.90
519.10	503.22
519.27	407.25
519.45	447.04
519.62	435.34
519.79	376.83
519.96	407.25
520.14	449.38
520.31	458.74
520.48	442.36
520.65	390.87
520.83	454.06
521.00	451.72
521.17	400.23
521.34	381.51
521.52	482.15
521.69	353.42
521.86	386.19
522.03	442.36
522.20	442.36
522.38	444.70
522.55	372.15
522.72	400.23
522.89	461.09
523.07	468.11
523.24	346.40
523.41	393.21
523.58	414.27
523.75	416.62
523.92	383.85
524.10	465.77
524.27	463.43
524.44	306.61
524.61	416.62
524.78	430.66
524.96	444.70
525.13	369.80
525.30	402.57
525.47	348.74
525.64	381.51
525.81	407.25
525.98	409.59
526.16	404.91
526.33	409.59
526.50	353.42
526.67	430.66
526.84	400.23
527.01	386.19
527.18	472.79
527.36	430.66
527.53	376.83
527.70	437.68
527.87	449.38
528.04	414.27
528.21	451.72
528.38	353.42
528.55	423.64
528.72	421.30
528.89	454.06
529.07	418.96
529.24	454.06
529.41	475.13
529.58	409.59
529.75	393.21
529.92	451.72
530.09	437.68
530.26	430.66
530.43	409.59
530.60	397.89
530.77	411.93
530.94	444.70
531.11	451.72
531.28	409.59
531.46	376.83
531.63	416.62
531.80	428.32
531.97	425.98
532.14	440.02
532.31	409.59
532.48	468.11
532.65	416.62
532.82	400.23
532.99	435.34
533.16	472.79
533.33	395.55
533.50	362.78
533.67	372.15
533.84	468.11
534.01	437.68
534.18	372.15
534.35	402.57
534.52	444.70
534.69	369.80
534.86	397.89
535.03	414.27
535.20	404.91
535.37	470.45
535.54	400.23
535.71	414.27
535.88	414.27
536.05	332.36
536.22	437.68
536.38	404.91
536.55	414.27
536.72	475.13
536.89	418.96
537.06	383.85
537.23	358.10
537.40	421.30
537.57	397.89
537.74	444.70
537.91	397.89
538.08	444.70
538.25	386.19
538.42	362.78
538.59	456.40
538.75	390.87
538.92	416.62
539.09	430.66
539.26	414.27
539.43	500.87
539.60	475.13
539.77	440.02
539.94	430.66
540.11	444.70
540.28	479.81
540.44	416.62
540.61	322.99
540.78	435.34
540.95	348.74
541.12	414.27
541.29	409.59
541.46	463.43
541.62	411.93
541.79	404.91
541.96	421.30
542.13	458.74
542.30	390.87
542.47	425.98
542.63	388.53
542.80	402.57
542.97	397.89
543.14	421.30
543.31	430.66
543.48	386.19
543.64	397.89
543.81	365.12
543.98	463.43
544.15	393.21
544.32	512.58
544.48	454.06
544.65	407.25
544.82	390.87
544.99	498.53
545.16	440.02
545.32	421.30
545.49	447.04
545.66	440.02
545.83	423.64
546.00	400.23
546.16	418.96
546.33	383.85
546.50	383.85
546.67	440.02
546.83	449.38
547.00	437.68
547.17	360.44
547.34	442.36
547.50	454.06
547.67	430.66
547.84	428.32
548.00	463.43
548.17	332.36
548.34	433.00
548.51	449.38
548.67	411.93
548.84	418.96
549.01	407.25
549.18	430.66
549.34	416.62
549.51	383.85
549.68	444.70
549.84	379.17
550.01	418.96
550.18	526.62
550.34	475.13
550.51	428.32
550.68	454.06
550.84	404.91
551.01	425.98
551.18	425.98
551.34	402.57
551.51	386.19
551.68	414.27
551.84	407.25
552.01	428.32
552.18	386.19
552.34	358.10
552.51	444.70
552.68	423.64
552.84	306.61
553.01	348.74
553.18	407.25
553.34	346.40
553.51	479.81
553.67	402.57
553.84	465.77
554.01	428.32
554.17	421.30
554.34	386.19
554.51	430.66
554.67	449.38
554.84	374.49
555.00	374.49
555.17	400.23
555.33	428.32
555.50	433.00
555.67	386.19
555.83	421.30
556.00	416.62
556.16	472.79
556.33	489.17
556.50	402.57
556.66	416.62
556.83	355.76
556.99	442.36
557.16	402.57
557.32	367.46
557.49	360.44
557.65	428.32
557.82	414.27
557.98	433.00
558.15	440.02
558.32	416.62
558.48	376.83
558.65	402.57
558.81	369.80
558.98	358.10
559.14	435.34
559.31	393.21
559.47	433.00
559.64	430.66
559.80	409.59
559.97	437.68
560.13	470.45
560.30	374.49
560.46	348.74
560.63	421.30
560.79	472.79
560.96	400.23
561.12	421.30
561.29	404.91
561.45	402.57
561.61	395.55
561.78	451.72
561.94	339.38
562.11	416.62
562.27	449.38
562.44	390.87
562.60	451.72
562.77	458.74
562.93	503.22
563.10	402.57
563.26	397.89
563.42	433.00
563.59	428.32
563.75	379.17
563.92	477.47
564.08	390.87
564.24	437.68
564.41	411.93
564.57	390.87
564.74	388.53
564.90	442.36
565.07	423.64
565.23	381.51
565.39	435.34
565.56	404.91
565.72	358.10
565.88	507.90
566.05	353.42
566.21	376.83
566.38	496.19
566.54	477.47
566.70	456.40
566.87	407.25
567.03	421.30
567.19	430.66
567.36	442.36
567.52	404.91
567.68	411.93
567.85	409.59
568.01	510.24
568.17	433.00
568.34	360.44
568.50	484.49
568.66	442.36
568.83	442.36
568.99	386.19
569.15	428.32
569.32	418.96
569.48	369.80
569.64	407.25
569.81	353.42
569.97	433.00
570.13	430.66
570.30	437.68
570.46	337.04
570.62	451.72
570.78	428.32
570.95	442.36
571.11	386.19
571.27	418.96
571.43	456.40
571.60	409.59
571.76	395.55
571.92	468.11
572.09	409.59
572.25	524.28
572.41	454.06
572.57	442.36
572.74	360.44
572.90	404.91
573.06	383.85
573.22	400.23
573.38	421.30
573.55	447.04
573.71	383.85
573.87	449.38
574.03	442.36
574.20	414.27
574.36	435.34
574.52	468.11
574.68	409.59
574.84	421.30
575.01	395.55
575.17	458.74
575.33	425.98
575.49	468.11
575.65	430.66
575.82	468.11
575.98	386.19
576.14	400.23
576.30	390.87
576.46	451.72
576.62	393.21
576.79	409.59
576.95	461.09
577.11	395.55
577.27	414.27
577.43	435.34
577.59	416.62
577.75	383.85
577.92	463.43
578.08	388.53
578.24	397.89
578.40	430.66
578.56	451.72
578.72	425.98
578.88	449.38
579.04	444.70
579.21	437.68
579.37	402.57
579.53	376.83
579.69	456.40
579.85	454.06
580.01	407.25
580.17	421.30
580.33	386.19
580.49	465.77
580.65	369.80
580.82	414.27
580.98	435.34
581.14	428.32
581.30	381.51
581.46	346.40
581.62	435.34
581.78	374.49
581.94	416.62
582.10	484.49
582.26	346.40
582.42	458.74
582.58	435.34
582.74	411.93
582.90	435.34
583.06	351.08
583.22	411.93
583.38	400.23
583.54	421.30
583.70	472.79
583.86	425.98
584.02	484.49
584.18	454.06
584.34	379.17
584.50	390.87
584.66	425.98
584.82	411.93
584.98	407.25
585.14	430.66
585.30	416.62
585.46	477.47
585.62	409.59
585.78	301.93
585.94	395.55
586.10	353.42
586.26	402.57
586.42	514.92
586.58	372.15
586.74	428.32
586.90	435.34
587.06	465.77
587.22	449.38
587.38	454.06
587.54	369.80
587.70	433.00
587.86	418.96
588.02	400.23
588.18	496.19
588.34	486.83
588.49	442.36
588.65	362.78
588.81	404.91
588.97	430.66
589.13	395.55
589.29	409.59
589.45	395.55
589.61	402.57
589.77	374.49
589.93	421.30
590.08	421.30
590.24	411.93
590.40	433.00
590.56	411.93
590.72	425.98
590.88	451.72
591.04	428.32
591.20	449.38
591.35	458.74
591.51	447.04
591.67	414.27
591.83	313.63
591.99	355.76
592.15	428.32
592.31	402.57
592.46	388.53
592.62	430.66
592.78	351.08
592.94	428.32
593.10	437.68
593.26	397.89
593.41	484.49
593.57	458.74
593.73	388.53
593.89	418.96
594.05	423.64
594.20	479.81
594.36	416.62
594.52	362.78
594.68	402.57
594.84	498.53
594.99	430.66
595.15	425.98
595.31	442.36
595.47	440.02
595.62	400.23
595.78	376.83
595.94	416.62
596.10	381.51
596.25	428.32
596.41	463.43
596.57	421.30
596.73	346.40
596.88	425.98
597.04	341.72
597.20	393.21
597.36	397.89
597.51	414.27
597.67	402.57
597.83	433.00
597.99	461.09
598.14	388.53
598.30	402.57
598.46	404.91
598.61	440.02
598.77	437.68
598.93	395.55
599.09	433.00
599.24	444.70
599.40	423.64
599.56	468.11
599.71	339.38
599.87	381.51
600.03	351.08
600.18	449.38
600.34	479.81
600.50	456.40
600.65	379.17
600.81	428.32
600.97	351.08
601.12	423.64
601.28	407.25
601.44	386.19
601.59	390.87
601.75	411.93
601.91	440.02
602.06	444.70
602.22	519.60
602.37	386.19
602.53	482.15
602.69	437.68
602.84	346.40
603.00	346.40
603.16	498.53
603.31	390.87
603.47	433.00
603.62	315.97
603.78	360.44
603.94	351.08
604.09	362.78
604.25	449.38
604.40	433.00
604.56	442.36
604.71	425.98
604.87	496.19
605.03	416.62
605.18	388.53
605.34	428.32
605.49	386.19
605.65	353.42
605.80	407.25
605.96	425.98
606.12	428.32
606.27	451.72
606.43	444.70
606.58	383.85
606.74	344.06
606.89	367.46
607.05	468.11
607.20	458.74
607.36	430.66
607.51	369.80
607.67	423.64
607.82	397.89
607.98	447.04
608.13	433.00
608.29	381.51
608.44	442.36
608.60	458.74
608.75	402.57
608.91	416.62
609.06	482.15
609.22	416.62
609.37	390.87
609.53	374.49
609.68	451.72
609.84	447.04
609.99	351.08
610.15	470.45
