SpectraSuite Data File
++++++++++++++++++++++++++++++++++++
Date: Fri Oct 25 12:11:40 EDT 2013
User: price-jones
Dark Spectrum Present: No
Reference Spectrum Present: No
Number of Sampled Component Spectra: 1
Spectrometers: USB2+H05261
Integration Time (usec): 100000 (USB2+H05261)
Spectra Averaged: 1 (USB2+H05261)
Boxcar Smoothing: 0 (USB2+H05261)
Correct for Electrical Dark: No (USB2+H05261)
Strobe/Lamp Enabled: No (USB2+H05261)
Correct for Detector Non-linearity: No (USB2+H05261)
Correct for Stray Light: No (USB2+H05261)
Number of Pixels in Processed Spectrum: 2048
>>>>>Begin Processed Spectral Data<<<<<
365.73	365.12
365.92	365.12
366.12	365.12
366.32	229.37
366.52	257.46
366.72	341.72
366.91	224.69
367.11	259.80
367.31	238.73
367.51	245.76
367.70	217.67
367.90	276.18
368.10	220.01
368.30	259.80
368.49	222.35
368.69	273.84
368.89	262.14
369.09	276.18
369.28	187.24
369.48	241.08
369.68	220.01
369.87	325.33
370.07	304.27
370.27	273.84
370.47	231.71
370.66	374.49
370.86	330.02
371.06	360.44
371.25	381.51
371.45	383.85
371.65	411.93
371.84	409.59
372.04	360.44
372.24	344.06
372.44	411.93
372.63	409.59
372.83	430.66
373.03	395.55
373.22	390.87
373.42	454.06
373.62	454.06
373.81	355.76
374.01	451.72
374.21	395.55
374.40	465.77
374.60	477.47
374.79	409.59
374.99	411.93
375.19	395.55
375.38	386.19
375.58	477.47
375.78	414.27
375.97	418.96
376.17	468.11
376.37	449.38
376.56	463.43
376.76	381.51
376.95	367.46
377.15	367.46
377.35	456.40
377.54	421.30
377.74	351.08
377.93	454.06
378.13	451.72
378.33	470.45
378.52	477.47
378.72	463.43
378.91	437.68
379.11	411.93
379.31	411.93
379.50	379.17
379.70	442.36
379.89	468.11
380.09	418.96
380.28	397.89
380.48	421.30
380.68	423.64
380.87	320.65
381.07	409.59
381.26	379.17
381.46	440.02
381.65	414.27
381.85	451.72
382.04	414.27
382.24	376.83
382.43	423.64
382.63	414.27
382.83	407.25
383.02	433.00
383.22	416.62
383.41	381.51
383.61	425.98
383.80	365.12
384.00	447.04
384.19	367.46
384.39	425.98
384.58	456.40
384.78	458.74
384.97	416.62
385.17	397.89
385.36	344.06
385.56	404.91
385.75	404.91
385.95	379.17
386.14	397.89
386.34	386.19
386.53	430.66
386.72	402.57
386.92	402.57
387.11	430.66
387.31	360.44
387.50	308.95
387.70	334.70
387.89	425.98
388.09	425.98
388.28	344.06
388.48	421.30
388.67	428.32
388.86	425.98
389.06	351.08
389.25	433.00
389.45	414.27
389.64	461.09
389.84	461.09
390.03	475.13
390.22	409.59
390.42	393.21
390.61	374.49
390.81	365.12
391.00	362.78
391.19	353.42
391.39	332.36
391.58	383.85
391.78	390.87
391.97	409.59
392.16	367.46
392.36	433.00
392.55	512.58
392.75	475.13
392.94	376.83
393.13	393.21
393.33	465.77
393.52	393.21
393.71	379.17
393.91	421.30
394.10	372.15
394.29	409.59
394.49	409.59
394.68	355.76
394.88	444.70
395.07	461.09
395.26	491.51
395.46	337.04
395.65	355.76
395.84	437.68
396.04	479.81
396.23	379.17
396.42	411.93
396.62	397.89
396.81	383.85
397.00	458.74
397.19	437.68
397.39	470.45
397.58	545.34
397.77	409.59
397.97	383.85
398.16	351.08
398.35	421.30
398.55	407.25
398.74	421.30
398.93	423.64
399.12	430.66
399.32	395.55
399.51	374.49
399.70	421.30
399.90	416.62
400.09	379.17
400.28	414.27
400.47	374.49
400.67	442.36
400.86	411.93
401.05	379.17
401.24	435.34
401.44	437.68
401.63	404.91
401.82	451.72
402.01	397.89
402.21	304.27
402.40	451.72
402.59	386.19
402.78	369.80
402.97	433.00
403.17	444.70
403.36	444.70
403.55	444.70
403.74	404.91
403.93	482.15
404.13	386.19
404.32	416.62
404.51	397.89
404.70	393.21
404.89	416.62
405.09	423.64
405.28	407.25
405.47	294.91
405.66	390.87
405.85	409.59
406.05	461.09
406.24	388.53
406.43	425.98
406.62	437.68
406.81	461.09
407.00	353.42
407.20	449.38
407.39	465.77
407.58	416.62
407.77	374.49
407.96	505.56
408.15	353.42
408.34	414.27
408.54	402.57
408.73	449.38
408.92	379.17
409.11	482.15
409.30	423.64
409.49	358.10
409.68	362.78
409.87	376.83
410.07	388.53
410.26	430.66
410.45	423.64
410.64	322.99
410.83	454.06
411.02	400.23
411.21	383.85
411.40	379.17
411.59	388.53
411.78	407.25
411.98	397.89
412.17	390.87
412.36	400.23
412.55	482.15
412.74	421.30
412.93	507.90
413.12	351.08
413.31	433.00
413.50	388.53
413.69	407.25
413.88	428.32
414.07	360.44
414.26	341.72
414.45	388.53
414.64	397.89
414.83	461.09
415.02	379.17
415.22	440.02
415.41	512.58
415.60	397.89
415.79	393.21
415.98	400.23
416.17	451.72
416.36	447.04
416.55	358.10
416.74	423.64
416.93	402.57
417.12	365.12
417.31	379.17
417.50	437.68
417.69	409.59
417.88	475.13
418.07	407.25
418.26	421.30
418.45	390.87
418.64	430.66
418.83	421.30
419.02	451.72
419.21	367.46
419.39	395.55
419.58	374.49
419.77	418.96
419.96	416.62
420.15	465.77
420.34	451.72
420.53	330.02
420.72	461.09
420.91	400.23
421.10	404.91
421.29	425.98
421.48	383.85
421.67	376.83
421.86	430.66
422.05	421.30
422.24	404.91
422.43	381.51
422.61	360.44
422.80	418.96
422.99	435.34
423.18	393.21
423.37	437.68
423.56	383.85
423.75	409.59
423.94	411.93
424.13	367.46
424.32	367.46
424.50	365.12
424.69	433.00
424.88	423.64
425.07	425.98
425.26	416.62
425.45	447.04
425.64	365.12
425.83	430.66
426.01	395.55
426.20	418.96
426.39	381.51
426.58	418.96
426.77	428.32
426.96	416.62
427.15	414.27
427.33	360.44
427.52	411.93
427.71	379.17
427.90	393.21
428.09	411.93
428.28	437.68
428.46	376.83
428.65	449.38
428.84	418.96
429.03	414.27
429.22	404.91
429.40	372.15
429.59	376.83
429.78	458.74
429.97	461.09
430.16	458.74
430.34	435.34
430.53	454.06
430.72	437.68
430.91	484.49
431.10	400.23
431.28	411.93
431.47	390.87
431.66	400.23
431.85	456.40
432.03	411.93
432.22	437.68
432.41	355.76
432.60	421.30
432.79	346.40
432.97	477.47
433.16	402.57
433.35	435.34
433.54	449.38
433.72	313.63
433.91	348.74
434.10	409.59
434.28	341.72
434.47	411.93
434.66	395.55
434.85	395.55
435.03	402.57
435.22	402.57
435.41	414.27
435.59	430.66
435.78	395.55
435.97	362.78
436.16	430.66
436.34	421.30
436.53	388.53
436.72	386.19
436.90	407.25
437.09	479.81
437.28	407.25
437.46	397.89
437.65	482.15
437.84	468.11
438.02	327.68
438.21	425.98
438.40	430.66
438.58	376.83
438.77	433.00
438.96	365.12
439.14	444.70
439.33	407.25
439.52	477.47
439.70	435.34
439.89	423.64
440.08	444.70
440.26	400.23
440.45	449.38
440.63	416.62
440.82	397.89
441.01	397.89
441.19	421.30
441.38	458.74
441.57	362.78
441.75	447.04
441.94	486.83
442.12	442.36
442.31	386.19
442.50	409.59
442.68	500.87
442.87	456.40
443.05	404.91
443.24	395.55
443.43	360.44
443.61	458.74
443.80	430.66
443.98	461.09
444.17	374.49
444.35	437.68
444.54	330.02
444.73	402.57
444.91	388.53
445.10	351.08
445.28	425.98
445.47	404.91
445.65	341.72
445.84	451.72
446.02	414.27
446.21	409.59
446.39	418.96
446.58	390.87
446.77	388.53
446.95	428.32
447.14	374.49
447.32	451.72
447.51	468.11
447.69	423.64
447.88	482.15
448.06	437.68
448.25	404.91
448.43	367.46
448.62	344.06
448.80	442.36
448.99	362.78
449.17	451.72
449.36	486.83
449.54	397.89
449.73	465.77
449.91	367.46
450.10	416.62
450.28	447.04
450.46	451.72
450.65	428.32
450.83	433.00
451.02	430.66
451.20	395.55
451.39	395.55
451.57	393.21
451.76	503.22
451.94	444.70
452.13	470.45
452.31	444.70
452.49	444.70
452.68	435.34
452.86	477.47
453.05	416.62
453.23	390.87
453.42	411.93
453.60	411.93
453.78	465.77
453.97	416.62
454.15	456.40
454.34	423.64
454.52	416.62
454.70	447.04
454.89	360.44
455.07	355.76
455.26	423.64
455.44	468.11
455.62	423.64
455.81	465.77
455.99	477.47
456.17	416.62
456.36	390.87
456.54	407.25
456.73	435.34
456.91	414.27
457.09	395.55
457.28	416.62
457.46	449.38
457.64	386.19
457.83	430.66
458.01	381.51
458.19	463.43
458.38	386.19
458.56	402.57
458.74	369.80
458.93	376.83
459.11	388.53
459.29	407.25
459.48	454.06
459.66	388.53
459.84	369.80
460.03	425.98
460.21	440.02
460.39	411.93
460.57	449.38
460.76	472.79
460.94	458.74
461.12	418.96
461.31	456.40
461.49	418.96
461.67	395.55
461.85	442.36
462.04	390.87
462.22	784.08
462.40	428.32
462.59	390.87
462.77	407.25
462.95	360.44
463.13	358.10
463.32	430.66
463.50	393.21
463.68	402.57
463.86	437.68
464.05	447.04
464.23	404.91
464.41	379.17
464.59	374.49
464.78	388.53
464.96	390.87
465.14	414.27
465.32	416.62
465.50	346.40
465.69	341.72
465.87	479.81
466.05	390.87
466.23	393.21
466.41	353.42
466.60	395.55
466.78	491.51
466.96	463.43
467.14	409.59
467.32	423.64
467.51	421.30
467.69	376.83
467.87	433.00
468.05	404.91
468.23	425.98
468.41	440.02
468.60	430.66
468.78	358.10
468.96	379.17
469.14	447.04
469.32	346.40
469.50	404.91
469.69	409.59
469.87	411.93
470.05	337.04
470.23	351.08
470.41	400.23
470.59	428.32
470.77	414.27
470.95	430.66
471.14	416.62
471.32	423.64
471.50	425.98
471.68	437.68
471.86	477.47
472.04	470.45
472.22	482.15
472.40	444.70
472.58	376.83
472.77	484.49
472.95	449.38
473.13	472.79
473.31	468.11
473.49	402.57
473.67	475.13
473.85	447.04
474.03	374.49
474.21	416.62
474.39	433.00
474.57	428.32
474.75	360.44
474.93	435.34
475.12	409.59
475.30	418.96
475.48	402.57
475.66	479.81
475.84	365.12
476.02	409.59
476.20	496.19
476.38	437.68
476.56	533.64
476.74	465.77
476.92	369.80
477.10	418.96
477.28	477.47
477.46	456.40
477.64	404.91
477.82	367.46
478.00	423.64
478.18	395.55
478.36	327.68
478.54	411.93
478.72	395.55
478.90	407.25
479.08	362.78
479.26	454.06
479.44	428.32
479.62	369.80
479.80	407.25
479.98	409.59
480.16	397.89
480.34	440.02
480.52	404.91
480.70	430.66
480.88	433.00
481.06	397.89
481.24	383.85
481.41	390.87
481.59	425.98
481.77	456.40
481.95	397.89
482.13	425.98
482.31	423.64
482.49	428.32
482.67	404.91
482.85	428.32
483.03	437.68
483.21	465.77
483.39	456.40
483.57	414.27
483.74	486.83
483.92	376.83
484.10	341.72
484.28	411.93
484.46	484.49
484.64	374.49
484.82	482.15
485.00	400.23
485.18	322.99
485.35	397.89
485.53	418.96
485.71	456.40
485.89	294.91
486.07	358.10
486.25	442.36
486.43	433.00
486.61	400.23
486.78	411.93
486.96	425.98
487.14	454.06
487.32	468.11
487.50	409.59
487.68	463.43
487.85	454.06
488.03	489.17
488.21	409.59
488.39	451.72
488.57	402.57
488.75	386.19
488.92	430.66
489.10	346.40
489.28	475.13
489.46	337.04
489.64	369.80
489.81	395.55
489.99	376.83
490.17	425.98
490.35	550.03
490.53	423.64
490.70	388.53
490.88	482.15
491.06	435.34
491.24	418.96
491.41	458.74
491.59	477.47
491.77	489.17
491.95	383.85
492.13	358.10
492.30	423.64
492.48	400.23
492.66	402.57
492.84	454.06
493.01	418.96
493.19	437.68
493.37	435.34
493.54	388.53
493.72	407.25
493.90	418.96
494.08	381.51
494.25	386.19
494.43	381.51
494.61	435.34
494.79	353.42
494.96	402.57
495.14	379.17
495.32	346.40
495.49	393.21
495.67	395.55
495.85	447.04
496.02	372.15
496.20	505.56
496.38	456.40
496.55	451.72
496.73	376.83
496.91	379.17
497.09	454.06
497.26	397.89
497.44	383.85
497.62	430.66
497.79	414.27
497.97	400.23
498.14	465.77
498.32	430.66
498.50	421.30
498.67	383.85
498.85	355.76
499.03	334.70
499.20	397.89
499.38	376.83
499.56	346.40
499.73	458.74
499.91	402.57
500.08	381.51
500.26	472.79
500.44	447.04
500.61	433.00
500.79	407.25
500.97	454.06
501.14	468.11
501.32	479.81
501.49	475.13
501.67	397.89
501.84	423.64
502.02	381.51
502.20	407.25
502.37	374.49
502.55	388.53
502.72	442.36
502.90	379.17
503.07	393.21
503.25	411.93
503.43	374.49
503.60	440.02
503.78	421.30
503.95	512.58
504.13	425.98
504.30	418.96
504.48	381.51
504.65	484.49
504.83	444.70
505.01	411.93
505.18	477.47
505.36	395.55
505.53	386.19
505.71	348.74
505.88	479.81
506.06	444.70
506.23	484.49
506.41	381.51
506.58	397.89
506.76	444.70
506.93	344.06
507.11	402.57
507.28	369.80
507.46	458.74
507.63	416.62
507.81	425.98
507.98	414.27
508.16	362.78
508.33	393.21
508.50	428.32
508.68	409.59
508.85	468.11
509.03	348.74
509.20	475.13
509.38	437.68
509.55	418.96
509.73	440.02
509.90	376.83
510.08	425.98
510.25	425.98
510.42	416.62
510.60	433.00
510.77	409.59
510.95	416.62
511.12	440.02
511.30	435.34
511.47	418.96
511.64	479.81
511.82	411.93
511.99	472.79
512.17	374.49
512.34	390.87
512.51	381.51
512.69	447.04
512.86	416.62
513.04	376.83
513.21	430.66
513.38	409.59
513.56	395.55
513.73	470.45
513.90	393.21
514.08	418.96
514.25	311.29
514.43	390.87
514.60	404.91
514.77	376.83
514.95	381.51
515.12	454.06
515.29	407.25
515.47	475.13
515.64	440.02
515.81	430.66
515.99	468.11
516.16	461.09
516.33	416.62
516.51	320.65
516.68	418.96
516.85	437.68
517.03	421.30
517.20	400.23
517.37	381.51
517.54	449.38
517.72	376.83
517.89	454.06
518.06	414.27
518.24	454.06
518.41	435.34
518.58	442.36
518.75	402.57
518.93	418.96
519.10	404.91
519.27	423.64
519.45	477.47
519.62	440.02
519.79	482.15
519.96	402.57
520.14	437.68
520.31	325.33
520.48	383.85
520.65	383.85
520.83	512.58
521.00	404.91
521.17	397.89
521.34	428.32
521.52	428.32
521.69	454.06
521.86	456.40
522.03	416.62
522.20	430.66
522.38	437.68
522.55	442.36
522.72	409.59
522.89	465.77
523.07	430.66
523.24	411.93
523.41	447.04
523.58	442.36
523.75	414.27
523.92	442.36
524.10	449.38
524.27	383.85
524.44	358.10
524.61	482.15
524.78	447.04
524.96	383.85
525.13	386.19
525.30	456.40
525.47	458.74
525.64	435.34
525.81	400.23
525.98	524.28
526.16	379.17
526.33	404.91
526.50	379.17
526.67	397.89
526.84	428.32
527.01	374.49
527.18	383.85
527.36	444.70
527.53	358.10
527.70	461.09
527.87	311.29
528.04	589.82
528.21	465.77
528.38	461.09
528.55	390.87
528.72	456.40
528.89	409.59
529.07	421.30
529.24	388.53
529.41	468.11
529.58	397.89
529.75	470.45
529.92	423.64
530.09	416.62
530.26	421.30
530.43	414.27
530.60	454.06
530.77	353.42
530.94	390.87
531.11	430.66
531.28	404.91
531.46	395.55
531.63	465.77
531.80	390.87
531.97	407.25
532.14	440.02
532.31	500.87
532.48	409.59
532.65	437.68
532.82	409.59
532.99	465.77
533.16	381.51
533.33	404.91
533.50	423.64
533.67	388.53
533.84	458.74
534.01	437.68
534.18	437.68
534.35	355.76
534.52	397.89
534.69	458.74
534.86	388.53
535.03	411.93
535.20	386.19
535.37	416.62
535.54	503.22
535.71	416.62
535.88	365.12
536.05	421.30
536.22	454.06
536.38	421.30
536.55	437.68
536.72	428.32
536.89	411.93
537.06	402.57
537.23	404.91
537.40	475.13
537.57	414.27
537.74	418.96
537.91	407.25
538.08	444.70
538.25	442.36
538.42	444.70
538.59	414.27
538.75	470.45
538.92	442.36
539.09	421.30
539.26	423.64
539.43	454.06
539.60	423.64
539.77	404.91
539.94	390.87
540.11	372.15
540.28	433.00
540.44	535.98
540.61	404.91
540.78	437.68
540.95	521.94
541.12	423.64
541.29	337.04
541.46	468.11
541.62	402.57
541.79	425.98
541.96	409.59
542.13	435.34
542.30	428.32
542.47	451.72
542.63	433.00
542.80	397.89
542.97	404.91
543.14	402.57
543.31	449.38
543.48	388.53
543.64	463.43
543.81	388.53
543.98	407.25
544.15	369.80
544.32	407.25
544.48	409.59
544.65	435.34
544.82	440.02
544.99	355.76
545.16	404.91
545.32	465.77
545.49	395.55
545.66	425.98
545.83	325.33
546.00	411.93
546.16	470.45
546.33	416.62
546.50	400.23
546.67	402.57
546.83	440.02
547.00	353.42
547.17	444.70
547.34	454.06
547.50	430.66
547.67	465.77
547.84	402.57
548.00	435.34
548.17	351.08
548.34	388.53
548.51	397.89
548.67	416.62
548.84	360.44
549.01	444.70
549.18	475.13
549.34	381.51
549.51	400.23
549.68	458.74
549.84	435.34
550.01	461.09
550.18	447.04
550.34	449.38
550.51	411.93
550.68	458.74
550.84	435.34
551.01	435.34
551.18	414.27
551.34	416.62
551.51	475.13
551.68	402.57
551.84	402.57
552.01	402.57
552.18	407.25
552.34	402.57
552.51	449.38
552.68	484.49
552.84	348.74
553.01	367.46
553.18	447.04
553.34	390.87
553.51	327.68
553.67	423.64
553.84	451.72
554.01	425.98
554.17	435.34
554.34	353.42
554.51	397.89
554.67	442.36
554.84	365.12
555.00	409.59
555.17	376.83
555.33	433.00
555.50	456.40
555.67	367.46
555.83	311.29
556.00	418.96
556.16	507.90
556.33	376.83
556.50	400.23
556.66	435.34
556.83	414.27
556.99	475.13
557.16	517.26
557.32	360.44
557.49	456.40
557.65	386.19
557.82	447.04
557.98	395.55
558.15	428.32
558.32	437.68
558.48	414.27
558.65	407.25
558.81	397.89
558.98	388.53
559.14	433.00
559.31	423.64
559.47	433.00
559.64	425.98
559.80	451.72
559.97	423.64
560.13	470.45
560.30	374.49
560.46	353.42
560.63	409.59
560.79	402.57
560.96	463.43
561.12	372.15
561.29	407.25
561.45	451.72
561.61	440.02
561.78	418.96
561.94	372.15
562.11	454.06
562.27	428.32
562.44	414.27
562.60	367.46
562.77	493.85
562.93	454.06
563.10	475.13
563.26	388.53
563.42	477.47
563.59	463.43
563.75	358.10
563.92	440.02
564.08	440.02
564.24	428.32
564.41	411.93
564.57	458.74
564.74	414.27
564.90	353.42
565.07	369.80
565.23	388.53
565.39	390.87
565.56	414.27
565.72	440.02
565.88	325.33
566.05	404.91
566.21	449.38
566.38	437.68
566.54	465.77
566.70	407.25
566.87	421.30
567.03	435.34
567.19	418.96
567.36	437.68
567.52	444.70
567.68	442.36
567.85	390.87
568.01	430.66
568.17	442.36
568.34	409.59
568.50	463.43
568.66	468.11
568.83	463.43
568.99	390.87
569.15	428.32
569.32	442.36
569.48	456.40
569.64	482.15
569.81	442.36
569.97	383.85
570.13	440.02
570.30	421.30
570.46	491.51
570.62	409.59
570.78	395.55
570.95	388.53
571.11	477.47
571.27	444.70
571.43	341.72
571.60	379.17
571.76	442.36
571.92	461.09
572.09	461.09
572.25	376.83
572.41	409.59
572.57	388.53
572.74	416.62
572.90	440.02
573.06	386.19
573.22	475.13
573.38	379.17
573.55	416.62
573.71	400.23
573.87	423.64
574.03	381.51
574.20	416.62
574.36	477.47
574.52	433.00
574.68	367.46
574.84	414.27
575.01	430.66
575.17	458.74
575.33	428.32
575.49	430.66
575.65	374.49
575.82	421.30
575.98	430.66
576.14	348.74
576.30	353.42
576.46	463.43
576.62	463.43
576.79	435.34
576.95	423.64
577.11	386.19
577.27	376.83
577.43	400.23
577.59	430.66
577.75	369.80
577.92	383.85
578.08	435.34
578.24	327.68
578.40	418.96
578.56	498.53
578.72	414.27
578.88	463.43
579.04	435.34
579.21	386.19
579.37	425.98
579.53	348.74
579.69	451.72
579.85	423.64
580.01	435.34
580.17	442.36
580.33	423.64
580.49	421.30
580.65	454.06
580.82	351.08
580.98	425.98
581.14	437.68
581.30	400.23
581.46	353.42
581.62	383.85
581.78	442.36
581.94	449.38
582.10	376.83
582.26	449.38
582.42	397.89
582.58	360.44
582.74	404.91
582.90	358.10
583.06	479.81
583.22	433.00
583.38	475.13
583.54	355.76
583.70	407.25
583.86	414.27
584.02	397.89
584.18	437.68
584.34	393.21
584.50	463.43
584.66	411.93
584.82	472.79
584.98	400.23
585.14	411.93
585.30	428.32
585.46	414.27
585.62	404.91
585.78	414.27
585.94	402.57
586.10	428.32
586.26	461.09
586.42	444.70
586.58	407.25
586.74	454.06
586.90	386.19
587.06	374.49
587.22	430.66
587.38	320.65
587.54	409.59
587.70	397.89
587.86	437.68
588.02	444.70
588.18	402.57
588.34	512.58
588.49	416.62
588.65	360.44
588.81	440.02
588.97	416.62
589.13	442.36
589.29	425.98
589.45	447.04
589.61	456.40
589.77	470.45
589.93	411.93
590.08	372.15
590.24	440.02
590.40	416.62
590.56	393.21
590.72	486.83
590.88	379.17
591.04	472.79
591.20	388.53
591.35	437.68
591.51	369.80
591.67	397.89
591.83	449.38
591.99	472.79
592.15	423.64
592.31	472.79
592.46	444.70
592.62	351.08
592.78	458.74
592.94	388.53
593.10	402.57
593.26	390.87
593.41	433.00
593.57	393.21
593.73	395.55
593.89	449.38
594.05	414.27
594.20	418.96
594.36	430.66
594.52	407.25
594.68	365.12
594.84	435.34
594.99	470.45
595.15	454.06
595.31	416.62
595.47	451.72
595.62	372.15
595.78	430.66
595.94	355.76
596.10	416.62
596.25	414.27
596.41	390.87
596.57	433.00
596.73	421.30
596.88	451.72
597.04	397.89
597.20	409.59
597.36	423.64
597.51	442.36
597.67	372.15
597.83	451.72
597.99	486.83
598.14	430.66
598.30	393.21
598.46	514.92
598.61	500.87
598.77	423.64
598.93	458.74
599.09	358.10
599.24	437.68
599.40	433.00
599.56	379.17
599.71	416.62
599.87	383.85
600.03	505.56
600.18	463.43
600.34	458.74
600.50	353.42
600.65	442.36
600.81	493.85
600.97	365.12
601.12	388.53
601.28	376.83
601.44	383.85
601.59	390.87
601.75	425.98
601.91	393.21
602.06	390.87
602.22	456.40
602.37	433.00
602.53	390.87
602.69	440.02
602.84	418.96
603.00	423.64
603.16	416.62
603.31	381.51
603.47	421.30
603.62	374.49
603.78	454.06
603.94	360.44
604.09	351.08
604.25	372.15
604.40	430.66
604.56	376.83
604.71	442.36
604.87	411.93
605.03	421.30
605.18	440.02
605.34	381.51
605.49	428.32
605.65	395.55
605.80	414.27
605.96	400.23
606.12	383.85
606.27	383.85
606.43	360.44
606.58	416.62
606.74	433.00
606.89	479.81
607.05	390.87
607.20	458.74
607.36	397.89
607.51	425.98
607.67	308.95
607.82	442.36
607.98	482.15
608.13	411.93
608.29	472.79
608.44	423.64
608.60	468.11
608.75	423.64
608.91	393.21
609.06	433.00
609.22	477.47
609.37	362.78
609.53	337.04
609.68	369.80
609.84	407.25
609.99	400.23
610.15	402.57
