SpectraSuite Data File
++++++++++++++++++++++++++++++++++++
Date: Fri Oct 25 12:11:25 EDT 2013
User: price-jones
Dark Spectrum Present: No
Reference Spectrum Present: No
Number of Sampled Component Spectra: 1
Spectrometers: USB2+H05261
Integration Time (usec): 100000 (USB2+H05261)
Spectra Averaged: 1 (USB2+H05261)
Boxcar Smoothing: 0 (USB2+H05261)
Correct for Electrical Dark: No (USB2+H05261)
Strobe/Lamp Enabled: No (USB2+H05261)
Correct for Detector Non-linearity: No (USB2+H05261)
Correct for Stray Light: No (USB2+H05261)
Number of Pixels in Processed Spectrum: 2048
>>>>>Begin Processed Spectral Data<<<<<
365.73	400.23
365.92	400.23
366.12	400.23
366.32	266.82
366.52	273.84
366.72	290.23
366.91	201.29
367.11	252.78
367.31	262.14
367.51	236.39
367.70	271.50
367.90	290.23
368.10	194.26
368.30	243.42
368.49	205.97
368.69	154.48
368.89	222.35
369.09	224.69
369.28	248.10
369.48	264.48
369.68	315.97
369.87	306.61
370.07	273.84
370.27	346.40
370.47	341.72
370.66	346.40
370.86	334.70
371.06	346.40
371.25	395.55
371.45	376.83
371.65	407.25
371.84	411.93
372.04	379.17
372.24	416.62
372.44	428.32
372.63	362.78
372.83	425.98
373.03	451.72
373.22	428.32
373.42	411.93
373.62	402.57
373.81	442.36
374.01	416.62
374.21	409.59
374.40	379.17
374.60	486.83
374.79	425.98
374.99	390.87
375.19	433.00
375.38	414.27
375.58	404.91
375.78	397.89
375.97	379.17
376.17	458.74
376.37	444.70
376.56	430.66
376.76	346.40
376.95	386.19
377.15	423.64
377.35	360.44
377.54	348.74
377.74	404.91
377.93	465.77
378.13	468.11
378.33	416.62
378.52	468.11
378.72	360.44
378.91	454.06
379.11	421.30
379.31	395.55
379.50	383.85
379.70	360.44
379.89	428.32
380.09	418.96
380.28	362.78
380.48	348.74
380.68	360.44
380.87	393.21
381.07	393.21
381.26	435.34
381.46	402.57
381.65	379.17
381.85	351.08
382.04	358.10
382.24	435.34
382.43	346.40
382.63	400.23
382.83	414.27
383.02	386.19
383.22	388.53
383.41	390.87
383.61	353.42
383.80	458.74
384.00	393.21
384.19	442.36
384.39	381.51
384.58	393.21
384.78	393.21
384.97	475.13
385.17	425.98
385.36	402.57
385.56	381.51
385.75	372.15
385.95	418.96
386.14	397.89
386.34	407.25
386.53	418.96
386.72	351.08
386.92	374.49
387.11	393.21
387.31	465.77
387.50	386.19
387.70	421.30
387.89	421.30
388.09	388.53
388.28	409.59
388.48	433.00
388.67	430.66
388.86	402.57
389.06	489.17
389.25	472.79
389.45	435.34
389.64	381.51
389.84	491.51
390.03	372.15
390.22	409.59
390.42	454.06
390.61	416.62
390.81	372.15
391.00	409.59
391.19	463.43
391.39	402.57
391.58	372.15
391.78	475.13
391.97	388.53
392.16	390.87
392.36	479.81
392.55	449.38
392.75	397.89
392.94	411.93
393.13	341.72
393.33	414.27
393.52	374.49
393.71	416.62
393.91	409.59
394.10	390.87
394.29	379.17
394.49	365.12
394.68	423.64
394.88	402.57
395.07	440.02
395.26	395.55
395.46	433.00
395.65	465.77
395.84	440.02
396.04	409.59
396.23	355.76
396.42	442.36
396.62	437.68
396.81	477.47
397.00	351.08
397.19	458.74
397.39	397.89
397.58	444.70
397.77	411.93
397.97	416.62
398.16	374.49
398.35	484.49
398.55	425.98
398.74	395.55
398.93	374.49
399.12	388.53
399.32	454.06
399.51	315.97
399.70	472.79
399.90	327.68
400.09	428.32
400.28	383.85
400.47	351.08
400.67	440.02
400.86	320.65
401.05	390.87
401.24	414.27
401.44	418.96
401.63	433.00
401.82	369.80
402.01	393.21
402.21	351.08
402.40	425.98
402.59	407.25
402.78	407.25
402.97	351.08
403.17	421.30
403.36	449.38
403.55	360.44
403.74	393.21
403.93	425.98
404.13	447.04
404.32	421.30
404.51	425.98
404.70	383.85
404.89	435.34
405.09	425.98
405.28	433.00
405.47	397.89
405.66	440.02
405.85	477.47
406.05	435.34
406.24	421.30
406.43	393.21
406.62	379.17
406.81	418.96
407.00	430.66
407.20	351.08
407.39	386.19
407.58	430.66
407.77	381.51
407.96	376.83
408.15	442.36
408.34	404.91
408.54	372.15
408.73	411.93
408.92	461.09
409.11	435.34
409.30	472.79
409.49	416.62
409.68	365.12
409.87	428.32
410.07	322.99
410.26	400.23
410.45	374.49
410.64	416.62
410.83	395.55
411.02	362.78
411.21	407.25
411.40	440.02
411.59	425.98
411.78	449.38
411.98	463.43
412.17	379.17
412.36	369.80
412.55	376.83
412.74	524.28
412.93	444.70
413.12	423.64
413.31	414.27
413.50	491.51
413.69	437.68
413.88	344.06
414.07	468.11
414.26	397.89
414.45	437.68
414.64	442.36
414.83	400.23
415.02	362.78
415.22	456.40
415.41	393.21
415.60	400.23
415.79	472.79
415.98	402.57
416.17	313.63
416.36	365.12
416.55	421.30
416.74	411.93
416.93	411.93
417.12	447.04
417.31	407.25
417.50	447.04
417.69	458.74
417.88	430.66
418.07	416.62
418.26	423.64
418.45	360.44
418.64	362.78
418.83	393.21
419.02	416.62
419.21	416.62
419.39	381.51
419.58	430.66
419.77	397.89
419.96	390.87
420.15	360.44
420.34	463.43
420.53	493.85
420.72	486.83
420.91	376.83
421.10	374.49
421.29	390.87
421.48	395.55
421.67	433.00
421.86	402.57
422.05	397.89
422.24	435.34
422.43	423.64
422.61	374.49
422.80	454.06
422.99	416.62
423.18	367.46
423.37	397.89
423.56	395.55
423.75	388.53
423.94	421.30
424.13	444.70
424.32	418.96
424.50	376.83
424.69	421.30
424.88	381.51
425.07	337.04
425.26	381.51
425.45	402.57
425.64	395.55
425.83	393.21
426.01	334.70
426.20	327.68
426.39	465.77
426.58	437.68
426.77	423.64
426.96	423.64
427.15	365.12
427.33	472.79
427.52	383.85
427.71	468.11
427.90	428.32
428.09	425.98
428.28	458.74
428.46	409.59
428.65	411.93
428.84	395.55
429.03	435.34
429.22	414.27
429.40	475.13
429.59	358.10
429.78	348.74
429.97	402.57
430.16	337.04
430.34	433.00
430.53	437.68
430.72	318.31
430.91	367.46
431.10	379.17
431.28	418.96
431.47	458.74
431.66	442.36
431.85	390.87
432.03	421.30
432.22	470.45
432.41	414.27
432.60	414.27
432.79	374.49
432.97	362.78
433.16	362.78
433.35	381.51
433.54	425.98
433.72	411.93
433.91	430.66
434.10	325.33
434.28	407.25
434.47	369.80
434.66	386.19
434.85	430.66
435.03	440.02
435.22	400.23
435.41	383.85
435.59	454.06
435.78	463.43
435.97	383.85
436.16	407.25
436.34	463.43
436.53	418.96
436.72	493.85
436.90	395.55
437.09	334.70
437.28	423.64
437.46	456.40
437.65	379.17
437.84	416.62
438.02	404.91
438.21	435.34
438.40	383.85
438.58	428.32
438.77	409.59
438.96	425.98
439.14	430.66
439.33	386.19
439.52	425.98
439.70	475.13
439.89	475.13
440.08	423.64
440.26	418.96
440.45	372.15
440.63	407.25
440.82	383.85
441.01	414.27
441.19	376.83
441.38	503.22
441.57	383.85
441.75	388.53
441.94	449.38
442.12	416.62
442.31	404.91
442.50	372.15
442.68	397.89
442.87	397.89
443.05	440.02
443.24	390.87
443.43	465.77
443.61	416.62
443.80	451.72
443.98	407.25
444.17	388.53
444.35	423.64
444.54	414.27
444.73	402.57
444.91	477.47
445.10	407.25
445.28	358.10
445.47	397.89
445.65	348.74
445.84	386.19
446.02	360.44
446.21	411.93
446.39	360.44
446.58	428.32
446.77	376.83
446.95	381.51
447.14	423.64
447.32	400.23
447.51	367.46
447.69	407.25
447.88	400.23
448.06	465.77
448.25	468.11
448.43	491.51
448.62	416.62
448.80	414.27
448.99	376.83
449.17	435.34
449.36	482.15
449.54	404.91
449.73	416.62
449.91	451.72
450.10	393.21
450.28	507.90
450.46	491.51
450.65	479.81
450.83	418.96
451.02	430.66
451.20	442.36
451.39	484.49
451.57	430.66
451.76	409.59
451.94	416.62
452.13	409.59
452.31	430.66
452.49	458.74
452.68	477.47
452.86	472.79
453.05	461.09
453.23	341.72
453.42	421.30
453.60	390.87
453.78	404.91
453.97	393.21
454.15	402.57
454.34	400.23
454.52	433.00
454.70	400.23
454.89	479.81
455.07	477.47
455.26	386.19
455.44	470.45
455.62	404.91
455.81	458.74
455.99	449.38
456.17	470.45
456.36	435.34
456.54	358.10
456.73	397.89
456.91	414.27
457.09	348.74
457.28	383.85
457.46	409.59
457.64	442.36
457.83	416.62
458.01	386.19
458.19	430.66
458.38	486.83
458.56	442.36
458.74	449.38
458.93	477.47
459.11	379.17
459.29	376.83
459.48	381.51
459.66	440.02
459.84	388.53
460.03	491.51
460.21	449.38
460.39	489.17
460.57	367.46
460.76	365.12
460.94	437.68
461.12	456.40
461.31	418.96
461.49	341.72
461.67	451.72
461.85	372.15
462.04	411.93
462.22	767.70
462.40	444.70
462.59	461.09
462.77	325.33
462.95	425.98
463.13	379.17
463.32	479.81
463.50	444.70
463.68	388.53
463.86	433.00
464.05	393.21
464.23	440.02
464.41	418.96
464.59	458.74
464.78	381.51
464.96	425.98
465.14	491.51
465.32	395.55
465.50	421.30
465.69	409.59
465.87	386.19
466.05	355.76
466.23	381.51
466.41	395.55
466.60	355.76
466.78	416.62
466.96	374.49
467.14	376.83
467.32	440.02
467.51	381.51
467.69	418.96
467.87	407.25
468.05	344.06
468.23	411.93
468.41	402.57
468.60	456.40
468.78	395.55
468.96	496.19
469.14	433.00
469.32	369.80
469.50	400.23
469.69	454.06
469.87	430.66
470.05	425.98
470.23	430.66
470.41	395.55
470.59	430.66
470.77	376.83
470.95	393.21
471.14	418.96
471.32	416.62
471.50	418.96
471.68	425.98
471.86	414.27
472.04	337.04
472.22	379.17
472.40	425.98
472.58	428.32
472.77	386.19
472.95	397.89
473.13	468.11
473.31	369.80
473.49	435.34
473.67	437.68
473.85	470.45
474.03	395.55
474.21	440.02
474.39	461.09
474.57	407.25
474.75	421.30
474.93	379.17
475.12	374.49
475.30	355.76
475.48	407.25
475.66	404.91
475.84	468.11
476.02	421.30
476.20	334.70
476.38	421.30
476.56	489.17
476.74	390.87
476.92	397.89
477.10	454.06
477.28	430.66
477.46	407.25
477.64	440.02
477.82	493.85
478.00	400.23
478.18	449.38
478.36	376.83
478.54	435.34
478.72	379.17
478.90	440.02
479.08	348.74
479.26	433.00
479.44	440.02
479.62	421.30
479.80	402.57
479.98	306.61
480.16	367.46
480.34	397.89
480.52	341.72
480.70	416.62
480.88	475.13
481.06	372.15
481.24	360.44
481.41	407.25
481.59	428.32
481.77	362.78
481.95	308.95
482.13	386.19
482.31	477.47
482.49	400.23
482.67	428.32
482.85	395.55
483.03	397.89
483.21	430.66
483.39	414.27
483.57	454.06
483.74	411.93
483.92	388.53
484.10	379.17
484.28	388.53
484.46	484.49
484.64	437.68
484.82	341.72
485.00	402.57
485.18	393.21
485.35	407.25
485.53	365.12
485.71	477.47
485.89	334.70
486.07	435.34
486.25	409.59
486.43	468.11
486.61	428.32
486.78	447.04
486.96	376.83
487.14	421.30
487.32	402.57
487.50	355.76
487.68	322.99
487.85	374.49
488.03	407.25
488.21	465.77
488.39	425.98
488.57	472.79
488.75	423.64
488.92	468.11
489.10	456.40
489.28	493.85
489.46	444.70
489.64	395.55
489.81	351.08
489.99	423.64
490.17	421.30
490.35	418.96
490.53	411.93
490.70	411.93
490.88	430.66
491.06	360.44
491.24	482.15
491.41	379.17
491.59	428.32
491.77	376.83
491.95	402.57
492.13	465.77
492.30	374.49
492.48	404.91
492.66	461.09
492.84	418.96
493.01	437.68
493.19	454.06
493.37	393.21
493.54	433.00
493.72	365.12
493.90	388.53
494.08	365.12
494.25	421.30
494.43	498.53
494.61	468.11
494.79	383.85
494.96	456.40
495.14	411.93
495.32	383.85
495.49	416.62
495.67	416.62
495.85	468.11
496.02	428.32
496.20	402.57
496.38	402.57
496.55	428.32
496.73	395.55
496.91	348.74
497.09	435.34
497.26	379.17
497.44	409.59
497.62	428.32
497.79	418.96
497.97	491.51
498.14	407.25
498.32	463.43
498.50	367.46
498.67	379.17
498.85	400.23
499.03	433.00
499.20	369.80
499.38	372.15
499.56	503.22
499.73	456.40
499.91	421.30
500.08	318.31
500.26	383.85
500.44	383.85
500.61	449.38
500.79	381.51
500.97	430.66
501.14	425.98
501.32	381.51
501.49	411.93
501.67	374.49
501.84	367.46
502.02	416.62
502.20	449.38
502.37	414.27
502.55	461.09
502.72	486.83
502.90	479.81
503.07	423.64
503.25	435.34
503.43	395.55
503.60	400.23
503.78	505.56
503.95	362.78
504.13	472.79
504.30	440.02
504.48	498.53
504.65	491.51
504.83	414.27
505.01	395.55
505.18	423.64
505.36	470.45
505.53	376.83
505.71	355.76
505.88	409.59
506.06	423.64
506.23	376.83
506.41	416.62
506.58	477.47
506.76	414.27
506.93	430.66
507.11	454.06
507.28	409.59
507.46	437.68
507.63	383.85
507.81	409.59
507.98	463.43
508.16	411.93
508.33	411.93
508.50	365.12
508.68	386.19
508.85	463.43
509.03	386.19
509.20	411.93
509.38	386.19
509.55	407.25
509.73	393.21
509.90	482.15
510.08	414.27
510.25	397.89
510.42	451.72
510.60	414.27
510.77	381.51
510.95	489.17
511.12	421.30
511.30	435.34
511.47	365.12
511.64	458.74
511.82	355.76
511.99	376.83
512.17	451.72
512.34	379.17
512.51	416.62
512.69	456.40
512.86	358.10
513.04	358.10
513.21	407.25
513.38	409.59
513.56	407.25
513.73	337.04
513.90	390.87
514.08	348.74
514.25	390.87
514.43	383.85
514.60	423.64
514.77	395.55
514.95	435.34
515.12	433.00
515.29	468.11
515.47	435.34
515.64	409.59
515.81	407.25
515.99	425.98
516.16	367.46
516.33	521.94
516.51	437.68
516.68	428.32
516.85	447.04
517.03	379.17
517.20	472.79
517.37	411.93
517.54	414.27
517.72	383.85
517.89	397.89
518.06	428.32
518.24	505.56
518.41	465.77
518.58	444.70
518.75	400.23
518.93	498.53
519.10	482.15
519.27	444.70
519.45	444.70
519.62	407.25
519.79	433.00
519.96	365.12
520.14	477.47
520.31	421.30
520.48	355.76
520.65	402.57
520.83	430.66
521.00	463.43
521.17	369.80
521.34	322.99
521.52	440.02
521.69	395.55
521.86	500.87
522.03	479.81
522.20	482.15
522.38	381.51
522.55	423.64
522.72	355.76
522.89	369.80
523.07	437.68
523.24	444.70
523.41	337.04
523.58	437.68
523.75	383.85
523.92	330.02
524.10	418.96
524.27	397.89
524.44	430.66
524.61	454.06
524.78	458.74
524.96	409.59
525.13	440.02
525.30	447.04
525.47	482.15
525.64	395.55
525.81	374.49
525.98	421.30
526.16	425.98
526.33	362.78
526.50	367.46
526.67	423.64
526.84	458.74
527.01	379.17
527.18	402.57
527.36	425.98
527.53	395.55
527.70	395.55
527.87	367.46
528.04	433.00
528.21	430.66
528.38	454.06
528.55	458.74
528.72	407.25
528.89	517.26
529.07	334.70
529.24	435.34
529.41	423.64
529.58	477.47
529.75	423.64
529.92	440.02
530.09	383.85
530.26	395.55
530.43	444.70
530.60	433.00
530.77	411.93
530.94	423.64
531.11	435.34
531.28	472.79
531.46	430.66
531.63	355.76
531.80	400.23
531.97	477.47
532.14	386.19
532.31	447.04
532.48	423.64
532.65	425.98
532.82	411.93
532.99	397.89
533.16	440.02
533.33	339.38
533.50	325.33
533.67	372.15
533.84	414.27
534.01	355.76
534.18	475.13
534.35	400.23
534.52	433.00
534.69	444.70
534.86	437.68
535.03	367.46
535.20	369.80
535.37	482.15
535.54	414.27
535.71	421.30
535.88	411.93
536.05	421.30
536.22	428.32
536.38	390.87
536.55	433.00
536.72	341.72
536.89	454.06
537.06	383.85
537.23	376.83
537.40	369.80
537.57	428.32
537.74	468.11
537.91	421.30
538.08	421.30
538.25	454.06
538.42	404.91
538.59	374.49
538.75	393.21
538.92	458.74
539.09	425.98
539.26	397.89
539.43	468.11
539.60	418.96
539.77	418.96
539.94	484.49
540.11	465.77
540.28	447.04
540.44	512.58
540.61	397.89
540.78	437.68
540.95	376.83
541.12	379.17
541.29	379.17
541.46	454.06
541.62	386.19
541.79	390.87
541.96	372.15
542.13	386.19
542.30	327.68
542.47	390.87
542.63	465.77
542.80	411.93
542.97	351.08
543.14	409.59
543.31	414.27
543.48	449.38
543.64	489.17
543.81	390.87
543.98	475.13
544.15	416.62
544.32	423.64
544.48	381.51
544.65	369.80
544.82	423.64
544.99	414.27
545.16	496.19
545.32	440.02
545.49	404.91
545.66	290.23
545.83	416.62
546.00	421.30
546.16	416.62
546.33	428.32
546.50	358.10
546.67	416.62
546.83	397.89
547.00	447.04
547.17	407.25
547.34	404.91
547.50	454.06
547.67	461.09
547.84	381.51
548.00	400.23
548.17	379.17
548.34	430.66
548.51	463.43
548.67	475.13
548.84	433.00
549.01	383.85
549.18	571.09
549.34	451.72
549.51	435.34
549.68	456.40
549.84	400.23
550.01	372.15
550.18	468.11
550.34	447.04
550.51	409.59
550.68	400.23
550.84	388.53
551.01	428.32
551.18	442.36
551.34	428.32
551.51	416.62
551.68	397.89
551.84	512.58
552.01	381.51
552.18	369.80
552.34	365.12
552.51	442.36
552.68	463.43
552.84	369.80
553.01	475.13
553.18	423.64
553.34	458.74
553.51	451.72
553.67	435.34
553.84	442.36
554.01	468.11
554.17	442.36
554.34	353.42
554.51	442.36
554.67	418.96
554.84	409.59
555.00	440.02
555.17	421.30
555.33	465.77
555.50	418.96
555.67	447.04
555.83	425.98
556.00	341.72
556.16	512.58
556.33	496.19
556.50	390.87
556.66	475.13
556.83	440.02
556.99	456.40
557.16	458.74
557.32	400.23
557.49	435.34
557.65	388.53
557.82	454.06
557.98	393.21
558.15	458.74
558.32	456.40
558.48	404.91
558.65	447.04
558.81	491.51
558.98	444.70
559.14	416.62
559.31	365.12
559.47	442.36
559.64	362.78
559.80	369.80
559.97	388.53
560.13	447.04
560.30	404.91
560.46	407.25
560.63	411.93
560.79	451.72
560.96	458.74
561.12	433.00
561.29	390.87
561.45	458.74
561.61	416.62
561.78	470.45
561.94	428.32
562.11	430.66
562.27	451.72
562.44	411.93
562.60	421.30
562.77	447.04
562.93	430.66
563.10	430.66
563.26	386.19
563.42	454.06
563.59	482.15
563.75	386.19
563.92	430.66
564.08	374.49
564.24	418.96
564.41	395.55
564.57	393.21
564.74	416.62
564.90	421.30
565.07	395.55
565.23	395.55
565.39	489.17
565.56	437.68
565.72	402.57
565.88	388.53
566.05	430.66
566.21	381.51
566.38	463.43
566.54	430.66
566.70	390.87
566.87	430.66
567.03	351.08
567.19	379.17
567.36	437.68
567.52	451.72
567.68	362.78
567.85	339.38
568.01	444.70
568.17	376.83
568.34	362.78
568.50	435.34
568.66	360.44
568.83	421.30
568.99	407.25
569.15	447.04
569.32	444.70
569.48	402.57
569.64	465.77
569.81	407.25
569.97	369.80
570.13	486.83
570.30	369.80
570.46	433.00
570.62	416.62
570.78	411.93
570.95	407.25
571.11	458.74
571.27	393.21
571.43	407.25
571.60	393.21
571.76	374.49
571.92	423.64
572.09	351.08
572.25	433.00
572.41	397.89
572.57	402.57
572.74	458.74
572.90	456.40
573.06	425.98
573.22	379.17
573.38	423.64
573.55	390.87
573.71	390.87
573.87	463.43
574.03	454.06
574.20	411.93
574.36	500.87
574.52	416.62
574.68	381.51
574.84	489.17
575.01	465.77
575.17	444.70
575.33	449.38
575.49	486.83
575.65	447.04
575.82	388.53
575.98	430.66
576.14	393.21
576.30	444.70
576.46	437.68
576.62	381.51
576.79	433.00
576.95	461.09
577.11	437.68
577.27	421.30
577.43	386.19
577.59	449.38
577.75	400.23
577.92	433.00
578.08	402.57
578.24	360.44
578.40	433.00
578.56	430.66
578.72	456.40
578.88	468.11
579.04	395.55
579.21	458.74
579.37	449.38
579.53	400.23
579.69	435.34
579.85	409.59
580.01	379.17
580.17	435.34
580.33	468.11
580.49	428.32
580.65	442.36
580.82	367.46
580.98	442.36
581.14	407.25
581.30	435.34
581.46	418.96
581.62	407.25
581.78	411.93
581.94	341.72
582.10	365.12
582.26	416.62
582.42	421.30
582.58	433.00
582.74	421.30
582.90	463.43
583.06	402.57
583.22	388.53
583.38	437.68
583.54	402.57
583.70	397.89
583.86	489.17
584.02	372.15
584.18	425.98
584.34	428.32
584.50	400.23
584.66	395.55
584.82	390.87
584.98	456.40
585.14	465.77
585.30	440.02
585.46	365.12
585.62	367.46
585.78	386.19
585.94	477.47
586.10	447.04
586.26	479.81
586.42	397.89
586.58	388.53
586.74	428.32
586.90	390.87
587.06	472.79
587.22	442.36
587.38	376.83
587.54	402.57
587.70	388.53
587.86	461.09
588.02	407.25
588.18	421.30
588.34	416.62
588.49	358.10
588.65	421.30
588.81	386.19
588.97	402.57
589.13	475.13
589.29	407.25
589.45	465.77
589.61	409.59
589.77	423.64
589.93	430.66
590.08	461.09
590.24	383.85
590.40	456.40
590.56	461.09
590.72	379.17
590.88	339.38
591.04	386.19
591.20	458.74
591.35	414.27
591.51	437.68
591.67	397.89
591.83	465.77
591.99	423.64
592.15	433.00
592.31	409.59
592.46	491.51
592.62	435.34
592.78	423.64
592.94	397.89
593.10	372.15
593.26	428.32
593.41	414.27
593.57	423.64
593.73	383.85
593.89	409.59
594.05	393.21
594.20	402.57
594.36	444.70
594.52	470.45
594.68	379.17
594.84	425.98
594.99	330.02
595.15	381.51
595.31	383.85
595.47	447.04
595.62	367.46
595.78	442.36
595.94	433.00
596.10	421.30
596.25	458.74
596.41	430.66
596.57	393.21
596.73	397.89
596.88	437.68
597.04	440.02
597.20	409.59
597.36	355.76
597.51	351.08
597.67	397.89
597.83	442.36
597.99	430.66
598.14	358.10
598.30	433.00
598.46	390.87
598.61	402.57
598.77	472.79
598.93	444.70
599.09	416.62
599.24	390.87
599.40	362.78
599.56	428.32
599.71	423.64
599.87	435.34
600.03	411.93
600.18	367.46
600.34	454.06
600.50	428.32
600.65	407.25
600.81	491.51
600.97	425.98
601.12	372.15
601.28	362.78
601.44	456.40
601.59	437.68
601.75	505.56
601.91	456.40
602.06	425.98
602.22	482.15
602.37	332.36
602.53	367.46
602.69	461.09
602.84	475.13
603.00	381.51
603.16	430.66
603.31	407.25
603.47	372.15
603.62	400.23
603.78	454.06
603.94	451.72
604.09	393.21
604.25	463.43
604.40	479.81
604.56	425.98
604.71	451.72
604.87	449.38
605.03	393.21
605.18	379.17
605.34	390.87
605.49	444.70
605.65	425.98
605.80	395.55
605.96	374.49
606.12	416.62
606.27	484.49
606.43	430.66
606.58	440.02
606.74	440.02
606.89	402.57
607.05	447.04
607.20	423.64
607.36	456.40
607.51	381.51
607.67	386.19
607.82	404.91
607.98	468.11
608.13	386.19
608.29	454.06
608.44	421.30
608.60	465.77
608.75	425.98
608.91	372.15
609.06	383.85
609.22	425.98
609.37	423.64
609.53	395.55
609.68	395.55
609.84	327.68
609.99	397.89
610.15	454.06
