SpectraSuite Data File
++++++++++++++++++++++++++++++++++++
Date: Fri Oct 25 12:10:39 EDT 2013
User: price-jones
Dark Spectrum Present: No
Reference Spectrum Present: No
Number of Sampled Component Spectra: 1
Spectrometers: USB2+H05261
Integration Time (usec): 100000 (USB2+H05261)
Spectra Averaged: 1 (USB2+H05261)
Boxcar Smoothing: 0 (USB2+H05261)
Correct for Electrical Dark: No (USB2+H05261)
Strobe/Lamp Enabled: No (USB2+H05261)
Correct for Detector Non-linearity: No (USB2+H05261)
Correct for Stray Light: No (USB2+H05261)
Number of Pixels in Processed Spectrum: 2048
>>>>>Begin Processed Spectral Data<<<<<
365.73	297.25
365.92	297.25
366.12	297.25
366.32	262.14
366.52	224.69
366.72	255.12
366.91	212.99
367.11	252.78
367.31	236.39
367.51	196.60
367.70	229.37
367.90	262.14
368.10	224.69
368.30	255.12
368.49	276.18
368.69	271.50
368.89	217.67
369.09	243.42
369.28	257.46
369.48	245.76
369.68	243.42
369.87	285.55
370.07	334.70
370.27	266.82
370.47	308.95
370.66	374.49
370.86	304.27
371.06	430.66
371.25	379.17
371.45	276.18
371.65	346.40
371.84	407.25
372.04	313.63
372.24	381.51
372.44	437.68
372.63	423.64
372.83	421.30
373.03	402.57
373.22	407.25
373.42	372.15
373.62	404.91
373.81	346.40
374.01	449.38
374.21	402.57
374.40	437.68
374.60	461.09
374.79	383.85
374.99	386.19
375.19	411.93
375.38	400.23
375.58	400.23
375.78	421.30
375.97	379.17
376.17	416.62
376.37	433.00
376.56	463.43
376.76	461.09
376.95	411.93
377.15	498.53
377.35	367.46
377.54	416.62
377.74	407.25
377.93	390.87
378.13	390.87
378.33	470.45
378.52	409.59
378.72	409.59
378.91	442.36
379.11	353.42
379.31	341.72
379.50	376.83
379.70	477.47
379.89	447.04
380.09	407.25
380.28	435.34
380.48	330.02
380.68	388.53
380.87	442.36
381.07	386.19
381.26	458.74
381.46	351.08
381.65	386.19
381.85	372.15
382.04	414.27
382.24	433.00
382.43	461.09
382.63	402.57
382.83	395.55
383.02	444.70
383.22	348.74
383.41	447.04
383.61	442.36
383.80	428.32
384.00	327.68
384.19	444.70
384.39	418.96
384.58	362.78
384.78	416.62
384.97	379.17
385.17	430.66
385.36	346.40
385.56	423.64
385.75	353.42
385.95	365.12
386.14	425.98
386.34	418.96
386.53	482.15
386.72	407.25
386.92	358.10
387.11	409.59
387.31	404.91
387.50	388.53
387.70	383.85
387.89	397.89
388.09	435.34
388.28	404.91
388.48	360.44
388.67	416.62
388.86	383.85
389.06	334.70
389.25	395.55
389.45	400.23
389.64	388.53
389.84	435.34
390.03	369.80
390.22	465.77
390.42	395.55
390.61	421.30
390.81	456.40
391.00	351.08
391.19	376.83
391.39	440.02
391.58	437.68
391.78	421.30
391.97	315.97
392.16	262.14
392.36	442.36
392.55	409.59
392.75	477.47
392.94	430.66
393.13	428.32
393.33	414.27
393.52	449.38
393.71	475.13
393.91	400.23
394.10	393.21
394.29	355.76
394.49	475.13
394.68	388.53
394.88	449.38
395.07	400.23
395.26	386.19
395.46	379.17
395.65	421.30
395.84	386.19
396.04	449.38
396.23	435.34
396.42	381.51
396.62	402.57
396.81	454.06
397.00	400.23
397.19	395.55
397.39	444.70
397.58	435.34
397.77	383.85
397.97	395.55
398.16	470.45
398.35	421.30
398.55	372.15
398.74	440.02
398.93	423.64
399.12	330.02
399.32	344.06
399.51	348.74
399.70	379.17
399.90	407.25
400.09	440.02
400.28	376.83
400.47	362.78
400.67	442.36
400.86	418.96
401.05	442.36
401.24	475.13
401.44	386.19
401.63	379.17
401.82	428.32
402.01	308.95
402.21	369.80
402.40	440.02
402.59	372.15
402.78	367.46
402.97	440.02
403.17	421.30
403.36	402.57
403.55	414.27
403.74	376.83
403.93	395.55
404.13	425.98
404.32	365.12
404.51	416.62
404.70	393.21
404.89	395.55
405.09	442.36
405.28	435.34
405.47	418.96
405.66	428.32
405.85	430.66
406.05	416.62
406.24	379.17
406.43	372.15
406.62	484.49
406.81	461.09
407.00	484.49
407.20	407.25
407.39	315.97
407.58	383.85
407.77	521.94
407.96	404.91
408.15	360.44
408.34	372.15
408.54	386.19
408.73	372.15
408.92	369.80
409.11	423.64
409.30	428.32
409.49	404.91
409.68	407.25
409.87	367.46
410.07	444.70
410.26	423.64
410.45	337.04
410.64	442.36
410.83	409.59
411.02	379.17
411.21	484.49
411.40	440.02
411.59	379.17
411.78	435.34
411.98	433.00
412.17	418.96
412.36	421.30
412.55	386.19
412.74	365.12
412.93	397.89
413.12	383.85
413.31	351.08
413.50	479.81
413.69	468.11
413.88	454.06
414.07	451.72
414.26	372.15
414.45	313.63
414.64	393.21
414.83	395.55
415.02	468.11
415.22	418.96
415.41	449.38
415.60	430.66
415.79	360.44
415.98	491.51
416.17	404.91
416.36	337.04
416.55	451.72
416.74	423.64
416.93	358.10
417.12	322.99
417.31	407.25
417.50	369.80
417.69	519.60
417.88	451.72
418.07	330.02
418.26	348.74
418.45	360.44
418.64	447.04
418.83	423.64
419.02	383.85
419.21	402.57
419.39	376.83
419.58	470.45
419.77	346.40
419.96	395.55
420.15	440.02
420.34	374.49
420.53	423.64
420.72	435.34
420.91	430.66
421.10	437.68
421.29	449.38
421.48	404.91
421.67	440.02
421.86	400.23
422.05	360.44
422.24	386.19
422.43	395.55
422.61	393.21
422.80	468.11
422.99	388.53
423.18	421.30
423.37	458.74
423.56	395.55
423.75	430.66
423.94	393.21
424.13	451.72
424.32	402.57
424.50	386.19
424.69	351.08
424.88	383.85
425.07	402.57
425.26	440.02
425.45	386.19
425.64	360.44
425.83	374.49
426.01	449.38
426.20	367.46
426.39	376.83
426.58	447.04
426.77	409.59
426.96	404.91
427.15	449.38
427.33	390.87
427.52	383.85
427.71	402.57
427.90	409.59
428.09	444.70
428.28	486.83
428.46	348.74
428.65	425.98
428.84	376.83
429.03	358.10
429.22	400.23
429.40	404.91
429.59	299.59
429.78	458.74
429.97	416.62
430.16	416.62
430.34	376.83
430.53	388.53
430.72	353.42
430.91	435.34
431.10	407.25
431.28	435.34
431.47	463.43
431.66	433.00
431.85	463.43
432.03	409.59
432.22	404.91
432.41	404.91
432.60	468.11
432.79	402.57
432.97	428.32
433.16	374.49
433.35	421.30
433.54	463.43
433.72	390.87
433.91	348.74
434.10	348.74
434.28	423.64
434.47	442.36
434.66	395.55
434.85	404.91
435.03	414.27
435.22	411.93
435.41	491.51
435.59	409.59
435.78	433.00
435.97	397.89
436.16	418.96
436.34	386.19
436.53	470.45
436.72	428.32
436.90	447.04
437.09	435.34
437.28	411.93
437.46	465.77
437.65	430.66
437.84	416.62
438.02	397.89
438.21	407.25
438.40	395.55
438.58	418.96
438.77	411.93
438.96	367.46
439.14	425.98
439.33	428.32
439.52	428.32
439.70	402.57
439.89	376.83
440.08	465.77
440.26	365.12
440.45	447.04
440.63	454.06
440.82	465.77
441.01	407.25
441.19	400.23
441.38	404.91
441.57	353.42
441.75	451.72
441.94	449.38
442.12	414.27
442.31	418.96
442.50	369.80
442.68	383.85
442.87	402.57
443.05	409.59
443.24	388.53
443.43	339.38
443.61	423.64
443.80	510.24
443.98	393.21
444.17	456.40
444.35	425.98
444.54	421.30
444.73	374.49
444.91	421.30
445.10	421.30
445.28	454.06
445.47	440.02
445.65	409.59
445.84	344.06
446.02	381.51
446.21	479.81
446.39	449.38
446.58	444.70
446.77	339.38
446.95	404.91
447.14	449.38
447.32	472.79
447.51	407.25
447.69	351.08
447.88	447.04
448.06	440.02
448.25	456.40
448.43	430.66
448.62	442.36
448.80	402.57
448.99	475.13
449.17	400.23
449.36	517.26
449.54	447.04
449.73	435.34
449.91	388.53
450.10	416.62
450.28	461.09
450.46	444.70
450.65	447.04
450.83	362.78
451.02	388.53
451.20	383.85
451.39	421.30
451.57	388.53
451.76	475.13
451.94	437.68
452.13	454.06
452.31	423.64
452.49	423.64
452.68	395.55
452.86	425.98
453.05	388.53
453.23	421.30
453.42	404.91
453.60	353.42
453.78	388.53
453.97	423.64
454.15	386.19
454.34	365.12
454.52	383.85
454.70	461.09
454.89	491.51
455.07	402.57
455.26	402.57
455.44	388.53
455.62	383.85
455.81	454.06
455.99	433.00
456.17	397.89
456.36	411.93
456.54	423.64
456.73	381.51
456.91	423.64
457.09	435.34
457.28	346.40
457.46	376.83
457.64	472.79
457.83	407.25
458.01	390.87
458.19	465.77
458.38	393.21
458.56	423.64
458.74	339.38
458.93	428.32
459.11	322.99
459.29	435.34
459.48	435.34
459.66	507.90
459.84	468.11
460.03	477.47
460.21	458.74
460.39	430.66
460.57	472.79
460.76	409.59
460.94	393.21
461.12	430.66
461.31	444.70
461.49	458.74
461.67	447.04
461.85	454.06
462.04	425.98
462.22	812.17
462.40	397.89
462.59	482.15
462.77	400.23
462.95	409.59
463.13	379.17
463.32	407.25
463.50	435.34
463.68	423.64
463.86	404.91
464.05	444.70
464.23	470.45
464.41	463.43
464.59	376.83
464.78	423.64
464.96	402.57
465.14	465.77
465.32	461.09
465.50	423.64
465.69	404.91
465.87	379.17
466.05	430.66
466.23	390.87
466.41	358.10
466.60	358.10
466.78	379.17
466.96	409.59
467.14	400.23
467.32	435.34
467.51	409.59
467.69	374.49
467.87	374.49
468.05	390.87
468.23	351.08
468.41	379.17
468.60	484.49
468.78	376.83
468.96	425.98
469.14	456.40
469.32	404.91
469.50	397.89
469.69	402.57
469.87	456.40
470.05	440.02
470.23	447.04
470.41	463.43
470.59	421.30
470.77	407.25
470.95	383.85
471.14	351.08
471.32	369.80
471.50	442.36
471.68	458.74
471.86	397.89
472.04	376.83
472.22	360.44
472.40	428.32
472.58	322.99
472.77	369.80
472.95	472.79
473.13	430.66
473.31	454.06
473.49	365.12
473.67	479.81
473.85	388.53
474.03	425.98
474.21	397.89
474.39	360.44
474.57	400.23
474.75	369.80
474.93	423.64
475.12	425.98
475.30	381.51
475.48	402.57
475.66	386.19
475.84	444.70
476.02	397.89
476.20	430.66
476.38	533.64
476.56	468.11
476.74	425.98
476.92	482.15
477.10	393.21
477.28	430.66
477.46	447.04
477.64	454.06
477.82	414.27
478.00	421.30
478.18	472.79
478.36	358.10
478.54	414.27
478.72	325.33
478.90	381.51
479.08	461.09
479.26	437.68
479.44	409.59
479.62	379.17
479.80	367.46
479.98	395.55
480.16	390.87
480.34	449.38
480.52	330.02
480.70	428.32
480.88	383.85
481.06	358.10
481.24	379.17
481.41	386.19
481.59	416.62
481.77	437.68
481.95	435.34
482.13	381.51
482.31	465.77
482.49	463.43
482.67	421.30
482.85	440.02
483.03	404.91
483.21	461.09
483.39	379.17
483.57	367.46
483.74	388.53
483.92	404.91
484.10	433.00
484.28	468.11
484.46	454.06
484.64	407.25
484.82	330.02
485.00	390.87
485.18	433.00
485.35	351.08
485.53	416.62
485.71	461.09
485.89	355.76
486.07	421.30
486.25	395.55
486.43	451.72
486.61	442.36
486.78	423.64
486.96	374.49
487.14	400.23
487.32	376.83
487.50	440.02
487.68	386.19
487.85	386.19
488.03	411.93
488.21	454.06
488.39	397.89
488.57	383.85
488.75	472.79
488.92	484.49
489.10	440.02
489.28	482.15
489.46	418.96
489.64	372.15
489.81	386.19
489.99	372.15
490.17	393.21
490.35	507.90
490.53	409.59
490.70	355.76
490.88	360.44
491.06	372.15
491.24	409.59
491.41	440.02
491.59	360.44
491.77	390.87
491.95	479.81
492.13	360.44
492.30	416.62
492.48	425.98
492.66	416.62
492.84	416.62
493.01	386.19
493.19	440.02
493.37	400.23
493.54	447.04
493.72	400.23
493.90	395.55
494.08	360.44
494.25	353.42
494.43	407.25
494.61	404.91
494.79	365.12
494.96	468.11
495.14	381.51
495.32	435.34
495.49	388.53
495.67	442.36
495.85	355.76
496.02	397.89
496.20	365.12
496.38	358.10
496.55	355.76
496.73	442.36
496.91	411.93
497.09	414.27
497.26	400.23
497.44	454.06
497.62	423.64
497.79	348.74
497.97	376.83
498.14	484.49
498.32	400.23
498.50	407.25
498.67	365.12
498.85	404.91
499.03	421.30
499.20	397.89
499.38	447.04
499.56	388.53
499.73	440.02
499.91	435.34
500.08	447.04
500.26	353.42
500.44	437.68
500.61	381.51
500.79	421.30
500.97	404.91
501.14	444.70
501.32	315.97
501.49	418.96
501.67	409.59
501.84	463.43
502.02	421.30
502.20	440.02
502.37	435.34
502.55	442.36
502.72	390.87
502.90	397.89
503.07	369.80
503.25	442.36
503.43	470.45
503.60	433.00
503.78	468.11
503.95	458.74
504.13	353.42
504.30	425.98
504.48	470.45
504.65	451.72
504.83	379.17
505.01	414.27
505.18	397.89
505.36	423.64
505.53	456.40
505.71	475.13
505.88	442.36
506.06	418.96
506.23	416.62
506.41	503.22
506.58	468.11
506.76	463.43
506.93	355.76
507.11	402.57
507.28	395.55
507.46	425.98
507.63	428.32
507.81	383.85
507.98	404.91
508.16	325.33
508.33	409.59
508.50	465.77
508.68	341.72
508.85	470.45
509.03	428.32
509.20	344.06
509.38	433.00
509.55	374.49
509.73	430.66
509.90	437.68
510.08	411.93
510.25	421.30
510.42	400.23
510.60	369.80
510.77	402.57
510.95	395.55
511.12	381.51
511.30	428.32
511.47	435.34
511.64	440.02
511.82	451.72
511.99	444.70
512.17	442.36
512.34	346.40
512.51	421.30
512.69	379.17
512.86	458.74
513.04	435.34
513.21	393.21
513.38	400.23
513.56	379.17
513.73	397.89
513.90	430.66
514.08	425.98
514.25	449.38
514.43	425.98
514.60	435.34
514.77	423.64
514.95	358.10
515.12	395.55
515.29	456.40
515.47	440.02
515.64	362.78
515.81	437.68
515.99	444.70
516.16	409.59
516.33	425.98
516.51	451.72
516.68	458.74
516.85	425.98
517.03	447.04
517.20	503.22
517.37	404.91
517.54	355.76
517.72	416.62
517.89	374.49
518.06	386.19
518.24	454.06
518.41	468.11
518.58	491.51
518.75	374.49
518.93	465.77
519.10	409.59
519.27	395.55
519.45	395.55
519.62	362.78
519.79	369.80
519.96	376.83
520.14	341.72
520.31	442.36
520.48	423.64
520.65	397.89
520.83	369.80
521.00	379.17
521.17	456.40
521.34	493.85
521.52	404.91
521.69	437.68
521.86	355.76
522.03	402.57
522.20	425.98
522.38	449.38
522.55	444.70
522.72	372.15
522.89	428.32
523.07	491.51
523.24	372.15
523.41	400.23
523.58	428.32
523.75	404.91
523.92	479.81
524.10	437.68
524.27	449.38
524.44	468.11
524.61	404.91
524.78	468.11
524.96	390.87
525.13	416.62
525.30	458.74
525.47	428.32
525.64	411.93
525.81	468.11
525.98	503.22
526.16	423.64
526.33	428.32
526.50	334.70
526.67	390.87
526.84	407.25
527.01	421.30
527.18	491.51
527.36	372.15
527.53	390.87
527.70	458.74
527.87	425.98
528.04	407.25
528.21	442.36
528.38	428.32
528.55	470.45
528.72	423.64
528.89	461.09
529.07	393.21
529.24	362.78
529.41	430.66
529.58	472.79
529.75	348.74
529.92	400.23
530.09	369.80
530.26	383.85
530.43	416.62
530.60	433.00
530.77	397.89
530.94	437.68
531.11	461.09
531.28	461.09
531.46	351.08
531.63	428.32
531.80	458.74
531.97	433.00
532.14	421.30
532.31	454.06
532.48	468.11
532.65	376.83
532.82	390.87
532.99	362.78
533.16	393.21
533.33	390.87
533.50	489.17
533.67	404.91
533.84	425.98
534.01	386.19
534.18	397.89
534.35	400.23
534.52	486.83
534.69	433.00
534.86	325.33
535.03	428.32
535.20	468.11
535.37	454.06
535.54	332.36
535.71	416.62
535.88	461.09
536.05	435.34
536.22	423.64
536.38	409.59
536.55	379.17
536.72	418.96
536.89	435.34
537.06	449.38
537.23	322.99
537.40	397.89
537.57	397.89
537.74	369.80
537.91	421.30
538.08	416.62
538.25	369.80
538.42	435.34
538.59	425.98
538.75	451.72
538.92	430.66
539.09	416.62
539.26	339.38
539.43	411.93
539.60	423.64
539.77	461.09
539.94	397.89
540.11	402.57
540.28	416.62
540.44	428.32
540.61	428.32
540.78	367.46
540.95	355.76
541.12	454.06
541.29	404.91
541.46	456.40
541.62	482.15
541.79	477.47
541.96	383.85
542.13	461.09
542.30	500.87
542.47	397.89
542.63	404.91
542.80	465.77
542.97	440.02
543.14	465.77
543.31	404.91
543.48	421.30
543.64	433.00
543.81	404.91
543.98	365.12
544.15	353.42
544.32	425.98
544.48	383.85
544.65	440.02
544.82	425.98
544.99	407.25
545.16	425.98
545.32	440.02
545.49	425.98
545.66	458.74
545.83	395.55
546.00	360.44
546.16	423.64
546.33	330.02
546.50	425.98
546.67	440.02
546.83	390.87
547.00	430.66
547.17	454.06
547.34	418.96
547.50	390.87
547.67	430.66
547.84	362.78
548.00	423.64
548.17	454.06
548.34	475.13
548.51	472.79
548.67	362.78
548.84	418.96
549.01	482.15
549.18	444.70
549.34	454.06
549.51	486.83
549.68	402.57
549.84	353.42
550.01	465.77
550.18	521.94
550.34	505.56
550.51	388.53
550.68	423.64
550.84	390.87
551.01	423.64
551.18	491.51
551.34	440.02
551.51	397.89
551.68	425.98
551.84	440.02
552.01	334.70
552.18	409.59
552.34	390.87
552.51	397.89
552.68	440.02
552.84	411.93
553.01	395.55
553.18	437.68
553.34	447.04
553.51	414.27
553.67	423.64
553.84	454.06
554.01	407.25
554.17	442.36
554.34	348.74
554.51	400.23
554.67	381.51
554.84	400.23
555.00	395.55
555.17	425.98
555.33	393.21
555.50	421.30
555.67	421.30
555.83	479.81
556.00	416.62
556.16	554.71
556.33	435.34
556.50	423.64
556.66	393.21
556.83	418.96
556.99	365.12
557.16	456.40
557.32	365.12
557.49	456.40
557.65	358.10
557.82	414.27
557.98	402.57
558.15	388.53
558.32	421.30
558.48	425.98
558.65	482.15
558.81	470.45
558.98	374.49
559.14	482.15
559.31	444.70
559.47	533.64
559.64	393.21
559.80	407.25
559.97	411.93
560.13	383.85
560.30	367.46
560.46	393.21
560.63	444.70
560.79	383.85
560.96	358.10
561.12	435.34
561.29	407.25
561.45	423.64
561.61	402.57
561.78	449.38
561.94	355.76
562.11	369.80
562.27	358.10
562.44	407.25
562.60	355.76
562.77	393.21
562.93	496.19
563.10	411.93
563.26	386.19
563.42	430.66
563.59	414.27
563.75	421.30
563.92	472.79
564.08	390.87
564.24	411.93
564.41	360.44
564.57	416.62
564.74	386.19
564.90	418.96
565.07	372.15
565.23	433.00
565.39	416.62
565.56	425.98
565.72	421.30
565.88	437.68
566.05	393.21
566.21	430.66
566.38	428.32
566.54	393.21
566.70	463.43
566.87	400.23
567.03	388.53
567.19	395.55
567.36	451.72
567.52	393.21
567.68	440.02
567.85	372.15
568.01	444.70
568.17	423.64
568.34	402.57
568.50	535.98
568.66	407.25
568.83	468.11
568.99	496.19
569.15	470.45
569.32	414.27
569.48	395.55
569.64	404.91
569.81	407.25
569.97	442.36
570.13	451.72
570.30	454.06
570.46	461.09
570.62	346.40
570.78	435.34
570.95	449.38
571.11	465.77
571.27	433.00
571.43	435.34
571.60	454.06
571.76	400.23
571.92	433.00
572.09	423.64
572.25	423.64
572.41	404.91
572.57	418.96
572.74	444.70
572.90	428.32
573.06	374.49
573.22	440.02
573.38	404.91
573.55	428.32
573.71	402.57
573.87	470.45
574.03	456.40
574.20	409.59
574.36	437.68
574.52	400.23
574.68	442.36
574.84	442.36
575.01	407.25
575.17	479.81
575.33	447.04
575.49	465.77
575.65	472.79
575.82	440.02
575.98	454.06
576.14	505.56
576.30	362.78
576.46	416.62
576.62	425.98
576.79	444.70
576.95	425.98
577.11	414.27
577.27	390.87
577.43	463.43
577.59	519.60
577.75	423.64
577.92	461.09
578.08	435.34
578.24	411.93
578.40	409.59
578.56	451.72
578.72	449.38
578.88	421.30
579.04	416.62
579.21	402.57
579.37	512.58
579.53	390.87
579.69	339.38
579.85	454.06
580.01	418.96
580.17	428.32
580.33	402.57
580.49	425.98
580.65	409.59
580.82	416.62
580.98	372.15
581.14	449.38
581.30	444.70
581.46	381.51
581.62	395.55
581.78	416.62
581.94	393.21
582.10	402.57
582.26	369.80
582.42	409.59
582.58	468.11
582.74	351.08
582.90	346.40
583.06	433.00
583.22	400.23
583.38	374.49
583.54	390.87
583.70	465.77
583.86	414.27
584.02	351.08
584.18	472.79
584.34	418.96
584.50	440.02
584.66	437.68
584.82	395.55
584.98	418.96
585.14	395.55
585.30	437.68
585.46	383.85
585.62	423.64
585.78	409.59
585.94	409.59
586.10	423.64
586.26	444.70
586.42	451.72
586.58	442.36
586.74	440.02
586.90	409.59
587.06	353.42
587.22	402.57
587.38	379.17
587.54	437.68
587.70	440.02
587.86	416.62
588.02	472.79
588.18	437.68
588.34	409.59
588.49	435.34
588.65	402.57
588.81	388.53
588.97	472.79
589.13	463.43
589.29	395.55
589.45	461.09
589.61	395.55
589.77	407.25
589.93	379.17
590.08	411.93
590.24	360.44
590.40	395.55
590.56	482.15
590.72	430.66
590.88	416.62
591.04	468.11
591.20	390.87
591.35	404.91
591.51	416.62
591.67	369.80
591.83	409.59
591.99	404.91
592.15	369.80
592.31	397.89
592.46	351.08
592.62	458.74
592.78	470.45
592.94	395.55
593.10	404.91
593.26	404.91
593.41	388.53
593.57	395.55
593.73	397.89
593.89	470.45
594.05	430.66
594.20	416.62
594.36	447.04
594.52	353.42
594.68	418.96
594.84	428.32
594.99	491.51
595.15	383.85
595.31	344.06
595.47	409.59
595.62	451.72
595.78	414.27
595.94	397.89
596.10	369.80
596.25	407.25
596.41	428.32
596.57	449.38
596.73	428.32
596.88	425.98
597.04	435.34
597.20	456.40
597.36	407.25
597.51	374.49
597.67	418.96
597.83	451.72
597.99	484.49
598.14	484.49
598.30	425.98
598.46	400.23
598.61	472.79
598.77	376.83
598.93	442.36
599.09	433.00
599.24	428.32
599.40	416.62
599.56	414.27
599.71	433.00
599.87	388.53
600.03	416.62
600.18	454.06
600.34	428.32
600.50	430.66
600.65	362.78
600.81	458.74
600.97	440.02
601.12	416.62
601.28	421.30
601.44	414.27
601.59	416.62
601.75	500.87
601.91	461.09
602.06	425.98
602.22	493.85
602.37	435.34
602.53	416.62
602.69	355.76
602.84	320.65
603.00	372.15
603.16	400.23
603.31	456.40
603.47	409.59
603.62	425.98
603.78	416.62
603.94	414.27
604.09	341.72
604.25	395.55
604.40	400.23
604.56	409.59
604.71	418.96
604.87	435.34
605.03	414.27
605.18	372.15
605.34	397.89
605.49	390.87
605.65	421.30
605.80	407.25
605.96	388.53
606.12	358.10
606.27	404.91
606.43	358.10
606.58	479.81
606.74	437.68
606.89	376.83
607.05	472.79
607.20	510.24
607.36	433.00
607.51	367.46
607.67	479.81
607.82	463.43
607.98	423.64
608.13	388.53
608.29	442.36
608.44	421.30
608.60	449.38
608.75	397.89
608.91	374.49
609.06	458.74
609.22	376.83
609.37	411.93
609.53	430.66
609.68	386.19
609.84	388.53
609.99	308.95
610.15	489.17
