SpectraSuite Data File
++++++++++++++++++++++++++++++++++++
Date: Fri Oct 25 12:10:49 EDT 2013
User: price-jones
Dark Spectrum Present: No
Reference Spectrum Present: No
Number of Sampled Component Spectra: 1
Spectrometers: USB2+H05261
Integration Time (usec): 100000 (USB2+H05261)
Spectra Averaged: 1 (USB2+H05261)
Boxcar Smoothing: 0 (USB2+H05261)
Correct for Electrical Dark: No (USB2+H05261)
Strobe/Lamp Enabled: No (USB2+H05261)
Correct for Detector Non-linearity: No (USB2+H05261)
Correct for Stray Light: No (USB2+H05261)
Number of Pixels in Processed Spectrum: 2048
>>>>>Begin Processed Spectral Data<<<<<
365.73	315.97
365.92	315.97
366.12	315.97
366.32	231.71
366.52	266.82
366.72	236.39
366.91	198.95
367.11	280.86
367.31	262.14
367.51	238.73
367.70	203.63
367.90	266.82
368.10	222.35
368.30	292.57
368.49	229.37
368.69	262.14
368.89	248.10
369.09	252.78
369.28	318.31
369.48	227.03
369.68	271.50
369.87	290.23
370.07	255.12
370.27	297.25
370.47	367.46
370.66	280.86
370.86	367.46
371.06	306.61
371.25	393.21
371.45	369.80
371.65	337.04
371.84	339.38
372.04	449.38
372.24	390.87
372.44	390.87
372.63	404.91
372.83	402.57
373.03	430.66
373.22	379.17
373.42	440.02
373.62	388.53
373.81	463.43
374.01	454.06
374.21	416.62
374.40	353.42
374.60	449.38
374.79	344.06
374.99	393.21
375.19	407.25
375.38	425.98
375.58	416.62
375.78	414.27
375.97	409.59
376.17	402.57
376.37	486.83
376.56	435.34
376.76	447.04
376.95	411.93
377.15	475.13
377.35	402.57
377.54	404.91
377.74	372.15
377.93	407.25
378.13	407.25
378.33	411.93
378.52	402.57
378.72	440.02
378.91	461.09
379.11	430.66
379.31	411.93
379.50	334.70
379.70	411.93
379.89	353.42
380.09	390.87
380.28	353.42
380.48	444.70
380.68	440.02
380.87	381.51
381.07	386.19
381.26	468.11
381.46	393.21
381.65	402.57
381.85	362.78
382.04	404.91
382.24	409.59
382.43	360.44
382.63	367.46
382.83	351.08
383.02	395.55
383.22	477.47
383.41	449.38
383.61	411.93
383.80	404.91
384.00	395.55
384.19	397.89
384.39	407.25
384.58	416.62
384.78	454.06
384.97	430.66
385.17	367.46
385.36	351.08
385.56	430.66
385.75	393.21
385.95	435.34
386.14	451.72
386.34	404.91
386.53	393.21
386.72	425.98
386.92	435.34
387.11	362.78
387.31	362.78
387.50	360.44
387.70	318.31
387.89	442.36
388.09	383.85
388.28	411.93
388.48	468.11
388.67	418.96
388.86	409.59
389.06	404.91
389.25	374.49
389.45	456.40
389.64	423.64
389.84	388.53
390.03	383.85
390.22	381.51
390.42	463.43
390.61	437.68
390.81	376.83
391.00	442.36
391.19	407.25
391.39	421.30
391.58	386.19
391.78	456.40
391.97	358.10
392.16	388.53
392.36	428.32
392.55	430.66
392.75	369.80
392.94	458.74
393.13	442.36
393.33	353.42
393.52	449.38
393.71	409.59
393.91	416.62
394.10	472.79
394.29	339.38
394.49	346.40
394.68	433.00
394.88	423.64
395.07	449.38
395.26	395.55
395.46	407.25
395.65	444.70
395.84	465.77
396.04	547.69
396.23	341.72
396.42	407.25
396.62	393.21
396.81	468.11
397.00	386.19
397.19	367.46
397.39	374.49
397.58	362.78
397.77	367.46
397.97	393.21
398.16	362.78
398.35	402.57
398.55	407.25
398.74	449.38
398.93	454.06
399.12	372.15
399.32	365.12
399.51	365.12
399.70	477.47
399.90	400.23
400.09	390.87
400.28	433.00
400.47	437.68
400.67	425.98
400.86	409.59
401.05	482.15
401.24	451.72
401.44	355.76
401.63	435.34
401.82	376.83
402.01	346.40
402.21	327.68
402.40	407.25
402.59	458.74
402.78	341.72
402.97	372.15
403.17	400.23
403.36	470.45
403.55	479.81
403.74	386.19
403.93	409.59
404.13	437.68
404.32	341.72
404.51	367.46
404.70	435.34
404.89	414.27
405.09	458.74
405.28	461.09
405.47	411.93
405.66	407.25
405.85	444.70
406.05	433.00
406.24	393.21
406.43	374.49
406.62	435.34
406.81	458.74
407.00	458.74
407.20	372.15
407.39	386.19
407.58	348.74
407.77	411.93
407.96	407.25
408.15	362.78
408.34	351.08
408.54	367.46
408.73	423.64
408.92	463.43
409.11	369.80
409.30	472.79
409.49	430.66
409.68	381.51
409.87	395.55
410.07	454.06
410.26	402.57
410.45	393.21
410.64	351.08
410.83	414.27
411.02	379.17
411.21	409.59
411.40	463.43
411.59	475.13
411.78	477.47
411.98	358.10
412.17	444.70
412.36	379.17
412.55	444.70
412.74	414.27
412.93	470.45
413.12	435.34
413.31	402.57
413.50	479.81
413.69	402.57
413.88	468.11
414.07	360.44
414.26	425.98
414.45	404.91
414.64	418.96
414.83	397.89
415.02	435.34
415.22	423.64
415.41	517.26
415.60	421.30
415.79	425.98
415.98	372.15
416.17	479.81
416.36	433.00
416.55	386.19
416.74	383.85
416.93	444.70
417.12	407.25
417.31	365.12
417.50	388.53
417.69	367.46
417.88	440.02
418.07	402.57
418.26	362.78
418.45	362.78
418.64	383.85
418.83	458.74
419.02	395.55
419.21	472.79
419.39	388.53
419.58	383.85
419.77	423.64
419.96	449.38
420.15	390.87
420.34	416.62
420.53	418.96
420.72	484.49
420.91	414.27
421.10	383.85
421.29	477.47
421.48	444.70
421.67	418.96
421.86	472.79
422.05	393.21
422.24	416.62
422.43	411.93
422.61	400.23
422.80	383.85
422.99	451.72
423.18	442.36
423.37	414.27
423.56	404.91
423.75	374.49
423.94	395.55
424.13	402.57
424.32	365.12
424.50	430.66
424.69	395.55
424.88	475.13
425.07	388.53
425.26	440.02
425.45	381.51
425.64	458.74
425.83	367.46
426.01	433.00
426.20	421.30
426.39	369.80
426.58	379.17
426.77	447.04
426.96	491.51
427.15	372.15
427.33	454.06
427.52	402.57
427.71	416.62
427.90	430.66
428.09	411.93
428.28	411.93
428.46	416.62
428.65	428.32
428.84	463.43
429.03	465.77
429.22	461.09
429.40	332.36
429.59	468.11
429.78	369.80
429.97	465.77
430.16	425.98
430.34	404.91
430.53	437.68
430.72	489.17
430.91	496.19
431.10	425.98
431.28	418.96
431.47	435.34
431.66	423.64
431.85	344.06
432.03	411.93
432.22	486.83
432.41	358.10
432.60	486.83
432.79	358.10
432.97	416.62
433.16	458.74
433.35	440.02
433.54	402.57
433.72	447.04
433.91	418.96
434.10	344.06
434.28	444.70
434.47	428.32
434.66	500.87
434.85	444.70
435.03	414.27
435.22	425.98
435.41	458.74
435.59	461.09
435.78	402.57
435.97	351.08
436.16	489.17
436.34	428.32
436.53	367.46
436.72	447.04
436.90	526.62
437.09	407.25
437.28	355.76
437.46	447.04
437.65	409.59
437.84	425.98
438.02	458.74
438.21	468.11
438.40	416.62
438.58	367.46
438.77	379.17
438.96	393.21
439.14	372.15
439.33	421.30
439.52	376.83
439.70	442.36
439.89	386.19
440.08	449.38
440.26	435.34
440.45	383.85
440.63	360.44
440.82	479.81
441.01	437.68
441.19	477.47
441.38	353.42
441.57	428.32
441.75	416.62
441.94	416.62
442.12	346.40
442.31	416.62
442.50	404.91
442.68	411.93
442.87	402.57
443.05	325.33
443.24	386.19
443.43	393.21
443.61	355.76
443.80	456.40
443.98	344.06
444.17	425.98
444.35	519.60
444.54	442.36
444.73	428.32
444.91	421.30
445.10	409.59
445.28	428.32
445.47	454.06
445.65	404.91
445.84	425.98
446.02	444.70
446.21	442.36
446.39	395.55
446.58	428.32
446.77	374.49
446.95	372.15
447.14	376.83
447.32	351.08
447.51	386.19
447.69	440.02
447.88	381.51
448.06	456.40
448.25	372.15
448.43	411.93
448.62	397.89
448.80	393.21
448.99	475.13
449.17	348.74
449.36	376.83
449.54	447.04
449.73	390.87
449.91	425.98
450.10	395.55
450.28	447.04
450.46	484.49
450.65	505.56
450.83	428.32
451.02	351.08
451.20	376.83
451.39	472.79
451.57	430.66
451.76	411.93
451.94	407.25
452.13	404.91
452.31	479.81
452.49	428.32
452.68	341.72
452.86	458.74
453.05	447.04
453.23	428.32
453.42	463.43
453.60	355.76
453.78	437.68
453.97	440.02
454.15	395.55
454.34	500.87
454.52	358.10
454.70	468.11
454.89	470.45
455.07	393.21
455.26	379.17
455.44	411.93
455.62	395.55
455.81	411.93
455.99	381.51
456.17	372.15
456.36	425.98
456.54	423.64
456.73	383.85
456.91	369.80
457.09	430.66
457.28	423.64
457.46	404.91
457.64	409.59
457.83	372.15
458.01	346.40
458.19	444.70
458.38	451.72
458.56	381.51
458.74	400.23
458.93	447.04
459.11	379.17
459.29	390.87
459.48	493.85
459.66	395.55
459.84	395.55
460.03	496.19
460.21	425.98
460.39	421.30
460.57	423.64
460.76	362.78
460.94	451.72
461.12	458.74
461.31	395.55
461.49	421.30
461.67	433.00
461.85	433.00
462.04	425.98
462.22	800.46
462.40	411.93
462.59	409.59
462.77	386.19
462.95	440.02
463.13	376.83
463.32	421.30
463.50	449.38
463.68	425.98
463.86	365.12
464.05	393.21
464.23	418.96
464.41	409.59
464.59	395.55
464.78	390.87
464.96	435.34
465.14	404.91
465.32	365.12
465.50	409.59
465.69	447.04
465.87	465.77
466.05	430.66
466.23	428.32
466.41	374.49
466.60	353.42
466.78	477.47
466.96	346.40
467.14	404.91
467.32	407.25
467.51	447.04
467.69	411.93
467.87	458.74
468.05	400.23
468.23	458.74
468.41	407.25
468.60	411.93
468.78	407.25
468.96	440.02
469.14	435.34
469.32	416.62
469.50	463.43
469.69	442.36
469.87	444.70
470.05	463.43
470.23	440.02
470.41	423.64
470.59	418.96
470.77	376.83
470.95	390.87
471.14	430.66
471.32	425.98
471.50	498.53
471.68	365.12
471.86	407.25
472.04	353.42
472.22	477.47
472.40	440.02
472.58	353.42
472.77	470.45
472.95	428.32
473.13	416.62
473.31	376.83
473.49	411.93
473.67	388.53
473.85	435.34
474.03	411.93
474.21	393.21
474.39	416.62
474.57	421.30
474.75	456.40
474.93	430.66
475.12	423.64
475.30	386.19
475.48	397.89
475.66	395.55
475.84	395.55
476.02	390.87
476.20	400.23
476.38	435.34
476.56	458.74
476.74	416.62
476.92	386.19
477.10	397.89
477.28	463.43
477.46	411.93
477.64	395.55
477.82	465.77
478.00	425.98
478.18	386.19
478.36	414.27
478.54	386.19
478.72	409.59
478.90	414.27
479.08	369.80
479.26	425.98
479.44	334.70
479.62	449.38
479.80	423.64
479.98	400.23
480.16	437.68
480.34	376.83
480.52	418.96
480.70	393.21
480.88	379.17
481.06	395.55
481.24	425.98
481.41	430.66
481.59	451.72
481.77	411.93
481.95	346.40
482.13	461.09
482.31	435.34
482.49	440.02
482.67	451.72
482.85	475.13
483.03	402.57
483.21	423.64
483.39	477.47
483.57	372.15
483.74	383.85
483.92	411.93
484.10	402.57
484.28	505.56
484.46	400.23
484.64	416.62
484.82	390.87
485.00	461.09
485.18	386.19
485.35	449.38
485.53	416.62
485.71	533.64
485.89	416.62
486.07	402.57
486.25	463.43
486.43	454.06
486.61	430.66
486.78	414.27
486.96	409.59
487.14	407.25
487.32	428.32
487.50	376.83
487.68	393.21
487.85	447.04
488.03	425.98
488.21	390.87
488.39	435.34
488.57	433.00
488.75	423.64
488.92	519.60
489.10	421.30
489.28	468.11
489.46	397.89
489.64	411.93
489.81	486.83
489.99	381.51
490.17	404.91
490.35	482.15
490.53	383.85
490.70	435.34
490.88	367.46
491.06	435.34
491.24	386.19
491.41	524.28
491.59	486.83
491.77	402.57
491.95	400.23
492.13	325.33
492.30	468.11
492.48	339.38
492.66	411.93
492.84	437.68
493.01	369.80
493.19	435.34
493.37	416.62
493.54	383.85
493.72	393.21
493.90	404.91
494.08	468.11
494.25	393.21
494.43	407.25
494.61	440.02
494.79	372.15
494.96	397.89
495.14	433.00
495.32	458.74
495.49	404.91
495.67	383.85
495.85	390.87
496.02	475.13
496.20	440.02
496.38	425.98
496.55	407.25
496.73	454.06
496.91	407.25
497.09	414.27
497.26	433.00
497.44	437.68
497.62	463.43
497.79	379.17
497.97	411.93
498.14	425.98
498.32	421.30
498.50	414.27
498.67	421.30
498.85	383.85
499.03	421.30
499.20	447.04
499.38	393.21
499.56	423.64
499.73	451.72
499.91	425.98
500.08	390.87
500.26	407.25
500.44	346.40
500.61	407.25
500.79	430.66
500.97	407.25
501.14	468.11
501.32	414.27
501.49	388.53
501.67	442.36
501.84	463.43
502.02	465.77
502.20	425.98
502.37	430.66
502.55	402.57
502.72	414.27
502.90	470.45
503.07	428.32
503.25	374.49
503.43	379.17
503.60	407.25
503.78	465.77
503.95	482.15
504.13	409.59
504.30	463.43
504.48	447.04
504.65	404.91
504.83	428.32
505.01	442.36
505.18	353.42
505.36	430.66
505.53	477.47
505.71	465.77
505.88	393.21
506.06	402.57
506.23	465.77
506.41	416.62
506.58	421.30
506.76	376.83
506.93	390.87
507.11	430.66
507.28	402.57
507.46	374.49
507.63	428.32
507.81	440.02
507.98	411.93
508.16	344.06
508.33	444.70
508.50	449.38
508.68	458.74
508.85	440.02
509.03	381.51
509.20	381.51
509.38	386.19
509.55	423.64
509.73	440.02
509.90	454.06
510.08	421.30
510.25	451.72
510.42	348.74
510.60	411.93
510.77	421.30
510.95	404.91
511.12	386.19
511.30	346.40
511.47	477.47
511.64	430.66
511.82	430.66
511.99	404.91
512.17	369.80
512.34	461.09
512.51	477.47
512.69	374.49
512.86	397.89
513.04	376.83
513.21	383.85
513.38	421.30
513.56	409.59
513.73	390.87
513.90	390.87
514.08	390.87
514.25	489.17
514.43	402.57
514.60	402.57
514.77	374.49
514.95	430.66
515.12	421.30
515.29	435.34
515.47	425.98
515.64	437.68
515.81	463.43
515.99	454.06
516.16	482.15
516.33	376.83
516.51	383.85
516.68	444.70
516.85	468.11
517.03	444.70
517.20	418.96
517.37	416.62
517.54	444.70
517.72	451.72
517.89	404.91
518.06	456.40
518.24	437.68
518.41	456.40
518.58	418.96
518.75	383.85
518.93	348.74
519.10	421.30
519.27	369.80
519.45	400.23
519.62	395.55
519.79	454.06
519.96	425.98
520.14	376.83
520.31	402.57
520.48	409.59
520.65	379.17
520.83	414.27
521.00	491.51
521.17	437.68
521.34	418.96
521.52	425.98
521.69	442.36
521.86	418.96
522.03	386.19
522.20	369.80
522.38	493.85
522.55	383.85
522.72	444.70
522.89	393.21
523.07	514.92
523.24	411.93
523.41	454.06
523.58	404.91
523.75	404.91
523.92	435.34
524.10	440.02
524.27	386.19
524.44	358.10
524.61	381.51
524.78	449.38
524.96	388.53
525.13	372.15
525.30	468.11
525.47	486.83
525.64	393.21
525.81	475.13
525.98	402.57
526.16	400.23
526.33	339.38
526.50	393.21
526.67	376.83
526.84	454.06
527.01	369.80
527.18	418.96
527.36	397.89
527.53	418.96
527.70	435.34
527.87	390.87
528.04	416.62
528.21	379.17
528.38	444.70
528.55	430.66
528.72	477.47
528.89	442.36
529.07	411.93
529.24	346.40
529.41	376.83
529.58	395.55
529.75	423.64
529.92	411.93
530.09	442.36
530.26	416.62
530.43	430.66
530.60	428.32
530.77	416.62
530.94	425.98
531.11	444.70
531.28	374.49
531.46	414.27
531.63	418.96
531.80	484.49
531.97	500.87
532.14	449.38
532.31	388.53
532.48	454.06
532.65	390.87
532.82	369.80
532.99	360.44
533.16	332.36
533.33	421.30
533.50	372.15
533.67	374.49
533.84	421.30
534.01	486.83
534.18	386.19
534.35	461.09
534.52	358.10
534.69	479.81
534.86	383.85
535.03	447.04
535.20	393.21
535.37	482.15
535.54	351.08
535.71	437.68
535.88	411.93
536.05	416.62
536.22	414.27
536.38	447.04
536.55	397.89
536.72	404.91
536.89	337.04
537.06	407.25
537.23	395.55
537.40	425.98
537.57	425.98
537.74	463.43
537.91	395.55
538.08	430.66
538.25	435.34
538.42	411.93
538.59	475.13
538.75	463.43
538.92	395.55
539.09	440.02
539.26	379.17
539.43	470.45
539.60	376.83
539.77	379.17
539.94	379.17
540.11	418.96
540.28	379.17
540.44	414.27
540.61	411.93
540.78	411.93
540.95	418.96
541.12	414.27
541.29	475.13
541.46	428.32
541.62	388.53
541.79	418.96
541.96	449.38
542.13	407.25
542.30	425.98
542.47	470.45
542.63	402.57
542.80	388.53
542.97	477.47
543.14	437.68
543.31	440.02
543.48	486.83
543.64	407.25
543.81	444.70
543.98	435.34
544.15	397.89
544.32	463.43
544.48	418.96
544.65	395.55
544.82	400.23
544.99	449.38
545.16	428.32
545.32	381.51
545.49	458.74
545.66	454.06
545.83	395.55
546.00	397.89
546.16	414.27
546.33	402.57
546.50	440.02
546.67	482.15
546.83	367.46
547.00	442.36
547.17	390.87
547.34	402.57
547.50	369.80
547.67	458.74
547.84	449.38
548.00	482.15
548.17	433.00
548.34	395.55
548.51	421.30
548.67	451.72
548.84	454.06
549.01	414.27
549.18	414.27
549.34	379.17
549.51	430.66
549.68	407.25
549.84	437.68
550.01	386.19
550.18	484.49
550.34	503.22
550.51	449.38
550.68	416.62
550.84	355.76
551.01	400.23
551.18	430.66
551.34	395.55
551.51	353.42
551.68	374.49
551.84	463.43
552.01	367.46
552.18	386.19
552.34	456.40
552.51	421.30
552.68	447.04
552.84	397.89
553.01	479.81
553.18	395.55
553.34	456.40
553.51	451.72
553.67	416.62
553.84	489.17
554.01	458.74
554.17	369.80
554.34	451.72
554.51	454.06
554.67	458.74
554.84	440.02
555.00	411.93
555.17	414.27
555.33	461.09
555.50	397.89
555.67	472.79
555.83	407.25
556.00	411.93
556.16	521.94
556.33	489.17
556.50	395.55
556.66	454.06
556.83	444.70
556.99	428.32
557.16	475.13
557.32	470.45
557.49	376.83
557.65	500.87
557.82	402.57
557.98	425.98
558.15	379.17
558.32	388.53
558.48	447.04
558.65	475.13
558.81	433.00
558.98	407.25
559.14	425.98
559.31	430.66
559.47	444.70
559.64	369.80
559.80	477.47
559.97	465.77
560.13	393.21
560.30	369.80
560.46	407.25
560.63	386.19
560.79	409.59
560.96	365.12
561.12	404.91
561.29	365.12
561.45	418.96
561.61	376.83
561.78	458.74
561.94	402.57
562.11	465.77
562.27	411.93
562.44	337.04
562.60	444.70
562.77	416.62
562.93	409.59
563.10	435.34
563.26	402.57
563.42	454.06
563.59	463.43
563.75	465.77
563.92	353.42
564.08	402.57
564.24	435.34
564.41	421.30
564.57	442.36
564.74	372.15
564.90	325.33
565.07	393.21
565.23	437.68
565.39	365.12
565.56	440.02
565.72	411.93
565.88	470.45
566.05	386.19
566.21	458.74
566.38	369.80
566.54	437.68
566.70	433.00
566.87	346.40
567.03	360.44
567.19	451.72
567.36	418.96
567.52	393.21
567.68	404.91
567.85	440.02
568.01	379.17
568.17	442.36
568.34	407.25
568.50	372.15
568.66	353.42
568.83	468.11
568.99	374.49
569.15	477.47
569.32	383.85
569.48	346.40
569.64	381.51
569.81	407.25
569.97	390.87
570.13	449.38
570.30	468.11
570.46	358.10
570.62	383.85
570.78	451.72
570.95	397.89
571.11	463.43
571.27	484.49
571.43	330.02
571.60	402.57
571.76	428.32
571.92	486.83
572.09	407.25
572.25	437.68
572.41	428.32
572.57	435.34
572.74	425.98
572.90	409.59
573.06	367.46
573.22	365.12
573.38	440.02
573.55	505.56
573.71	407.25
573.87	416.62
574.03	496.19
574.20	416.62
574.36	437.68
574.52	386.19
574.68	440.02
574.84	381.51
575.01	454.06
575.17	418.96
575.33	435.34
575.49	477.47
575.65	456.40
575.82	344.06
575.98	393.21
576.14	416.62
576.30	463.43
576.46	367.46
576.62	479.81
576.79	395.55
576.95	468.11
577.11	397.89
577.27	514.92
577.43	437.68
577.59	486.83
577.75	402.57
577.92	407.25
578.08	400.23
578.24	404.91
578.40	451.72
578.56	433.00
578.72	372.15
578.88	409.59
579.04	456.40
579.21	444.70
579.37	430.66
579.53	383.85
579.69	496.19
579.85	444.70
580.01	407.25
580.17	423.64
580.33	447.04
580.49	425.98
580.65	479.81
580.82	430.66
580.98	428.32
581.14	404.91
581.30	484.49
581.46	360.44
581.62	414.27
581.78	411.93
581.94	496.19
582.10	423.64
582.26	423.64
582.42	470.45
582.58	435.34
582.74	430.66
582.90	416.62
583.06	449.38
583.22	390.87
583.38	421.30
583.54	430.66
583.70	409.59
583.86	400.23
584.02	456.40
584.18	393.21
584.34	353.42
584.50	435.34
584.66	423.64
584.82	383.85
584.98	433.00
585.14	433.00
585.30	475.13
585.46	442.36
585.62	416.62
585.78	425.98
585.94	407.25
586.10	430.66
586.26	479.81
586.42	456.40
586.58	379.17
586.74	376.83
586.90	360.44
587.06	456.40
587.22	416.62
587.38	400.23
587.54	442.36
587.70	409.59
587.86	449.38
588.02	428.32
588.18	454.06
588.34	496.19
588.49	430.66
588.65	390.87
588.81	400.23
588.97	496.19
589.13	381.51
589.29	428.32
589.45	400.23
589.61	449.38
589.77	397.89
589.93	290.23
590.08	383.85
590.24	395.55
590.40	444.70
590.56	458.74
590.72	407.25
590.88	358.10
591.04	451.72
591.20	421.30
591.35	402.57
591.51	425.98
591.67	409.59
591.83	365.12
591.99	444.70
592.15	414.27
592.31	397.89
592.46	400.23
592.62	463.43
592.78	374.49
592.94	418.96
593.10	409.59
593.26	416.62
593.41	423.64
593.57	440.02
593.73	386.19
593.89	442.36
594.05	421.30
594.20	404.91
594.36	465.77
594.52	472.79
594.68	486.83
594.84	313.63
594.99	383.85
595.15	512.58
595.31	456.40
595.47	489.17
595.62	437.68
595.78	418.96
595.94	372.15
596.10	411.93
596.25	440.02
596.41	510.24
596.57	376.83
596.73	440.02
596.88	451.72
597.04	472.79
597.20	423.64
597.36	444.70
597.51	386.19
597.67	421.30
597.83	402.57
597.99	489.17
598.14	414.27
598.30	379.17
598.46	395.55
598.61	465.77
598.77	433.00
598.93	456.40
599.09	425.98
599.24	393.21
599.40	404.91
599.56	353.42
599.71	402.57
599.87	414.27
600.03	425.98
600.18	409.59
600.34	383.85
600.50	435.34
600.65	409.59
600.81	477.47
600.97	416.62
601.12	416.62
601.28	444.70
601.44	390.87
601.59	372.15
601.75	395.55
601.91	449.38
602.06	418.96
602.22	454.06
602.37	409.59
602.53	433.00
602.69	433.00
602.84	390.87
603.00	402.57
603.16	395.55
603.31	491.51
603.47	379.17
603.62	428.32
603.78	414.27
603.94	477.47
604.09	393.21
604.25	386.19
604.40	421.30
604.56	418.96
604.71	374.49
604.87	435.34
605.03	393.21
605.18	437.68
605.34	428.32
605.49	463.43
605.65	479.81
605.80	365.12
605.96	388.53
606.12	458.74
606.27	493.85
606.43	395.55
606.58	517.26
606.74	456.40
606.89	458.74
607.05	454.06
607.20	437.68
607.36	447.04
607.51	337.04
607.67	414.27
607.82	407.25
607.98	388.53
608.13	381.51
608.29	421.30
608.44	379.17
608.60	456.40
608.75	458.74
608.91	472.79
609.06	468.11
609.22	493.85
609.37	437.68
609.53	379.17
609.68	454.06
609.84	393.21
609.99	381.51
610.15	447.04
