SpectraSuite Data File
++++++++++++++++++++++++++++++++++++
Date: Fri Oct 25 12:10:33 EDT 2013
User: price-jones
Dark Spectrum Present: No
Reference Spectrum Present: No
Number of Sampled Component Spectra: 1
Spectrometers: USB2+H05261
Integration Time (usec): 100000 (USB2+H05261)
Spectra Averaged: 1 (USB2+H05261)
Boxcar Smoothing: 0 (USB2+H05261)
Correct for Electrical Dark: No (USB2+H05261)
Strobe/Lamp Enabled: No (USB2+H05261)
Correct for Detector Non-linearity: No (USB2+H05261)
Correct for Stray Light: No (USB2+H05261)
Number of Pixels in Processed Spectrum: 2048
>>>>>Begin Processed Spectral Data<<<<<
365.73	306.61
365.92	306.61
366.12	306.61
366.32	259.80
366.52	180.22
366.72	285.55
366.91	276.18
367.11	234.05
367.31	208.31
367.51	182.56
367.70	241.08
367.90	257.46
368.10	236.39
368.30	266.82
368.49	271.50
368.69	266.82
368.89	238.73
369.09	224.69
369.28	252.78
369.48	266.82
369.68	271.50
369.87	285.55
370.07	283.20
370.27	348.74
370.47	327.68
370.66	320.65
370.86	404.91
371.06	381.51
371.25	416.62
371.45	346.40
371.65	463.43
371.84	337.04
372.04	372.15
372.24	353.42
372.44	372.15
372.63	416.62
372.83	369.80
373.03	362.78
373.22	404.91
373.42	435.34
373.62	442.36
373.81	468.11
374.01	514.92
374.21	528.96
374.40	458.74
374.60	433.00
374.79	372.15
374.99	397.89
375.19	418.96
375.38	386.19
375.58	372.15
375.78	468.11
375.97	430.66
376.17	449.38
376.37	496.19
376.56	454.06
376.76	454.06
376.95	440.02
377.15	383.85
377.35	421.30
377.54	444.70
377.74	404.91
377.93	416.62
378.13	344.06
378.33	423.64
378.52	390.87
378.72	421.30
378.91	430.66
379.11	402.57
379.31	416.62
379.50	376.83
379.70	470.45
379.89	433.00
380.09	397.89
380.28	374.49
380.48	358.10
380.68	407.25
380.87	404.91
381.07	393.21
381.26	416.62
381.46	376.83
381.65	451.72
381.85	423.64
382.04	360.44
382.24	416.62
382.43	381.51
382.63	411.93
382.83	407.25
383.02	444.70
383.22	393.21
383.41	442.36
383.61	388.53
383.80	421.30
384.00	456.40
384.19	388.53
384.39	468.11
384.58	372.15
384.78	386.19
384.97	404.91
385.17	465.77
385.36	376.83
385.56	444.70
385.75	362.78
385.95	414.27
386.14	435.34
386.34	341.72
386.53	381.51
386.72	402.57
386.92	404.91
387.11	395.55
387.31	416.62
387.50	365.12
387.70	388.53
387.89	388.53
388.09	374.49
388.28	409.59
388.48	330.02
388.67	388.53
388.86	362.78
389.06	355.76
389.25	358.10
389.45	393.21
389.64	451.72
389.84	475.13
390.03	411.93
390.22	421.30
390.42	428.32
390.61	311.29
390.81	381.51
391.00	402.57
391.19	437.68
391.39	383.85
391.58	360.44
391.78	465.77
391.97	327.68
392.16	428.32
392.36	468.11
392.55	500.87
392.75	400.23
392.94	444.70
393.13	421.30
393.33	372.15
393.52	414.27
393.71	440.02
393.91	411.93
394.10	393.21
394.29	430.66
394.49	397.89
394.68	416.62
394.88	388.53
395.07	369.80
395.26	390.87
395.46	395.55
395.65	383.85
395.84	390.87
396.04	411.93
396.23	341.72
396.42	407.25
396.62	407.25
396.81	447.04
397.00	358.10
397.19	411.93
397.39	390.87
397.58	388.53
397.77	374.49
397.97	372.15
398.16	390.87
398.35	367.46
398.55	376.83
398.74	390.87
398.93	425.98
399.12	379.17
399.32	332.36
399.51	320.65
399.70	449.38
399.90	409.59
400.09	411.93
400.28	393.21
400.47	425.98
400.67	400.23
400.86	414.27
401.05	447.04
401.24	409.59
401.44	393.21
401.63	360.44
401.82	477.47
402.01	472.79
402.21	402.57
402.40	437.68
402.59	414.27
402.78	423.64
402.97	463.43
403.17	414.27
403.36	423.64
403.55	468.11
403.74	332.36
403.93	353.42
404.13	358.10
404.32	437.68
404.51	397.89
404.70	404.91
404.89	402.57
405.09	425.98
405.28	397.89
405.47	395.55
405.66	425.98
405.85	435.34
406.05	383.85
406.24	367.46
406.43	351.08
406.62	468.11
406.81	437.68
407.00	421.30
407.20	325.33
407.39	393.21
407.58	381.51
407.77	411.93
407.96	386.19
408.15	416.62
408.34	411.93
408.54	383.85
408.73	400.23
408.92	475.13
409.11	369.80
409.30	383.85
409.49	395.55
409.68	454.06
409.87	407.25
410.07	397.89
410.26	414.27
410.45	449.38
410.64	393.21
410.83	390.87
411.02	407.25
411.21	456.40
411.40	383.85
411.59	411.93
411.78	334.70
411.98	388.53
412.17	416.62
412.36	381.51
412.55	280.86
412.74	456.40
412.93	416.62
413.12	430.66
413.31	402.57
413.50	411.93
413.69	421.30
413.88	418.96
414.07	374.49
414.26	465.77
414.45	327.68
414.64	498.53
414.83	482.15
415.02	421.30
415.22	430.66
415.41	475.13
415.60	355.76
415.79	372.15
415.98	393.21
416.17	365.12
416.36	444.70
416.55	400.23
416.74	381.51
416.93	440.02
417.12	374.49
417.31	400.23
417.50	402.57
417.69	430.66
417.88	409.59
418.07	341.72
418.26	421.30
418.45	348.74
418.64	416.62
418.83	423.64
419.02	404.91
419.21	433.00
419.39	360.44
419.58	444.70
419.77	461.09
419.96	451.72
420.15	369.80
420.34	332.36
420.53	451.72
420.72	430.66
420.91	395.55
421.10	402.57
421.29	414.27
421.48	433.00
421.67	465.77
421.86	395.55
422.05	374.49
422.24	407.25
422.43	332.36
422.61	461.09
422.80	379.17
422.99	388.53
423.18	449.38
423.37	369.80
423.56	388.53
423.75	386.19
423.94	402.57
424.13	327.68
424.32	339.38
424.50	425.98
424.69	433.00
424.88	428.32
425.07	435.34
425.26	397.89
425.45	421.30
425.64	376.83
425.83	421.30
426.01	409.59
426.20	442.36
426.39	433.00
426.58	433.00
426.77	423.64
426.96	440.02
427.15	423.64
427.33	379.17
427.52	341.72
427.71	440.02
427.90	360.44
428.09	374.49
428.28	346.40
428.46	470.45
428.65	437.68
428.84	400.23
429.03	383.85
429.22	493.85
429.40	404.91
429.59	435.34
429.78	351.08
429.97	418.96
430.16	292.57
430.34	418.96
430.53	428.32
430.72	390.87
430.91	365.12
431.10	383.85
431.28	369.80
431.47	423.64
431.66	404.91
431.85	369.80
432.03	397.89
432.22	500.87
432.41	428.32
432.60	437.68
432.79	369.80
432.97	397.89
433.16	369.80
433.35	327.68
433.54	365.12
433.72	386.19
433.91	395.55
434.10	376.83
434.28	472.79
434.47	456.40
434.66	353.42
434.85	440.02
435.03	475.13
435.22	500.87
435.41	440.02
435.59	388.53
435.78	346.40
435.97	332.36
436.16	468.11
436.34	472.79
436.53	414.27
436.72	430.66
436.90	388.53
437.09	388.53
437.28	372.15
437.46	376.83
437.65	430.66
437.84	425.98
438.02	407.25
438.21	374.49
438.40	397.89
438.58	416.62
438.77	409.59
438.96	397.89
439.14	430.66
439.33	496.19
439.52	400.23
439.70	344.06
439.89	428.32
440.08	374.49
440.26	449.38
440.45	322.99
440.63	397.89
440.82	381.51
441.01	409.59
441.19	430.66
441.38	449.38
441.57	337.04
441.75	430.66
441.94	423.64
442.12	425.98
442.31	416.62
442.50	374.49
442.68	447.04
442.87	402.57
443.05	355.76
443.24	463.43
443.43	458.74
443.61	404.91
443.80	507.90
443.98	388.53
444.17	407.25
444.35	430.66
444.54	348.74
444.73	390.87
444.91	402.57
445.10	365.12
445.28	374.49
445.47	421.30
445.65	409.59
445.84	444.70
446.02	430.66
446.21	372.15
446.39	308.95
446.58	397.89
446.77	468.11
446.95	425.98
447.14	435.34
447.32	334.70
447.51	397.89
447.69	369.80
447.88	425.98
448.06	440.02
448.25	411.93
448.43	435.34
448.62	440.02
448.80	395.55
448.99	458.74
449.17	454.06
449.36	386.19
449.54	393.21
449.73	353.42
449.91	423.64
450.10	437.68
450.28	442.36
450.46	421.30
450.65	458.74
450.83	489.17
451.02	402.57
451.20	454.06
451.39	440.02
451.57	437.68
451.76	425.98
451.94	425.98
452.13	430.66
452.31	397.89
452.49	393.21
452.68	411.93
452.86	456.40
453.05	433.00
453.23	416.62
453.42	386.19
453.60	430.66
453.78	444.70
453.97	360.44
454.15	315.97
454.34	454.06
454.52	383.85
454.70	374.49
454.89	402.57
455.07	402.57
455.26	348.74
455.44	433.00
455.62	423.64
455.81	449.38
455.99	430.66
456.17	435.34
456.36	400.23
456.54	381.51
456.73	351.08
456.91	395.55
457.09	400.23
457.28	425.98
457.46	428.32
457.64	451.72
457.83	388.53
458.01	470.45
458.19	463.43
458.38	430.66
458.56	491.51
458.74	428.32
458.93	320.65
459.11	400.23
459.29	376.83
459.48	397.89
459.66	428.32
459.84	369.80
460.03	386.19
460.21	423.64
460.39	430.66
460.57	472.79
460.76	397.89
460.94	351.08
461.12	465.77
461.31	418.96
461.49	463.43
461.67	463.43
461.85	393.21
462.04	395.55
462.22	802.80
462.40	428.32
462.59	454.06
462.77	411.93
462.95	379.17
463.13	397.89
463.32	425.98
463.50	400.23
463.68	433.00
463.86	397.89
464.05	411.93
464.23	510.24
464.41	388.53
464.59	374.49
464.78	423.64
464.96	397.89
465.14	428.32
465.32	397.89
465.50	458.74
465.69	416.62
465.87	369.80
466.05	440.02
466.23	400.23
466.41	416.62
466.60	411.93
466.78	374.49
466.96	514.92
467.14	414.27
467.32	498.53
467.51	472.79
467.69	374.49
467.87	411.93
468.05	428.32
468.23	433.00
468.41	397.89
468.60	365.12
468.78	449.38
468.96	411.93
469.14	393.21
469.32	477.47
469.50	421.30
469.69	465.77
469.87	411.93
470.05	468.11
470.23	493.85
470.41	409.59
470.59	395.55
470.77	362.78
470.95	423.64
471.14	390.87
471.32	388.53
471.50	451.72
471.68	362.78
471.86	327.68
472.04	386.19
472.22	367.46
472.40	411.93
472.58	383.85
472.77	346.40
472.95	470.45
473.13	400.23
473.31	404.91
473.49	423.64
473.67	404.91
473.85	362.78
474.03	381.51
474.21	397.89
474.39	390.87
474.57	447.04
474.75	444.70
474.93	346.40
475.12	440.02
475.30	353.42
475.48	423.64
475.66	383.85
475.84	379.17
476.02	404.91
476.20	381.51
476.38	442.36
476.56	456.40
476.74	374.49
476.92	428.32
477.10	393.21
477.28	458.74
477.46	334.70
477.64	437.68
477.82	425.98
478.00	465.77
478.18	418.96
478.36	407.25
478.54	393.21
478.72	418.96
478.90	386.19
479.08	423.64
479.26	341.72
479.44	475.13
479.62	346.40
479.80	416.62
479.98	407.25
480.16	407.25
480.34	421.30
480.52	393.21
480.70	414.27
480.88	344.06
481.06	386.19
481.24	390.87
481.41	409.59
481.59	477.47
481.77	386.19
481.95	376.83
482.13	451.72
482.31	414.27
482.49	416.62
482.67	423.64
482.85	421.30
483.03	425.98
483.21	351.08
483.39	421.30
483.57	437.68
483.74	402.57
483.92	411.93
484.10	418.96
484.28	447.04
484.46	440.02
484.64	390.87
484.82	397.89
485.00	416.62
485.18	475.13
485.35	472.79
485.53	381.51
485.71	360.44
485.89	411.93
486.07	367.46
486.25	489.17
486.43	472.79
486.61	442.36
486.78	468.11
486.96	456.40
487.14	465.77
487.32	341.72
487.50	390.87
487.68	379.17
487.85	435.34
488.03	402.57
488.21	409.59
488.39	421.30
488.57	472.79
488.75	454.06
488.92	500.87
489.10	383.85
489.28	447.04
489.46	374.49
489.64	454.06
489.81	440.02
489.99	414.27
490.17	416.62
490.35	491.51
490.53	397.89
490.70	374.49
490.88	428.32
491.06	447.04
491.24	404.91
491.41	425.98
491.59	433.00
491.77	402.57
491.95	381.51
492.13	390.87
492.30	425.98
492.48	430.66
492.66	430.66
492.84	442.36
493.01	369.80
493.19	470.45
493.37	454.06
493.54	430.66
493.72	451.72
493.90	486.83
494.08	449.38
494.25	416.62
494.43	456.40
494.61	379.17
494.79	351.08
494.96	400.23
495.14	472.79
495.32	367.46
495.49	454.06
495.67	449.38
495.85	372.15
496.02	411.93
496.20	444.70
496.38	409.59
496.55	320.65
496.73	381.51
496.91	416.62
497.09	454.06
497.26	428.32
497.44	451.72
497.62	407.25
497.79	407.25
497.97	414.27
498.14	456.40
498.32	454.06
498.50	400.23
498.67	404.91
498.85	411.93
499.03	416.62
499.20	447.04
499.38	381.51
499.56	322.99
499.73	468.11
499.91	411.93
500.08	402.57
500.26	365.12
500.44	423.64
500.61	461.09
500.79	411.93
500.97	435.34
501.14	327.68
501.32	428.32
501.49	458.74
501.67	493.85
501.84	421.30
502.02	428.32
502.20	395.55
502.37	383.85
502.55	470.45
502.72	402.57
502.90	479.81
503.07	393.21
503.25	449.38
503.43	411.93
503.60	437.68
503.78	433.00
503.95	451.72
504.13	437.68
504.30	388.53
504.48	442.36
504.65	489.17
504.83	393.21
505.01	374.49
505.18	458.74
505.36	444.70
505.53	418.96
505.71	421.30
505.88	430.66
506.06	351.08
506.23	451.72
506.41	421.30
506.58	397.89
506.76	458.74
506.93	395.55
507.11	430.66
507.28	390.87
507.46	477.47
507.63	442.36
507.81	348.74
507.98	372.15
508.16	400.23
508.33	402.57
508.50	491.51
508.68	358.10
508.85	414.27
509.03	390.87
509.20	440.02
509.38	416.62
509.55	449.38
509.73	447.04
509.90	500.87
510.08	374.49
510.25	447.04
510.42	447.04
510.60	428.32
510.77	390.87
510.95	475.13
511.12	416.62
511.30	411.93
511.47	411.93
511.64	461.09
511.82	386.19
511.99	486.83
512.17	346.40
512.34	390.87
512.51	379.17
512.69	435.34
512.86	458.74
513.04	465.77
513.21	416.62
513.38	367.46
513.56	456.40
513.73	416.62
513.90	423.64
514.08	425.98
514.25	458.74
514.43	376.83
514.60	407.25
514.77	400.23
514.95	423.64
515.12	369.80
515.29	423.64
515.47	388.53
515.64	451.72
515.81	451.72
515.99	397.89
516.16	362.78
516.33	440.02
516.51	440.02
516.68	379.17
516.85	395.55
517.03	402.57
517.20	393.21
517.37	428.32
517.54	423.64
517.72	500.87
517.89	411.93
518.06	369.80
518.24	456.40
518.41	463.43
518.58	409.59
518.75	397.89
518.93	381.51
519.10	393.21
519.27	402.57
519.45	416.62
519.62	475.13
519.79	386.19
519.96	451.72
520.14	407.25
520.31	440.02
520.48	411.93
520.65	360.44
520.83	468.11
521.00	423.64
521.17	463.43
521.34	367.46
521.52	451.72
521.69	388.53
521.86	397.89
522.03	402.57
522.20	465.77
522.38	395.55
522.55	372.15
522.72	388.53
522.89	395.55
523.07	458.74
523.24	341.72
523.41	365.12
523.58	404.91
523.75	390.87
523.92	360.44
524.10	397.89
524.27	435.34
524.44	496.19
524.61	472.79
524.78	358.10
524.96	393.21
525.13	430.66
525.30	486.83
525.47	430.66
525.64	430.66
525.81	322.99
525.98	461.09
526.16	397.89
526.33	414.27
526.50	468.11
526.67	402.57
526.84	433.00
527.01	383.85
527.18	433.00
527.36	435.34
527.53	397.89
527.70	416.62
527.87	421.30
528.04	449.38
528.21	409.59
528.38	372.15
528.55	404.91
528.72	404.91
528.89	461.09
529.07	416.62
529.24	437.68
529.41	496.19
529.58	421.30
529.75	428.32
529.92	404.91
530.09	440.02
530.26	386.19
530.43	470.45
530.60	444.70
530.77	454.06
530.94	423.64
531.11	470.45
531.28	411.93
531.46	414.27
531.63	444.70
531.80	383.85
531.97	376.83
532.14	456.40
532.31	447.04
532.48	418.96
532.65	416.62
532.82	423.64
532.99	351.08
533.16	409.59
533.33	482.15
533.50	430.66
533.67	379.17
533.84	470.45
534.01	430.66
534.18	400.23
534.35	430.66
534.52	433.00
534.69	407.25
534.86	442.36
535.03	381.51
535.20	339.38
535.37	444.70
535.54	458.74
535.71	393.21
535.88	411.93
536.05	461.09
536.22	449.38
536.38	402.57
536.55	381.51
536.72	430.66
536.89	388.53
537.06	414.27
537.23	381.51
537.40	444.70
537.57	416.62
537.74	440.02
537.91	470.45
538.08	449.38
538.25	362.78
538.42	440.02
538.59	393.21
538.75	365.12
538.92	463.43
539.09	379.17
539.26	360.44
539.43	449.38
539.60	433.00
539.77	416.62
539.94	395.55
540.11	430.66
540.28	372.15
540.44	421.30
540.61	433.00
540.78	456.40
540.95	414.27
541.12	423.64
541.29	393.21
541.46	428.32
541.62	386.19
541.79	447.04
541.96	404.91
542.13	388.53
542.30	437.68
542.47	376.83
542.63	423.64
542.80	358.10
542.97	433.00
543.14	390.87
543.31	365.12
543.48	365.12
543.64	339.38
543.81	449.38
543.98	344.06
544.15	376.83
544.32	463.43
544.48	482.15
544.65	414.27
544.82	411.93
544.99	472.79
545.16	423.64
545.32	414.27
545.49	365.12
545.66	397.89
545.83	351.08
546.00	360.44
546.16	376.83
546.33	395.55
546.50	411.93
546.67	463.43
546.83	493.85
547.00	428.32
547.17	407.25
547.34	369.80
547.50	454.06
547.67	470.45
547.84	383.85
548.00	472.79
548.17	416.62
548.34	351.08
548.51	393.21
548.67	428.32
548.84	404.91
549.01	461.09
549.18	447.04
549.34	489.17
549.51	353.42
549.68	376.83
549.84	442.36
550.01	400.23
550.18	458.74
550.34	425.98
550.51	454.06
550.68	440.02
550.84	367.46
551.01	470.45
551.18	465.77
551.34	456.40
551.51	437.68
551.68	330.02
551.84	447.04
552.01	388.53
552.18	372.15
552.34	376.83
552.51	472.79
552.68	442.36
552.84	444.70
553.01	369.80
553.18	463.43
553.34	433.00
553.51	367.46
553.67	395.55
553.84	470.45
554.01	470.45
554.17	451.72
554.34	418.96
554.51	346.40
554.67	402.57
554.84	379.17
555.00	414.27
555.17	411.93
555.33	482.15
555.50	465.77
555.67	409.59
555.83	388.53
556.00	418.96
556.16	458.74
556.33	444.70
556.50	379.17
556.66	348.74
556.83	416.62
556.99	369.80
557.16	425.98
557.32	444.70
557.49	376.83
557.65	425.98
557.82	395.55
557.98	428.32
558.15	348.74
558.32	414.27
558.48	451.72
558.65	425.98
558.81	372.15
558.98	379.17
559.14	430.66
559.31	402.57
559.47	428.32
559.64	341.72
559.80	381.51
559.97	428.32
560.13	461.09
560.30	404.91
560.46	407.25
560.63	411.93
560.79	454.06
560.96	437.68
561.12	514.92
561.29	409.59
561.45	425.98
561.61	433.00
561.78	461.09
561.94	433.00
562.11	512.58
562.27	386.19
562.44	318.31
562.60	489.17
562.77	397.89
562.93	470.45
563.10	449.38
563.26	400.23
563.42	435.34
563.59	444.70
563.75	395.55
563.92	379.17
564.08	451.72
564.24	428.32
564.41	383.85
564.57	386.19
564.74	409.59
564.90	465.77
565.07	423.64
565.23	454.06
565.39	411.93
565.56	435.34
565.72	411.93
565.88	435.34
566.05	381.51
566.21	454.06
566.38	435.34
566.54	407.25
566.70	468.11
566.87	444.70
567.03	367.46
567.19	402.57
567.36	442.36
567.52	407.25
567.68	416.62
567.85	414.27
568.01	395.55
568.17	435.34
568.34	430.66
568.50	355.76
568.66	484.49
568.83	482.15
568.99	465.77
569.15	444.70
569.32	421.30
569.48	435.34
569.64	404.91
569.81	435.34
569.97	367.46
570.13	362.78
570.30	397.89
570.46	369.80
570.62	374.49
570.78	341.72
570.95	428.32
571.11	461.09
571.27	528.96
571.43	386.19
571.60	435.34
571.76	440.02
571.92	449.38
572.09	409.59
572.25	409.59
572.41	404.91
572.57	421.30
572.74	456.40
572.90	470.45
573.06	411.93
573.22	418.96
573.38	404.91
573.55	423.64
573.71	458.74
573.87	421.30
574.03	425.98
574.20	423.64
574.36	486.83
574.52	414.27
574.68	491.51
574.84	418.96
575.01	409.59
575.17	430.66
575.33	440.02
575.49	458.74
575.65	458.74
575.82	383.85
575.98	414.27
576.14	416.62
576.30	409.59
576.46	400.23
576.62	407.25
576.79	430.66
576.95	437.68
577.11	463.43
577.27	456.40
577.43	472.79
577.59	454.06
577.75	407.25
577.92	425.98
578.08	400.23
578.24	395.55
578.40	372.15
578.56	461.09
578.72	477.47
578.88	416.62
579.04	435.34
579.21	468.11
579.37	482.15
579.53	397.89
579.69	437.68
579.85	369.80
580.01	458.74
580.17	409.59
580.33	421.30
580.49	374.49
580.65	367.46
580.82	409.59
580.98	379.17
581.14	344.06
581.30	447.04
581.46	442.36
581.62	376.83
581.78	379.17
581.94	475.13
582.10	435.34
582.26	376.83
582.42	327.68
582.58	393.21
582.74	437.68
582.90	376.83
583.06	416.62
583.22	388.53
583.38	430.66
583.54	386.19
583.70	456.40
583.86	327.68
584.02	362.78
584.18	414.27
584.34	409.59
584.50	423.64
584.66	433.00
584.82	442.36
584.98	463.43
585.14	435.34
585.30	395.55
585.46	407.25
585.62	388.53
585.78	421.30
585.94	416.62
586.10	376.83
586.26	360.44
586.42	388.53
586.58	489.17
586.74	477.47
586.90	397.89
587.06	435.34
587.22	390.87
587.38	442.36
587.54	472.79
587.70	390.87
587.86	369.80
588.02	416.62
588.18	416.62
588.34	425.98
588.49	383.85
588.65	400.23
588.81	409.59
588.97	355.76
589.13	395.55
589.29	440.02
589.45	449.38
589.61	444.70
589.77	444.70
589.93	447.04
590.08	442.36
590.24	400.23
590.40	472.79
590.56	477.47
590.72	409.59
590.88	395.55
591.04	442.36
591.20	390.87
591.35	461.09
591.51	397.89
591.67	395.55
591.83	414.27
591.99	388.53
592.15	386.19
592.31	447.04
592.46	348.74
592.62	454.06
592.78	491.51
592.94	428.32
593.10	355.76
593.26	390.87
593.41	341.72
593.57	407.25
593.73	421.30
593.89	517.26
594.05	365.12
594.20	386.19
594.36	400.23
594.52	369.80
594.68	423.64
594.84	458.74
594.99	531.30
595.15	435.34
595.31	461.09
595.47	425.98
595.62	411.93
595.78	418.96
595.94	486.83
596.10	414.27
596.25	442.36
596.41	465.77
596.57	449.38
596.73	435.34
596.88	395.55
597.04	458.74
597.20	379.17
597.36	404.91
597.51	388.53
597.67	416.62
597.83	428.32
597.99	400.23
598.14	421.30
598.30	409.59
598.46	397.89
598.61	393.21
598.77	400.23
598.93	423.64
599.09	456.40
599.24	402.57
599.40	418.96
599.56	463.43
599.71	428.32
599.87	379.17
600.03	425.98
600.18	447.04
600.34	498.53
600.50	397.89
600.65	395.55
600.81	421.30
600.97	472.79
601.12	395.55
601.28	344.06
601.44	330.02
601.59	367.46
601.75	402.57
601.91	444.70
602.06	425.98
602.22	376.83
602.37	456.40
602.53	411.93
602.69	407.25
602.84	440.02
603.00	437.68
603.16	369.80
603.31	388.53
603.47	390.87
603.62	402.57
603.78	404.91
603.94	372.15
604.09	482.15
604.25	461.09
604.40	416.62
604.56	423.64
604.71	489.17
604.87	470.45
605.03	414.27
605.18	503.22
605.34	489.17
605.49	397.89
605.65	414.27
605.80	390.87
605.96	353.42
606.12	397.89
606.27	447.04
606.43	442.36
606.58	411.93
606.74	447.04
606.89	346.40
607.05	489.17
607.20	390.87
607.36	374.49
607.51	360.44
607.67	503.22
607.82	430.66
607.98	458.74
608.13	465.77
608.29	435.34
608.44	430.66
608.60	416.62
608.75	369.80
608.91	458.74
609.06	435.34
609.22	379.17
609.37	381.51
609.53	411.93
609.68	416.62
609.84	388.53
609.99	367.46
610.15	376.83
