SpectraSuite Data File
++++++++++++++++++++++++++++++++++++
Date: Fri Oct 25 12:10:44 EDT 2013
User: price-jones
Dark Spectrum Present: No
Reference Spectrum Present: No
Number of Sampled Component Spectra: 1
Spectrometers: USB2+H05261
Integration Time (usec): 100000 (USB2+H05261)
Spectra Averaged: 1 (USB2+H05261)
Boxcar Smoothing: 0 (USB2+H05261)
Correct for Electrical Dark: No (USB2+H05261)
Strobe/Lamp Enabled: No (USB2+H05261)
Correct for Detector Non-linearity: No (USB2+H05261)
Correct for Stray Light: No (USB2+H05261)
Number of Pixels in Processed Spectrum: 2048
>>>>>Begin Processed Spectral Data<<<<<
365.73	379.17
365.92	379.17
366.12	379.17
366.32	222.35
366.52	184.90
366.72	304.27
366.91	205.97
367.11	245.76
367.31	217.67
367.51	243.42
367.70	266.82
367.90	294.91
368.10	320.65
368.30	198.95
368.49	203.63
368.69	241.08
368.89	229.37
369.09	238.73
369.28	245.76
369.48	257.46
369.68	285.55
369.87	257.46
370.07	308.95
370.27	315.97
370.47	379.17
370.66	393.21
370.86	315.97
371.06	437.68
371.25	397.89
371.45	313.63
371.65	397.89
371.84	383.85
372.04	379.17
372.24	360.44
372.44	383.85
372.63	383.85
372.83	367.46
373.03	393.21
373.22	327.68
373.42	379.17
373.62	337.04
373.81	463.43
374.01	444.70
374.21	447.04
374.40	395.55
374.60	510.24
374.79	489.17
374.99	444.70
375.19	458.74
375.38	482.15
375.58	346.40
375.78	433.00
375.97	404.91
376.17	423.64
376.37	404.91
376.56	388.53
376.76	383.85
376.95	365.12
377.15	451.72
377.35	449.38
377.54	355.76
377.74	372.15
377.93	358.10
378.13	449.38
378.33	442.36
378.52	369.80
378.72	409.59
378.91	358.10
379.11	315.97
379.31	379.17
379.50	407.25
379.70	351.08
379.89	416.62
380.09	449.38
380.28	414.27
380.48	358.10
380.68	435.34
380.87	428.32
381.07	404.91
381.26	390.87
381.46	383.85
381.65	360.44
381.85	379.17
382.04	435.34
382.24	451.72
382.43	433.00
382.63	409.59
382.83	421.30
383.02	449.38
383.22	449.38
383.41	411.93
383.61	362.78
383.80	444.70
384.00	435.34
384.19	327.68
384.39	421.30
384.58	416.62
384.78	376.83
384.97	376.83
385.17	395.55
385.36	334.70
385.56	397.89
385.75	425.98
385.95	449.38
386.14	421.30
386.34	360.44
386.53	440.02
386.72	372.15
386.92	503.22
387.11	435.34
387.31	407.25
387.50	360.44
387.70	386.19
387.89	484.49
388.09	437.68
388.28	402.57
388.48	374.49
388.67	442.36
388.86	362.78
389.06	315.97
389.25	451.72
389.45	346.40
389.64	344.06
389.84	407.25
390.03	423.64
390.22	367.46
390.42	386.19
390.61	447.04
390.81	386.19
391.00	395.55
391.19	425.98
391.39	425.98
391.58	442.36
391.78	449.38
391.97	435.34
392.16	409.59
392.36	400.23
392.55	423.64
392.75	397.89
392.94	425.98
393.13	449.38
393.33	404.91
393.52	430.66
393.71	376.83
393.91	468.11
394.10	383.85
394.29	440.02
394.49	372.15
394.68	472.79
394.88	411.93
395.07	411.93
395.26	404.91
395.46	479.81
395.65	402.57
395.84	409.59
396.04	425.98
396.23	425.98
396.42	414.27
396.62	482.15
396.81	388.53
397.00	390.87
397.19	442.36
397.39	372.15
397.58	458.74
397.77	447.04
397.97	435.34
398.16	435.34
398.35	482.15
398.55	416.62
398.74	425.98
398.93	402.57
399.12	320.65
399.32	454.06
399.51	369.80
399.70	458.74
399.90	393.21
400.09	440.02
400.28	491.51
400.47	334.70
400.67	390.87
400.86	381.51
401.05	423.64
401.24	472.79
401.44	428.32
401.63	376.83
401.82	383.85
402.01	395.55
402.21	411.93
402.40	437.68
402.59	369.80
402.78	372.15
402.97	423.64
403.17	414.27
403.36	395.55
403.55	386.19
403.74	435.34
403.93	442.36
404.13	470.45
404.32	421.30
404.51	348.74
404.70	437.68
404.89	381.51
405.09	397.89
405.28	442.36
405.47	468.11
405.66	428.32
405.85	428.32
406.05	402.57
406.24	393.21
406.43	372.15
406.62	376.83
406.81	437.68
407.00	409.59
407.20	409.59
407.39	376.83
407.58	423.64
407.77	440.02
407.96	423.64
408.15	402.57
408.34	400.23
408.54	402.57
408.73	341.72
408.92	339.38
409.11	390.87
409.30	418.96
409.49	393.21
409.68	402.57
409.87	449.38
410.07	379.17
410.26	444.70
410.45	369.80
410.64	372.15
410.83	407.25
411.02	430.66
411.21	400.23
411.40	400.23
411.59	397.89
411.78	376.83
411.98	440.02
412.17	381.51
412.36	344.06
412.55	442.36
412.74	407.25
412.93	430.66
413.12	372.15
413.31	451.72
413.50	444.70
413.69	442.36
413.88	428.32
414.07	390.87
414.26	355.76
414.45	404.91
414.64	461.09
414.83	493.85
415.02	327.68
415.22	397.89
415.41	395.55
415.60	425.98
415.79	465.77
415.98	395.55
416.17	425.98
416.36	393.21
416.55	386.19
416.74	440.02
416.93	404.91
417.12	416.62
417.31	381.51
417.50	355.76
417.69	381.51
417.88	407.25
418.07	348.74
418.26	423.64
418.45	353.42
418.64	510.24
418.83	388.53
419.02	430.66
419.21	393.21
419.39	444.70
419.58	428.32
419.77	404.91
419.96	414.27
420.15	430.66
420.34	407.25
420.53	493.85
420.72	498.53
420.91	425.98
421.10	390.87
421.29	437.68
421.48	430.66
421.67	421.30
421.86	327.68
422.05	423.64
422.24	393.21
422.43	400.23
422.61	454.06
422.80	404.91
422.99	437.68
423.18	416.62
423.37	451.72
423.56	393.21
423.75	425.98
423.94	383.85
424.13	430.66
424.32	397.89
424.50	402.57
424.69	374.49
424.88	428.32
425.07	404.91
425.26	393.21
425.45	437.68
425.64	423.64
425.83	423.64
426.01	404.91
426.20	433.00
426.39	433.00
426.58	423.64
426.77	519.60
426.96	484.49
427.15	472.79
427.33	468.11
427.52	461.09
427.71	376.83
427.90	397.89
428.09	395.55
428.28	454.06
428.46	423.64
428.65	440.02
428.84	365.12
429.03	493.85
429.22	477.47
429.40	381.51
429.59	463.43
429.78	454.06
429.97	463.43
430.16	433.00
430.34	435.34
430.53	461.09
430.72	409.59
430.91	393.21
431.10	390.87
431.28	388.53
431.47	440.02
431.66	388.53
431.85	418.96
432.03	397.89
432.22	358.10
432.41	442.36
432.60	444.70
432.79	386.19
432.97	381.51
433.16	397.89
433.35	388.53
433.54	348.74
433.72	430.66
433.91	414.27
434.10	421.30
434.28	416.62
434.47	421.30
434.66	411.93
434.85	440.02
435.03	440.02
435.22	409.59
435.41	512.58
435.59	379.17
435.78	409.59
435.97	430.66
436.16	435.34
436.34	372.15
436.53	456.40
436.72	397.89
436.90	442.36
437.09	393.21
437.28	423.64
437.46	440.02
437.65	372.15
437.84	411.93
438.02	444.70
438.21	334.70
438.40	351.08
438.58	381.51
438.77	369.80
438.96	425.98
439.14	395.55
439.33	425.98
439.52	402.57
439.70	411.93
439.89	339.38
440.08	433.00
440.26	444.70
440.45	425.98
440.63	397.89
440.82	423.64
441.01	397.89
441.19	409.59
441.38	409.59
441.57	407.25
441.75	344.06
441.94	362.78
442.12	437.68
442.31	397.89
442.50	374.49
442.68	369.80
442.87	440.02
443.05	390.87
443.24	430.66
443.43	369.80
443.61	341.72
443.80	437.68
443.98	360.44
444.17	360.44
444.35	463.43
444.54	486.83
444.73	503.22
444.91	470.45
445.10	407.25
445.28	423.64
445.47	433.00
445.65	423.64
445.84	421.30
446.02	383.85
446.21	423.64
446.39	393.21
446.58	503.22
446.77	397.89
446.95	337.04
447.14	362.78
447.32	386.19
447.51	358.10
447.69	379.17
447.88	461.09
448.06	442.36
448.25	414.27
448.43	404.91
448.62	400.23
448.80	395.55
448.99	362.78
449.17	330.02
449.36	407.25
449.54	435.34
449.73	374.49
449.91	458.74
450.10	369.80
450.28	414.27
450.46	428.32
450.65	418.96
450.83	362.78
451.02	395.55
451.20	395.55
451.39	442.36
451.57	376.83
451.76	341.72
451.94	334.70
452.13	430.66
452.31	470.45
452.49	433.00
452.68	395.55
452.86	477.47
453.05	444.70
453.23	435.34
453.42	362.78
453.60	444.70
453.78	458.74
453.97	416.62
454.15	421.30
454.34	458.74
454.52	454.06
454.70	416.62
454.89	482.15
455.07	461.09
455.26	423.64
455.44	423.64
455.62	435.34
455.81	400.23
455.99	475.13
456.17	423.64
456.36	369.80
456.54	465.77
456.73	386.19
456.91	421.30
457.09	447.04
457.28	409.59
457.46	355.76
457.64	465.77
457.83	442.36
458.01	390.87
458.19	374.49
458.38	440.02
458.56	428.32
458.74	376.83
458.93	437.68
459.11	355.76
459.29	402.57
459.48	440.02
459.66	430.66
459.84	393.21
460.03	421.30
460.21	505.56
460.39	435.34
460.57	416.62
460.76	400.23
460.94	407.25
461.12	463.43
461.31	428.32
461.49	437.68
461.67	346.40
461.85	418.96
462.04	414.27
462.22	788.76
462.40	397.89
462.59	409.59
462.77	414.27
462.95	407.25
463.13	388.53
463.32	456.40
463.50	381.51
463.68	414.27
463.86	348.74
464.05	393.21
464.23	461.09
464.41	461.09
464.59	301.93
464.78	395.55
464.96	388.53
465.14	433.00
465.32	393.21
465.50	461.09
465.69	348.74
465.87	421.30
466.05	400.23
466.23	400.23
466.41	440.02
466.60	407.25
466.78	435.34
466.96	411.93
467.14	390.87
467.32	397.89
467.51	397.89
467.69	383.85
467.87	428.32
468.05	372.15
468.23	486.83
468.41	454.06
468.60	472.79
468.78	447.04
468.96	433.00
469.14	442.36
469.32	397.89
469.50	390.87
469.69	407.25
469.87	372.15
470.05	430.66
470.23	454.06
470.41	393.21
470.59	369.80
470.77	374.49
470.95	470.45
471.14	472.79
471.32	477.47
471.50	447.04
471.68	390.87
471.86	409.59
472.04	395.55
472.22	386.19
472.40	465.77
472.58	418.96
472.77	360.44
472.95	444.70
473.13	505.56
473.31	449.38
473.49	393.21
473.67	400.23
473.85	409.59
474.03	379.17
474.21	416.62
474.39	395.55
474.57	418.96
474.75	449.38
474.93	369.80
475.12	367.46
475.30	400.23
475.48	367.46
475.66	393.21
475.84	325.33
476.02	449.38
476.20	458.74
476.38	470.45
476.56	498.53
476.74	421.30
476.92	425.98
477.10	411.93
477.28	484.49
477.46	411.93
477.64	468.11
477.82	430.66
478.00	383.85
478.18	447.04
478.36	416.62
478.54	397.89
478.72	418.96
478.90	379.17
479.08	360.44
479.26	451.72
479.44	353.42
479.62	379.17
479.80	397.89
479.98	404.91
480.16	409.59
480.34	379.17
480.52	498.53
480.70	351.08
480.88	393.21
481.06	418.96
481.24	351.08
481.41	472.79
481.59	461.09
481.77	458.74
481.95	440.02
482.13	428.32
482.31	372.15
482.49	388.53
482.67	397.89
482.85	425.98
483.03	353.42
483.21	414.27
483.39	383.85
483.57	484.49
483.74	484.49
483.92	404.91
484.10	407.25
484.28	395.55
484.46	484.49
484.64	414.27
484.82	315.97
485.00	451.72
485.18	447.04
485.35	463.43
485.53	433.00
485.71	409.59
485.89	376.83
486.07	376.83
486.25	465.77
486.43	421.30
486.61	496.19
486.78	454.06
486.96	395.55
487.14	402.57
487.32	379.17
487.50	447.04
487.68	411.93
487.85	435.34
488.03	451.72
488.21	496.19
488.39	512.58
488.57	444.70
488.75	367.46
488.92	465.77
489.10	472.79
489.28	519.60
489.46	353.42
489.64	458.74
489.81	369.80
489.99	484.49
490.17	447.04
490.35	397.89
490.53	383.85
490.70	428.32
490.88	409.59
491.06	390.87
491.24	454.06
491.41	393.21
491.59	472.79
491.77	390.87
491.95	430.66
492.13	458.74
492.30	456.40
492.48	334.70
492.66	353.42
492.84	315.97
493.01	447.04
493.19	360.44
493.37	503.22
493.54	416.62
493.72	470.45
493.90	400.23
494.08	337.04
494.25	451.72
494.43	416.62
494.61	358.10
494.79	416.62
494.96	346.40
495.14	430.66
495.32	430.66
495.49	407.25
495.67	430.66
495.85	386.19
496.02	388.53
496.20	379.17
496.38	472.79
496.55	414.27
496.73	407.25
496.91	411.93
497.09	348.74
497.26	430.66
497.44	458.74
497.62	418.96
497.79	411.93
497.97	400.23
498.14	416.62
498.32	404.91
498.50	468.11
498.67	531.30
498.85	372.15
499.03	390.87
499.20	388.53
499.38	442.36
499.56	402.57
499.73	411.93
499.91	423.64
500.08	470.45
500.26	360.44
500.44	379.17
500.61	456.40
500.79	414.27
500.97	451.72
501.14	435.34
501.32	379.17
501.49	409.59
501.67	407.25
501.84	425.98
502.02	435.34
502.20	440.02
502.37	425.98
502.55	407.25
502.72	433.00
502.90	418.96
503.07	475.13
503.25	416.62
503.43	421.30
503.60	435.34
503.78	407.25
503.95	416.62
504.13	388.53
504.30	430.66
504.48	397.89
504.65	407.25
504.83	449.38
505.01	458.74
505.18	430.66
505.36	442.36
505.53	411.93
505.71	430.66
505.88	381.51
506.06	409.59
506.23	489.17
506.41	400.23
506.58	458.74
506.76	388.53
506.93	456.40
507.11	454.06
507.28	369.80
507.46	372.15
507.63	390.87
507.81	437.68
507.98	447.04
508.16	388.53
508.33	486.83
508.50	351.08
508.68	407.25
508.85	444.70
509.03	456.40
509.20	381.51
509.38	449.38
509.55	423.64
509.73	433.00
509.90	442.36
510.08	386.19
510.25	421.30
510.42	447.04
510.60	433.00
510.77	430.66
510.95	428.32
511.12	404.91
511.30	440.02
511.47	402.57
511.64	430.66
511.82	454.06
511.99	404.91
512.17	465.77
512.34	348.74
512.51	444.70
512.69	395.55
512.86	442.36
513.04	386.19
513.21	381.51
513.38	411.93
513.56	372.15
513.73	393.21
513.90	449.38
514.08	407.25
514.25	433.00
514.43	444.70
514.60	423.64
514.77	362.78
514.95	386.19
515.12	440.02
515.29	430.66
515.47	440.02
515.64	414.27
515.81	442.36
515.99	449.38
516.16	470.45
516.33	503.22
516.51	414.27
516.68	397.89
516.85	402.57
517.03	454.06
517.20	411.93
517.37	479.81
517.54	395.55
517.72	491.51
517.89	374.49
518.06	360.44
518.24	454.06
518.41	458.74
518.58	414.27
518.75	348.74
518.93	390.87
519.10	430.66
519.27	402.57
519.45	458.74
519.62	456.40
519.79	423.64
519.96	418.96
520.14	442.36
520.31	423.64
520.48	390.87
520.65	433.00
520.83	500.87
521.00	418.96
521.17	461.09
521.34	484.49
521.52	369.80
521.69	454.06
521.86	404.91
522.03	461.09
522.20	486.83
522.38	390.87
522.55	461.09
522.72	404.91
522.89	449.38
523.07	500.87
523.24	496.19
523.41	390.87
523.58	472.79
523.75	428.32
523.92	346.40
524.10	465.77
524.27	407.25
524.44	437.68
524.61	440.02
524.78	390.87
524.96	409.59
525.13	465.77
525.30	411.93
525.47	491.51
525.64	388.53
525.81	407.25
525.98	402.57
526.16	411.93
526.33	458.74
526.50	404.91
526.67	388.53
526.84	402.57
527.01	423.64
527.18	400.23
527.36	374.49
527.53	395.55
527.70	482.15
527.87	433.00
528.04	472.79
528.21	458.74
528.38	414.27
528.55	425.98
528.72	386.19
528.89	540.66
529.07	461.09
529.24	456.40
529.41	404.91
529.58	367.46
529.75	374.49
529.92	416.62
530.09	440.02
530.26	395.55
530.43	372.15
530.60	461.09
530.77	444.70
530.94	383.85
531.11	444.70
531.28	374.49
531.46	416.62
531.63	390.87
531.80	322.99
531.97	395.55
532.14	344.06
532.31	393.21
532.48	433.00
532.65	451.72
532.82	407.25
532.99	353.42
533.16	418.96
533.33	454.06
533.50	465.77
533.67	437.68
533.84	404.91
534.01	440.02
534.18	449.38
534.35	425.98
534.52	407.25
534.69	463.43
534.86	395.55
535.03	390.87
535.20	353.42
535.37	386.19
535.54	505.56
535.71	430.66
535.88	421.30
536.05	400.23
536.22	407.25
536.38	447.04
536.55	472.79
536.72	388.53
536.89	433.00
537.06	362.78
537.23	411.93
537.40	351.08
537.57	351.08
537.74	463.43
537.91	388.53
538.08	458.74
538.25	437.68
538.42	381.51
538.59	383.85
538.75	397.89
538.92	425.98
539.09	369.80
539.26	395.55
539.43	437.68
539.60	416.62
539.77	444.70
539.94	491.51
540.11	463.43
540.28	458.74
540.44	437.68
540.61	489.17
540.78	437.68
540.95	388.53
541.12	470.45
541.29	409.59
541.46	397.89
541.62	393.21
541.79	430.66
541.96	437.68
542.13	430.66
542.30	435.34
542.47	390.87
542.63	414.27
542.80	369.80
542.97	416.62
543.14	430.66
543.31	435.34
543.48	430.66
543.64	430.66
543.81	355.76
543.98	388.53
544.15	414.27
544.32	421.30
544.48	341.72
544.65	402.57
544.82	435.34
544.99	395.55
545.16	463.43
545.32	365.12
545.49	461.09
545.66	386.19
545.83	407.25
546.00	470.45
546.16	423.64
546.33	400.23
546.50	390.87
546.67	425.98
546.83	428.32
547.00	510.24
547.17	362.78
547.34	402.57
547.50	407.25
547.67	421.30
547.84	388.53
548.00	383.85
548.17	423.64
548.34	442.36
548.51	402.57
548.67	421.30
548.84	390.87
549.01	493.85
549.18	416.62
549.34	348.74
549.51	430.66
549.68	402.57
549.84	444.70
550.01	447.04
550.18	465.77
550.34	442.36
550.51	456.40
550.68	416.62
550.84	414.27
551.01	454.06
551.18	437.68
551.34	433.00
551.51	386.19
551.68	454.06
551.84	386.19
552.01	381.51
552.18	411.93
552.34	505.56
552.51	393.21
552.68	421.30
552.84	409.59
553.01	400.23
553.18	435.34
553.34	390.87
553.51	437.68
553.67	407.25
553.84	444.70
554.01	395.55
554.17	440.02
554.34	437.68
554.51	433.00
554.67	416.62
554.84	367.46
555.00	346.40
555.17	388.53
555.33	454.06
555.50	437.68
555.67	397.89
555.83	395.55
556.00	393.21
556.16	493.85
556.33	461.09
556.50	400.23
556.66	421.30
556.83	402.57
556.99	414.27
557.16	456.40
557.32	463.43
557.49	440.02
557.65	411.93
557.82	409.59
557.98	465.77
558.15	381.51
558.32	458.74
558.48	425.98
558.65	393.21
558.81	418.96
558.98	358.10
559.14	416.62
559.31	468.11
559.47	428.32
559.64	449.38
559.80	407.25
559.97	386.19
560.13	507.90
560.30	365.12
560.46	376.83
560.63	365.12
560.79	418.96
560.96	447.04
561.12	379.17
561.29	496.19
561.45	334.70
561.61	407.25
561.78	456.40
561.94	416.62
562.11	435.34
562.27	355.76
562.44	423.64
562.60	409.59
562.77	383.85
562.93	517.26
563.10	416.62
563.26	440.02
563.42	454.06
563.59	393.21
563.75	463.43
563.92	451.72
564.08	390.87
564.24	393.21
564.41	512.58
564.57	360.44
564.74	365.12
564.90	411.93
565.07	379.17
565.23	411.93
565.39	404.91
565.56	353.42
565.72	386.19
565.88	386.19
566.05	449.38
566.21	407.25
566.38	435.34
566.54	428.32
566.70	449.38
566.87	395.55
567.03	393.21
567.19	468.11
567.36	393.21
567.52	435.34
567.68	433.00
567.85	468.11
568.01	358.10
568.17	440.02
568.34	341.72
568.50	433.00
568.66	433.00
568.83	517.26
568.99	393.21
569.15	395.55
569.32	435.34
569.48	388.53
569.64	435.34
569.81	374.49
569.97	341.72
570.13	379.17
570.30	409.59
570.46	444.70
570.62	433.00
570.78	414.27
570.95	425.98
571.11	402.57
571.27	498.53
571.43	400.23
571.60	463.43
571.76	386.19
571.92	351.08
572.09	395.55
572.25	386.19
572.41	430.66
572.57	418.96
572.74	449.38
572.90	437.68
573.06	381.51
573.22	430.66
573.38	465.77
573.55	507.90
573.71	500.87
573.87	440.02
574.03	449.38
574.20	414.27
574.36	360.44
574.52	447.04
574.68	393.21
574.84	489.17
575.01	461.09
575.17	472.79
575.33	442.36
575.49	400.23
575.65	367.46
575.82	397.89
575.98	440.02
576.14	346.40
576.30	451.72
576.46	437.68
576.62	468.11
576.79	447.04
576.95	435.34
577.11	395.55
577.27	395.55
577.43	414.27
577.59	435.34
577.75	421.30
577.92	416.62
578.08	454.06
578.24	449.38
578.40	442.36
578.56	454.06
578.72	454.06
578.88	421.30
579.04	430.66
579.21	444.70
579.37	435.34
579.53	486.83
579.69	430.66
579.85	348.74
580.01	383.85
580.17	444.70
580.33	433.00
580.49	400.23
580.65	444.70
580.82	348.74
580.98	393.21
581.14	374.49
581.30	484.49
581.46	461.09
581.62	468.11
581.78	451.72
581.94	437.68
582.10	351.08
582.26	435.34
582.42	444.70
582.58	423.64
582.74	411.93
582.90	388.53
583.06	367.46
583.22	332.36
583.38	425.98
583.54	440.02
583.70	418.96
583.86	402.57
584.02	472.79
584.18	423.64
584.34	425.98
584.50	444.70
584.66	500.87
584.82	449.38
584.98	437.68
585.14	444.70
585.30	437.68
585.46	414.27
585.62	369.80
585.78	388.53
585.94	386.19
586.10	414.27
586.26	428.32
586.42	447.04
586.58	444.70
586.74	404.91
586.90	397.89
587.06	402.57
587.22	430.66
587.38	367.46
587.54	414.27
587.70	411.93
587.86	468.11
588.02	423.64
588.18	421.30
588.34	416.62
588.49	411.93
588.65	379.17
588.81	374.49
588.97	416.62
589.13	388.53
589.29	437.68
589.45	421.30
589.61	421.30
589.77	383.85
589.93	381.51
590.08	430.66
590.24	400.23
590.40	400.23
590.56	365.12
590.72	442.36
590.88	463.43
591.04	500.87
591.20	425.98
591.35	458.74
591.51	388.53
591.67	381.51
591.83	428.32
591.99	425.98
592.15	402.57
592.31	447.04
592.46	444.70
592.62	461.09
592.78	393.21
592.94	425.98
593.10	421.30
593.26	433.00
593.41	442.36
593.57	437.68
593.73	461.09
593.89	435.34
594.05	418.96
594.20	428.32
594.36	449.38
594.52	430.66
594.68	416.62
594.84	458.74
594.99	416.62
595.15	402.57
595.31	468.11
595.47	468.11
595.62	512.58
595.78	444.70
595.94	442.36
596.10	409.59
596.25	428.32
596.41	390.87
596.57	416.62
596.73	404.91
596.88	407.25
597.04	437.68
597.20	421.30
597.36	418.96
597.51	341.72
597.67	369.80
597.83	416.62
597.99	374.49
598.14	388.53
598.30	402.57
598.46	393.21
598.61	465.77
598.77	351.08
598.93	381.51
599.09	411.93
599.24	411.93
599.40	407.25
599.56	411.93
599.71	386.19
599.87	379.17
600.03	388.53
600.18	372.15
600.34	418.96
600.50	418.96
600.65	444.70
600.81	416.62
600.97	461.09
601.12	341.72
601.28	374.49
601.44	428.32
601.59	416.62
601.75	409.59
601.91	362.78
602.06	475.13
602.22	376.83
602.37	367.46
602.53	365.12
602.69	416.62
602.84	418.96
603.00	470.45
603.16	411.93
603.31	369.80
603.47	451.72
603.62	437.68
603.78	365.12
603.94	442.36
604.09	416.62
604.25	433.00
604.40	433.00
604.56	428.32
604.71	440.02
604.87	440.02
605.03	507.90
605.18	388.53
605.34	383.85
605.49	440.02
605.65	444.70
605.80	444.70
605.96	334.70
606.12	376.83
606.27	379.17
606.43	447.04
606.58	447.04
606.74	381.51
606.89	386.19
607.05	388.53
607.20	435.34
607.36	433.00
607.51	388.53
607.67	479.81
607.82	421.30
607.98	433.00
608.13	425.98
608.29	414.27
608.44	416.62
608.60	461.09
608.75	444.70
608.91	355.76
609.06	423.64
609.22	482.15
609.37	404.91
609.53	386.19
609.68	444.70
609.84	437.68
609.99	418.96
610.15	458.74
