SpectraSuite Data File
++++++++++++++++++++++++++++++++++++
Date: Fri Oct 25 12:10:46 EDT 2013
User: price-jones
Dark Spectrum Present: No
Reference Spectrum Present: No
Number of Sampled Component Spectra: 1
Spectrometers: USB2+H05261
Integration Time (usec): 100000 (USB2+H05261)
Spectra Averaged: 1 (USB2+H05261)
Boxcar Smoothing: 0 (USB2+H05261)
Correct for Electrical Dark: No (USB2+H05261)
Strobe/Lamp Enabled: No (USB2+H05261)
Correct for Detector Non-linearity: No (USB2+H05261)
Correct for Stray Light: No (USB2+H05261)
Number of Pixels in Processed Spectrum: 2048
>>>>>Begin Processed Spectral Data<<<<<
365.73	339.38
365.92	339.38
366.12	339.38
366.32	215.33
366.52	236.39
366.72	257.46
366.91	236.39
367.11	210.65
367.31	205.97
367.51	217.67
367.70	208.31
367.90	234.05
368.10	159.16
368.30	248.10
368.49	234.05
368.69	248.10
368.89	198.95
369.09	252.78
369.28	264.48
369.48	229.37
369.68	273.84
369.87	308.95
370.07	280.86
370.27	379.17
370.47	313.63
370.66	322.99
370.86	355.76
371.06	409.59
371.25	425.98
371.45	346.40
371.65	376.83
371.84	379.17
372.04	280.86
372.24	299.59
372.44	376.83
372.63	451.72
372.83	409.59
373.03	451.72
373.22	367.46
373.42	395.55
373.62	437.68
373.81	475.13
374.01	447.04
374.21	444.70
374.40	374.49
374.60	463.43
374.79	390.87
374.99	395.55
375.19	400.23
375.38	372.15
375.58	425.98
375.78	440.02
375.97	463.43
376.17	482.15
376.37	395.55
376.56	470.45
376.76	416.62
376.95	430.66
377.15	407.25
377.35	365.12
377.54	442.36
377.74	393.21
377.93	454.06
378.13	386.19
378.33	454.06
378.52	372.15
378.72	414.27
378.91	379.17
379.11	411.93
379.31	425.98
379.50	372.15
379.70	433.00
379.89	353.42
380.09	430.66
380.28	425.98
380.48	390.87
380.68	388.53
380.87	327.68
381.07	337.04
381.26	486.83
381.46	367.46
381.65	393.21
381.85	341.72
382.04	433.00
382.24	388.53
382.43	397.89
382.63	407.25
382.83	470.45
383.02	402.57
383.22	425.98
383.41	397.89
383.61	482.15
383.80	440.02
384.00	430.66
384.19	388.53
384.39	369.80
384.58	348.74
384.78	423.64
384.97	456.40
385.17	395.55
385.36	423.64
385.56	461.09
385.75	409.59
385.95	444.70
386.14	475.13
386.34	393.21
386.53	395.55
386.72	376.83
386.92	425.98
387.11	369.80
387.31	337.04
387.50	362.78
387.70	358.10
387.89	423.64
388.09	477.47
388.28	318.31
388.48	360.44
388.67	484.49
388.86	411.93
389.06	423.64
389.25	374.49
389.45	458.74
389.64	383.85
389.84	404.91
390.03	428.32
390.22	433.00
390.42	325.33
390.61	376.83
390.81	411.93
391.00	304.27
391.19	402.57
391.39	430.66
391.58	428.32
391.78	360.44
391.97	433.00
392.16	421.30
392.36	400.23
392.55	374.49
392.75	435.34
392.94	418.96
393.13	393.21
393.33	360.44
393.52	308.95
393.71	381.51
393.91	374.49
394.10	351.08
394.29	379.17
394.49	407.25
394.68	393.21
394.88	437.68
395.07	458.74
395.26	407.25
395.46	369.80
395.65	423.64
395.84	404.91
396.04	521.94
396.23	386.19
396.42	367.46
396.62	341.72
396.81	386.19
397.00	411.93
397.19	388.53
397.39	409.59
397.58	472.79
397.77	433.00
397.97	374.49
398.16	411.93
398.35	414.27
398.55	372.15
398.74	470.45
398.93	454.06
399.12	358.10
399.32	395.55
399.51	414.27
399.70	388.53
399.90	416.62
400.09	416.62
400.28	388.53
400.47	397.89
400.67	451.72
400.86	341.72
401.05	456.40
401.24	428.32
401.44	449.38
401.63	416.62
401.82	451.72
402.01	318.31
402.21	437.68
402.40	489.17
402.59	400.23
402.78	346.40
402.97	421.30
403.17	407.25
403.36	442.36
403.55	428.32
403.74	311.29
403.93	358.10
404.13	456.40
404.32	376.83
404.51	360.44
404.70	430.66
404.89	362.78
405.09	496.19
405.28	414.27
405.47	395.55
405.66	376.83
405.85	454.06
406.05	425.98
406.24	425.98
406.43	409.59
406.62	416.62
406.81	374.49
407.00	423.64
407.20	433.00
407.39	465.77
407.58	404.91
407.77	430.66
407.96	482.15
408.15	425.98
408.34	407.25
408.54	435.34
408.73	400.23
408.92	440.02
409.11	430.66
409.30	442.36
409.49	390.87
409.68	458.74
409.87	390.87
410.07	409.59
410.26	421.30
410.45	414.27
410.64	421.30
410.83	397.89
411.02	355.76
411.21	414.27
411.40	454.06
411.59	376.83
411.78	435.34
411.98	449.38
412.17	418.96
412.36	390.87
412.55	362.78
412.74	444.70
412.93	463.43
413.12	404.91
413.31	451.72
413.50	451.72
413.69	402.57
413.88	456.40
414.07	421.30
414.26	388.53
414.45	388.53
414.64	393.21
414.83	388.53
415.02	411.93
415.22	409.59
415.41	407.25
415.60	369.80
415.79	407.25
415.98	430.66
416.17	407.25
416.36	397.89
416.55	351.08
416.74	442.36
416.93	411.93
417.12	447.04
417.31	365.12
417.50	400.23
417.69	458.74
417.88	428.32
418.07	383.85
418.26	447.04
418.45	351.08
418.64	402.57
418.83	367.46
419.02	390.87
419.21	442.36
419.39	397.89
419.58	381.51
419.77	355.76
419.96	468.11
420.15	470.45
420.34	440.02
420.53	416.62
420.72	407.25
420.91	423.64
421.10	397.89
421.29	458.74
421.48	461.09
421.67	456.40
421.86	313.63
422.05	358.10
422.24	425.98
422.43	414.27
422.61	447.04
422.80	365.12
422.99	374.49
423.18	433.00
423.37	416.62
423.56	444.70
423.75	440.02
423.94	425.98
424.13	386.19
424.32	409.59
424.50	311.29
424.69	479.81
424.88	477.47
425.07	428.32
425.26	465.77
425.45	444.70
425.64	393.21
425.83	337.04
426.01	430.66
426.20	433.00
426.39	463.43
426.58	404.91
426.77	482.15
426.96	414.27
427.15	411.93
427.33	390.87
427.52	449.38
427.71	414.27
427.90	416.62
428.09	418.96
428.28	437.68
428.46	407.25
428.65	449.38
428.84	395.55
429.03	461.09
429.22	402.57
429.40	437.68
429.59	416.62
429.78	465.77
429.97	496.19
430.16	395.55
430.34	407.25
430.53	353.42
430.72	484.49
430.91	376.83
431.10	362.78
431.28	484.49
431.47	425.98
431.66	416.62
431.85	404.91
432.03	386.19
432.22	447.04
432.41	381.51
432.60	395.55
432.79	381.51
432.97	416.62
433.16	463.43
433.35	393.21
433.54	376.83
433.72	458.74
433.91	444.70
434.10	344.06
434.28	386.19
434.47	430.66
434.66	475.13
434.85	475.13
435.03	404.91
435.22	493.85
435.41	416.62
435.59	430.66
435.78	353.42
435.97	407.25
436.16	479.81
436.34	458.74
436.53	425.98
436.72	416.62
436.90	409.59
437.09	500.87
437.28	381.51
437.46	442.36
437.65	454.06
437.84	421.30
438.02	386.19
438.21	447.04
438.40	411.93
438.58	327.68
438.77	430.66
438.96	360.44
439.14	367.46
439.33	461.09
439.52	454.06
439.70	367.46
439.89	379.17
440.08	409.59
440.26	395.55
440.45	400.23
440.63	444.70
440.82	444.70
441.01	421.30
441.19	428.32
441.38	358.10
441.57	430.66
441.75	353.42
441.94	440.02
442.12	414.27
442.31	411.93
442.50	397.89
442.68	360.44
442.87	444.70
443.05	416.62
443.24	402.57
443.43	390.87
443.61	416.62
443.80	416.62
443.98	421.30
444.17	437.68
444.35	430.66
444.54	407.25
444.73	381.51
444.91	447.04
445.10	367.46
445.28	348.74
445.47	355.76
445.65	425.98
445.84	425.98
446.02	423.64
446.21	437.68
446.39	414.27
446.58	437.68
446.77	395.55
446.95	416.62
447.14	482.15
447.32	491.51
447.51	433.00
447.69	503.22
447.88	397.89
448.06	397.89
448.25	482.15
448.43	358.10
448.62	362.78
448.80	390.87
448.99	451.72
449.17	337.04
449.36	414.27
449.54	337.04
449.73	435.34
449.91	374.49
450.10	367.46
450.28	414.27
450.46	374.49
450.65	444.70
450.83	348.74
451.02	367.46
451.20	388.53
451.39	421.30
451.57	416.62
451.76	482.15
451.94	442.36
452.13	407.25
452.31	444.70
452.49	433.00
452.68	482.15
452.86	472.79
453.05	435.34
453.23	440.02
453.42	433.00
453.60	379.17
453.78	418.96
453.97	421.30
454.15	362.78
454.34	397.89
454.52	411.93
454.70	435.34
454.89	505.56
455.07	421.30
455.26	433.00
455.44	451.72
455.62	404.91
455.81	418.96
455.99	360.44
456.17	468.11
456.36	428.32
456.54	395.55
456.73	383.85
456.91	449.38
457.09	463.43
457.28	503.22
457.46	395.55
457.64	416.62
457.83	379.17
458.01	458.74
458.19	437.68
458.38	409.59
458.56	435.34
458.74	423.64
458.93	414.27
459.11	463.43
459.29	414.27
459.48	423.64
459.66	421.30
459.84	451.72
460.03	517.26
460.21	411.93
460.39	402.57
460.57	397.89
460.76	346.40
460.94	395.55
461.12	449.38
461.31	435.34
461.49	383.85
461.67	388.53
461.85	395.55
462.04	414.27
462.22	837.91
462.40	393.21
462.59	411.93
462.77	486.83
462.95	414.27
463.13	433.00
463.32	484.49
463.50	341.72
463.68	498.53
463.86	407.25
464.05	409.59
464.23	451.72
464.41	489.17
464.59	374.49
464.78	376.83
464.96	376.83
465.14	360.44
465.32	353.42
465.50	374.49
465.69	503.22
465.87	374.49
466.05	383.85
466.23	411.93
466.41	423.64
466.60	449.38
466.78	437.68
466.96	386.19
467.14	425.98
467.32	463.43
467.51	390.87
467.69	423.64
467.87	458.74
468.05	358.10
468.23	379.17
468.41	458.74
468.60	421.30
468.78	416.62
468.96	461.09
469.14	482.15
469.32	409.59
469.50	458.74
469.69	409.59
469.87	390.87
470.05	388.53
470.23	470.45
470.41	425.98
470.59	428.32
470.77	454.06
470.95	458.74
471.14	461.09
471.32	383.85
471.50	418.96
471.68	451.72
471.86	447.04
472.04	367.46
472.22	381.51
472.40	393.21
472.58	360.44
472.77	456.40
472.95	353.42
473.13	454.06
473.31	404.91
473.49	440.02
473.67	442.36
473.85	400.23
474.03	386.19
474.21	369.80
474.39	458.74
474.57	454.06
474.75	484.49
474.93	430.66
475.12	390.87
475.30	355.76
475.48	397.89
475.66	409.59
475.84	418.96
476.02	397.89
476.20	386.19
476.38	440.02
476.56	451.72
476.74	400.23
476.92	484.49
477.10	393.21
477.28	447.04
477.46	449.38
477.64	449.38
477.82	365.12
478.00	346.40
478.18	397.89
478.36	362.78
478.54	435.34
478.72	442.36
478.90	414.27
479.08	423.64
479.26	365.12
479.44	395.55
479.62	355.76
479.80	339.38
479.98	379.17
480.16	386.19
480.34	381.51
480.52	397.89
480.70	440.02
480.88	397.89
481.06	388.53
481.24	360.44
481.41	339.38
481.59	447.04
481.77	388.53
481.95	465.77
482.13	433.00
482.31	388.53
482.49	397.89
482.67	430.66
482.85	411.93
483.03	433.00
483.21	507.90
483.39	372.15
483.57	423.64
483.74	447.04
483.92	414.27
484.10	400.23
484.28	458.74
484.46	486.83
484.64	409.59
484.82	442.36
485.00	402.57
485.18	428.32
485.35	339.38
485.53	395.55
485.71	404.91
485.89	388.53
486.07	341.72
486.25	468.11
486.43	397.89
486.61	498.53
486.78	369.80
486.96	507.90
487.14	416.62
487.32	430.66
487.50	463.43
487.68	463.43
487.85	409.59
488.03	386.19
488.21	449.38
488.39	423.64
488.57	442.36
488.75	360.44
488.92	500.87
489.10	400.23
489.28	425.98
489.46	411.93
489.64	334.70
489.81	409.59
489.99	496.19
490.17	472.79
490.35	451.72
490.53	433.00
490.70	465.77
490.88	388.53
491.06	388.53
491.24	409.59
491.41	425.98
491.59	428.32
491.77	470.45
491.95	414.27
492.13	428.32
492.30	318.31
492.48	379.17
492.66	435.34
492.84	407.25
493.01	393.21
493.19	411.93
493.37	430.66
493.54	416.62
493.72	423.64
493.90	390.87
494.08	416.62
494.25	367.46
494.43	393.21
494.61	360.44
494.79	472.79
494.96	440.02
495.14	393.21
495.32	421.30
495.49	393.21
495.67	440.02
495.85	407.25
496.02	463.43
496.20	383.85
496.38	390.87
496.55	355.76
496.73	425.98
496.91	390.87
497.09	435.34
497.26	507.90
497.44	360.44
497.62	376.83
497.79	404.91
497.97	379.17
498.14	447.04
498.32	489.17
498.50	411.93
498.67	489.17
498.85	362.78
499.03	332.36
499.20	400.23
499.38	395.55
499.56	367.46
499.73	423.64
499.91	411.93
500.08	465.77
500.26	411.93
500.44	470.45
500.61	365.12
500.79	423.64
500.97	411.93
501.14	477.47
501.32	451.72
501.49	416.62
501.67	411.93
501.84	397.89
502.02	383.85
502.20	416.62
502.37	414.27
502.55	407.25
502.72	393.21
502.90	421.30
503.07	451.72
503.25	362.78
503.43	423.64
503.60	330.02
503.78	411.93
503.95	421.30
504.13	397.89
504.30	425.98
504.48	409.59
504.65	421.30
504.83	416.62
505.01	428.32
505.18	395.55
505.36	397.89
505.53	425.98
505.71	402.57
505.88	449.38
506.06	402.57
506.23	383.85
506.41	348.74
506.58	435.34
506.76	330.02
506.93	400.23
507.11	451.72
507.28	381.51
507.46	444.70
507.63	454.06
507.81	428.32
507.98	437.68
508.16	341.72
508.33	433.00
508.50	430.66
508.68	379.17
508.85	437.68
509.03	404.91
509.20	428.32
509.38	362.78
509.55	449.38
509.73	416.62
509.90	477.47
510.08	484.49
510.25	416.62
510.42	390.87
510.60	440.02
510.77	374.49
510.95	484.49
511.12	409.59
511.30	440.02
511.47	428.32
511.64	372.15
511.82	402.57
511.99	414.27
512.17	444.70
512.34	379.17
512.51	367.46
512.69	437.68
512.86	362.78
513.04	402.57
513.21	416.62
513.38	365.12
513.56	449.38
513.73	400.23
513.90	442.36
514.08	414.27
514.25	461.09
514.43	402.57
514.60	372.15
514.77	437.68
514.95	418.96
515.12	472.79
515.29	442.36
515.47	381.51
515.64	463.43
515.81	355.76
515.99	416.62
516.16	482.15
516.33	423.64
516.51	425.98
516.68	449.38
516.85	447.04
517.03	390.87
517.20	472.79
517.37	477.47
517.54	409.59
517.72	390.87
517.89	442.36
518.06	423.64
518.24	400.23
518.41	435.34
518.58	425.98
518.75	465.77
518.93	409.59
519.10	444.70
519.27	369.80
519.45	400.23
519.62	435.34
519.79	472.79
519.96	418.96
520.14	418.96
520.31	374.49
520.48	418.96
520.65	421.30
520.83	423.64
521.00	428.32
521.17	444.70
521.34	386.19
521.52	362.78
521.69	365.12
521.86	358.10
522.03	416.62
522.20	463.43
522.38	330.02
522.55	468.11
522.72	395.55
522.89	449.38
523.07	456.40
523.24	428.32
523.41	430.66
523.58	407.25
523.75	388.53
523.92	402.57
524.10	390.87
524.27	409.59
524.44	386.19
524.61	404.91
524.78	418.96
524.96	388.53
525.13	435.34
525.30	465.77
525.47	425.98
525.64	397.89
525.81	400.23
525.98	433.00
526.16	437.68
526.33	369.80
526.50	444.70
526.67	416.62
526.84	390.87
527.01	475.13
527.18	479.81
527.36	449.38
527.53	386.19
527.70	400.23
527.87	400.23
528.04	456.40
528.21	397.89
528.38	428.32
528.55	425.98
528.72	390.87
528.89	386.19
529.07	433.00
529.24	404.91
529.41	430.66
529.58	423.64
529.75	425.98
529.92	411.93
530.09	440.02
530.26	351.08
530.43	458.74
530.60	447.04
530.77	365.12
530.94	360.44
531.11	388.53
531.28	383.85
531.46	395.55
531.63	421.30
531.80	440.02
531.97	374.49
532.14	383.85
532.31	404.91
532.48	381.51
532.65	440.02
532.82	376.83
532.99	437.68
533.16	440.02
533.33	475.13
533.50	416.62
533.67	351.08
533.84	449.38
534.01	381.51
534.18	465.77
534.35	437.68
534.52	421.30
534.69	449.38
534.86	411.93
535.03	421.30
535.20	402.57
535.37	395.55
535.54	435.34
535.71	409.59
535.88	468.11
536.05	435.34
536.22	468.11
536.38	461.09
536.55	383.85
536.72	369.80
536.89	346.40
537.06	390.87
537.23	397.89
537.40	388.53
537.57	475.13
537.74	463.43
537.91	437.68
538.08	496.19
538.25	444.70
538.42	472.79
538.59	423.64
538.75	411.93
538.92	447.04
539.09	437.68
539.26	407.25
539.43	440.02
539.60	428.32
539.77	433.00
539.94	430.66
540.11	404.91
540.28	400.23
540.44	400.23
540.61	435.34
540.78	428.32
540.95	428.32
541.12	383.85
541.29	470.45
541.46	409.59
541.62	397.89
541.79	409.59
541.96	360.44
542.13	423.64
542.30	388.53
542.47	454.06
542.63	447.04
542.80	320.65
542.97	428.32
543.14	430.66
543.31	444.70
543.48	418.96
543.64	421.30
543.81	365.12
543.98	447.04
544.15	456.40
544.32	421.30
544.48	360.44
544.65	418.96
544.82	423.64
544.99	440.02
545.16	393.21
545.32	407.25
545.49	400.23
545.66	407.25
545.83	348.74
546.00	416.62
546.16	440.02
546.33	386.19
546.50	416.62
546.67	444.70
546.83	472.79
547.00	414.27
547.17	430.66
547.34	351.08
547.50	451.72
547.67	400.23
547.84	444.70
548.00	395.55
548.17	362.78
548.34	451.72
548.51	470.45
548.67	397.89
548.84	491.51
549.01	465.77
549.18	418.96
549.34	388.53
549.51	416.62
549.68	451.72
549.84	400.23
550.01	444.70
550.18	463.43
550.34	489.17
550.51	428.32
550.68	428.32
550.84	358.10
551.01	369.80
551.18	489.17
551.34	435.34
551.51	470.45
551.68	395.55
551.84	409.59
552.01	400.23
552.18	521.94
552.34	475.13
552.51	456.40
552.68	468.11
552.84	444.70
553.01	388.53
553.18	346.40
553.34	465.77
553.51	461.09
553.67	390.87
553.84	444.70
554.01	386.19
554.17	341.72
554.34	418.96
554.51	517.26
554.67	458.74
554.84	440.02
555.00	482.15
555.17	433.00
555.33	404.91
555.50	425.98
555.67	484.49
555.83	397.89
556.00	320.65
556.16	510.24
556.33	461.09
556.50	337.04
556.66	383.85
556.83	437.68
556.99	386.19
557.16	479.81
557.32	449.38
557.49	418.96
557.65	409.59
557.82	461.09
557.98	381.51
558.15	416.62
558.32	463.43
558.48	421.30
558.65	416.62
558.81	346.40
558.98	362.78
559.14	374.49
559.31	433.00
559.47	465.77
559.64	388.53
559.80	381.51
559.97	395.55
560.13	386.19
560.30	421.30
560.46	435.34
560.63	428.32
560.79	458.74
560.96	472.79
561.12	449.38
561.29	414.27
561.45	411.93
561.61	428.32
561.78	447.04
561.94	404.91
562.11	489.17
562.27	386.19
562.44	376.83
562.60	376.83
562.77	418.96
562.93	458.74
563.10	449.38
563.26	423.64
563.42	400.23
563.59	404.91
563.75	428.32
563.92	430.66
564.08	367.46
564.24	491.51
564.41	461.09
564.57	447.04
564.74	440.02
564.90	428.32
565.07	435.34
565.23	416.62
565.39	477.47
565.56	418.96
565.72	423.64
565.88	444.70
566.05	461.09
566.21	451.72
566.38	355.76
566.54	468.11
566.70	330.02
566.87	372.15
567.03	388.53
567.19	435.34
567.36	395.55
567.52	435.34
567.68	393.21
567.85	416.62
568.01	397.89
568.17	433.00
568.34	447.04
568.50	454.06
568.66	381.51
568.83	397.89
568.99	351.08
569.15	447.04
569.32	425.98
569.48	348.74
569.64	454.06
569.81	411.93
569.97	430.66
570.13	421.30
570.30	447.04
570.46	442.36
570.62	414.27
570.78	435.34
570.95	397.89
571.11	449.38
571.27	449.38
571.43	416.62
571.60	435.34
571.76	449.38
571.92	428.32
572.09	416.62
572.25	346.40
572.41	526.62
572.57	470.45
572.74	484.49
572.90	362.78
573.06	435.34
573.22	397.89
573.38	430.66
573.55	435.34
573.71	444.70
573.87	484.49
574.03	390.87
574.20	418.96
574.36	433.00
574.52	414.27
574.68	421.30
574.84	479.81
575.01	421.30
575.17	409.59
575.33	435.34
575.49	409.59
575.65	358.10
575.82	425.98
575.98	430.66
576.14	348.74
576.30	454.06
576.46	376.83
576.62	407.25
576.79	449.38
576.95	458.74
577.11	365.12
577.27	435.34
577.43	440.02
577.59	505.56
577.75	404.91
577.92	440.02
578.08	440.02
578.24	367.46
578.40	423.64
578.56	386.19
578.72	472.79
578.88	393.21
579.04	407.25
579.21	472.79
579.37	463.43
579.53	383.85
579.69	416.62
579.85	369.80
580.01	421.30
580.17	409.59
580.33	433.00
580.49	365.12
580.65	458.74
580.82	381.51
580.98	367.46
581.14	416.62
581.30	454.06
581.46	383.85
581.62	425.98
581.78	407.25
581.94	475.13
582.10	440.02
582.26	383.85
582.42	376.83
582.58	365.12
582.74	454.06
582.90	451.72
583.06	435.34
583.22	414.27
583.38	379.17
583.54	369.80
583.70	458.74
583.86	404.91
584.02	386.19
584.18	433.00
584.34	379.17
584.50	404.91
584.66	440.02
584.82	339.38
584.98	449.38
585.14	362.78
585.30	409.59
585.46	414.27
585.62	407.25
585.78	376.83
585.94	379.17
586.10	400.23
586.26	451.72
586.42	451.72
586.58	390.87
586.74	423.64
586.90	400.23
587.06	447.04
587.22	458.74
587.38	353.42
587.54	416.62
587.70	475.13
587.86	397.89
588.02	407.25
588.18	325.33
588.34	383.85
588.49	430.66
588.65	414.27
588.81	411.93
588.97	393.21
589.13	475.13
589.29	447.04
589.45	477.47
589.61	421.30
589.77	435.34
589.93	362.78
590.08	451.72
590.24	440.02
590.40	475.13
590.56	468.11
590.72	430.66
590.88	369.80
591.04	468.11
591.20	379.17
591.35	400.23
591.51	395.55
591.67	388.53
591.83	388.53
591.99	437.68
592.15	418.96
592.31	435.34
592.46	475.13
592.62	468.11
592.78	411.93
592.94	440.02
593.10	442.36
593.26	418.96
593.41	435.34
593.57	379.17
593.73	376.83
593.89	402.57
594.05	444.70
594.20	463.43
594.36	451.72
594.52	428.32
594.68	372.15
594.84	425.98
594.99	528.96
595.15	393.21
595.31	451.72
595.47	423.64
595.62	430.66
595.78	491.51
595.94	365.12
596.10	442.36
596.25	395.55
596.41	472.79
596.57	428.32
596.73	407.25
596.88	386.19
597.04	416.62
597.20	397.89
597.36	435.34
597.51	435.34
597.67	376.83
597.83	425.98
597.99	451.72
598.14	390.87
598.30	465.77
598.46	407.25
598.61	388.53
598.77	428.32
598.93	425.98
599.09	418.96
599.24	433.00
599.40	418.96
599.56	454.06
599.71	442.36
599.87	383.85
600.03	418.96
600.18	383.85
600.34	418.96
600.50	463.43
600.65	358.10
600.81	423.64
600.97	334.70
601.12	374.49
601.28	407.25
601.44	411.93
601.59	388.53
601.75	451.72
601.91	437.68
602.06	430.66
602.22	458.74
602.37	430.66
602.53	376.83
602.69	416.62
602.84	351.08
603.00	435.34
603.16	454.06
603.31	447.04
603.47	320.65
603.62	393.21
603.78	433.00
603.94	425.98
604.09	430.66
604.25	472.79
604.40	444.70
604.56	416.62
604.71	369.80
604.87	365.12
605.03	388.53
605.18	409.59
605.34	409.59
605.49	344.06
605.65	421.30
605.80	435.34
605.96	521.94
606.12	404.91
606.27	414.27
606.43	393.21
606.58	449.38
606.74	430.66
606.89	468.11
607.05	447.04
607.20	465.77
607.36	334.70
607.51	381.51
607.67	477.47
607.82	451.72
607.98	447.04
608.13	414.27
608.29	390.87
608.44	528.96
608.60	428.32
608.75	463.43
608.91	390.87
609.06	393.21
609.22	486.83
609.37	374.49
609.53	505.56
609.68	346.40
609.84	390.87
609.99	379.17
610.15	437.68
