SpectraSuite Data File
++++++++++++++++++++++++++++++++++++
Date: Fri Oct 25 12:11:34 EDT 2013
User: price-jones
Dark Spectrum Present: No
Reference Spectrum Present: No
Number of Sampled Component Spectra: 1
Spectrometers: USB2+H05261
Integration Time (usec): 100000 (USB2+H05261)
Spectra Averaged: 1 (USB2+H05261)
Boxcar Smoothing: 0 (USB2+H05261)
Correct for Electrical Dark: No (USB2+H05261)
Strobe/Lamp Enabled: No (USB2+H05261)
Correct for Detector Non-linearity: No (USB2+H05261)
Correct for Stray Light: No (USB2+H05261)
Number of Pixels in Processed Spectrum: 2048
>>>>>Begin Processed Spectral Data<<<<<
365.73	351.08
365.92	351.08
366.12	351.08
366.32	332.36
366.52	227.03
366.72	290.23
366.91	255.12
367.11	222.35
367.31	222.35
367.51	252.78
367.70	198.95
367.90	278.52
368.10	212.99
368.30	191.92
368.49	222.35
368.69	278.52
368.89	255.12
369.09	271.50
369.28	308.95
369.48	271.50
369.68	306.61
369.87	248.10
370.07	351.08
370.27	339.38
370.47	360.44
370.66	287.89
370.86	308.95
371.06	404.91
371.25	362.78
371.45	379.17
371.65	376.83
371.84	332.36
372.04	451.72
372.24	388.53
372.44	332.36
372.63	463.43
372.83	421.30
373.03	404.91
373.22	374.49
373.42	440.02
373.62	430.66
373.81	489.17
374.01	491.51
374.21	430.66
374.40	362.78
374.60	468.11
374.79	437.68
374.99	418.96
375.19	404.91
375.38	367.46
375.58	425.98
375.78	475.13
375.97	470.45
376.17	404.91
376.37	475.13
376.56	444.70
376.76	503.22
376.95	407.25
377.15	458.74
377.35	425.98
377.54	442.36
377.74	421.30
377.93	449.38
378.13	444.70
378.33	423.64
378.52	318.31
378.72	433.00
378.91	407.25
379.11	351.08
379.31	430.66
379.50	355.76
379.70	365.12
379.89	416.62
380.09	437.68
380.28	339.38
380.48	475.13
380.68	325.33
380.87	351.08
381.07	447.04
381.26	425.98
381.46	407.25
381.65	409.59
381.85	388.53
382.04	397.89
382.24	407.25
382.43	430.66
382.63	411.93
382.83	386.19
383.02	425.98
383.22	507.90
383.41	393.21
383.61	381.51
383.80	491.51
384.00	376.83
384.19	437.68
384.39	386.19
384.58	395.55
384.78	393.21
384.97	461.09
385.17	407.25
385.36	372.15
385.56	416.62
385.75	475.13
385.95	407.25
386.14	418.96
386.34	472.79
386.53	411.93
386.72	428.32
386.92	332.36
387.11	425.98
387.31	390.87
387.50	383.85
387.70	458.74
387.89	430.66
388.09	374.49
388.28	411.93
388.48	458.74
388.67	486.83
388.86	383.85
389.06	400.23
389.25	430.66
389.45	397.89
389.64	458.74
389.84	433.00
390.03	355.76
390.22	397.89
390.42	430.66
390.61	397.89
390.81	353.42
391.00	369.80
391.19	437.68
391.39	414.27
391.58	390.87
391.78	341.72
391.97	411.93
392.16	418.96
392.36	383.85
392.55	421.30
392.75	423.64
392.94	374.49
393.13	451.72
393.33	418.96
393.52	414.27
393.71	433.00
393.91	423.64
394.10	444.70
394.29	362.78
394.49	433.00
394.68	404.91
394.88	437.68
395.07	411.93
395.26	421.30
395.46	376.83
395.65	470.45
395.84	402.57
396.04	416.62
396.23	454.06
396.42	411.93
396.62	440.02
396.81	454.06
397.00	388.53
397.19	430.66
397.39	468.11
397.58	437.68
397.77	388.53
397.97	402.57
398.16	344.06
398.35	442.36
398.55	365.12
398.74	428.32
398.93	440.02
399.12	458.74
399.32	397.89
399.51	393.21
399.70	325.33
399.90	383.85
400.09	390.87
400.28	475.13
400.47	386.19
400.67	475.13
400.86	355.76
401.05	372.15
401.24	372.15
401.44	425.98
401.63	440.02
401.82	442.36
402.01	428.32
402.21	397.89
402.40	351.08
402.59	365.12
402.78	311.29
402.97	365.12
403.17	433.00
403.36	425.98
403.55	365.12
403.74	355.76
403.93	414.27
404.13	414.27
404.32	383.85
404.51	379.17
404.70	472.79
404.89	360.44
405.09	404.91
405.28	362.78
405.47	374.49
405.66	383.85
405.85	447.04
406.05	395.55
406.24	400.23
406.43	358.10
406.62	379.17
406.81	472.79
407.00	428.32
407.20	402.57
407.39	390.87
407.58	418.96
407.77	383.85
407.96	421.30
408.15	409.59
408.34	435.34
408.54	369.80
408.73	388.53
408.92	358.10
409.11	435.34
409.30	447.04
409.49	320.65
409.68	421.30
409.87	376.83
410.07	360.44
410.26	362.78
410.45	383.85
410.64	421.30
410.83	379.17
411.02	411.93
411.21	472.79
411.40	472.79
411.59	425.98
411.78	404.91
411.98	465.77
412.17	404.91
412.36	425.98
412.55	402.57
412.74	472.79
412.93	344.06
413.12	428.32
413.31	423.64
413.50	360.44
413.69	388.53
413.88	451.72
414.07	369.80
414.26	449.38
414.45	428.32
414.64	475.13
414.83	421.30
415.02	416.62
415.22	376.83
415.41	461.09
415.60	344.06
415.79	428.32
415.98	395.55
416.17	393.21
416.36	428.32
416.55	447.04
416.74	411.93
416.93	463.43
417.12	430.66
417.31	416.62
417.50	456.40
417.69	386.19
417.88	379.17
418.07	355.76
418.26	454.06
418.45	447.04
418.64	409.59
418.83	404.91
419.02	390.87
419.21	369.80
419.39	404.91
419.58	372.15
419.77	411.93
419.96	423.64
420.15	425.98
420.34	447.04
420.53	404.91
420.72	428.32
420.91	418.96
421.10	433.00
421.29	369.80
421.48	397.89
421.67	418.96
421.86	442.36
422.05	393.21
422.24	360.44
422.43	400.23
422.61	411.93
422.80	397.89
422.99	379.17
423.18	409.59
423.37	409.59
423.56	442.36
423.75	475.13
423.94	400.23
424.13	407.25
424.32	397.89
424.50	404.91
424.69	358.10
424.88	433.00
425.07	402.57
425.26	376.83
425.45	470.45
425.64	397.89
425.83	519.60
426.01	505.56
426.20	400.23
426.39	421.30
426.58	444.70
426.77	433.00
426.96	451.72
427.15	402.57
427.33	341.72
427.52	407.25
427.71	379.17
427.90	435.34
428.09	388.53
428.28	458.74
428.46	369.80
428.65	425.98
428.84	423.64
429.03	409.59
429.22	348.74
429.40	390.87
429.59	416.62
429.78	442.36
429.97	414.27
430.16	463.43
430.34	440.02
430.53	409.59
430.72	418.96
430.91	514.92
431.10	381.51
431.28	498.53
431.47	418.96
431.66	430.66
431.85	404.91
432.03	430.66
432.22	496.19
432.41	411.93
432.60	500.87
432.79	444.70
432.97	440.02
433.16	341.72
433.35	362.78
433.54	465.77
433.72	423.64
433.91	409.59
434.10	348.74
434.28	493.85
434.47	475.13
434.66	435.34
434.85	404.91
435.03	388.53
435.22	395.55
435.41	470.45
435.59	423.64
435.78	379.17
435.97	468.11
436.16	447.04
436.34	456.40
436.53	456.40
436.72	475.13
436.90	416.62
437.09	423.64
437.28	395.55
437.46	393.21
437.65	444.70
437.84	402.57
438.02	383.85
438.21	367.46
438.40	325.33
438.58	358.10
438.77	442.36
438.96	402.57
439.14	379.17
439.33	421.30
439.52	360.44
439.70	430.66
439.89	400.23
440.08	397.89
440.26	416.62
440.45	423.64
440.63	414.27
440.82	470.45
441.01	409.59
441.19	362.78
441.38	402.57
441.57	442.36
441.75	463.43
441.94	421.30
442.12	386.19
442.31	360.44
442.50	421.30
442.68	496.19
442.87	414.27
443.05	374.49
443.24	430.66
443.43	393.21
443.61	440.02
443.80	425.98
443.98	388.53
444.17	468.11
444.35	409.59
444.54	421.30
444.73	355.76
444.91	414.27
445.10	418.96
445.28	447.04
445.47	423.64
445.65	374.49
445.84	437.68
446.02	397.89
446.21	381.51
446.39	362.78
446.58	407.25
446.77	397.89
446.95	435.34
447.14	379.17
447.32	407.25
447.51	440.02
447.69	447.04
447.88	423.64
448.06	360.44
448.25	418.96
448.43	442.36
448.62	390.87
448.80	404.91
448.99	393.21
449.17	447.04
449.36	367.46
449.54	437.68
449.73	325.33
449.91	388.53
450.10	402.57
450.28	463.43
450.46	437.68
450.65	444.70
450.83	465.77
451.02	369.80
451.20	362.78
451.39	440.02
451.57	425.98
451.76	430.66
451.94	472.79
452.13	404.91
452.31	423.64
452.49	489.17
452.68	407.25
452.86	388.53
453.05	402.57
453.23	395.55
453.42	353.42
453.60	409.59
453.78	451.72
453.97	423.64
454.15	367.46
454.34	418.96
454.52	458.74
454.70	489.17
454.89	397.89
455.07	362.78
455.26	454.06
455.44	395.55
455.62	346.40
455.81	390.87
455.99	421.30
456.17	454.06
456.36	386.19
456.54	496.19
456.73	402.57
456.91	374.49
457.09	503.22
457.28	400.23
457.46	409.59
457.64	411.93
457.83	524.28
458.01	418.96
458.19	489.17
458.38	386.19
458.56	404.91
458.74	393.21
458.93	470.45
459.11	425.98
459.29	423.64
459.48	442.36
459.66	433.00
459.84	402.57
460.03	468.11
460.21	397.89
460.39	418.96
460.57	479.81
460.76	339.38
460.94	461.09
461.12	437.68
461.31	440.02
461.49	390.87
461.67	372.15
461.85	404.91
462.04	388.53
462.22	805.14
462.40	379.17
462.59	437.68
462.77	437.68
462.95	360.44
463.13	409.59
463.32	440.02
463.50	409.59
463.68	454.06
463.86	397.89
464.05	395.55
464.23	414.27
464.41	393.21
464.59	456.40
464.78	397.89
464.96	355.76
465.14	444.70
465.32	465.77
465.50	435.34
465.69	402.57
465.87	344.06
466.05	475.13
466.23	353.42
466.41	402.57
466.60	433.00
466.78	454.06
466.96	498.53
467.14	409.59
467.32	414.27
467.51	489.17
467.69	442.36
467.87	423.64
468.05	449.38
468.23	493.85
468.41	393.21
468.60	383.85
468.78	454.06
468.96	514.92
469.14	444.70
469.32	421.30
469.50	393.21
469.69	418.96
469.87	458.74
470.05	400.23
470.23	381.51
470.41	407.25
470.59	442.36
470.77	433.00
470.95	402.57
471.14	402.57
471.32	402.57
471.50	465.77
471.68	416.62
471.86	493.85
472.04	379.17
472.22	395.55
472.40	442.36
472.58	400.23
472.77	376.83
472.95	390.87
473.13	425.98
473.31	409.59
473.49	376.83
473.67	454.06
473.85	503.22
474.03	428.32
474.21	435.34
474.39	421.30
474.57	393.21
474.75	449.38
474.93	348.74
475.12	472.79
475.30	418.96
475.48	430.66
475.66	456.40
475.84	397.89
476.02	393.21
476.20	372.15
476.38	404.91
476.56	400.23
476.74	330.02
476.92	393.21
477.10	418.96
477.28	493.85
477.46	451.72
477.64	425.98
477.82	362.78
478.00	430.66
478.18	451.72
478.36	437.68
478.54	351.08
478.72	407.25
478.90	341.72
479.08	461.09
479.26	449.38
479.44	461.09
479.62	428.32
479.80	416.62
479.98	479.81
480.16	379.17
480.34	447.04
480.52	390.87
480.70	360.44
480.88	369.80
481.06	409.59
481.24	421.30
481.41	465.77
481.59	425.98
481.77	411.93
481.95	416.62
482.13	461.09
482.31	390.87
482.49	543.00
482.67	451.72
482.85	447.04
483.03	465.77
483.21	400.23
483.39	346.40
483.57	360.44
483.74	482.15
483.92	421.30
484.10	393.21
484.28	468.11
484.46	454.06
484.64	381.51
484.82	451.72
485.00	402.57
485.18	381.51
485.35	477.47
485.53	449.38
485.71	454.06
485.89	358.10
486.07	407.25
486.25	477.47
486.43	416.62
486.61	425.98
486.78	449.38
486.96	409.59
487.14	404.91
487.32	433.00
487.50	337.04
487.68	402.57
487.85	404.91
488.03	407.25
488.21	486.83
488.39	463.43
488.57	435.34
488.75	327.68
488.92	510.24
489.10	451.72
489.28	486.83
489.46	383.85
489.64	442.36
489.81	418.96
489.99	393.21
490.17	433.00
490.35	477.47
490.53	369.80
490.70	421.30
490.88	376.83
491.06	472.79
491.24	449.38
491.41	456.40
491.59	468.11
491.77	386.19
491.95	430.66
492.13	418.96
492.30	425.98
492.48	442.36
492.66	451.72
492.84	369.80
493.01	430.66
493.19	418.96
493.37	358.10
493.54	428.32
493.72	458.74
493.90	395.55
494.08	454.06
494.25	409.59
494.43	404.91
494.61	421.30
494.79	367.46
494.96	351.08
495.14	477.47
495.32	418.96
495.49	386.19
495.67	433.00
495.85	437.68
496.02	475.13
496.20	400.23
496.38	433.00
496.55	444.70
496.73	447.04
496.91	381.51
497.09	397.89
497.26	447.04
497.44	418.96
497.62	379.17
497.79	414.27
497.97	425.98
498.14	423.64
498.32	454.06
498.50	402.57
498.67	390.87
498.85	430.66
499.03	379.17
499.20	402.57
499.38	411.93
499.56	379.17
499.73	437.68
499.91	456.40
500.08	435.34
500.26	423.64
500.44	437.68
500.61	421.30
500.79	393.21
500.97	472.79
501.14	477.47
501.32	425.98
501.49	418.96
501.67	393.21
501.84	402.57
502.02	348.74
502.20	430.66
502.37	400.23
502.55	454.06
502.72	374.49
502.90	414.27
503.07	388.53
503.25	402.57
503.43	358.10
503.60	409.59
503.78	423.64
503.95	386.19
504.13	360.44
504.30	430.66
504.48	397.89
504.65	390.87
504.83	461.09
505.01	341.72
505.18	430.66
505.36	421.30
505.53	430.66
505.71	397.89
505.88	447.04
506.06	407.25
506.23	470.45
506.41	388.53
506.58	428.32
506.76	418.96
506.93	351.08
507.11	372.15
507.28	404.91
507.46	435.34
507.63	496.19
507.81	433.00
507.98	402.57
508.16	435.34
508.33	447.04
508.50	428.32
508.68	418.96
508.85	404.91
509.03	402.57
509.20	362.78
509.38	428.32
509.55	416.62
509.73	456.40
509.90	353.42
510.08	416.62
510.25	433.00
510.42	409.59
510.60	386.19
510.77	416.62
510.95	479.81
511.12	400.23
511.30	369.80
511.47	440.02
511.64	463.43
511.82	470.45
511.99	437.68
512.17	449.38
512.34	407.25
512.51	409.59
512.69	449.38
512.86	482.15
513.04	430.66
513.21	344.06
513.38	428.32
513.56	372.15
513.73	367.46
513.90	381.51
514.08	372.15
514.25	360.44
514.43	454.06
514.60	362.78
514.77	475.13
514.95	379.17
515.12	472.79
515.29	468.11
515.47	451.72
515.64	395.55
515.81	454.06
515.99	444.70
516.16	407.25
516.33	421.30
516.51	449.38
516.68	390.87
516.85	442.36
517.03	402.57
517.20	407.25
517.37	411.93
517.54	418.96
517.72	381.51
517.89	475.13
518.06	395.55
518.24	463.43
518.41	475.13
518.58	451.72
518.75	369.80
518.93	379.17
519.10	379.17
519.27	395.55
519.45	390.87
519.62	393.21
519.79	402.57
519.96	395.55
520.14	416.62
520.31	376.83
520.48	430.66
520.65	402.57
520.83	402.57
521.00	390.87
521.17	407.25
521.34	416.62
521.52	454.06
521.69	404.91
521.86	390.87
522.03	435.34
522.20	458.74
522.38	463.43
522.55	397.89
522.72	425.98
522.89	428.32
523.07	451.72
523.24	418.96
523.41	402.57
523.58	440.02
523.75	311.29
523.92	409.59
524.10	449.38
524.27	425.98
524.44	409.59
524.61	428.32
524.78	411.93
524.96	461.09
525.13	400.23
525.30	449.38
525.47	524.28
525.64	330.02
525.81	353.42
525.98	418.96
526.16	402.57
526.33	451.72
526.50	454.06
526.67	379.17
526.84	451.72
527.01	383.85
527.18	435.34
527.36	430.66
527.53	489.17
527.70	454.06
527.87	428.32
528.04	468.11
528.21	374.49
528.38	428.32
528.55	433.00
528.72	379.17
528.89	484.49
529.07	430.66
529.24	367.46
529.41	503.22
529.58	451.72
529.75	402.57
529.92	458.74
530.09	414.27
530.26	411.93
530.43	456.40
530.60	421.30
530.77	400.23
530.94	395.55
531.11	376.83
531.28	395.55
531.46	433.00
531.63	404.91
531.80	390.87
531.97	447.04
532.14	433.00
532.31	379.17
532.48	440.02
532.65	477.47
532.82	411.93
532.99	374.49
533.16	465.77
533.33	449.38
533.50	440.02
533.67	458.74
533.84	454.06
534.01	379.17
534.18	416.62
534.35	414.27
534.52	411.93
534.69	421.30
534.86	402.57
535.03	407.25
535.20	418.96
535.37	409.59
535.54	503.22
535.71	418.96
535.88	458.74
536.05	383.85
536.22	383.85
536.38	430.66
536.55	402.57
536.72	454.06
536.89	463.43
537.06	400.23
537.23	362.78
537.40	409.59
537.57	351.08
537.74	397.89
537.91	428.32
538.08	416.62
538.25	428.32
538.42	416.62
538.59	482.15
538.75	400.23
538.92	423.64
539.09	409.59
539.26	402.57
539.43	444.70
539.60	407.25
539.77	440.02
539.94	433.00
540.11	440.02
540.28	465.77
540.44	430.66
540.61	409.59
540.78	423.64
540.95	397.89
541.12	444.70
541.29	414.27
541.46	407.25
541.62	433.00
541.79	465.77
541.96	449.38
542.13	435.34
542.30	381.51
542.47	491.51
542.63	444.70
542.80	348.74
542.97	528.96
543.14	468.11
543.31	425.98
543.48	437.68
543.64	423.64
543.81	407.25
543.98	454.06
544.15	393.21
544.32	372.15
544.48	440.02
544.65	395.55
544.82	409.59
544.99	470.45
545.16	423.64
545.32	425.98
545.49	381.51
545.66	386.19
545.83	397.89
546.00	423.64
546.16	472.79
546.33	386.19
546.50	435.34
546.67	395.55
546.83	547.69
547.00	416.62
547.17	411.93
547.34	442.36
547.50	491.51
547.67	428.32
547.84	468.11
548.00	407.25
548.17	351.08
548.34	388.53
548.51	416.62
548.67	393.21
548.84	435.34
549.01	332.36
549.18	414.27
549.34	421.30
549.51	435.34
549.68	395.55
549.84	444.70
550.01	393.21
550.18	447.04
550.34	472.79
550.51	341.72
550.68	484.49
550.84	411.93
551.01	416.62
551.18	472.79
551.34	458.74
551.51	376.83
551.68	428.32
551.84	423.64
552.01	470.45
552.18	360.44
552.34	388.53
552.51	414.27
552.68	381.51
552.84	423.64
553.01	444.70
553.18	442.36
553.34	397.89
553.51	390.87
553.67	395.55
553.84	425.98
554.01	458.74
554.17	421.30
554.34	437.68
554.51	458.74
554.67	458.74
554.84	433.00
555.00	425.98
555.17	454.06
555.33	404.91
555.50	517.26
555.67	435.34
555.83	369.80
556.00	388.53
556.16	580.45
556.33	475.13
556.50	498.53
556.66	435.34
556.83	433.00
556.99	475.13
557.16	524.28
557.32	449.38
557.49	404.91
557.65	425.98
557.82	409.59
557.98	435.34
558.15	402.57
558.32	407.25
558.48	369.80
558.65	374.49
558.81	393.21
558.98	334.70
559.14	451.72
559.31	393.21
559.47	409.59
559.64	348.74
559.80	369.80
559.97	388.53
560.13	449.38
560.30	397.89
560.46	456.40
560.63	386.19
560.79	423.64
560.96	369.80
561.12	400.23
561.29	376.83
561.45	365.12
561.61	454.06
561.78	538.32
561.94	411.93
562.11	395.55
562.27	339.38
562.44	355.76
562.60	404.91
562.77	470.45
562.93	477.47
563.10	440.02
563.26	386.19
563.42	507.90
563.59	376.83
563.75	365.12
563.92	435.34
564.08	444.70
564.24	484.49
564.41	463.43
564.57	414.27
564.74	423.64
564.90	491.51
565.07	409.59
565.23	381.51
565.39	402.57
565.56	435.34
565.72	425.98
565.88	393.21
566.05	416.62
566.21	489.17
566.38	407.25
566.54	376.83
566.70	390.87
566.87	393.21
567.03	409.59
567.19	400.23
567.36	451.72
567.52	416.62
567.68	414.27
567.85	463.43
568.01	393.21
568.17	341.72
568.34	463.43
568.50	397.89
568.66	397.89
568.83	540.66
568.99	386.19
569.15	470.45
569.32	444.70
569.48	395.55
569.64	367.46
569.81	447.04
569.97	390.87
570.13	409.59
570.30	416.62
570.46	416.62
570.62	402.57
570.78	372.15
570.95	423.64
571.11	451.72
571.27	470.45
571.43	418.96
571.60	440.02
571.76	430.66
571.92	423.64
572.09	367.46
572.25	411.93
572.41	383.85
572.57	407.25
572.74	404.91
572.90	458.74
573.06	409.59
573.22	433.00
573.38	404.91
573.55	411.93
573.71	428.32
573.87	423.64
574.03	367.46
574.20	428.32
574.36	409.59
574.52	402.57
574.68	449.38
574.84	496.19
575.01	421.30
575.17	395.55
575.33	362.78
575.49	390.87
575.65	353.42
575.82	491.51
575.98	437.68
576.14	463.43
576.30	437.68
576.46	409.59
576.62	430.66
576.79	444.70
576.95	463.43
577.11	414.27
577.27	395.55
577.43	440.02
577.59	409.59
577.75	451.72
577.92	456.40
578.08	348.74
578.24	435.34
578.40	416.62
578.56	444.70
578.72	444.70
578.88	468.11
579.04	404.91
579.21	402.57
579.37	407.25
579.53	397.89
579.69	444.70
579.85	304.27
580.01	374.49
580.17	442.36
580.33	444.70
580.49	395.55
580.65	440.02
580.82	447.04
580.98	465.77
581.14	440.02
581.30	454.06
581.46	390.87
581.62	393.21
581.78	418.96
581.94	411.93
582.10	449.38
582.26	418.96
582.42	404.91
582.58	409.59
582.74	376.83
582.90	395.55
583.06	521.94
583.22	411.93
583.38	311.29
583.54	390.87
583.70	493.85
583.86	381.51
584.02	362.78
584.18	458.74
584.34	411.93
584.50	400.23
584.66	362.78
584.82	423.64
584.98	449.38
585.14	447.04
585.30	444.70
585.46	416.62
585.62	433.00
585.78	435.34
585.94	451.72
586.10	386.19
586.26	386.19
586.42	388.53
586.58	360.44
586.74	428.32
586.90	430.66
587.06	409.59
587.22	430.66
587.38	437.68
587.54	339.38
587.70	472.79
587.86	440.02
588.02	390.87
588.18	395.55
588.34	374.49
588.49	332.36
588.65	388.53
588.81	376.83
588.97	290.23
589.13	355.76
589.29	451.72
589.45	421.30
589.61	411.93
589.77	444.70
589.93	433.00
590.08	468.11
590.24	376.83
590.40	425.98
590.56	435.34
590.72	383.85
590.88	397.89
591.04	500.87
591.20	468.11
591.35	456.40
591.51	379.17
591.67	435.34
591.83	458.74
591.99	414.27
592.15	458.74
592.31	397.89
592.46	402.57
592.62	372.15
592.78	407.25
592.94	442.36
593.10	461.09
593.26	362.78
593.41	447.04
593.57	449.38
593.73	442.36
593.89	437.68
594.05	430.66
594.20	362.78
594.36	397.89
594.52	414.27
594.68	430.66
594.84	421.30
594.99	414.27
595.15	414.27
595.31	454.06
595.47	456.40
595.62	402.57
595.78	346.40
595.94	463.43
596.10	447.04
596.25	447.04
596.41	482.15
596.57	435.34
596.73	404.91
596.88	451.72
597.04	414.27
597.20	416.62
597.36	447.04
597.51	449.38
597.67	372.15
597.83	390.87
597.99	465.77
598.14	414.27
598.30	416.62
598.46	444.70
598.61	472.79
598.77	374.49
598.93	402.57
599.09	367.46
599.24	402.57
599.40	435.34
599.56	423.64
599.71	374.49
599.87	355.76
600.03	404.91
600.18	444.70
600.34	514.92
600.50	414.27
600.65	491.51
600.81	451.72
600.97	397.89
601.12	423.64
601.28	437.68
601.44	416.62
601.59	360.44
601.75	397.89
601.91	479.81
602.06	475.13
602.22	447.04
602.37	484.49
602.53	444.70
602.69	416.62
602.84	442.36
603.00	407.25
603.16	397.89
603.31	444.70
603.47	444.70
603.62	348.74
603.78	414.27
603.94	411.93
604.09	472.79
604.25	376.83
604.40	465.77
604.56	461.09
604.71	433.00
604.87	428.32
605.03	409.59
605.18	390.87
605.34	421.30
605.49	386.19
605.65	393.21
605.80	369.80
605.96	496.19
606.12	440.02
606.27	425.98
606.43	482.15
606.58	470.45
606.74	512.58
606.89	341.72
607.05	369.80
607.20	428.32
607.36	470.45
607.51	430.66
607.67	423.64
607.82	369.80
607.98	358.10
608.13	463.43
608.29	484.49
608.44	414.27
608.60	411.93
608.75	461.09
608.91	407.25
609.06	400.23
609.22	437.68
609.37	390.87
609.53	444.70
609.68	500.87
609.84	404.91
609.99	407.25
610.15	433.00
