SpectraSuite Data File
++++++++++++++++++++++++++++++++++++
Date: Fri Oct 25 12:10:17 EDT 2013
User: price-jones
Dark Spectrum Present: No
Reference Spectrum Present: No
Number of Sampled Component Spectra: 1
Spectrometers: USB2+H05261
Integration Time (usec): 100000 (USB2+H05261)
Spectra Averaged: 1 (USB2+H05261)
Boxcar Smoothing: 0 (USB2+H05261)
Correct for Electrical Dark: No (USB2+H05261)
Strobe/Lamp Enabled: No (USB2+H05261)
Correct for Detector Non-linearity: No (USB2+H05261)
Correct for Stray Light: No (USB2+H05261)
Number of Pixels in Processed Spectrum: 2048
>>>>>Begin Processed Spectral Data<<<<<
365.73	372.15
365.92	372.15
366.12	372.15
366.32	203.63
366.52	259.80
366.72	294.91
366.91	248.10
367.11	264.48
367.31	250.44
367.51	243.42
367.70	245.76
367.90	245.76
368.10	257.46
368.30	241.08
368.49	243.42
368.69	266.82
368.89	297.25
369.09	280.86
369.28	220.01
369.48	210.65
369.68	287.89
369.87	299.59
370.07	250.44
370.27	318.31
370.47	313.63
370.66	299.59
370.86	362.78
371.06	395.55
371.25	376.83
371.45	381.51
371.65	393.21
371.84	421.30
372.04	416.62
372.24	423.64
372.44	334.70
372.63	348.74
372.83	454.06
373.03	456.40
373.22	421.30
373.42	437.68
373.62	395.55
373.81	404.91
374.01	461.09
374.21	468.11
374.40	411.93
374.60	433.00
374.79	393.21
374.99	397.89
375.19	395.55
375.38	416.62
375.58	407.25
375.78	414.27
375.97	372.15
376.17	358.10
376.37	404.91
376.56	433.00
376.76	444.70
376.95	414.27
377.15	407.25
377.35	489.17
377.54	435.34
377.74	360.44
377.93	400.23
378.13	430.66
378.33	449.38
378.52	444.70
378.72	402.57
378.91	407.25
379.11	430.66
379.31	388.53
379.50	425.98
379.70	430.66
379.89	337.04
380.09	362.78
380.28	407.25
380.48	372.15
380.68	386.19
380.87	440.02
381.07	421.30
381.26	367.46
381.46	369.80
381.65	393.21
381.85	437.68
382.04	374.49
382.24	372.15
382.43	493.85
382.63	414.27
382.83	404.91
383.02	430.66
383.22	409.59
383.41	433.00
383.61	456.40
383.80	433.00
384.00	423.64
384.19	451.72
384.39	351.08
384.58	447.04
384.78	372.15
384.97	379.17
385.17	362.78
385.36	374.49
385.56	407.25
385.75	393.21
385.95	400.23
386.14	339.38
386.34	402.57
386.53	414.27
386.72	465.77
386.92	470.45
387.11	386.19
387.31	433.00
387.50	493.85
387.70	393.21
387.89	407.25
388.09	440.02
388.28	393.21
388.48	250.44
388.67	407.25
388.86	369.80
389.06	444.70
389.25	423.64
389.45	337.04
389.64	451.72
389.84	440.02
390.03	437.68
390.22	381.51
390.42	339.38
390.61	421.30
390.81	451.72
391.00	444.70
391.19	383.85
391.39	376.83
391.58	444.70
391.78	341.72
391.97	332.36
392.16	395.55
392.36	440.02
392.55	381.51
392.75	444.70
392.94	414.27
393.13	425.98
393.33	365.12
393.52	334.70
393.71	407.25
393.91	381.51
394.10	395.55
394.29	414.27
394.49	369.80
394.68	360.44
394.88	440.02
395.07	320.65
395.26	400.23
395.46	418.96
395.65	400.23
395.84	395.55
396.04	421.30
396.23	351.08
396.42	433.00
396.62	465.77
396.81	374.49
397.00	369.80
397.19	472.79
397.39	447.04
397.58	416.62
397.77	425.98
397.97	407.25
398.16	447.04
398.35	395.55
398.55	383.85
398.74	404.91
398.93	404.91
399.12	383.85
399.32	414.27
399.51	369.80
399.70	402.57
399.90	308.95
400.09	395.55
400.28	463.43
400.47	433.00
400.67	440.02
400.86	404.91
401.05	440.02
401.24	477.47
401.44	383.85
401.63	414.27
401.82	465.77
402.01	442.36
402.21	353.42
402.40	421.30
402.59	337.04
402.78	393.21
402.97	440.02
403.17	440.02
403.36	395.55
403.55	421.30
403.74	442.36
403.93	470.45
404.13	461.09
404.32	416.62
404.51	428.32
404.70	393.21
404.89	365.12
405.09	418.96
405.28	390.87
405.47	351.08
405.66	362.78
405.85	425.98
406.05	425.98
406.24	472.79
406.43	407.25
406.62	337.04
406.81	477.47
407.00	430.66
407.20	346.40
407.39	430.66
407.58	400.23
407.77	388.53
407.96	456.40
408.15	430.66
408.34	416.62
408.54	397.89
408.73	390.87
408.92	393.21
409.11	421.30
409.30	442.36
409.49	428.32
409.68	376.83
409.87	489.17
410.07	381.51
410.26	393.21
410.45	477.47
410.64	376.83
410.83	425.98
411.02	409.59
411.21	425.98
411.40	322.99
411.59	411.93
411.78	395.55
411.98	503.22
412.17	456.40
412.36	376.83
412.55	330.02
412.74	465.77
412.93	440.02
413.12	407.25
413.31	374.49
413.50	409.59
413.69	395.55
413.88	409.59
414.07	416.62
414.26	374.49
414.45	402.57
414.64	442.36
414.83	402.57
415.02	409.59
415.22	507.90
415.41	418.96
415.60	374.49
415.79	407.25
415.98	425.98
416.17	449.38
416.36	423.64
416.55	397.89
416.74	409.59
416.93	482.15
417.12	388.53
417.31	400.23
417.50	411.93
417.69	456.40
417.88	423.64
418.07	376.83
418.26	428.32
418.45	442.36
418.64	388.53
418.83	367.46
419.02	425.98
419.21	423.64
419.39	456.40
419.58	358.10
419.77	334.70
419.96	458.74
420.15	437.68
420.34	435.34
420.53	411.93
420.72	433.00
420.91	418.96
421.10	442.36
421.29	454.06
421.48	400.23
421.67	435.34
421.86	421.30
422.05	433.00
422.24	418.96
422.43	449.38
422.61	491.51
422.80	372.15
422.99	397.89
423.18	397.89
423.37	472.79
423.56	374.49
423.75	465.77
423.94	493.85
424.13	491.51
424.32	351.08
424.50	451.72
424.69	407.25
424.88	416.62
425.07	372.15
425.26	435.34
425.45	498.53
425.64	421.30
425.83	433.00
426.01	442.36
426.20	425.98
426.39	440.02
426.58	444.70
426.77	470.45
426.96	381.51
427.15	318.31
427.33	428.32
427.52	425.98
427.71	407.25
427.90	416.62
428.09	362.78
428.28	437.68
428.46	414.27
428.65	454.06
428.84	404.91
429.03	465.77
429.22	395.55
429.40	402.57
429.59	381.51
429.78	400.23
429.97	430.66
430.16	351.08
430.34	421.30
430.53	409.59
430.72	369.80
430.91	409.59
431.10	421.30
431.28	416.62
431.47	437.68
431.66	390.87
431.85	458.74
432.03	402.57
432.22	416.62
432.41	372.15
432.60	404.91
432.79	353.42
432.97	425.98
433.16	425.98
433.35	444.70
433.54	402.57
433.72	428.32
433.91	425.98
434.10	451.72
434.28	421.30
434.47	400.23
434.66	475.13
434.85	414.27
435.03	407.25
435.22	461.09
435.41	498.53
435.59	451.72
435.78	386.19
435.97	397.89
436.16	472.79
436.34	372.15
436.53	456.40
436.72	390.87
436.90	404.91
437.09	386.19
437.28	421.30
437.46	416.62
437.65	440.02
437.84	355.76
438.02	437.68
438.21	472.79
438.40	414.27
438.58	386.19
438.77	440.02
438.96	376.83
439.14	402.57
439.33	482.15
439.52	407.25
439.70	423.64
439.89	379.17
440.08	451.72
440.26	388.53
440.45	458.74
440.63	390.87
440.82	409.59
441.01	442.36
441.19	425.98
441.38	409.59
441.57	407.25
441.75	454.06
441.94	425.98
442.12	425.98
442.31	341.72
442.50	341.72
442.68	395.55
442.87	397.89
443.05	369.80
443.24	428.32
443.43	416.62
443.61	468.11
443.80	470.45
443.98	397.89
444.17	461.09
444.35	425.98
444.54	440.02
444.73	395.55
444.91	444.70
445.10	468.11
445.28	362.78
445.47	353.42
445.65	379.17
445.84	425.98
446.02	451.72
446.21	348.74
446.39	386.19
446.58	472.79
446.77	421.30
446.95	395.55
447.14	409.59
447.32	407.25
447.51	418.96
447.69	442.36
447.88	332.36
448.06	489.17
448.25	386.19
448.43	386.19
448.62	451.72
448.80	449.38
448.99	400.23
449.17	381.51
449.36	381.51
449.54	388.53
449.73	390.87
449.91	447.04
450.10	433.00
450.28	461.09
450.46	374.49
450.65	416.62
450.83	454.06
451.02	416.62
451.20	451.72
451.39	386.19
451.57	365.12
451.76	433.00
451.94	322.99
452.13	433.00
452.31	393.21
452.49	411.93
452.68	451.72
452.86	351.08
453.05	475.13
453.23	397.89
453.42	360.44
453.60	418.96
453.78	395.55
453.97	355.76
454.15	491.51
454.34	386.19
454.52	358.10
454.70	449.38
454.89	388.53
455.07	430.66
455.26	454.06
455.44	409.59
455.62	353.42
455.81	374.49
455.99	402.57
456.17	463.43
456.36	355.76
456.54	463.43
456.73	374.49
456.91	475.13
457.09	409.59
457.28	428.32
457.46	421.30
457.64	428.32
457.83	451.72
458.01	447.04
458.19	428.32
458.38	397.89
458.56	404.91
458.74	433.00
458.93	458.74
459.11	421.30
459.29	416.62
459.48	435.34
459.66	461.09
459.84	442.36
460.03	433.00
460.21	423.64
460.39	369.80
460.57	411.93
460.76	475.13
460.94	383.85
461.12	428.32
461.31	404.91
461.49	400.23
461.67	402.57
461.85	477.47
462.04	383.85
462.22	739.61
462.40	425.98
462.59	449.38
462.77	454.06
462.95	372.15
463.13	444.70
463.32	383.85
463.50	500.87
463.68	418.96
463.86	386.19
464.05	421.30
464.23	395.55
464.41	311.29
464.59	437.68
464.78	416.62
464.96	390.87
465.14	404.91
465.32	437.68
465.50	482.15
465.69	402.57
465.87	409.59
466.05	423.64
466.23	372.15
466.41	472.79
466.60	425.98
466.78	369.80
466.96	475.13
467.14	423.64
467.32	411.93
467.51	418.96
467.69	430.66
467.87	430.66
468.05	428.32
468.23	430.66
468.41	421.30
468.60	400.23
468.78	365.12
468.96	458.74
469.14	437.68
469.32	428.32
469.50	383.85
469.69	381.51
469.87	421.30
470.05	418.96
470.23	444.70
470.41	411.93
470.59	402.57
470.77	374.49
470.95	407.25
471.14	407.25
471.32	400.23
471.50	404.91
471.68	416.62
471.86	437.68
472.04	437.68
472.22	425.98
472.40	388.53
472.58	404.91
472.77	341.72
472.95	456.40
473.13	365.12
473.31	367.46
473.49	407.25
473.67	421.30
473.85	428.32
474.03	484.49
474.21	397.89
474.39	411.93
474.57	416.62
474.75	369.80
474.93	367.46
475.12	425.98
475.30	369.80
475.48	433.00
475.66	451.72
475.84	402.57
476.02	390.87
476.20	435.34
476.38	376.83
476.56	484.49
476.74	395.55
476.92	304.27
477.10	433.00
477.28	397.89
477.46	416.62
477.64	409.59
477.82	414.27
478.00	374.49
478.18	468.11
478.36	430.66
478.54	402.57
478.72	341.72
478.90	369.80
479.08	332.36
479.26	330.02
479.44	437.68
479.62	428.32
479.80	393.21
479.98	358.10
480.16	383.85
480.34	512.58
480.52	428.32
480.70	390.87
480.88	322.99
481.06	386.19
481.24	472.79
481.41	416.62
481.59	416.62
481.77	411.93
481.95	407.25
482.13	423.64
482.31	477.47
482.49	379.17
482.67	458.74
482.85	379.17
483.03	451.72
483.21	449.38
483.39	465.77
483.57	479.81
483.74	430.66
483.92	409.59
484.10	409.59
484.28	421.30
484.46	463.43
484.64	472.79
484.82	521.94
485.00	397.89
485.18	416.62
485.35	416.62
485.53	404.91
485.71	449.38
485.89	402.57
486.07	442.36
486.25	418.96
486.43	428.32
486.61	430.66
486.78	402.57
486.96	489.17
487.14	376.83
487.32	463.43
487.50	365.12
487.68	402.57
487.85	421.30
488.03	393.21
488.21	477.47
488.39	386.19
488.57	388.53
488.75	348.74
488.92	526.62
489.10	360.44
489.28	421.30
489.46	376.83
489.64	381.51
489.81	414.27
489.99	395.55
490.17	393.21
490.35	421.30
490.53	409.59
490.70	402.57
490.88	430.66
491.06	437.68
491.24	416.62
491.41	463.43
491.59	418.96
491.77	454.06
491.95	454.06
492.13	400.23
492.30	369.80
492.48	407.25
492.66	468.11
492.84	437.68
493.01	400.23
493.19	383.85
493.37	411.93
493.54	425.98
493.72	423.64
493.90	418.96
494.08	388.53
494.25	379.17
494.43	404.91
494.61	386.19
494.79	400.23
494.96	482.15
495.14	440.02
495.32	353.42
495.49	397.89
495.67	388.53
495.85	360.44
496.02	435.34
496.20	444.70
496.38	482.15
496.55	454.06
496.73	416.62
496.91	379.17
497.09	484.49
497.26	353.42
497.44	435.34
497.62	400.23
497.79	435.34
497.97	421.30
498.14	423.64
498.32	437.68
498.50	451.72
498.67	383.85
498.85	454.06
499.03	442.36
499.20	440.02
499.38	339.38
499.56	428.32
499.73	493.85
499.91	397.89
500.08	440.02
500.26	376.83
500.44	447.04
500.61	428.32
500.79	381.51
500.97	360.44
501.14	465.77
501.32	379.17
501.49	440.02
501.67	400.23
501.84	360.44
502.02	325.33
502.20	491.51
502.37	418.96
502.55	496.19
502.72	393.21
502.90	472.79
503.07	383.85
503.25	414.27
503.43	496.19
503.60	337.04
503.78	400.23
503.95	402.57
504.13	423.64
504.30	383.85
504.48	369.80
504.65	390.87
504.83	449.38
505.01	390.87
505.18	404.91
505.36	374.49
505.53	440.02
505.71	386.19
505.88	397.89
506.06	358.10
506.23	400.23
506.41	372.15
506.58	470.45
506.76	433.00
506.93	463.43
507.11	404.91
507.28	407.25
507.46	472.79
507.63	456.40
507.81	390.87
507.98	376.83
508.16	402.57
508.33	362.78
508.50	411.93
508.68	444.70
508.85	397.89
509.03	411.93
509.20	430.66
509.38	449.38
509.55	397.89
509.73	411.93
509.90	454.06
510.08	433.00
510.25	472.79
510.42	409.59
510.60	456.40
510.77	425.98
510.95	395.55
511.12	351.08
511.30	372.15
511.47	449.38
511.64	496.19
511.82	362.78
511.99	367.46
512.17	367.46
512.34	454.06
512.51	430.66
512.69	430.66
512.86	477.47
513.04	421.30
513.21	358.10
513.38	449.38
513.56	353.42
513.73	383.85
513.90	404.91
514.08	437.68
514.25	416.62
514.43	353.42
514.60	367.46
514.77	351.08
514.95	376.83
515.12	440.02
515.29	456.40
515.47	374.49
515.64	428.32
515.81	376.83
515.99	484.49
516.16	423.64
516.33	486.83
516.51	484.49
516.68	383.85
516.85	437.68
517.03	423.64
517.20	423.64
517.37	395.55
517.54	430.66
517.72	423.64
517.89	430.66
518.06	414.27
518.24	468.11
518.41	468.11
518.58	379.17
518.75	325.33
518.93	430.66
519.10	409.59
519.27	407.25
519.45	407.25
519.62	383.85
519.79	339.38
519.96	325.33
520.14	404.91
520.31	341.72
520.48	449.38
520.65	348.74
520.83	411.93
521.00	390.87
521.17	346.40
521.34	358.10
521.52	390.87
521.69	449.38
521.86	383.85
522.03	379.17
522.20	423.64
522.38	404.91
522.55	465.77
522.72	449.38
522.89	367.46
523.07	463.43
523.24	435.34
523.41	414.27
523.58	383.85
523.75	416.62
523.92	468.11
524.10	421.30
524.27	411.93
524.44	388.53
524.61	444.70
524.78	416.62
524.96	437.68
525.13	383.85
525.30	444.70
525.47	447.04
525.64	430.66
525.81	428.32
525.98	442.36
526.16	421.30
526.33	449.38
526.50	451.72
526.67	411.93
526.84	409.59
527.01	444.70
527.18	444.70
527.36	337.04
527.53	372.15
527.70	409.59
527.87	423.64
528.04	449.38
528.21	425.98
528.38	454.06
528.55	482.15
528.72	472.79
528.89	465.77
529.07	451.72
529.24	468.11
529.41	465.77
529.58	365.12
529.75	372.15
529.92	416.62
530.09	425.98
530.26	454.06
530.43	348.74
530.60	433.00
530.77	428.32
530.94	482.15
531.11	444.70
531.28	372.15
531.46	376.83
531.63	449.38
531.80	404.91
531.97	456.40
532.14	433.00
532.31	486.83
532.48	435.34
532.65	414.27
532.82	369.80
532.99	475.13
533.16	393.21
533.33	376.83
533.50	418.96
533.67	395.55
533.84	390.87
534.01	407.25
534.18	344.06
534.35	409.59
534.52	472.79
534.69	470.45
534.86	456.40
535.03	430.66
535.20	393.21
535.37	461.09
535.54	458.74
535.71	425.98
535.88	428.32
536.05	414.27
536.22	461.09
536.38	397.89
536.55	381.51
536.72	498.53
536.89	374.49
537.06	379.17
537.23	362.78
537.40	437.68
537.57	465.77
537.74	447.04
537.91	472.79
538.08	393.21
538.25	409.59
538.42	440.02
538.59	440.02
538.75	416.62
538.92	496.19
539.09	444.70
539.26	379.17
539.43	435.34
539.60	376.83
539.77	435.34
539.94	482.15
540.11	362.78
540.28	379.17
540.44	451.72
540.61	510.24
540.78	355.76
540.95	372.15
541.12	418.96
541.29	461.09
541.46	400.23
541.62	510.24
541.79	423.64
541.96	472.79
542.13	334.70
542.30	451.72
542.47	327.68
542.63	376.83
542.80	440.02
542.97	379.17
543.14	505.56
543.31	489.17
543.48	470.45
543.64	454.06
543.81	428.32
543.98	425.98
544.15	416.62
544.32	425.98
544.48	390.87
544.65	381.51
544.82	425.98
544.99	346.40
545.16	447.04
545.32	449.38
545.49	498.53
545.66	400.23
545.83	372.15
546.00	386.19
546.16	454.06
546.33	400.23
546.50	414.27
546.67	440.02
546.83	454.06
547.00	442.36
547.17	390.87
547.34	430.66
547.50	416.62
547.67	404.91
547.84	428.32
548.00	437.68
548.17	348.74
548.34	395.55
548.51	456.40
548.67	444.70
548.84	482.15
549.01	440.02
549.18	447.04
549.34	400.23
549.51	428.32
549.68	433.00
549.84	383.85
550.01	409.59
550.18	468.11
550.34	503.22
550.51	477.47
550.68	440.02
550.84	416.62
551.01	355.76
551.18	379.17
551.34	435.34
551.51	409.59
551.68	367.46
551.84	416.62
552.01	411.93
552.18	372.15
552.34	402.57
552.51	428.32
552.68	447.04
552.84	381.51
553.01	402.57
553.18	451.72
553.34	372.15
553.51	374.49
553.67	512.58
553.84	440.02
554.01	482.15
554.17	444.70
554.34	308.95
554.51	376.83
554.67	381.51
554.84	407.25
555.00	435.34
555.17	411.93
555.33	491.51
555.50	383.85
555.67	411.93
555.83	482.15
556.00	428.32
556.16	589.82
556.33	435.34
556.50	407.25
556.66	416.62
556.83	397.89
556.99	418.96
557.16	386.19
557.32	395.55
557.49	458.74
557.65	416.62
557.82	418.96
557.98	414.27
558.15	449.38
558.32	416.62
558.48	379.17
558.65	383.85
558.81	400.23
558.98	407.25
559.14	458.74
559.31	503.22
559.47	477.47
559.64	425.98
559.80	418.96
559.97	414.27
560.13	491.51
560.30	440.02
560.46	344.06
560.63	472.79
560.79	428.32
560.96	409.59
561.12	428.32
561.29	435.34
561.45	440.02
561.61	411.93
561.78	482.15
561.94	411.93
562.11	386.19
562.27	444.70
562.44	404.91
562.60	390.87
562.77	526.62
562.93	503.22
563.10	416.62
563.26	456.40
563.42	489.17
563.59	421.30
563.75	411.93
563.92	461.09
564.08	390.87
564.24	423.64
564.41	411.93
564.57	416.62
564.74	362.78
564.90	425.98
565.07	425.98
565.23	451.72
565.39	365.12
565.56	456.40
565.72	379.17
565.88	388.53
566.05	454.06
566.21	414.27
566.38	428.32
566.54	418.96
566.70	465.77
566.87	440.02
567.03	437.68
567.19	440.02
567.36	493.85
567.52	461.09
567.68	428.32
567.85	491.51
568.01	465.77
568.17	372.15
568.34	388.53
568.50	475.13
568.66	362.78
568.83	489.17
568.99	442.36
569.15	372.15
569.32	437.68
569.48	409.59
569.64	351.08
569.81	409.59
569.97	414.27
570.13	404.91
570.30	433.00
570.46	376.83
570.62	299.59
570.78	472.79
570.95	369.80
571.11	414.27
571.27	451.72
571.43	397.89
571.60	388.53
571.76	430.66
571.92	304.27
572.09	463.43
572.25	390.87
572.41	404.91
572.57	437.68
572.74	435.34
572.90	507.90
573.06	404.91
573.22	404.91
573.38	414.27
573.55	449.38
573.71	479.81
573.87	442.36
574.03	351.08
574.20	465.77
574.36	428.32
574.52	440.02
574.68	423.64
574.84	374.49
575.01	393.21
575.17	479.81
575.33	461.09
575.49	507.90
575.65	451.72
575.82	416.62
575.98	472.79
576.14	435.34
576.30	470.45
576.46	395.55
576.62	418.96
576.79	421.30
576.95	461.09
577.11	383.85
577.27	447.04
577.43	418.96
577.59	496.19
577.75	463.43
577.92	407.25
578.08	404.91
578.24	430.66
578.40	414.27
578.56	414.27
578.72	409.59
578.88	404.91
579.04	411.93
579.21	440.02
579.37	454.06
579.53	365.12
579.69	433.00
579.85	374.49
580.01	390.87
580.17	423.64
580.33	390.87
580.49	442.36
580.65	388.53
580.82	372.15
580.98	409.59
581.14	498.53
581.30	484.49
581.46	428.32
581.62	451.72
581.78	430.66
581.94	397.89
582.10	442.36
582.26	388.53
582.42	355.76
582.58	374.49
582.74	468.11
582.90	437.68
583.06	367.46
583.22	360.44
583.38	421.30
583.54	414.27
583.70	430.66
583.86	472.79
584.02	440.02
584.18	442.36
584.34	409.59
584.50	425.98
584.66	425.98
584.82	379.17
584.98	421.30
585.14	451.72
585.30	463.43
585.46	442.36
585.62	416.62
585.78	437.68
585.94	379.17
586.10	411.93
586.26	444.70
586.42	404.91
586.58	449.38
586.74	409.59
586.90	430.66
587.06	463.43
587.22	383.85
587.38	383.85
587.54	456.40
587.70	367.46
587.86	332.36
588.02	409.59
588.18	449.38
588.34	442.36
588.49	421.30
588.65	425.98
588.81	430.66
588.97	440.02
589.13	414.27
589.29	468.11
589.45	528.96
589.61	425.98
589.77	414.27
589.93	374.49
590.08	397.89
590.24	425.98
590.40	404.91
590.56	458.74
590.72	402.57
590.88	428.32
591.04	407.25
591.20	433.00
591.35	512.58
591.51	449.38
591.67	409.59
591.83	425.98
591.99	430.66
592.15	430.66
592.31	397.89
592.46	421.30
592.62	360.44
592.78	409.59
592.94	372.15
593.10	416.62
593.26	400.23
593.41	451.72
593.57	503.22
593.73	372.15
593.89	444.70
594.05	433.00
594.20	390.87
594.36	496.19
594.52	383.85
594.68	381.51
594.84	430.66
594.99	486.83
595.15	421.30
595.31	409.59
595.47	423.64
595.62	381.51
595.78	430.66
595.94	414.27
596.10	400.23
596.25	395.55
596.41	482.15
596.57	402.57
596.73	397.89
596.88	423.64
597.04	358.10
597.20	404.91
597.36	416.62
597.51	404.91
597.67	423.64
597.83	418.96
597.99	402.57
598.14	404.91
598.30	510.24
598.46	465.77
598.61	454.06
598.77	465.77
598.93	421.30
599.09	425.98
599.24	388.53
599.40	461.09
599.56	425.98
599.71	475.13
599.87	407.25
600.03	435.34
600.18	332.36
600.34	503.22
600.50	440.02
600.65	482.15
600.81	353.42
600.97	372.15
601.12	372.15
601.28	484.49
601.44	418.96
601.59	400.23
601.75	379.17
601.91	367.46
602.06	393.21
602.22	435.34
602.37	456.40
602.53	423.64
602.69	430.66
602.84	390.87
603.00	421.30
603.16	423.64
603.31	472.79
603.47	468.11
603.62	390.87
603.78	458.74
603.94	430.66
604.09	388.53
604.25	337.04
604.40	470.45
604.56	458.74
604.71	400.23
604.87	395.55
605.03	416.62
605.18	421.30
605.34	444.70
605.49	390.87
605.65	393.21
605.80	372.15
605.96	409.59
606.12	416.62
606.27	454.06
606.43	402.57
606.58	409.59
606.74	425.98
606.89	418.96
607.05	402.57
607.20	386.19
607.36	449.38
607.51	395.55
607.67	421.30
607.82	388.53
607.98	435.34
608.13	484.49
608.29	451.72
608.44	456.40
608.60	449.38
608.75	393.21
608.91	423.64
609.06	411.93
609.22	395.55
609.37	500.87
609.53	442.36
609.68	447.04
609.84	383.85
609.99	355.76
610.15	423.64
