SpectraSuite Data File
++++++++++++++++++++++++++++++++++++
Date: Fri Oct 25 12:10:35 EDT 2013
User: price-jones
Dark Spectrum Present: No
Reference Spectrum Present: No
Number of Sampled Component Spectra: 1
Spectrometers: USB2+H05261
Integration Time (usec): 100000 (USB2+H05261)
Spectra Averaged: 1 (USB2+H05261)
Boxcar Smoothing: 0 (USB2+H05261)
Correct for Electrical Dark: No (USB2+H05261)
Strobe/Lamp Enabled: No (USB2+H05261)
Correct for Detector Non-linearity: No (USB2+H05261)
Correct for Stray Light: No (USB2+H05261)
Number of Pixels in Processed Spectrum: 2048
>>>>>Begin Processed Spectral Data<<<<<
365.73	386.19
365.92	386.19
366.12	386.19
366.32	241.08
366.52	180.22
366.72	212.99
366.91	194.26
367.11	266.82
367.31	217.67
367.51	273.84
367.70	271.50
367.90	257.46
368.10	215.33
368.30	231.71
368.49	187.24
368.69	266.82
368.89	313.63
369.09	320.65
369.28	276.18
369.48	299.59
369.68	285.55
369.87	318.31
370.07	337.04
370.27	292.57
370.47	320.65
370.66	285.55
370.86	369.80
371.06	327.68
371.25	397.89
371.45	306.61
371.65	369.80
371.84	376.83
372.04	407.25
372.24	397.89
372.44	397.89
372.63	348.74
372.83	407.25
373.03	390.87
373.22	351.08
373.42	388.53
373.62	435.34
373.81	477.47
374.01	400.23
374.21	376.83
374.40	393.21
374.60	447.04
374.79	470.45
374.99	390.87
375.19	447.04
375.38	440.02
375.58	461.09
375.78	411.93
375.97	477.47
376.17	447.04
376.37	390.87
376.56	435.34
376.76	390.87
376.95	367.46
377.15	430.66
377.35	409.59
377.54	409.59
377.74	442.36
377.93	430.66
378.13	435.34
378.33	423.64
378.52	402.57
378.72	372.15
378.91	362.78
379.11	433.00
379.31	482.15
379.50	404.91
379.70	430.66
379.89	486.83
380.09	433.00
380.28	353.42
380.48	365.12
380.68	376.83
380.87	416.62
381.07	374.49
381.26	369.80
381.46	407.25
381.65	369.80
381.85	353.42
382.04	409.59
382.24	437.68
382.43	395.55
382.63	458.74
382.83	444.70
383.02	437.68
383.22	444.70
383.41	465.77
383.61	388.53
383.80	362.78
384.00	383.85
384.19	435.34
384.39	402.57
384.58	395.55
384.78	496.19
384.97	400.23
385.17	407.25
385.36	428.32
385.56	358.10
385.75	461.09
385.95	411.93
386.14	390.87
386.34	402.57
386.53	351.08
386.72	388.53
386.92	337.04
387.11	358.10
387.31	402.57
387.50	430.66
387.70	418.96
387.89	402.57
388.09	435.34
388.28	383.85
388.48	325.33
388.67	433.00
388.86	425.98
389.06	433.00
389.25	482.15
389.45	372.15
389.64	400.23
389.84	330.02
390.03	353.42
390.22	379.17
390.42	404.91
390.61	376.83
390.81	451.72
391.00	433.00
391.19	369.80
391.39	477.47
391.58	496.19
391.78	404.91
391.97	400.23
392.16	339.38
392.36	402.57
392.55	458.74
392.75	449.38
392.94	379.17
393.13	367.46
393.33	395.55
393.52	425.98
393.71	456.40
393.91	430.66
394.10	376.83
394.29	423.64
394.49	407.25
394.68	423.64
394.88	395.55
395.07	393.21
395.26	383.85
395.46	435.34
395.65	458.74
395.84	393.21
396.04	503.22
396.23	418.96
396.42	437.68
396.62	454.06
396.81	416.62
397.00	379.17
397.19	440.02
397.39	489.17
397.58	351.08
397.77	369.80
397.97	379.17
398.16	355.76
398.35	383.85
398.55	402.57
398.74	458.74
398.93	409.59
399.12	414.27
399.32	433.00
399.51	402.57
399.70	351.08
399.90	416.62
400.09	397.89
400.28	322.99
400.47	362.78
400.67	374.49
400.86	416.62
401.05	465.77
401.24	454.06
401.44	435.34
401.63	411.93
401.82	369.80
402.01	358.10
402.21	402.57
402.40	447.04
402.59	313.63
402.78	372.15
402.97	437.68
403.17	437.68
403.36	414.27
403.55	374.49
403.74	433.00
403.93	411.93
404.13	400.23
404.32	379.17
404.51	397.89
404.70	428.32
404.89	383.85
405.09	425.98
405.28	400.23
405.47	407.25
405.66	409.59
405.85	447.04
406.05	425.98
406.24	360.44
406.43	416.62
406.62	400.23
406.81	449.38
407.00	393.21
407.20	386.19
407.39	447.04
407.58	425.98
407.77	379.17
407.96	411.93
408.15	372.15
408.34	397.89
408.54	416.62
408.73	407.25
408.92	404.91
409.11	442.36
409.30	423.64
409.49	383.85
409.68	447.04
409.87	390.87
410.07	386.19
410.26	393.21
410.45	433.00
410.64	404.91
410.83	435.34
411.02	395.55
411.21	393.21
411.40	348.74
411.59	397.89
411.78	421.30
411.98	402.57
412.17	404.91
412.36	437.68
412.55	423.64
412.74	397.89
412.93	435.34
413.12	367.46
413.31	369.80
413.50	358.10
413.69	430.66
413.88	465.77
414.07	353.42
414.26	456.40
414.45	388.53
414.64	390.87
414.83	404.91
415.02	440.02
415.22	428.32
415.41	423.64
415.60	472.79
415.79	411.93
415.98	423.64
416.17	491.51
416.36	355.76
416.55	383.85
416.74	407.25
416.93	388.53
417.12	376.83
417.31	404.91
417.50	425.98
417.69	437.68
417.88	440.02
418.07	388.53
418.26	437.68
418.45	421.30
418.64	388.53
418.83	327.68
419.02	390.87
419.21	379.17
419.39	411.93
419.58	440.02
419.77	395.55
419.96	409.59
420.15	390.87
420.34	500.87
420.53	397.89
420.72	404.91
420.91	388.53
421.10	379.17
421.29	465.77
421.48	411.93
421.67	482.15
421.86	393.21
422.05	447.04
422.24	486.83
422.43	416.62
422.61	442.36
422.80	353.42
422.99	421.30
423.18	430.66
423.37	435.34
423.56	468.11
423.75	414.27
423.94	397.89
424.13	468.11
424.32	327.68
424.50	444.70
424.69	407.25
424.88	400.23
425.07	465.77
425.26	388.53
425.45	414.27
425.64	414.27
425.83	468.11
426.01	479.81
426.20	390.87
426.39	388.53
426.58	414.27
426.77	442.36
426.96	400.23
427.15	407.25
427.33	400.23
427.52	423.64
427.71	447.04
427.90	407.25
428.09	407.25
428.28	355.76
428.46	433.00
428.65	388.53
428.84	411.93
429.03	435.34
429.22	386.19
429.40	383.85
429.59	351.08
429.78	458.74
429.97	376.83
430.16	372.15
430.34	374.49
430.53	404.91
430.72	386.19
430.91	386.19
431.10	447.04
431.28	435.34
431.47	414.27
431.66	423.64
431.85	442.36
432.03	365.12
432.22	461.09
432.41	437.68
432.60	423.64
432.79	411.93
432.97	444.70
433.16	437.68
433.35	388.53
433.54	358.10
433.72	421.30
433.91	367.46
434.10	355.76
434.28	458.74
434.47	449.38
434.66	425.98
434.85	409.59
435.03	397.89
435.22	463.43
435.41	414.27
435.59	397.89
435.78	442.36
435.97	440.02
436.16	435.34
436.34	440.02
436.53	360.44
436.72	449.38
436.90	484.49
437.09	463.43
437.28	344.06
437.46	402.57
437.65	491.51
437.84	402.57
438.02	395.55
438.21	369.80
438.40	315.97
438.58	423.64
438.77	425.98
438.96	318.31
439.14	493.85
439.33	414.27
439.52	383.85
439.70	414.27
439.89	454.06
440.08	402.57
440.26	374.49
440.45	440.02
440.63	437.68
440.82	365.12
441.01	397.89
441.19	374.49
441.38	411.93
441.57	395.55
441.75	416.62
441.94	414.27
442.12	433.00
442.31	395.55
442.50	351.08
442.68	341.72
442.87	386.19
443.05	428.32
443.24	437.68
443.43	400.23
443.61	416.62
443.80	449.38
443.98	423.64
444.17	386.19
444.35	374.49
444.54	435.34
444.73	454.06
444.91	346.40
445.10	383.85
445.28	344.06
445.47	461.09
445.65	421.30
445.84	351.08
446.02	390.87
446.21	418.96
446.39	425.98
446.58	418.96
446.77	390.87
446.95	465.77
447.14	421.30
447.32	447.04
447.51	386.19
447.69	409.59
447.88	430.66
448.06	395.55
448.25	386.19
448.43	383.85
448.62	393.21
448.80	400.23
448.99	414.27
449.17	447.04
449.36	383.85
449.54	411.93
449.73	407.25
449.91	374.49
450.10	409.59
450.28	444.70
450.46	472.79
450.65	418.96
450.83	456.40
451.02	409.59
451.20	414.27
451.39	418.96
451.57	404.91
451.76	461.09
451.94	435.34
452.13	463.43
452.31	463.43
452.49	358.10
452.68	367.46
452.86	395.55
453.05	435.34
453.23	395.55
453.42	381.51
453.60	355.76
453.78	393.21
453.97	386.19
454.15	355.76
454.34	423.64
454.52	353.42
454.70	475.13
454.89	437.68
455.07	449.38
455.26	496.19
455.44	433.00
455.62	458.74
455.81	470.45
455.99	451.72
456.17	414.27
456.36	428.32
456.54	376.83
456.73	425.98
456.91	388.53
457.09	461.09
457.28	486.83
457.46	404.91
457.64	372.15
457.83	437.68
458.01	365.12
458.19	416.62
458.38	332.36
458.56	454.06
458.74	381.51
458.93	397.89
459.11	367.46
459.29	362.78
459.48	402.57
459.66	458.74
459.84	461.09
460.03	498.53
460.21	430.66
460.39	409.59
460.57	430.66
460.76	447.04
460.94	353.42
461.12	454.06
461.31	383.85
461.49	367.46
461.67	315.97
461.85	400.23
462.04	465.77
462.22	812.17
462.40	423.64
462.59	388.53
462.77	411.93
462.95	346.40
463.13	402.57
463.32	468.11
463.50	416.62
463.68	409.59
463.86	388.53
464.05	404.91
464.23	454.06
464.41	428.32
464.59	397.89
464.78	423.64
464.96	395.55
465.14	433.00
465.32	374.49
465.50	407.25
465.69	477.47
465.87	353.42
466.05	423.64
466.23	369.80
466.41	407.25
466.60	451.72
466.78	421.30
466.96	430.66
467.14	393.21
467.32	447.04
467.51	402.57
467.69	376.83
467.87	482.15
468.05	510.24
468.23	454.06
468.41	461.09
468.60	386.19
468.78	510.24
468.96	475.13
469.14	299.59
469.32	381.51
469.50	465.77
469.69	458.74
469.87	409.59
470.05	411.93
470.23	425.98
470.41	407.25
470.59	437.68
470.77	433.00
470.95	456.40
471.14	470.45
471.32	402.57
471.50	433.00
471.68	430.66
471.86	383.85
472.04	437.68
472.22	414.27
472.40	437.68
472.58	416.62
472.77	449.38
472.95	400.23
473.13	505.56
473.31	433.00
473.49	395.55
473.67	365.12
473.85	465.77
474.03	430.66
474.21	428.32
474.39	435.34
474.57	454.06
474.75	416.62
474.93	402.57
475.12	376.83
475.30	425.98
475.48	402.57
475.66	425.98
475.84	414.27
476.02	374.49
476.20	402.57
476.38	379.17
476.56	423.64
476.74	414.27
476.92	400.23
477.10	470.45
477.28	372.15
477.46	449.38
477.64	416.62
477.82	425.98
478.00	423.64
478.18	449.38
478.36	416.62
478.54	449.38
478.72	351.08
478.90	395.55
479.08	437.68
479.26	416.62
479.44	393.21
479.62	411.93
479.80	465.77
479.98	404.91
480.16	379.17
480.34	393.21
480.52	451.72
480.70	433.00
480.88	397.89
481.06	411.93
481.24	348.74
481.41	386.19
481.59	423.64
481.77	353.42
481.95	465.77
482.13	447.04
482.31	355.76
482.49	458.74
482.67	435.34
482.85	454.06
483.03	388.53
483.21	463.43
483.39	425.98
483.57	489.17
483.74	465.77
483.92	390.87
484.10	411.93
484.28	416.62
484.46	479.81
484.64	372.15
484.82	423.64
485.00	433.00
485.18	425.98
485.35	428.32
485.53	393.21
485.71	440.02
485.89	379.17
486.07	365.12
486.25	503.22
486.43	468.11
486.61	444.70
486.78	379.17
486.96	351.08
487.14	454.06
487.32	437.68
487.50	425.98
487.68	428.32
487.85	407.25
488.03	447.04
488.21	461.09
488.39	374.49
488.57	414.27
488.75	355.76
488.92	449.38
489.10	381.51
489.28	507.90
489.46	360.44
489.64	409.59
489.81	437.68
489.99	376.83
490.17	362.78
490.35	456.40
490.53	430.66
490.70	442.36
490.88	390.87
491.06	355.76
491.24	468.11
491.41	416.62
491.59	447.04
491.77	360.44
491.95	390.87
492.13	423.64
492.30	423.64
492.48	393.21
492.66	425.98
492.84	400.23
493.01	435.34
493.19	458.74
493.37	461.09
493.54	402.57
493.72	444.70
493.90	451.72
494.08	468.11
494.25	456.40
494.43	423.64
494.61	425.98
494.79	444.70
494.96	430.66
495.14	411.93
495.32	411.93
495.49	372.15
495.67	339.38
495.85	407.25
496.02	421.30
496.20	418.96
496.38	369.80
496.55	395.55
496.73	383.85
496.91	402.57
497.09	428.32
497.26	372.15
497.44	383.85
497.62	418.96
497.79	451.72
497.97	411.93
498.14	468.11
498.32	418.96
498.50	482.15
498.67	442.36
498.85	435.34
499.03	376.83
499.20	435.34
499.38	381.51
499.56	393.21
499.73	442.36
499.91	430.66
500.08	393.21
500.26	449.38
500.44	416.62
500.61	437.68
500.79	402.57
500.97	435.34
501.14	454.06
501.32	355.76
501.49	376.83
501.67	390.87
501.84	430.66
502.02	376.83
502.20	416.62
502.37	442.36
502.55	416.62
502.72	442.36
502.90	463.43
503.07	428.32
503.25	409.59
503.43	430.66
503.60	449.38
503.78	458.74
503.95	468.11
504.13	435.34
504.30	393.21
504.48	425.98
504.65	386.19
504.83	409.59
505.01	409.59
505.18	409.59
505.36	367.46
505.53	521.94
505.71	428.32
505.88	503.22
506.06	418.96
506.23	388.53
506.41	430.66
506.58	423.64
506.76	381.51
506.93	449.38
507.11	440.02
507.28	409.59
507.46	376.83
507.63	437.68
507.81	341.72
507.98	388.53
508.16	383.85
508.33	430.66
508.50	409.59
508.68	372.15
508.85	365.12
509.03	435.34
509.20	379.17
509.38	395.55
509.55	437.68
509.73	440.02
509.90	463.43
510.08	437.68
510.25	444.70
510.42	414.27
510.60	379.17
510.77	486.83
510.95	425.98
511.12	414.27
511.30	372.15
511.47	395.55
511.64	421.30
511.82	418.96
511.99	463.43
512.17	425.98
512.34	414.27
512.51	428.32
512.69	409.59
512.86	430.66
513.04	341.72
513.21	409.59
513.38	440.02
513.56	355.76
513.73	365.12
513.90	449.38
514.08	454.06
514.25	379.17
514.43	444.70
514.60	407.25
514.77	411.93
514.95	435.34
515.12	449.38
515.29	388.53
515.47	390.87
515.64	433.00
515.81	447.04
515.99	400.23
516.16	475.13
516.33	425.98
516.51	411.93
516.68	435.34
516.85	421.30
517.03	423.64
517.20	425.98
517.37	447.04
517.54	510.24
517.72	367.46
517.89	400.23
518.06	362.78
518.24	475.13
518.41	440.02
518.58	484.49
518.75	421.30
518.93	393.21
519.10	402.57
519.27	376.83
519.45	365.12
519.62	449.38
519.79	442.36
519.96	365.12
520.14	435.34
520.31	400.23
520.48	407.25
520.65	409.59
520.83	428.32
521.00	430.66
521.17	397.89
521.34	454.06
521.52	442.36
521.69	407.25
521.86	407.25
522.03	400.23
522.20	486.83
522.38	449.38
522.55	512.58
522.72	437.68
522.89	414.27
523.07	547.69
523.24	500.87
523.41	489.17
523.58	362.78
523.75	428.32
523.92	367.46
524.10	372.15
524.27	376.83
524.44	409.59
524.61	442.36
524.78	447.04
524.96	442.36
525.13	458.74
525.30	423.64
525.47	416.62
525.64	388.53
525.81	355.76
525.98	437.68
526.16	449.38
526.33	409.59
526.50	449.38
526.67	468.11
526.84	365.12
527.01	388.53
527.18	407.25
527.36	395.55
527.53	374.49
527.70	475.13
527.87	395.55
528.04	397.89
528.21	383.85
528.38	400.23
528.55	510.24
528.72	433.00
528.89	507.90
529.07	376.83
529.24	397.89
529.41	479.81
529.58	418.96
529.75	414.27
529.92	374.49
530.09	442.36
530.26	418.96
530.43	369.80
530.60	416.62
530.77	369.80
530.94	418.96
531.11	472.79
531.28	339.38
531.46	367.46
531.63	369.80
531.80	430.66
531.97	367.46
532.14	437.68
532.31	372.15
532.48	416.62
532.65	461.09
532.82	393.21
532.99	428.32
533.16	402.57
533.33	425.98
533.50	449.38
533.67	383.85
533.84	435.34
534.01	386.19
534.18	437.68
534.35	414.27
534.52	428.32
534.69	411.93
534.86	390.87
535.03	381.51
535.20	447.04
535.37	402.57
535.54	411.93
535.71	416.62
535.88	381.51
536.05	346.40
536.22	395.55
536.38	482.15
536.55	428.32
536.72	456.40
536.89	337.04
537.06	353.42
537.23	383.85
537.40	418.96
537.57	400.23
537.74	428.32
537.91	470.45
538.08	388.53
538.25	390.87
538.42	395.55
538.59	355.76
538.75	386.19
538.92	395.55
539.09	414.27
539.26	395.55
539.43	458.74
539.60	404.91
539.77	393.21
539.94	404.91
540.11	428.32
540.28	479.81
540.44	447.04
540.61	442.36
540.78	454.06
540.95	442.36
541.12	404.91
541.29	355.76
541.46	489.17
541.62	393.21
541.79	461.09
541.96	437.68
542.13	433.00
542.30	362.78
542.47	442.36
542.63	470.45
542.80	388.53
542.97	433.00
543.14	449.38
543.31	400.23
543.48	402.57
543.64	421.30
543.81	444.70
543.98	386.19
544.15	407.25
544.32	388.53
544.48	465.77
544.65	409.59
544.82	463.43
544.99	416.62
545.16	383.85
545.32	407.25
545.49	430.66
545.66	456.40
545.83	409.59
546.00	381.51
546.16	383.85
546.33	433.00
546.50	418.96
546.67	447.04
546.83	454.06
547.00	362.78
547.17	367.46
547.34	390.87
547.50	379.17
547.67	388.53
547.84	372.15
548.00	418.96
548.17	358.10
548.34	404.91
548.51	388.53
548.67	456.40
548.84	358.10
549.01	388.53
549.18	365.12
549.34	458.74
549.51	428.32
549.68	416.62
549.84	404.91
550.01	369.80
550.18	454.06
550.34	411.93
550.51	472.79
550.68	500.87
550.84	367.46
551.01	440.02
551.18	407.25
551.34	449.38
551.51	397.89
551.68	428.32
551.84	489.17
552.01	374.49
552.18	346.40
552.34	435.34
552.51	440.02
552.68	421.30
552.84	402.57
553.01	435.34
553.18	407.25
553.34	428.32
553.51	430.66
553.67	472.79
553.84	528.96
554.01	442.36
554.17	463.43
554.34	395.55
554.51	435.34
554.67	489.17
554.84	414.27
555.00	400.23
555.17	393.21
555.33	472.79
555.50	430.66
555.67	418.96
555.83	463.43
556.00	423.64
556.16	454.06
556.33	451.72
556.50	418.96
556.66	433.00
556.83	447.04
556.99	388.53
557.16	444.70
557.32	444.70
557.49	444.70
557.65	416.62
557.82	428.32
557.98	341.72
558.15	397.89
558.32	433.00
558.48	430.66
558.65	414.27
558.81	388.53
558.98	463.43
559.14	414.27
559.31	489.17
559.47	386.19
559.64	390.87
559.80	383.85
559.97	365.12
560.13	400.23
560.30	442.36
560.46	362.78
560.63	367.46
560.79	383.85
560.96	416.62
561.12	416.62
561.29	461.09
561.45	409.59
561.61	346.40
561.78	517.26
561.94	400.23
562.11	386.19
562.27	409.59
562.44	374.49
562.60	411.93
562.77	374.49
562.93	505.56
563.10	461.09
563.26	411.93
563.42	365.12
563.59	388.53
563.75	496.19
563.92	416.62
564.08	458.74
564.24	479.81
564.41	397.89
564.57	348.74
564.74	435.34
564.90	528.96
565.07	449.38
565.23	425.98
565.39	376.83
565.56	411.93
565.72	379.17
565.88	402.57
566.05	444.70
566.21	393.21
566.38	355.76
566.54	444.70
566.70	454.06
566.87	376.83
567.03	337.04
567.19	421.30
567.36	388.53
567.52	451.72
567.68	472.79
567.85	397.89
568.01	465.77
568.17	416.62
568.34	454.06
568.50	407.25
568.66	440.02
568.83	493.85
568.99	507.90
569.15	470.45
569.32	374.49
569.48	449.38
569.64	355.76
569.81	374.49
569.97	430.66
570.13	447.04
570.30	425.98
570.46	470.45
570.62	402.57
570.78	491.51
570.95	425.98
571.11	404.91
571.27	402.57
571.43	447.04
571.60	463.43
571.76	451.72
571.92	477.47
572.09	369.80
572.25	425.98
572.41	376.83
572.57	461.09
572.74	505.56
572.90	458.74
573.06	458.74
573.22	395.55
573.38	465.77
573.55	404.91
573.71	376.83
573.87	400.23
574.03	367.46
574.20	386.19
574.36	400.23
574.52	395.55
574.68	435.34
574.84	379.17
575.01	461.09
575.17	458.74
575.33	444.70
575.49	468.11
575.65	479.81
575.82	458.74
575.98	414.27
576.14	379.17
576.30	383.85
576.46	425.98
576.62	416.62
576.79	400.23
576.95	477.47
577.11	458.74
577.27	407.25
577.43	430.66
577.59	404.91
577.75	433.00
577.92	423.64
578.08	297.25
578.24	383.85
578.40	428.32
578.56	421.30
578.72	475.13
578.88	397.89
579.04	416.62
579.21	411.93
579.37	449.38
579.53	468.11
579.69	465.77
579.85	456.40
580.01	379.17
580.17	440.02
580.33	402.57
580.49	449.38
580.65	454.06
580.82	407.25
580.98	463.43
581.14	369.80
581.30	472.79
581.46	440.02
581.62	500.87
581.78	444.70
581.94	414.27
582.10	503.22
582.26	484.49
582.42	404.91
582.58	360.44
582.74	421.30
582.90	416.62
583.06	437.68
583.22	395.55
583.38	421.30
583.54	402.57
583.70	491.51
583.86	369.80
584.02	449.38
584.18	388.53
584.34	381.51
584.50	428.32
584.66	414.27
584.82	465.77
584.98	437.68
585.14	404.91
585.30	351.08
585.46	381.51
585.62	425.98
585.78	416.62
585.94	400.23
586.10	372.15
586.26	440.02
586.42	517.26
586.58	463.43
586.74	447.04
586.90	390.87
587.06	332.36
587.22	463.43
587.38	365.12
587.54	407.25
587.70	409.59
587.86	435.34
588.02	451.72
588.18	461.09
588.34	475.13
588.49	386.19
588.65	454.06
588.81	418.96
588.97	449.38
589.13	388.53
589.29	425.98
589.45	472.79
589.61	449.38
589.77	376.83
589.93	447.04
590.08	397.89
590.24	332.36
590.40	440.02
590.56	463.43
590.72	423.64
590.88	411.93
591.04	395.55
591.20	423.64
591.35	395.55
591.51	454.06
591.67	355.76
591.83	449.38
591.99	411.93
592.15	442.36
592.31	362.78
592.46	449.38
592.62	339.38
592.78	425.98
592.94	393.21
593.10	409.59
593.26	376.83
593.41	510.24
593.57	402.57
593.73	496.19
593.89	376.83
594.05	442.36
594.20	390.87
594.36	339.38
594.52	372.15
594.68	442.36
594.84	414.27
594.99	423.64
595.15	388.53
595.31	430.66
595.47	397.89
595.62	425.98
595.78	489.17
595.94	402.57
596.10	430.66
596.25	430.66
596.41	447.04
596.57	444.70
596.73	440.02
596.88	416.62
597.04	442.36
597.20	491.51
597.36	416.62
597.51	369.80
597.67	402.57
597.83	418.96
597.99	447.04
598.14	376.83
598.30	435.34
598.46	465.77
598.61	411.93
598.77	493.85
598.93	411.93
599.09	421.30
599.24	451.72
599.40	447.04
599.56	449.38
599.71	407.25
599.87	425.98
600.03	421.30
600.18	393.21
600.34	428.32
600.50	369.80
600.65	337.04
600.81	463.43
600.97	407.25
601.12	421.30
601.28	449.38
601.44	400.23
601.59	414.27
601.75	428.32
601.91	355.76
602.06	393.21
602.22	393.21
602.37	404.91
602.53	435.34
602.69	444.70
602.84	341.72
603.00	404.91
603.16	416.62
603.31	355.76
603.47	433.00
603.62	388.53
603.78	418.96
603.94	416.62
604.09	482.15
604.25	444.70
604.40	374.49
604.56	393.21
604.71	425.98
604.87	383.85
605.03	344.06
605.18	444.70
605.34	454.06
605.49	397.89
605.65	430.66
605.80	379.17
605.96	454.06
606.12	454.06
606.27	444.70
606.43	447.04
606.58	472.79
606.74	425.98
606.89	440.02
607.05	461.09
607.20	423.64
607.36	444.70
607.51	444.70
607.67	472.79
607.82	397.89
607.98	463.43
608.13	411.93
608.29	451.72
608.44	468.11
608.60	444.70
608.75	418.96
608.91	416.62
609.06	390.87
609.22	493.85
609.37	421.30
609.53	437.68
609.68	451.72
609.84	402.57
609.99	365.12
610.15	437.68
