SpectraSuite Data File
++++++++++++++++++++++++++++++++++++
Date: Fri Oct 25 12:10:35 EDT 2013
User: price-jones
Dark Spectrum Present: No
Reference Spectrum Present: No
Number of Sampled Component Spectra: 1
Spectrometers: USB2+H05261
Integration Time (usec): 100000 (USB2+H05261)
Spectra Averaged: 1 (USB2+H05261)
Boxcar Smoothing: 0 (USB2+H05261)
Correct for Electrical Dark: No (USB2+H05261)
Strobe/Lamp Enabled: No (USB2+H05261)
Correct for Detector Non-linearity: No (USB2+H05261)
Correct for Stray Light: No (USB2+H05261)
Number of Pixels in Processed Spectrum: 2048
>>>>>Begin Processed Spectral Data<<<<<
365.73	362.78
365.92	362.78
366.12	362.78
366.32	276.18
366.52	222.35
366.72	203.63
366.91	196.60
367.11	280.86
367.31	142.77
367.51	248.10
367.70	283.20
367.90	318.31
368.10	224.69
368.30	250.44
368.49	177.88
368.69	280.86
368.89	187.24
369.09	203.63
369.28	266.82
369.48	299.59
369.68	351.08
369.87	358.10
370.07	262.14
370.27	332.36
370.47	327.68
370.66	320.65
370.86	320.65
371.06	318.31
371.25	311.29
371.45	355.76
371.65	327.68
371.84	383.85
372.04	414.27
372.24	423.64
372.44	355.76
372.63	414.27
372.83	428.32
373.03	411.93
373.22	444.70
373.42	400.23
373.62	341.72
373.81	339.38
374.01	463.43
374.21	421.30
374.40	411.93
374.60	447.04
374.79	376.83
374.99	454.06
375.19	449.38
375.38	425.98
375.58	402.57
375.78	444.70
375.97	528.96
376.17	433.00
376.37	421.30
376.56	421.30
376.76	383.85
376.95	418.96
377.15	461.09
377.35	379.17
377.54	400.23
377.74	423.64
377.93	402.57
378.13	376.83
378.33	440.02
378.52	325.33
378.72	346.40
378.91	367.46
379.11	390.87
379.31	440.02
379.50	414.27
379.70	463.43
379.89	374.49
380.09	442.36
380.28	451.72
380.48	379.17
380.68	381.51
380.87	365.12
381.07	421.30
381.26	463.43
381.46	430.66
381.65	435.34
381.85	379.17
382.04	486.83
382.24	411.93
382.43	404.91
382.63	374.49
382.83	395.55
383.02	390.87
383.22	435.34
383.41	418.96
383.61	360.44
383.80	461.09
384.00	388.53
384.19	404.91
384.39	416.62
384.58	472.79
384.78	447.04
384.97	421.30
385.17	444.70
385.36	421.30
385.56	355.76
385.75	440.02
385.95	372.15
386.14	430.66
386.34	449.38
386.53	351.08
386.72	414.27
386.92	393.21
387.11	374.49
387.31	428.32
387.50	374.49
387.70	344.06
387.89	402.57
388.09	381.51
388.28	379.17
388.48	383.85
388.67	395.55
388.86	346.40
389.06	444.70
389.25	409.59
389.45	465.77
389.64	388.53
389.84	360.44
390.03	360.44
390.22	447.04
390.42	404.91
390.61	315.97
390.81	409.59
391.00	407.25
391.19	454.06
391.39	435.34
391.58	444.70
391.78	374.49
391.97	372.15
392.16	437.68
392.36	468.11
392.55	449.38
392.75	472.79
392.94	440.02
393.13	393.21
393.33	430.66
393.52	414.27
393.71	458.74
393.91	397.89
394.10	414.27
394.29	386.19
394.49	390.87
394.68	334.70
394.88	449.38
395.07	430.66
395.26	402.57
395.46	397.89
395.65	470.45
395.84	414.27
396.04	393.21
396.23	437.68
396.42	372.15
396.62	411.93
396.81	470.45
397.00	461.09
397.19	423.64
397.39	416.62
397.58	444.70
397.77	428.32
397.97	351.08
398.16	351.08
398.35	465.77
398.55	393.21
398.74	339.38
398.93	395.55
399.12	301.93
399.32	355.76
399.51	348.74
399.70	468.11
399.90	451.72
400.09	416.62
400.28	463.43
400.47	425.98
400.67	428.32
400.86	416.62
401.05	393.21
401.24	416.62
401.44	388.53
401.63	414.27
401.82	372.15
402.01	369.80
402.21	400.23
402.40	411.93
402.59	414.27
402.78	418.96
402.97	428.32
403.17	416.62
403.36	362.78
403.55	414.27
403.74	393.21
403.93	374.49
404.13	402.57
404.32	379.17
404.51	414.27
404.70	477.47
404.89	428.32
405.09	477.47
405.28	437.68
405.47	416.62
405.66	374.49
405.85	416.62
406.05	444.70
406.24	372.15
406.43	418.96
406.62	395.55
406.81	461.09
407.00	451.72
407.20	425.98
407.39	402.57
407.58	374.49
407.77	442.36
407.96	402.57
408.15	332.36
408.34	425.98
408.54	327.68
408.73	423.64
408.92	395.55
409.11	449.38
409.30	355.76
409.49	416.62
409.68	386.19
409.87	367.46
410.07	418.96
410.26	334.70
410.45	425.98
410.64	383.85
410.83	400.23
411.02	411.93
411.21	337.04
411.40	451.72
411.59	468.11
411.78	353.42
411.98	440.02
412.17	390.87
412.36	346.40
412.55	358.10
412.74	507.90
412.93	418.96
413.12	369.80
413.31	369.80
413.50	414.27
413.69	404.91
413.88	435.34
414.07	393.21
414.26	383.85
414.45	430.66
414.64	365.12
414.83	423.64
415.02	437.68
415.22	437.68
415.41	451.72
415.60	472.79
415.79	372.15
415.98	444.70
416.17	388.53
416.36	428.32
416.55	409.59
416.74	454.06
416.93	437.68
417.12	393.21
417.31	447.04
417.50	386.19
417.69	334.70
417.88	423.64
418.07	428.32
418.26	360.44
418.45	358.10
418.64	423.64
418.83	444.70
419.02	491.51
419.21	451.72
419.39	423.64
419.58	351.08
419.77	386.19
419.96	454.06
420.15	454.06
420.34	409.59
420.53	367.46
420.72	348.74
420.91	306.61
421.10	402.57
421.29	447.04
421.48	404.91
421.67	404.91
421.86	362.78
422.05	369.80
422.24	411.93
422.43	468.11
422.61	430.66
422.80	407.25
422.99	449.38
423.18	374.49
423.37	428.32
423.56	404.91
423.75	402.57
423.94	379.17
424.13	447.04
424.32	491.51
424.50	414.27
424.69	376.83
424.88	449.38
425.07	376.83
425.26	461.09
425.45	500.87
425.64	435.34
425.83	388.53
426.01	411.93
426.20	409.59
426.39	407.25
426.58	418.96
426.77	440.02
426.96	407.25
427.15	374.49
427.33	386.19
427.52	414.27
427.71	449.38
427.90	383.85
428.09	444.70
428.28	404.91
428.46	337.04
428.65	433.00
428.84	409.59
429.03	388.53
429.22	379.17
429.40	379.17
429.59	388.53
429.78	465.77
429.97	395.55
430.16	404.91
430.34	386.19
430.53	425.98
430.72	475.13
430.91	505.56
431.10	458.74
431.28	526.62
431.47	332.36
431.66	379.17
431.85	456.40
432.03	423.64
432.22	444.70
432.41	372.15
432.60	416.62
432.79	425.98
432.97	344.06
433.16	386.19
433.35	374.49
433.54	423.64
433.72	411.93
433.91	374.49
434.10	435.34
434.28	397.89
434.47	423.64
434.66	348.74
434.85	381.51
435.03	484.49
435.22	421.30
435.41	505.56
435.59	435.34
435.78	418.96
435.97	400.23
436.16	440.02
436.34	447.04
436.53	376.83
436.72	400.23
436.90	425.98
437.09	442.36
437.28	423.64
437.46	465.77
437.65	416.62
437.84	397.89
438.02	386.19
438.21	404.91
438.40	362.78
438.58	416.62
438.77	360.44
438.96	372.15
439.14	442.36
439.33	425.98
439.52	484.49
439.70	416.62
439.89	360.44
440.08	353.42
440.26	433.00
440.45	456.40
440.63	482.15
440.82	395.55
441.01	435.34
441.19	402.57
441.38	479.81
441.57	404.91
441.75	489.17
441.94	512.58
442.12	444.70
442.31	404.91
442.50	409.59
442.68	416.62
442.87	383.85
443.05	390.87
443.24	418.96
443.43	433.00
443.61	346.40
443.80	393.21
443.98	479.81
444.17	463.43
444.35	435.34
444.54	479.81
444.73	418.96
444.91	477.47
445.10	390.87
445.28	397.89
445.47	477.47
445.65	456.40
445.84	386.19
446.02	505.56
446.21	430.66
446.39	430.66
446.58	444.70
446.77	393.21
446.95	414.27
447.14	395.55
447.32	411.93
447.51	372.15
447.69	395.55
447.88	442.36
448.06	425.98
448.25	465.77
448.43	454.06
448.62	418.96
448.80	374.49
448.99	407.25
449.17	381.51
449.36	397.89
449.54	433.00
449.73	390.87
449.91	362.78
450.10	339.38
450.28	411.93
450.46	433.00
450.65	435.34
450.83	411.93
451.02	367.46
451.20	425.98
451.39	498.53
451.57	395.55
451.76	416.62
451.94	463.43
452.13	442.36
452.31	444.70
452.49	416.62
452.68	369.80
452.86	404.91
453.05	421.30
453.23	351.08
453.42	423.64
453.60	425.98
453.78	461.09
453.97	440.02
454.15	430.66
454.34	346.40
454.52	360.44
454.70	428.32
454.89	477.47
455.07	388.53
455.26	433.00
455.44	404.91
455.62	381.51
455.81	430.66
455.99	482.15
456.17	442.36
456.36	344.06
456.54	390.87
456.73	430.66
456.91	425.98
457.09	435.34
457.28	390.87
457.46	470.45
457.64	393.21
457.83	390.87
458.01	433.00
458.19	421.30
458.38	428.32
458.56	440.02
458.74	447.04
458.93	418.96
459.11	411.93
459.29	451.72
459.48	402.57
459.66	395.55
459.84	423.64
460.03	578.11
460.21	376.83
460.39	374.49
460.57	454.06
460.76	409.59
460.94	383.85
461.12	428.32
461.31	440.02
461.49	491.51
461.67	400.23
461.85	414.27
462.04	416.62
462.22	751.31
462.40	425.98
462.59	440.02
462.77	374.49
462.95	430.66
463.13	294.91
463.32	463.43
463.50	376.83
463.68	407.25
463.86	456.40
464.05	369.80
464.23	428.32
464.41	411.93
464.59	468.11
464.78	449.38
464.96	461.09
465.14	479.81
465.32	400.23
465.50	458.74
465.69	442.36
465.87	449.38
466.05	468.11
466.23	311.29
466.41	400.23
466.60	425.98
466.78	416.62
466.96	505.56
467.14	351.08
467.32	423.64
467.51	428.32
467.69	435.34
467.87	430.66
468.05	393.21
468.23	393.21
468.41	400.23
468.60	404.91
468.78	430.66
468.96	503.22
469.14	482.15
469.32	367.46
469.50	411.93
469.69	393.21
469.87	393.21
470.05	362.78
470.23	362.78
470.41	444.70
470.59	456.40
470.77	421.30
470.95	353.42
471.14	468.11
471.32	411.93
471.50	510.24
471.68	444.70
471.86	479.81
472.04	407.25
472.22	421.30
472.40	418.96
472.58	367.46
472.77	479.81
472.95	322.99
473.13	430.66
473.31	393.21
473.49	414.27
473.67	402.57
473.85	440.02
474.03	463.43
474.21	390.87
474.39	421.30
474.57	456.40
474.75	388.53
474.93	402.57
475.12	400.23
475.30	395.55
475.48	414.27
475.66	395.55
475.84	435.34
476.02	393.21
476.20	365.12
476.38	409.59
476.56	472.79
476.74	388.53
476.92	440.02
477.10	425.98
477.28	374.49
477.46	484.49
477.64	437.68
477.82	400.23
478.00	479.81
478.18	451.72
478.36	367.46
478.54	442.36
478.72	428.32
478.90	437.68
479.08	407.25
479.26	435.34
479.44	442.36
479.62	421.30
479.80	404.91
479.98	416.62
480.16	400.23
480.34	397.89
480.52	456.40
480.70	437.68
480.88	447.04
481.06	447.04
481.24	379.17
481.41	400.23
481.59	386.19
481.77	472.79
481.95	442.36
482.13	489.17
482.31	470.45
482.49	440.02
482.67	379.17
482.85	414.27
483.03	402.57
483.21	423.64
483.39	421.30
483.57	425.98
483.74	416.62
483.92	390.87
484.10	440.02
484.28	458.74
484.46	449.38
484.64	348.74
484.82	376.83
485.00	386.19
485.18	411.93
485.35	386.19
485.53	428.32
485.71	477.47
485.89	365.12
486.07	423.64
486.25	414.27
486.43	402.57
486.61	402.57
486.78	416.62
486.96	362.78
487.14	393.21
487.32	404.91
487.50	360.44
487.68	447.04
487.85	383.85
488.03	440.02
488.21	458.74
488.39	440.02
488.57	409.59
488.75	456.40
488.92	447.04
489.10	379.17
489.28	484.49
489.46	425.98
489.64	418.96
489.81	358.10
489.99	538.32
490.17	400.23
490.35	425.98
490.53	386.19
490.70	411.93
490.88	433.00
491.06	362.78
491.24	444.70
491.41	388.53
491.59	428.32
491.77	337.04
491.95	418.96
492.13	428.32
492.30	416.62
492.48	425.98
492.66	388.53
492.84	416.62
493.01	400.23
493.19	437.68
493.37	475.13
493.54	435.34
493.72	395.55
493.90	395.55
494.08	360.44
494.25	451.72
494.43	430.66
494.61	449.38
494.79	383.85
494.96	440.02
495.14	470.45
495.32	440.02
495.49	358.10
495.67	465.77
495.85	421.30
496.02	442.36
496.20	369.80
496.38	456.40
496.55	456.40
496.73	437.68
496.91	393.21
497.09	360.44
497.26	397.89
497.44	444.70
497.62	386.19
497.79	430.66
497.97	379.17
498.14	395.55
498.32	444.70
498.50	414.27
498.67	458.74
498.85	402.57
499.03	379.17
499.20	435.34
499.38	423.64
499.56	404.91
499.73	470.45
499.91	414.27
500.08	447.04
500.26	461.09
500.44	390.87
500.61	395.55
500.79	388.53
500.97	456.40
501.14	365.12
501.32	344.06
501.49	411.93
501.67	440.02
501.84	411.93
502.02	348.74
502.20	463.43
502.37	416.62
502.55	444.70
502.72	428.32
502.90	482.15
503.07	367.46
503.25	421.30
503.43	421.30
503.60	458.74
503.78	428.32
503.95	425.98
504.13	409.59
504.30	458.74
504.48	376.83
504.65	397.89
504.83	468.11
505.01	381.51
505.18	386.19
505.36	402.57
505.53	402.57
505.71	390.87
505.88	390.87
506.06	386.19
506.23	435.34
506.41	358.10
506.58	456.40
506.76	447.04
506.93	348.74
507.11	381.51
507.28	348.74
507.46	411.93
507.63	344.06
507.81	397.89
507.98	395.55
508.16	386.19
508.33	365.12
508.50	486.83
508.68	444.70
508.85	393.21
509.03	376.83
509.20	348.74
509.38	433.00
509.55	437.68
509.73	386.19
509.90	472.79
510.08	409.59
510.25	482.15
510.42	421.30
510.60	456.40
510.77	468.11
510.95	360.44
511.12	435.34
511.30	423.64
511.47	400.23
511.64	395.55
511.82	407.25
511.99	475.13
512.17	390.87
512.34	379.17
512.51	421.30
512.69	451.72
512.86	458.74
513.04	313.63
513.21	388.53
513.38	360.44
513.56	362.78
513.73	386.19
513.90	430.66
514.08	416.62
514.25	421.30
514.43	400.23
514.60	442.36
514.77	454.06
514.95	479.81
515.12	454.06
515.29	400.23
515.47	454.06
515.64	482.15
515.81	416.62
515.99	411.93
516.16	344.06
516.33	444.70
516.51	423.64
516.68	421.30
516.85	437.68
517.03	440.02
517.20	393.21
517.37	404.91
517.54	498.53
517.72	369.80
517.89	416.62
518.06	470.45
518.24	472.79
518.41	461.09
518.58	437.68
518.75	433.00
518.93	435.34
519.10	379.17
519.27	353.42
519.45	475.13
519.62	458.74
519.79	435.34
519.96	447.04
520.14	423.64
520.31	423.64
520.48	440.02
520.65	379.17
520.83	369.80
521.00	379.17
521.17	430.66
521.34	404.91
521.52	461.09
521.69	334.70
521.86	423.64
522.03	414.27
522.20	411.93
522.38	388.53
522.55	421.30
522.72	341.72
522.89	386.19
523.07	416.62
523.24	330.02
523.41	433.00
523.58	372.15
523.75	407.25
523.92	386.19
524.10	404.91
524.27	430.66
524.44	376.83
524.61	451.72
524.78	409.59
524.96	461.09
525.13	327.68
525.30	472.79
525.47	468.11
525.64	430.66
525.81	442.36
525.98	449.38
526.16	463.43
526.33	442.36
526.50	360.44
526.67	397.89
526.84	402.57
527.01	351.08
527.18	479.81
527.36	437.68
527.53	418.96
527.70	447.04
527.87	465.77
528.04	475.13
528.21	358.10
528.38	358.10
528.55	470.45
528.72	404.91
528.89	411.93
529.07	430.66
529.24	386.19
529.41	372.15
529.58	454.06
529.75	374.49
529.92	341.72
530.09	498.53
530.26	486.83
530.43	388.53
530.60	421.30
530.77	411.93
530.94	423.64
531.11	477.47
531.28	440.02
531.46	416.62
531.63	409.59
531.80	386.19
531.97	428.32
532.14	440.02
532.31	440.02
532.48	437.68
532.65	388.53
532.82	360.44
532.99	451.72
533.16	395.55
533.33	365.12
533.50	395.55
533.67	456.40
533.84	416.62
534.01	482.15
534.18	390.87
534.35	404.91
534.52	346.40
534.69	411.93
534.86	393.21
535.03	395.55
535.20	454.06
535.37	519.60
535.54	383.85
535.71	421.30
535.88	414.27
536.05	369.80
536.22	444.70
536.38	358.10
536.55	414.27
536.72	353.42
536.89	397.89
537.06	447.04
537.23	374.49
537.40	362.78
537.57	344.06
537.74	458.74
537.91	442.36
538.08	444.70
538.25	442.36
538.42	461.09
538.59	500.87
538.75	395.55
538.92	388.53
539.09	416.62
539.26	423.64
539.43	442.36
539.60	411.93
539.77	390.87
539.94	404.91
540.11	425.98
540.28	475.13
540.44	358.10
540.61	407.25
540.78	454.06
540.95	376.83
541.12	475.13
541.29	465.77
541.46	486.83
541.62	395.55
541.79	353.42
541.96	425.98
542.13	463.43
542.30	390.87
542.47	376.83
542.63	374.49
542.80	456.40
542.97	447.04
543.14	381.51
543.31	442.36
543.48	418.96
543.64	442.36
543.81	386.19
543.98	414.27
544.15	409.59
544.32	447.04
544.48	423.64
544.65	425.98
544.82	411.93
544.99	437.68
545.16	470.45
545.32	365.12
545.49	381.51
545.66	407.25
545.83	397.89
546.00	388.53
546.16	372.15
546.33	454.06
546.50	442.36
546.67	421.30
546.83	374.49
547.00	409.59
547.17	456.40
547.34	383.85
547.50	428.32
547.67	449.38
547.84	418.96
548.00	435.34
548.17	449.38
548.34	423.64
548.51	416.62
548.67	442.36
548.84	430.66
549.01	358.10
549.18	428.32
549.34	442.36
549.51	355.76
549.68	379.17
549.84	428.32
550.01	407.25
550.18	566.41
550.34	507.90
550.51	414.27
550.68	444.70
550.84	493.85
551.01	430.66
551.18	395.55
551.34	397.89
551.51	416.62
551.68	374.49
551.84	409.59
552.01	369.80
552.18	475.13
552.34	388.53
552.51	397.89
552.68	411.93
552.84	461.09
553.01	493.85
553.18	449.38
553.34	390.87
553.51	435.34
553.67	374.49
553.84	425.98
554.01	411.93
554.17	411.93
554.34	433.00
554.51	463.43
554.67	433.00
554.84	411.93
555.00	390.87
555.17	423.64
555.33	440.02
555.50	367.46
555.67	440.02
555.83	458.74
556.00	449.38
556.16	528.96
556.33	498.53
556.50	386.19
556.66	358.10
556.83	512.58
556.99	472.79
557.16	421.30
557.32	451.72
557.49	379.17
557.65	423.64
557.82	404.91
557.98	437.68
558.15	395.55
558.32	423.64
558.48	400.23
558.65	414.27
558.81	454.06
558.98	395.55
559.14	440.02
559.31	404.91
559.47	456.40
559.64	416.62
559.80	456.40
559.97	425.98
560.13	402.57
560.30	430.66
560.46	428.32
560.63	411.93
560.79	454.06
560.96	440.02
561.12	437.68
561.29	421.30
561.45	430.66
561.61	390.87
561.78	400.23
561.94	381.51
562.11	386.19
562.27	435.34
562.44	463.43
562.60	435.34
562.77	379.17
562.93	493.85
563.10	486.83
563.26	400.23
563.42	411.93
563.59	463.43
563.75	409.59
563.92	437.68
564.08	404.91
564.24	367.46
564.41	425.98
564.57	273.84
564.74	451.72
564.90	454.06
565.07	531.30
565.23	430.66
565.39	433.00
565.56	421.30
565.72	351.08
565.88	454.06
566.05	423.64
566.21	425.98
566.38	404.91
566.54	423.64
566.70	463.43
566.87	428.32
567.03	416.62
567.19	465.77
567.36	414.27
567.52	421.30
567.68	437.68
567.85	430.66
568.01	442.36
568.17	458.74
568.34	465.77
568.50	447.04
568.66	395.55
568.83	489.17
568.99	451.72
569.15	440.02
569.32	479.81
569.48	482.15
569.64	397.89
569.81	414.27
569.97	388.53
570.13	390.87
570.30	437.68
570.46	421.30
570.62	444.70
570.78	339.38
570.95	367.46
571.11	437.68
571.27	468.11
571.43	449.38
571.60	358.10
571.76	437.68
571.92	379.17
572.09	421.30
572.25	451.72
572.41	407.25
572.57	440.02
572.74	498.53
572.90	360.44
573.06	400.23
573.22	409.59
573.38	416.62
573.55	447.04
573.71	425.98
573.87	456.40
574.03	358.10
574.20	393.21
574.36	447.04
574.52	393.21
574.68	407.25
574.84	482.15
575.01	421.30
575.17	465.77
575.33	444.70
575.49	491.51
575.65	437.68
575.82	381.51
575.98	421.30
576.14	388.53
576.30	416.62
576.46	407.25
576.62	407.25
576.79	500.87
576.95	379.17
577.11	416.62
577.27	440.02
577.43	393.21
577.59	505.56
577.75	390.87
577.92	390.87
578.08	414.27
578.24	411.93
578.40	395.55
578.56	468.11
578.72	444.70
578.88	479.81
579.04	407.25
579.21	360.44
579.37	411.93
579.53	437.68
579.69	498.53
579.85	449.38
580.01	421.30
580.17	407.25
580.33	437.68
580.49	461.09
580.65	456.40
580.82	341.72
580.98	407.25
581.14	421.30
581.30	531.30
581.46	449.38
581.62	430.66
581.78	348.74
581.94	423.64
582.10	411.93
582.26	386.19
582.42	400.23
582.58	374.49
582.74	383.85
582.90	447.04
583.06	456.40
583.22	411.93
583.38	334.70
583.54	379.17
583.70	407.25
583.86	444.70
584.02	372.15
584.18	461.09
584.34	425.98
584.50	425.98
584.66	451.72
584.82	482.15
584.98	390.87
585.14	367.46
585.30	355.76
585.46	423.64
585.62	400.23
585.78	395.55
585.94	400.23
586.10	449.38
586.26	416.62
586.42	458.74
586.58	397.89
586.74	430.66
586.90	362.78
587.06	388.53
587.22	444.70
587.38	437.68
587.54	360.44
587.70	458.74
587.86	503.22
588.02	362.78
588.18	386.19
588.34	425.98
588.49	409.59
588.65	456.40
588.81	355.76
588.97	400.23
589.13	374.49
589.29	369.80
589.45	456.40
589.61	383.85
589.77	437.68
589.93	482.15
590.08	421.30
590.24	486.83
590.40	421.30
590.56	465.77
590.72	383.85
590.88	358.10
591.04	327.68
591.20	454.06
591.35	475.13
591.51	376.83
591.67	395.55
591.83	421.30
591.99	437.68
592.15	440.02
592.31	397.89
592.46	381.51
592.62	475.13
592.78	449.38
592.94	454.06
593.10	393.21
593.26	465.77
593.41	372.15
593.57	404.91
593.73	414.27
593.89	418.96
594.05	418.96
594.20	416.62
594.36	390.87
594.52	390.87
594.68	402.57
594.84	482.15
594.99	458.74
595.15	489.17
595.31	468.11
595.47	475.13
595.62	397.89
595.78	454.06
595.94	472.79
596.10	447.04
596.25	491.51
596.41	393.21
596.57	421.30
596.73	388.53
596.88	416.62
597.04	423.64
597.20	433.00
597.36	423.64
597.51	383.85
597.67	435.34
597.83	381.51
597.99	397.89
598.14	395.55
598.30	512.58
598.46	435.34
598.61	472.79
598.77	493.85
598.93	407.25
599.09	379.17
599.24	390.87
599.40	425.98
599.56	360.44
599.71	428.32
599.87	369.80
600.03	437.68
600.18	414.27
600.34	383.85
600.50	416.62
600.65	404.91
600.81	374.49
600.97	421.30
601.12	400.23
601.28	416.62
601.44	376.83
601.59	475.13
601.75	416.62
601.91	369.80
602.06	402.57
602.22	421.30
602.37	379.17
602.53	362.78
602.69	463.43
602.84	407.25
603.00	381.51
603.16	409.59
603.31	447.04
603.47	400.23
603.62	365.12
603.78	337.04
603.94	325.33
604.09	414.27
604.25	414.27
604.40	465.77
604.56	355.76
604.71	411.93
604.87	486.83
605.03	390.87
605.18	395.55
605.34	332.36
605.49	428.32
605.65	421.30
605.80	355.76
605.96	393.21
606.12	407.25
606.27	402.57
606.43	381.51
606.58	379.17
606.74	454.06
606.89	421.30
607.05	400.23
607.20	440.02
607.36	425.98
607.51	435.34
607.67	451.72
607.82	416.62
607.98	369.80
608.13	437.68
608.29	404.91
608.44	362.78
608.60	491.51
608.75	503.22
608.91	397.89
609.06	409.59
609.22	414.27
609.37	421.30
609.53	348.74
609.68	395.55
609.84	311.29
609.99	425.98
610.15	428.32
