SpectraSuite Data File
++++++++++++++++++++++++++++++++++++
Date: Fri Oct 25 12:10:59 EDT 2013
User: price-jones
Dark Spectrum Present: No
Reference Spectrum Present: No
Number of Sampled Component Spectra: 1
Spectrometers: USB2+H05261
Integration Time (usec): 100000 (USB2+H05261)
Spectra Averaged: 1 (USB2+H05261)
Boxcar Smoothing: 0 (USB2+H05261)
Correct for Electrical Dark: No (USB2+H05261)
Strobe/Lamp Enabled: No (USB2+H05261)
Correct for Detector Non-linearity: No (USB2+H05261)
Correct for Stray Light: No (USB2+H05261)
Number of Pixels in Processed Spectrum: 2048
>>>>>Begin Processed Spectral Data<<<<<
365.73	325.33
365.92	325.33
366.12	325.33
366.32	273.84
366.52	170.86
366.72	250.44
366.91	227.03
367.11	238.73
367.31	220.01
367.51	250.44
367.70	198.95
367.90	266.82
368.10	220.01
368.30	243.42
368.49	283.20
368.69	266.82
368.89	308.95
369.09	285.55
369.28	306.61
369.48	250.44
369.68	297.25
369.87	334.70
370.07	271.50
370.27	362.78
370.47	308.95
370.66	273.84
370.86	290.23
371.06	313.63
371.25	322.99
371.45	358.10
371.65	304.27
371.84	379.17
372.04	362.78
372.24	447.04
372.44	374.49
372.63	428.32
372.83	407.25
373.03	411.93
373.22	353.42
373.42	409.59
373.62	374.49
373.81	428.32
374.01	404.91
374.21	418.96
374.40	430.66
374.60	475.13
374.79	456.40
374.99	346.40
375.19	355.76
375.38	421.30
375.58	465.77
375.78	461.09
375.97	388.53
376.17	442.36
376.37	454.06
376.56	404.91
376.76	381.51
376.95	411.93
377.15	414.27
377.35	428.32
377.54	362.78
377.74	390.87
377.93	393.21
378.13	447.04
378.33	397.89
378.52	337.04
378.72	454.06
378.91	430.66
379.11	372.15
379.31	358.10
379.50	486.83
379.70	458.74
379.89	411.93
380.09	362.78
380.28	381.51
380.48	425.98
380.68	454.06
380.87	386.19
381.07	430.66
381.26	421.30
381.46	400.23
381.65	402.57
381.85	444.70
382.04	416.62
382.24	411.93
382.43	454.06
382.63	397.89
382.83	379.17
383.02	386.19
383.22	435.34
383.41	444.70
383.61	449.38
383.80	404.91
384.00	456.40
384.19	376.83
384.39	411.93
384.58	393.21
384.78	475.13
384.97	397.89
385.17	425.98
385.36	367.46
385.56	393.21
385.75	388.53
385.95	353.42
386.14	390.87
386.34	397.89
386.53	418.96
386.72	390.87
386.92	479.81
387.11	463.43
387.31	428.32
387.50	386.19
387.70	395.55
387.89	404.91
388.09	362.78
388.28	400.23
388.48	365.12
388.67	409.59
388.86	402.57
389.06	423.64
389.25	397.89
389.45	418.96
389.64	381.51
389.84	376.83
390.03	514.92
390.22	411.93
390.42	454.06
390.61	355.76
390.81	390.87
391.00	418.96
391.19	440.02
391.39	416.62
391.58	411.93
391.78	374.49
391.97	390.87
392.16	372.15
392.36	430.66
392.55	521.94
392.75	407.25
392.94	411.93
393.13	376.83
393.33	440.02
393.52	404.91
393.71	386.19
393.91	411.93
394.10	416.62
394.29	388.53
394.49	337.04
394.68	402.57
394.88	484.49
395.07	388.53
395.26	402.57
395.46	393.21
395.65	379.17
395.84	400.23
396.04	435.34
396.23	393.21
396.42	393.21
396.62	425.98
396.81	397.89
397.00	393.21
397.19	437.68
397.39	451.72
397.58	489.17
397.77	402.57
397.97	463.43
398.16	430.66
398.35	444.70
398.55	388.53
398.74	404.91
398.93	454.06
399.12	472.79
399.32	454.06
399.51	390.87
399.70	428.32
399.90	421.30
400.09	444.70
400.28	475.13
400.47	381.51
400.67	381.51
400.86	425.98
401.05	416.62
401.24	376.83
401.44	421.30
401.63	393.21
401.82	409.59
402.01	402.57
402.21	428.32
402.40	418.96
402.59	367.46
402.78	369.80
402.97	416.62
403.17	423.64
403.36	358.10
403.55	397.89
403.74	411.93
403.93	395.55
404.13	386.19
404.32	402.57
404.51	395.55
404.70	472.79
404.89	416.62
405.09	482.15
405.28	437.68
405.47	372.15
405.66	433.00
405.85	440.02
406.05	383.85
406.24	418.96
406.43	402.57
406.62	367.46
406.81	449.38
407.00	411.93
407.20	372.15
407.39	440.02
407.58	322.99
407.77	344.06
407.96	472.79
408.15	379.17
408.34	468.11
408.54	430.66
408.73	372.15
408.92	381.51
409.11	463.43
409.30	463.43
409.49	334.70
409.68	404.91
409.87	428.32
410.07	362.78
410.26	421.30
410.45	425.98
410.64	425.98
410.83	444.70
411.02	416.62
411.21	416.62
411.40	461.09
411.59	428.32
411.78	484.49
411.98	395.55
412.17	360.44
412.36	425.98
412.55	440.02
412.74	393.21
412.93	435.34
413.12	351.08
413.31	456.40
413.50	458.74
413.69	416.62
413.88	388.53
414.07	404.91
414.26	404.91
414.45	421.30
414.64	449.38
414.83	454.06
415.02	355.76
415.22	325.33
415.41	437.68
415.60	332.36
415.79	379.17
415.98	414.27
416.17	397.89
416.36	402.57
416.55	393.21
416.74	449.38
416.93	400.23
417.12	379.17
417.31	358.10
417.50	484.49
417.69	463.43
417.88	411.93
418.07	372.15
418.26	315.97
418.45	409.59
418.64	468.11
418.83	421.30
419.02	388.53
419.21	451.72
419.39	449.38
419.58	358.10
419.77	470.45
419.96	423.64
420.15	404.91
420.34	367.46
420.53	491.51
420.72	433.00
420.91	416.62
421.10	409.59
421.29	395.55
421.48	430.66
421.67	458.74
421.86	547.69
422.05	372.15
422.24	425.98
422.43	421.30
422.61	430.66
422.80	423.64
422.99	339.38
423.18	379.17
423.37	388.53
423.56	407.25
423.75	341.72
423.94	411.93
424.13	360.44
424.32	400.23
424.50	414.27
424.69	390.87
424.88	409.59
425.07	456.40
425.26	414.27
425.45	435.34
425.64	486.83
425.83	397.89
426.01	346.40
426.20	402.57
426.39	393.21
426.58	463.43
426.77	386.19
426.96	510.24
427.15	416.62
427.33	372.15
427.52	379.17
427.71	325.33
427.90	444.70
428.09	395.55
428.28	395.55
428.46	475.13
428.65	444.70
428.84	414.27
429.03	447.04
429.22	435.34
429.40	428.32
429.59	449.38
429.78	400.23
429.97	463.43
430.16	400.23
430.34	404.91
430.53	400.23
430.72	465.77
430.91	496.19
431.10	381.51
431.28	400.23
431.47	346.40
431.66	458.74
431.85	390.87
432.03	407.25
432.22	447.04
432.41	383.85
432.60	447.04
432.79	435.34
432.97	440.02
433.16	320.65
433.35	423.64
433.54	418.96
433.72	458.74
433.91	433.00
434.10	353.42
434.28	447.04
434.47	381.51
434.66	393.21
434.85	397.89
435.03	428.32
435.22	409.59
435.41	472.79
435.59	472.79
435.78	407.25
435.97	416.62
436.16	425.98
436.34	395.55
436.53	430.66
436.72	437.68
436.90	379.17
437.09	451.72
437.28	390.87
437.46	416.62
437.65	461.09
437.84	496.19
438.02	407.25
438.21	395.55
438.40	376.83
438.58	322.99
438.77	416.62
438.96	383.85
439.14	400.23
439.33	425.98
439.52	435.34
439.70	414.27
439.89	379.17
440.08	376.83
440.26	470.45
440.45	468.11
440.63	458.74
440.82	437.68
441.01	409.59
441.19	407.25
441.38	395.55
441.57	404.91
441.75	435.34
441.94	437.68
442.12	409.59
442.31	440.02
442.50	428.32
442.68	428.32
442.87	365.12
443.05	393.21
443.24	402.57
443.43	395.55
443.61	418.96
443.80	395.55
443.98	437.68
444.17	414.27
444.35	381.51
444.54	381.51
444.73	430.66
444.91	449.38
445.10	428.32
445.28	430.66
445.47	374.49
445.65	369.80
445.84	358.10
446.02	386.19
446.21	484.49
446.39	449.38
446.58	416.62
446.77	372.15
446.95	374.49
447.14	409.59
447.32	393.21
447.51	425.98
447.69	449.38
447.88	465.77
448.06	397.89
448.25	407.25
448.43	367.46
448.62	386.19
448.80	421.30
448.99	468.11
449.17	393.21
449.36	397.89
449.54	456.40
449.73	360.44
449.91	383.85
450.10	477.47
450.28	470.45
450.46	456.40
450.65	465.77
450.83	423.64
451.02	458.74
451.20	414.27
451.39	386.19
451.57	456.40
451.76	416.62
451.94	433.00
452.13	397.89
452.31	479.81
452.49	416.62
452.68	393.21
452.86	414.27
453.05	491.51
453.23	440.02
453.42	376.83
453.60	388.53
453.78	425.98
453.97	435.34
454.15	395.55
454.34	414.27
454.52	397.89
454.70	409.59
454.89	369.80
455.07	411.93
455.26	465.77
455.44	437.68
455.62	447.04
455.81	421.30
455.99	444.70
456.17	440.02
456.36	435.34
456.54	400.23
456.73	374.49
456.91	414.27
457.09	461.09
457.28	475.13
457.46	395.55
457.64	416.62
457.83	407.25
458.01	421.30
458.19	449.38
458.38	360.44
458.56	418.96
458.74	358.10
458.93	407.25
459.11	404.91
459.29	433.00
459.48	402.57
459.66	524.28
459.84	358.10
460.03	461.09
460.21	425.98
460.39	386.19
460.57	386.19
460.76	409.59
460.94	507.90
461.12	430.66
461.31	465.77
461.49	451.72
461.67	447.04
461.85	430.66
462.04	463.43
462.22	468.11
462.40	440.02
462.59	402.57
462.77	411.93
462.95	414.27
463.13	372.15
463.32	376.83
463.50	463.43
463.68	545.34
463.86	447.04
464.05	444.70
464.23	456.40
464.41	514.92
464.59	395.55
464.78	430.66
464.96	365.12
465.14	447.04
465.32	414.27
465.50	367.46
465.69	461.09
465.87	402.57
466.05	337.04
466.23	444.70
466.41	369.80
466.60	425.98
466.78	433.00
466.96	433.00
467.14	330.02
467.32	400.23
467.51	414.27
467.69	383.85
467.87	395.55
468.05	381.51
468.23	454.06
468.41	414.27
468.60	407.25
468.78	477.47
468.96	447.04
469.14	451.72
469.32	423.64
469.50	395.55
469.69	454.06
469.87	451.72
470.05	447.04
470.23	402.57
470.41	381.51
470.59	379.17
470.77	423.64
470.95	440.02
471.14	421.30
471.32	423.64
471.50	437.68
471.68	440.02
471.86	486.83
472.04	351.08
472.22	374.49
472.40	428.32
472.58	470.45
472.77	379.17
472.95	390.87
473.13	451.72
473.31	379.17
473.49	379.17
473.67	390.87
473.85	442.36
474.03	437.68
474.21	430.66
474.39	416.62
474.57	416.62
474.75	440.02
474.93	414.27
475.12	381.51
475.30	456.40
475.48	416.62
475.66	458.74
475.84	428.32
476.02	423.64
476.20	353.42
476.38	472.79
476.56	470.45
476.74	393.21
476.92	442.36
477.10	388.53
477.28	456.40
477.46	444.70
477.64	423.64
477.82	395.55
478.00	395.55
478.18	463.43
478.36	404.91
478.54	421.30
478.72	383.85
478.90	411.93
479.08	397.89
479.26	449.38
479.44	425.98
479.62	416.62
479.80	383.85
479.98	425.98
480.16	388.53
480.34	416.62
480.52	411.93
480.70	440.02
480.88	346.40
481.06	341.72
481.24	388.53
481.41	500.87
481.59	451.72
481.77	458.74
481.95	395.55
482.13	456.40
482.31	379.17
482.49	395.55
482.67	449.38
482.85	423.64
483.03	374.49
483.21	437.68
483.39	435.34
483.57	423.64
483.74	463.43
483.92	444.70
484.10	388.53
484.28	369.80
484.46	517.26
484.64	360.44
484.82	358.10
485.00	367.46
485.18	390.87
485.35	428.32
485.53	451.72
485.71	475.13
485.89	388.53
486.07	416.62
486.25	435.34
486.43	440.02
486.61	458.74
486.78	423.64
486.96	388.53
487.14	416.62
487.32	381.51
487.50	411.93
487.68	416.62
487.85	428.32
488.03	463.43
488.21	449.38
488.39	505.56
488.57	465.77
488.75	395.55
488.92	503.22
489.10	484.49
489.28	447.04
489.46	472.79
489.64	423.64
489.81	433.00
489.99	428.32
490.17	472.79
490.35	414.27
490.53	458.74
490.70	341.72
490.88	341.72
491.06	344.06
491.24	451.72
491.41	393.21
491.59	374.49
491.77	414.27
491.95	308.95
492.13	447.04
492.30	411.93
492.48	365.12
492.66	383.85
492.84	393.21
493.01	423.64
493.19	414.27
493.37	493.85
493.54	425.98
493.72	353.42
493.90	388.53
494.08	348.74
494.25	376.83
494.43	425.98
494.61	437.68
494.79	381.51
494.96	470.45
495.14	440.02
495.32	454.06
495.49	395.55
495.67	428.32
495.85	390.87
496.02	430.66
496.20	493.85
496.38	414.27
496.55	428.32
496.73	482.15
496.91	449.38
497.09	442.36
497.26	367.46
497.44	505.56
497.62	414.27
497.79	477.47
497.97	479.81
498.14	482.15
498.32	407.25
498.50	379.17
498.67	442.36
498.85	421.30
499.03	416.62
499.20	325.33
499.38	409.59
499.56	390.87
499.73	496.19
499.91	425.98
500.08	390.87
500.26	468.11
500.44	355.76
500.61	463.43
500.79	407.25
500.97	376.83
501.14	379.17
501.32	416.62
501.49	463.43
501.67	423.64
501.84	411.93
502.02	369.80
502.20	433.00
502.37	435.34
502.55	386.19
502.72	489.17
502.90	330.02
503.07	454.06
503.25	414.27
503.43	444.70
503.60	430.66
503.78	458.74
503.95	411.93
504.13	407.25
504.30	423.64
504.48	421.30
504.65	444.70
504.83	416.62
505.01	388.53
505.18	395.55
505.36	447.04
505.53	348.74
505.71	386.19
505.88	416.62
506.06	435.34
506.23	477.47
506.41	425.98
506.58	411.93
506.76	402.57
506.93	486.83
507.11	433.00
507.28	379.17
507.46	355.76
507.63	362.78
507.81	386.19
507.98	379.17
508.16	400.23
508.33	337.04
508.50	470.45
508.68	402.57
508.85	402.57
509.03	430.66
509.20	447.04
509.38	416.62
509.55	386.19
509.73	486.83
509.90	374.49
510.08	484.49
510.25	468.11
510.42	451.72
510.60	400.23
510.77	421.30
510.95	498.53
511.12	465.77
511.30	334.70
511.47	477.47
511.64	404.91
511.82	379.17
511.99	430.66
512.17	477.47
512.34	369.80
512.51	484.49
512.69	348.74
512.86	407.25
513.04	395.55
513.21	447.04
513.38	379.17
513.56	416.62
513.73	397.89
513.90	418.96
514.08	395.55
514.25	447.04
514.43	468.11
514.60	402.57
514.77	411.93
514.95	402.57
515.12	386.19
515.29	376.83
515.47	372.15
515.64	433.00
515.81	383.85
515.99	362.78
516.16	407.25
516.33	463.43
516.51	463.43
516.68	425.98
516.85	423.64
517.03	358.10
517.20	444.70
517.37	374.49
517.54	430.66
517.72	355.76
517.89	407.25
518.06	425.98
518.24	479.81
518.41	411.93
518.58	393.21
518.75	393.21
518.93	421.30
519.10	479.81
519.27	411.93
519.45	374.49
519.62	437.68
519.79	442.36
519.96	372.15
520.14	454.06
520.31	458.74
520.48	409.59
520.65	503.22
520.83	348.74
521.00	477.47
521.17	425.98
521.34	418.96
521.52	365.12
521.69	458.74
521.86	425.98
522.03	374.49
522.20	463.43
522.38	402.57
522.55	337.04
522.72	376.83
522.89	437.68
523.07	489.17
523.24	458.74
523.41	402.57
523.58	409.59
523.75	395.55
523.92	418.96
524.10	425.98
524.27	414.27
524.44	344.06
524.61	447.04
524.78	390.87
524.96	475.13
525.13	440.02
525.30	437.68
525.47	440.02
525.64	411.93
525.81	433.00
525.98	451.72
526.16	418.96
526.33	414.27
526.50	400.23
526.67	393.21
526.84	367.46
527.01	381.51
527.18	437.68
527.36	358.10
527.53	390.87
527.70	409.59
527.87	416.62
528.04	493.85
528.21	397.89
528.38	393.21
528.55	430.66
528.72	503.22
528.89	493.85
529.07	365.12
529.24	430.66
529.41	416.62
529.58	383.85
529.75	482.15
529.92	381.51
530.09	400.23
530.26	402.57
530.43	458.74
530.60	458.74
530.77	435.34
530.94	437.68
531.11	465.77
531.28	440.02
531.46	404.91
531.63	416.62
531.80	444.70
531.97	437.68
532.14	393.21
532.31	477.47
532.48	447.04
532.65	409.59
532.82	374.49
532.99	395.55
533.16	425.98
533.33	395.55
533.50	393.21
533.67	393.21
533.84	472.79
534.01	465.77
534.18	404.91
534.35	395.55
534.52	376.83
534.69	407.25
534.86	416.62
535.03	327.68
535.20	442.36
535.37	444.70
535.54	355.76
535.71	437.68
535.88	484.49
536.05	500.87
536.22	374.49
536.38	423.64
536.55	442.36
536.72	433.00
536.89	491.51
537.06	411.93
537.23	390.87
537.40	393.21
537.57	402.57
537.74	449.38
537.91	465.77
538.08	379.17
538.25	376.83
538.42	400.23
538.59	395.55
538.75	421.30
538.92	493.85
539.09	510.24
539.26	367.46
539.43	491.51
539.60	372.15
539.77	411.93
539.94	409.59
540.11	444.70
540.28	407.25
540.44	379.17
540.61	409.59
540.78	332.36
540.95	472.79
541.12	435.34
541.29	390.87
541.46	423.64
541.62	456.40
541.79	447.04
541.96	360.44
542.13	395.55
542.30	458.74
542.47	477.47
542.63	393.21
542.80	447.04
542.97	404.91
543.14	376.83
543.31	468.11
543.48	430.66
543.64	411.93
543.81	393.21
543.98	414.27
544.15	346.40
544.32	470.45
544.48	433.00
544.65	437.68
544.82	416.62
544.99	435.34
545.16	416.62
545.32	407.25
545.49	496.19
545.66	322.99
545.83	369.80
546.00	372.15
546.16	365.12
546.33	407.25
546.50	437.68
546.67	404.91
546.83	395.55
547.00	374.49
547.17	442.36
547.34	414.27
547.50	402.57
547.67	362.78
547.84	409.59
548.00	442.36
548.17	376.83
548.34	383.85
548.51	435.34
548.67	447.04
548.84	418.96
549.01	458.74
549.18	416.62
549.34	423.64
549.51	449.38
549.68	407.25
549.84	458.74
550.01	325.33
550.18	421.30
550.34	433.00
550.51	421.30
550.68	449.38
550.84	411.93
551.01	393.21
551.18	430.66
551.34	416.62
551.51	472.79
551.68	482.15
551.84	407.25
552.01	484.49
552.18	454.06
552.34	407.25
552.51	442.36
552.68	409.59
552.84	353.42
553.01	442.36
553.18	416.62
553.34	390.87
553.51	428.32
553.67	400.23
553.84	381.51
554.01	416.62
554.17	477.47
554.34	346.40
554.51	416.62
554.67	451.72
554.84	409.59
555.00	402.57
555.17	411.93
555.33	425.98
555.50	468.11
555.67	503.22
555.83	447.04
556.00	454.06
556.16	557.05
556.33	416.62
556.50	404.91
556.66	402.57
556.83	425.98
556.99	416.62
557.16	454.06
557.32	395.55
557.49	402.57
557.65	411.93
557.82	388.53
557.98	435.34
558.15	351.08
558.32	451.72
558.48	444.70
558.65	461.09
558.81	461.09
558.98	390.87
559.14	348.74
559.31	376.83
559.47	477.47
559.64	421.30
559.80	414.27
559.97	397.89
560.13	393.21
560.30	369.80
560.46	339.38
560.63	383.85
560.79	428.32
560.96	451.72
561.12	355.76
561.29	407.25
561.45	388.53
561.61	381.51
561.78	472.79
561.94	362.78
562.11	369.80
562.27	425.98
562.44	418.96
562.60	425.98
562.77	463.43
562.93	496.19
563.10	386.19
563.26	433.00
563.42	444.70
563.59	369.80
563.75	353.42
563.92	498.53
564.08	482.15
564.24	433.00
564.41	411.93
564.57	423.64
564.74	454.06
564.90	437.68
565.07	423.64
565.23	428.32
565.39	449.38
565.56	456.40
565.72	458.74
565.88	416.62
566.05	393.21
566.21	418.96
566.38	423.64
566.54	442.36
566.70	447.04
566.87	409.59
567.03	433.00
567.19	444.70
567.36	440.02
567.52	397.89
567.68	486.83
567.85	414.27
568.01	372.15
568.17	360.44
568.34	381.51
568.50	477.47
568.66	374.49
568.83	496.19
568.99	393.21
569.15	557.05
569.32	512.58
569.48	404.91
569.64	402.57
569.81	348.74
569.97	376.83
570.13	418.96
570.30	470.45
570.46	409.59
570.62	404.91
570.78	404.91
570.95	379.17
571.11	418.96
571.27	456.40
571.43	440.02
571.60	404.91
571.76	418.96
571.92	428.32
572.09	428.32
572.25	435.34
572.41	400.23
572.57	437.68
572.74	437.68
572.90	381.51
573.06	449.38
573.22	435.34
573.38	421.30
573.55	505.56
573.71	425.98
573.87	484.49
574.03	367.46
574.20	379.17
574.36	486.83
574.52	355.76
574.68	388.53
574.84	411.93
575.01	444.70
575.17	395.55
575.33	477.47
575.49	428.32
575.65	433.00
575.82	440.02
575.98	477.47
576.14	418.96
576.30	379.17
576.46	461.09
576.62	386.19
576.79	472.79
576.95	472.79
577.11	468.11
577.27	416.62
577.43	498.53
577.59	461.09
577.75	400.23
577.92	411.93
578.08	414.27
578.24	402.57
578.40	442.36
578.56	493.85
578.72	505.56
578.88	484.49
579.04	451.72
579.21	400.23
579.37	393.21
579.53	444.70
579.69	383.85
579.85	470.45
580.01	404.91
580.17	475.13
580.33	372.15
580.49	411.93
580.65	381.51
580.82	369.80
580.98	437.68
581.14	353.42
581.30	369.80
581.46	407.25
581.62	388.53
581.78	358.10
581.94	440.02
582.10	365.12
582.26	491.51
582.42	465.77
582.58	440.02
582.74	414.27
582.90	423.64
583.06	421.30
583.22	517.26
583.38	447.04
583.54	447.04
583.70	491.51
583.86	472.79
584.02	395.55
584.18	433.00
584.34	433.00
584.50	442.36
584.66	379.17
584.82	461.09
584.98	435.34
585.14	397.89
585.30	440.02
585.46	376.83
585.62	369.80
585.78	425.98
585.94	440.02
586.10	400.23
586.26	383.85
586.42	430.66
586.58	418.96
586.74	386.19
586.90	451.72
587.06	440.02
587.22	390.87
587.38	430.66
587.54	404.91
587.70	402.57
587.86	411.93
588.02	437.68
588.18	442.36
588.34	393.21
588.49	454.06
588.65	517.26
588.81	437.68
588.97	425.98
589.13	482.15
589.29	468.11
589.45	400.23
589.61	475.13
589.77	411.93
589.93	414.27
590.08	433.00
590.24	444.70
590.40	463.43
590.56	374.49
590.72	454.06
590.88	402.57
591.04	386.19
591.20	463.43
591.35	430.66
591.51	332.36
591.67	447.04
591.83	458.74
591.99	383.85
592.15	440.02
592.31	355.76
592.46	414.27
592.62	409.59
592.78	404.91
592.94	411.93
593.10	475.13
593.26	409.59
593.41	407.25
593.57	407.25
593.73	433.00
593.89	489.17
594.05	395.55
594.20	451.72
594.36	411.93
594.52	505.56
594.68	463.43
594.84	423.64
594.99	552.37
595.15	423.64
595.31	379.17
595.47	451.72
595.62	444.70
595.78	447.04
595.94	425.98
596.10	435.34
596.25	386.19
596.41	379.17
596.57	458.74
596.73	411.93
596.88	334.70
597.04	437.68
597.20	367.46
597.36	414.27
597.51	458.74
597.67	353.42
597.83	425.98
597.99	400.23
598.14	435.34
598.30	355.76
598.46	367.46
598.61	414.27
598.77	402.57
598.93	433.00
599.09	355.76
599.24	451.72
599.40	407.25
599.56	386.19
599.71	397.89
599.87	433.00
600.03	472.79
600.18	447.04
600.34	404.91
600.50	376.83
600.65	404.91
600.81	489.17
600.97	425.98
601.12	435.34
601.28	428.32
601.44	421.30
601.59	376.83
601.75	425.98
601.91	425.98
602.06	407.25
602.22	482.15
602.37	486.83
602.53	433.00
602.69	409.59
602.84	416.62
603.00	367.46
603.16	456.40
603.31	461.09
603.47	449.38
603.62	367.46
603.78	451.72
603.94	458.74
604.09	409.59
604.25	449.38
604.40	444.70
604.56	308.95
604.71	461.09
604.87	442.36
605.03	472.79
605.18	407.25
605.34	468.11
605.49	442.36
605.65	372.15
605.80	444.70
605.96	393.21
606.12	390.87
606.27	402.57
606.43	430.66
606.58	358.10
606.74	369.80
606.89	421.30
607.05	407.25
607.20	463.43
607.36	421.30
607.51	409.59
607.67	388.53
607.82	404.91
607.98	475.13
608.13	458.74
608.29	400.23
608.44	456.40
608.60	397.89
608.75	512.58
608.91	489.17
609.06	390.87
609.22	449.38
609.37	388.53
609.53	425.98
609.68	454.06
609.84	400.23
609.99	451.72
610.15	395.55
