SpectraSuite Data File
++++++++++++++++++++++++++++++++++++
Date: Fri Oct 25 12:11:08 EDT 2013
User: price-jones
Dark Spectrum Present: No
Reference Spectrum Present: No
Number of Sampled Component Spectra: 1
Spectrometers: USB2+H05261
Integration Time (usec): 100000 (USB2+H05261)
Spectra Averaged: 1 (USB2+H05261)
Boxcar Smoothing: 0 (USB2+H05261)
Correct for Electrical Dark: No (USB2+H05261)
Strobe/Lamp Enabled: No (USB2+H05261)
Correct for Detector Non-linearity: No (USB2+H05261)
Correct for Stray Light: No (USB2+H05261)
Number of Pixels in Processed Spectrum: 2048
>>>>>Begin Processed Spectral Data<<<<<
365.73	315.97
365.92	315.97
366.12	315.97
366.32	297.25
366.52	243.42
366.72	283.20
366.91	245.76
367.11	264.48
367.31	133.41
367.51	241.08
367.70	203.63
367.90	217.67
368.10	266.82
368.30	243.42
368.49	187.24
368.69	269.16
368.89	308.95
369.09	276.18
369.28	215.33
369.48	318.31
369.68	262.14
369.87	339.38
370.07	212.99
370.27	327.68
370.47	348.74
370.66	437.68
370.86	414.27
371.06	437.68
371.25	440.02
371.45	374.49
371.65	409.59
371.84	369.80
372.04	388.53
372.24	397.89
372.44	362.78
372.63	458.74
372.83	407.25
373.03	449.38
373.22	358.10
373.42	430.66
373.62	411.93
373.81	451.72
374.01	470.45
374.21	423.64
374.40	367.46
374.60	416.62
374.79	430.66
374.99	442.36
375.19	428.32
375.38	374.49
375.58	461.09
375.78	503.22
375.97	535.98
376.17	498.53
376.37	402.57
376.56	416.62
376.76	383.85
376.95	416.62
377.15	498.53
377.35	409.59
377.54	449.38
377.74	465.77
377.93	395.55
378.13	435.34
378.33	395.55
378.52	423.64
378.72	428.32
378.91	381.51
379.11	447.04
379.31	423.64
379.50	379.17
379.70	418.96
379.89	390.87
380.09	447.04
380.28	379.17
380.48	407.25
380.68	332.36
380.87	334.70
381.07	407.25
381.26	421.30
381.46	372.15
381.65	423.64
381.85	475.13
382.04	383.85
382.24	386.19
382.43	440.02
382.63	440.02
382.83	360.44
383.02	428.32
383.22	433.00
383.41	383.85
383.61	367.46
383.80	344.06
384.00	407.25
384.19	458.74
384.39	421.30
384.58	353.42
384.78	379.17
384.97	409.59
385.17	362.78
385.36	367.46
385.56	433.00
385.75	341.72
385.95	337.04
386.14	414.27
386.34	337.04
386.53	353.42
386.72	383.85
386.92	440.02
387.11	386.19
387.31	367.46
387.50	404.91
387.70	402.57
387.89	367.46
388.09	367.46
388.28	440.02
388.48	433.00
388.67	376.83
388.86	287.89
389.06	423.64
389.25	465.77
389.45	418.96
389.64	339.38
389.84	414.27
390.03	388.53
390.22	383.85
390.42	402.57
390.61	451.72
390.81	400.23
391.00	402.57
391.19	440.02
391.39	386.19
391.58	456.40
391.78	411.93
391.97	454.06
392.16	437.68
392.36	423.64
392.55	425.98
392.75	397.89
392.94	418.96
393.13	395.55
393.33	472.79
393.52	374.49
393.71	397.89
393.91	390.87
394.10	351.08
394.29	360.44
394.49	411.93
394.68	428.32
394.88	390.87
395.07	433.00
395.26	421.30
395.46	397.89
395.65	425.98
395.84	437.68
396.04	503.22
396.23	416.62
396.42	418.96
396.62	491.51
396.81	409.59
397.00	348.74
397.19	393.21
397.39	353.42
397.58	423.64
397.77	383.85
397.97	418.96
398.16	421.30
398.35	428.32
398.55	390.87
398.74	458.74
398.93	440.02
399.12	411.93
399.32	437.68
399.51	435.34
399.70	430.66
399.90	402.57
400.09	433.00
400.28	451.72
400.47	395.55
400.67	390.87
400.86	411.93
401.05	369.80
401.24	449.38
401.44	416.62
401.63	388.53
401.82	376.83
402.01	400.23
402.21	369.80
402.40	374.49
402.59	407.25
402.78	416.62
402.97	454.06
403.17	531.30
403.36	428.32
403.55	355.76
403.74	479.81
403.93	381.51
404.13	484.49
404.32	367.46
404.51	397.89
404.70	409.59
404.89	437.68
405.09	482.15
405.28	402.57
405.47	360.44
405.66	475.13
405.85	367.46
406.05	503.22
406.24	400.23
406.43	374.49
406.62	447.04
406.81	442.36
407.00	383.85
407.20	376.83
407.39	416.62
407.58	416.62
407.77	381.51
407.96	411.93
408.15	470.45
408.34	468.11
408.54	381.51
408.73	437.68
408.92	465.77
409.11	463.43
409.30	442.36
409.49	430.66
409.68	402.57
409.87	482.15
410.07	414.27
410.26	414.27
410.45	433.00
410.64	411.93
410.83	390.87
411.02	491.51
411.21	428.32
411.40	421.30
411.59	386.19
411.78	360.44
411.98	418.96
412.17	449.38
412.36	395.55
412.55	327.68
412.74	428.32
412.93	486.83
413.12	414.27
413.31	386.19
413.50	454.06
413.69	388.53
413.88	479.81
414.07	393.21
414.26	379.17
414.45	395.55
414.64	437.68
414.83	416.62
415.02	397.89
415.22	358.10
415.41	491.51
415.60	388.53
415.79	381.51
415.98	404.91
416.17	449.38
416.36	461.09
416.55	402.57
416.74	440.02
416.93	458.74
417.12	418.96
417.31	425.98
417.50	348.74
417.69	435.34
417.88	416.62
418.07	362.78
418.26	440.02
418.45	428.32
418.64	458.74
418.83	397.89
419.02	390.87
419.21	411.93
419.39	414.27
419.58	433.00
419.77	456.40
419.96	430.66
420.15	465.77
420.34	449.38
420.53	423.64
420.72	491.51
420.91	444.70
421.10	358.10
421.29	369.80
421.48	400.23
421.67	383.85
421.86	423.64
422.05	416.62
422.24	404.91
422.43	393.21
422.61	339.38
422.80	383.85
422.99	400.23
423.18	344.06
423.37	435.34
423.56	440.02
423.75	444.70
423.94	409.59
424.13	407.25
424.32	372.15
424.50	428.32
424.69	346.40
424.88	376.83
425.07	447.04
425.26	409.59
425.45	395.55
425.64	414.27
425.83	409.59
426.01	402.57
426.20	383.85
426.39	414.27
426.58	390.87
426.77	407.25
426.96	482.15
427.15	428.32
427.33	416.62
427.52	400.23
427.71	414.27
427.90	393.21
428.09	465.77
428.28	325.33
428.46	395.55
428.65	430.66
428.84	428.32
429.03	435.34
429.22	355.76
429.40	369.80
429.59	423.64
429.78	510.24
429.97	498.53
430.16	337.04
430.34	386.19
430.53	381.51
430.72	428.32
430.91	435.34
431.10	425.98
431.28	463.43
431.47	381.51
431.66	468.11
431.85	395.55
432.03	440.02
432.22	456.40
432.41	400.23
432.60	437.68
432.79	388.53
432.97	486.83
433.16	479.81
433.35	425.98
433.54	372.15
433.72	351.08
433.91	435.34
434.10	470.45
434.28	454.06
434.47	461.09
434.66	404.91
434.85	414.27
435.03	379.17
435.22	435.34
435.41	486.83
435.59	433.00
435.78	411.93
435.97	341.72
436.16	449.38
436.34	393.21
436.53	411.93
436.72	416.62
436.90	393.21
437.09	437.68
437.28	353.42
437.46	503.22
437.65	421.30
437.84	383.85
438.02	407.25
438.21	418.96
438.40	395.55
438.58	449.38
438.77	388.53
438.96	390.87
439.14	362.78
439.33	425.98
439.52	491.51
439.70	409.59
439.89	365.12
440.08	449.38
440.26	447.04
440.45	358.10
440.63	433.00
440.82	428.32
441.01	454.06
441.19	437.68
441.38	386.19
441.57	442.36
441.75	477.47
441.94	395.55
442.12	411.93
442.31	440.02
442.50	512.58
442.68	379.17
442.87	447.04
443.05	400.23
443.24	435.34
443.43	463.43
443.61	409.59
443.80	465.77
443.98	414.27
444.17	334.70
444.35	423.64
444.54	421.30
444.73	402.57
444.91	388.53
445.10	360.44
445.28	440.02
445.47	423.64
445.65	421.30
445.84	435.34
446.02	383.85
446.21	397.89
446.39	533.64
446.58	444.70
446.77	411.93
446.95	449.38
447.14	393.21
447.32	414.27
447.51	449.38
447.69	404.91
447.88	365.12
448.06	442.36
448.25	454.06
448.43	379.17
448.62	400.23
448.80	407.25
448.99	477.47
449.17	409.59
449.36	442.36
449.54	444.70
449.73	379.17
449.91	430.66
450.10	369.80
450.28	517.26
450.46	414.27
450.65	386.19
450.83	379.17
451.02	358.10
451.20	374.49
451.39	395.55
451.57	397.89
451.76	376.83
451.94	458.74
452.13	458.74
452.31	414.27
452.49	416.62
452.68	367.46
452.86	456.40
453.05	451.72
453.23	463.43
453.42	376.83
453.60	454.06
453.78	404.91
453.97	411.93
454.15	365.12
454.34	416.62
454.52	402.57
454.70	496.19
454.89	425.98
455.07	358.10
455.26	416.62
455.44	402.57
455.62	425.98
455.81	376.83
455.99	411.93
456.17	337.04
456.36	369.80
456.54	430.66
456.73	472.79
456.91	360.44
457.09	414.27
457.28	444.70
457.46	440.02
457.64	456.40
457.83	386.19
458.01	351.08
458.19	440.02
458.38	449.38
458.56	416.62
458.74	423.64
458.93	461.09
459.11	355.76
459.29	400.23
459.48	388.53
459.66	379.17
459.84	404.91
460.03	454.06
460.21	456.40
460.39	393.21
460.57	418.96
460.76	365.12
460.94	404.91
461.12	477.47
461.31	437.68
461.49	430.66
461.67	400.23
461.85	512.58
462.04	411.93
462.22	739.61
462.40	386.19
462.59	461.09
462.77	397.89
462.95	390.87
463.13	404.91
463.32	484.49
463.50	407.25
463.68	416.62
463.86	463.43
464.05	430.66
464.23	503.22
464.41	437.68
464.59	365.12
464.78	404.91
464.96	383.85
465.14	409.59
465.32	416.62
465.50	433.00
465.69	486.83
465.87	437.68
466.05	437.68
466.23	337.04
466.41	449.38
466.60	351.08
466.78	449.38
466.96	458.74
467.14	386.19
467.32	414.27
467.51	484.49
467.69	440.02
467.87	472.79
468.05	411.93
468.23	444.70
468.41	430.66
468.60	416.62
468.78	416.62
468.96	447.04
469.14	402.57
469.32	339.38
469.50	362.78
469.69	390.87
469.87	404.91
470.05	444.70
470.23	407.25
470.41	381.51
470.59	411.93
470.77	447.04
470.95	344.06
471.14	435.34
471.32	428.32
471.50	442.36
471.68	409.59
471.86	395.55
472.04	400.23
472.22	433.00
472.40	435.34
472.58	425.98
472.77	341.72
472.95	454.06
473.13	498.53
473.31	430.66
473.49	456.40
473.67	388.53
473.85	409.59
474.03	402.57
474.21	402.57
474.39	442.36
474.57	454.06
474.75	433.00
474.93	433.00
475.12	402.57
475.30	477.47
475.48	407.25
475.66	416.62
475.84	369.80
476.02	416.62
476.20	402.57
476.38	388.53
476.56	430.66
476.74	493.85
476.92	461.09
477.10	411.93
477.28	444.70
477.46	449.38
477.64	463.43
477.82	411.93
478.00	393.21
478.18	395.55
478.36	362.78
478.54	379.17
478.72	383.85
478.90	472.79
479.08	395.55
479.26	388.53
479.44	386.19
479.62	437.68
479.80	348.74
479.98	390.87
480.16	472.79
480.34	416.62
480.52	411.93
480.70	409.59
480.88	449.38
481.06	376.83
481.24	425.98
481.41	395.55
481.59	404.91
481.77	444.70
481.95	416.62
482.13	421.30
482.31	430.66
482.49	489.17
482.67	402.57
482.85	440.02
483.03	395.55
483.21	376.83
483.39	449.38
483.57	362.78
483.74	470.45
483.92	468.11
484.10	444.70
484.28	411.93
484.46	418.96
484.64	383.85
484.82	411.93
485.00	376.83
485.18	374.49
485.35	369.80
485.53	351.08
485.71	411.93
485.89	404.91
486.07	463.43
486.25	507.90
486.43	477.47
486.61	374.49
486.78	472.79
486.96	416.62
487.14	402.57
487.32	444.70
487.50	393.21
487.68	503.22
487.85	440.02
488.03	430.66
488.21	437.68
488.39	395.55
488.57	388.53
488.75	454.06
488.92	442.36
489.10	397.89
489.28	472.79
489.46	402.57
489.64	414.27
489.81	433.00
489.99	416.62
490.17	430.66
490.35	404.91
490.53	376.83
490.70	386.19
490.88	461.09
491.06	461.09
491.24	470.45
491.41	496.19
491.59	526.62
491.77	393.21
491.95	351.08
492.13	407.25
492.30	372.15
492.48	397.89
492.66	414.27
492.84	390.87
493.01	383.85
493.19	425.98
493.37	444.70
493.54	435.34
493.72	437.68
493.90	390.87
494.08	428.32
494.25	437.68
494.43	416.62
494.61	365.12
494.79	414.27
494.96	416.62
495.14	442.36
495.32	376.83
495.49	416.62
495.67	463.43
495.85	388.53
496.02	442.36
496.20	428.32
496.38	456.40
496.55	425.98
496.73	397.89
496.91	425.98
497.09	397.89
497.26	397.89
497.44	472.79
497.62	440.02
497.79	395.55
497.97	423.64
498.14	428.32
498.32	430.66
498.50	395.55
498.67	414.27
498.85	416.62
499.03	404.91
499.20	390.87
499.38	491.51
499.56	411.93
499.73	416.62
499.91	451.72
500.08	402.57
500.26	383.85
500.44	461.09
500.61	367.46
500.79	386.19
500.97	430.66
501.14	479.81
501.32	442.36
501.49	461.09
501.67	372.15
501.84	404.91
502.02	362.78
502.20	484.49
502.37	468.11
502.55	414.27
502.72	428.32
502.90	421.30
503.07	327.68
503.25	381.51
503.43	332.36
503.60	472.79
503.78	444.70
503.95	421.30
504.13	418.96
504.30	430.66
504.48	456.40
504.65	421.30
504.83	402.57
505.01	472.79
505.18	458.74
505.36	458.74
505.53	433.00
505.71	388.53
505.88	400.23
506.06	423.64
506.23	440.02
506.41	433.00
506.58	437.68
506.76	524.28
506.93	367.46
507.11	425.98
507.28	442.36
507.46	407.25
507.63	397.89
507.81	383.85
507.98	414.27
508.16	447.04
508.33	367.46
508.50	435.34
508.68	425.98
508.85	437.68
509.03	332.36
509.20	421.30
509.38	458.74
509.55	442.36
509.73	430.66
509.90	442.36
510.08	463.43
510.25	489.17
510.42	397.89
510.60	388.53
510.77	430.66
510.95	458.74
511.12	414.27
511.30	416.62
511.47	440.02
511.64	442.36
511.82	374.49
511.99	475.13
512.17	526.62
512.34	463.43
512.51	379.17
512.69	397.89
512.86	383.85
513.04	444.70
513.21	435.34
513.38	365.12
513.56	402.57
513.73	451.72
513.90	447.04
514.08	390.87
514.25	400.23
514.43	425.98
514.60	416.62
514.77	409.59
514.95	397.89
515.12	397.89
515.29	447.04
515.47	418.96
515.64	437.68
515.81	362.78
515.99	447.04
516.16	376.83
516.33	423.64
516.51	437.68
516.68	454.06
516.85	447.04
517.03	442.36
517.20	470.45
517.37	383.85
517.54	444.70
517.72	318.31
517.89	404.91
518.06	418.96
518.24	477.47
518.41	447.04
518.58	351.08
518.75	435.34
518.93	395.55
519.10	418.96
519.27	355.76
519.45	449.38
519.62	379.17
519.79	416.62
519.96	372.15
520.14	388.53
520.31	423.64
520.48	437.68
520.65	437.68
520.83	425.98
521.00	388.53
521.17	383.85
521.34	421.30
521.52	444.70
521.69	433.00
521.86	367.46
522.03	451.72
522.20	447.04
522.38	470.45
522.55	397.89
522.72	388.53
522.89	430.66
523.07	461.09
523.24	435.34
523.41	421.30
523.58	428.32
523.75	402.57
523.92	430.66
524.10	362.78
524.27	379.17
524.44	402.57
524.61	395.55
524.78	367.46
524.96	421.30
525.13	435.34
525.30	421.30
525.47	404.91
525.64	425.98
525.81	442.36
525.98	458.74
526.16	397.89
526.33	402.57
526.50	465.77
526.67	414.27
526.84	374.49
527.01	444.70
527.18	458.74
527.36	468.11
527.53	447.04
527.70	400.23
527.87	400.23
528.04	435.34
528.21	407.25
528.38	435.34
528.55	489.17
528.72	482.15
528.89	458.74
529.07	390.87
529.24	484.49
529.41	479.81
529.58	397.89
529.75	430.66
529.92	393.21
530.09	404.91
530.26	360.44
530.43	440.02
530.60	367.46
530.77	423.64
530.94	496.19
531.11	456.40
531.28	397.89
531.46	402.57
531.63	418.96
531.80	456.40
531.97	430.66
532.14	416.62
532.31	407.25
532.48	411.93
532.65	449.38
532.82	456.40
532.99	500.87
533.16	447.04
533.33	379.17
533.50	418.96
533.67	463.43
533.84	386.19
534.01	423.64
534.18	477.47
534.35	383.85
534.52	402.57
534.69	409.59
534.86	430.66
535.03	435.34
535.20	379.17
535.37	454.06
535.54	514.92
535.71	496.19
535.88	463.43
536.05	416.62
536.22	409.59
536.38	437.68
536.55	461.09
536.72	425.98
536.89	381.51
537.06	388.53
537.23	505.56
537.40	395.55
537.57	423.64
537.74	498.53
537.91	430.66
538.08	407.25
538.25	376.83
538.42	379.17
538.59	395.55
538.75	451.72
538.92	376.83
539.09	461.09
539.26	393.21
539.43	437.68
539.60	425.98
539.77	430.66
539.94	414.27
540.11	379.17
540.28	517.26
540.44	442.36
540.61	397.89
540.78	451.72
540.95	414.27
541.12	447.04
541.29	388.53
541.46	470.45
541.62	454.06
541.79	442.36
541.96	383.85
542.13	447.04
542.30	428.32
542.47	409.59
542.63	442.36
542.80	447.04
542.97	400.23
543.14	475.13
543.31	409.59
543.48	404.91
543.64	376.83
543.81	365.12
543.98	402.57
544.15	421.30
544.32	461.09
544.48	388.53
544.65	416.62
544.82	365.12
544.99	442.36
545.16	435.34
545.32	365.12
545.49	404.91
545.66	388.53
545.83	390.87
546.00	418.96
546.16	397.89
546.33	461.09
546.50	379.17
546.67	454.06
546.83	381.51
547.00	397.89
547.17	470.45
547.34	479.81
547.50	433.00
547.67	390.87
547.84	388.53
548.00	430.66
548.17	386.19
548.34	421.30
548.51	430.66
548.67	430.66
548.84	351.08
549.01	393.21
549.18	416.62
549.34	381.51
549.51	482.15
549.68	379.17
549.84	407.25
550.01	379.17
550.18	479.81
550.34	475.13
550.51	447.04
550.68	416.62
550.84	468.11
551.01	437.68
551.18	470.45
551.34	470.45
551.51	421.30
551.68	425.98
551.84	444.70
552.01	526.62
552.18	423.64
552.34	475.13
552.51	400.23
552.68	395.55
552.84	414.27
553.01	437.68
553.18	451.72
553.34	388.53
553.51	430.66
553.67	386.19
553.84	484.49
554.01	433.00
554.17	442.36
554.34	395.55
554.51	411.93
554.67	360.44
554.84	477.47
555.00	404.91
555.17	430.66
555.33	353.42
555.50	440.02
555.67	470.45
555.83	433.00
556.00	393.21
556.16	561.73
556.33	465.77
556.50	379.17
556.66	395.55
556.83	360.44
556.99	442.36
557.16	381.51
557.32	407.25
557.49	404.91
557.65	444.70
557.82	430.66
557.98	430.66
558.15	449.38
558.32	451.72
558.48	407.25
558.65	458.74
558.81	482.15
558.98	421.30
559.14	456.40
559.31	414.27
559.47	397.89
559.64	416.62
559.80	451.72
559.97	458.74
560.13	383.85
560.30	407.25
560.46	383.85
560.63	379.17
560.79	451.72
560.96	388.53
561.12	449.38
561.29	437.68
561.45	496.19
561.61	376.83
561.78	571.09
561.94	423.64
562.11	383.85
562.27	395.55
562.44	430.66
562.60	411.93
562.77	463.43
562.93	423.64
563.10	365.12
563.26	479.81
563.42	440.02
563.59	454.06
563.75	461.09
563.92	463.43
564.08	400.23
564.24	407.25
564.41	531.30
564.57	463.43
564.74	409.59
564.90	402.57
565.07	444.70
565.23	404.91
565.39	435.34
565.56	402.57
565.72	355.76
565.88	430.66
566.05	355.76
566.21	360.44
566.38	428.32
566.54	407.25
566.70	397.89
566.87	397.89
567.03	334.70
567.19	418.96
567.36	475.13
567.52	372.15
567.68	543.00
567.85	425.98
568.01	397.89
568.17	440.02
568.34	409.59
568.50	395.55
568.66	388.53
568.83	475.13
568.99	360.44
569.15	444.70
569.32	397.89
569.48	409.59
569.64	379.17
569.81	418.96
569.97	390.87
570.13	465.77
570.30	367.46
570.46	388.53
570.62	402.57
570.78	362.78
570.95	465.77
571.11	479.81
571.27	514.92
571.43	400.23
571.60	442.36
571.76	367.46
571.92	407.25
572.09	397.89
572.25	423.64
572.41	400.23
572.57	451.72
572.74	433.00
572.90	489.17
573.06	430.66
573.22	421.30
573.38	482.15
573.55	507.90
573.71	444.70
573.87	379.17
574.03	341.72
574.20	372.15
574.36	479.81
574.52	372.15
574.68	407.25
574.84	451.72
575.01	484.49
575.17	397.89
575.33	390.87
575.49	475.13
575.65	477.47
575.82	519.60
575.98	423.64
576.14	376.83
576.30	374.49
576.46	411.93
576.62	411.93
576.79	437.68
576.95	425.98
577.11	437.68
577.27	407.25
577.43	479.81
577.59	423.64
577.75	402.57
577.92	404.91
578.08	414.27
578.24	425.98
578.40	430.66
578.56	470.45
578.72	498.53
578.88	435.34
579.04	425.98
579.21	414.27
579.37	379.17
579.53	351.08
579.69	379.17
579.85	376.83
580.01	472.79
580.17	393.21
580.33	390.87
580.49	374.49
580.65	428.32
580.82	451.72
580.98	374.49
581.14	339.38
581.30	470.45
581.46	447.04
581.62	456.40
581.78	374.49
581.94	416.62
582.10	461.09
582.26	418.96
582.42	418.96
582.58	447.04
582.74	397.89
582.90	397.89
583.06	428.32
583.22	393.21
583.38	430.66
583.54	454.06
583.70	489.17
583.86	355.76
584.02	351.08
584.18	498.53
584.34	404.91
584.50	451.72
584.66	407.25
584.82	390.87
584.98	372.15
585.14	433.00
585.30	435.34
585.46	341.72
585.62	402.57
585.78	372.15
585.94	484.49
586.10	423.64
586.26	400.23
586.42	468.11
586.58	386.19
586.74	512.58
586.90	409.59
587.06	409.59
587.22	367.46
587.38	442.36
587.54	330.02
587.70	388.53
587.86	484.49
588.02	456.40
588.18	433.00
588.34	463.43
588.49	477.47
588.65	404.91
588.81	390.87
588.97	416.62
589.13	454.06
589.29	435.34
589.45	456.40
589.61	454.06
589.77	433.00
589.93	379.17
590.08	435.34
590.24	454.06
590.40	456.40
590.56	435.34
590.72	458.74
590.88	421.30
591.04	397.89
591.20	418.96
591.35	433.00
591.51	465.77
591.67	383.85
591.83	423.64
591.99	435.34
592.15	388.53
592.31	454.06
592.46	404.91
592.62	397.89
592.78	444.70
592.94	362.78
593.10	374.49
593.26	400.23
593.41	482.15
593.57	400.23
593.73	430.66
593.89	451.72
594.05	425.98
594.20	353.42
594.36	493.85
594.52	428.32
594.68	397.89
594.84	430.66
594.99	447.04
595.15	421.30
595.31	430.66
595.47	395.55
595.62	479.81
595.78	348.74
595.94	425.98
596.10	421.30
596.25	383.85
596.41	428.32
596.57	442.36
596.73	374.49
596.88	440.02
597.04	383.85
597.20	430.66
597.36	381.51
597.51	400.23
597.67	433.00
597.83	435.34
597.99	409.59
598.14	376.83
598.30	475.13
598.46	458.74
598.61	421.30
598.77	416.62
598.93	400.23
599.09	393.21
599.24	440.02
599.40	503.22
599.56	379.17
599.71	491.51
599.87	402.57
600.03	404.91
600.18	393.21
600.34	414.27
600.50	430.66
600.65	447.04
600.81	458.74
600.97	430.66
601.12	430.66
601.28	496.19
601.44	461.09
601.59	397.89
601.75	409.59
601.91	407.25
602.06	437.68
602.22	468.11
602.37	461.09
602.53	407.25
602.69	416.62
602.84	414.27
603.00	407.25
603.16	390.87
603.31	376.83
603.47	463.43
603.62	407.25
603.78	425.98
603.94	418.96
604.09	468.11
604.25	372.15
604.40	365.12
604.56	395.55
604.71	388.53
604.87	344.06
605.03	458.74
605.18	435.34
605.34	416.62
605.49	451.72
605.65	451.72
605.80	416.62
605.96	461.09
606.12	437.68
606.27	472.79
606.43	416.62
606.58	477.47
606.74	461.09
606.89	454.06
607.05	423.64
607.20	437.68
607.36	472.79
607.51	301.93
607.67	376.83
607.82	430.66
607.98	421.30
608.13	489.17
608.29	425.98
608.44	428.32
608.60	416.62
608.75	461.09
608.91	461.09
609.06	454.06
609.22	393.21
609.37	430.66
609.53	442.36
609.68	470.45
609.84	437.68
609.99	414.27
610.15	414.27
