SpectraSuite Data File
++++++++++++++++++++++++++++++++++++
Date: Fri Oct 25 12:11:35 EDT 2013
User: price-jones
Dark Spectrum Present: No
Reference Spectrum Present: No
Number of Sampled Component Spectra: 1
Spectrometers: USB2+H05261
Integration Time (usec): 100000 (USB2+H05261)
Spectra Averaged: 1 (USB2+H05261)
Boxcar Smoothing: 0 (USB2+H05261)
Correct for Electrical Dark: No (USB2+H05261)
Strobe/Lamp Enabled: No (USB2+H05261)
Correct for Detector Non-linearity: No (USB2+H05261)
Correct for Stray Light: No (USB2+H05261)
Number of Pixels in Processed Spectrum: 2048
>>>>>Begin Processed Spectral Data<<<<<
365.73	304.27
365.92	304.27
366.12	304.27
366.32	222.35
366.52	290.23
366.72	264.48
366.91	191.92
367.11	257.46
367.31	266.82
367.51	191.92
367.70	273.84
367.90	248.10
368.10	236.39
368.30	271.50
368.49	269.16
368.69	318.31
368.89	264.48
369.09	266.82
369.28	255.12
369.48	234.05
369.68	285.55
369.87	278.52
370.07	276.18
370.27	365.12
370.47	362.78
370.66	325.33
370.86	362.78
371.06	456.40
371.25	402.57
371.45	400.23
371.65	346.40
371.84	362.78
372.04	414.27
372.24	402.57
372.44	376.83
372.63	379.17
372.83	451.72
373.03	421.30
373.22	390.87
373.42	456.40
373.62	414.27
373.81	379.17
374.01	493.85
374.21	388.53
374.40	404.91
374.60	411.93
374.79	379.17
374.99	386.19
375.19	393.21
375.38	484.49
375.58	334.70
375.78	449.38
375.97	418.96
376.17	479.81
376.37	369.80
376.56	409.59
376.76	414.27
376.95	400.23
377.15	433.00
377.35	463.43
377.54	461.09
377.74	418.96
377.93	397.89
378.13	383.85
378.33	386.19
378.52	421.30
378.72	404.91
378.91	416.62
379.11	386.19
379.31	358.10
379.50	381.51
379.70	440.02
379.89	482.15
380.09	320.65
380.28	379.17
380.48	334.70
380.68	383.85
380.87	353.42
381.07	374.49
381.26	507.90
381.46	362.78
381.65	421.30
381.85	365.12
382.04	407.25
382.24	365.12
382.43	372.15
382.63	341.72
382.83	407.25
383.02	369.80
383.22	346.40
383.41	365.12
383.61	374.49
383.80	390.87
384.00	407.25
384.19	418.96
384.39	425.98
384.58	449.38
384.78	430.66
384.97	409.59
385.17	414.27
385.36	374.49
385.56	449.38
385.75	376.83
385.95	449.38
386.14	351.08
386.34	397.89
386.53	400.23
386.72	386.19
386.92	416.62
387.11	358.10
387.31	458.74
387.50	437.68
387.70	423.64
387.89	407.25
388.09	386.19
388.28	358.10
388.48	444.70
388.67	409.59
388.86	351.08
389.06	381.51
389.25	395.55
389.45	402.57
389.64	395.55
389.84	461.09
390.03	400.23
390.22	388.53
390.42	477.47
390.61	416.62
390.81	468.11
391.00	369.80
391.19	362.78
391.39	468.11
391.58	414.27
391.78	402.57
391.97	411.93
392.16	388.53
392.36	400.23
392.55	407.25
392.75	437.68
392.94	381.51
393.13	393.21
393.33	346.40
393.52	374.49
393.71	341.72
393.91	400.23
394.10	404.91
394.29	325.33
394.49	341.72
394.68	337.04
394.88	376.83
395.07	451.72
395.26	330.02
395.46	393.21
395.65	409.59
395.84	451.72
396.04	510.24
396.23	440.02
396.42	395.55
396.62	416.62
396.81	433.00
397.00	400.23
397.19	458.74
397.39	470.45
397.58	444.70
397.77	416.62
397.97	369.80
398.16	435.34
398.35	395.55
398.55	397.89
398.74	425.98
398.93	397.89
399.12	397.89
399.32	449.38
399.51	374.49
399.70	388.53
399.90	425.98
400.09	369.80
400.28	397.89
400.47	416.62
400.67	437.68
400.86	353.42
401.05	418.96
401.24	383.85
401.44	397.89
401.63	428.32
401.82	395.55
402.01	449.38
402.21	388.53
402.40	407.25
402.59	383.85
402.78	407.25
402.97	383.85
403.17	334.70
403.36	442.36
403.55	456.40
403.74	418.96
403.93	395.55
404.13	430.66
404.32	458.74
404.51	428.32
404.70	416.62
404.89	449.38
405.09	416.62
405.28	351.08
405.47	339.38
405.66	416.62
405.85	468.11
406.05	461.09
406.24	475.13
406.43	421.30
406.62	428.32
406.81	482.15
407.00	475.13
407.20	379.17
407.39	421.30
407.58	390.87
407.77	437.68
407.96	397.89
408.15	407.25
408.34	486.83
408.54	437.68
408.73	458.74
408.92	454.06
409.11	358.10
409.30	376.83
409.49	393.21
409.68	393.21
409.87	400.23
410.07	414.27
410.26	390.87
410.45	360.44
410.64	393.21
410.83	397.89
411.02	346.40
411.21	351.08
411.40	409.59
411.59	369.80
411.78	395.55
411.98	327.68
412.17	376.83
412.36	365.12
412.55	381.51
412.74	402.57
412.93	416.62
413.12	355.76
413.31	458.74
413.50	381.51
413.69	395.55
413.88	390.87
414.07	374.49
414.26	430.66
414.45	341.72
414.64	447.04
414.83	428.32
415.02	402.57
415.22	402.57
415.41	456.40
415.60	425.98
415.79	383.85
415.98	428.32
416.17	400.23
416.36	430.66
416.55	470.45
416.74	411.93
416.93	393.21
417.12	386.19
417.31	407.25
417.50	404.91
417.69	475.13
417.88	433.00
418.07	397.89
418.26	447.04
418.45	376.83
418.64	390.87
418.83	381.51
419.02	411.93
419.21	374.49
419.39	414.27
419.58	430.66
419.77	367.46
419.96	360.44
420.15	514.92
420.34	425.98
420.53	393.21
420.72	456.40
420.91	395.55
421.10	372.15
421.29	379.17
421.48	400.23
421.67	451.72
421.86	365.12
422.05	351.08
422.24	430.66
422.43	416.62
422.61	421.30
422.80	489.17
422.99	341.72
423.18	362.78
423.37	449.38
423.56	381.51
423.75	395.55
423.94	402.57
424.13	428.32
424.32	402.57
424.50	388.53
424.69	351.08
424.88	449.38
425.07	416.62
425.26	491.51
425.45	409.59
425.64	390.87
425.83	360.44
426.01	395.55
426.20	442.36
426.39	442.36
426.58	458.74
426.77	451.72
426.96	404.91
427.15	470.45
427.33	386.19
427.52	381.51
427.71	397.89
427.90	430.66
428.09	400.23
428.28	318.31
428.46	374.49
428.65	402.57
428.84	383.85
429.03	395.55
429.22	435.34
429.40	440.02
429.59	402.57
429.78	369.80
429.97	442.36
430.16	414.27
430.34	437.68
430.53	388.53
430.72	397.89
430.91	428.32
431.10	402.57
431.28	407.25
431.47	463.43
431.66	484.49
431.85	421.30
432.03	376.83
432.22	449.38
432.41	468.11
432.60	456.40
432.79	397.89
432.97	379.17
433.16	397.89
433.35	425.98
433.54	322.99
433.72	362.78
433.91	447.04
434.10	388.53
434.28	449.38
434.47	383.85
434.66	425.98
434.85	489.17
435.03	451.72
435.22	437.68
435.41	414.27
435.59	355.76
435.78	411.93
435.97	395.55
436.16	404.91
436.34	393.21
436.53	418.96
436.72	507.90
436.90	379.17
437.09	397.89
437.28	400.23
437.46	451.72
437.65	479.81
437.84	376.83
438.02	435.34
438.21	395.55
438.40	395.55
438.58	397.89
438.77	360.44
438.96	348.74
439.14	339.38
439.33	411.93
439.52	388.53
439.70	351.08
439.89	440.02
440.08	388.53
440.26	425.98
440.45	395.55
440.63	437.68
440.82	435.34
441.01	409.59
441.19	421.30
441.38	374.49
441.57	414.27
441.75	418.96
441.94	500.87
442.12	456.40
442.31	423.64
442.50	395.55
442.68	369.80
442.87	362.78
443.05	365.12
443.24	379.17
443.43	402.57
443.61	477.47
443.80	461.09
443.98	411.93
444.17	341.72
444.35	400.23
444.54	461.09
444.73	463.43
444.91	465.77
445.10	320.65
445.28	503.22
445.47	381.51
445.65	372.15
445.84	437.68
446.02	390.87
446.21	449.38
446.39	514.92
446.58	423.64
446.77	423.64
446.95	418.96
447.14	395.55
447.32	435.34
447.51	414.27
447.69	386.19
447.88	507.90
448.06	430.66
448.25	348.74
448.43	421.30
448.62	451.72
448.80	428.32
448.99	425.98
449.17	407.25
449.36	449.38
449.54	402.57
449.73	428.32
449.91	348.74
450.10	428.32
450.28	421.30
450.46	444.70
450.65	404.91
450.83	337.04
451.02	372.15
451.20	407.25
451.39	430.66
451.57	393.21
451.76	447.04
451.94	414.27
452.13	409.59
452.31	444.70
452.49	402.57
452.68	306.61
452.86	362.78
453.05	397.89
453.23	489.17
453.42	435.34
453.60	376.83
453.78	468.11
453.97	388.53
454.15	393.21
454.34	470.45
454.52	400.23
454.70	397.89
454.89	484.49
455.07	421.30
455.26	503.22
455.44	381.51
455.62	388.53
455.81	411.93
455.99	461.09
456.17	507.90
456.36	402.57
456.54	407.25
456.73	362.78
456.91	339.38
457.09	425.98
457.28	482.15
457.46	430.66
457.64	374.49
457.83	484.49
458.01	428.32
458.19	447.04
458.38	379.17
458.56	407.25
458.74	416.62
458.93	444.70
459.11	393.21
459.29	421.30
459.48	418.96
459.66	503.22
459.84	404.91
460.03	362.78
460.21	442.36
460.39	393.21
460.57	435.34
460.76	365.12
460.94	348.74
461.12	470.45
461.31	416.62
461.49	416.62
461.67	423.64
461.85	411.93
462.04	442.36
462.22	781.74
462.40	390.87
462.59	428.32
462.77	449.38
462.95	461.09
463.13	451.72
463.32	496.19
463.50	416.62
463.68	444.70
463.86	409.59
464.05	421.30
464.23	423.64
464.41	393.21
464.59	374.49
464.78	416.62
464.96	372.15
465.14	367.46
465.32	447.04
465.50	465.77
465.69	451.72
465.87	463.43
466.05	388.53
466.23	402.57
466.41	402.57
466.60	479.81
466.78	383.85
466.96	482.15
467.14	360.44
467.32	447.04
467.51	386.19
467.69	500.87
467.87	409.59
468.05	407.25
468.23	409.59
468.41	425.98
468.60	423.64
468.78	418.96
468.96	416.62
469.14	442.36
469.32	482.15
469.50	447.04
469.69	425.98
469.87	435.34
470.05	454.06
470.23	444.70
470.41	355.76
470.59	383.85
470.77	351.08
470.95	393.21
471.14	442.36
471.32	442.36
471.50	437.68
471.68	465.77
471.86	393.21
472.04	451.72
472.22	362.78
472.40	402.57
472.58	411.93
472.77	440.02
472.95	425.98
473.13	425.98
473.31	519.60
473.49	428.32
473.67	442.36
473.85	449.38
474.03	444.70
474.21	428.32
474.39	496.19
474.57	465.77
474.75	435.34
474.93	400.23
475.12	327.68
475.30	461.09
475.48	383.85
475.66	386.19
475.84	400.23
476.02	475.13
476.20	437.68
476.38	433.00
476.56	425.98
476.74	440.02
476.92	411.93
477.10	414.27
477.28	482.15
477.46	409.59
477.64	430.66
477.82	416.62
478.00	433.00
478.18	454.06
478.36	383.85
478.54	416.62
478.72	465.77
478.90	372.15
479.08	411.93
479.26	395.55
479.44	428.32
479.62	407.25
479.80	407.25
479.98	353.42
480.16	489.17
480.34	475.13
480.52	379.17
480.70	442.36
480.88	437.68
481.06	404.91
481.24	379.17
481.41	440.02
481.59	440.02
481.77	376.83
481.95	435.34
482.13	519.60
482.31	425.98
482.49	393.21
482.67	470.45
482.85	428.32
483.03	421.30
483.21	327.68
483.39	430.66
483.57	390.87
483.74	430.66
483.92	414.27
484.10	428.32
484.28	454.06
484.46	421.30
484.64	454.06
484.82	454.06
485.00	435.34
485.18	367.46
485.35	409.59
485.53	386.19
485.71	444.70
485.89	346.40
486.07	355.76
486.25	414.27
486.43	423.64
486.61	397.89
486.78	433.00
486.96	433.00
487.14	421.30
487.32	402.57
487.50	447.04
487.68	493.85
487.85	411.93
488.03	482.15
488.21	423.64
488.39	407.25
488.57	461.09
488.75	456.40
488.92	458.74
489.10	407.25
489.28	451.72
489.46	397.89
489.64	428.32
489.81	402.57
489.99	358.10
490.17	381.51
490.35	528.96
490.53	395.55
490.70	393.21
490.88	341.72
491.06	374.49
491.24	414.27
491.41	386.19
491.59	407.25
491.77	411.93
491.95	414.27
492.13	447.04
492.30	372.15
492.48	416.62
492.66	404.91
492.84	390.87
493.01	435.34
493.19	440.02
493.37	409.59
493.54	376.83
493.72	379.17
493.90	376.83
494.08	386.19
494.25	449.38
494.43	411.93
494.61	409.59
494.79	397.89
494.96	461.09
495.14	404.91
495.32	414.27
495.49	416.62
495.67	376.83
495.85	404.91
496.02	425.98
496.20	397.89
496.38	456.40
496.55	442.36
496.73	472.79
496.91	390.87
497.09	421.30
497.26	428.32
497.44	430.66
497.62	365.12
497.79	334.70
497.97	390.87
498.14	428.32
498.32	500.87
498.50	353.42
498.67	411.93
498.85	414.27
499.03	372.15
499.20	395.55
499.38	461.09
499.56	381.51
499.73	428.32
499.91	416.62
500.08	503.22
500.26	421.30
500.44	372.15
500.61	512.58
500.79	472.79
500.97	416.62
501.14	449.38
501.32	386.19
501.49	463.43
501.67	465.77
501.84	369.80
502.02	376.83
502.20	484.49
502.37	386.19
502.55	428.32
502.72	470.45
502.90	425.98
503.07	421.30
503.25	447.04
503.43	369.80
503.60	421.30
503.78	407.25
503.95	451.72
504.13	447.04
504.30	346.40
504.48	468.11
504.65	414.27
504.83	360.44
505.01	383.85
505.18	414.27
505.36	381.51
505.53	386.19
505.71	430.66
505.88	425.98
506.06	386.19
506.23	418.96
506.41	404.91
506.58	379.17
506.76	390.87
506.93	351.08
507.11	400.23
507.28	482.15
507.46	390.87
507.63	411.93
507.81	416.62
507.98	388.53
508.16	400.23
508.33	444.70
508.50	404.91
508.68	353.42
508.85	430.66
509.03	337.04
509.20	390.87
509.38	327.68
509.55	493.85
509.73	411.93
509.90	430.66
510.08	367.46
510.25	454.06
510.42	386.19
510.60	409.59
510.77	435.34
510.95	374.49
511.12	418.96
511.30	414.27
511.47	430.66
511.64	435.34
511.82	346.40
511.99	416.62
512.17	409.59
512.34	428.32
512.51	376.83
512.69	440.02
512.86	444.70
513.04	367.46
513.21	365.12
513.38	381.51
513.56	355.76
513.73	414.27
513.90	355.76
514.08	341.72
514.25	423.64
514.43	447.04
514.60	418.96
514.77	388.53
514.95	372.15
515.12	421.30
515.29	416.62
515.47	430.66
515.64	355.76
515.81	414.27
515.99	425.98
516.16	346.40
516.33	421.30
516.51	383.85
516.68	444.70
516.85	407.25
517.03	390.87
517.20	369.80
517.37	308.95
517.54	428.32
517.72	435.34
517.89	341.72
518.06	421.30
518.24	472.79
518.41	355.76
518.58	376.83
518.75	425.98
518.93	428.32
519.10	421.30
519.27	393.21
519.45	423.64
519.62	365.12
519.79	442.36
519.96	407.25
520.14	334.70
520.31	444.70
520.48	454.06
520.65	425.98
520.83	470.45
521.00	386.19
521.17	346.40
521.34	421.30
521.52	404.91
521.69	423.64
521.86	400.23
522.03	397.89
522.20	393.21
522.38	418.96
522.55	479.81
522.72	351.08
522.89	475.13
523.07	416.62
523.24	418.96
523.41	379.17
523.58	381.51
523.75	369.80
523.92	372.15
524.10	440.02
524.27	404.91
524.44	411.93
524.61	421.30
524.78	454.06
524.96	444.70
525.13	376.83
525.30	428.32
525.47	449.38
525.64	468.11
525.81	393.21
525.98	433.00
526.16	519.60
526.33	461.09
526.50	433.00
526.67	440.02
526.84	390.87
527.01	430.66
527.18	496.19
527.36	416.62
527.53	348.74
527.70	423.64
527.87	339.38
528.04	393.21
528.21	435.34
528.38	461.09
528.55	444.70
528.72	465.77
528.89	393.21
529.07	449.38
529.24	402.57
529.41	461.09
529.58	409.59
529.75	411.93
529.92	430.66
530.09	367.46
530.26	442.36
530.43	400.23
530.60	444.70
530.77	402.57
530.94	362.78
531.11	386.19
531.28	454.06
531.46	337.04
531.63	461.09
531.80	425.98
531.97	421.30
532.14	435.34
532.31	416.62
532.48	390.87
532.65	402.57
532.82	423.64
532.99	465.77
533.16	383.85
533.33	416.62
533.50	433.00
533.67	465.77
533.84	353.42
534.01	397.89
534.18	383.85
534.35	341.72
534.52	376.83
534.69	383.85
534.86	404.91
535.03	353.42
535.20	435.34
535.37	395.55
535.54	444.70
535.71	376.83
535.88	425.98
536.05	374.49
536.22	418.96
536.38	379.17
536.55	451.72
536.72	461.09
536.89	379.17
537.06	404.91
537.23	440.02
537.40	479.81
537.57	425.98
537.74	409.59
537.91	528.96
538.08	383.85
538.25	374.49
538.42	409.59
538.59	393.21
538.75	411.93
538.92	486.83
539.09	451.72
539.26	411.93
539.43	463.43
539.60	496.19
539.77	402.57
539.94	365.12
540.11	491.51
540.28	505.56
540.44	435.34
540.61	411.93
540.78	397.89
540.95	397.89
541.12	435.34
541.29	369.80
541.46	418.96
541.62	358.10
541.79	423.64
541.96	449.38
542.13	383.85
542.30	346.40
542.47	472.79
542.63	416.62
542.80	475.13
542.97	442.36
543.14	461.09
543.31	449.38
543.48	526.62
543.64	365.12
543.81	425.98
543.98	444.70
544.15	425.98
544.32	397.89
544.48	435.34
544.65	451.72
544.82	440.02
544.99	458.74
545.16	414.27
545.32	493.85
545.49	409.59
545.66	383.85
545.83	425.98
546.00	449.38
546.16	414.27
546.33	447.04
546.50	416.62
546.67	430.66
546.83	393.21
547.00	397.89
547.17	418.96
547.34	404.91
547.50	404.91
547.67	381.51
547.84	447.04
548.00	355.76
548.17	484.49
548.34	470.45
548.51	449.38
548.67	390.87
548.84	379.17
549.01	397.89
549.18	379.17
549.34	418.96
549.51	465.77
549.68	400.23
549.84	421.30
550.01	346.40
550.18	517.26
550.34	507.90
550.51	400.23
550.68	468.11
550.84	418.96
551.01	400.23
551.18	512.58
551.34	409.59
551.51	369.80
551.68	369.80
551.84	421.30
552.01	414.27
552.18	404.91
552.34	390.87
552.51	402.57
552.68	454.06
552.84	486.83
553.01	423.64
553.18	435.34
553.34	400.23
553.51	440.02
553.67	416.62
553.84	433.00
554.01	416.62
554.17	468.11
554.34	404.91
554.51	449.38
554.67	454.06
554.84	479.81
555.00	421.30
555.17	503.22
555.33	468.11
555.50	407.25
555.67	496.19
555.83	430.66
556.00	437.68
556.16	454.06
556.33	416.62
556.50	397.89
556.66	442.36
556.83	348.74
556.99	372.15
557.16	482.15
557.32	437.68
557.49	390.87
557.65	362.78
557.82	376.83
557.98	463.43
558.15	386.19
558.32	348.74
558.48	372.15
558.65	425.98
558.81	461.09
558.98	393.21
559.14	423.64
559.31	456.40
559.47	535.98
559.64	416.62
559.80	395.55
559.97	451.72
560.13	425.98
560.30	393.21
560.46	416.62
560.63	388.53
560.79	430.66
560.96	461.09
561.12	418.96
561.29	397.89
561.45	397.89
561.61	414.27
561.78	472.79
561.94	379.17
562.11	372.15
562.27	505.56
562.44	423.64
562.60	390.87
562.77	414.27
562.93	479.81
563.10	418.96
563.26	353.42
563.42	477.47
563.59	423.64
563.75	475.13
563.92	404.91
564.08	440.02
564.24	451.72
564.41	444.70
564.57	409.59
564.74	458.74
564.90	498.53
565.07	433.00
565.23	465.77
565.39	393.21
565.56	461.09
565.72	322.99
565.88	367.46
566.05	360.44
566.21	423.64
566.38	428.32
566.54	402.57
566.70	418.96
566.87	418.96
567.03	449.38
567.19	374.49
567.36	461.09
567.52	425.98
567.68	400.23
567.85	409.59
568.01	409.59
568.17	369.80
568.34	489.17
568.50	423.64
568.66	400.23
568.83	440.02
568.99	379.17
569.15	468.11
569.32	444.70
569.48	404.91
569.64	430.66
569.81	484.49
569.97	440.02
570.13	383.85
570.30	430.66
570.46	374.49
570.62	423.64
570.78	435.34
570.95	477.47
571.11	517.26
571.27	477.47
571.43	435.34
571.60	344.06
571.76	402.57
571.92	423.64
572.09	451.72
572.25	351.08
572.41	383.85
572.57	421.30
572.74	407.25
572.90	339.38
573.06	386.19
573.22	447.04
573.38	433.00
573.55	379.17
573.71	374.49
573.87	423.64
574.03	397.89
574.20	425.98
574.36	440.02
574.52	454.06
574.68	409.59
574.84	444.70
575.01	461.09
575.17	390.87
575.33	390.87
575.49	472.79
575.65	447.04
575.82	421.30
575.98	458.74
576.14	437.68
576.30	435.34
576.46	379.17
576.62	400.23
576.79	383.85
576.95	451.72
577.11	402.57
577.27	449.38
577.43	362.78
577.59	475.13
577.75	484.49
577.92	486.83
578.08	395.55
578.24	390.87
578.40	425.98
578.56	428.32
578.72	475.13
578.88	425.98
579.04	442.36
579.21	421.30
579.37	421.30
579.53	372.15
579.69	540.66
579.85	365.12
580.01	388.53
580.17	402.57
580.33	341.72
580.49	397.89
580.65	428.32
580.82	470.45
580.98	367.46
581.14	461.09
581.30	416.62
581.46	362.78
581.62	435.34
581.78	395.55
581.94	435.34
582.10	402.57
582.26	430.66
582.42	397.89
582.58	388.53
582.74	411.93
582.90	465.77
583.06	477.47
583.22	440.02
583.38	351.08
583.54	454.06
583.70	421.30
583.86	386.19
584.02	437.68
584.18	435.34
584.34	425.98
584.50	470.45
584.66	430.66
584.82	360.44
584.98	498.53
585.14	423.64
585.30	472.79
585.46	409.59
585.62	374.49
585.78	437.68
585.94	470.45
586.10	475.13
586.26	360.44
586.42	388.53
586.58	379.17
586.74	407.25
586.90	423.64
587.06	409.59
587.22	465.77
587.38	430.66
587.54	463.43
587.70	428.32
587.86	416.62
588.02	423.64
588.18	425.98
588.34	442.36
588.49	404.91
588.65	428.32
588.81	479.81
588.97	388.53
589.13	411.93
589.29	447.04
589.45	498.53
589.61	442.36
589.77	386.19
589.93	393.21
590.08	479.81
590.24	339.38
590.40	409.59
590.56	390.87
590.72	397.89
590.88	369.80
591.04	472.79
591.20	517.26
591.35	449.38
591.51	491.51
591.67	395.55
591.83	468.11
591.99	493.85
592.15	353.42
592.31	442.36
592.46	393.21
592.62	458.74
592.78	395.55
592.94	372.15
593.10	393.21
593.26	454.06
593.41	482.15
593.57	475.13
593.73	482.15
593.89	423.64
594.05	395.55
594.20	388.53
594.36	442.36
594.52	449.38
594.68	425.98
594.84	388.53
594.99	475.13
595.15	491.51
595.31	395.55
595.47	456.40
595.62	425.98
595.78	372.15
595.94	440.02
596.10	402.57
596.25	430.66
596.41	390.87
596.57	360.44
596.73	421.30
596.88	409.59
597.04	400.23
597.20	358.10
597.36	475.13
597.51	428.32
597.67	435.34
597.83	402.57
597.99	451.72
598.14	397.89
598.30	463.43
598.46	454.06
598.61	447.04
598.77	519.60
598.93	442.36
599.09	404.91
599.24	369.80
599.40	468.11
599.56	416.62
599.71	507.90
599.87	393.21
600.03	433.00
600.18	437.68
600.34	437.68
600.50	440.02
600.65	430.66
600.81	425.98
600.97	428.32
601.12	472.79
601.28	465.77
601.44	423.64
601.59	421.30
601.75	435.34
601.91	451.72
602.06	416.62
602.22	545.34
602.37	379.17
602.53	423.64
602.69	404.91
602.84	440.02
603.00	381.51
603.16	440.02
603.31	395.55
603.47	472.79
603.62	496.19
603.78	409.59
603.94	430.66
604.09	442.36
604.25	440.02
604.40	521.94
604.56	440.02
604.71	360.44
604.87	493.85
605.03	444.70
605.18	390.87
605.34	400.23
605.49	397.89
605.65	397.89
605.80	388.53
605.96	374.49
606.12	423.64
606.27	435.34
606.43	423.64
606.58	451.72
606.74	444.70
606.89	362.78
607.05	407.25
607.20	449.38
607.36	465.77
607.51	425.98
607.67	402.57
607.82	428.32
607.98	454.06
608.13	437.68
608.29	407.25
608.44	468.11
608.60	407.25
608.75	470.45
608.91	411.93
609.06	465.77
609.22	395.55
609.37	383.85
609.53	435.34
609.68	367.46
609.84	463.43
609.99	374.49
610.15	416.62
