SpectraSuite Data File
++++++++++++++++++++++++++++++++++++
Date: Fri Oct 25 12:11:09 EDT 2013
User: price-jones
Dark Spectrum Present: No
Reference Spectrum Present: No
Number of Sampled Component Spectra: 1
Spectrometers: USB2+H05261
Integration Time (usec): 100000 (USB2+H05261)
Spectra Averaged: 1 (USB2+H05261)
Boxcar Smoothing: 0 (USB2+H05261)
Correct for Electrical Dark: No (USB2+H05261)
Strobe/Lamp Enabled: No (USB2+H05261)
Correct for Detector Non-linearity: No (USB2+H05261)
Correct for Stray Light: No (USB2+H05261)
Number of Pixels in Processed Spectrum: 2048
>>>>>Begin Processed Spectral Data<<<<<
365.73	393.21
365.92	393.21
366.12	393.21
366.32	238.73
366.52	238.73
366.72	234.05
366.91	255.12
367.11	208.31
367.31	224.69
367.51	205.97
367.70	182.56
367.90	205.97
368.10	212.99
368.30	252.78
368.49	264.48
368.69	266.82
368.89	229.37
369.09	271.50
369.28	266.82
369.48	304.27
369.68	271.50
369.87	280.86
370.07	222.35
370.27	348.74
370.47	322.99
370.66	269.16
370.86	360.44
371.06	411.93
371.25	414.27
371.45	327.68
371.65	367.46
371.84	414.27
372.04	327.68
372.24	404.91
372.44	348.74
372.63	372.15
372.83	411.93
373.03	402.57
373.22	477.47
373.42	372.15
373.62	322.99
373.81	400.23
374.01	353.42
374.21	402.57
374.40	374.49
374.60	425.98
374.79	409.59
374.99	465.77
375.19	440.02
375.38	461.09
375.58	430.66
375.78	437.68
375.97	416.62
376.17	421.30
376.37	472.79
376.56	437.68
376.76	362.78
376.95	444.70
377.15	477.47
377.35	447.04
377.54	383.85
377.74	397.89
377.93	407.25
378.13	397.89
378.33	409.59
378.52	402.57
378.72	442.36
378.91	421.30
379.11	393.21
379.31	397.89
379.50	425.98
379.70	400.23
379.89	416.62
380.09	383.85
380.28	430.66
380.48	376.83
380.68	355.76
380.87	369.80
381.07	423.64
381.26	442.36
381.46	428.32
381.65	376.83
381.85	407.25
382.04	425.98
382.24	315.97
382.43	463.43
382.63	402.57
382.83	390.87
383.02	414.27
383.22	454.06
383.41	435.34
383.61	395.55
383.80	379.17
384.00	416.62
384.19	407.25
384.39	433.00
384.58	386.19
384.78	376.83
384.97	444.70
385.17	400.23
385.36	367.46
385.56	447.04
385.75	379.17
385.95	348.74
386.14	395.55
386.34	397.89
386.53	465.77
386.72	374.49
386.92	472.79
387.11	404.91
387.31	402.57
387.50	451.72
387.70	393.21
387.89	463.43
388.09	435.34
388.28	346.40
388.48	367.46
388.67	433.00
388.86	414.27
389.06	430.66
389.25	372.15
389.45	421.30
389.64	397.89
389.84	395.55
390.03	386.19
390.22	458.74
390.42	433.00
390.61	437.68
390.81	348.74
391.00	409.59
391.19	409.59
391.39	395.55
391.58	397.89
391.78	334.70
391.97	416.62
392.16	327.68
392.36	435.34
392.55	468.11
392.75	437.68
392.94	381.51
393.13	433.00
393.33	425.98
393.52	418.96
393.71	395.55
393.91	404.91
394.10	400.23
394.29	418.96
394.49	465.77
394.68	423.64
394.88	376.83
395.07	355.76
395.26	404.91
395.46	393.21
395.65	498.53
395.84	395.55
396.04	528.96
396.23	381.51
396.42	454.06
396.62	400.23
396.81	430.66
397.00	397.89
397.19	348.74
397.39	414.27
397.58	402.57
397.77	393.21
397.97	444.70
398.16	498.53
398.35	402.57
398.55	428.32
398.74	376.83
398.93	423.64
399.12	407.25
399.32	409.59
399.51	414.27
399.70	400.23
399.90	425.98
400.09	390.87
400.28	393.21
400.47	397.89
400.67	390.87
400.86	407.25
401.05	423.64
401.24	414.27
401.44	383.85
401.63	444.70
401.82	433.00
402.01	407.25
402.21	360.44
402.40	397.89
402.59	376.83
402.78	395.55
402.97	393.21
403.17	447.04
403.36	407.25
403.55	400.23
403.74	386.19
403.93	393.21
404.13	440.02
404.32	327.68
404.51	404.91
404.70	451.72
404.89	400.23
405.09	479.81
405.28	414.27
405.47	365.12
405.66	416.62
405.85	383.85
406.05	428.32
406.24	351.08
406.43	372.15
406.62	451.72
406.81	484.49
407.00	334.70
407.20	397.89
407.39	430.66
407.58	379.17
407.77	421.30
407.96	379.17
408.15	440.02
408.34	447.04
408.54	376.83
408.73	440.02
408.92	334.70
409.11	397.89
409.30	395.55
409.49	353.42
409.68	374.49
409.87	463.43
410.07	402.57
410.26	416.62
410.45	374.49
410.64	416.62
410.83	433.00
411.02	390.87
411.21	430.66
411.40	425.98
411.59	423.64
411.78	386.19
411.98	449.38
412.17	372.15
412.36	322.99
412.55	411.93
412.74	416.62
412.93	428.32
413.12	358.10
413.31	421.30
413.50	374.49
413.69	435.34
413.88	470.45
414.07	402.57
414.26	416.62
414.45	334.70
414.64	395.55
414.83	442.36
415.02	425.98
415.22	472.79
415.41	440.02
415.60	362.78
415.79	409.59
415.98	486.83
416.17	444.70
416.36	468.11
416.55	447.04
416.74	360.44
416.93	388.53
417.12	454.06
417.31	404.91
417.50	346.40
417.69	414.27
417.88	397.89
418.07	409.59
418.26	418.96
418.45	430.66
418.64	414.27
418.83	379.17
419.02	351.08
419.21	411.93
419.39	463.43
419.58	322.99
419.77	374.49
419.96	435.34
420.15	440.02
420.34	423.64
420.53	351.08
420.72	458.74
420.91	437.68
421.10	416.62
421.29	430.66
421.48	402.57
421.67	397.89
421.86	407.25
422.05	418.96
422.24	463.43
422.43	372.15
422.61	423.64
422.80	435.34
422.99	416.62
423.18	472.79
423.37	421.30
423.56	454.06
423.75	454.06
423.94	402.57
424.13	461.09
424.32	381.51
424.50	372.15
424.69	423.64
424.88	430.66
425.07	390.87
425.26	390.87
425.45	301.93
425.64	402.57
425.83	440.02
426.01	454.06
426.20	423.64
426.39	411.93
426.58	388.53
426.77	376.83
426.96	442.36
427.15	411.93
427.33	386.19
427.52	374.49
427.71	475.13
427.90	428.32
428.09	428.32
428.28	411.93
428.46	411.93
428.65	421.30
428.84	311.29
429.03	421.30
429.22	367.46
429.40	465.77
429.59	397.89
429.78	437.68
429.97	395.55
430.16	421.30
430.34	383.85
430.53	351.08
430.72	425.98
430.91	341.72
431.10	379.17
431.28	418.96
431.47	386.19
431.66	444.70
431.85	381.51
432.03	383.85
432.22	454.06
432.41	447.04
432.60	430.66
432.79	383.85
432.97	437.68
433.16	433.00
433.35	374.49
433.54	365.12
433.72	407.25
433.91	407.25
434.10	451.72
434.28	416.62
434.47	416.62
434.66	430.66
434.85	376.83
435.03	421.30
435.22	435.34
435.41	433.00
435.59	447.04
435.78	486.83
435.97	447.04
436.16	397.89
436.34	503.22
436.53	440.02
436.72	418.96
436.90	444.70
437.09	409.59
437.28	320.65
437.46	433.00
437.65	458.74
437.84	400.23
438.02	395.55
438.21	440.02
438.40	409.59
438.58	395.55
438.77	437.68
438.96	435.34
439.14	390.87
439.33	468.11
439.52	407.25
439.70	393.21
439.89	454.06
440.08	416.62
440.26	433.00
440.45	404.91
440.63	400.23
440.82	348.74
441.01	383.85
441.19	372.15
441.38	411.93
441.57	388.53
441.75	437.68
441.94	395.55
442.12	435.34
442.31	442.36
442.50	414.27
442.68	423.64
442.87	416.62
443.05	390.87
443.24	463.43
443.43	444.70
443.61	430.66
443.80	409.59
443.98	423.64
444.17	388.53
444.35	465.77
444.54	425.98
444.73	358.10
444.91	423.64
445.10	433.00
445.28	425.98
445.47	470.45
445.65	369.80
445.84	388.53
446.02	447.04
446.21	409.59
446.39	395.55
446.58	381.51
446.77	449.38
446.95	440.02
447.14	404.91
447.32	393.21
447.51	428.32
447.69	404.91
447.88	437.68
448.06	442.36
448.25	456.40
448.43	358.10
448.62	437.68
448.80	409.59
448.99	411.93
449.17	400.23
449.36	423.64
449.54	383.85
449.73	421.30
449.91	404.91
450.10	479.81
450.28	444.70
450.46	458.74
450.65	428.32
450.83	442.36
451.02	365.12
451.20	507.90
451.39	388.53
451.57	402.57
451.76	475.13
451.94	423.64
452.13	491.51
452.31	444.70
452.49	411.93
452.68	390.87
452.86	428.32
453.05	409.59
453.23	386.19
453.42	395.55
453.60	425.98
453.78	435.34
453.97	416.62
454.15	409.59
454.34	437.68
454.52	404.91
454.70	465.77
454.89	479.81
455.07	414.27
455.26	395.55
455.44	479.81
455.62	400.23
455.81	454.06
455.99	388.53
456.17	510.24
456.36	407.25
456.54	414.27
456.73	411.93
456.91	458.74
457.09	423.64
457.28	449.38
457.46	468.11
457.64	472.79
457.83	388.53
458.01	360.44
458.19	330.02
458.38	423.64
458.56	414.27
458.74	477.47
458.93	430.66
459.11	404.91
459.29	374.49
459.48	404.91
459.66	449.38
459.84	416.62
460.03	451.72
460.21	442.36
460.39	411.93
460.57	472.79
460.76	351.08
460.94	440.02
461.12	425.98
461.31	423.64
461.49	411.93
461.67	416.62
461.85	409.59
462.04	362.78
462.22	755.99
462.40	390.87
462.59	395.55
462.77	472.79
462.95	440.02
463.13	454.06
463.32	447.04
463.50	414.27
463.68	365.12
463.86	358.10
464.05	402.57
464.23	362.78
464.41	411.93
464.59	351.08
464.78	461.09
464.96	449.38
465.14	388.53
465.32	397.89
465.50	390.87
465.69	437.68
465.87	390.87
466.05	477.47
466.23	442.36
466.41	341.72
466.60	395.55
466.78	472.79
466.96	423.64
467.14	390.87
467.32	463.43
467.51	475.13
467.69	442.36
467.87	435.34
468.05	386.19
468.23	552.37
468.41	440.02
468.60	374.49
468.78	358.10
468.96	479.81
469.14	332.36
469.32	421.30
469.50	421.30
469.69	456.40
469.87	484.49
470.05	440.02
470.23	442.36
470.41	437.68
470.59	442.36
470.77	369.80
470.95	402.57
471.14	519.60
471.32	470.45
471.50	451.72
471.68	400.23
471.86	423.64
472.04	421.30
472.22	428.32
472.40	372.15
472.58	414.27
472.77	465.77
472.95	411.93
473.13	400.23
473.31	491.51
473.49	365.12
473.67	379.17
473.85	447.04
474.03	383.85
474.21	433.00
474.39	400.23
474.57	484.49
474.75	351.08
474.93	341.72
475.12	346.40
475.30	418.96
475.48	404.91
475.66	428.32
475.84	395.55
476.02	465.77
476.20	411.93
476.38	386.19
476.56	472.79
476.74	383.85
476.92	430.66
477.10	430.66
477.28	454.06
477.46	465.77
477.64	456.40
477.82	430.66
478.00	440.02
478.18	397.89
478.36	468.11
478.54	404.91
478.72	393.21
478.90	362.78
479.08	390.87
479.26	454.06
479.44	418.96
479.62	458.74
479.80	395.55
479.98	355.76
480.16	374.49
480.34	374.49
480.52	362.78
480.70	430.66
480.88	374.49
481.06	423.64
481.24	383.85
481.41	365.12
481.59	447.04
481.77	409.59
481.95	355.76
482.13	440.02
482.31	346.40
482.49	376.83
482.67	493.85
482.85	423.64
483.03	447.04
483.21	376.83
483.39	456.40
483.57	376.83
483.74	411.93
483.92	423.64
484.10	372.15
484.28	395.55
484.46	433.00
484.64	454.06
484.82	360.44
485.00	397.89
485.18	404.91
485.35	395.55
485.53	397.89
485.71	433.00
485.89	374.49
486.07	449.38
486.25	423.64
486.43	484.49
486.61	444.70
486.78	465.77
486.96	456.40
487.14	397.89
487.32	376.83
487.50	360.44
487.68	468.11
487.85	411.93
488.03	451.72
488.21	374.49
488.39	376.83
488.57	465.77
488.75	400.23
488.92	489.17
489.10	376.83
489.28	433.00
489.46	367.46
489.64	372.15
489.81	496.19
489.99	437.68
490.17	376.83
490.35	456.40
490.53	372.15
490.70	423.64
490.88	461.09
491.06	482.15
491.24	444.70
491.41	437.68
491.59	454.06
491.77	402.57
491.95	388.53
492.13	411.93
492.30	376.83
492.48	390.87
492.66	397.89
492.84	376.83
493.01	442.36
493.19	484.49
493.37	404.91
493.54	402.57
493.72	421.30
493.90	454.06
494.08	390.87
494.25	428.32
494.43	418.96
494.61	416.62
494.79	390.87
494.96	334.70
495.14	442.36
495.32	449.38
495.49	430.66
495.67	414.27
495.85	358.10
496.02	395.55
496.20	433.00
496.38	433.00
496.55	355.76
496.73	330.02
496.91	404.91
497.09	444.70
497.26	407.25
497.44	379.17
497.62	435.34
497.79	393.21
497.97	400.23
498.14	421.30
498.32	418.96
498.50	416.62
498.67	379.17
498.85	484.49
499.03	404.91
499.20	414.27
499.38	484.49
499.56	388.53
499.73	411.93
499.91	425.98
500.08	442.36
500.26	348.74
500.44	381.51
500.61	428.32
500.79	390.87
500.97	442.36
501.14	400.23
501.32	411.93
501.49	388.53
501.67	440.02
501.84	440.02
502.02	390.87
502.20	517.26
502.37	355.76
502.55	365.12
502.72	430.66
502.90	430.66
503.07	472.79
503.25	423.64
503.43	388.53
503.60	454.06
503.78	416.62
503.95	402.57
504.13	344.06
504.30	456.40
504.48	482.15
504.65	440.02
504.83	468.11
505.01	421.30
505.18	444.70
505.36	428.32
505.53	372.15
505.71	416.62
505.88	428.32
506.06	416.62
506.23	355.76
506.41	388.53
506.58	514.92
506.76	390.87
506.93	407.25
507.11	416.62
507.28	386.19
507.46	449.38
507.63	458.74
507.81	470.45
507.98	395.55
508.16	386.19
508.33	437.68
508.50	418.96
508.68	395.55
508.85	444.70
509.03	454.06
509.20	435.34
509.38	425.98
509.55	458.74
509.73	475.13
509.90	440.02
510.08	346.40
510.25	383.85
510.42	440.02
510.60	388.53
510.77	454.06
510.95	447.04
511.12	409.59
511.30	416.62
511.47	444.70
511.64	475.13
511.82	388.53
511.99	358.10
512.17	423.64
512.34	332.36
512.51	397.89
512.69	311.29
512.86	449.38
513.04	526.62
513.21	379.17
513.38	393.21
513.56	404.91
513.73	332.36
513.90	320.65
514.08	344.06
514.25	451.72
514.43	409.59
514.60	423.64
514.77	465.77
514.95	484.49
515.12	397.89
515.29	402.57
515.47	397.89
515.64	388.53
515.81	416.62
515.99	456.40
516.16	395.55
516.33	463.43
516.51	423.64
516.68	388.53
516.85	372.15
517.03	353.42
517.20	444.70
517.37	404.91
517.54	365.12
517.72	482.15
517.89	376.83
518.06	444.70
518.24	461.09
518.41	442.36
518.58	440.02
518.75	425.98
518.93	451.72
519.10	421.30
519.27	416.62
519.45	367.46
519.62	425.98
519.79	440.02
519.96	376.83
520.14	430.66
520.31	437.68
520.48	386.19
520.65	433.00
520.83	524.28
521.00	400.23
521.17	416.62
521.34	348.74
521.52	454.06
521.69	451.72
521.86	416.62
522.03	423.64
522.20	451.72
522.38	428.32
522.55	435.34
522.72	383.85
522.89	447.04
523.07	463.43
523.24	367.46
523.41	458.74
523.58	388.53
523.75	465.77
523.92	393.21
524.10	400.23
524.27	421.30
524.44	390.87
524.61	435.34
524.78	428.32
524.96	362.78
525.13	346.40
525.30	425.98
525.47	440.02
525.64	440.02
525.81	390.87
525.98	442.36
526.16	449.38
526.33	498.53
526.50	320.65
526.67	351.08
526.84	411.93
527.01	409.59
527.18	397.89
527.36	390.87
527.53	374.49
527.70	514.92
527.87	496.19
528.04	458.74
528.21	341.72
528.38	491.51
528.55	376.83
528.72	418.96
528.89	383.85
529.07	404.91
529.24	414.27
529.41	393.21
529.58	440.02
529.75	442.36
529.92	425.98
530.09	379.17
530.26	416.62
530.43	472.79
530.60	409.59
530.77	360.44
530.94	423.64
531.11	421.30
531.28	360.44
531.46	306.61
531.63	397.89
531.80	360.44
531.97	395.55
532.14	444.70
532.31	402.57
532.48	409.59
532.65	374.49
532.82	388.53
532.99	374.49
533.16	353.42
533.33	482.15
533.50	414.27
533.67	421.30
533.84	442.36
534.01	444.70
534.18	425.98
534.35	383.85
534.52	388.53
534.69	402.57
534.86	390.87
535.03	449.38
535.20	393.21
535.37	348.74
535.54	407.25
535.71	393.21
535.88	482.15
536.05	367.46
536.22	430.66
536.38	477.47
536.55	440.02
536.72	400.23
536.89	362.78
537.06	411.93
537.23	440.02
537.40	425.98
537.57	425.98
537.74	456.40
537.91	411.93
538.08	301.93
538.25	470.45
538.42	440.02
538.59	388.53
538.75	433.00
538.92	388.53
539.09	472.79
539.26	369.80
539.43	414.27
539.60	376.83
539.77	418.96
539.94	346.40
540.11	433.00
540.28	519.60
540.44	407.25
540.61	456.40
540.78	383.85
540.95	383.85
541.12	486.83
541.29	440.02
541.46	454.06
541.62	435.34
541.79	360.44
541.96	409.59
542.13	388.53
542.30	449.38
542.47	411.93
542.63	418.96
542.80	386.19
542.97	447.04
543.14	379.17
543.31	456.40
543.48	440.02
543.64	346.40
543.81	409.59
543.98	414.27
544.15	390.87
544.32	482.15
544.48	414.27
544.65	444.70
544.82	404.91
544.99	479.81
545.16	423.64
545.32	433.00
545.49	465.77
545.66	421.30
545.83	390.87
546.00	320.65
546.16	437.68
546.33	451.72
546.50	447.04
546.67	390.87
546.83	334.70
547.00	374.49
547.17	404.91
547.34	421.30
547.50	407.25
547.67	442.36
547.84	341.72
548.00	444.70
548.17	463.43
548.34	444.70
548.51	454.06
548.67	418.96
548.84	430.66
549.01	374.49
549.18	351.08
549.34	416.62
549.51	409.59
549.68	430.66
549.84	353.42
550.01	390.87
550.18	472.79
550.34	477.47
550.51	465.77
550.68	416.62
550.84	381.51
551.01	348.74
551.18	358.10
551.34	397.89
551.51	414.27
551.68	411.93
551.84	332.36
552.01	414.27
552.18	489.17
552.34	367.46
552.51	355.76
552.68	463.43
552.84	395.55
553.01	433.00
553.18	435.34
553.34	416.62
553.51	362.78
553.67	374.49
553.84	454.06
554.01	423.64
554.17	358.10
554.34	400.23
554.51	507.90
554.67	465.77
554.84	418.96
555.00	468.11
555.17	440.02
555.33	430.66
555.50	468.11
555.67	418.96
555.83	383.85
556.00	360.44
556.16	587.47
556.33	456.40
556.50	416.62
556.66	428.32
556.83	430.66
556.99	395.55
557.16	418.96
557.32	444.70
557.49	386.19
557.65	463.43
557.82	451.72
557.98	433.00
558.15	390.87
558.32	444.70
558.48	379.17
558.65	355.76
558.81	381.51
558.98	404.91
559.14	456.40
559.31	425.98
559.47	400.23
559.64	397.89
559.80	475.13
559.97	390.87
560.13	376.83
560.30	444.70
560.46	486.83
560.63	393.21
560.79	447.04
560.96	463.43
561.12	430.66
561.29	477.47
561.45	440.02
561.61	381.51
561.78	496.19
561.94	416.62
562.11	437.68
562.27	330.02
562.44	404.91
562.60	444.70
562.77	505.56
562.93	458.74
563.10	435.34
563.26	341.72
563.42	451.72
563.59	360.44
563.75	397.89
563.92	479.81
564.08	465.77
564.24	461.09
564.41	461.09
564.57	379.17
564.74	418.96
564.90	456.40
565.07	437.68
565.23	404.91
565.39	428.32
565.56	402.57
565.72	416.62
565.88	458.74
566.05	393.21
566.21	365.12
566.38	435.34
566.54	468.11
566.70	423.64
566.87	418.96
567.03	376.83
567.19	442.36
567.36	433.00
567.52	421.30
567.68	407.25
567.85	449.38
568.01	381.51
568.17	400.23
568.34	428.32
568.50	479.81
568.66	411.93
568.83	407.25
568.99	407.25
569.15	500.87
569.32	390.87
569.48	444.70
569.64	372.15
569.81	393.21
569.97	388.53
570.13	449.38
570.30	390.87
570.46	454.06
570.62	468.11
570.78	400.23
570.95	409.59
571.11	425.98
571.27	437.68
571.43	411.93
571.60	397.89
571.76	358.10
571.92	430.66
572.09	449.38
572.25	447.04
572.41	442.36
572.57	409.59
572.74	456.40
572.90	379.17
573.06	388.53
573.22	421.30
573.38	430.66
573.55	414.27
573.71	463.43
573.87	358.10
574.03	353.42
574.20	437.68
574.36	489.17
574.52	444.70
574.68	407.25
574.84	456.40
575.01	341.72
575.17	409.59
575.33	437.68
575.49	442.36
575.65	367.46
575.82	449.38
575.98	372.15
576.14	365.12
576.30	423.64
576.46	461.09
576.62	421.30
576.79	444.70
576.95	470.45
577.11	442.36
577.27	365.12
577.43	477.47
577.59	430.66
577.75	447.04
577.92	390.87
578.08	444.70
578.24	433.00
578.40	498.53
578.56	463.43
578.72	411.93
578.88	428.32
579.04	409.59
579.21	376.83
579.37	425.98
579.53	407.25
579.69	383.85
579.85	418.96
580.01	404.91
580.17	402.57
580.33	374.49
580.49	397.89
580.65	447.04
580.82	468.11
580.98	468.11
581.14	468.11
581.30	440.02
581.46	388.53
581.62	390.87
581.78	404.91
581.94	416.62
582.10	388.53
582.26	379.17
582.42	425.98
582.58	411.93
582.74	381.51
582.90	437.68
583.06	500.87
583.22	388.53
583.38	393.21
583.54	411.93
583.70	447.04
583.86	414.27
584.02	433.00
584.18	470.45
584.34	395.55
584.50	451.72
584.66	374.49
584.82	348.74
584.98	409.59
585.14	437.68
585.30	390.87
585.46	411.93
585.62	500.87
585.78	409.59
585.94	425.98
586.10	404.91
586.26	428.32
586.42	428.32
586.58	379.17
586.74	383.85
586.90	386.19
587.06	433.00
587.22	367.46
587.38	334.70
587.54	444.70
587.70	435.34
587.86	433.00
588.02	407.25
588.18	428.32
588.34	414.27
588.49	365.12
588.65	449.38
588.81	409.59
588.97	383.85
589.13	372.15
589.29	388.53
589.45	489.17
589.61	381.51
589.77	414.27
589.93	416.62
590.08	395.55
590.24	442.36
590.40	421.30
590.56	433.00
590.72	458.74
590.88	404.91
591.04	411.93
591.20	449.38
591.35	404.91
591.51	468.11
591.67	372.15
591.83	400.23
591.99	449.38
592.15	444.70
592.31	360.44
592.46	418.96
592.62	437.68
592.78	428.32
592.94	360.44
593.10	388.53
593.26	414.27
593.41	437.68
593.57	458.74
593.73	397.89
593.89	416.62
594.05	407.25
594.20	430.66
594.36	470.45
594.52	440.02
594.68	409.59
594.84	461.09
594.99	484.49
595.15	402.57
595.31	435.34
595.47	463.43
595.62	365.12
595.78	397.89
595.94	428.32
596.10	379.17
596.25	388.53
596.41	440.02
596.57	416.62
596.73	409.59
596.88	388.53
597.04	468.11
597.20	421.30
597.36	351.08
597.51	475.13
597.67	397.89
597.83	355.76
597.99	379.17
598.14	447.04
598.30	423.64
598.46	409.59
598.61	433.00
598.77	411.93
598.93	421.30
599.09	409.59
599.24	456.40
599.40	465.77
599.56	416.62
599.71	442.36
599.87	397.89
600.03	337.04
600.18	376.83
600.34	470.45
600.50	372.15
600.65	379.17
600.81	416.62
600.97	451.72
601.12	430.66
601.28	482.15
601.44	393.21
601.59	362.78
601.75	428.32
601.91	393.21
602.06	379.17
602.22	423.64
602.37	463.43
602.53	411.93
602.69	360.44
602.84	409.59
603.00	409.59
603.16	444.70
603.31	465.77
603.47	393.21
603.62	348.74
603.78	472.79
603.94	447.04
604.09	374.49
604.25	407.25
604.40	409.59
604.56	365.12
604.71	327.68
604.87	454.06
605.03	358.10
605.18	442.36
605.34	388.53
605.49	386.19
605.65	440.02
605.80	425.98
605.96	383.85
606.12	390.87
606.27	416.62
606.43	435.34
606.58	477.47
606.74	386.19
606.89	365.12
607.05	491.51
607.20	409.59
607.36	454.06
607.51	376.83
607.67	372.15
607.82	376.83
607.98	447.04
608.13	425.98
608.29	447.04
608.44	456.40
608.60	482.15
608.75	484.49
608.91	451.72
609.06	404.91
609.22	390.87
609.37	416.62
609.53	390.87
609.68	414.27
609.84	348.74
609.99	421.30
610.15	437.68
