SpectraSuite Data File
++++++++++++++++++++++++++++++++++++
Date: Fri Oct 25 12:11:21 EDT 2013
User: price-jones
Dark Spectrum Present: No
Reference Spectrum Present: No
Number of Sampled Component Spectra: 1
Spectrometers: USB2+H05261
Integration Time (usec): 100000 (USB2+H05261)
Spectra Averaged: 1 (USB2+H05261)
Boxcar Smoothing: 0 (USB2+H05261)
Correct for Electrical Dark: No (USB2+H05261)
Strobe/Lamp Enabled: No (USB2+H05261)
Correct for Detector Non-linearity: No (USB2+H05261)
Correct for Stray Light: No (USB2+H05261)
Number of Pixels in Processed Spectrum: 2048
>>>>>Begin Processed Spectral Data<<<<<
365.73	351.08
365.92	351.08
366.12	351.08
366.32	234.05
366.52	243.42
366.72	222.35
366.91	259.80
367.11	243.42
367.31	217.67
367.51	273.84
367.70	238.73
367.90	208.31
368.10	266.82
368.30	308.95
368.49	278.52
368.69	280.86
368.89	262.14
369.09	243.42
369.28	337.04
369.48	283.20
369.68	292.57
369.87	292.57
370.07	320.65
370.27	325.33
370.47	283.20
370.66	301.93
370.86	285.55
371.06	402.57
371.25	444.70
371.45	404.91
371.65	358.10
371.84	400.23
372.04	334.70
372.24	358.10
372.44	388.53
372.63	407.25
372.83	425.98
373.03	411.93
373.22	423.64
373.42	428.32
373.62	409.59
373.81	440.02
374.01	449.38
374.21	397.89
374.40	433.00
374.60	444.70
374.79	449.38
374.99	409.59
375.19	346.40
375.38	482.15
375.58	374.49
375.78	472.79
375.97	454.06
376.17	428.32
376.37	397.89
376.56	407.25
376.76	367.46
376.95	351.08
377.15	435.34
377.35	390.87
377.54	353.42
377.74	379.17
377.93	358.10
378.13	360.44
378.33	374.49
378.52	395.55
378.72	465.77
378.91	458.74
379.11	397.89
379.31	386.19
379.50	348.74
379.70	540.66
379.89	421.30
380.09	421.30
380.28	400.23
380.48	386.19
380.68	341.72
380.87	442.36
381.07	376.83
381.26	407.25
381.46	367.46
381.65	407.25
381.85	341.72
382.04	395.55
382.24	407.25
382.43	374.49
382.63	393.21
382.83	472.79
383.02	374.49
383.22	435.34
383.41	372.15
383.61	376.83
383.80	465.77
384.00	461.09
384.19	397.89
384.39	435.34
384.58	383.85
384.78	477.47
384.97	409.59
385.17	383.85
385.36	407.25
385.56	482.15
385.75	404.91
385.95	402.57
386.14	358.10
386.34	454.06
386.53	379.17
386.72	376.83
386.92	404.91
387.11	374.49
387.31	395.55
387.50	407.25
387.70	407.25
387.89	404.91
388.09	346.40
388.28	374.49
388.48	425.98
388.67	411.93
388.86	428.32
389.06	444.70
389.25	411.93
389.45	369.80
389.64	374.49
389.84	372.15
390.03	400.23
390.22	341.72
390.42	360.44
390.61	386.19
390.81	304.27
391.00	416.62
391.19	416.62
391.39	369.80
391.58	425.98
391.78	444.70
391.97	379.17
392.16	386.19
392.36	456.40
392.55	440.02
392.75	416.62
392.94	376.83
393.13	400.23
393.33	358.10
393.52	503.22
393.71	451.72
393.91	374.49
394.10	472.79
394.29	383.85
394.49	425.98
394.68	395.55
394.88	376.83
395.07	409.59
395.26	428.32
395.46	425.98
395.65	381.51
395.84	486.83
396.04	503.22
396.23	397.89
396.42	451.72
396.62	402.57
396.81	421.30
397.00	421.30
397.19	409.59
397.39	416.62
397.58	421.30
397.77	407.25
397.97	477.47
398.16	456.40
398.35	440.02
398.55	372.15
398.74	442.36
398.93	416.62
399.12	372.15
399.32	388.53
399.51	362.78
399.70	414.27
399.90	442.36
400.09	308.95
400.28	358.10
400.47	409.59
400.67	402.57
400.86	404.91
401.05	465.77
401.24	402.57
401.44	435.34
401.63	486.83
401.82	390.87
402.01	428.32
402.21	379.17
402.40	451.72
402.59	428.32
402.78	390.87
402.97	423.64
403.17	463.43
403.36	390.87
403.55	425.98
403.74	477.47
403.93	489.17
404.13	425.98
404.32	376.83
404.51	397.89
404.70	341.72
404.89	376.83
405.09	456.40
405.28	468.11
405.47	409.59
405.66	435.34
405.85	414.27
406.05	379.17
406.24	362.78
406.43	435.34
406.62	376.83
406.81	442.36
407.00	407.25
407.20	414.27
407.39	416.62
407.58	409.59
407.77	468.11
407.96	404.91
408.15	421.30
408.34	416.62
408.54	365.12
408.73	414.27
408.92	411.93
409.11	390.87
409.30	407.25
409.49	339.38
409.68	402.57
409.87	395.55
410.07	381.51
410.26	383.85
410.45	468.11
410.64	386.19
410.83	425.98
411.02	390.87
411.21	409.59
411.40	449.38
411.59	507.90
411.78	353.42
411.98	486.83
412.17	430.66
412.36	447.04
412.55	493.85
412.74	402.57
412.93	449.38
413.12	411.93
413.31	479.81
413.50	351.08
413.69	447.04
413.88	449.38
414.07	449.38
414.26	358.10
414.45	430.66
414.64	479.81
414.83	341.72
415.02	407.25
415.22	433.00
415.41	454.06
415.60	332.36
415.79	409.59
415.98	416.62
416.17	351.08
416.36	407.25
416.55	444.70
416.74	430.66
416.93	449.38
417.12	306.61
417.31	425.98
417.50	451.72
417.69	402.57
417.88	463.43
418.07	365.12
418.26	311.29
418.45	360.44
418.64	458.74
418.83	386.19
419.02	418.96
419.21	365.12
419.39	344.06
419.58	372.15
419.77	414.27
419.96	353.42
420.15	416.62
420.34	397.89
420.53	404.91
420.72	353.42
420.91	430.66
421.10	404.91
421.29	411.93
421.48	355.76
421.67	388.53
421.86	463.43
422.05	437.68
422.24	388.53
422.43	451.72
422.61	395.55
422.80	472.79
422.99	388.53
423.18	400.23
423.37	430.66
423.56	388.53
423.75	442.36
423.94	374.49
424.13	430.66
424.32	376.83
424.50	463.43
424.69	442.36
424.88	463.43
425.07	400.23
425.26	416.62
425.45	374.49
425.64	435.34
425.83	337.04
426.01	454.06
426.20	365.12
426.39	423.64
426.58	421.30
426.77	411.93
426.96	416.62
427.15	465.77
427.33	414.27
427.52	489.17
427.71	407.25
427.90	416.62
428.09	386.19
428.28	381.51
428.46	395.55
428.65	390.87
428.84	386.19
429.03	341.72
429.22	393.21
429.40	397.89
429.59	402.57
429.78	435.34
429.97	418.96
430.16	447.04
430.34	379.17
430.53	393.21
430.72	390.87
430.91	402.57
431.10	402.57
431.28	428.32
431.47	444.70
431.66	393.21
431.85	433.00
432.03	430.66
432.22	397.89
432.41	482.15
432.60	461.09
432.79	395.55
432.97	421.30
433.16	407.25
433.35	322.99
433.54	407.25
433.72	433.00
433.91	400.23
434.10	428.32
434.28	416.62
434.47	425.98
434.66	421.30
434.85	463.43
435.03	421.30
435.22	397.89
435.41	435.34
435.59	451.72
435.78	435.34
435.97	451.72
436.16	404.91
436.34	418.96
436.53	407.25
436.72	411.93
436.90	421.30
437.09	388.53
437.28	411.93
437.46	388.53
437.65	381.51
437.84	444.70
438.02	418.96
438.21	461.09
438.40	416.62
438.58	355.76
438.77	339.38
438.96	409.59
439.14	390.87
439.33	437.68
439.52	411.93
439.70	358.10
439.89	383.85
440.08	407.25
440.26	461.09
440.45	407.25
440.63	435.34
440.82	468.11
441.01	428.32
441.19	416.62
441.38	376.83
441.57	365.12
441.75	411.93
441.94	463.43
442.12	411.93
442.31	365.12
442.50	388.53
442.68	360.44
442.87	365.12
443.05	395.55
443.24	379.17
443.43	383.85
443.61	491.51
443.80	376.83
443.98	397.89
444.17	379.17
444.35	479.81
444.54	367.46
444.73	397.89
444.91	461.09
445.10	425.98
445.28	299.59
445.47	400.23
445.65	470.45
445.84	428.32
446.02	440.02
446.21	383.85
446.39	449.38
446.58	451.72
446.77	388.53
446.95	376.83
447.14	456.40
447.32	430.66
447.51	381.51
447.69	416.62
447.88	477.47
448.06	454.06
448.25	418.96
448.43	372.15
448.62	393.21
448.80	458.74
448.99	428.32
449.17	465.77
449.36	386.19
449.54	409.59
449.73	407.25
449.91	477.47
450.10	358.10
450.28	430.66
450.46	435.34
450.65	472.79
450.83	444.70
451.02	388.53
451.20	440.02
451.39	369.80
451.57	381.51
451.76	440.02
451.94	440.02
452.13	477.47
452.31	430.66
452.49	414.27
452.68	365.12
452.86	472.79
453.05	374.49
453.23	402.57
453.42	383.85
453.60	440.02
453.78	444.70
453.97	339.38
454.15	360.44
454.34	355.76
454.52	381.51
454.70	421.30
454.89	327.68
455.07	402.57
455.26	376.83
455.44	381.51
455.62	475.13
455.81	330.02
455.99	386.19
456.17	374.49
456.36	404.91
456.54	447.04
456.73	376.83
456.91	430.66
457.09	416.62
457.28	407.25
457.46	440.02
457.64	409.59
457.83	360.44
458.01	430.66
458.19	372.15
458.38	374.49
458.56	407.25
458.74	374.49
458.93	440.02
459.11	407.25
459.29	414.27
459.48	404.91
459.66	395.55
459.84	456.40
460.03	468.11
460.21	465.77
460.39	440.02
460.57	418.96
460.76	376.83
460.94	404.91
461.12	454.06
461.31	451.72
461.49	348.74
461.67	383.85
461.85	393.21
462.04	423.64
462.22	816.85
462.40	393.21
462.59	365.12
462.77	402.57
462.95	442.36
463.13	395.55
463.32	454.06
463.50	430.66
463.68	414.27
463.86	414.27
464.05	461.09
464.23	470.45
464.41	423.64
464.59	414.27
464.78	383.85
464.96	456.40
465.14	388.53
465.32	475.13
465.50	344.06
465.69	430.66
465.87	407.25
466.05	397.89
466.23	369.80
466.41	400.23
466.60	440.02
466.78	383.85
466.96	390.87
467.14	430.66
467.32	409.59
467.51	418.96
467.69	437.68
467.87	458.74
468.05	425.98
468.23	458.74
468.41	428.32
468.60	416.62
468.78	402.57
468.96	414.27
469.14	390.87
469.32	414.27
469.50	430.66
469.69	409.59
469.87	400.23
470.05	430.66
470.23	381.51
470.41	435.34
470.59	456.40
470.77	437.68
470.95	409.59
471.14	482.15
471.32	400.23
471.50	430.66
471.68	456.40
471.86	397.89
472.04	475.13
472.22	414.27
472.40	334.70
472.58	423.64
472.77	414.27
472.95	454.06
473.13	463.43
473.31	479.81
473.49	451.72
473.67	367.46
473.85	404.91
474.03	418.96
474.21	425.98
474.39	472.79
474.57	423.64
474.75	479.81
474.93	418.96
475.12	402.57
475.30	435.34
475.48	381.51
475.66	458.74
475.84	397.89
476.02	449.38
476.20	402.57
476.38	376.83
476.56	463.43
476.74	444.70
476.92	421.30
477.10	461.09
477.28	428.32
477.46	416.62
477.64	402.57
477.82	437.68
478.00	449.38
478.18	454.06
478.36	433.00
478.54	416.62
478.72	423.64
478.90	344.06
479.08	440.02
479.26	393.21
479.44	437.68
479.62	440.02
479.80	440.02
479.98	458.74
480.16	390.87
480.34	437.68
480.52	400.23
480.70	414.27
480.88	379.17
481.06	451.72
481.24	416.62
481.41	435.34
481.59	435.34
481.77	390.87
481.95	358.10
482.13	449.38
482.31	379.17
482.49	428.32
482.67	411.93
482.85	442.36
483.03	393.21
483.21	360.44
483.39	395.55
483.57	369.80
483.74	449.38
483.92	454.06
484.10	369.80
484.28	430.66
484.46	470.45
484.64	463.43
484.82	416.62
485.00	425.98
485.18	397.89
485.35	341.72
485.53	397.89
485.71	447.04
485.89	374.49
486.07	360.44
486.25	404.91
486.43	390.87
486.61	409.59
486.78	374.49
486.96	365.12
487.14	435.34
487.32	379.17
487.50	461.09
487.68	416.62
487.85	327.68
488.03	512.58
488.21	531.30
488.39	444.70
488.57	393.21
488.75	355.76
488.92	547.69
489.10	355.76
489.28	468.11
489.46	383.85
489.64	383.85
489.81	372.15
489.99	395.55
490.17	425.98
490.35	444.70
490.53	409.59
490.70	418.96
490.88	418.96
491.06	442.36
491.24	433.00
491.41	421.30
491.59	475.13
491.77	468.11
491.95	421.30
492.13	351.08
492.30	421.30
492.48	454.06
492.66	407.25
492.84	430.66
493.01	390.87
493.19	409.59
493.37	395.55
493.54	449.38
493.72	456.40
493.90	372.15
494.08	425.98
494.25	397.89
494.43	482.15
494.61	348.74
494.79	334.70
494.96	404.91
495.14	404.91
495.32	470.45
495.49	393.21
495.67	423.64
495.85	435.34
496.02	418.96
496.20	414.27
496.38	465.77
496.55	430.66
496.73	447.04
496.91	393.21
497.09	447.04
497.26	390.87
497.44	433.00
497.62	379.17
497.79	409.59
497.97	381.51
498.14	449.38
498.32	386.19
498.50	351.08
498.67	418.96
498.85	395.55
499.03	421.30
499.20	402.57
499.38	425.98
499.56	461.09
499.73	498.53
499.91	362.78
500.08	472.79
500.26	470.45
500.44	397.89
500.61	540.66
500.79	437.68
500.97	430.66
501.14	428.32
501.32	369.80
501.49	430.66
501.67	379.17
501.84	496.19
502.02	411.93
502.20	456.40
502.37	482.15
502.55	423.64
502.72	411.93
502.90	369.80
503.07	442.36
503.25	414.27
503.43	393.21
503.60	454.06
503.78	386.19
503.95	374.49
504.13	395.55
504.30	383.85
504.48	367.46
504.65	451.72
504.83	482.15
505.01	472.79
505.18	407.25
505.36	414.27
505.53	456.40
505.71	400.23
505.88	367.46
506.06	386.19
506.23	465.77
506.41	425.98
506.58	442.36
506.76	472.79
506.93	449.38
507.11	372.15
507.28	409.59
507.46	372.15
507.63	386.19
507.81	433.00
507.98	386.19
508.16	379.17
508.33	472.79
508.50	425.98
508.68	449.38
508.85	400.23
509.03	463.43
509.20	402.57
509.38	372.15
509.55	416.62
509.73	442.36
509.90	425.98
510.08	423.64
510.25	435.34
510.42	444.70
510.60	421.30
510.77	442.36
510.95	404.91
511.12	358.10
511.30	423.64
511.47	470.45
511.64	407.25
511.82	395.55
511.99	435.34
512.17	425.98
512.34	461.09
512.51	435.34
512.69	372.15
512.86	418.96
513.04	472.79
513.21	430.66
513.38	454.06
513.56	402.57
513.73	400.23
513.90	428.32
514.08	451.72
514.25	430.66
514.43	449.38
514.60	395.55
514.77	372.15
514.95	437.68
515.12	435.34
515.29	440.02
515.47	435.34
515.64	407.25
515.81	418.96
515.99	435.34
516.16	397.89
516.33	514.92
516.51	430.66
516.68	411.93
516.85	475.13
517.03	486.83
517.20	430.66
517.37	362.78
517.54	416.62
517.72	456.40
517.89	421.30
518.06	390.87
518.24	514.92
518.41	430.66
518.58	400.23
518.75	470.45
518.93	400.23
519.10	388.53
519.27	379.17
519.45	442.36
519.62	409.59
519.79	461.09
519.96	390.87
520.14	423.64
520.31	461.09
520.48	414.27
520.65	428.32
520.83	404.91
521.00	390.87
521.17	435.34
521.34	428.32
521.52	397.89
521.69	402.57
521.86	458.74
522.03	425.98
522.20	505.56
522.38	390.87
522.55	372.15
522.72	409.59
522.89	444.70
523.07	402.57
523.24	444.70
523.41	418.96
523.58	313.63
523.75	430.66
523.92	444.70
524.10	360.44
524.27	411.93
524.44	397.89
524.61	425.98
524.78	348.74
524.96	376.83
525.13	393.21
525.30	503.22
525.47	322.99
525.64	433.00
525.81	381.51
525.98	463.43
526.16	447.04
526.33	435.34
526.50	402.57
526.67	463.43
526.84	444.70
527.01	465.77
527.18	409.59
527.36	425.98
527.53	390.87
527.70	435.34
527.87	409.59
528.04	461.09
528.21	418.96
528.38	383.85
528.55	390.87
528.72	416.62
528.89	493.85
529.07	390.87
529.24	428.32
529.41	472.79
529.58	491.51
529.75	425.98
529.92	454.06
530.09	369.80
530.26	484.49
530.43	360.44
530.60	489.17
530.77	433.00
530.94	339.38
531.11	449.38
531.28	421.30
531.46	430.66
531.63	400.23
531.80	437.68
531.97	322.99
532.14	369.80
532.31	362.78
532.48	456.40
532.65	407.25
532.82	468.11
532.99	388.53
533.16	414.27
533.33	440.02
533.50	388.53
533.67	383.85
533.84	402.57
534.01	421.30
534.18	437.68
534.35	393.21
534.52	442.36
534.69	397.89
534.86	433.00
535.03	458.74
535.20	425.98
535.37	409.59
535.54	418.96
535.71	435.34
535.88	472.79
536.05	440.02
536.22	386.19
536.38	390.87
536.55	433.00
536.72	400.23
536.89	388.53
537.06	416.62
537.23	440.02
537.40	435.34
537.57	454.06
537.74	454.06
537.91	447.04
538.08	435.34
538.25	367.46
538.42	428.32
538.59	421.30
538.75	376.83
538.92	376.83
539.09	395.55
539.26	409.59
539.43	421.30
539.60	393.21
539.77	390.87
539.94	433.00
540.11	414.27
540.28	475.13
540.44	416.62
540.61	358.10
540.78	449.38
540.95	411.93
541.12	428.32
541.29	435.34
541.46	486.83
541.62	461.09
541.79	411.93
541.96	484.49
542.13	414.27
542.30	376.83
542.47	447.04
542.63	397.89
542.80	470.45
542.97	458.74
543.14	407.25
543.31	407.25
543.48	404.91
543.64	442.36
543.81	425.98
543.98	414.27
544.15	421.30
544.32	416.62
544.48	369.80
544.65	393.21
544.82	449.38
544.99	442.36
545.16	421.30
545.32	407.25
545.49	442.36
545.66	463.43
545.83	421.30
546.00	393.21
546.16	376.83
546.33	437.68
546.50	416.62
546.67	447.04
546.83	409.59
547.00	346.40
547.17	400.23
547.34	435.34
547.50	407.25
547.67	337.04
547.84	421.30
548.00	393.21
548.17	454.06
548.34	454.06
548.51	437.68
548.67	334.70
548.84	407.25
549.01	421.30
549.18	435.34
549.34	407.25
549.51	409.59
549.68	411.93
549.84	451.72
550.01	400.23
550.18	440.02
550.34	433.00
550.51	395.55
550.68	491.51
550.84	470.45
551.01	440.02
551.18	418.96
551.34	390.87
551.51	411.93
551.68	437.68
551.84	465.77
552.01	362.78
552.18	461.09
552.34	444.70
552.51	393.21
552.68	407.25
552.84	465.77
553.01	402.57
553.18	463.43
553.34	425.98
553.51	468.11
553.67	369.80
553.84	400.23
554.01	372.15
554.17	404.91
554.34	365.12
554.51	367.46
554.67	468.11
554.84	465.77
555.00	409.59
555.17	428.32
555.33	421.30
555.50	437.68
555.67	327.68
555.83	416.62
556.00	358.10
556.16	564.07
556.33	491.51
556.50	383.85
556.66	351.08
556.83	433.00
556.99	416.62
557.16	472.79
557.32	374.49
557.49	402.57
557.65	423.64
557.82	430.66
557.98	458.74
558.15	404.91
558.32	477.47
558.48	444.70
558.65	407.25
558.81	447.04
558.98	404.91
559.14	393.21
559.31	447.04
559.47	430.66
559.64	440.02
559.80	355.76
559.97	386.19
560.13	449.38
560.30	360.44
560.46	402.57
560.63	505.56
560.79	447.04
560.96	437.68
561.12	372.15
561.29	437.68
561.45	458.74
561.61	402.57
561.78	475.13
561.94	407.25
562.11	358.10
562.27	411.93
562.44	362.78
562.60	365.12
562.77	442.36
562.93	491.51
563.10	411.93
563.26	409.59
563.42	379.17
563.59	463.43
563.75	423.64
563.92	404.91
564.08	433.00
564.24	421.30
564.41	447.04
564.57	402.57
564.74	393.21
564.90	442.36
565.07	404.91
565.23	411.93
565.39	390.87
565.56	430.66
565.72	433.00
565.88	393.21
566.05	447.04
566.21	425.98
566.38	440.02
566.54	454.06
566.70	374.49
566.87	428.32
567.03	423.64
567.19	416.62
567.36	430.66
567.52	386.19
567.68	430.66
567.85	407.25
568.01	372.15
568.17	348.74
568.34	435.34
568.50	493.85
568.66	393.21
568.83	442.36
568.99	416.62
569.15	482.15
569.32	444.70
569.48	362.78
569.64	472.79
569.81	423.64
569.97	486.83
570.13	437.68
570.30	479.81
570.46	472.79
570.62	533.64
570.78	440.02
570.95	381.51
571.11	421.30
571.27	468.11
571.43	388.53
571.60	393.21
571.76	414.27
571.92	379.17
572.09	383.85
572.25	388.53
572.41	423.64
572.57	423.64
572.74	500.87
572.90	456.40
573.06	407.25
573.22	468.11
573.38	470.45
573.55	400.23
573.71	468.11
573.87	433.00
574.03	388.53
574.20	395.55
574.36	514.92
574.52	393.21
574.68	454.06
574.84	386.19
575.01	400.23
575.17	395.55
575.33	489.17
575.49	407.25
575.65	482.15
575.82	397.89
575.98	440.02
576.14	463.43
576.30	348.74
576.46	442.36
576.62	407.25
576.79	428.32
576.95	386.19
577.11	421.30
577.27	428.32
577.43	416.62
577.59	440.02
577.75	465.77
577.92	423.64
578.08	402.57
578.24	360.44
578.40	388.53
578.56	475.13
578.72	472.79
578.88	468.11
579.04	400.23
579.21	484.49
579.37	414.27
579.53	423.64
579.69	477.47
579.85	390.87
580.01	435.34
580.17	393.21
580.33	407.25
580.49	421.30
580.65	456.40
580.82	397.89
580.98	465.77
581.14	390.87
581.30	470.45
581.46	402.57
581.62	369.80
581.78	404.91
581.94	451.72
582.10	381.51
582.26	395.55
582.42	381.51
582.58	388.53
582.74	393.21
582.90	437.68
583.06	400.23
583.22	423.64
583.38	334.70
583.54	395.55
583.70	447.04
583.86	444.70
584.02	397.89
584.18	449.38
584.34	414.27
584.50	395.55
584.66	433.00
584.82	395.55
584.98	390.87
585.14	374.49
585.30	444.70
585.46	444.70
585.62	454.06
585.78	423.64
585.94	407.25
586.10	379.17
586.26	414.27
586.42	454.06
586.58	470.45
586.74	463.43
586.90	435.34
587.06	435.34
587.22	388.53
587.38	428.32
587.54	404.91
587.70	430.66
587.86	470.45
588.02	411.93
588.18	416.62
588.34	463.43
588.49	428.32
588.65	348.74
588.81	416.62
588.97	461.09
589.13	430.66
589.29	433.00
589.45	500.87
589.61	337.04
589.77	454.06
589.93	404.91
590.08	332.36
590.24	433.00
590.40	416.62
590.56	383.85
590.72	390.87
590.88	461.09
591.04	402.57
591.20	440.02
591.35	355.76
591.51	390.87
591.67	355.76
591.83	425.98
591.99	400.23
592.15	395.55
592.31	416.62
592.46	433.00
592.62	414.27
592.78	388.53
592.94	421.30
593.10	454.06
593.26	454.06
593.41	477.47
593.57	437.68
593.73	440.02
593.89	395.55
594.05	456.40
594.20	479.81
594.36	430.66
594.52	440.02
594.68	381.51
594.84	435.34
594.99	458.74
595.15	416.62
595.31	407.25
595.47	503.22
595.62	482.15
595.78	482.15
595.94	404.91
596.10	376.83
596.25	463.43
596.41	458.74
596.57	442.36
596.73	365.12
596.88	463.43
597.04	423.64
597.20	454.06
597.36	440.02
597.51	440.02
597.67	458.74
597.83	379.17
597.99	348.74
598.14	435.34
598.30	472.79
598.46	430.66
598.61	362.78
598.77	423.64
598.93	468.11
599.09	435.34
599.24	482.15
599.40	472.79
599.56	430.66
599.71	409.59
599.87	397.89
600.03	421.30
600.18	372.15
600.34	500.87
600.50	416.62
600.65	458.74
600.81	477.47
600.97	418.96
601.12	442.36
601.28	421.30
601.44	411.93
601.59	376.83
601.75	421.30
601.91	430.66
602.06	369.80
602.22	465.77
602.37	428.32
602.53	400.23
602.69	465.77
602.84	449.38
603.00	435.34
603.16	440.02
603.31	444.70
603.47	400.23
603.62	409.59
603.78	421.30
603.94	493.85
604.09	496.19
604.25	435.34
604.40	486.83
604.56	428.32
604.71	477.47
604.87	372.15
605.03	433.00
605.18	475.13
605.34	442.36
605.49	458.74
605.65	568.75
605.80	369.80
605.96	451.72
606.12	433.00
606.27	465.77
606.43	454.06
606.58	437.68
606.74	472.79
606.89	440.02
607.05	519.60
607.20	372.15
607.36	369.80
607.51	400.23
607.67	388.53
607.82	353.42
607.98	437.68
608.13	479.81
608.29	383.85
608.44	407.25
608.60	423.64
608.75	423.64
608.91	435.34
609.06	465.77
609.22	465.77
609.37	437.68
609.53	369.80
609.68	461.09
609.84	379.17
609.99	470.45
610.15	491.51
