SpectraSuite Data File
++++++++++++++++++++++++++++++++++++
Date: Fri Oct 25 12:10:16 EDT 2013
User: price-jones
Dark Spectrum Present: No
Reference Spectrum Present: No
Number of Sampled Component Spectra: 1
Spectrometers: USB2+H05261
Integration Time (usec): 100000 (USB2+H05261)
Spectra Averaged: 1 (USB2+H05261)
Boxcar Smoothing: 0 (USB2+H05261)
Correct for Electrical Dark: No (USB2+H05261)
Strobe/Lamp Enabled: No (USB2+H05261)
Correct for Detector Non-linearity: No (USB2+H05261)
Correct for Stray Light: No (USB2+H05261)
Number of Pixels in Processed Spectrum: 2048
>>>>>Begin Processed Spectral Data<<<<<
365.73	386.19
365.92	386.19
366.12	386.19
366.32	339.38
366.52	201.29
366.72	332.36
366.91	234.05
367.11	306.61
367.31	222.35
367.51	257.46
367.70	264.48
367.90	147.45
368.10	222.35
368.30	187.24
368.49	229.37
368.69	287.89
368.89	259.80
369.09	222.35
369.28	241.08
369.48	224.69
369.68	287.89
369.87	346.40
370.07	327.68
370.27	393.21
370.47	299.59
370.66	374.49
370.86	332.36
371.06	358.10
371.25	374.49
371.45	367.46
371.65	425.98
371.84	369.80
372.04	400.23
372.24	337.04
372.44	397.89
372.63	433.00
372.83	365.12
373.03	379.17
373.22	404.91
373.42	418.96
373.62	379.17
373.81	416.62
374.01	428.32
374.21	395.55
374.40	477.47
374.60	454.06
374.79	348.74
374.99	360.44
375.19	418.96
375.38	423.64
375.58	433.00
375.78	435.34
375.97	414.27
376.17	416.62
376.37	358.10
376.56	395.55
376.76	409.59
376.95	358.10
377.15	407.25
377.35	409.59
377.54	386.19
377.74	423.64
377.93	407.25
378.13	414.27
378.33	477.47
378.52	411.93
378.72	418.96
378.91	369.80
379.11	337.04
379.31	402.57
379.50	421.30
379.70	423.64
379.89	404.91
380.09	390.87
380.28	362.78
380.48	386.19
380.68	393.21
380.87	346.40
381.07	348.74
381.26	484.49
381.46	393.21
381.65	414.27
381.85	404.91
382.04	404.91
382.24	423.64
382.43	393.21
382.63	463.43
382.83	381.51
383.02	390.87
383.22	404.91
383.41	423.64
383.61	376.83
383.80	428.32
384.00	430.66
384.19	388.53
384.39	397.89
384.58	411.93
384.78	367.46
384.97	409.59
385.17	390.87
385.36	379.17
385.56	374.49
385.75	367.46
385.95	430.66
386.14	454.06
386.34	397.89
386.53	379.17
386.72	402.57
386.92	465.77
387.11	339.38
387.31	383.85
387.50	376.83
387.70	376.83
387.89	402.57
388.09	374.49
388.28	379.17
388.48	454.06
388.67	425.98
388.86	435.34
389.06	376.83
389.25	383.85
389.45	400.23
389.64	390.87
389.84	458.74
390.03	400.23
390.22	365.12
390.42	393.21
390.61	407.25
390.81	395.55
391.00	372.15
391.19	447.04
391.39	416.62
391.58	416.62
391.78	393.21
391.97	433.00
392.16	454.06
392.36	414.27
392.55	404.91
392.75	425.98
392.94	369.80
393.13	400.23
393.33	440.02
393.52	390.87
393.71	407.25
393.91	404.91
394.10	367.46
394.29	482.15
394.49	423.64
394.68	414.27
394.88	418.96
395.07	425.98
395.26	421.30
395.46	425.98
395.65	437.68
395.84	433.00
396.04	435.34
396.23	344.06
396.42	358.10
396.62	395.55
396.81	367.46
397.00	397.89
397.19	376.83
397.39	407.25
397.58	444.70
397.77	425.98
397.97	425.98
398.16	421.30
398.35	409.59
398.55	468.11
398.74	383.85
398.93	409.59
399.12	369.80
399.32	423.64
399.51	437.68
399.70	421.30
399.90	465.77
400.09	435.34
400.28	416.62
400.47	383.85
400.67	395.55
400.86	465.77
401.05	433.00
401.24	409.59
401.44	440.02
401.63	437.68
401.82	362.78
402.01	435.34
402.21	339.38
402.40	421.30
402.59	376.83
402.78	362.78
402.97	355.76
403.17	400.23
403.36	463.43
403.55	400.23
403.74	418.96
403.93	430.66
404.13	470.45
404.32	374.49
404.51	330.02
404.70	444.70
404.89	353.42
405.09	503.22
405.28	404.91
405.47	381.51
405.66	397.89
405.85	353.42
406.05	433.00
406.24	367.46
406.43	388.53
406.62	428.32
406.81	437.68
407.00	475.13
407.20	411.93
407.39	369.80
407.58	374.49
407.77	447.04
407.96	465.77
408.15	437.68
408.34	411.93
408.54	369.80
408.73	383.85
408.92	362.78
409.11	442.36
409.30	458.74
409.49	430.66
409.68	421.30
409.87	444.70
410.07	411.93
410.26	414.27
410.45	465.77
410.64	372.15
410.83	358.10
411.02	379.17
411.21	402.57
411.40	416.62
411.59	402.57
411.78	337.04
411.98	304.27
412.17	362.78
412.36	428.32
412.55	402.57
412.74	388.53
412.93	327.68
413.12	379.17
413.31	433.00
413.50	500.87
413.69	425.98
413.88	435.34
414.07	447.04
414.26	428.32
414.45	428.32
414.64	440.02
414.83	433.00
415.02	454.06
415.22	428.32
415.41	440.02
415.60	411.93
415.79	437.68
415.98	498.53
416.17	421.30
416.36	404.91
416.55	435.34
416.74	465.77
416.93	423.64
417.12	458.74
417.31	500.87
417.50	411.93
417.69	477.47
417.88	428.32
418.07	383.85
418.26	428.32
418.45	383.85
418.64	458.74
418.83	381.51
419.02	411.93
419.21	437.68
419.39	383.85
419.58	397.89
419.77	386.19
419.96	423.64
420.15	381.51
420.34	449.38
420.53	386.19
420.72	393.21
420.91	362.78
421.10	416.62
421.29	332.36
421.48	397.89
421.67	411.93
421.86	395.55
422.05	397.89
422.24	435.34
422.43	409.59
422.61	351.08
422.80	400.23
422.99	472.79
423.18	423.64
423.37	433.00
423.56	423.64
423.75	477.47
423.94	416.62
424.13	337.04
424.32	447.04
424.50	482.15
424.69	411.93
424.88	514.92
425.07	383.85
425.26	414.27
425.45	440.02
425.64	421.30
425.83	428.32
426.01	440.02
426.20	348.74
426.39	390.87
426.58	433.00
426.77	332.36
426.96	416.62
427.15	421.30
427.33	442.36
427.52	449.38
427.71	360.44
427.90	355.76
428.09	360.44
428.28	430.66
428.46	360.44
428.65	409.59
428.84	360.44
429.03	367.46
429.22	461.09
429.40	449.38
429.59	353.42
429.78	379.17
429.97	465.77
430.16	468.11
430.34	416.62
430.53	402.57
430.72	379.17
430.91	463.43
431.10	407.25
431.28	409.59
431.47	414.27
431.66	379.17
431.85	475.13
432.03	425.98
432.22	503.22
432.41	397.89
432.60	376.83
432.79	306.61
432.97	393.21
433.16	411.93
433.35	433.00
433.54	367.46
433.72	407.25
433.91	477.47
434.10	395.55
434.28	383.85
434.47	358.10
434.66	386.19
434.85	442.36
435.03	383.85
435.22	402.57
435.41	468.11
435.59	379.17
435.78	491.51
435.97	365.12
436.16	402.57
436.34	454.06
436.53	395.55
436.72	456.40
436.90	433.00
437.09	449.38
437.28	411.93
437.46	400.23
437.65	470.45
437.84	386.19
438.02	397.89
438.21	404.91
438.40	451.72
438.58	428.32
438.77	482.15
438.96	416.62
439.14	409.59
439.33	463.43
439.52	428.32
439.70	402.57
439.89	395.55
440.08	423.64
440.26	433.00
440.45	433.00
440.63	414.27
440.82	402.57
441.01	418.96
441.19	346.40
441.38	400.23
441.57	437.68
441.75	440.02
441.94	437.68
442.12	433.00
442.31	440.02
442.50	400.23
442.68	388.53
442.87	348.74
443.05	404.91
443.24	423.64
443.43	374.49
443.61	491.51
443.80	372.15
443.98	388.53
444.17	416.62
444.35	440.02
444.54	456.40
444.73	402.57
444.91	407.25
445.10	425.98
445.28	416.62
445.47	388.53
445.65	463.43
445.84	414.27
446.02	386.19
446.21	428.32
446.39	374.49
446.58	421.30
446.77	472.79
446.95	393.21
447.14	390.87
447.32	449.38
447.51	437.68
447.69	414.27
447.88	442.36
448.06	386.19
448.25	454.06
448.43	430.66
448.62	367.46
448.80	421.30
448.99	425.98
449.17	407.25
449.36	447.04
449.54	451.72
449.73	374.49
449.91	351.08
450.10	381.51
450.28	458.74
450.46	425.98
450.65	484.49
450.83	402.57
451.02	348.74
451.20	379.17
451.39	376.83
451.57	339.38
451.76	369.80
451.94	418.96
452.13	442.36
452.31	470.45
452.49	358.10
452.68	395.55
452.86	447.04
453.05	444.70
453.23	402.57
453.42	393.21
453.60	404.91
453.78	400.23
453.97	442.36
454.15	409.59
454.34	390.87
454.52	425.98
454.70	484.49
454.89	397.89
455.07	418.96
455.26	330.02
455.44	372.15
455.62	414.27
455.81	365.12
455.99	358.10
456.17	519.60
456.36	390.87
456.54	411.93
456.73	402.57
456.91	374.49
457.09	390.87
457.28	421.30
457.46	409.59
457.64	479.81
457.83	430.66
458.01	365.12
458.19	372.15
458.38	402.57
458.56	470.45
458.74	414.27
458.93	411.93
459.11	407.25
459.29	346.40
459.48	482.15
459.66	454.06
459.84	435.34
460.03	425.98
460.21	482.15
460.39	489.17
460.57	411.93
460.76	348.74
460.94	348.74
461.12	367.46
461.31	463.43
461.49	477.47
461.67	358.10
461.85	444.70
462.04	449.38
462.22	814.51
462.40	383.85
462.59	414.27
462.77	411.93
462.95	353.42
463.13	470.45
463.32	437.68
463.50	365.12
463.68	407.25
463.86	461.09
464.05	430.66
464.23	407.25
464.41	421.30
464.59	440.02
464.78	411.93
464.96	383.85
465.14	376.83
465.32	444.70
465.50	404.91
465.69	395.55
465.87	383.85
466.05	493.85
466.23	475.13
466.41	402.57
466.60	449.38
466.78	421.30
466.96	454.06
467.14	395.55
467.32	402.57
467.51	390.87
467.69	447.04
467.87	397.89
468.05	409.59
468.23	538.32
468.41	388.53
468.60	435.34
468.78	425.98
468.96	440.02
469.14	425.98
469.32	381.51
469.50	397.89
469.69	414.27
469.87	369.80
470.05	454.06
470.23	409.59
470.41	442.36
470.59	435.34
470.77	402.57
470.95	416.62
471.14	402.57
471.32	407.25
471.50	454.06
471.68	341.72
471.86	433.00
472.04	423.64
472.22	416.62
472.40	404.91
472.58	402.57
472.77	386.19
472.95	393.21
473.13	430.66
473.31	470.45
473.49	365.12
473.67	402.57
473.85	369.80
474.03	409.59
474.21	393.21
474.39	395.55
474.57	407.25
474.75	355.76
474.93	411.93
475.12	411.93
475.30	400.23
475.48	404.91
475.66	397.89
475.84	449.38
476.02	383.85
476.20	433.00
476.38	379.17
476.56	428.32
476.74	362.78
476.92	365.12
477.10	395.55
477.28	402.57
477.46	447.04
477.64	449.38
477.82	517.26
478.00	440.02
478.18	486.83
478.36	353.42
478.54	425.98
478.72	489.17
478.90	409.59
479.08	353.42
479.26	463.43
479.44	435.34
479.62	379.17
479.80	421.30
479.98	372.15
480.16	358.10
480.34	421.30
480.52	365.12
480.70	433.00
480.88	374.49
481.06	381.51
481.24	353.42
481.41	425.98
481.59	440.02
481.77	423.64
481.95	372.15
482.13	477.47
482.31	390.87
482.49	440.02
482.67	465.77
482.85	365.12
483.03	425.98
483.21	435.34
483.39	369.80
483.57	416.62
483.74	444.70
483.92	437.68
484.10	409.59
484.28	444.70
484.46	454.06
484.64	461.09
484.82	458.74
485.00	409.59
485.18	425.98
485.35	418.96
485.53	393.21
485.71	451.72
485.89	372.15
486.07	454.06
486.25	451.72
486.43	409.59
486.61	381.51
486.78	451.72
486.96	416.62
487.14	388.53
487.32	423.64
487.50	428.32
487.68	472.79
487.85	416.62
488.03	414.27
488.21	517.26
488.39	409.59
488.57	404.91
488.75	353.42
488.92	400.23
489.10	440.02
489.28	407.25
489.46	414.27
489.64	367.46
489.81	411.93
489.99	456.40
490.17	451.72
490.35	418.96
490.53	388.53
490.70	348.74
490.88	482.15
491.06	416.62
491.24	430.66
491.41	409.59
491.59	489.17
491.77	407.25
491.95	407.25
492.13	423.64
492.30	381.51
492.48	369.80
492.66	454.06
492.84	421.30
493.01	440.02
493.19	433.00
493.37	444.70
493.54	395.55
493.72	482.15
493.90	409.59
494.08	475.13
494.25	423.64
494.43	407.25
494.61	425.98
494.79	451.72
494.96	388.53
495.14	393.21
495.32	351.08
495.49	374.49
495.67	409.59
495.85	383.85
496.02	355.76
496.20	365.12
496.38	379.17
496.55	365.12
496.73	500.87
496.91	306.61
497.09	440.02
497.26	433.00
497.44	395.55
497.62	472.79
497.79	500.87
497.97	468.11
498.14	505.56
498.32	404.91
498.50	418.96
498.67	489.17
498.85	379.17
499.03	409.59
499.20	454.06
499.38	381.51
499.56	388.53
499.73	411.93
499.91	407.25
500.08	437.68
500.26	421.30
500.44	383.85
500.61	428.32
500.79	423.64
500.97	472.79
501.14	461.09
501.32	411.93
501.49	496.19
501.67	430.66
501.84	458.74
502.02	400.23
502.20	447.04
502.37	456.40
502.55	447.04
502.72	346.40
502.90	444.70
503.07	393.21
503.25	404.91
503.43	397.89
503.60	358.10
503.78	442.36
503.95	449.38
504.13	486.83
504.30	449.38
504.48	472.79
504.65	383.85
504.83	444.70
505.01	379.17
505.18	411.93
505.36	416.62
505.53	404.91
505.71	433.00
505.88	486.83
506.06	447.04
506.23	386.19
506.41	388.53
506.58	437.68
506.76	451.72
506.93	423.64
507.11	451.72
507.28	400.23
507.46	404.91
507.63	393.21
507.81	400.23
507.98	353.42
508.16	348.74
508.33	479.81
508.50	428.32
508.68	372.15
508.85	423.64
509.03	386.19
509.20	433.00
509.38	440.02
509.55	425.98
509.73	458.74
509.90	435.34
510.08	435.34
510.25	458.74
510.42	454.06
510.60	318.31
510.77	386.19
510.95	376.83
511.12	390.87
511.30	407.25
511.47	374.49
511.64	491.51
511.82	388.53
511.99	447.04
512.17	447.04
512.34	388.53
512.51	414.27
512.69	425.98
512.86	470.45
513.04	421.30
513.21	444.70
513.38	458.74
513.56	409.59
513.73	395.55
513.90	440.02
514.08	383.85
514.25	444.70
514.43	416.62
514.60	437.68
514.77	433.00
514.95	390.87
515.12	322.99
515.29	402.57
515.47	442.36
515.64	404.91
515.81	355.76
515.99	402.57
516.16	407.25
516.33	383.85
516.51	395.55
516.68	447.04
516.85	447.04
517.03	402.57
517.20	435.34
517.37	444.70
517.54	400.23
517.72	416.62
517.89	355.76
518.06	442.36
518.24	496.19
518.41	400.23
518.58	447.04
518.75	461.09
518.93	374.49
519.10	423.64
519.27	421.30
519.45	390.87
519.62	379.17
519.79	414.27
519.96	433.00
520.14	440.02
520.31	440.02
520.48	381.51
520.65	482.15
520.83	479.81
521.00	332.36
521.17	463.43
521.34	388.53
521.52	440.02
521.69	465.77
521.86	416.62
522.03	433.00
522.20	425.98
522.38	386.19
522.55	411.93
522.72	390.87
522.89	397.89
523.07	435.34
523.24	463.43
523.41	400.23
523.58	358.10
523.75	390.87
523.92	418.96
524.10	437.68
524.27	416.62
524.44	390.87
524.61	362.78
524.78	379.17
524.96	341.72
525.13	433.00
525.30	437.68
525.47	393.21
525.64	503.22
525.81	451.72
525.98	414.27
526.16	472.79
526.33	458.74
526.50	395.55
526.67	407.25
526.84	353.42
527.01	330.02
527.18	388.53
527.36	372.15
527.53	430.66
527.70	418.96
527.87	362.78
528.04	444.70
528.21	411.93
528.38	416.62
528.55	493.85
528.72	458.74
528.89	454.06
529.07	369.80
529.24	355.76
529.41	421.30
529.58	435.34
529.75	498.53
529.92	376.83
530.09	402.57
530.26	435.34
530.43	411.93
530.60	425.98
530.77	367.46
530.94	479.81
531.11	407.25
531.28	440.02
531.46	360.44
531.63	423.64
531.80	395.55
531.97	397.89
532.14	414.27
532.31	435.34
532.48	461.09
532.65	421.30
532.82	416.62
532.99	388.53
533.16	395.55
533.33	411.93
533.50	418.96
533.67	447.04
533.84	440.02
534.01	330.02
534.18	418.96
534.35	447.04
534.52	435.34
534.69	437.68
534.86	397.89
535.03	362.78
535.20	444.70
535.37	423.64
535.54	416.62
535.71	425.98
535.88	400.23
536.05	437.68
536.22	411.93
536.38	463.43
536.55	428.32
536.72	451.72
536.89	355.76
537.06	428.32
537.23	381.51
537.40	374.49
537.57	395.55
537.74	454.06
537.91	435.34
538.08	440.02
538.25	402.57
538.42	353.42
538.59	388.53
538.75	479.81
538.92	472.79
539.09	393.21
539.26	437.68
539.43	411.93
539.60	365.12
539.77	435.34
539.94	449.38
540.11	409.59
540.28	360.44
540.44	437.68
540.61	425.98
540.78	418.96
540.95	390.87
541.12	428.32
541.29	430.66
541.46	386.19
541.62	404.91
541.79	444.70
541.96	440.02
542.13	383.85
542.30	330.02
542.47	440.02
542.63	400.23
542.80	470.45
542.97	456.40
543.14	425.98
543.31	440.02
543.48	402.57
543.64	400.23
543.81	444.70
543.98	461.09
544.15	496.19
544.32	447.04
544.48	376.83
544.65	465.77
544.82	388.53
544.99	397.89
545.16	379.17
545.32	456.40
545.49	369.80
545.66	447.04
545.83	397.89
546.00	468.11
546.16	390.87
546.33	400.23
546.50	402.57
546.67	463.43
546.83	397.89
547.00	435.34
547.17	397.89
547.34	393.21
547.50	437.68
547.67	463.43
547.84	425.98
548.00	376.83
548.17	376.83
548.34	353.42
548.51	461.09
548.67	379.17
548.84	407.25
549.01	416.62
549.18	456.40
549.34	470.45
549.51	362.78
549.68	496.19
549.84	397.89
550.01	421.30
550.18	517.26
550.34	451.72
550.51	358.10
550.68	463.43
550.84	397.89
551.01	433.00
551.18	414.27
551.34	437.68
551.51	397.89
551.68	421.30
551.84	386.19
552.01	360.44
552.18	468.11
552.34	442.36
552.51	367.46
552.68	383.85
552.84	374.49
553.01	379.17
553.18	435.34
553.34	360.44
553.51	433.00
553.67	465.77
553.84	468.11
554.01	442.36
554.17	428.32
554.34	379.17
554.51	430.66
554.67	470.45
554.84	425.98
555.00	430.66
555.17	440.02
555.33	425.98
555.50	433.00
555.67	440.02
555.83	308.95
556.00	407.25
556.16	550.03
556.33	440.02
556.50	477.47
556.66	390.87
556.83	376.83
556.99	425.98
557.16	315.97
557.32	358.10
557.49	418.96
557.65	346.40
557.82	376.83
557.98	428.32
558.15	421.30
558.32	402.57
558.48	400.23
558.65	381.51
558.81	482.15
558.98	430.66
559.14	418.96
559.31	390.87
559.47	486.83
559.64	397.89
559.80	416.62
559.97	433.00
560.13	388.53
560.30	386.19
560.46	308.95
560.63	458.74
560.79	430.66
560.96	425.98
561.12	411.93
561.29	386.19
561.45	421.30
561.61	416.62
561.78	510.24
561.94	376.83
562.11	435.34
562.27	416.62
562.44	407.25
562.60	407.25
562.77	449.38
562.93	463.43
563.10	409.59
563.26	447.04
563.42	479.81
563.59	451.72
563.75	433.00
563.92	505.56
564.08	458.74
564.24	430.66
564.41	482.15
564.57	311.29
564.74	430.66
564.90	447.04
565.07	407.25
565.23	442.36
565.39	355.76
565.56	402.57
565.72	491.51
565.88	416.62
566.05	475.13
566.21	475.13
566.38	409.59
566.54	358.10
566.70	433.00
566.87	449.38
567.03	442.36
567.19	425.98
567.36	362.78
567.52	411.93
567.68	393.21
567.85	372.15
568.01	442.36
568.17	428.32
568.34	444.70
568.50	402.57
568.66	381.51
568.83	407.25
568.99	393.21
569.15	479.81
569.32	437.68
569.48	477.47
569.64	383.85
569.81	395.55
569.97	369.80
570.13	503.22
570.30	435.34
570.46	425.98
570.62	454.06
570.78	421.30
570.95	376.83
571.11	430.66
571.27	442.36
571.43	330.02
571.60	404.91
571.76	346.40
571.92	381.51
572.09	416.62
572.25	456.40
572.41	351.08
572.57	470.45
572.74	381.51
572.90	433.00
573.06	421.30
573.22	383.85
573.38	428.32
573.55	430.66
573.71	381.51
573.87	381.51
574.03	416.62
574.20	435.34
574.36	416.62
574.52	425.98
574.68	456.40
574.84	454.06
575.01	416.62
575.17	496.19
575.33	430.66
575.49	437.68
575.65	409.59
575.82	414.27
575.98	479.81
576.14	381.51
576.30	437.68
576.46	444.70
576.62	407.25
576.79	418.96
576.95	470.45
577.11	454.06
577.27	397.89
577.43	475.13
577.59	449.38
577.75	393.21
577.92	360.44
578.08	449.38
578.24	358.10
578.40	430.66
578.56	463.43
578.72	395.55
578.88	400.23
579.04	433.00
579.21	416.62
579.37	362.78
579.53	449.38
579.69	381.51
579.85	437.68
580.01	435.34
580.17	418.96
580.33	388.53
580.49	458.74
580.65	454.06
580.82	397.89
580.98	400.23
581.14	407.25
581.30	449.38
581.46	425.98
581.62	461.09
581.78	397.89
581.94	503.22
582.10	353.42
582.26	423.64
582.42	418.96
582.58	454.06
582.74	402.57
582.90	484.49
583.06	423.64
583.22	430.66
583.38	425.98
583.54	360.44
583.70	407.25
583.86	409.59
584.02	407.25
584.18	451.72
584.34	388.53
584.50	414.27
584.66	470.45
584.82	411.93
584.98	458.74
585.14	489.17
585.30	411.93
585.46	402.57
585.62	447.04
585.78	454.06
585.94	383.85
586.10	362.78
586.26	423.64
586.42	475.13
586.58	421.30
586.74	442.36
586.90	411.93
587.06	447.04
587.22	390.87
587.38	383.85
587.54	327.68
587.70	425.98
587.86	458.74
588.02	435.34
588.18	411.93
588.34	444.70
588.49	397.89
588.65	397.89
588.81	444.70
588.97	397.89
589.13	433.00
589.29	407.25
589.45	500.87
589.61	341.72
589.77	435.34
589.93	407.25
590.08	383.85
590.24	358.10
590.40	435.34
590.56	397.89
590.72	437.68
590.88	418.96
591.04	383.85
591.20	430.66
591.35	486.83
591.51	425.98
591.67	407.25
591.83	376.83
591.99	388.53
592.15	400.23
592.31	425.98
592.46	411.93
592.62	428.32
592.78	416.62
592.94	379.17
593.10	433.00
593.26	409.59
593.41	451.72
593.57	425.98
593.73	444.70
593.89	425.98
594.05	402.57
594.20	397.89
594.36	484.49
594.52	400.23
594.68	479.81
594.84	484.49
594.99	465.77
595.15	416.62
595.31	421.30
595.47	479.81
595.62	440.02
595.78	456.40
595.94	425.98
596.10	409.59
596.25	365.12
596.41	461.09
596.57	414.27
596.73	397.89
596.88	402.57
597.04	449.38
597.20	390.87
597.36	421.30
597.51	428.32
597.67	404.91
597.83	454.06
597.99	435.34
598.14	397.89
598.30	425.98
598.46	402.57
598.61	433.00
598.77	376.83
598.93	360.44
599.09	360.44
599.24	393.21
599.40	475.13
599.56	411.93
599.71	437.68
599.87	442.36
600.03	402.57
600.18	393.21
600.34	465.77
600.50	390.87
600.65	404.91
600.81	500.87
600.97	393.21
601.12	397.89
601.28	456.40
601.44	444.70
601.59	435.34
601.75	423.64
601.91	360.44
602.06	433.00
602.22	390.87
602.37	393.21
602.53	381.51
602.69	365.12
602.84	447.04
603.00	395.55
603.16	447.04
603.31	447.04
603.47	404.91
603.62	390.87
603.78	416.62
603.94	425.98
604.09	461.09
604.25	451.72
604.40	414.27
604.56	346.40
604.71	423.64
604.87	423.64
605.03	334.70
605.18	435.34
605.34	411.93
605.49	440.02
605.65	407.25
605.80	374.49
605.96	414.27
606.12	425.98
606.27	423.64
606.43	416.62
606.58	430.66
606.74	353.42
606.89	484.49
607.05	374.49
607.20	425.98
607.36	440.02
607.51	346.40
607.67	409.59
607.82	425.98
607.98	465.77
608.13	454.06
608.29	447.04
608.44	400.23
608.60	435.34
608.75	451.72
608.91	423.64
609.06	433.00
609.22	411.93
609.37	451.72
609.53	402.57
609.68	386.19
609.84	402.57
609.99	381.51
610.15	477.47
