SpectraSuite Data File
++++++++++++++++++++++++++++++++++++
Date: Fri Oct 25 12:10:58 EDT 2013
User: price-jones
Dark Spectrum Present: No
Reference Spectrum Present: No
Number of Sampled Component Spectra: 1
Spectrometers: USB2+H05261
Integration Time (usec): 100000 (USB2+H05261)
Spectra Averaged: 1 (USB2+H05261)
Boxcar Smoothing: 0 (USB2+H05261)
Correct for Electrical Dark: No (USB2+H05261)
Strobe/Lamp Enabled: No (USB2+H05261)
Correct for Detector Non-linearity: No (USB2+H05261)
Correct for Stray Light: No (USB2+H05261)
Number of Pixels in Processed Spectrum: 2048
>>>>>Begin Processed Spectral Data<<<<<
365.73	332.36
365.92	332.36
366.12	332.36
366.32	245.76
366.52	283.20
366.72	234.05
366.91	203.63
367.11	304.27
367.31	210.65
367.51	264.48
367.70	215.33
367.90	271.50
368.10	269.16
368.30	252.78
368.49	194.26
368.69	252.78
368.89	245.76
369.09	189.58
369.28	276.18
369.48	276.18
369.68	273.84
369.87	269.16
370.07	322.99
370.27	332.36
370.47	308.95
370.66	313.63
370.86	315.97
371.06	313.63
371.25	435.34
371.45	390.87
371.65	400.23
371.84	402.57
372.04	365.12
372.24	355.76
372.44	388.53
372.63	383.85
372.83	437.68
373.03	416.62
373.22	444.70
373.42	451.72
373.62	465.77
373.81	348.74
374.01	435.34
374.21	411.93
374.40	376.83
374.60	503.22
374.79	379.17
374.99	477.47
375.19	397.89
375.38	397.89
375.58	365.12
375.78	440.02
375.97	421.30
376.17	442.36
376.37	472.79
376.56	489.17
376.76	351.08
376.95	414.27
377.15	367.46
377.35	411.93
377.54	451.72
377.74	355.76
377.93	397.89
378.13	440.02
378.33	418.96
378.52	346.40
378.72	397.89
378.91	404.91
379.11	421.30
379.31	397.89
379.50	447.04
379.70	386.19
379.89	402.57
380.09	461.09
380.28	418.96
380.48	386.19
380.68	365.12
380.87	433.00
381.07	435.34
381.26	360.44
381.46	332.36
381.65	414.27
381.85	320.65
382.04	372.15
382.24	376.83
382.43	360.44
382.63	369.80
382.83	402.57
383.02	400.23
383.22	491.51
383.41	365.12
383.61	409.59
383.80	393.21
384.00	334.70
384.19	376.83
384.39	379.17
384.58	388.53
384.78	301.93
384.97	458.74
385.17	381.51
385.36	423.64
385.56	411.93
385.75	407.25
385.95	379.17
386.14	372.15
386.34	386.19
386.53	400.23
386.72	395.55
386.92	404.91
387.11	461.09
387.31	458.74
387.50	409.59
387.70	365.12
387.89	411.93
388.09	315.97
388.28	430.66
388.48	442.36
388.67	397.89
388.86	458.74
389.06	435.34
389.25	365.12
389.45	435.34
389.64	425.98
389.84	418.96
390.03	409.59
390.22	362.78
390.42	454.06
390.61	414.27
390.81	374.49
391.00	393.21
391.19	409.59
391.39	388.53
391.58	409.59
391.78	397.89
391.97	425.98
392.16	444.70
392.36	388.53
392.55	418.96
392.75	458.74
392.94	475.13
393.13	498.53
393.33	383.85
393.52	423.64
393.71	451.72
393.91	411.93
394.10	318.31
394.29	365.12
394.49	344.06
394.68	390.87
394.88	465.77
395.07	442.36
395.26	351.08
395.46	451.72
395.65	465.77
395.84	379.17
396.04	498.53
396.23	372.15
396.42	421.30
396.62	388.53
396.81	362.78
397.00	477.47
397.19	486.83
397.39	351.08
397.58	386.19
397.77	362.78
397.97	468.11
398.16	344.06
398.35	454.06
398.55	407.25
398.74	334.70
398.93	367.46
399.12	421.30
399.32	341.72
399.51	390.87
399.70	355.76
399.90	388.53
400.09	421.30
400.28	409.59
400.47	407.25
400.67	442.36
400.86	397.89
401.05	402.57
401.24	421.30
401.44	409.59
401.63	486.83
401.82	407.25
402.01	402.57
402.21	407.25
402.40	425.98
402.59	402.57
402.78	383.85
402.97	355.76
403.17	444.70
403.36	430.66
403.55	418.96
403.74	393.21
403.93	425.98
404.13	376.83
404.32	355.76
404.51	383.85
404.70	409.59
404.89	379.17
405.09	454.06
405.28	524.28
405.47	423.64
405.66	395.55
405.85	374.49
406.05	353.42
406.24	397.89
406.43	482.15
406.62	444.70
406.81	435.34
407.00	404.91
407.20	414.27
407.39	372.15
407.58	400.23
407.77	376.83
407.96	390.87
408.15	414.27
408.34	400.23
408.54	381.51
408.73	463.43
408.92	414.27
409.11	435.34
409.30	433.00
409.49	416.62
409.68	402.57
409.87	374.49
410.07	409.59
410.26	395.55
410.45	411.93
410.64	456.40
410.83	435.34
411.02	367.46
411.21	411.93
411.40	442.36
411.59	404.91
411.78	402.57
411.98	423.64
412.17	433.00
412.36	388.53
412.55	414.27
412.74	383.85
412.93	393.21
413.12	407.25
413.31	376.83
413.50	390.87
413.69	449.38
413.88	409.59
414.07	383.85
414.26	409.59
414.45	411.93
414.64	440.02
414.83	404.91
415.02	442.36
415.22	402.57
415.41	433.00
415.60	465.77
415.79	376.83
415.98	388.53
416.17	358.10
416.36	390.87
416.55	411.93
416.74	393.21
416.93	475.13
417.12	379.17
417.31	411.93
417.50	409.59
417.69	421.30
417.88	470.45
418.07	411.93
418.26	376.83
418.45	322.99
418.64	472.79
418.83	374.49
419.02	505.56
419.21	386.19
419.39	425.98
419.58	374.49
419.77	425.98
419.96	421.30
420.15	428.32
420.34	379.17
420.53	421.30
420.72	402.57
420.91	430.66
421.10	325.33
421.29	397.89
421.48	397.89
421.67	409.59
421.86	369.80
422.05	372.15
422.24	367.46
422.43	346.40
422.61	423.64
422.80	402.57
422.99	402.57
423.18	435.34
423.37	454.06
423.56	510.24
423.75	433.00
423.94	381.51
424.13	435.34
424.32	358.10
424.50	313.63
424.69	404.91
424.88	442.36
425.07	470.45
425.26	463.43
425.45	437.68
425.64	367.46
425.83	472.79
426.01	409.59
426.20	383.85
426.39	447.04
426.58	379.17
426.77	451.72
426.96	388.53
427.15	395.55
427.33	411.93
427.52	421.30
427.71	365.12
427.90	407.25
428.09	411.93
428.28	400.23
428.46	423.64
428.65	386.19
428.84	407.25
429.03	390.87
429.22	409.59
429.40	393.21
429.59	425.98
429.78	461.09
429.97	489.17
430.16	463.43
430.34	409.59
430.53	400.23
430.72	416.62
430.91	416.62
431.10	369.80
431.28	369.80
431.47	383.85
431.66	430.66
431.85	367.46
432.03	395.55
432.22	435.34
432.41	409.59
432.60	358.10
432.79	397.89
432.97	353.42
433.16	367.46
433.35	365.12
433.54	418.96
433.72	449.38
433.91	390.87
434.10	416.62
434.28	369.80
434.47	430.66
434.66	374.49
434.85	444.70
435.03	444.70
435.22	395.55
435.41	514.92
435.59	437.68
435.78	358.10
435.97	348.74
436.16	447.04
436.34	421.30
436.53	433.00
436.72	479.81
436.90	463.43
437.09	430.66
437.28	400.23
437.46	372.15
437.65	440.02
437.84	414.27
438.02	351.08
438.21	477.47
438.40	489.17
438.58	386.19
438.77	402.57
438.96	461.09
439.14	390.87
439.33	468.11
439.52	372.15
439.70	383.85
439.89	458.74
440.08	425.98
440.26	379.17
440.45	449.38
440.63	395.55
440.82	411.93
441.01	444.70
441.19	472.79
441.38	433.00
441.57	409.59
441.75	430.66
441.94	397.89
442.12	440.02
442.31	433.00
442.50	411.93
442.68	418.96
442.87	489.17
443.05	374.49
443.24	437.68
443.43	393.21
443.61	386.19
443.80	444.70
443.98	334.70
444.17	437.68
444.35	414.27
444.54	440.02
444.73	463.43
444.91	447.04
445.10	421.30
445.28	400.23
445.47	421.30
445.65	386.19
445.84	397.89
446.02	404.91
446.21	393.21
446.39	374.49
446.58	430.66
446.77	437.68
446.95	355.76
447.14	425.98
447.32	421.30
447.51	425.98
447.69	428.32
447.88	395.55
448.06	395.55
448.25	503.22
448.43	430.66
448.62	421.30
448.80	437.68
448.99	402.57
449.17	425.98
449.36	397.89
449.54	475.13
449.73	372.15
449.91	416.62
450.10	421.30
450.28	463.43
450.46	423.64
450.65	451.72
450.83	451.72
451.02	461.09
451.20	383.85
451.39	376.83
451.57	416.62
451.76	383.85
451.94	451.72
452.13	416.62
452.31	493.85
452.49	458.74
452.68	388.53
452.86	463.43
453.05	372.15
453.23	444.70
453.42	383.85
453.60	421.30
453.78	461.09
453.97	404.91
454.15	456.40
454.34	437.68
454.52	411.93
454.70	411.93
454.89	423.64
455.07	440.02
455.26	435.34
455.44	449.38
455.62	346.40
455.81	374.49
455.99	437.68
456.17	400.23
456.36	421.30
456.54	425.98
456.73	355.76
456.91	430.66
457.09	444.70
457.28	447.04
457.46	362.78
457.64	397.89
457.83	367.46
458.01	386.19
458.19	449.38
458.38	353.42
458.56	404.91
458.74	393.21
458.93	386.19
459.11	402.57
459.29	472.79
459.48	435.34
459.66	521.94
459.84	421.30
460.03	517.26
460.21	348.74
460.39	409.59
460.57	430.66
460.76	435.34
460.94	388.53
461.12	381.51
461.31	484.49
461.49	418.96
461.67	358.10
461.85	395.55
462.04	416.62
462.22	517.26
462.40	404.91
462.59	454.06
462.77	397.89
462.95	435.34
463.13	444.70
463.32	430.66
463.50	376.83
463.68	411.93
463.86	367.46
464.05	388.53
464.23	423.64
464.41	440.02
464.59	358.10
464.78	475.13
464.96	463.43
465.14	409.59
465.32	414.27
465.50	416.62
465.69	451.72
465.87	397.89
466.05	477.47
466.23	365.12
466.41	416.62
466.60	383.85
466.78	383.85
466.96	425.98
467.14	472.79
467.32	428.32
467.51	414.27
467.69	421.30
467.87	468.11
468.05	435.34
468.23	386.19
468.41	498.53
468.60	383.85
468.78	482.15
468.96	414.27
469.14	414.27
469.32	430.66
469.50	463.43
469.69	493.85
469.87	451.72
470.05	458.74
470.23	386.19
470.41	421.30
470.59	407.25
470.77	379.17
470.95	407.25
471.14	465.77
471.32	451.72
471.50	374.49
471.68	442.36
471.86	388.53
472.04	435.34
472.22	418.96
472.40	395.55
472.58	425.98
472.77	425.98
472.95	376.83
473.13	372.15
473.31	402.57
473.49	428.32
473.67	395.55
473.85	472.79
474.03	475.13
474.21	390.87
474.39	447.04
474.57	425.98
474.75	435.34
474.93	421.30
475.12	400.23
475.30	421.30
475.48	388.53
475.66	367.46
475.84	404.91
476.02	423.64
476.20	388.53
476.38	423.64
476.56	461.09
476.74	454.06
476.92	400.23
477.10	463.43
477.28	484.49
477.46	374.49
477.64	369.80
477.82	402.57
478.00	498.53
478.18	390.87
478.36	425.98
478.54	428.32
478.72	393.21
478.90	435.34
479.08	505.56
479.26	418.96
479.44	388.53
479.62	463.43
479.80	430.66
479.98	421.30
480.16	402.57
480.34	393.21
480.52	402.57
480.70	418.96
480.88	433.00
481.06	393.21
481.24	477.47
481.41	355.76
481.59	367.46
481.77	390.87
481.95	465.77
482.13	500.87
482.31	416.62
482.49	409.59
482.67	444.70
482.85	404.91
483.03	425.98
483.21	440.02
483.39	444.70
483.57	393.21
483.74	498.53
483.92	421.30
484.10	372.15
484.28	393.21
484.46	458.74
484.64	416.62
484.82	386.19
485.00	332.36
485.18	435.34
485.35	416.62
485.53	283.20
485.71	449.38
485.89	430.66
486.07	425.98
486.25	461.09
486.43	409.59
486.61	339.38
486.78	444.70
486.96	404.91
487.14	388.53
487.32	360.44
487.50	423.64
487.68	454.06
487.85	440.02
488.03	341.72
488.21	407.25
488.39	383.85
488.57	379.17
488.75	449.38
488.92	571.09
489.10	397.89
489.28	428.32
489.46	330.02
489.64	341.72
489.81	397.89
489.99	444.70
490.17	423.64
490.35	489.17
490.53	437.68
490.70	362.78
490.88	463.43
491.06	409.59
491.24	440.02
491.41	482.15
491.59	376.83
491.77	400.23
491.95	365.12
492.13	351.08
492.30	414.27
492.48	458.74
492.66	430.66
492.84	397.89
493.01	397.89
493.19	409.59
493.37	517.26
493.54	320.65
493.72	418.96
493.90	400.23
494.08	437.68
494.25	379.17
494.43	372.15
494.61	400.23
494.79	418.96
494.96	379.17
495.14	428.32
495.32	421.30
495.49	404.91
495.67	421.30
495.85	430.66
496.02	409.59
496.20	458.74
496.38	444.70
496.55	404.91
496.73	404.91
496.91	425.98
497.09	440.02
497.26	442.36
497.44	440.02
497.62	367.46
497.79	395.55
497.97	395.55
498.14	451.72
498.32	433.00
498.50	381.51
498.67	463.43
498.85	395.55
499.03	381.51
499.20	341.72
499.38	369.80
499.56	397.89
499.73	498.53
499.91	472.79
500.08	393.21
500.26	383.85
500.44	400.23
500.61	437.68
500.79	407.25
500.97	397.89
501.14	486.83
501.32	454.06
501.49	470.45
501.67	435.34
501.84	416.62
502.02	428.32
502.20	449.38
502.37	454.06
502.55	465.77
502.72	421.30
502.90	407.25
503.07	409.59
503.25	423.64
503.43	421.30
503.60	433.00
503.78	386.19
503.95	444.70
504.13	409.59
504.30	423.64
504.48	472.79
504.65	449.38
504.83	390.87
505.01	451.72
505.18	409.59
505.36	379.17
505.53	416.62
505.71	428.32
505.88	437.68
506.06	423.64
506.23	372.15
506.41	451.72
506.58	388.53
506.76	440.02
506.93	425.98
507.11	369.80
507.28	414.27
507.46	411.93
507.63	444.70
507.81	358.10
507.98	418.96
508.16	423.64
508.33	397.89
508.50	442.36
508.68	411.93
508.85	437.68
509.03	407.25
509.20	425.98
509.38	411.93
509.55	428.32
509.73	437.68
509.90	475.13
510.08	433.00
510.25	393.21
510.42	383.85
510.60	433.00
510.77	411.93
510.95	451.72
511.12	355.76
511.30	423.64
511.47	395.55
511.64	418.96
511.82	470.45
511.99	411.93
512.17	423.64
512.34	416.62
512.51	475.13
512.69	379.17
512.86	484.49
513.04	423.64
513.21	372.15
513.38	358.10
513.56	337.04
513.73	437.68
513.90	381.51
514.08	425.98
514.25	362.78
514.43	428.32
514.60	423.64
514.77	411.93
514.95	454.06
515.12	402.57
515.29	463.43
515.47	362.78
515.64	409.59
515.81	383.85
515.99	465.77
516.16	440.02
516.33	440.02
516.51	437.68
516.68	362.78
516.85	402.57
517.03	411.93
517.20	468.11
517.37	397.89
517.54	409.59
517.72	379.17
517.89	395.55
518.06	425.98
518.24	430.66
518.41	367.46
518.58	489.17
518.75	421.30
518.93	404.91
519.10	390.87
519.27	444.70
519.45	397.89
519.62	376.83
519.79	379.17
519.96	379.17
520.14	440.02
520.31	430.66
520.48	463.43
520.65	365.12
520.83	362.78
521.00	425.98
521.17	468.11
521.34	388.53
521.52	482.15
521.69	358.10
521.86	414.27
522.03	388.53
522.20	414.27
522.38	383.85
522.55	416.62
522.72	376.83
522.89	395.55
523.07	451.72
523.24	449.38
523.41	362.78
523.58	374.49
523.75	433.00
523.92	435.34
524.10	393.21
524.27	411.93
524.44	381.51
524.61	433.00
524.78	383.85
524.96	400.23
525.13	393.21
525.30	433.00
525.47	376.83
525.64	355.76
525.81	372.15
525.98	498.53
526.16	411.93
526.33	381.51
526.50	311.29
526.67	414.27
526.84	355.76
527.01	346.40
527.18	423.64
527.36	397.89
527.53	411.93
527.70	430.66
527.87	500.87
528.04	407.25
528.21	416.62
528.38	423.64
528.55	433.00
528.72	470.45
528.89	533.64
529.07	402.57
529.24	365.12
529.41	449.38
529.58	500.87
529.75	404.91
529.92	428.32
530.09	348.74
530.26	484.49
530.43	430.66
530.60	383.85
530.77	437.68
530.94	423.64
531.11	369.80
531.28	414.27
531.46	386.19
531.63	407.25
531.80	454.06
531.97	409.59
532.14	435.34
532.31	461.09
532.48	475.13
532.65	421.30
532.82	409.59
532.99	428.32
533.16	435.34
533.33	369.80
533.50	468.11
533.67	348.74
533.84	414.27
534.01	344.06
534.18	456.40
534.35	339.38
534.52	407.25
534.69	418.96
534.86	381.51
535.03	362.78
535.20	430.66
535.37	447.04
535.54	437.68
535.71	484.49
535.88	484.49
536.05	348.74
536.22	414.27
536.38	423.64
536.55	423.64
536.72	418.96
536.89	388.53
537.06	393.21
537.23	449.38
537.40	440.02
537.57	454.06
537.74	475.13
537.91	367.46
538.08	440.02
538.25	454.06
538.42	386.19
538.59	472.79
538.75	397.89
538.92	463.43
539.09	411.93
539.26	449.38
539.43	437.68
539.60	402.57
539.77	433.00
539.94	421.30
540.11	435.34
540.28	437.68
540.44	454.06
540.61	409.59
540.78	372.15
540.95	397.89
541.12	404.91
541.29	447.04
541.46	472.79
541.62	418.96
541.79	437.68
541.96	351.08
542.13	360.44
542.30	407.25
542.47	369.80
542.63	423.64
542.80	416.62
542.97	463.43
543.14	404.91
543.31	414.27
543.48	390.87
543.64	402.57
543.81	411.93
543.98	383.85
544.15	355.76
544.32	407.25
544.48	425.98
544.65	409.59
544.82	367.46
544.99	421.30
545.16	465.77
545.32	428.32
545.49	423.64
545.66	362.78
545.83	388.53
546.00	395.55
546.16	465.77
546.33	397.89
546.50	386.19
546.67	451.72
546.83	440.02
547.00	386.19
547.17	421.30
547.34	407.25
547.50	428.32
547.67	442.36
547.84	428.32
548.00	437.68
548.17	407.25
548.34	472.79
548.51	447.04
548.67	409.59
548.84	442.36
549.01	386.19
549.18	463.43
549.34	423.64
549.51	414.27
549.68	416.62
549.84	360.44
550.01	369.80
550.18	463.43
550.34	447.04
550.51	442.36
550.68	393.21
550.84	430.66
551.01	367.46
551.18	505.56
551.34	428.32
551.51	386.19
551.68	395.55
551.84	388.53
552.01	442.36
552.18	418.96
552.34	425.98
552.51	400.23
552.68	437.68
552.84	475.13
553.01	369.80
553.18	475.13
553.34	409.59
553.51	470.45
553.67	360.44
553.84	496.19
554.01	369.80
554.17	397.89
554.34	397.89
554.51	435.34
554.67	451.72
554.84	381.51
555.00	421.30
555.17	437.68
555.33	421.30
555.50	449.38
555.67	407.25
555.83	418.96
556.00	365.12
556.16	531.30
556.33	521.94
556.50	444.70
556.66	372.15
556.83	402.57
556.99	428.32
557.16	327.68
557.32	376.83
557.49	491.51
557.65	475.13
557.82	416.62
557.98	477.47
558.15	416.62
558.32	430.66
558.48	444.70
558.65	433.00
558.81	433.00
558.98	402.57
559.14	458.74
559.31	447.04
559.47	393.21
559.64	435.34
559.80	400.23
559.97	388.53
560.13	433.00
560.30	337.04
560.46	465.77
560.63	416.62
560.79	395.55
560.96	461.09
561.12	421.30
561.29	461.09
561.45	423.64
561.61	360.44
561.78	526.62
561.94	458.74
562.11	409.59
562.27	381.51
562.44	454.06
562.60	390.87
562.77	437.68
562.93	493.85
563.10	407.25
563.26	360.44
563.42	416.62
563.59	470.45
563.75	414.27
563.92	535.98
564.08	449.38
564.24	449.38
564.41	379.17
564.57	425.98
564.74	397.89
564.90	388.53
565.07	456.40
565.23	437.68
565.39	404.91
565.56	414.27
565.72	386.19
565.88	444.70
566.05	449.38
566.21	425.98
566.38	315.97
566.54	383.85
566.70	440.02
566.87	442.36
567.03	416.62
567.19	463.43
567.36	416.62
567.52	425.98
567.68	369.80
567.85	433.00
568.01	374.49
568.17	397.89
568.34	416.62
568.50	414.27
568.66	484.49
568.83	468.11
568.99	362.78
569.15	421.30
569.32	416.62
569.48	418.96
569.64	395.55
569.81	372.15
569.97	470.45
570.13	416.62
570.30	388.53
570.46	425.98
570.62	423.64
570.78	423.64
570.95	369.80
571.11	397.89
571.27	444.70
571.43	395.55
571.60	418.96
571.76	444.70
571.92	449.38
572.09	348.74
572.25	498.53
572.41	388.53
572.57	341.72
572.74	416.62
572.90	369.80
573.06	437.68
573.22	442.36
573.38	475.13
573.55	418.96
573.71	423.64
573.87	379.17
574.03	421.30
574.20	411.93
574.36	393.21
574.52	447.04
574.68	409.59
574.84	428.32
575.01	444.70
575.17	444.70
575.33	376.83
575.49	449.38
575.65	477.47
575.82	458.74
575.98	458.74
576.14	351.08
576.30	416.62
576.46	440.02
576.62	479.81
576.79	407.25
576.95	416.62
577.11	351.08
577.27	435.34
577.43	421.30
577.59	472.79
577.75	437.68
577.92	479.81
578.08	393.21
578.24	379.17
578.40	433.00
578.56	430.66
578.72	423.64
578.88	442.36
579.04	573.43
579.21	327.68
579.37	409.59
579.53	390.87
579.69	484.49
579.85	409.59
580.01	500.87
580.17	463.43
580.33	402.57
580.49	353.42
580.65	428.32
580.82	430.66
580.98	444.70
581.14	442.36
581.30	482.15
581.46	404.91
581.62	442.36
581.78	461.09
581.94	369.80
582.10	381.51
582.26	360.44
582.42	369.80
582.58	425.98
582.74	425.98
582.90	416.62
583.06	430.66
583.22	400.23
583.38	388.53
583.54	423.64
583.70	437.68
583.86	400.23
584.02	376.83
584.18	479.81
584.34	437.68
584.50	411.93
584.66	458.74
584.82	435.34
584.98	407.25
585.14	461.09
585.30	454.06
585.46	367.46
585.62	381.51
585.78	388.53
585.94	397.89
586.10	381.51
586.26	407.25
586.42	477.47
586.58	444.70
586.74	400.23
586.90	433.00
587.06	414.27
587.22	440.02
587.38	374.49
587.54	428.32
587.70	425.98
587.86	444.70
588.02	437.68
588.18	433.00
588.34	442.36
588.49	397.89
588.65	393.21
588.81	428.32
588.97	418.96
589.13	470.45
589.29	430.66
589.45	411.93
589.61	416.62
589.77	409.59
589.93	421.30
590.08	404.91
590.24	381.51
590.40	451.72
590.56	510.24
590.72	477.47
590.88	409.59
591.04	447.04
591.20	386.19
591.35	414.27
591.51	388.53
591.67	440.02
591.83	374.49
591.99	425.98
592.15	407.25
592.31	390.87
592.46	437.68
592.62	423.64
592.78	358.10
592.94	383.85
593.10	442.36
593.26	402.57
593.41	477.47
593.57	383.85
593.73	386.19
593.89	437.68
594.05	451.72
594.20	433.00
594.36	376.83
594.52	374.49
594.68	402.57
594.84	479.81
594.99	447.04
595.15	440.02
595.31	395.55
595.47	510.24
595.62	381.51
595.78	437.68
595.94	404.91
596.10	498.53
596.25	369.80
596.41	411.93
596.57	397.89
596.73	428.32
596.88	351.08
597.04	320.65
597.20	449.38
597.36	353.42
597.51	449.38
597.67	358.10
597.83	463.43
597.99	447.04
598.14	430.66
598.30	482.15
598.46	440.02
598.61	472.79
598.77	451.72
598.93	379.17
599.09	390.87
599.24	423.64
599.40	381.51
599.56	369.80
599.71	365.12
599.87	423.64
600.03	456.40
600.18	402.57
600.34	437.68
600.50	372.15
600.65	423.64
600.81	397.89
600.97	416.62
601.12	440.02
601.28	444.70
601.44	416.62
601.59	390.87
601.75	341.72
601.91	411.93
602.06	484.49
602.22	484.49
602.37	418.96
602.53	437.68
602.69	407.25
602.84	395.55
603.00	388.53
603.16	435.34
603.31	435.34
603.47	428.32
603.62	381.51
603.78	395.55
603.94	411.93
604.09	381.51
604.25	397.89
604.40	404.91
604.56	447.04
604.71	447.04
604.87	397.89
605.03	395.55
605.18	423.64
605.34	491.51
605.49	428.32
605.65	395.55
605.80	433.00
605.96	332.36
606.12	416.62
606.27	461.09
606.43	374.49
606.58	456.40
606.74	433.00
606.89	379.17
607.05	372.15
607.20	390.87
607.36	407.25
607.51	395.55
607.67	374.49
607.82	496.19
607.98	479.81
608.13	423.64
608.29	409.59
608.44	444.70
608.60	365.12
608.75	404.91
608.91	386.19
609.06	454.06
609.22	451.72
609.37	400.23
609.53	379.17
609.68	418.96
609.84	465.77
609.99	393.21
610.15	407.25
