SpectraSuite Data File
++++++++++++++++++++++++++++++++++++
Date: Fri Oct 25 12:10:47 EDT 2013
User: price-jones
Dark Spectrum Present: No
Reference Spectrum Present: No
Number of Sampled Component Spectra: 1
Spectrometers: USB2+H05261
Integration Time (usec): 100000 (USB2+H05261)
Spectra Averaged: 1 (USB2+H05261)
Boxcar Smoothing: 0 (USB2+H05261)
Correct for Electrical Dark: No (USB2+H05261)
Strobe/Lamp Enabled: No (USB2+H05261)
Correct for Detector Non-linearity: No (USB2+H05261)
Correct for Stray Light: No (USB2+H05261)
Number of Pixels in Processed Spectrum: 2048
>>>>>Begin Processed Spectral Data<<<<<
365.73	358.10
365.92	358.10
366.12	358.10
366.32	304.27
366.52	259.80
366.72	212.99
366.91	229.37
367.11	259.80
367.31	255.12
367.51	224.69
367.70	243.42
367.90	245.76
368.10	170.86
368.30	196.60
368.49	184.90
368.69	365.12
368.89	276.18
369.09	250.44
369.28	245.76
369.48	273.84
369.68	264.48
369.87	327.68
370.07	299.59
370.27	299.59
370.47	348.74
370.66	301.93
370.86	280.86
371.06	428.32
371.25	337.04
371.45	374.49
371.65	355.76
371.84	430.66
372.04	337.04
372.24	365.12
372.44	418.96
372.63	489.17
372.83	421.30
373.03	437.68
373.22	383.85
373.42	437.68
373.62	418.96
373.81	372.15
374.01	449.38
374.21	468.11
374.40	404.91
374.60	479.81
374.79	433.00
374.99	423.64
375.19	379.17
375.38	397.89
375.58	409.59
375.78	437.68
375.97	397.89
376.17	442.36
376.37	393.21
376.56	428.32
376.76	433.00
376.95	411.93
377.15	458.74
377.35	447.04
377.54	507.90
377.74	374.49
377.93	325.33
378.13	404.91
378.33	376.83
378.52	362.78
378.72	482.15
378.91	456.40
379.11	421.30
379.31	491.51
379.50	435.34
379.70	486.83
379.89	449.38
380.09	400.23
380.28	386.19
380.48	404.91
380.68	337.04
380.87	376.83
381.07	388.53
381.26	433.00
381.46	411.93
381.65	407.25
381.85	468.11
382.04	388.53
382.24	421.30
382.43	360.44
382.63	376.83
382.83	383.85
383.02	428.32
383.22	433.00
383.41	400.23
383.61	442.36
383.80	397.89
384.00	437.68
384.19	451.72
384.39	360.44
384.58	407.25
384.78	461.09
384.97	423.64
385.17	447.04
385.36	358.10
385.56	379.17
385.75	444.70
385.95	456.40
386.14	367.46
386.34	425.98
386.53	461.09
386.72	414.27
386.92	486.83
387.11	404.91
387.31	381.51
387.50	393.21
387.70	458.74
387.89	430.66
388.09	393.21
388.28	435.34
388.48	407.25
388.67	374.49
388.86	425.98
389.06	376.83
389.25	411.93
389.45	433.00
389.64	463.43
389.84	430.66
390.03	414.27
390.22	362.78
390.42	386.19
390.61	402.57
390.81	402.57
391.00	404.91
391.19	456.40
391.39	397.89
391.58	454.06
391.78	360.44
391.97	470.45
392.16	414.27
392.36	472.79
392.55	397.89
392.75	451.72
392.94	437.68
393.13	358.10
393.33	334.70
393.52	454.06
393.71	390.87
393.91	425.98
394.10	379.17
394.29	332.36
394.49	379.17
394.68	421.30
394.88	402.57
395.07	472.79
395.26	423.64
395.46	393.21
395.65	463.43
395.84	440.02
396.04	449.38
396.23	437.68
396.42	461.09
396.62	381.51
396.81	479.81
397.00	430.66
397.19	414.27
397.39	395.55
397.58	489.17
397.77	381.51
397.97	379.17
398.16	362.78
398.35	409.59
398.55	395.55
398.74	332.36
398.93	390.87
399.12	507.90
399.32	397.89
399.51	402.57
399.70	411.93
399.90	435.34
400.09	395.55
400.28	465.77
400.47	390.87
400.67	411.93
400.86	449.38
401.05	433.00
401.24	454.06
401.44	440.02
401.63	486.83
401.82	395.55
402.01	393.21
402.21	388.53
402.40	423.64
402.59	390.87
402.78	465.77
402.97	362.78
403.17	433.00
403.36	496.19
403.55	397.89
403.74	416.62
403.93	468.11
404.13	425.98
404.32	388.53
404.51	386.19
404.70	463.43
404.89	358.10
405.09	423.64
405.28	472.79
405.47	379.17
405.66	393.21
405.85	461.09
406.05	395.55
406.24	409.59
406.43	390.87
406.62	318.31
406.81	423.64
407.00	437.68
407.20	411.93
407.39	383.85
407.58	395.55
407.77	428.32
407.96	388.53
408.15	362.78
408.34	393.21
408.54	425.98
408.73	388.53
408.92	425.98
409.11	348.74
409.30	472.79
409.49	409.59
409.68	418.96
409.87	440.02
410.07	423.64
410.26	428.32
410.45	472.79
410.64	411.93
410.83	425.98
411.02	425.98
411.21	430.66
411.40	416.62
411.59	355.76
411.78	379.17
411.98	433.00
412.17	435.34
412.36	386.19
412.55	390.87
412.74	395.55
412.93	414.27
413.12	423.64
413.31	374.49
413.50	402.57
413.69	440.02
413.88	365.12
414.07	456.40
414.26	404.91
414.45	402.57
414.64	383.85
414.83	465.77
415.02	362.78
415.22	414.27
415.41	379.17
415.60	362.78
415.79	447.04
415.98	362.78
416.17	458.74
416.36	360.44
416.55	358.10
416.74	404.91
416.93	442.36
417.12	430.66
417.31	451.72
417.50	383.85
417.69	423.64
417.88	430.66
418.07	388.53
418.26	393.21
418.45	397.89
418.64	430.66
418.83	400.23
419.02	425.98
419.21	388.53
419.39	442.36
419.58	360.44
419.77	393.21
419.96	447.04
420.15	463.43
420.34	390.87
420.53	414.27
420.72	402.57
420.91	407.25
421.10	425.98
421.29	393.21
421.48	437.68
421.67	397.89
421.86	379.17
422.05	400.23
422.24	395.55
422.43	430.66
422.61	409.59
422.80	374.49
422.99	402.57
423.18	395.55
423.37	463.43
423.56	435.34
423.75	414.27
423.94	402.57
424.13	393.21
424.32	409.59
424.50	390.87
424.69	383.85
424.88	379.17
425.07	379.17
425.26	393.21
425.45	425.98
425.64	425.98
425.83	404.91
426.01	454.06
426.20	416.62
426.39	395.55
426.58	433.00
426.77	470.45
426.96	402.57
427.15	416.62
427.33	411.93
427.52	365.12
427.71	456.40
427.90	358.10
428.09	442.36
428.28	395.55
428.46	346.40
428.65	416.62
428.84	409.59
429.03	451.72
429.22	421.30
429.40	379.17
429.59	421.30
429.78	411.93
429.97	433.00
430.16	428.32
430.34	395.55
430.53	381.51
430.72	376.83
430.91	346.40
431.10	393.21
431.28	402.57
431.47	435.34
431.66	433.00
431.85	430.66
432.03	374.49
432.22	407.25
432.41	416.62
432.60	425.98
432.79	423.64
432.97	418.96
433.16	360.44
433.35	383.85
433.54	414.27
433.72	414.27
433.91	498.53
434.10	402.57
434.28	383.85
434.47	388.53
434.66	468.11
434.85	425.98
435.03	388.53
435.22	433.00
435.41	430.66
435.59	404.91
435.78	433.00
435.97	390.87
436.16	437.68
436.34	433.00
436.53	437.68
436.72	449.38
436.90	475.13
437.09	367.46
437.28	407.25
437.46	393.21
437.65	435.34
437.84	400.23
438.02	360.44
438.21	449.38
438.40	465.77
438.58	388.53
438.77	423.64
438.96	407.25
439.14	383.85
439.33	468.11
439.52	437.68
439.70	355.76
439.89	374.49
440.08	334.70
440.26	374.49
440.45	449.38
440.63	409.59
440.82	465.77
441.01	465.77
441.19	374.49
441.38	388.53
441.57	454.06
441.75	374.49
441.94	454.06
442.12	374.49
442.31	416.62
442.50	402.57
442.68	430.66
442.87	444.70
443.05	418.96
443.24	472.79
443.43	535.98
443.61	425.98
443.80	386.19
443.98	454.06
444.17	407.25
444.35	425.98
444.54	440.02
444.73	393.21
444.91	491.51
445.10	400.23
445.28	430.66
445.47	477.47
445.65	456.40
445.84	421.30
446.02	409.59
446.21	393.21
446.39	395.55
446.58	395.55
446.77	402.57
446.95	320.65
447.14	390.87
447.32	386.19
447.51	428.32
447.69	414.27
447.88	444.70
448.06	374.49
448.25	433.00
448.43	393.21
448.62	344.06
448.80	465.77
448.99	367.46
449.17	376.83
449.36	428.32
449.54	414.27
449.73	339.38
449.91	486.83
450.10	461.09
450.28	463.43
450.46	440.02
450.65	435.34
450.83	386.19
451.02	395.55
451.20	374.49
451.39	447.04
451.57	404.91
451.76	454.06
451.94	374.49
452.13	376.83
452.31	461.09
452.49	409.59
452.68	447.04
452.86	440.02
453.05	418.96
453.23	393.21
453.42	456.40
453.60	416.62
453.78	444.70
453.97	355.76
454.15	402.57
454.34	400.23
454.52	425.98
454.70	440.02
454.89	414.27
455.07	362.78
455.26	423.64
455.44	444.70
455.62	458.74
455.81	428.32
455.99	435.34
456.17	433.00
456.36	346.40
456.54	416.62
456.73	456.40
456.91	463.43
457.09	454.06
457.28	421.30
457.46	416.62
457.64	425.98
457.83	379.17
458.01	330.02
458.19	416.62
458.38	470.45
458.56	390.87
458.74	454.06
458.93	372.15
459.11	435.34
459.29	451.72
459.48	348.74
459.66	498.53
459.84	472.79
460.03	507.90
460.21	447.04
460.39	376.83
460.57	458.74
460.76	440.02
460.94	374.49
461.12	447.04
461.31	475.13
461.49	409.59
461.67	388.53
461.85	393.21
462.04	393.21
462.22	774.72
462.40	397.89
462.59	465.77
462.77	386.19
462.95	407.25
463.13	440.02
463.32	400.23
463.50	395.55
463.68	386.19
463.86	407.25
464.05	416.62
464.23	428.32
464.41	407.25
464.59	451.72
464.78	402.57
464.96	379.17
465.14	418.96
465.32	444.70
465.50	362.78
465.69	440.02
465.87	320.65
466.05	454.06
466.23	416.62
466.41	369.80
466.60	348.74
466.78	386.19
466.96	442.36
467.14	428.32
467.32	433.00
467.51	407.25
467.69	395.55
467.87	348.74
468.05	353.42
468.23	491.51
468.41	440.02
468.60	510.24
468.78	397.89
468.96	390.87
469.14	482.15
469.32	379.17
469.50	388.53
469.69	402.57
469.87	395.55
470.05	386.19
470.23	409.59
470.41	435.34
470.59	428.32
470.77	388.53
470.95	414.27
471.14	449.38
471.32	355.76
471.50	411.93
471.68	433.00
471.86	458.74
472.04	390.87
472.22	379.17
472.40	430.66
472.58	369.80
472.77	386.19
472.95	458.74
473.13	430.66
473.31	402.57
473.49	346.40
473.67	402.57
473.85	465.77
474.03	402.57
474.21	477.47
474.39	475.13
474.57	416.62
474.75	442.36
474.93	416.62
475.12	421.30
475.30	360.44
475.48	454.06
475.66	456.40
475.84	397.89
476.02	470.45
476.20	461.09
476.38	451.72
476.56	491.51
476.74	416.62
476.92	437.68
477.10	381.51
477.28	376.83
477.46	433.00
477.64	475.13
477.82	423.64
478.00	365.12
478.18	376.83
478.36	421.30
478.54	367.46
478.72	440.02
478.90	437.68
479.08	388.53
479.26	393.21
479.44	428.32
479.62	390.87
479.80	477.47
479.98	430.66
480.16	393.21
480.34	414.27
480.52	379.17
480.70	447.04
480.88	411.93
481.06	388.53
481.24	433.00
481.41	430.66
481.59	388.53
481.77	369.80
481.95	425.98
482.13	407.25
482.31	402.57
482.49	423.64
482.67	421.30
482.85	437.68
483.03	358.10
483.21	479.81
483.39	337.04
483.57	418.96
483.74	554.71
483.92	493.85
484.10	383.85
484.28	374.49
484.46	468.11
484.64	435.34
484.82	440.02
485.00	411.93
485.18	400.23
485.35	395.55
485.53	369.80
485.71	472.79
485.89	449.38
486.07	423.64
486.25	468.11
486.43	407.25
486.61	444.70
486.78	463.43
486.96	339.38
487.14	461.09
487.32	297.25
487.50	395.55
487.68	444.70
487.85	362.78
488.03	397.89
488.21	416.62
488.39	372.15
488.57	425.98
488.75	421.30
488.92	472.79
489.10	458.74
489.28	418.96
489.46	393.21
489.64	397.89
489.81	386.19
489.99	409.59
490.17	456.40
490.35	425.98
490.53	351.08
490.70	454.06
490.88	447.04
491.06	374.49
491.24	435.34
491.41	379.17
491.59	386.19
491.77	411.93
491.95	449.38
492.13	407.25
492.30	421.30
492.48	386.19
492.66	407.25
492.84	411.93
493.01	447.04
493.19	493.85
493.37	362.78
493.54	465.77
493.72	430.66
493.90	409.59
494.08	372.15
494.25	407.25
494.43	444.70
494.61	337.04
494.79	416.62
494.96	418.96
495.14	404.91
495.32	390.87
495.49	404.91
495.67	437.68
495.85	397.89
496.02	409.59
496.20	362.78
496.38	362.78
496.55	433.00
496.73	428.32
496.91	440.02
497.09	376.83
497.26	414.27
497.44	444.70
497.62	365.12
497.79	444.70
497.97	418.96
498.14	386.19
498.32	423.64
498.50	407.25
498.67	421.30
498.85	423.64
499.03	482.15
499.20	440.02
499.38	475.13
499.56	395.55
499.73	519.60
499.91	444.70
500.08	456.40
500.26	402.57
500.44	414.27
500.61	383.85
500.79	416.62
500.97	463.43
501.14	554.71
501.32	486.83
501.49	386.19
501.67	379.17
501.84	475.13
502.02	407.25
502.20	376.83
502.37	425.98
502.55	346.40
502.72	390.87
502.90	418.96
503.07	388.53
503.25	414.27
503.43	395.55
503.60	454.06
503.78	414.27
503.95	425.98
504.13	440.02
504.30	425.98
504.48	407.25
504.65	409.59
504.83	416.62
505.01	440.02
505.18	397.89
505.36	437.68
505.53	390.87
505.71	425.98
505.88	463.43
506.06	442.36
506.23	425.98
506.41	442.36
506.58	390.87
506.76	418.96
506.93	407.25
507.11	458.74
507.28	416.62
507.46	409.59
507.63	428.32
507.81	428.32
507.98	369.80
508.16	386.19
508.33	386.19
508.50	409.59
508.68	442.36
508.85	491.51
509.03	383.85
509.20	402.57
509.38	409.59
509.55	449.38
509.73	369.80
509.90	566.41
510.08	402.57
510.25	388.53
510.42	379.17
510.60	428.32
510.77	442.36
510.95	428.32
511.12	397.89
511.30	383.85
511.47	407.25
511.64	440.02
511.82	479.81
511.99	414.27
512.17	421.30
512.34	395.55
512.51	372.15
512.69	397.89
512.86	447.04
513.04	404.91
513.21	416.62
513.38	341.72
513.56	400.23
513.73	369.80
513.90	418.96
514.08	365.12
514.25	461.09
514.43	353.42
514.60	358.10
514.77	308.95
514.95	402.57
515.12	339.38
515.29	421.30
515.47	449.38
515.64	346.40
515.81	344.06
515.99	372.15
516.16	430.66
516.33	374.49
516.51	358.10
516.68	409.59
516.85	376.83
517.03	358.10
517.20	425.98
517.37	418.96
517.54	482.15
517.72	386.19
517.89	383.85
518.06	404.91
518.24	472.79
518.41	416.62
518.58	409.59
518.75	386.19
518.93	449.38
519.10	458.74
519.27	313.63
519.45	404.91
519.62	454.06
519.79	468.11
519.96	442.36
520.14	498.53
520.31	435.34
520.48	395.55
520.65	365.12
520.83	425.98
521.00	358.10
521.17	425.98
521.34	348.74
521.52	369.80
521.69	458.74
521.86	447.04
522.03	395.55
522.20	395.55
522.38	388.53
522.55	416.62
522.72	376.83
522.89	470.45
523.07	451.72
523.24	468.11
523.41	327.68
523.58	341.72
523.75	346.40
523.92	425.98
524.10	447.04
524.27	358.10
524.44	458.74
524.61	489.17
524.78	463.43
524.96	433.00
525.13	440.02
525.30	404.91
525.47	416.62
525.64	437.68
525.81	393.21
525.98	425.98
526.16	379.17
526.33	477.47
526.50	435.34
526.67	418.96
526.84	379.17
527.01	395.55
527.18	400.23
527.36	447.04
527.53	465.77
527.70	435.34
527.87	381.51
528.04	437.68
528.21	379.17
528.38	454.06
528.55	444.70
528.72	365.12
528.89	451.72
529.07	454.06
529.24	451.72
529.41	411.93
529.58	372.15
529.75	388.53
529.92	468.11
530.09	477.47
530.26	379.17
530.43	404.91
530.60	442.36
530.77	381.51
530.94	479.81
531.11	414.27
531.28	423.64
531.46	454.06
531.63	372.15
531.80	390.87
531.97	402.57
532.14	416.62
532.31	358.10
532.48	421.30
532.65	451.72
532.82	348.74
532.99	362.78
533.16	414.27
533.33	388.53
533.50	421.30
533.67	376.83
533.84	416.62
534.01	402.57
534.18	341.72
534.35	374.49
534.52	372.15
534.69	358.10
534.86	416.62
535.03	486.83
535.20	444.70
535.37	409.59
535.54	337.04
535.71	458.74
535.88	428.32
536.05	491.51
536.22	440.02
536.38	465.77
536.55	458.74
536.72	402.57
536.89	479.81
537.06	430.66
537.23	381.51
537.40	383.85
537.57	358.10
537.74	540.66
537.91	430.66
538.08	425.98
538.25	402.57
538.42	390.87
538.59	442.36
538.75	423.64
538.92	440.02
539.09	468.11
539.26	388.53
539.43	430.66
539.60	456.40
539.77	463.43
539.94	454.06
540.11	421.30
540.28	400.23
540.44	456.40
540.61	440.02
540.78	407.25
540.95	543.00
541.12	505.56
541.29	404.91
541.46	423.64
541.62	465.77
541.79	449.38
541.96	465.77
542.13	390.87
542.30	456.40
542.47	418.96
542.63	360.44
542.80	411.93
542.97	418.96
543.14	440.02
543.31	475.13
543.48	421.30
543.64	458.74
543.81	433.00
543.98	381.51
544.15	376.83
544.32	468.11
544.48	411.93
544.65	379.17
544.82	414.27
544.99	447.04
545.16	479.81
545.32	421.30
545.49	402.57
545.66	435.34
545.83	500.87
546.00	416.62
546.16	430.66
546.33	437.68
546.50	451.72
546.67	418.96
546.83	409.59
547.00	444.70
547.17	367.46
547.34	402.57
547.50	383.85
547.67	369.80
547.84	346.40
548.00	425.98
548.17	388.53
548.34	430.66
548.51	496.19
548.67	360.44
548.84	423.64
549.01	454.06
549.18	418.96
549.34	421.30
549.51	437.68
549.68	442.36
549.84	423.64
550.01	421.30
550.18	430.66
550.34	400.23
550.51	397.89
550.68	482.15
550.84	358.10
551.01	465.77
551.18	475.13
551.34	428.32
551.51	386.19
551.68	386.19
551.84	327.68
552.01	444.70
552.18	351.08
552.34	435.34
552.51	411.93
552.68	425.98
552.84	418.96
553.01	435.34
553.18	414.27
553.34	407.25
553.51	393.21
553.67	402.57
553.84	393.21
554.01	404.91
554.17	430.66
554.34	482.15
554.51	482.15
554.67	421.30
554.84	414.27
555.00	507.90
555.17	416.62
555.33	454.06
555.50	449.38
555.67	430.66
555.83	383.85
556.00	458.74
556.16	571.09
556.33	463.43
556.50	353.42
556.66	400.23
556.83	440.02
556.99	395.55
557.16	379.17
557.32	374.49
557.49	416.62
557.65	477.47
557.82	437.68
557.98	393.21
558.15	402.57
558.32	456.40
558.48	390.87
558.65	421.30
558.81	395.55
558.98	337.04
559.14	383.85
559.31	409.59
559.47	388.53
559.64	402.57
559.80	458.74
559.97	437.68
560.13	397.89
560.30	393.21
560.46	430.66
560.63	397.89
560.79	465.77
560.96	458.74
561.12	395.55
561.29	414.27
561.45	397.89
561.61	383.85
561.78	435.34
561.94	372.15
562.11	425.98
562.27	379.17
562.44	444.70
562.60	365.12
562.77	400.23
562.93	507.90
563.10	442.36
563.26	404.91
563.42	437.68
563.59	423.64
563.75	475.13
563.92	418.96
564.08	376.83
564.24	418.96
564.41	458.74
564.57	320.65
564.74	395.55
564.90	376.83
565.07	430.66
565.23	418.96
565.39	428.32
565.56	400.23
565.72	447.04
565.88	493.85
566.05	447.04
566.21	477.47
566.38	390.87
566.54	414.27
566.70	409.59
566.87	327.68
567.03	386.19
567.19	493.85
567.36	383.85
567.52	367.46
567.68	425.98
567.85	472.79
568.01	454.06
568.17	386.19
568.34	416.62
568.50	423.64
568.66	470.45
568.83	479.81
568.99	409.59
569.15	451.72
569.32	402.57
569.48	421.30
569.64	411.93
569.81	440.02
569.97	442.36
570.13	423.64
570.30	414.27
570.46	358.10
570.62	470.45
570.78	430.66
570.95	348.74
571.11	442.36
571.27	496.19
571.43	435.34
571.60	428.32
571.76	465.77
571.92	414.27
572.09	430.66
572.25	383.85
572.41	367.46
572.57	379.17
572.74	524.28
572.90	404.91
573.06	402.57
573.22	449.38
573.38	447.04
573.55	423.64
573.71	421.30
573.87	411.93
574.03	430.66
574.20	421.30
574.36	437.68
574.52	348.74
574.68	486.83
574.84	493.85
575.01	388.53
575.17	411.93
575.33	418.96
575.49	430.66
575.65	416.62
575.82	404.91
575.98	440.02
576.14	442.36
576.30	444.70
576.46	435.34
576.62	435.34
576.79	414.27
576.95	538.32
577.11	411.93
577.27	397.89
577.43	456.40
577.59	374.49
577.75	374.49
577.92	430.66
578.08	341.72
578.24	400.23
578.40	477.47
578.56	442.36
578.72	433.00
578.88	348.74
579.04	425.98
579.21	451.72
579.37	376.83
579.53	458.74
579.69	374.49
579.85	423.64
580.01	402.57
580.17	353.42
580.33	379.17
580.49	409.59
580.65	447.04
580.82	362.78
580.98	395.55
581.14	411.93
581.30	468.11
581.46	386.19
581.62	393.21
581.78	390.87
581.94	468.11
582.10	447.04
582.26	482.15
582.42	395.55
582.58	388.53
582.74	400.23
582.90	407.25
583.06	414.27
583.22	388.53
583.38	416.62
583.54	425.98
583.70	407.25
583.86	393.21
584.02	402.57
584.18	416.62
584.34	430.66
584.50	418.96
584.66	505.56
584.82	449.38
584.98	428.32
585.14	341.72
585.30	397.89
585.46	421.30
585.62	388.53
585.78	423.64
585.94	447.04
586.10	447.04
586.26	400.23
586.42	458.74
586.58	486.83
586.74	451.72
586.90	451.72
587.06	428.32
587.22	414.27
587.38	444.70
587.54	428.32
587.70	425.98
587.86	433.00
588.02	428.32
588.18	407.25
588.34	425.98
588.49	386.19
588.65	435.34
588.81	386.19
588.97	425.98
589.13	465.77
589.29	421.30
589.45	425.98
589.61	451.72
589.77	444.70
589.93	362.78
590.08	425.98
590.24	430.66
590.40	388.53
590.56	428.32
590.72	475.13
590.88	435.34
591.04	458.74
591.20	404.91
591.35	486.83
591.51	437.68
591.67	447.04
591.83	400.23
591.99	421.30
592.15	409.59
592.31	430.66
592.46	416.62
592.62	416.62
592.78	430.66
592.94	358.10
593.10	465.77
593.26	421.30
593.41	393.21
593.57	383.85
593.73	407.25
593.89	395.55
594.05	388.53
594.20	470.45
594.36	458.74
594.52	421.30
594.68	414.27
594.84	433.00
594.99	388.53
595.15	381.51
595.31	433.00
595.47	465.77
595.62	414.27
595.78	428.32
595.94	454.06
596.10	416.62
596.25	418.96
596.41	489.17
596.57	430.66
596.73	386.19
596.88	430.66
597.04	372.15
597.20	430.66
597.36	465.77
597.51	486.83
597.67	444.70
597.83	444.70
597.99	409.59
598.14	507.90
598.30	461.09
598.46	461.09
598.61	510.24
598.77	482.15
598.93	411.93
599.09	482.15
599.24	435.34
599.40	468.11
599.56	465.77
599.71	409.59
599.87	402.57
600.03	381.51
600.18	451.72
600.34	383.85
600.50	423.64
600.65	367.46
600.81	423.64
600.97	386.19
601.12	428.32
601.28	423.64
601.44	353.42
601.59	393.21
601.75	369.80
601.91	449.38
602.06	411.93
602.22	531.30
602.37	456.40
602.53	369.80
602.69	456.40
602.84	355.76
603.00	456.40
603.16	451.72
603.31	416.62
603.47	479.81
603.62	402.57
603.78	416.62
603.94	414.27
604.09	376.83
604.25	397.89
604.40	430.66
604.56	409.59
604.71	442.36
604.87	421.30
605.03	393.21
605.18	433.00
605.34	461.09
605.49	376.83
605.65	367.46
605.80	463.43
605.96	449.38
606.12	521.94
606.27	407.25
606.43	414.27
606.58	358.10
606.74	353.42
606.89	435.34
607.05	489.17
607.20	409.59
607.36	433.00
607.51	423.64
607.67	479.81
607.82	381.51
607.98	414.27
608.13	379.17
608.29	397.89
608.44	449.38
608.60	416.62
608.75	479.81
608.91	465.77
609.06	386.19
609.22	381.51
609.37	456.40
609.53	407.25
609.68	400.23
609.84	344.06
609.99	374.49
610.15	458.74
