SpectraSuite Data File
++++++++++++++++++++++++++++++++++++
Date: Fri Oct 25 12:10:52 EDT 2013
User: price-jones
Dark Spectrum Present: No
Reference Spectrum Present: No
Number of Sampled Component Spectra: 1
Spectrometers: USB2+H05261
Integration Time (usec): 100000 (USB2+H05261)
Spectra Averaged: 1 (USB2+H05261)
Boxcar Smoothing: 0 (USB2+H05261)
Correct for Electrical Dark: No (USB2+H05261)
Strobe/Lamp Enabled: No (USB2+H05261)
Correct for Detector Non-linearity: No (USB2+H05261)
Correct for Stray Light: No (USB2+H05261)
Number of Pixels in Processed Spectrum: 2048
>>>>>Begin Processed Spectral Data<<<<<
365.73	404.91
365.92	404.91
366.12	404.91
366.32	297.25
366.52	271.50
366.72	231.71
366.91	231.71
367.11	283.20
367.31	175.54
367.51	182.56
367.70	266.82
367.90	257.46
368.10	231.71
368.30	205.97
368.49	276.18
368.69	266.82
368.89	203.63
369.09	290.23
369.28	262.14
369.48	348.74
369.68	276.18
369.87	271.50
370.07	294.91
370.27	318.31
370.47	330.02
370.66	334.70
370.86	346.40
371.06	369.80
371.25	447.04
371.45	351.08
371.65	376.83
371.84	425.98
372.04	409.59
372.24	423.64
372.44	358.10
372.63	395.55
372.83	447.04
373.03	458.74
373.22	425.98
373.42	372.15
373.62	442.36
373.81	430.66
374.01	543.00
374.21	493.85
374.40	390.87
374.60	423.64
374.79	449.38
374.99	430.66
375.19	435.34
375.38	458.74
375.58	376.83
375.78	470.45
375.97	386.19
376.17	414.27
376.37	355.76
376.56	440.02
376.76	425.98
376.95	383.85
377.15	425.98
377.35	472.79
377.54	414.27
377.74	461.09
377.93	409.59
378.13	430.66
378.33	425.98
378.52	486.83
378.72	449.38
378.91	409.59
379.11	444.70
379.31	428.32
379.50	425.98
379.70	407.25
379.89	409.59
380.09	404.91
380.28	461.09
380.48	360.44
380.68	344.06
380.87	318.31
381.07	407.25
381.26	418.96
381.46	430.66
381.65	404.91
381.85	388.53
382.04	416.62
382.24	379.17
382.43	383.85
382.63	325.33
382.83	409.59
383.02	379.17
383.22	393.21
383.41	376.83
383.61	423.64
383.80	402.57
384.00	365.12
384.19	465.77
384.39	416.62
384.58	435.34
384.78	346.40
384.97	388.53
385.17	369.80
385.36	425.98
385.56	411.93
385.75	470.45
385.95	404.91
386.14	393.21
386.34	397.89
386.53	449.38
386.72	379.17
386.92	449.38
387.11	407.25
387.31	421.30
387.50	372.15
387.70	372.15
387.89	386.19
388.09	423.64
388.28	416.62
388.48	428.32
388.67	524.28
388.86	444.70
389.06	383.85
389.25	472.79
389.45	386.19
389.64	430.66
389.84	360.44
390.03	421.30
390.22	414.27
390.42	409.59
390.61	360.44
390.81	397.89
391.00	390.87
391.19	433.00
391.39	369.80
391.58	358.10
391.78	440.02
391.97	367.46
392.16	341.72
392.36	395.55
392.55	355.76
392.75	393.21
392.94	322.99
393.13	437.68
393.33	372.15
393.52	404.91
393.71	423.64
393.91	433.00
394.10	369.80
394.29	437.68
394.49	498.53
394.68	397.89
394.88	407.25
395.07	369.80
395.26	444.70
395.46	425.98
395.65	470.45
395.84	435.34
396.04	404.91
396.23	402.57
396.42	430.66
396.62	416.62
396.81	402.57
397.00	444.70
397.19	461.09
397.39	379.17
397.58	454.06
397.77	407.25
397.97	416.62
398.16	447.04
398.35	433.00
398.55	397.89
398.74	381.51
398.93	374.49
399.12	428.32
399.32	383.85
399.51	428.32
399.70	404.91
399.90	393.21
400.09	440.02
400.28	390.87
400.47	402.57
400.67	411.93
400.86	397.89
401.05	411.93
401.24	423.64
401.44	425.98
401.63	388.53
401.82	402.57
402.01	437.68
402.21	395.55
402.40	402.57
402.59	430.66
402.78	400.23
402.97	369.80
403.17	451.72
403.36	421.30
403.55	421.30
403.74	369.80
403.93	381.51
404.13	449.38
404.32	386.19
404.51	404.91
404.70	449.38
404.89	416.62
405.09	411.93
405.28	367.46
405.47	402.57
405.66	360.44
405.85	444.70
406.05	388.53
406.24	369.80
406.43	379.17
406.62	395.55
406.81	428.32
407.00	472.79
407.20	447.04
407.39	362.78
407.58	414.27
407.77	367.46
407.96	428.32
408.15	491.51
408.34	428.32
408.54	418.96
408.73	395.55
408.92	393.21
409.11	416.62
409.30	411.93
409.49	430.66
409.68	362.78
409.87	418.96
410.07	381.51
410.26	397.89
410.45	383.85
410.64	433.00
410.83	383.85
411.02	418.96
411.21	395.55
411.40	440.02
411.59	416.62
411.78	425.98
411.98	397.89
412.17	430.66
412.36	414.27
412.55	421.30
412.74	369.80
412.93	442.36
413.12	418.96
413.31	458.74
413.50	369.80
413.69	393.21
413.88	428.32
414.07	465.77
414.26	475.13
414.45	428.32
414.64	341.72
414.83	402.57
415.02	400.23
415.22	407.25
415.41	442.36
415.60	379.17
415.79	416.62
415.98	496.19
416.17	430.66
416.36	374.49
416.55	325.33
416.74	325.33
416.93	402.57
417.12	383.85
417.31	421.30
417.50	337.04
417.69	447.04
417.88	437.68
418.07	409.59
418.26	404.91
418.45	430.66
418.64	526.62
418.83	489.17
419.02	524.28
419.21	454.06
419.39	414.27
419.58	369.80
419.77	400.23
419.96	433.00
420.15	430.66
420.34	418.96
420.53	440.02
420.72	402.57
420.91	322.99
421.10	376.83
421.29	367.46
421.48	430.66
421.67	421.30
421.86	393.21
422.05	386.19
422.24	468.11
422.43	374.49
422.61	362.78
422.80	454.06
422.99	407.25
423.18	444.70
423.37	526.62
423.56	435.34
423.75	411.93
423.94	390.87
424.13	383.85
424.32	400.23
424.50	451.72
424.69	365.12
424.88	477.47
425.07	444.70
425.26	386.19
425.45	465.77
425.64	463.43
425.83	421.30
426.01	465.77
426.20	454.06
426.39	353.42
426.58	374.49
426.77	423.64
426.96	458.74
427.15	383.85
427.33	435.34
427.52	451.72
427.71	409.59
427.90	397.89
428.09	362.78
428.28	374.49
428.46	440.02
428.65	423.64
428.84	360.44
429.03	512.58
429.22	409.59
429.40	388.53
429.59	423.64
429.78	428.32
429.97	423.64
430.16	484.49
430.34	379.17
430.53	367.46
430.72	400.23
430.91	428.32
431.10	360.44
431.28	407.25
431.47	407.25
431.66	367.46
431.85	367.46
432.03	428.32
432.22	435.34
432.41	437.68
432.60	461.09
432.79	470.45
432.97	414.27
433.16	332.36
433.35	374.49
433.54	395.55
433.72	425.98
433.91	423.64
434.10	397.89
434.28	416.62
434.47	440.02
434.66	428.32
434.85	409.59
435.03	390.87
435.22	461.09
435.41	465.77
435.59	458.74
435.78	470.45
435.97	425.98
436.16	447.04
436.34	404.91
436.53	433.00
436.72	444.70
436.90	458.74
437.09	449.38
437.28	402.57
437.46	381.51
437.65	433.00
437.84	404.91
438.02	407.25
438.21	379.17
438.40	407.25
438.58	360.44
438.77	409.59
438.96	421.30
439.14	374.49
439.33	348.74
439.52	454.06
439.70	444.70
439.89	362.78
440.08	435.34
440.26	421.30
440.45	451.72
440.63	447.04
440.82	400.23
441.01	472.79
441.19	362.78
441.38	393.21
441.57	486.83
441.75	491.51
441.94	376.83
442.12	395.55
442.31	376.83
442.50	374.49
442.68	423.64
442.87	454.06
443.05	383.85
443.24	322.99
443.43	449.38
443.61	400.23
443.80	388.53
443.98	395.55
444.17	402.57
444.35	447.04
444.54	353.42
444.73	458.74
444.91	470.45
445.10	430.66
445.28	411.93
445.47	472.79
445.65	374.49
445.84	388.53
446.02	397.89
446.21	414.27
446.39	402.57
446.58	475.13
446.77	433.00
446.95	463.43
447.14	482.15
447.32	477.47
447.51	390.87
447.69	390.87
447.88	393.21
448.06	341.72
448.25	376.83
448.43	409.59
448.62	407.25
448.80	414.27
448.99	449.38
449.17	409.59
449.36	433.00
449.54	388.53
449.73	346.40
449.91	470.45
450.10	383.85
450.28	470.45
450.46	470.45
450.65	409.59
450.83	444.70
451.02	416.62
451.20	339.38
451.39	414.27
451.57	369.80
451.76	423.64
451.94	372.15
452.13	423.64
452.31	449.38
452.49	414.27
452.68	409.59
452.86	407.25
453.05	437.68
453.23	433.00
453.42	393.21
453.60	358.10
453.78	372.15
453.97	400.23
454.15	344.06
454.34	393.21
454.52	421.30
454.70	468.11
454.89	444.70
455.07	374.49
455.26	416.62
455.44	449.38
455.62	397.89
455.81	388.53
455.99	489.17
456.17	402.57
456.36	400.23
456.54	430.66
456.73	454.06
456.91	409.59
457.09	425.98
457.28	489.17
457.46	365.12
457.64	414.27
457.83	358.10
458.01	351.08
458.19	482.15
458.38	404.91
458.56	358.10
458.74	393.21
458.93	351.08
459.11	442.36
459.29	442.36
459.48	332.36
459.66	376.83
459.84	442.36
460.03	500.87
460.21	367.46
460.39	379.17
460.57	416.62
460.76	386.19
460.94	444.70
461.12	463.43
461.31	454.06
461.49	418.96
461.67	355.76
461.85	365.12
462.04	374.49
462.22	753.65
462.40	435.34
462.59	449.38
462.77	472.79
462.95	376.83
463.13	395.55
463.32	463.43
463.50	444.70
463.68	383.85
463.86	421.30
464.05	437.68
464.23	458.74
464.41	383.85
464.59	418.96
464.78	367.46
464.96	393.21
465.14	414.27
465.32	435.34
465.50	358.10
465.69	407.25
465.87	414.27
466.05	388.53
466.23	397.89
466.41	402.57
466.60	423.64
466.78	388.53
466.96	374.49
467.14	411.93
467.32	404.91
467.51	388.53
467.69	428.32
467.87	442.36
468.05	390.87
468.23	498.53
468.41	407.25
468.60	369.80
468.78	454.06
468.96	423.64
469.14	435.34
469.32	404.91
469.50	423.64
469.69	472.79
469.87	400.23
470.05	374.49
470.23	421.30
470.41	390.87
470.59	404.91
470.77	411.93
470.95	386.19
471.14	372.15
471.32	390.87
471.50	440.02
471.68	358.10
471.86	440.02
472.04	449.38
472.22	430.66
472.40	411.93
472.58	451.72
472.77	407.25
472.95	393.21
473.13	442.36
473.31	451.72
473.49	383.85
473.67	454.06
473.85	407.25
474.03	395.55
474.21	428.32
474.39	388.53
474.57	421.30
474.75	372.15
474.93	369.80
475.12	374.49
475.30	425.98
475.48	374.49
475.66	379.17
475.84	400.23
476.02	393.21
476.20	390.87
476.38	362.78
476.56	470.45
476.74	409.59
476.92	374.49
477.10	444.70
477.28	409.59
477.46	409.59
477.64	472.79
477.82	421.30
478.00	386.19
478.18	372.15
478.36	425.98
478.54	465.77
478.72	407.25
478.90	416.62
479.08	351.08
479.26	479.81
479.44	393.21
479.62	339.38
479.80	369.80
479.98	346.40
480.16	470.45
480.34	414.27
480.52	400.23
480.70	435.34
480.88	411.93
481.06	447.04
481.24	451.72
481.41	456.40
481.59	409.59
481.77	395.55
481.95	376.83
482.13	435.34
482.31	409.59
482.49	407.25
482.67	500.87
482.85	442.36
483.03	475.13
483.21	379.17
483.39	372.15
483.57	421.30
483.74	404.91
483.92	416.62
484.10	376.83
484.28	482.15
484.46	489.17
484.64	395.55
484.82	400.23
485.00	433.00
485.18	411.93
485.35	458.74
485.53	402.57
485.71	402.57
485.89	407.25
486.07	454.06
486.25	430.66
486.43	332.36
486.61	444.70
486.78	346.40
486.96	423.64
487.14	423.64
487.32	411.93
487.50	386.19
487.68	454.06
487.85	444.70
488.03	393.21
488.21	444.70
488.39	479.81
488.57	402.57
488.75	383.85
488.92	500.87
489.10	407.25
489.28	433.00
489.46	454.06
489.64	407.25
489.81	451.72
489.99	449.38
490.17	440.02
490.35	486.83
490.53	444.70
490.70	442.36
490.88	411.93
491.06	339.38
491.24	369.80
491.41	479.81
491.59	496.19
491.77	470.45
491.95	409.59
492.13	390.87
492.30	498.53
492.48	440.02
492.66	414.27
492.84	386.19
493.01	437.68
493.19	479.81
493.37	397.89
493.54	475.13
493.72	421.30
493.90	407.25
494.08	409.59
494.25	433.00
494.43	430.66
494.61	362.78
494.79	381.51
494.96	416.62
495.14	444.70
495.32	418.96
495.49	308.95
495.67	449.38
495.85	435.34
496.02	383.85
496.20	421.30
496.38	428.32
496.55	440.02
496.73	407.25
496.91	376.83
497.09	435.34
497.26	379.17
497.44	369.80
497.62	437.68
497.79	390.87
497.97	388.53
498.14	416.62
498.32	388.53
498.50	383.85
498.67	421.30
498.85	388.53
499.03	395.55
499.20	510.24
499.38	456.40
499.56	425.98
499.73	402.57
499.91	411.93
500.08	428.32
500.26	388.53
500.44	425.98
500.61	447.04
500.79	418.96
500.97	477.47
501.14	395.55
501.32	528.96
501.49	416.62
501.67	393.21
501.84	374.49
502.02	433.00
502.20	449.38
502.37	437.68
502.55	379.17
502.72	465.77
502.90	440.02
503.07	337.04
503.25	461.09
503.43	388.53
503.60	440.02
503.78	407.25
503.95	444.70
504.13	423.64
504.30	440.02
504.48	468.11
504.65	461.09
504.83	428.32
505.01	423.64
505.18	381.51
505.36	442.36
505.53	402.57
505.71	383.85
505.88	463.43
506.06	449.38
506.23	306.61
506.41	369.80
506.58	447.04
506.76	332.36
506.93	374.49
507.11	379.17
507.28	367.46
507.46	381.51
507.63	454.06
507.81	404.91
507.98	416.62
508.16	381.51
508.33	383.85
508.50	393.21
508.68	454.06
508.85	433.00
509.03	367.46
509.20	381.51
509.38	421.30
509.55	404.91
509.73	428.32
509.90	355.76
510.08	456.40
510.25	388.53
510.42	428.32
510.60	400.23
510.77	376.83
510.95	444.70
511.12	456.40
511.30	386.19
511.47	404.91
511.64	416.62
511.82	416.62
511.99	465.77
512.17	355.76
512.34	423.64
512.51	381.51
512.69	440.02
512.86	411.93
513.04	479.81
513.21	451.72
513.38	454.06
513.56	365.12
513.73	393.21
513.90	411.93
514.08	444.70
514.25	393.21
514.43	407.25
514.60	386.19
514.77	386.19
514.95	393.21
515.12	442.36
515.29	414.27
515.47	390.87
515.64	334.70
515.81	454.06
515.99	425.98
516.16	418.96
516.33	454.06
516.51	409.59
516.68	400.23
516.85	379.17
517.03	414.27
517.20	414.27
517.37	451.72
517.54	451.72
517.72	393.21
517.89	414.27
518.06	458.74
518.24	484.49
518.41	503.22
518.58	458.74
518.75	383.85
518.93	414.27
519.10	433.00
519.27	430.66
519.45	447.04
519.62	325.33
519.79	400.23
519.96	416.62
520.14	465.77
520.31	395.55
520.48	428.32
520.65	435.34
520.83	418.96
521.00	468.11
521.17	458.74
521.34	358.10
521.52	351.08
521.69	407.25
521.86	367.46
522.03	402.57
522.20	369.80
522.38	496.19
522.55	346.40
522.72	337.04
522.89	414.27
523.07	472.79
523.24	442.36
523.41	409.59
523.58	400.23
523.75	444.70
523.92	369.80
524.10	367.46
524.27	355.76
524.44	411.93
524.61	484.49
524.78	477.47
524.96	486.83
525.13	425.98
525.30	376.83
525.47	376.83
525.64	374.49
525.81	404.91
525.98	433.00
526.16	416.62
526.33	404.91
526.50	423.64
526.67	503.22
526.84	409.59
527.01	411.93
527.18	386.19
527.36	372.15
527.53	444.70
527.70	463.43
527.87	369.80
528.04	388.53
528.21	477.47
528.38	411.93
528.55	421.30
528.72	423.64
528.89	407.25
529.07	444.70
529.24	379.17
529.41	482.15
529.58	400.23
529.75	465.77
529.92	463.43
530.09	447.04
530.26	442.36
530.43	435.34
530.60	458.74
530.77	418.96
530.94	489.17
531.11	440.02
531.28	461.09
531.46	327.68
531.63	447.04
531.80	418.96
531.97	390.87
532.14	311.29
532.31	433.00
532.48	447.04
532.65	421.30
532.82	353.42
532.99	421.30
533.16	367.46
533.33	430.66
533.50	423.64
533.67	379.17
533.84	463.43
534.01	383.85
534.18	374.49
534.35	416.62
534.52	435.34
534.69	458.74
534.86	447.04
535.03	388.53
535.20	409.59
535.37	383.85
535.54	447.04
535.71	400.23
535.88	449.38
536.05	421.30
536.22	465.77
536.38	327.68
536.55	360.44
536.72	468.11
536.89	379.17
537.06	383.85
537.23	416.62
537.40	423.64
537.57	388.53
537.74	507.90
537.91	423.64
538.08	442.36
538.25	428.32
538.42	421.30
538.59	374.49
538.75	409.59
538.92	393.21
539.09	425.98
539.26	425.98
539.43	414.27
539.60	430.66
539.77	341.72
539.94	367.46
540.11	517.26
540.28	482.15
540.44	451.72
540.61	479.81
540.78	435.34
540.95	440.02
541.12	465.77
541.29	414.27
541.46	454.06
541.62	500.87
541.79	444.70
541.96	299.59
542.13	388.53
542.30	402.57
542.47	442.36
542.63	440.02
542.80	383.85
542.97	379.17
543.14	461.09
543.31	428.32
543.48	404.91
543.64	400.23
543.81	496.19
543.98	416.62
544.15	416.62
544.32	407.25
544.48	411.93
544.65	404.91
544.82	418.96
544.99	409.59
545.16	433.00
545.32	386.19
545.49	486.83
545.66	475.13
545.83	423.64
546.00	447.04
546.16	379.17
546.33	411.93
546.50	369.80
546.67	369.80
546.83	362.78
547.00	390.87
547.17	421.30
547.34	428.32
547.50	381.51
547.67	393.21
547.84	397.89
548.00	447.04
548.17	395.55
548.34	416.62
548.51	468.11
548.67	465.77
548.84	407.25
549.01	461.09
549.18	430.66
549.34	440.02
549.51	428.32
549.68	404.91
549.84	355.76
550.01	360.44
550.18	458.74
550.34	484.49
550.51	435.34
550.68	423.64
550.84	404.91
551.01	388.53
551.18	433.00
551.34	456.40
551.51	468.11
551.68	456.40
551.84	376.83
552.01	463.43
552.18	388.53
552.34	449.38
552.51	390.87
552.68	416.62
552.84	369.80
553.01	442.36
553.18	381.51
553.34	430.66
553.51	383.85
553.67	404.91
553.84	468.11
554.01	468.11
554.17	447.04
554.34	470.45
554.51	423.64
554.67	505.56
554.84	381.51
555.00	351.08
555.17	397.89
555.33	404.91
555.50	397.89
555.67	390.87
555.83	407.25
556.00	433.00
556.16	547.69
556.33	519.60
556.50	402.57
556.66	428.32
556.83	447.04
556.99	386.19
557.16	461.09
557.32	404.91
557.49	339.38
557.65	383.85
557.82	344.06
557.98	390.87
558.15	353.42
558.32	397.89
558.48	470.45
558.65	416.62
558.81	437.68
558.98	397.89
559.14	442.36
559.31	430.66
559.47	447.04
559.64	402.57
559.80	423.64
559.97	442.36
560.13	358.10
560.30	360.44
560.46	454.06
560.63	430.66
560.79	458.74
560.96	437.68
561.12	435.34
561.29	365.12
561.45	367.46
561.61	386.19
561.78	463.43
561.94	407.25
562.11	418.96
562.27	465.77
562.44	507.90
562.60	449.38
562.77	358.10
562.93	510.24
563.10	435.34
563.26	414.27
563.42	393.21
563.59	463.43
563.75	430.66
563.92	423.64
564.08	435.34
564.24	407.25
564.41	451.72
564.57	383.85
564.74	423.64
564.90	376.83
565.07	374.49
565.23	491.51
565.39	402.57
565.56	374.49
565.72	433.00
565.88	465.77
566.05	493.85
566.21	376.83
566.38	400.23
566.54	451.72
566.70	428.32
566.87	456.40
567.03	393.21
567.19	421.30
567.36	407.25
567.52	393.21
567.68	369.80
567.85	440.02
568.01	456.40
568.17	376.83
568.34	416.62
568.50	423.64
568.66	393.21
568.83	489.17
568.99	337.04
569.15	498.53
569.32	332.36
569.48	411.93
569.64	463.43
569.81	449.38
569.97	414.27
570.13	369.80
570.30	418.96
570.46	463.43
570.62	414.27
570.78	440.02
570.95	393.21
571.11	479.81
571.27	442.36
571.43	409.59
571.60	433.00
571.76	425.98
571.92	358.10
572.09	411.93
572.25	397.89
572.41	433.00
572.57	386.19
572.74	390.87
572.90	407.25
573.06	440.02
573.22	404.91
573.38	430.66
573.55	507.90
573.71	491.51
573.87	444.70
574.03	475.13
574.20	397.89
574.36	390.87
574.52	402.57
574.68	418.96
574.84	397.89
575.01	447.04
575.17	425.98
575.33	388.53
575.49	430.66
575.65	414.27
575.82	395.55
575.98	423.64
576.14	456.40
576.30	360.44
576.46	421.30
576.62	458.74
576.79	472.79
576.95	468.11
577.11	440.02
577.27	430.66
577.43	503.22
577.59	447.04
577.75	402.57
577.92	388.53
578.08	461.09
578.24	418.96
578.40	409.59
578.56	400.23
578.72	500.87
578.88	395.55
579.04	400.23
579.21	407.25
579.37	540.66
579.53	400.23
579.69	449.38
579.85	440.02
580.01	433.00
580.17	411.93
580.33	383.85
580.49	465.77
580.65	428.32
580.82	454.06
580.98	409.59
581.14	454.06
581.30	454.06
581.46	397.89
581.62	423.64
581.78	376.83
581.94	444.70
582.10	416.62
582.26	486.83
582.42	468.11
582.58	442.36
582.74	463.43
582.90	351.08
583.06	454.06
583.22	367.46
583.38	395.55
583.54	353.42
583.70	433.00
583.86	411.93
584.02	383.85
584.18	416.62
584.34	493.85
584.50	411.93
584.66	425.98
584.82	468.11
584.98	411.93
585.14	425.98
585.30	423.64
585.46	402.57
585.62	404.91
585.78	442.36
585.94	430.66
586.10	402.57
586.26	433.00
586.42	395.55
586.58	489.17
586.74	409.59
586.90	407.25
587.06	414.27
587.22	416.62
587.38	411.93
587.54	365.12
587.70	388.53
587.86	402.57
588.02	440.02
588.18	400.23
588.34	507.90
588.49	425.98
588.65	407.25
588.81	320.65
588.97	421.30
589.13	381.51
589.29	348.74
589.45	475.13
589.61	407.25
589.77	521.94
589.93	407.25
590.08	444.70
590.24	369.80
590.40	451.72
590.56	409.59
590.72	404.91
590.88	255.12
591.04	409.59
591.20	454.06
591.35	472.79
591.51	447.04
591.67	407.25
591.83	454.06
591.99	360.44
592.15	482.15
592.31	397.89
592.46	500.87
592.62	461.09
592.78	334.70
592.94	360.44
593.10	444.70
593.26	402.57
593.41	472.79
593.57	440.02
593.73	475.13
593.89	440.02
594.05	418.96
594.20	447.04
594.36	376.83
594.52	416.62
594.68	423.64
594.84	461.09
594.99	479.81
595.15	407.25
595.31	475.13
595.47	428.32
595.62	381.51
595.78	376.83
595.94	440.02
596.10	395.55
596.25	437.68
596.41	472.79
596.57	402.57
596.73	381.51
596.88	425.98
597.04	337.04
597.20	444.70
597.36	393.21
597.51	374.49
597.67	477.47
597.83	493.85
597.99	521.94
598.14	465.77
598.30	444.70
598.46	425.98
598.61	449.38
598.77	449.38
598.93	397.89
599.09	409.59
599.24	423.64
599.40	491.51
599.56	510.24
599.71	421.30
599.87	442.36
600.03	332.36
600.18	433.00
600.34	425.98
600.50	365.12
600.65	393.21
600.81	386.19
600.97	449.38
601.12	423.64
601.28	381.51
601.44	395.55
601.59	367.46
601.75	465.77
601.91	451.72
602.06	433.00
602.22	503.22
602.37	386.19
602.53	416.62
602.69	407.25
602.84	440.02
603.00	421.30
603.16	393.21
603.31	393.21
603.47	463.43
603.62	416.62
603.78	440.02
603.94	397.89
604.09	458.74
604.25	418.96
604.40	388.53
604.56	425.98
604.71	379.17
604.87	437.68
605.03	421.30
605.18	402.57
605.34	372.15
605.49	386.19
605.65	425.98
605.80	372.15
605.96	376.83
606.12	456.40
606.27	477.47
606.43	369.80
606.58	409.59
606.74	449.38
606.89	402.57
607.05	535.98
607.20	482.15
607.36	379.17
607.51	402.57
607.67	425.98
607.82	423.64
607.98	456.40
608.13	416.62
608.29	447.04
608.44	416.62
608.60	423.64
608.75	435.34
608.91	341.72
609.06	416.62
609.22	376.83
609.37	449.38
609.53	402.57
609.68	416.62
609.84	404.91
609.99	360.44
610.15	447.04
