SpectraSuite Data File
++++++++++++++++++++++++++++++++++++
Date: Fri Oct 25 12:10:18 EDT 2013
User: price-jones
Dark Spectrum Present: No
Reference Spectrum Present: No
Number of Sampled Component Spectra: 1
Spectrometers: USB2+H05261
Integration Time (usec): 100000 (USB2+H05261)
Spectra Averaged: 1 (USB2+H05261)
Boxcar Smoothing: 0 (USB2+H05261)
Correct for Electrical Dark: No (USB2+H05261)
Strobe/Lamp Enabled: No (USB2+H05261)
Correct for Detector Non-linearity: No (USB2+H05261)
Correct for Stray Light: No (USB2+H05261)
Number of Pixels in Processed Spectrum: 2048
>>>>>Begin Processed Spectral Data<<<<<
365.73	421.30
365.92	421.30
366.12	421.30
366.32	250.44
366.52	297.25
366.72	224.69
366.91	168.52
367.11	173.20
367.31	182.56
367.51	184.90
367.70	198.95
367.90	217.67
368.10	208.31
368.30	241.08
368.49	210.65
368.69	220.01
368.89	290.23
369.09	262.14
369.28	198.95
369.48	266.82
369.68	287.89
369.87	374.49
370.07	301.93
370.27	308.95
370.47	341.72
370.66	308.95
370.86	358.10
371.06	402.57
371.25	369.80
371.45	409.59
371.65	388.53
371.84	334.70
372.04	351.08
372.24	327.68
372.44	365.12
372.63	400.23
372.83	395.55
373.03	386.19
373.22	383.85
373.42	381.51
373.62	351.08
373.81	526.62
374.01	451.72
374.21	475.13
374.40	393.21
374.60	407.25
374.79	376.83
374.99	400.23
375.19	430.66
375.38	482.15
375.58	461.09
375.78	393.21
375.97	346.40
376.17	388.53
376.37	376.83
376.56	369.80
376.76	407.25
376.95	404.91
377.15	341.72
377.35	409.59
377.54	425.98
377.74	437.68
377.93	458.74
378.13	463.43
378.33	435.34
378.52	360.44
378.72	418.96
378.91	362.78
379.11	404.91
379.31	390.87
379.50	472.79
379.70	414.27
379.89	456.40
380.09	433.00
380.28	381.51
380.48	395.55
380.68	414.27
380.87	365.12
381.07	482.15
381.26	461.09
381.46	390.87
381.65	386.19
381.85	416.62
382.04	409.59
382.24	428.32
382.43	362.78
382.63	437.68
382.83	404.91
383.02	440.02
383.22	475.13
383.41	381.51
383.61	425.98
383.80	421.30
384.00	393.21
384.19	355.76
384.39	376.83
384.58	339.38
384.78	395.55
384.97	489.17
385.17	463.43
385.36	388.53
385.56	348.74
385.75	402.57
385.95	322.99
386.14	407.25
386.34	386.19
386.53	440.02
386.72	351.08
386.92	435.34
387.11	468.11
387.31	411.93
387.50	358.10
387.70	358.10
387.89	386.19
388.09	425.98
388.28	379.17
388.48	414.27
388.67	489.17
388.86	374.49
389.06	353.42
389.25	433.00
389.45	379.17
389.64	390.87
389.84	400.23
390.03	386.19
390.22	449.38
390.42	397.89
390.61	409.59
390.81	348.74
391.00	428.32
391.19	442.36
391.39	388.53
391.58	402.57
391.78	397.89
391.97	388.53
392.16	397.89
392.36	407.25
392.55	414.27
392.75	390.87
392.94	379.17
393.13	433.00
393.33	341.72
393.52	367.46
393.71	376.83
393.91	433.00
394.10	386.19
394.29	388.53
394.49	407.25
394.68	456.40
394.88	430.66
395.07	435.34
395.26	390.87
395.46	388.53
395.65	395.55
395.84	425.98
396.04	428.32
396.23	440.02
396.42	400.23
396.62	379.17
396.81	388.53
397.00	386.19
397.19	369.80
397.39	386.19
397.58	407.25
397.77	386.19
397.97	400.23
398.16	416.62
398.35	416.62
398.55	456.40
398.74	430.66
398.93	379.17
399.12	449.38
399.32	463.43
399.51	463.43
399.70	393.21
399.90	360.44
400.09	344.06
400.28	416.62
400.47	388.53
400.67	463.43
400.86	372.15
401.05	411.93
401.24	374.49
401.44	372.15
401.63	479.81
401.82	402.57
402.01	374.49
402.21	421.30
402.40	393.21
402.59	404.91
402.78	435.34
402.97	433.00
403.17	493.85
403.36	416.62
403.55	390.87
403.74	414.27
403.93	428.32
404.13	393.21
404.32	376.83
404.51	433.00
404.70	440.02
404.89	376.83
405.09	437.68
405.28	381.51
405.47	395.55
405.66	379.17
405.85	477.47
406.05	416.62
406.24	407.25
406.43	414.27
406.62	348.74
406.81	463.43
407.00	461.09
407.20	433.00
407.39	454.06
407.58	442.36
407.77	414.27
407.96	428.32
408.15	395.55
408.34	414.27
408.54	423.64
408.73	362.78
408.92	418.96
409.11	484.49
409.30	423.64
409.49	337.04
409.68	327.68
409.87	402.57
410.07	388.53
410.26	500.87
410.45	390.87
410.64	423.64
410.83	383.85
411.02	433.00
411.21	418.96
411.40	397.89
411.59	383.85
411.78	388.53
411.98	383.85
412.17	416.62
412.36	428.32
412.55	348.74
412.74	440.02
412.93	402.57
413.12	346.40
413.31	411.93
413.50	400.23
413.69	458.74
413.88	411.93
414.07	433.00
414.26	379.17
414.45	369.80
414.64	397.89
414.83	367.46
415.02	447.04
415.22	388.53
415.41	411.93
415.60	409.59
415.79	369.80
415.98	442.36
416.17	367.46
416.36	400.23
416.55	313.63
416.74	367.46
416.93	400.23
417.12	407.25
417.31	425.98
417.50	372.15
417.69	444.70
417.88	440.02
418.07	362.78
418.26	414.27
418.45	390.87
418.64	440.02
418.83	461.09
419.02	423.64
419.21	414.27
419.39	433.00
419.58	393.21
419.77	365.12
419.96	456.40
420.15	437.68
420.34	500.87
420.53	458.74
420.72	442.36
420.91	418.96
421.10	456.40
421.29	407.25
421.48	482.15
421.67	411.93
421.86	397.89
422.05	341.72
422.24	397.89
422.43	449.38
422.61	418.96
422.80	372.15
422.99	409.59
423.18	407.25
423.37	409.59
423.56	402.57
423.75	348.74
423.94	402.57
424.13	451.72
424.32	400.23
424.50	451.72
424.69	381.51
424.88	381.51
425.07	409.59
425.26	444.70
425.45	414.27
425.64	404.91
425.83	388.53
426.01	433.00
426.20	421.30
426.39	367.46
426.58	411.93
426.77	383.85
426.96	440.02
427.15	400.23
427.33	456.40
427.52	414.27
427.71	447.04
427.90	376.83
428.09	400.23
428.28	337.04
428.46	404.91
428.65	433.00
428.84	360.44
429.03	461.09
429.22	433.00
429.40	379.17
429.59	454.06
429.78	376.83
429.97	521.94
430.16	435.34
430.34	444.70
430.53	440.02
430.72	360.44
430.91	407.25
431.10	409.59
431.28	330.02
431.47	411.93
431.66	435.34
431.85	381.51
432.03	440.02
432.22	449.38
432.41	400.23
432.60	397.89
432.79	456.40
432.97	409.59
433.16	376.83
433.35	461.09
433.54	407.25
433.72	400.23
433.91	447.04
434.10	402.57
434.28	390.87
434.47	407.25
434.66	479.81
434.85	369.80
435.03	458.74
435.22	404.91
435.41	374.49
435.59	472.79
435.78	425.98
435.97	442.36
436.16	440.02
436.34	423.64
436.53	372.15
436.72	428.32
436.90	468.11
437.09	465.77
437.28	299.59
437.46	402.57
437.65	435.34
437.84	447.04
438.02	423.64
438.21	456.40
438.40	437.68
438.58	381.51
438.77	407.25
438.96	365.12
439.14	348.74
439.33	414.27
439.52	430.66
439.70	409.59
439.89	430.66
440.08	418.96
440.26	402.57
440.45	365.12
440.63	421.30
440.82	468.11
441.01	411.93
441.19	418.96
441.38	397.89
441.57	449.38
441.75	468.11
441.94	376.83
442.12	397.89
442.31	369.80
442.50	409.59
442.68	393.21
442.87	416.62
443.05	409.59
443.24	435.34
443.43	411.93
443.61	376.83
443.80	418.96
443.98	435.34
444.17	402.57
444.35	437.68
444.54	395.55
444.73	449.38
444.91	383.85
445.10	400.23
445.28	362.78
445.47	416.62
445.65	456.40
445.84	355.76
446.02	447.04
446.21	379.17
446.39	470.45
446.58	374.49
446.77	449.38
446.95	397.89
447.14	425.98
447.32	433.00
447.51	425.98
447.69	411.93
447.88	369.80
448.06	400.23
448.25	402.57
448.43	430.66
448.62	411.93
448.80	376.83
448.99	390.87
449.17	425.98
449.36	416.62
449.54	428.32
449.73	362.78
449.91	449.38
450.10	376.83
450.28	414.27
450.46	447.04
450.65	418.96
450.83	386.19
451.02	358.10
451.20	470.45
451.39	425.98
451.57	465.77
451.76	404.91
451.94	449.38
452.13	367.46
452.31	416.62
452.49	414.27
452.68	444.70
452.86	461.09
453.05	447.04
453.23	425.98
453.42	372.15
453.60	337.04
453.78	447.04
453.97	421.30
454.15	437.68
454.34	397.89
454.52	386.19
454.70	365.12
454.89	435.34
455.07	407.25
455.26	491.51
455.44	442.36
455.62	451.72
455.81	463.43
455.99	425.98
456.17	414.27
456.36	407.25
456.54	379.17
456.73	402.57
456.91	327.68
457.09	416.62
457.28	440.02
457.46	444.70
457.64	409.59
457.83	444.70
458.01	440.02
458.19	388.53
458.38	454.06
458.56	449.38
458.74	416.62
458.93	386.19
459.11	379.17
459.29	400.23
459.48	423.64
459.66	477.47
459.84	454.06
460.03	489.17
460.21	475.13
460.39	400.23
460.57	409.59
460.76	425.98
460.94	442.36
461.12	414.27
461.31	447.04
461.49	379.17
461.67	400.23
461.85	388.53
462.04	472.79
462.22	744.29
462.40	416.62
462.59	425.98
462.77	369.80
462.95	421.30
463.13	430.66
463.32	411.93
463.50	435.34
463.68	428.32
463.86	449.38
464.05	404.91
464.23	472.79
464.41	411.93
464.59	421.30
464.78	365.12
464.96	477.47
465.14	449.38
465.32	395.55
465.50	430.66
465.69	388.53
465.87	451.72
466.05	334.70
466.23	411.93
466.41	428.32
466.60	416.62
466.78	393.21
466.96	472.79
467.14	418.96
467.32	461.09
467.51	379.17
467.69	454.06
467.87	493.85
468.05	367.46
468.23	416.62
468.41	468.11
468.60	428.32
468.78	449.38
468.96	400.23
469.14	425.98
469.32	433.00
469.50	395.55
469.69	451.72
469.87	425.98
470.05	421.30
470.23	346.40
470.41	409.59
470.59	388.53
470.77	374.49
470.95	465.77
471.14	440.02
471.32	393.21
471.50	386.19
471.68	386.19
471.86	458.74
472.04	489.17
472.22	372.15
472.40	414.27
472.58	440.02
472.77	414.27
472.95	428.32
473.13	440.02
473.31	395.55
473.49	409.59
473.67	374.49
473.85	383.85
474.03	411.93
474.21	414.27
474.39	440.02
474.57	482.15
474.75	444.70
474.93	379.17
475.12	409.59
475.30	348.74
475.48	374.49
475.66	442.36
475.84	470.45
476.02	404.91
476.20	418.96
476.38	409.59
476.56	400.23
476.74	374.49
476.92	306.61
477.10	416.62
477.28	491.51
477.46	468.11
477.64	400.23
477.82	411.93
478.00	428.32
478.18	418.96
478.36	463.43
478.54	381.51
478.72	322.99
478.90	465.77
479.08	425.98
479.26	456.40
479.44	470.45
479.62	428.32
479.80	470.45
479.98	400.23
480.16	407.25
480.34	428.32
480.52	416.62
480.70	430.66
480.88	386.19
481.06	440.02
481.24	444.70
481.41	397.89
481.59	428.32
481.77	404.91
481.95	374.49
482.13	400.23
482.31	437.68
482.49	430.66
482.67	425.98
482.85	470.45
483.03	402.57
483.21	440.02
483.39	433.00
483.57	421.30
483.74	369.80
483.92	313.63
484.10	374.49
484.28	458.74
484.46	465.77
484.64	421.30
484.82	360.44
485.00	369.80
485.18	433.00
485.35	390.87
485.53	383.85
485.71	430.66
485.89	395.55
486.07	397.89
486.25	484.49
486.43	358.10
486.61	500.87
486.78	435.34
486.96	372.15
487.14	407.25
487.32	409.59
487.50	433.00
487.68	407.25
487.85	388.53
488.03	388.53
488.21	496.19
488.39	456.40
488.57	425.98
488.75	376.83
488.92	491.51
489.10	451.72
489.28	491.51
489.46	365.12
489.64	423.64
489.81	397.89
489.99	395.55
490.17	465.77
490.35	456.40
490.53	402.57
490.70	362.78
490.88	472.79
491.06	425.98
491.24	433.00
491.41	393.21
491.59	433.00
491.77	388.53
491.95	381.51
492.13	381.51
492.30	414.27
492.48	425.98
492.66	454.06
492.84	425.98
493.01	507.90
493.19	451.72
493.37	425.98
493.54	423.64
493.72	444.70
493.90	404.91
494.08	393.21
494.25	437.68
494.43	463.43
494.61	444.70
494.79	362.78
494.96	369.80
495.14	393.21
495.32	430.66
495.49	414.27
495.67	437.68
495.85	411.93
496.02	447.04
496.20	428.32
496.38	421.30
496.55	390.87
496.73	468.11
496.91	395.55
497.09	421.30
497.26	423.64
497.44	414.27
497.62	337.04
497.79	428.32
497.97	449.38
498.14	411.93
498.32	486.83
498.50	444.70
498.67	383.85
498.85	430.66
499.03	421.30
499.20	414.27
499.38	435.34
499.56	433.00
499.73	493.85
499.91	402.57
500.08	388.53
500.26	437.68
500.44	451.72
500.61	475.13
500.79	468.11
500.97	362.78
501.14	437.68
501.32	421.30
501.49	435.34
501.67	407.25
501.84	463.43
502.02	458.74
502.20	400.23
502.37	407.25
502.55	376.83
502.72	390.87
502.90	386.19
503.07	386.19
503.25	428.32
503.43	414.27
503.60	404.91
503.78	449.38
503.95	372.15
504.13	409.59
504.30	339.38
504.48	444.70
504.65	451.72
504.83	411.93
505.01	421.30
505.18	390.87
505.36	390.87
505.53	395.55
505.71	430.66
505.88	456.40
506.06	390.87
506.23	388.53
506.41	379.17
506.58	400.23
506.76	442.36
506.93	341.72
507.11	447.04
507.28	510.24
507.46	433.00
507.63	386.19
507.81	449.38
507.98	475.13
508.16	442.36
508.33	451.72
508.50	442.36
508.68	421.30
508.85	475.13
509.03	395.55
509.20	430.66
509.38	365.12
509.55	458.74
509.73	458.74
509.90	498.53
510.08	433.00
510.25	379.17
510.42	402.57
510.60	351.08
510.77	383.85
510.95	428.32
511.12	358.10
511.30	442.36
511.47	381.51
511.64	397.89
511.82	418.96
511.99	451.72
512.17	395.55
512.34	402.57
512.51	454.06
512.69	365.12
512.86	416.62
513.04	449.38
513.21	475.13
513.38	341.72
513.56	388.53
513.73	414.27
513.90	386.19
514.08	423.64
514.25	440.02
514.43	437.68
514.60	374.49
514.77	351.08
514.95	447.04
515.12	386.19
515.29	416.62
515.47	404.91
515.64	360.44
515.81	414.27
515.99	418.96
516.16	395.55
516.33	503.22
516.51	435.34
516.68	390.87
516.85	369.80
517.03	409.59
517.20	383.85
517.37	414.27
517.54	386.19
517.72	365.12
517.89	423.64
518.06	435.34
518.24	500.87
518.41	463.43
518.58	414.27
518.75	404.91
518.93	395.55
519.10	409.59
519.27	409.59
519.45	411.93
519.62	383.85
519.79	402.57
519.96	442.36
520.14	425.98
520.31	489.17
520.48	449.38
520.65	397.89
520.83	386.19
521.00	355.76
521.17	435.34
521.34	383.85
521.52	458.74
521.69	351.08
521.86	430.66
522.03	376.83
522.20	447.04
522.38	402.57
522.55	461.09
522.72	393.21
522.89	351.08
523.07	491.51
523.24	383.85
523.41	400.23
523.58	449.38
523.75	449.38
523.92	463.43
524.10	411.93
524.27	381.51
524.44	414.27
524.61	435.34
524.78	433.00
524.96	444.70
525.13	463.43
525.30	444.70
525.47	379.17
525.64	397.89
525.81	442.36
525.98	477.47
526.16	437.68
526.33	423.64
526.50	442.36
526.67	383.85
526.84	430.66
527.01	435.34
527.18	477.47
527.36	308.95
527.53	425.98
527.70	386.19
527.87	463.43
528.04	407.25
528.21	430.66
528.38	454.06
528.55	421.30
528.72	456.40
528.89	411.93
529.07	484.49
529.24	489.17
529.41	442.36
529.58	421.30
529.75	381.51
529.92	374.49
530.09	425.98
530.26	435.34
530.43	416.62
530.60	468.11
530.77	416.62
530.94	451.72
531.11	416.62
531.28	348.74
531.46	451.72
531.63	360.44
531.80	489.17
531.97	442.36
532.14	465.77
532.31	381.51
532.48	358.10
532.65	393.21
532.82	407.25
532.99	341.72
533.16	383.85
533.33	353.42
533.50	468.11
533.67	435.34
533.84	440.02
534.01	400.23
534.18	360.44
534.35	348.74
534.52	351.08
534.69	355.76
534.86	461.09
535.03	449.38
535.20	397.89
535.37	404.91
535.54	437.68
535.71	404.91
535.88	442.36
536.05	330.02
536.22	425.98
536.38	458.74
536.55	362.78
536.72	449.38
536.89	449.38
537.06	423.64
537.23	409.59
537.40	372.15
537.57	425.98
537.74	463.43
537.91	404.91
538.08	430.66
538.25	456.40
538.42	414.27
538.59	437.68
538.75	442.36
538.92	437.68
539.09	414.27
539.26	372.15
539.43	447.04
539.60	404.91
539.77	390.87
539.94	425.98
540.11	393.21
540.28	477.47
540.44	456.40
540.61	437.68
540.78	355.76
540.95	376.83
541.12	367.46
541.29	435.34
541.46	433.00
541.62	393.21
541.79	400.23
541.96	447.04
542.13	416.62
542.30	390.87
542.47	402.57
542.63	425.98
542.80	388.53
542.97	505.56
543.14	486.83
543.31	425.98
543.48	421.30
543.64	425.98
543.81	374.49
543.98	360.44
544.15	379.17
544.32	397.89
544.48	386.19
544.65	428.32
544.82	355.76
544.99	374.49
545.16	449.38
545.32	461.09
545.49	435.34
545.66	440.02
545.83	362.78
546.00	388.53
546.16	376.83
546.33	390.87
546.50	437.68
546.67	386.19
546.83	369.80
547.00	355.76
547.17	397.89
547.34	376.83
547.50	383.85
547.67	376.83
547.84	423.64
548.00	425.98
548.17	407.25
548.34	355.76
548.51	454.06
548.67	449.38
548.84	433.00
549.01	470.45
549.18	404.91
549.34	500.87
549.51	449.38
549.68	383.85
549.84	416.62
550.01	348.74
550.18	477.47
550.34	447.04
550.51	402.57
550.68	442.36
550.84	435.34
551.01	414.27
551.18	369.80
551.34	376.83
551.51	461.09
551.68	395.55
551.84	414.27
552.01	428.32
552.18	402.57
552.34	355.76
552.51	440.02
552.68	447.04
552.84	358.10
553.01	449.38
553.18	369.80
553.34	451.72
553.51	404.91
553.67	404.91
553.84	447.04
554.01	430.66
554.17	442.36
554.34	433.00
554.51	433.00
554.67	456.40
554.84	390.87
555.00	433.00
555.17	393.21
555.33	472.79
555.50	447.04
555.67	395.55
555.83	411.93
556.00	421.30
556.16	552.37
556.33	470.45
556.50	440.02
556.66	442.36
556.83	470.45
556.99	395.55
557.16	388.53
557.32	376.83
557.49	440.02
557.65	411.93
557.82	458.74
557.98	407.25
558.15	355.76
558.32	418.96
558.48	440.02
558.65	440.02
558.81	376.83
558.98	407.25
559.14	468.11
559.31	372.15
559.47	423.64
559.64	418.96
559.80	435.34
559.97	369.80
560.13	411.93
560.30	404.91
560.46	423.64
560.63	428.32
560.79	332.36
560.96	454.06
561.12	428.32
561.29	447.04
561.45	416.62
561.61	437.68
561.78	440.02
561.94	498.53
562.11	409.59
562.27	475.13
562.44	404.91
562.60	404.91
562.77	376.83
562.93	430.66
563.10	433.00
563.26	404.91
563.42	393.21
563.59	472.79
563.75	341.72
563.92	407.25
564.08	388.53
564.24	456.40
564.41	484.49
564.57	414.27
564.74	458.74
564.90	397.89
565.07	416.62
565.23	468.11
565.39	381.51
565.56	456.40
565.72	388.53
565.88	507.90
566.05	447.04
566.21	437.68
566.38	407.25
566.54	435.34
566.70	404.91
566.87	414.27
567.03	435.34
567.19	425.98
567.36	397.89
567.52	362.78
567.68	475.13
567.85	388.53
568.01	404.91
568.17	393.21
568.34	381.51
568.50	423.64
568.66	360.44
568.83	414.27
568.99	425.98
569.15	472.79
569.32	337.04
569.48	456.40
569.64	407.25
569.81	383.85
569.97	388.53
570.13	423.64
570.30	411.93
570.46	423.64
570.62	365.12
570.78	409.59
570.95	418.96
571.11	416.62
571.27	475.13
571.43	418.96
571.60	477.47
571.76	423.64
571.92	498.53
572.09	404.91
572.25	454.06
572.41	444.70
572.57	407.25
572.74	489.17
572.90	414.27
573.06	379.17
573.22	447.04
573.38	456.40
573.55	468.11
573.71	491.51
573.87	400.23
574.03	418.96
574.20	414.27
574.36	414.27
574.52	421.30
574.68	414.27
574.84	416.62
575.01	376.83
575.17	449.38
575.33	465.77
575.49	414.27
575.65	440.02
575.82	526.62
575.98	400.23
576.14	423.64
576.30	447.04
576.46	369.80
576.62	369.80
576.79	449.38
576.95	442.36
577.11	400.23
577.27	355.76
577.43	454.06
577.59	407.25
577.75	407.25
577.92	468.11
578.08	470.45
578.24	376.83
578.40	500.87
578.56	430.66
578.72	428.32
578.88	435.34
579.04	409.59
579.21	463.43
579.37	465.77
579.53	411.93
579.69	418.96
579.85	365.12
580.01	500.87
580.17	428.32
580.33	393.21
580.49	390.87
580.65	475.13
580.82	414.27
580.98	381.51
581.14	393.21
581.30	365.12
581.46	425.98
581.62	416.62
581.78	475.13
581.94	447.04
582.10	374.49
582.26	418.96
582.42	449.38
582.58	482.15
582.74	374.49
582.90	418.96
583.06	416.62
583.22	381.51
583.38	449.38
583.54	376.83
583.70	442.36
583.86	402.57
584.02	425.98
584.18	482.15
584.34	440.02
584.50	411.93
584.66	472.79
584.82	444.70
584.98	365.12
585.14	369.80
585.30	447.04
585.46	507.90
585.62	393.21
585.78	374.49
585.94	440.02
586.10	418.96
586.26	416.62
586.42	472.79
586.58	407.25
586.74	465.77
586.90	390.87
587.06	404.91
587.22	416.62
587.38	339.38
587.54	425.98
587.70	428.32
587.86	395.55
588.02	451.72
588.18	498.53
588.34	535.98
588.49	358.10
588.65	454.06
588.81	381.51
588.97	397.89
589.13	351.08
589.29	435.34
589.45	421.30
589.61	388.53
589.77	433.00
589.93	440.02
590.08	376.83
590.24	451.72
590.40	430.66
590.56	433.00
590.72	444.70
590.88	456.40
591.04	444.70
591.20	437.68
591.35	461.09
591.51	423.64
591.67	409.59
591.83	421.30
591.99	442.36
592.15	493.85
592.31	411.93
592.46	451.72
592.62	423.64
592.78	383.85
592.94	404.91
593.10	362.78
593.26	421.30
593.41	381.51
593.57	425.98
593.73	423.64
593.89	463.43
594.05	437.68
594.20	479.81
594.36	411.93
594.52	355.76
594.68	407.25
594.84	456.40
594.99	400.23
595.15	430.66
595.31	444.70
595.47	442.36
595.62	463.43
595.78	440.02
595.94	393.21
596.10	397.89
596.25	463.43
596.41	418.96
596.57	404.91
596.73	367.46
596.88	484.49
597.04	397.89
597.20	437.68
597.36	479.81
597.51	411.93
597.67	372.15
597.83	447.04
597.99	409.59
598.14	440.02
598.30	463.43
598.46	400.23
598.61	465.77
598.77	456.40
598.93	463.43
599.09	479.81
599.24	458.74
599.40	498.53
599.56	444.70
599.71	395.55
599.87	395.55
600.03	472.79
600.18	416.62
600.34	447.04
600.50	449.38
600.65	407.25
600.81	454.06
600.97	430.66
601.12	418.96
601.28	500.87
601.44	416.62
601.59	411.93
601.75	503.22
601.91	374.49
602.06	430.66
602.22	479.81
602.37	400.23
602.53	362.78
602.69	376.83
602.84	433.00
603.00	416.62
603.16	456.40
603.31	435.34
603.47	365.12
603.62	400.23
603.78	372.15
603.94	409.59
604.09	388.53
604.25	409.59
604.40	449.38
604.56	355.76
604.71	491.51
604.87	404.91
605.03	416.62
605.18	397.89
605.34	461.09
605.49	444.70
605.65	430.66
605.80	449.38
605.96	409.59
606.12	440.02
606.27	463.43
606.43	421.30
606.58	407.25
606.74	411.93
606.89	465.77
607.05	421.30
607.20	433.00
607.36	454.06
607.51	433.00
607.67	475.13
607.82	444.70
607.98	454.06
608.13	458.74
608.29	395.55
608.44	458.74
608.60	475.13
608.75	451.72
608.91	411.93
609.06	482.15
609.22	423.64
609.37	397.89
609.53	411.93
609.68	458.74
609.84	400.23
609.99	440.02
610.15	456.40
