SpectraSuite Data File
++++++++++++++++++++++++++++++++++++
Date: Fri Oct 25 12:10:45 EDT 2013
User: price-jones
Dark Spectrum Present: No
Reference Spectrum Present: No
Number of Sampled Component Spectra: 1
Spectrometers: USB2+H05261
Integration Time (usec): 100000 (USB2+H05261)
Spectra Averaged: 1 (USB2+H05261)
Boxcar Smoothing: 0 (USB2+H05261)
Correct for Electrical Dark: No (USB2+H05261)
Strobe/Lamp Enabled: No (USB2+H05261)
Correct for Detector Non-linearity: No (USB2+H05261)
Correct for Stray Light: No (USB2+H05261)
Number of Pixels in Processed Spectrum: 2048
>>>>>Begin Processed Spectral Data<<<<<
365.73	365.12
365.92	365.12
366.12	365.12
366.32	273.84
366.52	175.54
366.72	215.33
366.91	266.82
367.11	236.39
367.31	259.80
367.51	220.01
367.70	215.33
367.90	264.48
368.10	224.69
368.30	276.18
368.49	241.08
368.69	220.01
368.89	287.89
369.09	285.55
369.28	266.82
369.48	322.99
369.68	313.63
369.87	273.84
370.07	308.95
370.27	383.85
370.47	320.65
370.66	395.55
370.86	362.78
371.06	360.44
371.25	425.98
371.45	346.40
371.65	379.17
371.84	322.99
372.04	327.68
372.24	390.87
372.44	390.87
372.63	416.62
372.83	418.96
373.03	362.78
373.22	411.93
373.42	360.44
373.62	369.80
373.81	386.19
374.01	472.79
374.21	381.51
374.40	390.87
374.60	456.40
374.79	486.83
374.99	447.04
375.19	425.98
375.38	451.72
375.58	425.98
375.78	423.64
375.97	491.51
376.17	442.36
376.37	372.15
376.56	477.47
376.76	449.38
376.95	381.51
377.15	386.19
377.35	386.19
377.54	468.11
377.74	447.04
377.93	447.04
378.13	395.55
378.33	468.11
378.52	447.04
378.72	379.17
378.91	376.83
379.11	334.70
379.31	381.51
379.50	430.66
379.70	435.34
379.89	444.70
380.09	414.27
380.28	339.38
380.48	414.27
380.68	360.44
380.87	374.49
381.07	425.98
381.26	444.70
381.46	372.15
381.65	437.68
381.85	449.38
382.04	435.34
382.24	411.93
382.43	430.66
382.63	388.53
382.83	428.32
383.02	449.38
383.22	421.30
383.41	390.87
383.61	437.68
383.80	498.53
384.00	402.57
384.19	407.25
384.39	397.89
384.58	402.57
384.78	407.25
384.97	400.23
385.17	411.93
385.36	395.55
385.56	341.72
385.75	433.00
385.95	395.55
386.14	456.40
386.34	430.66
386.53	341.72
386.72	372.15
386.92	400.23
387.11	465.77
387.31	430.66
387.50	337.04
387.70	346.40
387.89	444.70
388.09	386.19
388.28	404.91
388.48	409.59
388.67	421.30
388.86	416.62
389.06	369.80
389.25	383.85
389.45	416.62
389.64	395.55
389.84	411.93
390.03	407.25
390.22	348.74
390.42	367.46
390.61	372.15
390.81	386.19
391.00	388.53
391.19	393.21
391.39	428.32
391.58	440.02
391.78	306.61
391.97	433.00
392.16	351.08
392.36	482.15
392.55	489.17
392.75	428.32
392.94	447.04
393.13	435.34
393.33	437.68
393.52	440.02
393.71	440.02
393.91	395.55
394.10	395.55
394.29	479.81
394.49	395.55
394.68	411.93
394.88	430.66
395.07	386.19
395.26	456.40
395.46	353.42
395.65	404.91
395.84	374.49
396.04	428.32
396.23	360.44
396.42	379.17
396.62	372.15
396.81	400.23
397.00	414.27
397.19	388.53
397.39	435.34
397.58	428.32
397.77	449.38
397.97	360.44
398.16	393.21
398.35	365.12
398.55	428.32
398.74	414.27
398.93	416.62
399.12	475.13
399.32	458.74
399.51	390.87
399.70	404.91
399.90	395.55
400.09	355.76
400.28	369.80
400.47	374.49
400.67	425.98
400.86	400.23
401.05	376.83
401.24	327.68
401.44	402.57
401.63	409.59
401.82	465.77
402.01	447.04
402.21	433.00
402.40	381.51
402.59	425.98
402.78	393.21
402.97	400.23
403.17	388.53
403.36	379.17
403.55	362.78
403.74	437.68
403.93	285.55
404.13	442.36
404.32	451.72
404.51	313.63
404.70	437.68
404.89	383.85
405.09	442.36
405.28	402.57
405.47	330.02
405.66	386.19
405.85	416.62
406.05	404.91
406.24	390.87
406.43	318.31
406.62	400.23
406.81	507.90
407.00	358.10
407.20	404.91
407.39	383.85
407.58	341.72
407.77	451.72
407.96	458.74
408.15	414.27
408.34	428.32
408.54	428.32
408.73	379.17
408.92	388.53
409.11	374.49
409.30	458.74
409.49	402.57
409.68	383.85
409.87	353.42
410.07	315.97
410.26	414.27
410.45	376.83
410.64	362.78
410.83	386.19
411.02	461.09
411.21	447.04
411.40	390.87
411.59	374.49
411.78	395.55
411.98	395.55
412.17	454.06
412.36	421.30
412.55	330.02
412.74	407.25
412.93	416.62
413.12	351.08
413.31	400.23
413.50	383.85
413.69	397.89
413.88	433.00
414.07	379.17
414.26	390.87
414.45	355.76
414.64	369.80
414.83	374.49
415.02	428.32
415.22	423.64
415.41	402.57
415.60	411.93
415.79	475.13
415.98	402.57
416.17	409.59
416.36	411.93
416.55	374.49
416.74	447.04
416.93	451.72
417.12	360.44
417.31	325.33
417.50	433.00
417.69	437.68
417.88	369.80
418.07	395.55
418.26	407.25
418.45	400.23
418.64	402.57
418.83	393.21
419.02	395.55
419.21	428.32
419.39	404.91
419.58	447.04
419.77	421.30
419.96	430.66
420.15	383.85
420.34	472.79
420.53	400.23
420.72	451.72
420.91	416.62
421.10	388.53
421.29	341.72
421.48	400.23
421.67	477.47
421.86	437.68
422.05	433.00
422.24	386.19
422.43	358.10
422.61	437.68
422.80	416.62
422.99	369.80
423.18	397.89
423.37	449.38
423.56	376.83
423.75	463.43
423.94	437.68
424.13	461.09
424.32	402.57
424.50	388.53
424.69	379.17
424.88	493.85
425.07	383.85
425.26	346.40
425.45	404.91
425.64	404.91
425.83	393.21
426.01	454.06
426.20	456.40
426.39	409.59
426.58	425.98
426.77	442.36
426.96	423.64
427.15	409.59
427.33	472.79
427.52	402.57
427.71	369.80
427.90	390.87
428.09	418.96
428.28	411.93
428.46	425.98
428.65	461.09
428.84	395.55
429.03	416.62
429.22	360.44
429.40	400.23
429.59	437.68
429.78	440.02
429.97	411.93
430.16	383.85
430.34	369.80
430.53	351.08
430.72	397.89
430.91	409.59
431.10	381.51
431.28	381.51
431.47	428.32
431.66	383.85
431.85	355.76
432.03	400.23
432.22	425.98
432.41	425.98
432.60	461.09
432.79	407.25
432.97	440.02
433.16	358.10
433.35	437.68
433.54	437.68
433.72	433.00
433.91	397.89
434.10	362.78
434.28	423.64
434.47	381.51
434.66	430.66
434.85	360.44
435.03	337.04
435.22	465.77
435.41	411.93
435.59	435.34
435.78	351.08
435.97	400.23
436.16	358.10
436.34	444.70
436.53	472.79
436.72	447.04
436.90	402.57
437.09	416.62
437.28	428.32
437.46	451.72
437.65	442.36
437.84	475.13
438.02	402.57
438.21	435.34
438.40	402.57
438.58	414.27
438.77	344.06
438.96	451.72
439.14	421.30
439.33	430.66
439.52	388.53
439.70	372.15
439.89	411.93
440.08	486.83
440.26	379.17
440.45	440.02
440.63	362.78
440.82	376.83
441.01	402.57
441.19	423.64
441.38	414.27
441.57	376.83
441.75	454.06
441.94	369.80
442.12	393.21
442.31	491.51
442.50	456.40
442.68	503.22
442.87	421.30
443.05	465.77
443.24	322.99
443.43	353.42
443.61	437.68
443.80	435.34
443.98	430.66
444.17	440.02
444.35	372.15
444.54	395.55
444.73	388.53
444.91	479.81
445.10	421.30
445.28	393.21
445.47	402.57
445.65	435.34
445.84	465.77
446.02	456.40
446.21	414.27
446.39	372.15
446.58	353.42
446.77	414.27
446.95	449.38
447.14	430.66
447.32	416.62
447.51	390.87
447.69	409.59
447.88	393.21
448.06	423.64
448.25	442.36
448.43	416.62
448.62	369.80
448.80	379.17
448.99	437.68
449.17	418.96
449.36	367.46
449.54	400.23
449.73	344.06
449.91	369.80
450.10	402.57
450.28	334.70
450.46	491.51
450.65	393.21
450.83	472.79
451.02	372.15
451.20	367.46
451.39	341.72
451.57	423.64
451.76	344.06
451.94	369.80
452.13	355.76
452.31	425.98
452.49	409.59
452.68	411.93
452.86	437.68
453.05	421.30
453.23	365.12
453.42	365.12
453.60	334.70
453.78	423.64
453.97	346.40
454.15	444.70
454.34	477.47
454.52	339.38
454.70	418.96
454.89	461.09
455.07	346.40
455.26	397.89
455.44	428.32
455.62	484.49
455.81	418.96
455.99	407.25
456.17	386.19
456.36	444.70
456.54	404.91
456.73	418.96
456.91	444.70
457.09	477.47
457.28	505.56
457.46	367.46
457.64	409.59
457.83	372.15
458.01	390.87
458.19	341.72
458.38	411.93
458.56	411.93
458.74	372.15
458.93	456.40
459.11	454.06
459.29	369.80
459.48	486.83
459.66	458.74
459.84	484.49
460.03	404.91
460.21	402.57
460.39	409.59
460.57	374.49
460.76	353.42
460.94	376.83
461.12	428.32
461.31	367.46
461.49	379.17
461.67	315.97
461.85	479.81
462.04	430.66
462.22	772.38
462.40	454.06
462.59	458.74
462.77	484.49
462.95	416.62
463.13	461.09
463.32	416.62
463.50	411.93
463.68	493.85
463.86	376.83
464.05	367.46
464.23	437.68
464.41	397.89
464.59	433.00
464.78	421.30
464.96	435.34
465.14	397.89
465.32	470.45
465.50	367.46
465.69	486.83
465.87	367.46
466.05	468.11
466.23	449.38
466.41	386.19
466.60	423.64
466.78	397.89
466.96	421.30
467.14	425.98
467.32	449.38
467.51	449.38
467.69	388.53
467.87	475.13
468.05	456.40
468.23	477.47
468.41	388.53
468.60	360.44
468.78	397.89
468.96	433.00
469.14	449.38
469.32	351.08
469.50	428.32
469.69	390.87
469.87	423.64
470.05	369.80
470.23	470.45
470.41	428.32
470.59	421.30
470.77	461.09
470.95	437.68
471.14	430.66
471.32	418.96
471.50	472.79
471.68	390.87
471.86	425.98
472.04	472.79
472.22	397.89
472.40	411.93
472.58	442.36
472.77	404.91
472.95	465.77
473.13	393.21
473.31	440.02
473.49	433.00
473.67	416.62
473.85	451.72
474.03	418.96
474.21	383.85
474.39	517.26
474.57	430.66
474.75	397.89
474.93	360.44
475.12	325.33
475.30	341.72
475.48	362.78
475.66	397.89
475.84	386.19
476.02	411.93
476.20	411.93
476.38	435.34
476.56	484.49
476.74	433.00
476.92	444.70
477.10	454.06
477.28	376.83
477.46	397.89
477.64	538.32
477.82	465.77
478.00	374.49
478.18	400.23
478.36	344.06
478.54	472.79
478.72	421.30
478.90	435.34
479.08	341.72
479.26	362.78
479.44	440.02
479.62	468.11
479.80	444.70
479.98	372.15
480.16	425.98
480.34	456.40
480.52	444.70
480.70	435.34
480.88	395.55
481.06	400.23
481.24	444.70
481.41	397.89
481.59	442.36
481.77	322.99
481.95	409.59
482.13	409.59
482.31	346.40
482.49	470.45
482.67	423.64
482.85	374.49
483.03	440.02
483.21	390.87
483.39	402.57
483.57	463.43
483.74	444.70
483.92	484.49
484.10	437.68
484.28	475.13
484.46	517.26
484.64	409.59
484.82	404.91
485.00	435.34
485.18	388.53
485.35	402.57
485.53	360.44
485.71	451.72
485.89	397.89
486.07	381.51
486.25	416.62
486.43	369.80
486.61	435.34
486.78	428.32
486.96	409.59
487.14	400.23
487.32	332.36
487.50	374.49
487.68	425.98
487.85	360.44
488.03	456.40
488.21	475.13
488.39	435.34
488.57	402.57
488.75	344.06
488.92	477.47
489.10	397.89
489.28	437.68
489.46	402.57
489.64	433.00
489.81	411.93
489.99	421.30
490.17	470.45
490.35	491.51
490.53	435.34
490.70	386.19
490.88	409.59
491.06	409.59
491.24	381.51
491.41	479.81
491.59	407.25
491.77	367.46
491.95	332.36
492.13	404.91
492.30	402.57
492.48	425.98
492.66	454.06
492.84	365.12
493.01	404.91
493.19	372.15
493.37	423.64
493.54	435.34
493.72	451.72
493.90	346.40
494.08	355.76
494.25	423.64
494.43	423.64
494.61	407.25
494.79	381.51
494.96	430.66
495.14	470.45
495.32	430.66
495.49	402.57
495.67	346.40
495.85	346.40
496.02	358.10
496.20	386.19
496.38	379.17
496.55	458.74
496.73	369.80
496.91	409.59
497.09	451.72
497.26	367.46
497.44	400.23
497.62	315.97
497.79	411.93
497.97	444.70
498.14	425.98
498.32	468.11
498.50	334.70
498.67	397.89
498.85	425.98
499.03	332.36
499.20	425.98
499.38	355.76
499.56	414.27
499.73	519.60
499.91	418.96
500.08	465.77
500.26	416.62
500.44	468.11
500.61	421.30
500.79	404.91
500.97	435.34
501.14	425.98
501.32	379.17
501.49	435.34
501.67	414.27
501.84	430.66
502.02	414.27
502.20	440.02
502.37	383.85
502.55	369.80
502.72	435.34
502.90	433.00
503.07	444.70
503.25	435.34
503.43	428.32
503.60	383.85
503.78	433.00
503.95	421.30
504.13	430.66
504.30	411.93
504.48	428.32
504.65	390.87
504.83	386.19
505.01	369.80
505.18	409.59
505.36	425.98
505.53	355.76
505.71	369.80
505.88	437.68
506.06	397.89
506.23	407.25
506.41	444.70
506.58	409.59
506.76	421.30
506.93	411.93
507.11	425.98
507.28	482.15
507.46	395.55
507.63	463.43
507.81	491.51
507.98	411.93
508.16	393.21
508.33	379.17
508.50	393.21
508.68	400.23
508.85	428.32
509.03	383.85
509.20	393.21
509.38	491.51
509.55	447.04
509.73	393.21
509.90	369.80
510.08	414.27
510.25	456.40
510.42	425.98
510.60	465.77
510.77	468.11
510.95	465.77
511.12	409.59
511.30	390.87
511.47	411.93
511.64	400.23
511.82	430.66
511.99	367.46
512.17	374.49
512.34	348.74
512.51	437.68
512.69	383.85
512.86	393.21
513.04	379.17
513.21	407.25
513.38	390.87
513.56	451.72
513.73	365.12
513.90	376.83
514.08	369.80
514.25	437.68
514.43	423.64
514.60	372.15
514.77	411.93
514.95	360.44
515.12	325.33
515.29	376.83
515.47	435.34
515.64	351.08
515.81	428.32
515.99	468.11
516.16	447.04
516.33	505.56
516.51	421.30
516.68	369.80
516.85	472.79
517.03	430.66
517.20	451.72
517.37	421.30
517.54	416.62
517.72	395.55
517.89	358.10
518.06	346.40
518.24	482.15
518.41	451.72
518.58	430.66
518.75	388.53
518.93	358.10
519.10	454.06
519.27	402.57
519.45	360.44
519.62	444.70
519.79	393.21
519.96	388.53
520.14	395.55
520.31	493.85
520.48	475.13
520.65	440.02
520.83	454.06
521.00	444.70
521.17	414.27
521.34	362.78
521.52	421.30
521.69	348.74
521.86	470.45
522.03	421.30
522.20	428.32
522.38	360.44
522.55	409.59
522.72	463.43
522.89	440.02
523.07	411.93
523.24	411.93
523.41	376.83
523.58	416.62
523.75	435.34
523.92	397.89
524.10	493.85
524.27	348.74
524.44	409.59
524.61	447.04
524.78	397.89
524.96	381.51
525.13	430.66
525.30	451.72
525.47	393.21
525.64	454.06
525.81	381.51
525.98	433.00
526.16	400.23
526.33	428.32
526.50	416.62
526.67	414.27
526.84	447.04
527.01	374.49
527.18	383.85
527.36	425.98
527.53	418.96
527.70	465.77
527.87	395.55
528.04	463.43
528.21	393.21
528.38	411.93
528.55	477.47
528.72	465.77
528.89	454.06
529.07	411.93
529.24	440.02
529.41	510.24
529.58	421.30
529.75	433.00
529.92	407.25
530.09	458.74
530.26	496.19
530.43	435.34
530.60	362.78
530.77	400.23
530.94	383.85
531.11	435.34
531.28	461.09
531.46	409.59
531.63	451.72
531.80	433.00
531.97	437.68
532.14	442.36
532.31	404.91
532.48	334.70
532.65	365.12
532.82	362.78
532.99	416.62
533.16	390.87
533.33	437.68
533.50	414.27
533.67	402.57
533.84	440.02
534.01	383.85
534.18	360.44
534.35	402.57
534.52	388.53
534.69	425.98
534.86	433.00
535.03	358.10
535.20	437.68
535.37	407.25
535.54	411.93
535.71	493.85
535.88	454.06
536.05	386.19
536.22	418.96
536.38	425.98
536.55	388.53
536.72	435.34
536.89	379.17
537.06	365.12
537.23	397.89
537.40	442.36
537.57	463.43
537.74	437.68
537.91	428.32
538.08	470.45
538.25	435.34
538.42	475.13
538.59	430.66
538.75	355.76
538.92	402.57
539.09	425.98
539.26	472.79
539.43	425.98
539.60	404.91
539.77	463.43
539.94	472.79
540.11	404.91
540.28	423.64
540.44	458.74
540.61	425.98
540.78	442.36
540.95	435.34
541.12	512.58
541.29	428.32
541.46	461.09
541.62	475.13
541.79	372.15
541.96	451.72
542.13	400.23
542.30	393.21
542.47	470.45
542.63	421.30
542.80	292.57
542.97	468.11
543.14	355.76
543.31	451.72
543.48	372.15
543.64	379.17
543.81	416.62
543.98	358.10
544.15	409.59
544.32	458.74
544.48	390.87
544.65	376.83
544.82	423.64
544.99	421.30
545.16	479.81
545.32	414.27
545.49	440.02
545.66	360.44
545.83	334.70
546.00	447.04
546.16	444.70
546.33	461.09
546.50	334.70
546.67	358.10
546.83	393.21
547.00	456.40
547.17	404.91
547.34	435.34
547.50	458.74
547.67	395.55
547.84	376.83
548.00	395.55
548.17	416.62
548.34	395.55
548.51	409.59
548.67	362.78
548.84	423.64
549.01	388.53
549.18	440.02
549.34	454.06
549.51	451.72
549.68	449.38
549.84	447.04
550.01	376.83
550.18	465.77
550.34	486.83
550.51	379.17
550.68	442.36
550.84	320.65
551.01	454.06
551.18	416.62
551.34	451.72
551.51	428.32
551.68	390.87
551.84	430.66
552.01	379.17
552.18	388.53
552.34	428.32
552.51	463.43
552.68	472.79
552.84	402.57
553.01	390.87
553.18	491.51
553.34	353.42
553.51	393.21
553.67	433.00
553.84	386.19
554.01	421.30
554.17	442.36
554.34	386.19
554.51	393.21
554.67	430.66
554.84	454.06
555.00	402.57
555.17	458.74
555.33	444.70
555.50	337.04
555.67	397.89
555.83	404.91
556.00	395.55
556.16	580.45
556.33	470.45
556.50	397.89
556.66	451.72
556.83	372.15
556.99	411.93
557.16	444.70
557.32	411.93
557.49	433.00
557.65	414.27
557.82	404.91
557.98	388.53
558.15	449.38
558.32	362.78
558.48	411.93
558.65	440.02
558.81	407.25
558.98	402.57
559.14	416.62
559.31	486.83
559.47	423.64
559.64	358.10
559.80	435.34
559.97	376.83
560.13	458.74
560.30	482.15
560.46	451.72
560.63	397.89
560.79	500.87
560.96	479.81
561.12	416.62
561.29	395.55
561.45	433.00
561.61	379.17
561.78	489.17
561.94	437.68
562.11	435.34
562.27	388.53
562.44	414.27
562.60	407.25
562.77	344.06
562.93	442.36
563.10	433.00
563.26	416.62
563.42	463.43
563.59	390.87
563.75	416.62
563.92	456.40
564.08	456.40
564.24	440.02
564.41	351.08
564.57	428.32
564.74	367.46
564.90	470.45
565.07	402.57
565.23	435.34
565.39	449.38
565.56	383.85
565.72	395.55
565.88	433.00
566.05	365.12
566.21	425.98
566.38	395.55
566.54	470.45
566.70	372.15
566.87	433.00
567.03	451.72
567.19	395.55
567.36	400.23
567.52	379.17
567.68	440.02
567.85	386.19
568.01	423.64
568.17	404.91
568.34	444.70
568.50	411.93
568.66	341.72
568.83	430.66
568.99	402.57
569.15	465.77
569.32	397.89
569.48	421.30
569.64	376.83
569.81	465.77
569.97	344.06
570.13	430.66
570.30	433.00
570.46	418.96
570.62	407.25
570.78	386.19
570.95	423.64
571.11	435.34
571.27	346.40
571.43	344.06
571.60	400.23
571.76	369.80
571.92	358.10
572.09	461.09
572.25	407.25
572.41	362.78
572.57	440.02
572.74	454.06
572.90	425.98
573.06	465.77
573.22	486.83
573.38	440.02
573.55	447.04
573.71	418.96
573.87	475.13
574.03	418.96
574.20	416.62
574.36	456.40
574.52	421.30
574.68	334.70
574.84	444.70
575.01	468.11
575.17	418.96
575.33	353.42
575.49	437.68
575.65	451.72
575.82	353.42
575.98	440.02
576.14	442.36
576.30	454.06
576.46	505.56
576.62	428.32
576.79	402.57
576.95	470.45
577.11	423.64
577.27	451.72
577.43	461.09
577.59	461.09
577.75	484.49
577.92	404.91
578.08	421.30
578.24	381.51
578.40	421.30
578.56	414.27
578.72	475.13
578.88	404.91
579.04	379.17
579.21	414.27
579.37	449.38
579.53	379.17
579.69	402.57
579.85	395.55
580.01	472.79
580.17	409.59
580.33	482.15
580.49	421.30
580.65	409.59
580.82	339.38
580.98	397.89
581.14	416.62
581.30	411.93
581.46	416.62
581.62	404.91
581.78	435.34
581.94	416.62
582.10	341.72
582.26	409.59
582.42	447.04
582.58	393.21
582.74	411.93
582.90	435.34
583.06	374.49
583.22	390.87
583.38	400.23
583.54	330.02
583.70	414.27
583.86	365.12
584.02	372.15
584.18	477.47
584.34	397.89
584.50	404.91
584.66	367.46
584.82	411.93
584.98	395.55
585.14	458.74
585.30	425.98
585.46	437.68
585.62	421.30
585.78	447.04
585.94	421.30
586.10	397.89
586.26	451.72
586.42	454.06
586.58	461.09
586.74	451.72
586.90	440.02
587.06	421.30
587.22	402.57
587.38	383.85
587.54	400.23
587.70	404.91
587.86	461.09
588.02	442.36
588.18	451.72
588.34	418.96
588.49	360.44
588.65	411.93
588.81	433.00
588.97	404.91
589.13	409.59
589.29	409.59
589.45	442.36
589.61	407.25
589.77	463.43
589.93	468.11
590.08	421.30
590.24	367.46
590.40	409.59
590.56	468.11
590.72	451.72
590.88	381.51
591.04	402.57
591.20	442.36
591.35	442.36
591.51	376.83
591.67	435.34
591.83	393.21
591.99	496.19
592.15	472.79
592.31	430.66
592.46	383.85
592.62	383.85
592.78	425.98
592.94	362.78
593.10	358.10
593.26	386.19
593.41	458.74
593.57	369.80
593.73	416.62
593.89	447.04
594.05	423.64
594.20	395.55
594.36	423.64
594.52	442.36
594.68	395.55
594.84	440.02
594.99	454.06
595.15	430.66
595.31	428.32
595.47	505.56
595.62	468.11
595.78	393.21
595.94	437.68
596.10	458.74
596.25	461.09
596.41	407.25
596.57	383.85
596.73	404.91
596.88	374.49
597.04	449.38
597.20	353.42
597.36	388.53
597.51	341.72
597.67	442.36
597.83	414.27
597.99	437.68
598.14	395.55
598.30	472.79
598.46	337.04
598.61	435.34
598.77	454.06
598.93	414.27
599.09	381.51
599.24	351.08
599.40	461.09
599.56	435.34
599.71	402.57
599.87	433.00
600.03	409.59
600.18	423.64
600.34	425.98
600.50	444.70
600.65	416.62
600.81	404.91
600.97	400.23
601.12	440.02
601.28	454.06
601.44	425.98
601.59	379.17
601.75	395.55
601.91	360.44
602.06	430.66
602.22	519.60
602.37	388.53
602.53	372.15
602.69	421.30
602.84	461.09
603.00	372.15
603.16	355.76
603.31	421.30
603.47	372.15
603.62	362.78
603.78	404.91
603.94	437.68
604.09	493.85
604.25	510.24
604.40	416.62
604.56	369.80
604.71	409.59
604.87	440.02
605.03	372.15
605.18	414.27
605.34	435.34
605.49	407.25
605.65	355.76
605.80	411.93
605.96	428.32
606.12	468.11
606.27	465.77
606.43	451.72
606.58	407.25
606.74	449.38
606.89	381.51
607.05	451.72
607.20	440.02
607.36	395.55
607.51	353.42
607.67	456.40
607.82	379.17
607.98	500.87
608.13	440.02
608.29	365.12
608.44	451.72
608.60	463.43
608.75	435.34
608.91	393.21
609.06	447.04
609.22	468.11
609.37	409.59
609.53	440.02
609.68	362.78
609.84	440.02
609.99	433.00
610.15	393.21
