SpectraSuite Data File
++++++++++++++++++++++++++++++++++++
Date: Fri Oct 25 12:11:15 EDT 2013
User: price-jones
Dark Spectrum Present: No
Reference Spectrum Present: No
Number of Sampled Component Spectra: 1
Spectrometers: USB2+H05261
Integration Time (usec): 100000 (USB2+H05261)
Spectra Averaged: 1 (USB2+H05261)
Boxcar Smoothing: 0 (USB2+H05261)
Correct for Electrical Dark: No (USB2+H05261)
Strobe/Lamp Enabled: No (USB2+H05261)
Correct for Detector Non-linearity: No (USB2+H05261)
Correct for Stray Light: No (USB2+H05261)
Number of Pixels in Processed Spectrum: 2048
>>>>>Begin Processed Spectral Data<<<<<
365.73	330.02
365.92	330.02
366.12	330.02
366.32	271.50
366.52	241.08
366.72	196.60
366.91	292.57
367.11	285.55
367.31	271.50
367.51	231.71
367.70	210.65
367.90	234.05
368.10	248.10
368.30	210.65
368.49	238.73
368.69	250.44
368.89	222.35
369.09	234.05
369.28	222.35
369.48	205.97
369.68	229.37
369.87	330.02
370.07	248.10
370.27	351.08
370.47	269.16
370.66	306.61
370.86	320.65
371.06	374.49
371.25	414.27
371.45	372.15
371.65	411.93
371.84	376.83
372.04	327.68
372.24	308.95
372.44	372.15
372.63	433.00
372.83	428.32
373.03	395.55
373.22	395.55
373.42	409.59
373.62	388.53
373.81	383.85
374.01	397.89
374.21	348.74
374.40	454.06
374.60	444.70
374.79	414.27
374.99	353.42
375.19	461.09
375.38	416.62
375.58	404.91
375.78	444.70
375.97	433.00
376.17	475.13
376.37	409.59
376.56	409.59
376.76	423.64
376.95	423.64
377.15	447.04
377.35	482.15
377.54	414.27
377.74	411.93
377.93	447.04
378.13	416.62
378.33	407.25
378.52	477.47
378.72	390.87
378.91	454.06
379.11	430.66
379.31	409.59
379.50	341.72
379.70	372.15
379.89	393.21
380.09	404.91
380.28	400.23
380.48	428.32
380.68	400.23
380.87	397.89
381.07	374.49
381.26	458.74
381.46	416.62
381.65	440.02
381.85	425.98
382.04	435.34
382.24	407.25
382.43	447.04
382.63	465.77
382.83	407.25
383.02	461.09
383.22	430.66
383.41	430.66
383.61	393.21
383.80	433.00
384.00	528.96
384.19	411.93
384.39	411.93
384.58	374.49
384.78	376.83
384.97	430.66
385.17	383.85
385.36	404.91
385.56	358.10
385.75	351.08
385.95	383.85
386.14	409.59
386.34	358.10
386.53	372.15
386.72	440.02
386.92	437.68
387.11	465.77
387.31	430.66
387.50	418.96
387.70	409.59
387.89	367.46
388.09	344.06
388.28	341.72
388.48	386.19
388.67	447.04
388.86	435.34
389.06	365.12
389.25	407.25
389.45	440.02
389.64	418.96
389.84	376.83
390.03	407.25
390.22	393.21
390.42	311.29
390.61	414.27
390.81	449.38
391.00	402.57
391.19	425.98
391.39	456.40
391.58	472.79
391.78	376.83
391.97	355.76
392.16	358.10
392.36	433.00
392.55	414.27
392.75	402.57
392.94	442.36
393.13	433.00
393.33	411.93
393.52	414.27
393.71	449.38
393.91	304.27
394.10	304.27
394.29	383.85
394.49	458.74
394.68	454.06
394.88	425.98
395.07	444.70
395.26	395.55
395.46	397.89
395.65	390.87
395.84	358.10
396.04	451.72
396.23	456.40
396.42	414.27
396.62	416.62
396.81	386.19
397.00	376.83
397.19	414.27
397.39	444.70
397.58	400.23
397.77	458.74
397.97	395.55
398.16	423.64
398.35	330.02
398.55	367.46
398.74	437.68
398.93	416.62
399.12	365.12
399.32	383.85
399.51	393.21
399.70	411.93
399.90	393.21
400.09	381.51
400.28	475.13
400.47	477.47
400.67	440.02
400.86	416.62
401.05	344.06
401.24	458.74
401.44	451.72
401.63	383.85
401.82	346.40
402.01	348.74
402.21	482.15
402.40	390.87
402.59	423.64
402.78	451.72
402.97	458.74
403.17	404.91
403.36	425.98
403.55	367.46
403.74	421.30
403.93	395.55
404.13	315.97
404.32	390.87
404.51	411.93
404.70	353.42
404.89	337.04
405.09	475.13
405.28	409.59
405.47	344.06
405.66	418.96
405.85	430.66
406.05	367.46
406.24	404.91
406.43	383.85
406.62	418.96
406.81	451.72
407.00	367.46
407.20	411.93
407.39	390.87
407.58	421.30
407.77	489.17
407.96	461.09
408.15	461.09
408.34	402.57
408.54	444.70
408.73	444.70
408.92	463.43
409.11	418.96
409.30	430.66
409.49	416.62
409.68	416.62
409.87	437.68
410.07	400.23
410.26	372.15
410.45	442.36
410.64	430.66
410.83	407.25
411.02	362.78
411.21	395.55
411.40	468.11
411.59	430.66
411.78	402.57
411.98	372.15
412.17	423.64
412.36	369.80
412.55	369.80
412.74	411.93
412.93	486.83
413.12	404.91
413.31	449.38
413.50	416.62
413.69	393.21
413.88	407.25
414.07	437.68
414.26	444.70
414.45	376.83
414.64	449.38
414.83	423.64
415.02	425.98
415.22	407.25
415.41	404.91
415.60	411.93
415.79	346.40
415.98	444.70
416.17	430.66
416.36	409.59
416.55	456.40
416.74	454.06
416.93	425.98
417.12	367.46
417.31	402.57
417.50	393.21
417.69	500.87
417.88	465.77
418.07	404.91
418.26	442.36
418.45	388.53
418.64	393.21
418.83	395.55
419.02	395.55
419.21	435.34
419.39	327.68
419.58	435.34
419.77	397.89
419.96	435.34
420.15	393.21
420.34	407.25
420.53	407.25
420.72	381.51
420.91	414.27
421.10	456.40
421.29	369.80
421.48	346.40
421.67	430.66
421.86	411.93
422.05	418.96
422.24	386.19
422.43	444.70
422.61	358.10
422.80	414.27
422.99	461.09
423.18	468.11
423.37	470.45
423.56	430.66
423.75	465.77
423.94	362.78
424.13	435.34
424.32	383.85
424.50	400.23
424.69	390.87
424.88	428.32
425.07	409.59
425.26	376.83
425.45	411.93
425.64	477.47
425.83	383.85
426.01	437.68
426.20	416.62
426.39	418.96
426.58	440.02
426.77	409.59
426.96	454.06
427.15	479.81
427.33	428.32
427.52	402.57
427.71	367.46
427.90	456.40
428.09	395.55
428.28	418.96
428.46	444.70
428.65	491.51
428.84	421.30
429.03	390.87
429.22	360.44
429.40	428.32
429.59	428.32
429.78	435.34
429.97	472.79
430.16	397.89
430.34	465.77
430.53	395.55
430.72	353.42
430.91	353.42
431.10	395.55
431.28	433.00
431.47	418.96
431.66	489.17
431.85	407.25
432.03	414.27
432.22	407.25
432.41	402.57
432.60	468.11
432.79	358.10
432.97	365.12
433.16	386.19
433.35	416.62
433.54	365.12
433.72	496.19
433.91	416.62
434.10	351.08
434.28	470.45
434.47	435.34
434.66	414.27
434.85	353.42
435.03	411.93
435.22	472.79
435.41	482.15
435.59	468.11
435.78	397.89
435.97	479.81
436.16	393.21
436.34	409.59
436.53	407.25
436.72	454.06
436.90	423.64
437.09	383.85
437.28	379.17
437.46	397.89
437.65	454.06
437.84	430.66
438.02	472.79
438.21	454.06
438.40	489.17
438.58	437.68
438.77	465.77
438.96	341.72
439.14	360.44
439.33	463.43
439.52	416.62
439.70	395.55
439.89	358.10
440.08	358.10
440.26	479.81
440.45	435.34
440.63	458.74
440.82	444.70
441.01	320.65
441.19	397.89
441.38	430.66
441.57	437.68
441.75	397.89
441.94	463.43
442.12	355.76
442.31	386.19
442.50	404.91
442.68	416.62
442.87	409.59
443.05	472.79
443.24	407.25
443.43	437.68
443.61	430.66
443.80	414.27
443.98	393.21
444.17	423.64
444.35	409.59
444.54	470.45
444.73	367.46
444.91	470.45
445.10	397.89
445.28	360.44
445.47	456.40
445.65	360.44
445.84	444.70
446.02	374.49
446.21	388.53
446.39	369.80
446.58	374.49
446.77	339.38
446.95	479.81
447.14	416.62
447.32	458.74
447.51	435.34
447.69	435.34
447.88	358.10
448.06	468.11
448.25	449.38
448.43	428.32
448.62	496.19
448.80	442.36
448.99	386.19
449.17	463.43
449.36	421.30
449.54	400.23
449.73	351.08
449.91	402.57
450.10	468.11
450.28	479.81
450.46	390.87
450.65	421.30
450.83	428.32
451.02	409.59
451.20	435.34
451.39	437.68
451.57	449.38
451.76	362.78
451.94	409.59
452.13	449.38
452.31	400.23
452.49	416.62
452.68	390.87
452.86	397.89
453.05	435.34
453.23	418.96
453.42	379.17
453.60	454.06
453.78	395.55
453.97	423.64
454.15	393.21
454.34	409.59
454.52	435.34
454.70	477.47
454.89	479.81
455.07	388.53
455.26	414.27
455.44	355.76
455.62	388.53
455.81	379.17
455.99	465.77
456.17	416.62
456.36	395.55
456.54	435.34
456.73	351.08
456.91	353.42
457.09	414.27
457.28	407.25
457.46	454.06
457.64	489.17
457.83	390.87
458.01	381.51
458.19	400.23
458.38	486.83
458.56	451.72
458.74	374.49
458.93	376.83
459.11	463.43
459.29	407.25
459.48	407.25
459.66	489.17
459.84	463.43
460.03	444.70
460.21	440.02
460.39	414.27
460.57	409.59
460.76	444.70
460.94	379.17
461.12	482.15
461.31	465.77
461.49	444.70
461.67	435.34
461.85	433.00
462.04	411.93
462.22	744.29
462.40	407.25
462.59	423.64
462.77	346.40
462.95	388.53
463.13	390.87
463.32	346.40
463.50	376.83
463.68	465.77
463.86	454.06
464.05	430.66
464.23	486.83
464.41	442.36
464.59	400.23
464.78	409.59
464.96	416.62
465.14	409.59
465.32	383.85
465.50	456.40
465.69	395.55
465.87	390.87
466.05	442.36
466.23	442.36
466.41	390.87
466.60	372.15
466.78	393.21
466.96	482.15
467.14	414.27
467.32	404.91
467.51	355.76
467.69	428.32
467.87	440.02
468.05	458.74
468.23	465.77
468.41	397.89
468.60	425.98
468.78	440.02
468.96	433.00
469.14	437.68
469.32	369.80
469.50	355.76
469.69	421.30
469.87	414.27
470.05	421.30
470.23	524.28
470.41	463.43
470.59	433.00
470.77	395.55
470.95	433.00
471.14	505.56
471.32	423.64
471.50	461.09
471.68	414.27
471.86	458.74
472.04	418.96
472.22	365.12
472.40	402.57
472.58	425.98
472.77	388.53
472.95	444.70
473.13	425.98
473.31	376.83
473.49	376.83
473.67	365.12
473.85	390.87
474.03	404.91
474.21	430.66
474.39	444.70
474.57	454.06
474.75	353.42
474.93	362.78
475.12	425.98
475.30	449.38
475.48	379.17
475.66	463.43
475.84	437.68
476.02	458.74
476.20	348.74
476.38	458.74
476.56	454.06
476.74	400.23
476.92	440.02
477.10	498.53
477.28	433.00
477.46	379.17
477.64	440.02
477.82	411.93
478.00	472.79
478.18	437.68
478.36	367.46
478.54	397.89
478.72	472.79
478.90	341.72
479.08	379.17
479.26	360.44
479.44	444.70
479.62	322.99
479.80	437.68
479.98	470.45
480.16	369.80
480.34	376.83
480.52	486.83
480.70	383.85
480.88	425.98
481.06	383.85
481.24	414.27
481.41	444.70
481.59	442.36
481.77	376.83
481.95	421.30
482.13	435.34
482.31	395.55
482.49	358.10
482.67	461.09
482.85	411.93
483.03	407.25
483.21	425.98
483.39	444.70
483.57	451.72
483.74	425.98
483.92	428.32
484.10	395.55
484.28	411.93
484.46	463.43
484.64	442.36
484.82	416.62
485.00	353.42
485.18	390.87
485.35	433.00
485.53	435.34
485.71	411.93
485.89	444.70
486.07	372.15
486.25	461.09
486.43	423.64
486.61	416.62
486.78	362.78
486.96	409.59
487.14	397.89
487.32	461.09
487.50	428.32
487.68	388.53
487.85	355.76
488.03	437.68
488.21	393.21
488.39	409.59
488.57	423.64
488.75	332.36
488.92	465.77
489.10	421.30
489.28	472.79
489.46	400.23
489.64	423.64
489.81	416.62
489.99	418.96
490.17	409.59
490.35	503.22
490.53	435.34
490.70	418.96
490.88	425.98
491.06	414.27
491.24	461.09
491.41	440.02
491.59	411.93
491.77	374.49
491.95	379.17
492.13	407.25
492.30	423.64
492.48	400.23
492.66	330.02
492.84	376.83
493.01	423.64
493.19	407.25
493.37	437.68
493.54	383.85
493.72	383.85
493.90	404.91
494.08	444.70
494.25	433.00
494.43	414.27
494.61	442.36
494.79	510.24
494.96	407.25
495.14	404.91
495.32	430.66
495.49	442.36
495.67	435.34
495.85	351.08
496.02	430.66
496.20	442.36
496.38	475.13
496.55	386.19
496.73	395.55
496.91	421.30
497.09	482.15
497.26	425.98
497.44	437.68
497.62	402.57
497.79	416.62
497.97	456.40
498.14	454.06
498.32	451.72
498.50	482.15
498.67	374.49
498.85	430.66
499.03	428.32
499.20	423.64
499.38	411.93
499.56	484.49
499.73	475.13
499.91	458.74
500.08	388.53
500.26	397.89
500.44	355.76
500.61	362.78
500.79	416.62
500.97	458.74
501.14	430.66
501.32	418.96
501.49	304.27
501.67	468.11
501.84	414.27
502.02	386.19
502.20	458.74
502.37	444.70
502.55	444.70
502.72	433.00
502.90	482.15
503.07	421.30
503.25	409.59
503.43	425.98
503.60	440.02
503.78	524.28
503.95	472.79
504.13	416.62
504.30	456.40
504.48	444.70
504.65	449.38
504.83	482.15
505.01	451.72
505.18	414.27
505.36	407.25
505.53	437.68
505.71	463.43
505.88	491.51
506.06	423.64
506.23	423.64
506.41	451.72
506.58	447.04
506.76	393.21
506.93	348.74
507.11	388.53
507.28	397.89
507.46	456.40
507.63	409.59
507.81	346.40
507.98	344.06
508.16	388.53
508.33	388.53
508.50	393.21
508.68	379.17
508.85	458.74
509.03	411.93
509.20	360.44
509.38	372.15
509.55	435.34
509.73	472.79
509.90	437.68
510.08	379.17
510.25	437.68
510.42	440.02
510.60	397.89
510.77	468.11
510.95	423.64
511.12	348.74
511.30	493.85
511.47	395.55
511.64	444.70
511.82	416.62
511.99	425.98
512.17	409.59
512.34	449.38
512.51	341.72
512.69	390.87
512.86	437.68
513.04	451.72
513.21	402.57
513.38	416.62
513.56	395.55
513.73	451.72
513.90	430.66
514.08	425.98
514.25	409.59
514.43	428.32
514.60	428.32
514.77	404.91
514.95	437.68
515.12	400.23
515.29	332.36
515.47	475.13
515.64	447.04
515.81	428.32
515.99	449.38
516.16	447.04
516.33	411.93
516.51	418.96
516.68	388.53
516.85	416.62
517.03	458.74
517.20	416.62
517.37	423.64
517.54	449.38
517.72	470.45
517.89	400.23
518.06	421.30
518.24	470.45
518.41	351.08
518.58	423.64
518.75	374.49
518.93	379.17
519.10	395.55
519.27	367.46
519.45	404.91
519.62	444.70
519.79	435.34
519.96	355.76
520.14	437.68
520.31	437.68
520.48	374.49
520.65	433.00
520.83	486.83
521.00	451.72
521.17	400.23
521.34	402.57
521.52	383.85
521.69	433.00
521.86	461.09
522.03	447.04
522.20	395.55
522.38	447.04
522.55	367.46
522.72	428.32
522.89	402.57
523.07	463.43
523.24	451.72
523.41	339.38
523.58	372.15
523.75	442.36
523.92	414.27
524.10	402.57
524.27	510.24
524.44	395.55
524.61	409.59
524.78	393.21
524.96	430.66
525.13	447.04
525.30	428.32
525.47	423.64
525.64	433.00
525.81	386.19
525.98	435.34
526.16	470.45
526.33	433.00
526.50	430.66
526.67	397.89
526.84	407.25
527.01	430.66
527.18	477.47
527.36	369.80
527.53	397.89
527.70	402.57
527.87	440.02
528.04	447.04
528.21	451.72
528.38	418.96
528.55	454.06
528.72	451.72
528.89	461.09
529.07	346.40
529.24	447.04
529.41	447.04
529.58	402.57
529.75	393.21
529.92	386.19
530.09	444.70
530.26	416.62
530.43	418.96
530.60	447.04
530.77	423.64
530.94	435.34
531.11	456.40
531.28	484.49
531.46	339.38
531.63	416.62
531.80	463.43
531.97	493.85
532.14	449.38
532.31	477.47
532.48	360.44
532.65	386.19
532.82	404.91
532.99	369.80
533.16	397.89
533.33	442.36
533.50	414.27
533.67	456.40
533.84	379.17
534.01	414.27
534.18	383.85
534.35	428.32
534.52	397.89
534.69	435.34
534.86	423.64
535.03	390.87
535.20	472.79
535.37	355.76
535.54	374.49
535.71	379.17
535.88	433.00
536.05	374.49
536.22	358.10
536.38	400.23
536.55	451.72
536.72	458.74
536.89	435.34
537.06	430.66
537.23	437.68
537.40	355.76
537.57	463.43
537.74	440.02
537.91	414.27
538.08	400.23
538.25	379.17
538.42	440.02
538.59	402.57
538.75	479.81
538.92	472.79
539.09	411.93
539.26	376.83
539.43	430.66
539.60	414.27
539.77	386.19
539.94	402.57
540.11	437.68
540.28	500.87
540.44	500.87
540.61	407.25
540.78	369.80
540.95	418.96
541.12	531.30
541.29	425.98
541.46	400.23
541.62	491.51
541.79	423.64
541.96	414.27
542.13	421.30
542.30	390.87
542.47	493.85
542.63	390.87
542.80	435.34
542.97	486.83
543.14	425.98
543.31	510.24
543.48	386.19
543.64	360.44
543.81	414.27
543.98	407.25
544.15	397.89
544.32	376.83
544.48	353.42
544.65	416.62
544.82	414.27
544.99	491.51
545.16	433.00
545.32	458.74
545.49	440.02
545.66	386.19
545.83	390.87
546.00	421.30
546.16	456.40
546.33	386.19
546.50	416.62
546.67	545.34
546.83	454.06
547.00	414.27
547.17	428.32
547.34	381.51
547.50	418.96
547.67	404.91
547.84	425.98
548.00	351.08
548.17	365.12
548.34	442.36
548.51	411.93
548.67	390.87
548.84	379.17
549.01	437.68
549.18	447.04
549.34	407.25
549.51	484.49
549.68	470.45
549.84	383.85
550.01	416.62
550.18	491.51
550.34	465.77
550.51	397.89
550.68	463.43
550.84	470.45
551.01	489.17
551.18	440.02
551.34	411.93
551.51	423.64
551.68	386.19
551.84	454.06
552.01	416.62
552.18	400.23
552.34	353.42
552.51	374.49
552.68	386.19
552.84	461.09
553.01	397.89
553.18	379.17
553.34	386.19
553.51	479.81
553.67	374.49
553.84	416.62
554.01	447.04
554.17	402.57
554.34	447.04
554.51	440.02
554.67	456.40
554.84	407.25
555.00	442.36
555.17	479.81
555.33	404.91
555.50	386.19
555.67	386.19
555.83	322.99
556.00	386.19
556.16	475.13
556.33	493.85
556.50	428.32
556.66	376.83
556.83	414.27
556.99	444.70
557.16	381.51
557.32	442.36
557.49	433.00
557.65	444.70
557.82	369.80
557.98	334.70
558.15	454.06
558.32	409.59
558.48	449.38
558.65	433.00
558.81	395.55
558.98	386.19
559.14	451.72
559.31	416.62
559.47	411.93
559.64	383.85
559.80	496.19
559.97	491.51
560.13	425.98
560.30	418.96
560.46	411.93
560.63	447.04
560.79	447.04
560.96	442.36
561.12	402.57
561.29	367.46
561.45	386.19
561.61	374.49
561.78	416.62
561.94	456.40
562.11	404.91
562.27	442.36
562.44	397.89
562.60	421.30
562.77	447.04
562.93	491.51
563.10	372.15
563.26	496.19
563.42	411.93
563.59	407.25
563.75	395.55
563.92	374.49
564.08	437.68
564.24	449.38
564.41	447.04
564.57	430.66
564.74	404.91
564.90	442.36
565.07	407.25
565.23	397.89
565.39	458.74
565.56	418.96
565.72	449.38
565.88	440.02
566.05	482.15
566.21	444.70
566.38	454.06
566.54	463.43
566.70	416.62
566.87	409.59
567.03	458.74
567.19	458.74
567.36	409.59
567.52	468.11
567.68	390.87
567.85	411.93
568.01	465.77
568.17	402.57
568.34	411.93
568.50	444.70
568.66	404.91
568.83	496.19
568.99	404.91
569.15	409.59
569.32	411.93
569.48	383.85
569.64	416.62
569.81	402.57
569.97	381.51
570.13	381.51
570.30	451.72
570.46	388.53
570.62	421.30
570.78	444.70
570.95	397.89
571.11	454.06
571.27	397.89
571.43	411.93
571.60	435.34
571.76	423.64
571.92	482.15
572.09	433.00
572.25	374.49
572.41	421.30
572.57	369.80
572.74	390.87
572.90	430.66
573.06	430.66
573.22	456.40
573.38	468.11
573.55	482.15
573.71	395.55
573.87	545.34
574.03	442.36
574.20	400.23
574.36	491.51
574.52	447.04
574.68	383.85
574.84	454.06
575.01	330.02
575.17	421.30
575.33	386.19
575.49	461.09
575.65	442.36
575.82	472.79
575.98	479.81
576.14	411.93
576.30	500.87
576.46	425.98
576.62	418.96
576.79	346.40
576.95	444.70
577.11	355.76
577.27	435.34
577.43	479.81
577.59	449.38
577.75	465.77
577.92	454.06
578.08	486.83
578.24	379.17
578.40	414.27
578.56	416.62
578.72	390.87
578.88	355.76
579.04	458.74
579.21	397.89
579.37	414.27
579.53	337.04
579.69	468.11
579.85	447.04
580.01	418.96
580.17	388.53
580.33	447.04
580.49	404.91
580.65	311.29
580.82	433.00
580.98	463.43
581.14	442.36
581.30	421.30
581.46	402.57
581.62	451.72
581.78	400.23
581.94	456.40
582.10	383.85
582.26	425.98
582.42	390.87
582.58	358.10
582.74	444.70
582.90	491.51
583.06	393.21
583.22	440.02
583.38	383.85
583.54	369.80
583.70	573.43
583.86	472.79
584.02	463.43
584.18	421.30
584.34	498.53
584.50	451.72
584.66	365.12
584.82	376.83
584.98	374.49
585.14	414.27
585.30	447.04
585.46	425.98
585.62	360.44
585.78	468.11
585.94	416.62
586.10	482.15
586.26	500.87
586.42	416.62
586.58	514.92
586.74	463.43
586.90	458.74
587.06	395.55
587.22	440.02
587.38	388.53
587.54	379.17
587.70	458.74
587.86	491.51
588.02	437.68
588.18	421.30
588.34	500.87
588.49	449.38
588.65	423.64
588.81	407.25
588.97	355.76
589.13	393.21
589.29	463.43
589.45	461.09
589.61	447.04
589.77	449.38
589.93	369.80
590.08	477.47
590.24	409.59
590.40	418.96
590.56	428.32
590.72	440.02
590.88	348.74
591.04	472.79
591.20	404.91
591.35	552.37
591.51	393.21
591.67	477.47
591.83	430.66
591.99	442.36
592.15	465.77
592.31	414.27
592.46	386.19
592.62	383.85
592.78	395.55
592.94	465.77
593.10	409.59
593.26	407.25
593.41	458.74
593.57	428.32
593.73	372.15
593.89	395.55
594.05	355.76
594.20	339.38
594.36	407.25
594.52	407.25
594.68	381.51
594.84	435.34
594.99	383.85
595.15	425.98
595.31	437.68
595.47	477.47
595.62	407.25
595.78	491.51
595.94	433.00
596.10	468.11
596.25	402.57
596.41	461.09
596.57	409.59
596.73	374.49
596.88	428.32
597.04	383.85
597.20	407.25
597.36	437.68
597.51	390.87
597.67	386.19
597.83	425.98
597.99	402.57
598.14	337.04
598.30	348.74
598.46	496.19
598.61	482.15
598.77	470.45
598.93	456.40
599.09	409.59
599.24	423.64
599.40	404.91
599.56	442.36
599.71	400.23
599.87	425.98
600.03	388.53
600.18	430.66
600.34	472.79
600.50	442.36
600.65	411.93
600.81	402.57
600.97	430.66
601.12	423.64
601.28	425.98
601.44	393.21
601.59	407.25
601.75	421.30
601.91	308.95
602.06	407.25
602.22	489.17
602.37	477.47
602.53	376.83
602.69	404.91
602.84	374.49
603.00	407.25
603.16	437.68
603.31	414.27
603.47	411.93
603.62	383.85
603.78	407.25
603.94	447.04
604.09	404.91
604.25	458.74
604.40	421.30
604.56	409.59
604.71	407.25
604.87	393.21
605.03	456.40
605.18	407.25
605.34	372.15
605.49	447.04
605.65	425.98
605.80	425.98
605.96	475.13
606.12	463.43
606.27	400.23
606.43	421.30
606.58	362.78
606.74	430.66
606.89	477.47
607.05	397.89
607.20	465.77
607.36	397.89
607.51	425.98
607.67	430.66
607.82	449.38
607.98	428.32
608.13	433.00
608.29	402.57
608.44	400.23
608.60	353.42
608.75	390.87
608.91	486.83
609.06	454.06
609.22	294.91
609.37	360.44
609.53	433.00
609.68	362.78
609.84	304.27
609.99	444.70
610.15	404.91
