SpectraSuite Data File
++++++++++++++++++++++++++++++++++++
Date: Fri Oct 25 12:11:33 EDT 2013
User: price-jones
Dark Spectrum Present: No
Reference Spectrum Present: No
Number of Sampled Component Spectra: 1
Spectrometers: USB2+H05261
Integration Time (usec): 100000 (USB2+H05261)
Spectra Averaged: 1 (USB2+H05261)
Boxcar Smoothing: 0 (USB2+H05261)
Correct for Electrical Dark: No (USB2+H05261)
Strobe/Lamp Enabled: No (USB2+H05261)
Correct for Detector Non-linearity: No (USB2+H05261)
Correct for Stray Light: No (USB2+H05261)
Number of Pixels in Processed Spectrum: 2048
>>>>>Begin Processed Spectral Data<<<<<
365.73	320.65
365.92	320.65
366.12	320.65
366.32	252.78
366.52	229.37
366.72	229.37
366.91	236.39
367.11	184.90
367.31	212.99
367.51	264.48
367.70	252.78
367.90	241.08
368.10	217.67
368.30	220.01
368.49	215.33
368.69	271.50
368.89	229.37
369.09	163.84
369.28	212.99
369.48	243.42
369.68	311.29
369.87	297.25
370.07	255.12
370.27	308.95
370.47	315.97
370.66	346.40
370.86	334.70
371.06	395.55
371.25	397.89
371.45	337.04
371.65	416.62
371.84	383.85
372.04	393.21
372.24	416.62
372.44	381.51
372.63	404.91
372.83	482.15
373.03	433.00
373.22	395.55
373.42	477.47
373.62	440.02
373.81	365.12
374.01	423.64
374.21	428.32
374.40	409.59
374.60	479.81
374.79	468.11
374.99	519.60
375.19	442.36
375.38	395.55
375.58	440.02
375.78	447.04
375.97	444.70
376.17	395.55
376.37	386.19
376.56	451.72
376.76	381.51
376.95	341.72
377.15	407.25
377.35	440.02
377.54	318.31
377.74	386.19
377.93	402.57
378.13	461.09
378.33	407.25
378.52	411.93
378.72	449.38
378.91	381.51
379.11	388.53
379.31	437.68
379.50	388.53
379.70	437.68
379.89	423.64
380.09	358.10
380.28	425.98
380.48	411.93
380.68	402.57
380.87	365.12
381.07	400.23
381.26	479.81
381.46	440.02
381.65	435.34
381.85	379.17
382.04	381.51
382.24	383.85
382.43	372.15
382.63	344.06
382.83	402.57
383.02	451.72
383.22	521.94
383.41	372.15
383.61	355.76
383.80	386.19
384.00	400.23
384.19	390.87
384.39	409.59
384.58	463.43
384.78	411.93
384.97	327.68
385.17	390.87
385.36	418.96
385.56	425.98
385.75	416.62
385.95	407.25
386.14	456.40
386.34	437.68
386.53	409.59
386.72	489.17
386.92	337.04
387.11	383.85
387.31	411.93
387.50	454.06
387.70	421.30
387.89	381.51
388.09	447.04
388.28	360.44
388.48	407.25
388.67	444.70
388.86	444.70
389.06	388.53
389.25	402.57
389.45	409.59
389.64	402.57
389.84	376.83
390.03	440.02
390.22	433.00
390.42	353.42
390.61	430.66
390.81	360.44
391.00	435.34
391.19	423.64
391.39	404.91
391.58	369.80
391.78	451.72
391.97	425.98
392.16	470.45
392.36	440.02
392.55	421.30
392.75	451.72
392.94	395.55
393.13	454.06
393.33	430.66
393.52	362.78
393.71	421.30
393.91	374.49
394.10	365.12
394.29	451.72
394.49	402.57
394.68	404.91
394.88	444.70
395.07	493.85
395.26	400.23
395.46	348.74
395.65	393.21
395.84	456.40
396.04	433.00
396.23	386.19
396.42	484.49
396.62	435.34
396.81	423.64
397.00	437.68
397.19	449.38
397.39	444.70
397.58	388.53
397.77	430.66
397.97	397.89
398.16	444.70
398.35	479.81
398.55	425.98
398.74	379.17
398.93	498.53
399.12	407.25
399.32	397.89
399.51	470.45
399.70	404.91
399.90	390.87
400.09	388.53
400.28	430.66
400.47	418.96
400.67	383.85
400.86	456.40
401.05	360.44
401.24	402.57
401.44	449.38
401.63	367.46
401.82	386.19
402.01	355.76
402.21	409.59
402.40	393.21
402.59	397.89
402.78	376.83
402.97	351.08
403.17	397.89
403.36	416.62
403.55	416.62
403.74	407.25
403.93	423.64
404.13	416.62
404.32	430.66
404.51	386.19
404.70	454.06
404.89	428.32
405.09	444.70
405.28	421.30
405.47	313.63
405.66	402.57
405.85	411.93
406.05	435.34
406.24	362.78
406.43	411.93
406.62	400.23
406.81	435.34
407.00	449.38
407.20	409.59
407.39	346.40
407.58	440.02
407.77	430.66
407.96	386.19
408.15	435.34
408.34	430.66
408.54	414.27
408.73	416.62
408.92	390.87
409.11	447.04
409.30	421.30
409.49	369.80
409.68	447.04
409.87	397.89
410.07	334.70
410.26	454.06
410.45	440.02
410.64	393.21
410.83	400.23
411.02	369.80
411.21	414.27
411.40	414.27
411.59	407.25
411.78	428.32
411.98	353.42
412.17	449.38
412.36	437.68
412.55	411.93
412.74	440.02
412.93	454.06
413.12	404.91
413.31	402.57
413.50	440.02
413.69	409.59
413.88	449.38
414.07	475.13
414.26	404.91
414.45	447.04
414.64	390.87
414.83	390.87
415.02	409.59
415.22	341.72
415.41	433.00
415.60	285.55
415.79	388.53
415.98	447.04
416.17	461.09
416.36	440.02
416.55	381.51
416.74	365.12
416.93	472.79
417.12	404.91
417.31	411.93
417.50	447.04
417.69	463.43
417.88	433.00
418.07	369.80
418.26	365.12
418.45	390.87
418.64	402.57
418.83	341.72
419.02	435.34
419.21	351.08
419.39	425.98
419.58	365.12
419.77	454.06
419.96	404.91
420.15	433.00
420.34	411.93
420.53	397.89
420.72	411.93
420.91	360.44
421.10	393.21
421.29	409.59
421.48	344.06
421.67	437.68
421.86	477.47
422.05	337.04
422.24	379.17
422.43	390.87
422.61	397.89
422.80	414.27
422.99	409.59
423.18	423.64
423.37	379.17
423.56	411.93
423.75	372.15
423.94	400.23
424.13	437.68
424.32	454.06
424.50	440.02
424.69	383.85
424.88	409.59
425.07	444.70
425.26	383.85
425.45	423.64
425.64	388.53
425.83	428.32
426.01	435.34
426.20	423.64
426.39	458.74
426.58	411.93
426.77	360.44
426.96	374.49
427.15	411.93
427.33	442.36
427.52	470.45
427.71	414.27
427.90	465.77
428.09	365.12
428.28	428.32
428.46	402.57
428.65	400.23
428.84	463.43
429.03	458.74
429.22	372.15
429.40	344.06
429.59	465.77
429.78	451.72
429.97	423.64
430.16	500.87
430.34	447.04
430.53	348.74
430.72	395.55
430.91	458.74
431.10	437.68
431.28	435.34
431.47	395.55
431.66	421.30
431.85	407.25
432.03	493.85
432.22	400.23
432.41	461.09
432.60	430.66
432.79	465.77
432.97	437.68
433.16	388.53
433.35	442.36
433.54	407.25
433.72	397.89
433.91	447.04
434.10	444.70
434.28	444.70
434.47	388.53
434.66	393.21
434.85	414.27
435.03	470.45
435.22	463.43
435.41	423.64
435.59	388.53
435.78	463.43
435.97	416.62
436.16	421.30
436.34	372.15
436.53	407.25
436.72	449.38
436.90	409.59
437.09	353.42
437.28	369.80
437.46	386.19
437.65	421.30
437.84	379.17
438.02	404.91
438.21	402.57
438.40	418.96
438.58	381.51
438.77	404.91
438.96	418.96
439.14	362.78
439.33	456.40
439.52	437.68
439.70	454.06
439.89	414.27
440.08	421.30
440.26	414.27
440.45	479.81
440.63	416.62
440.82	440.02
441.01	449.38
441.19	440.02
441.38	447.04
441.57	395.55
441.75	458.74
441.94	411.93
442.12	435.34
442.31	400.23
442.50	402.57
442.68	367.46
442.87	458.74
443.05	400.23
443.24	376.83
443.43	447.04
443.61	409.59
443.80	360.44
443.98	365.12
444.17	402.57
444.35	418.96
444.54	388.53
444.73	334.70
444.91	425.98
445.10	411.93
445.28	430.66
445.47	414.27
445.65	388.53
445.84	442.36
446.02	456.40
446.21	383.85
446.39	421.30
446.58	447.04
446.77	437.68
446.95	383.85
447.14	493.85
447.32	433.00
447.51	449.38
447.69	379.17
447.88	365.12
448.06	447.04
448.25	440.02
448.43	355.76
448.62	381.51
448.80	390.87
448.99	428.32
449.17	435.34
449.36	402.57
449.54	423.64
449.73	425.98
449.91	421.30
450.10	367.46
450.28	451.72
450.46	407.25
450.65	430.66
450.83	397.89
451.02	440.02
451.20	411.93
451.39	360.44
451.57	353.42
451.76	390.87
451.94	346.40
452.13	430.66
452.31	411.93
452.49	372.15
452.68	425.98
452.86	404.91
453.05	512.58
453.23	463.43
453.42	388.53
453.60	404.91
453.78	423.64
453.97	381.51
454.15	416.62
454.34	423.64
454.52	386.19
454.70	411.93
454.89	521.94
455.07	402.57
455.26	400.23
455.44	458.74
455.62	451.72
455.81	397.89
455.99	414.27
456.17	402.57
456.36	411.93
456.54	365.12
456.73	376.83
456.91	456.40
457.09	493.85
457.28	411.93
457.46	461.09
457.64	430.66
457.83	416.62
458.01	447.04
458.19	433.00
458.38	416.62
458.56	379.17
458.74	360.44
458.93	397.89
459.11	440.02
459.29	393.21
459.48	421.30
459.66	416.62
459.84	435.34
460.03	456.40
460.21	400.23
460.39	411.93
460.57	463.43
460.76	362.78
460.94	400.23
461.12	421.30
461.31	472.79
461.49	397.89
461.67	428.32
461.85	383.85
462.04	409.59
462.22	739.61
462.40	463.43
462.59	428.32
462.77	416.62
462.95	402.57
463.13	360.44
463.32	454.06
463.50	442.36
463.68	423.64
463.86	395.55
464.05	393.21
464.23	526.62
464.41	482.15
464.59	437.68
464.78	465.77
464.96	407.25
465.14	404.91
465.32	430.66
465.50	365.12
465.69	465.77
465.87	425.98
466.05	379.17
466.23	395.55
466.41	440.02
466.60	421.30
466.78	421.30
466.96	451.72
467.14	421.30
467.32	414.27
467.51	477.47
467.69	397.89
467.87	482.15
468.05	400.23
468.23	376.83
468.41	435.34
468.60	395.55
468.78	428.32
468.96	449.38
469.14	433.00
469.32	383.85
469.50	425.98
469.69	423.64
469.87	442.36
470.05	423.64
470.23	444.70
470.41	425.98
470.59	407.25
470.77	430.66
470.95	362.78
471.14	465.77
471.32	418.96
471.50	482.15
471.68	435.34
471.86	468.11
472.04	407.25
472.22	416.62
472.40	397.89
472.58	379.17
472.77	395.55
472.95	475.13
473.13	472.79
473.31	407.25
473.49	458.74
473.67	404.91
473.85	423.64
474.03	372.15
474.21	449.38
474.39	388.53
474.57	425.98
474.75	379.17
474.93	456.40
475.12	411.93
475.30	393.21
475.48	486.83
475.66	423.64
475.84	484.49
476.02	400.23
476.20	402.57
476.38	425.98
476.56	472.79
476.74	433.00
476.92	414.27
477.10	362.78
477.28	435.34
477.46	416.62
477.64	425.98
477.82	465.77
478.00	468.11
478.18	463.43
478.36	433.00
478.54	407.25
478.72	433.00
478.90	451.72
479.08	430.66
479.26	461.09
479.44	322.99
479.62	390.87
479.80	362.78
479.98	390.87
480.16	365.12
480.34	451.72
480.52	301.93
480.70	475.13
480.88	437.68
481.06	433.00
481.24	407.25
481.41	362.78
481.59	425.98
481.77	390.87
481.95	381.51
482.13	475.13
482.31	388.53
482.49	411.93
482.67	440.02
482.85	416.62
483.03	416.62
483.21	411.93
483.39	346.40
483.57	386.19
483.74	395.55
483.92	425.98
484.10	425.98
484.28	393.21
484.46	444.70
484.64	409.59
484.82	421.30
485.00	400.23
485.18	444.70
485.35	414.27
485.53	425.98
485.71	444.70
485.89	367.46
486.07	409.59
486.25	463.43
486.43	498.53
486.61	447.04
486.78	362.78
486.96	425.98
487.14	428.32
487.32	430.66
487.50	369.80
487.68	425.98
487.85	489.17
488.03	430.66
488.21	390.87
488.39	353.42
488.57	383.85
488.75	435.34
488.92	528.96
489.10	411.93
489.28	482.15
489.46	344.06
489.64	358.10
489.81	400.23
489.99	395.55
490.17	442.36
490.35	411.93
490.53	397.89
490.70	395.55
490.88	514.92
491.06	421.30
491.24	372.15
491.41	482.15
491.59	423.64
491.77	383.85
491.95	407.25
492.13	409.59
492.30	409.59
492.48	334.70
492.66	308.95
492.84	407.25
493.01	397.89
493.19	442.36
493.37	411.93
493.54	414.27
493.72	383.85
493.90	437.68
494.08	435.34
494.25	444.70
494.43	407.25
494.61	395.55
494.79	425.98
494.96	372.15
495.14	421.30
495.32	430.66
495.49	381.51
495.67	414.27
495.85	365.12
496.02	440.02
496.20	425.98
496.38	411.93
496.55	374.49
496.73	367.46
496.91	416.62
497.09	407.25
497.26	362.78
497.44	442.36
497.62	470.45
497.79	475.13
497.97	430.66
498.14	470.45
498.32	421.30
498.50	362.78
498.67	407.25
498.85	449.38
499.03	376.83
499.20	461.09
499.38	381.51
499.56	475.13
499.73	477.47
499.91	353.42
500.08	421.30
500.26	421.30
500.44	386.19
500.61	447.04
500.79	355.76
500.97	421.30
501.14	425.98
501.32	444.70
501.49	465.77
501.67	472.79
501.84	435.34
502.02	353.42
502.20	454.06
502.37	468.11
502.55	447.04
502.72	397.89
502.90	465.77
503.07	374.49
503.25	388.53
503.43	376.83
503.60	433.00
503.78	447.04
503.95	407.25
504.13	465.77
504.30	416.62
504.48	468.11
504.65	425.98
504.83	451.72
505.01	447.04
505.18	383.85
505.36	397.89
505.53	433.00
505.71	423.64
505.88	454.06
506.06	353.42
506.23	395.55
506.41	404.91
506.58	418.96
506.76	421.30
506.93	374.49
507.11	477.47
507.28	498.53
507.46	440.02
507.63	409.59
507.81	409.59
507.98	381.51
508.16	411.93
508.33	477.47
508.50	475.13
508.68	390.87
508.85	402.57
509.03	360.44
509.20	386.19
509.38	423.64
509.55	451.72
509.73	475.13
509.90	337.04
510.08	341.72
510.25	454.06
510.42	449.38
510.60	369.80
510.77	428.32
510.95	402.57
511.12	358.10
511.30	409.59
511.47	418.96
511.64	456.40
511.82	468.11
511.99	435.34
512.17	472.79
512.34	393.21
512.51	440.02
512.69	444.70
512.86	425.98
513.04	430.66
513.21	365.12
513.38	393.21
513.56	440.02
513.73	351.08
513.90	435.34
514.08	358.10
514.25	440.02
514.43	381.51
514.60	365.12
514.77	449.38
514.95	498.53
515.12	451.72
515.29	425.98
515.47	437.68
515.64	421.30
515.81	437.68
515.99	472.79
516.16	407.25
516.33	531.30
516.51	390.87
516.68	362.78
516.85	367.46
517.03	330.02
517.20	449.38
517.37	465.77
517.54	491.51
517.72	369.80
517.89	346.40
518.06	390.87
518.24	500.87
518.41	496.19
518.58	430.66
518.75	400.23
518.93	435.34
519.10	456.40
519.27	402.57
519.45	461.09
519.62	477.47
519.79	381.51
519.96	395.55
520.14	315.97
520.31	458.74
520.48	458.74
520.65	500.87
520.83	416.62
521.00	484.49
521.17	442.36
521.34	400.23
521.52	468.11
521.69	400.23
521.86	444.70
522.03	428.32
522.20	421.30
522.38	414.27
522.55	491.51
522.72	365.12
522.89	414.27
523.07	440.02
523.24	341.72
523.41	374.49
523.58	447.04
523.75	400.23
523.92	418.96
524.10	355.76
524.27	435.34
524.44	358.10
524.61	477.47
524.78	390.87
524.96	400.23
525.13	418.96
525.30	421.30
525.47	390.87
525.64	409.59
525.81	416.62
525.98	472.79
526.16	386.19
526.33	393.21
526.50	407.25
526.67	386.19
526.84	374.49
527.01	339.38
527.18	418.96
527.36	374.49
527.53	386.19
527.70	456.40
527.87	397.89
528.04	470.45
528.21	458.74
528.38	390.87
528.55	395.55
528.72	428.32
528.89	367.46
529.07	458.74
529.24	458.74
529.41	409.59
529.58	400.23
529.75	465.77
529.92	440.02
530.09	409.59
530.26	397.89
530.43	376.83
530.60	461.09
530.77	402.57
530.94	428.32
531.11	418.96
531.28	489.17
531.46	416.62
531.63	414.27
531.80	372.15
531.97	423.64
532.14	388.53
532.31	447.04
532.48	435.34
532.65	454.06
532.82	379.17
532.99	465.77
533.16	500.87
533.33	414.27
533.50	437.68
533.67	388.53
533.84	411.93
534.01	433.00
534.18	423.64
534.35	416.62
534.52	397.89
534.69	369.80
534.86	360.44
535.03	379.17
535.20	369.80
535.37	458.74
535.54	362.78
535.71	425.98
535.88	477.47
536.05	454.06
536.22	447.04
536.38	348.74
536.55	475.13
536.72	437.68
536.89	414.27
537.06	402.57
537.23	397.89
537.40	437.68
537.57	379.17
537.74	400.23
537.91	402.57
538.08	421.30
538.25	388.53
538.42	437.68
538.59	416.62
538.75	440.02
538.92	411.93
539.09	395.55
539.26	400.23
539.43	440.02
539.60	386.19
539.77	414.27
539.94	435.34
540.11	449.38
540.28	435.34
540.44	437.68
540.61	402.57
540.78	433.00
540.95	330.02
541.12	507.90
541.29	374.49
541.46	458.74
541.62	482.15
541.79	386.19
541.96	456.40
542.13	372.15
542.30	456.40
542.47	482.15
542.63	362.78
542.80	400.23
542.97	440.02
543.14	351.08
543.31	423.64
543.48	454.06
543.64	456.40
543.81	416.62
543.98	367.46
544.15	425.98
544.32	395.55
544.48	423.64
544.65	433.00
544.82	400.23
544.99	367.46
545.16	458.74
545.32	379.17
545.49	454.06
545.66	402.57
545.83	409.59
546.00	407.25
546.16	425.98
546.33	325.33
546.50	348.74
546.67	379.17
546.83	379.17
547.00	435.34
547.17	433.00
547.34	381.51
547.50	433.00
547.67	433.00
547.84	409.59
548.00	493.85
548.17	386.19
548.34	374.49
548.51	454.06
548.67	447.04
548.84	486.83
549.01	390.87
549.18	404.91
549.34	322.99
549.51	383.85
549.68	353.42
549.84	421.30
550.01	428.32
550.18	421.30
550.34	400.23
550.51	358.10
550.68	433.00
550.84	416.62
551.01	402.57
551.18	411.93
551.34	409.59
551.51	381.51
551.68	407.25
551.84	409.59
552.01	381.51
552.18	313.63
552.34	433.00
552.51	475.13
552.68	425.98
552.84	388.53
553.01	428.32
553.18	447.04
553.34	407.25
553.51	461.09
553.67	484.49
553.84	433.00
554.01	353.42
554.17	451.72
554.34	346.40
554.51	388.53
554.67	386.19
554.84	400.23
555.00	381.51
555.17	477.47
555.33	477.47
555.50	425.98
555.67	425.98
555.83	402.57
556.00	397.89
556.16	636.63
556.33	465.77
556.50	458.74
556.66	440.02
556.83	395.55
556.99	461.09
557.16	433.00
557.32	397.89
557.49	435.34
557.65	421.30
557.82	374.49
557.98	388.53
558.15	414.27
558.32	390.87
558.48	374.49
558.65	355.76
558.81	433.00
558.98	367.46
559.14	440.02
559.31	414.27
559.47	458.74
559.64	395.55
559.80	423.64
559.97	430.66
560.13	435.34
560.30	449.38
560.46	360.44
560.63	416.62
560.79	454.06
560.96	428.32
561.12	440.02
561.29	456.40
561.45	400.23
561.61	360.44
561.78	489.17
561.94	447.04
562.11	416.62
562.27	358.10
562.44	416.62
562.60	397.89
562.77	430.66
562.93	468.11
563.10	344.06
563.26	454.06
563.42	449.38
563.59	425.98
563.75	461.09
563.92	414.27
564.08	362.78
564.24	519.60
564.41	437.68
564.57	442.36
564.74	397.89
564.90	418.96
565.07	421.30
565.23	376.83
565.39	379.17
565.56	444.70
565.72	404.91
565.88	393.21
566.05	367.46
566.21	449.38
566.38	365.12
566.54	407.25
566.70	386.19
566.87	425.98
567.03	397.89
567.19	411.93
567.36	482.15
567.52	440.02
567.68	414.27
567.85	442.36
568.01	458.74
568.17	386.19
568.34	437.68
568.50	411.93
568.66	404.91
568.83	493.85
568.99	400.23
569.15	418.96
569.32	458.74
569.48	411.93
569.64	388.53
569.81	425.98
569.97	365.12
570.13	425.98
570.30	407.25
570.46	351.08
570.62	404.91
570.78	454.06
570.95	409.59
571.11	470.45
571.27	407.25
571.43	374.49
571.60	447.04
571.76	411.93
571.92	397.89
572.09	344.06
572.25	346.40
572.41	367.46
572.57	430.66
572.74	482.15
572.90	475.13
573.06	374.49
573.22	442.36
573.38	475.13
573.55	449.38
573.71	512.58
573.87	475.13
574.03	425.98
574.20	425.98
574.36	440.02
574.52	461.09
574.68	470.45
574.84	447.04
575.01	444.70
575.17	425.98
575.33	393.21
575.49	489.17
575.65	456.40
575.82	423.64
575.98	510.24
576.14	447.04
576.30	383.85
576.46	404.91
576.62	423.64
576.79	442.36
576.95	463.43
577.11	433.00
577.27	414.27
577.43	465.77
577.59	428.32
577.75	407.25
577.92	332.36
578.08	461.09
578.24	461.09
578.40	407.25
578.56	379.17
578.72	451.72
578.88	454.06
579.04	451.72
579.21	449.38
579.37	379.17
579.53	367.46
579.69	430.66
579.85	449.38
580.01	416.62
580.17	365.12
580.33	395.55
580.49	386.19
580.65	393.21
580.82	425.98
580.98	411.93
581.14	393.21
581.30	437.68
581.46	383.85
581.62	404.91
581.78	390.87
581.94	418.96
582.10	318.31
582.26	428.32
582.42	381.51
582.58	496.19
582.74	423.64
582.90	433.00
583.06	397.89
583.22	390.87
583.38	451.72
583.54	376.83
583.70	330.02
583.86	416.62
584.02	461.09
584.18	451.72
584.34	393.21
584.50	428.32
584.66	428.32
584.82	479.81
584.98	456.40
585.14	449.38
585.30	393.21
585.46	430.66
585.62	447.04
585.78	379.17
585.94	437.68
586.10	414.27
586.26	393.21
586.42	416.62
586.58	468.11
586.74	423.64
586.90	423.64
587.06	409.59
587.22	418.96
587.38	388.53
587.54	393.21
587.70	376.83
587.86	404.91
588.02	369.80
588.18	428.32
588.34	416.62
588.49	372.15
588.65	414.27
588.81	374.49
588.97	400.23
589.13	407.25
589.29	486.83
589.45	454.06
589.61	423.64
589.77	447.04
589.93	358.10
590.08	411.93
590.24	400.23
590.40	341.72
590.56	376.83
590.72	423.64
590.88	355.76
591.04	416.62
591.20	437.68
591.35	484.49
591.51	440.02
591.67	390.87
591.83	442.36
591.99	440.02
592.15	428.32
592.31	423.64
592.46	409.59
592.62	449.38
592.78	437.68
592.94	395.55
593.10	402.57
593.26	395.55
593.41	477.47
593.57	390.87
593.73	341.72
593.89	484.49
594.05	362.78
594.20	461.09
594.36	458.74
594.52	402.57
594.68	367.46
594.84	519.60
594.99	449.38
595.15	458.74
595.31	442.36
595.47	447.04
595.62	315.97
595.78	411.93
595.94	458.74
596.10	465.77
596.25	458.74
596.41	383.85
596.57	381.51
596.73	418.96
596.88	346.40
597.04	411.93
597.20	456.40
597.36	470.45
597.51	346.40
597.67	418.96
597.83	440.02
597.99	418.96
598.14	400.23
598.30	472.79
598.46	388.53
598.61	430.66
598.77	358.10
598.93	395.55
599.09	386.19
599.24	388.53
599.40	517.26
599.56	421.30
599.71	433.00
599.87	435.34
600.03	493.85
600.18	416.62
600.34	468.11
600.50	383.85
600.65	400.23
600.81	507.90
600.97	407.25
601.12	425.98
601.28	456.40
601.44	430.66
601.59	372.15
601.75	449.38
601.91	442.36
602.06	470.45
602.22	507.90
602.37	379.17
602.53	395.55
602.69	383.85
602.84	456.40
603.00	360.44
603.16	381.51
603.31	442.36
603.47	388.53
603.62	451.72
603.78	449.38
603.94	475.13
604.09	484.49
604.25	433.00
604.40	433.00
604.56	416.62
604.71	339.38
604.87	348.74
605.03	388.53
605.18	414.27
605.34	407.25
605.49	475.13
605.65	418.96
605.80	381.51
605.96	416.62
606.12	454.06
606.27	418.96
606.43	388.53
606.58	461.09
606.74	400.23
606.89	444.70
607.05	435.34
607.20	423.64
607.36	440.02
607.51	414.27
607.67	472.79
607.82	358.10
607.98	461.09
608.13	381.51
608.29	454.06
608.44	418.96
608.60	381.51
608.75	463.43
608.91	360.44
609.06	463.43
609.22	454.06
609.37	428.32
609.53	409.59
609.68	355.76
609.84	372.15
609.99	423.64
610.15	447.04
