SpectraSuite Data File
++++++++++++++++++++++++++++++++++++
Date: Fri Oct 25 12:10:31 EDT 2013
User: price-jones
Dark Spectrum Present: No
Reference Spectrum Present: No
Number of Sampled Component Spectra: 1
Spectrometers: USB2+H05261
Integration Time (usec): 100000 (USB2+H05261)
Spectra Averaged: 1 (USB2+H05261)
Boxcar Smoothing: 0 (USB2+H05261)
Correct for Electrical Dark: No (USB2+H05261)
Strobe/Lamp Enabled: No (USB2+H05261)
Correct for Detector Non-linearity: No (USB2+H05261)
Correct for Stray Light: No (USB2+H05261)
Number of Pixels in Processed Spectrum: 2048
>>>>>Begin Processed Spectral Data<<<<<
365.73	388.53
365.92	388.53
366.12	388.53
366.32	287.89
366.52	255.12
366.72	203.63
366.91	231.71
367.11	224.69
367.31	175.54
367.51	259.80
367.70	198.95
367.90	250.44
368.10	266.82
368.30	208.31
368.49	208.31
368.69	287.89
368.89	290.23
369.09	271.50
369.28	238.73
369.48	311.29
369.68	290.23
369.87	243.42
370.07	250.44
370.27	320.65
370.47	332.36
370.66	339.38
370.86	325.33
371.06	346.40
371.25	416.62
371.45	351.08
371.65	388.53
371.84	409.59
372.04	416.62
372.24	411.93
372.44	365.12
372.63	458.74
372.83	423.64
373.03	404.91
373.22	416.62
373.42	404.91
373.62	416.62
373.81	360.44
374.01	386.19
374.21	414.27
374.40	458.74
374.60	430.66
374.79	433.00
374.99	395.55
375.19	442.36
375.38	472.79
375.58	400.23
375.78	435.34
375.97	458.74
376.17	470.45
376.37	440.02
376.56	423.64
376.76	428.32
376.95	409.59
377.15	451.72
377.35	381.51
377.54	369.80
377.74	440.02
377.93	458.74
378.13	454.06
378.33	414.27
378.52	440.02
378.72	388.53
378.91	472.79
379.11	449.38
379.31	360.44
379.50	360.44
379.70	381.51
379.89	383.85
380.09	381.51
380.28	395.55
380.48	351.08
380.68	358.10
380.87	451.72
381.07	407.25
381.26	388.53
381.46	381.51
381.65	332.36
381.85	390.87
382.04	407.25
382.24	559.39
382.43	468.11
382.63	421.30
382.83	393.21
383.02	456.40
383.22	388.53
383.41	339.38
383.61	416.62
383.80	372.15
384.00	355.76
384.19	442.36
384.39	423.64
384.58	425.98
384.78	416.62
384.97	477.47
385.17	341.72
385.36	390.87
385.56	421.30
385.75	332.36
385.95	407.25
386.14	423.64
386.34	503.22
386.53	470.45
386.72	388.53
386.92	458.74
387.11	411.93
387.31	416.62
387.50	395.55
387.70	388.53
387.89	376.83
388.09	351.08
388.28	418.96
388.48	395.55
388.67	414.27
388.86	409.59
389.06	421.30
389.25	421.30
389.45	390.87
389.64	383.85
389.84	418.96
390.03	421.30
390.22	395.55
390.42	428.32
390.61	404.91
390.81	346.40
391.00	400.23
391.19	425.98
391.39	414.27
391.58	421.30
391.78	320.65
391.97	510.24
392.16	416.62
392.36	433.00
392.55	484.49
392.75	341.72
392.94	390.87
393.13	418.96
393.33	355.76
393.52	428.32
393.71	425.98
393.91	383.85
394.10	358.10
394.29	402.57
394.49	418.96
394.68	444.70
394.88	477.47
395.07	425.98
395.26	397.89
395.46	386.19
395.65	372.15
395.84	409.59
396.04	468.11
396.23	402.57
396.42	388.53
396.62	369.80
396.81	440.02
397.00	472.79
397.19	386.19
397.39	454.06
397.58	418.96
397.77	358.10
397.97	449.38
398.16	428.32
398.35	423.64
398.55	414.27
398.74	440.02
398.93	454.06
399.12	393.21
399.32	425.98
399.51	369.80
399.70	437.68
399.90	397.89
400.09	444.70
400.28	374.49
400.47	379.17
400.67	428.32
400.86	404.91
401.05	433.00
401.24	442.36
401.44	397.89
401.63	407.25
401.82	381.51
402.01	381.51
402.21	395.55
402.40	418.96
402.59	461.09
402.78	381.51
402.97	430.66
403.17	486.83
403.36	418.96
403.55	374.49
403.74	388.53
403.93	428.32
404.13	430.66
404.32	442.36
404.51	383.85
404.70	461.09
404.89	423.64
405.09	442.36
405.28	411.93
405.47	442.36
405.66	346.40
405.85	386.19
406.05	463.43
406.24	461.09
406.43	461.09
406.62	458.74
406.81	435.34
407.00	484.49
407.20	367.46
407.39	442.36
407.58	395.55
407.77	388.53
407.96	416.62
408.15	421.30
408.34	414.27
408.54	344.06
408.73	360.44
408.92	395.55
409.11	416.62
409.30	393.21
409.49	362.78
409.68	407.25
409.87	395.55
410.07	372.15
410.26	461.09
410.45	493.85
410.64	418.96
410.83	404.91
411.02	393.21
411.21	489.17
411.40	395.55
411.59	400.23
411.78	395.55
411.98	425.98
412.17	379.17
412.36	437.68
412.55	433.00
412.74	465.77
412.93	449.38
413.12	411.93
413.31	393.21
413.50	440.02
413.69	437.68
413.88	430.66
414.07	372.15
414.26	414.27
414.45	346.40
414.64	360.44
414.83	402.57
415.02	454.06
415.22	411.93
415.41	477.47
415.60	369.80
415.79	407.25
415.98	409.59
416.17	395.55
416.36	463.43
416.55	400.23
416.74	341.72
416.93	374.49
417.12	411.93
417.31	454.06
417.50	409.59
417.69	421.30
417.88	421.30
418.07	430.66
418.26	418.96
418.45	463.43
418.64	444.70
418.83	433.00
419.02	411.93
419.21	414.27
419.39	444.70
419.58	430.66
419.77	379.17
419.96	468.11
420.15	447.04
420.34	369.80
420.53	421.30
420.72	458.74
420.91	393.21
421.10	369.80
421.29	463.43
421.48	451.72
421.67	468.11
421.86	372.15
422.05	376.83
422.24	444.70
422.43	456.40
422.61	395.55
422.80	428.32
422.99	411.93
423.18	411.93
423.37	454.06
423.56	360.44
423.75	411.93
423.94	407.25
424.13	402.57
424.32	341.72
424.50	383.85
424.69	433.00
424.88	468.11
425.07	358.10
425.26	376.83
425.45	477.47
425.64	372.15
425.83	397.89
426.01	400.23
426.20	386.19
426.39	386.19
426.58	402.57
426.77	414.27
426.96	402.57
427.15	468.11
427.33	447.04
427.52	442.36
427.71	458.74
427.90	402.57
428.09	437.68
428.28	379.17
428.46	367.46
428.65	369.80
428.84	421.30
429.03	440.02
429.22	393.21
429.40	390.87
429.59	374.49
429.78	425.98
429.97	332.36
430.16	397.89
430.34	423.64
430.53	407.25
430.72	376.83
430.91	407.25
431.10	346.40
431.28	381.51
431.47	386.19
431.66	430.66
431.85	449.38
432.03	388.53
432.22	376.83
432.41	414.27
432.60	423.64
432.79	491.51
432.97	318.31
433.16	409.59
433.35	433.00
433.54	409.59
433.72	449.38
433.91	409.59
434.10	372.15
434.28	414.27
434.47	390.87
434.66	454.06
434.85	479.81
435.03	397.89
435.22	400.23
435.41	395.55
435.59	407.25
435.78	407.25
435.97	381.51
436.16	442.36
436.34	362.78
436.53	435.34
436.72	411.93
436.90	447.04
437.09	425.98
437.28	379.17
437.46	435.34
437.65	440.02
437.84	339.38
438.02	386.19
438.21	379.17
438.40	388.53
438.58	360.44
438.77	397.89
438.96	435.34
439.14	351.08
439.33	418.96
439.52	393.21
439.70	418.96
439.89	430.66
440.08	400.23
440.26	482.15
440.45	374.49
440.63	376.83
440.82	400.23
441.01	351.08
441.19	423.64
441.38	421.30
441.57	435.34
441.75	447.04
441.94	425.98
442.12	376.83
442.31	421.30
442.50	437.68
442.68	374.49
442.87	512.58
443.05	383.85
443.24	454.06
443.43	437.68
443.61	423.64
443.80	393.21
443.98	400.23
444.17	393.21
444.35	463.43
444.54	308.95
444.73	402.57
444.91	365.12
445.10	400.23
445.28	440.02
445.47	475.13
445.65	395.55
445.84	397.89
446.02	400.23
446.21	423.64
446.39	428.32
446.58	411.93
446.77	414.27
446.95	393.21
447.14	409.59
447.32	418.96
447.51	423.64
447.69	435.34
447.88	418.96
448.06	409.59
448.25	409.59
448.43	376.83
448.62	421.30
448.80	433.00
448.99	407.25
449.17	421.30
449.36	348.74
449.54	379.17
449.73	383.85
449.91	423.64
450.10	379.17
450.28	433.00
450.46	442.36
450.65	479.81
450.83	423.64
451.02	428.32
451.20	409.59
451.39	386.19
451.57	454.06
451.76	423.64
451.94	437.68
452.13	383.85
452.31	407.25
452.49	456.40
452.68	360.44
452.86	367.46
453.05	418.96
453.23	372.15
453.42	351.08
453.60	411.93
453.78	344.06
453.97	381.51
454.15	477.47
454.34	421.30
454.52	411.93
454.70	489.17
454.89	484.49
455.07	477.47
455.26	437.68
455.44	430.66
455.62	451.72
455.81	388.53
455.99	437.68
456.17	376.83
456.36	449.38
456.54	383.85
456.73	393.21
456.91	332.36
457.09	411.93
457.28	404.91
457.46	454.06
457.64	440.02
457.83	367.46
458.01	332.36
458.19	379.17
458.38	400.23
458.56	414.27
458.74	393.21
458.93	369.80
459.11	411.93
459.29	442.36
459.48	388.53
459.66	407.25
459.84	430.66
460.03	470.45
460.21	353.42
460.39	421.30
460.57	421.30
460.76	404.91
460.94	395.55
461.12	440.02
461.31	468.11
461.49	390.87
461.67	442.36
461.85	444.70
462.04	423.64
462.22	753.65
462.40	428.32
462.59	437.68
462.77	365.12
462.95	496.19
463.13	428.32
463.32	358.10
463.50	423.64
463.68	414.27
463.86	404.91
464.05	397.89
464.23	461.09
464.41	451.72
464.59	430.66
464.78	416.62
464.96	379.17
465.14	388.53
465.32	435.34
465.50	402.57
465.69	442.36
465.87	369.80
466.05	411.93
466.23	425.98
466.41	386.19
466.60	409.59
466.78	465.77
466.96	437.68
467.14	402.57
467.32	428.32
467.51	442.36
467.69	489.17
467.87	369.80
468.05	362.78
468.23	496.19
468.41	407.25
468.60	423.64
468.78	524.28
468.96	423.64
469.14	430.66
469.32	344.06
469.50	402.57
469.69	421.30
469.87	407.25
470.05	353.42
470.23	416.62
470.41	416.62
470.59	362.78
470.77	372.15
470.95	379.17
471.14	372.15
471.32	433.00
471.50	414.27
471.68	430.66
471.86	351.08
472.04	348.74
472.22	388.53
472.40	423.64
472.58	416.62
472.77	386.19
472.95	395.55
473.13	496.19
473.31	430.66
473.49	440.02
473.67	456.40
473.85	519.60
474.03	430.66
474.21	327.68
474.39	409.59
474.57	407.25
474.75	428.32
474.93	447.04
475.12	428.32
475.30	376.83
475.48	428.32
475.66	437.68
475.84	348.74
476.02	374.49
476.20	475.13
476.38	381.51
476.56	507.90
476.74	411.93
476.92	430.66
477.10	418.96
477.28	390.87
477.46	407.25
477.64	472.79
477.82	386.19
478.00	428.32
478.18	475.13
478.36	425.98
478.54	468.11
478.72	402.57
478.90	404.91
479.08	383.85
479.26	404.91
479.44	320.65
479.62	341.72
479.80	442.36
479.98	367.46
480.16	447.04
480.34	388.53
480.52	440.02
480.70	344.06
480.88	395.55
481.06	461.09
481.24	407.25
481.41	397.89
481.59	407.25
481.77	355.76
481.95	449.38
482.13	404.91
482.31	400.23
482.49	360.44
482.67	489.17
482.85	416.62
483.03	435.34
483.21	407.25
483.39	416.62
483.57	409.59
483.74	397.89
483.92	425.98
484.10	421.30
484.28	397.89
484.46	524.28
484.64	411.93
484.82	461.09
485.00	416.62
485.18	346.40
485.35	400.23
485.53	318.31
485.71	482.15
485.89	465.77
486.07	414.27
486.25	444.70
486.43	404.91
486.61	447.04
486.78	425.98
486.96	348.74
487.14	360.44
487.32	372.15
487.50	376.83
487.68	409.59
487.85	369.80
488.03	430.66
488.21	362.78
488.39	421.30
488.57	444.70
488.75	409.59
488.92	493.85
489.10	369.80
489.28	428.32
489.46	433.00
489.64	393.21
489.81	435.34
489.99	456.40
490.17	397.89
490.35	411.93
490.53	440.02
490.70	437.68
490.88	454.06
491.06	416.62
491.24	400.23
491.41	496.19
491.59	451.72
491.77	383.85
491.95	397.89
492.13	479.81
492.30	444.70
492.48	409.59
492.66	423.64
492.84	386.19
493.01	458.74
493.19	395.55
493.37	449.38
493.54	444.70
493.72	397.89
493.90	372.15
494.08	433.00
494.25	346.40
494.43	458.74
494.61	423.64
494.79	395.55
494.96	400.23
495.14	411.93
495.32	437.68
495.49	447.04
495.67	461.09
495.85	447.04
496.02	379.17
496.20	402.57
496.38	365.12
496.55	425.98
496.73	423.64
496.91	390.87
497.09	374.49
497.26	418.96
497.44	418.96
497.62	376.83
497.79	421.30
497.97	407.25
498.14	407.25
498.32	397.89
498.50	374.49
498.67	400.23
498.85	381.51
499.03	400.23
499.20	491.51
499.38	400.23
499.56	407.25
499.73	440.02
499.91	376.83
500.08	351.08
500.26	421.30
500.44	351.08
500.61	428.32
500.79	444.70
500.97	430.66
501.14	400.23
501.32	442.36
501.49	465.77
501.67	528.96
501.84	376.83
502.02	397.89
502.20	372.15
502.37	407.25
502.55	425.98
502.72	379.17
502.90	468.11
503.07	402.57
503.25	451.72
503.43	379.17
503.60	430.66
503.78	433.00
503.95	433.00
504.13	402.57
504.30	416.62
504.48	418.96
504.65	451.72
504.83	423.64
505.01	393.21
505.18	416.62
505.36	379.17
505.53	383.85
505.71	318.31
505.88	407.25
506.06	374.49
506.23	386.19
506.41	430.66
506.58	484.49
506.76	383.85
506.93	507.90
507.11	468.11
507.28	381.51
507.46	383.85
507.63	407.25
507.81	411.93
507.98	475.13
508.16	447.04
508.33	433.00
508.50	461.09
508.68	402.57
508.85	400.23
509.03	425.98
509.20	402.57
509.38	353.42
509.55	454.06
509.73	442.36
509.90	454.06
510.08	409.59
510.25	390.87
510.42	479.81
510.60	358.10
510.77	484.49
510.95	409.59
511.12	374.49
511.30	418.96
511.47	360.44
511.64	425.98
511.82	393.21
511.99	414.27
512.17	423.64
512.34	437.68
512.51	430.66
512.69	374.49
512.86	484.49
513.04	407.25
513.21	442.36
513.38	411.93
513.56	395.55
513.73	444.70
513.90	430.66
514.08	402.57
514.25	402.57
514.43	454.06
514.60	433.00
514.77	472.79
514.95	463.43
515.12	360.44
515.29	355.76
515.47	404.91
515.64	409.59
515.81	390.87
515.99	421.30
516.16	409.59
516.33	477.47
516.51	395.55
516.68	390.87
516.85	447.04
517.03	386.19
517.20	374.49
517.37	409.59
517.54	383.85
517.72	449.38
517.89	423.64
518.06	393.21
518.24	430.66
518.41	390.87
518.58	388.53
518.75	416.62
518.93	416.62
519.10	414.27
519.27	402.57
519.45	475.13
519.62	395.55
519.79	435.34
519.96	379.17
520.14	372.15
520.31	456.40
520.48	425.98
520.65	428.32
520.83	435.34
521.00	470.45
521.17	379.17
521.34	454.06
521.52	383.85
521.69	425.98
521.86	428.32
522.03	428.32
522.20	465.77
522.38	330.02
522.55	418.96
522.72	409.59
522.89	449.38
523.07	486.83
523.24	393.21
523.41	327.68
523.58	372.15
523.75	409.59
523.92	414.27
524.10	397.89
524.27	344.06
524.44	372.15
524.61	461.09
524.78	409.59
524.96	423.64
525.13	362.78
525.30	416.62
525.47	444.70
525.64	395.55
525.81	386.19
525.98	468.11
526.16	414.27
526.33	449.38
526.50	400.23
526.67	400.23
526.84	409.59
527.01	411.93
527.18	421.30
527.36	433.00
527.53	367.46
527.70	484.49
527.87	393.21
528.04	440.02
528.21	407.25
528.38	416.62
528.55	435.34
528.72	393.21
528.89	472.79
529.07	433.00
529.24	444.70
529.41	472.79
529.58	421.30
529.75	400.23
529.92	449.38
530.09	393.21
530.26	393.21
530.43	521.94
530.60	421.30
530.77	362.78
530.94	428.32
531.11	451.72
531.28	365.12
531.46	404.91
531.63	409.59
531.80	477.47
531.97	360.44
532.14	334.70
532.31	402.57
532.48	379.17
532.65	437.68
532.82	376.83
532.99	379.17
533.16	400.23
533.33	386.19
533.50	383.85
533.67	411.93
533.84	435.34
534.01	463.43
534.18	444.70
534.35	379.17
534.52	444.70
534.69	493.85
534.86	409.59
535.03	388.53
535.20	383.85
535.37	456.40
535.54	425.98
535.71	365.12
535.88	404.91
536.05	383.85
536.22	477.47
536.38	402.57
536.55	475.13
536.72	442.36
536.89	346.40
537.06	409.59
537.23	433.00
537.40	425.98
537.57	372.15
537.74	423.64
537.91	477.47
538.08	430.66
538.25	498.53
538.42	355.76
538.59	365.12
538.75	418.96
538.92	416.62
539.09	451.72
539.26	362.78
539.43	433.00
539.60	402.57
539.77	428.32
539.94	411.93
540.11	339.38
540.28	433.00
540.44	388.53
540.61	444.70
540.78	358.10
540.95	386.19
541.12	404.91
541.29	423.64
541.46	442.36
541.62	451.72
541.79	447.04
541.96	433.00
542.13	456.40
542.30	454.06
542.47	465.77
542.63	386.19
542.80	383.85
542.97	472.79
543.14	407.25
543.31	451.72
543.48	395.55
543.64	437.68
543.81	395.55
543.98	353.42
544.15	454.06
544.32	397.89
544.48	475.13
544.65	451.72
544.82	477.47
544.99	442.36
545.16	458.74
545.32	482.15
545.49	395.55
545.66	344.06
545.83	386.19
546.00	428.32
546.16	322.99
546.33	435.34
546.50	411.93
546.67	458.74
546.83	433.00
547.00	407.25
547.17	449.38
547.34	362.78
547.50	477.47
547.67	430.66
547.84	416.62
548.00	407.25
548.17	397.89
548.34	493.85
548.51	503.22
548.67	397.89
548.84	393.21
549.01	414.27
549.18	447.04
549.34	390.87
549.51	440.02
549.68	428.32
549.84	451.72
550.01	458.74
550.18	500.87
550.34	503.22
550.51	376.83
550.68	365.12
550.84	442.36
551.01	425.98
551.18	514.92
551.34	489.17
551.51	358.10
551.68	404.91
551.84	456.40
552.01	386.19
552.18	390.87
552.34	477.47
552.51	449.38
552.68	421.30
552.84	444.70
553.01	409.59
553.18	435.34
553.34	414.27
553.51	388.53
553.67	465.77
553.84	484.49
554.01	416.62
554.17	444.70
554.34	383.85
554.51	440.02
554.67	437.68
554.84	447.04
555.00	496.19
555.17	472.79
555.33	388.53
555.50	447.04
555.67	402.57
555.83	388.53
556.00	428.32
556.16	393.21
556.33	456.40
556.50	449.38
556.66	479.81
556.83	472.79
556.99	402.57
557.16	458.74
557.32	456.40
557.49	414.27
557.65	449.38
557.82	418.96
557.98	458.74
558.15	400.23
558.32	447.04
558.48	472.79
558.65	407.25
558.81	458.74
558.98	430.66
559.14	360.44
559.31	411.93
559.47	451.72
559.64	465.77
559.80	397.89
559.97	379.17
560.13	440.02
560.30	454.06
560.46	395.55
560.63	411.93
560.79	433.00
560.96	491.51
561.12	393.21
561.29	409.59
561.45	423.64
561.61	409.59
561.78	447.04
561.94	386.19
562.11	449.38
562.27	433.00
562.44	444.70
562.60	451.72
562.77	365.12
562.93	449.38
563.10	456.40
563.26	407.25
563.42	388.53
563.59	430.66
563.75	444.70
563.92	463.43
564.08	379.17
564.24	458.74
564.41	503.22
564.57	423.64
564.74	341.72
564.90	444.70
565.07	428.32
565.23	425.98
565.39	416.62
565.56	411.93
565.72	407.25
565.88	404.91
566.05	397.89
566.21	440.02
566.38	437.68
566.54	409.59
566.70	416.62
566.87	449.38
567.03	402.57
567.19	425.98
567.36	372.15
567.52	379.17
567.68	454.06
567.85	365.12
568.01	517.26
568.17	407.25
568.34	493.85
568.50	407.25
568.66	486.83
568.83	404.91
568.99	365.12
569.15	435.34
569.32	456.40
569.48	374.49
569.64	421.30
569.81	433.00
569.97	435.34
570.13	416.62
570.30	381.51
570.46	407.25
570.62	423.64
570.78	484.49
570.95	458.74
571.11	451.72
571.27	433.00
571.43	402.57
571.60	486.83
571.76	416.62
571.92	444.70
572.09	437.68
572.25	444.70
572.41	390.87
572.57	444.70
572.74	447.04
572.90	414.27
573.06	416.62
573.22	393.21
573.38	425.98
573.55	440.02
573.71	449.38
573.87	451.72
574.03	442.36
574.20	400.23
574.36	463.43
574.52	456.40
574.68	353.42
574.84	409.59
575.01	369.80
575.17	435.34
575.33	421.30
575.49	449.38
575.65	437.68
575.82	414.27
575.98	463.43
576.14	418.96
576.30	421.30
576.46	369.80
576.62	390.87
576.79	442.36
576.95	395.55
577.11	486.83
577.27	435.34
577.43	374.49
577.59	425.98
577.75	416.62
577.92	369.80
578.08	388.53
578.24	428.32
578.40	430.66
578.56	472.79
578.72	433.00
578.88	409.59
579.04	435.34
579.21	447.04
579.37	437.68
579.53	442.36
579.69	337.04
579.85	425.98
580.01	425.98
580.17	444.70
580.33	437.68
580.49	397.89
580.65	390.87
580.82	442.36
580.98	388.53
581.14	390.87
581.30	435.34
581.46	353.42
581.62	475.13
581.78	498.53
581.94	367.46
582.10	477.47
582.26	353.42
582.42	430.66
582.58	409.59
582.74	409.59
582.90	493.85
583.06	381.51
583.22	381.51
583.38	416.62
583.54	353.42
583.70	484.49
583.86	358.10
584.02	332.36
584.18	416.62
584.34	407.25
584.50	376.83
584.66	365.12
584.82	308.95
584.98	423.64
585.14	400.23
585.30	430.66
585.46	475.13
585.62	423.64
585.78	381.51
585.94	437.68
586.10	447.04
586.26	397.89
586.42	435.34
586.58	465.77
586.74	386.19
586.90	430.66
587.06	433.00
587.22	468.11
587.38	390.87
587.54	346.40
587.70	470.45
587.86	404.91
588.02	388.53
588.18	423.64
588.34	442.36
588.49	404.91
588.65	372.15
588.81	463.43
588.97	388.53
589.13	430.66
589.29	409.59
589.45	449.38
589.61	381.51
589.77	397.89
589.93	425.98
590.08	404.91
590.24	421.30
590.40	440.02
590.56	411.93
590.72	395.55
590.88	353.42
591.04	360.44
591.20	414.27
591.35	470.45
591.51	381.51
591.67	365.12
591.83	461.09
591.99	456.40
592.15	437.68
592.31	430.66
592.46	435.34
592.62	447.04
592.78	407.25
592.94	322.99
593.10	409.59
593.26	362.78
593.41	386.19
593.57	414.27
593.73	397.89
593.89	425.98
594.05	395.55
594.20	379.17
594.36	409.59
594.52	402.57
594.68	360.44
594.84	477.47
594.99	404.91
595.15	423.64
595.31	393.21
595.47	493.85
595.62	414.27
595.78	451.72
595.94	381.51
596.10	397.89
596.25	337.04
596.41	421.30
596.57	416.62
596.73	442.36
596.88	447.04
597.04	409.59
597.20	433.00
597.36	390.87
597.51	400.23
597.67	355.76
597.83	390.87
597.99	418.96
598.14	409.59
598.30	430.66
598.46	358.10
598.61	397.89
598.77	367.46
598.93	400.23
599.09	397.89
599.24	414.27
599.40	423.64
599.56	414.27
599.71	425.98
599.87	397.89
600.03	435.34
600.18	437.68
600.34	472.79
600.50	425.98
600.65	383.85
600.81	463.43
600.97	402.57
601.12	414.27
601.28	407.25
601.44	458.74
601.59	461.09
601.75	397.89
601.91	482.15
602.06	435.34
602.22	444.70
602.37	379.17
602.53	447.04
602.69	456.40
602.84	395.55
603.00	409.59
603.16	437.68
603.31	521.94
603.47	332.36
603.62	346.40
603.78	379.17
603.94	416.62
604.09	433.00
604.25	447.04
604.40	379.17
604.56	397.89
604.71	409.59
604.87	479.81
605.03	358.10
605.18	353.42
605.34	463.43
605.49	425.98
605.65	470.45
605.80	468.11
605.96	440.02
606.12	486.83
606.27	372.15
606.43	383.85
606.58	463.43
606.74	362.78
606.89	451.72
607.05	468.11
607.20	407.25
607.36	430.66
607.51	428.32
607.67	383.85
607.82	458.74
607.98	458.74
608.13	386.19
608.29	423.64
608.44	496.19
608.60	465.77
608.75	374.49
608.91	456.40
609.06	430.66
609.22	367.46
609.37	395.55
609.53	383.85
609.68	425.98
609.84	421.30
609.99	386.19
610.15	416.62
