SpectraSuite Data File
++++++++++++++++++++++++++++++++++++
Date: Fri Oct 25 12:10:11 EDT 2013
User: price-jones
Dark Spectrum Present: No
Reference Spectrum Present: No
Number of Sampled Component Spectra: 1
Spectrometers: USB2+H05261
Integration Time (usec): 100000 (USB2+H05261)
Spectra Averaged: 1 (USB2+H05261)
Boxcar Smoothing: 0 (USB2+H05261)
Correct for Electrical Dark: No (USB2+H05261)
Strobe/Lamp Enabled: No (USB2+H05261)
Correct for Detector Non-linearity: No (USB2+H05261)
Correct for Stray Light: No (USB2+H05261)
Number of Pixels in Processed Spectrum: 2048
>>>>>Begin Processed Spectral Data<<<<<
365.73	411.93
365.92	411.93
366.12	411.93
366.32	311.29
366.52	285.55
366.72	252.78
366.91	161.50
367.11	217.67
367.31	222.35
367.51	255.12
367.70	184.90
367.90	290.23
368.10	182.56
368.30	238.73
368.49	243.42
368.69	255.12
368.89	264.48
369.09	231.71
369.28	264.48
369.48	245.76
369.68	285.55
369.87	304.27
370.07	318.31
370.27	346.40
370.47	332.36
370.66	327.68
370.86	400.23
371.06	348.74
371.25	421.30
371.45	404.91
371.65	390.87
371.84	374.49
372.04	390.87
372.24	332.36
372.44	341.72
372.63	376.83
372.83	372.15
373.03	360.44
373.22	421.30
373.42	400.23
373.62	416.62
373.81	444.70
374.01	425.98
374.21	437.68
374.40	444.70
374.60	458.74
374.79	407.25
374.99	386.19
375.19	372.15
375.38	437.68
375.58	369.80
375.78	381.51
375.97	440.02
376.17	433.00
376.37	437.68
376.56	433.00
376.76	353.42
376.95	358.10
377.15	461.09
377.35	444.70
377.54	393.21
377.74	425.98
377.93	388.53
378.13	435.34
378.33	376.83
378.52	411.93
378.72	365.12
378.91	425.98
379.11	287.89
379.31	381.51
379.50	397.89
379.70	362.78
379.89	395.55
380.09	376.83
380.28	355.76
380.48	463.43
380.68	376.83
380.87	379.17
381.07	367.46
381.26	449.38
381.46	372.15
381.65	372.15
381.85	365.12
382.04	430.66
382.24	423.64
382.43	416.62
382.63	404.91
382.83	407.25
383.02	437.68
383.22	369.80
383.41	423.64
383.61	442.36
383.80	458.74
384.00	388.53
384.19	400.23
384.39	360.44
384.58	451.72
384.78	421.30
384.97	444.70
385.17	355.76
385.36	477.47
385.56	404.91
385.75	330.02
385.95	416.62
386.14	411.93
386.34	311.29
386.53	395.55
386.72	411.93
386.92	472.79
387.11	397.89
387.31	376.83
387.50	404.91
387.70	411.93
387.89	327.68
388.09	383.85
388.28	435.34
388.48	437.68
388.67	400.23
388.86	428.32
389.06	486.83
389.25	346.40
389.45	362.78
389.64	428.32
389.84	425.98
390.03	458.74
390.22	437.68
390.42	395.55
390.61	348.74
390.81	395.55
391.00	348.74
391.19	428.32
391.39	376.83
391.58	430.66
391.78	376.83
391.97	393.21
392.16	327.68
392.36	393.21
392.55	440.02
392.75	500.87
392.94	404.91
393.13	355.76
393.33	423.64
393.52	379.17
393.71	402.57
393.91	437.68
394.10	358.10
394.29	379.17
394.49	442.36
394.68	423.64
394.88	351.08
395.07	358.10
395.26	374.49
395.46	470.45
395.65	484.49
395.84	374.49
396.04	571.09
396.23	416.62
396.42	388.53
396.62	374.49
396.81	442.36
397.00	369.80
397.19	381.51
397.39	400.23
397.58	435.34
397.77	411.93
397.97	386.19
398.16	433.00
398.35	393.21
398.55	383.85
398.74	379.17
398.93	430.66
399.12	367.46
399.32	435.34
399.51	388.53
399.70	369.80
399.90	393.21
400.09	493.85
400.28	407.25
400.47	416.62
400.67	433.00
400.86	374.49
401.05	374.49
401.24	418.96
401.44	376.83
401.63	423.64
401.82	407.25
402.01	344.06
402.21	381.51
402.40	409.59
402.59	376.83
402.78	358.10
402.97	397.89
403.17	433.00
403.36	470.45
403.55	449.38
403.74	414.27
403.93	355.76
404.13	428.32
404.32	409.59
404.51	442.36
404.70	418.96
404.89	367.46
405.09	433.00
405.28	379.17
405.47	465.77
405.66	451.72
405.85	367.46
406.05	425.98
406.24	407.25
406.43	404.91
406.62	374.49
406.81	456.40
407.00	418.96
407.20	411.93
407.39	344.06
407.58	383.85
407.77	379.17
407.96	388.53
408.15	397.89
408.34	409.59
408.54	472.79
408.73	362.78
408.92	327.68
409.11	409.59
409.30	383.85
409.49	383.85
409.68	393.21
409.87	461.09
410.07	414.27
410.26	407.25
410.45	294.91
410.64	404.91
410.83	428.32
411.02	369.80
411.21	372.15
411.40	418.96
411.59	433.00
411.78	353.42
411.98	374.49
412.17	393.21
412.36	421.30
412.55	402.57
412.74	458.74
412.93	463.43
413.12	404.91
413.31	409.59
413.50	409.59
413.69	444.70
413.88	442.36
414.07	416.62
414.26	367.46
414.45	341.72
414.64	416.62
414.83	458.74
415.02	379.17
415.22	433.00
415.41	390.87
415.60	409.59
415.79	355.76
415.98	416.62
416.17	381.51
416.36	407.25
416.55	397.89
416.74	517.26
416.93	472.79
417.12	395.55
417.31	395.55
417.50	393.21
417.69	421.30
417.88	418.96
418.07	421.30
418.26	444.70
418.45	437.68
418.64	376.83
418.83	409.59
419.02	458.74
419.21	365.12
419.39	397.89
419.58	423.64
419.77	365.12
419.96	472.79
420.15	454.06
420.34	362.78
420.53	393.21
420.72	374.49
420.91	397.89
421.10	397.89
421.29	437.68
421.48	421.30
421.67	482.15
421.86	346.40
422.05	386.19
422.24	351.08
422.43	397.89
422.61	458.74
422.80	416.62
422.99	423.64
423.18	507.90
423.37	372.15
423.56	379.17
423.75	409.59
423.94	440.02
424.13	297.25
424.32	416.62
424.50	454.06
424.69	407.25
424.88	444.70
425.07	411.93
425.26	400.23
425.45	414.27
425.64	402.57
425.83	393.21
426.01	461.09
426.20	423.64
426.39	479.81
426.58	428.32
426.77	526.62
426.96	414.27
427.15	332.36
427.33	381.51
427.52	421.30
427.71	393.21
427.90	341.72
428.09	411.93
428.28	447.04
428.46	447.04
428.65	433.00
428.84	355.76
429.03	393.21
429.22	374.49
429.40	400.23
429.59	421.30
429.78	435.34
429.97	381.51
430.16	346.40
430.34	362.78
430.53	486.83
430.72	435.34
430.91	411.93
431.10	454.06
431.28	337.04
431.47	454.06
431.66	451.72
431.85	344.06
432.03	411.93
432.22	512.58
432.41	367.46
432.60	402.57
432.79	451.72
432.97	465.77
433.16	465.77
433.35	407.25
433.54	383.85
433.72	416.62
433.91	402.57
434.10	435.34
434.28	390.87
434.47	418.96
434.66	477.47
434.85	383.85
435.03	447.04
435.22	500.87
435.41	465.77
435.59	470.45
435.78	423.64
435.97	404.91
436.16	409.59
436.34	409.59
436.53	372.15
436.72	479.81
436.90	376.83
437.09	468.11
437.28	477.47
437.46	458.74
437.65	451.72
437.84	468.11
438.02	390.87
438.21	414.27
438.40	440.02
438.58	353.42
438.77	418.96
438.96	353.42
439.14	330.02
439.33	381.51
439.52	383.85
439.70	456.40
439.89	477.47
440.08	482.15
440.26	374.49
440.45	374.49
440.63	440.02
440.82	390.87
441.01	402.57
441.19	388.53
441.38	435.34
441.57	477.47
441.75	451.72
441.94	461.09
442.12	409.59
442.31	395.55
442.50	425.98
442.68	407.25
442.87	383.85
443.05	397.89
443.24	430.66
443.43	437.68
443.61	416.62
443.80	421.30
443.98	346.40
444.17	430.66
444.35	447.04
444.54	360.44
444.73	369.80
444.91	454.06
445.10	409.59
445.28	402.57
445.47	395.55
445.65	472.79
445.84	383.85
446.02	458.74
446.21	383.85
446.39	390.87
446.58	418.96
446.77	386.19
446.95	369.80
447.14	421.30
447.32	411.93
447.51	451.72
447.69	440.02
447.88	416.62
448.06	458.74
448.25	348.74
448.43	376.83
448.62	428.32
448.80	428.32
448.99	400.23
449.17	388.53
449.36	451.72
449.54	482.15
449.73	381.51
449.91	435.34
450.10	365.12
450.28	498.53
450.46	411.93
450.65	442.36
450.83	374.49
451.02	425.98
451.20	519.60
451.39	456.40
451.57	374.49
451.76	428.32
451.94	440.02
452.13	411.93
452.31	475.13
452.49	395.55
452.68	376.83
452.86	437.68
453.05	374.49
453.23	421.30
453.42	428.32
453.60	430.66
453.78	402.57
453.97	411.93
454.15	390.87
454.34	390.87
454.52	393.21
454.70	463.43
454.89	430.66
455.07	433.00
455.26	454.06
455.44	381.51
455.62	425.98
455.81	425.98
455.99	440.02
456.17	404.91
456.36	341.72
456.54	418.96
456.73	428.32
456.91	358.10
457.09	339.38
457.28	411.93
457.46	395.55
457.64	493.85
457.83	395.55
458.01	430.66
458.19	468.11
458.38	411.93
458.56	379.17
458.74	409.59
458.93	421.30
459.11	416.62
459.29	430.66
459.48	425.98
459.66	456.40
459.84	437.68
460.03	411.93
460.21	386.19
460.39	442.36
460.57	383.85
460.76	402.57
460.94	437.68
461.12	493.85
461.31	437.68
461.49	421.30
461.67	456.40
461.85	351.08
462.04	437.68
462.22	798.12
462.40	468.11
462.59	500.87
462.77	397.89
462.95	519.60
463.13	390.87
463.32	437.68
463.50	409.59
463.68	381.51
463.86	472.79
464.05	376.83
464.23	423.64
464.41	393.21
464.59	416.62
464.78	390.87
464.96	400.23
465.14	468.11
465.32	353.42
465.50	397.89
465.69	442.36
465.87	397.89
466.05	456.40
466.23	430.66
466.41	421.30
466.60	444.70
466.78	386.19
466.96	322.99
467.14	512.58
467.32	433.00
467.51	388.53
467.69	440.02
467.87	458.74
468.05	430.66
468.23	388.53
468.41	430.66
468.60	372.15
468.78	381.51
468.96	447.04
469.14	451.72
469.32	397.89
469.50	311.29
469.69	470.45
469.87	416.62
470.05	442.36
470.23	421.30
470.41	444.70
470.59	348.74
470.77	367.46
470.95	383.85
471.14	440.02
471.32	388.53
471.50	463.43
471.68	362.78
471.86	486.83
472.04	418.96
472.22	388.53
472.40	348.74
472.58	526.62
472.77	404.91
472.95	402.57
473.13	449.38
473.31	519.60
473.49	369.80
473.67	393.21
473.85	486.83
474.03	395.55
474.21	386.19
474.39	435.34
474.57	414.27
474.75	353.42
474.93	461.09
475.12	400.23
475.30	390.87
475.48	325.33
475.66	425.98
475.84	386.19
476.02	360.44
476.20	390.87
476.38	362.78
476.56	397.89
476.74	372.15
476.92	409.59
477.10	395.55
477.28	414.27
477.46	383.85
477.64	454.06
477.82	430.66
478.00	418.96
478.18	425.98
478.36	425.98
478.54	425.98
478.72	418.96
478.90	390.87
479.08	390.87
479.26	435.34
479.44	400.23
479.62	346.40
479.80	465.77
479.98	362.78
480.16	383.85
480.34	369.80
480.52	355.76
480.70	367.46
480.88	418.96
481.06	400.23
481.24	435.34
481.41	362.78
481.59	425.98
481.77	395.55
481.95	344.06
482.13	442.36
482.31	346.40
482.49	437.68
482.67	442.36
482.85	489.17
483.03	425.98
483.21	404.91
483.39	451.72
483.57	465.77
483.74	456.40
483.92	430.66
484.10	372.15
484.28	458.74
484.46	449.38
484.64	313.63
484.82	393.21
485.00	397.89
485.18	430.66
485.35	435.34
485.53	442.36
485.71	486.83
485.89	442.36
486.07	393.21
486.25	454.06
486.43	397.89
486.61	402.57
486.78	430.66
486.96	390.87
487.14	381.51
487.32	428.32
487.50	425.98
487.68	390.87
487.85	402.57
488.03	461.09
488.21	444.70
488.39	428.32
488.57	470.45
488.75	472.79
488.92	482.15
489.10	383.85
489.28	454.06
489.46	355.76
489.64	353.42
489.81	407.25
489.99	433.00
490.17	447.04
490.35	435.34
490.53	402.57
490.70	423.64
490.88	461.09
491.06	379.17
491.24	348.74
491.41	393.21
491.59	376.83
491.77	416.62
491.95	376.83
492.13	470.45
492.30	423.64
492.48	367.46
492.66	423.64
492.84	482.15
493.01	456.40
493.19	367.46
493.37	409.59
493.54	456.40
493.72	428.32
493.90	437.68
494.08	428.32
494.25	442.36
494.43	376.83
494.61	418.96
494.79	430.66
494.96	393.21
495.14	390.87
495.32	411.93
495.49	365.12
495.67	395.55
495.85	374.49
496.02	440.02
496.20	440.02
496.38	374.49
496.55	365.12
496.73	456.40
496.91	425.98
497.09	388.53
497.26	414.27
497.44	372.15
497.62	397.89
497.79	416.62
497.97	414.27
498.14	468.11
498.32	421.30
498.50	442.36
498.67	395.55
498.85	402.57
499.03	358.10
499.20	475.13
499.38	461.09
499.56	351.08
499.73	418.96
499.91	381.51
500.08	442.36
500.26	468.11
500.44	416.62
500.61	468.11
500.79	449.38
500.97	493.85
501.14	407.25
501.32	383.85
501.49	435.34
501.67	400.23
501.84	407.25
502.02	407.25
502.20	435.34
502.37	440.02
502.55	374.49
502.72	360.44
502.90	447.04
503.07	461.09
503.25	369.80
503.43	325.33
503.60	369.80
503.78	442.36
503.95	416.62
504.13	407.25
504.30	470.45
504.48	463.43
504.65	479.81
504.83	416.62
505.01	365.12
505.18	521.94
505.36	402.57
505.53	386.19
505.71	400.23
505.88	393.21
506.06	416.62
506.23	374.49
506.41	463.43
506.58	341.72
506.76	418.96
506.93	414.27
507.11	402.57
507.28	388.53
507.46	430.66
507.63	435.34
507.81	433.00
507.98	407.25
508.16	365.12
508.33	376.83
508.50	374.49
508.68	425.98
508.85	407.25
509.03	348.74
509.20	383.85
509.38	346.40
509.55	414.27
509.73	360.44
509.90	369.80
510.08	351.08
510.25	461.09
510.42	416.62
510.60	353.42
510.77	386.19
510.95	423.64
511.12	411.93
511.30	428.32
511.47	444.70
511.64	477.47
511.82	416.62
511.99	397.89
512.17	409.59
512.34	428.32
512.51	442.36
512.69	397.89
512.86	423.64
513.04	386.19
513.21	367.46
513.38	355.76
513.56	437.68
513.73	435.34
513.90	376.83
514.08	344.06
514.25	416.62
514.43	428.32
514.60	376.83
514.77	423.64
514.95	430.66
515.12	411.93
515.29	362.78
515.47	449.38
515.64	425.98
515.81	454.06
515.99	423.64
516.16	414.27
516.33	337.04
516.51	421.30
516.68	369.80
516.85	425.98
517.03	383.85
517.20	400.23
517.37	425.98
517.54	435.34
517.72	425.98
517.89	428.32
518.06	348.74
518.24	498.53
518.41	456.40
518.58	435.34
518.75	458.74
518.93	465.77
519.10	400.23
519.27	454.06
519.45	346.40
519.62	454.06
519.79	421.30
519.96	337.04
520.14	379.17
520.31	425.98
520.48	358.10
520.65	376.83
520.83	456.40
521.00	411.93
521.17	379.17
521.34	421.30
521.52	379.17
521.69	442.36
521.86	383.85
522.03	468.11
522.20	461.09
522.38	409.59
522.55	383.85
522.72	428.32
522.89	376.83
523.07	362.78
523.24	430.66
523.41	437.68
523.58	421.30
523.75	440.02
523.92	397.89
524.10	407.25
524.27	393.21
524.44	449.38
524.61	423.64
524.78	402.57
524.96	454.06
525.13	414.27
525.30	470.45
525.47	390.87
525.64	425.98
525.81	414.27
525.98	402.57
526.16	498.53
526.33	447.04
526.50	388.53
526.67	341.72
526.84	402.57
527.01	362.78
527.18	402.57
527.36	444.70
527.53	358.10
527.70	461.09
527.87	400.23
528.04	454.06
528.21	454.06
528.38	461.09
528.55	425.98
528.72	472.79
528.89	472.79
529.07	472.79
529.24	477.47
529.41	461.09
529.58	505.56
529.75	351.08
529.92	475.13
530.09	484.49
530.26	390.87
530.43	400.23
530.60	386.19
530.77	418.96
530.94	437.68
531.11	411.93
531.28	376.83
531.46	423.64
531.63	447.04
531.80	397.89
531.97	411.93
532.14	395.55
532.31	407.25
532.48	425.98
532.65	395.55
532.82	367.46
532.99	374.49
533.16	360.44
533.33	397.89
533.50	437.68
533.67	442.36
533.84	454.06
534.01	381.51
534.18	369.80
534.35	440.02
534.52	421.30
534.69	409.59
534.86	393.21
535.03	379.17
535.20	416.62
535.37	355.76
535.54	493.85
535.71	451.72
535.88	402.57
536.05	404.91
536.22	463.43
536.38	433.00
536.55	437.68
536.72	444.70
536.89	423.64
537.06	414.27
537.23	383.85
537.40	362.78
537.57	418.96
537.74	498.53
537.91	404.91
538.08	430.66
538.25	498.53
538.42	390.87
538.59	407.25
538.75	496.19
538.92	437.68
539.09	451.72
539.26	423.64
539.43	456.40
539.60	386.19
539.77	344.06
539.94	433.00
540.11	444.70
540.28	486.83
540.44	482.15
540.61	404.91
540.78	376.83
540.95	411.93
541.12	510.24
541.29	425.98
541.46	447.04
541.62	447.04
541.79	421.30
541.96	414.27
542.13	402.57
542.30	379.17
542.47	411.93
542.63	393.21
542.80	475.13
542.97	470.45
543.14	372.15
543.31	372.15
543.48	379.17
543.64	388.53
543.81	374.49
543.98	351.08
544.15	362.78
544.32	388.53
544.48	414.27
544.65	451.72
544.82	428.32
544.99	407.25
545.16	435.34
545.32	440.02
545.49	437.68
545.66	390.87
545.83	390.87
546.00	442.36
546.16	374.49
546.33	442.36
546.50	425.98
546.67	379.17
546.83	418.96
547.00	458.74
547.17	381.51
547.34	369.80
547.50	360.44
547.67	482.15
547.84	409.59
548.00	411.93
548.17	404.91
548.34	400.23
548.51	395.55
548.67	435.34
548.84	451.72
549.01	360.44
549.18	400.23
549.34	332.36
549.51	449.38
549.68	447.04
549.84	400.23
550.01	416.62
550.18	470.45
550.34	514.92
550.51	451.72
550.68	421.30
550.84	395.55
551.01	376.83
551.18	477.47
551.34	365.12
551.51	301.93
551.68	418.96
551.84	444.70
552.01	376.83
552.18	437.68
552.34	402.57
552.51	400.23
552.68	484.49
552.84	430.66
553.01	437.68
553.18	479.81
553.34	379.17
553.51	430.66
553.67	458.74
553.84	465.77
554.01	386.19
554.17	423.64
554.34	367.46
554.51	379.17
554.67	435.34
554.84	430.66
555.00	505.56
555.17	418.96
555.33	369.80
555.50	472.79
555.67	454.06
555.83	416.62
556.00	409.59
556.16	521.94
556.33	407.25
556.50	362.78
556.66	421.30
556.83	390.87
556.99	365.12
557.16	463.43
557.32	465.77
557.49	362.78
557.65	435.34
557.82	353.42
557.98	416.62
558.15	348.74
558.32	423.64
558.48	440.02
558.65	355.76
558.81	463.43
558.98	409.59
559.14	388.53
559.31	397.89
559.47	444.70
559.64	372.15
559.80	433.00
559.97	355.76
560.13	362.78
560.30	423.64
560.46	372.15
560.63	505.56
560.79	388.53
560.96	442.36
561.12	428.32
561.29	463.43
561.45	447.04
561.61	404.91
561.78	571.09
561.94	409.59
562.11	395.55
562.27	414.27
562.44	346.40
562.60	491.51
562.77	376.83
562.93	374.49
563.10	430.66
563.26	416.62
563.42	428.32
563.59	468.11
563.75	418.96
563.92	463.43
564.08	369.80
564.24	437.68
564.41	435.34
564.57	400.23
564.74	395.55
564.90	440.02
565.07	430.66
565.23	461.09
565.39	444.70
565.56	486.83
565.72	475.13
565.88	344.06
566.05	308.95
566.21	388.53
566.38	393.21
566.54	404.91
566.70	395.55
566.87	322.99
567.03	386.19
567.19	447.04
567.36	433.00
567.52	400.23
567.68	381.51
567.85	400.23
568.01	451.72
568.17	404.91
568.34	376.83
568.50	423.64
568.66	404.91
568.83	428.32
568.99	449.38
569.15	461.09
569.32	365.12
569.48	428.32
569.64	395.55
569.81	362.78
569.97	407.25
570.13	423.64
570.30	479.81
570.46	383.85
570.62	388.53
570.78	376.83
570.95	425.98
571.11	381.51
571.27	362.78
571.43	386.19
571.60	451.72
571.76	430.66
571.92	463.43
572.09	379.17
572.25	388.53
572.41	416.62
572.57	437.68
572.74	449.38
572.90	353.42
573.06	444.70
573.22	358.10
573.38	442.36
573.55	397.89
573.71	484.49
573.87	369.80
574.03	458.74
574.20	395.55
574.36	372.15
574.52	397.89
574.68	358.10
574.84	418.96
575.01	425.98
575.17	451.72
575.33	496.19
575.49	433.00
575.65	418.96
575.82	397.89
575.98	447.04
576.14	381.51
576.30	369.80
576.46	472.79
576.62	418.96
576.79	486.83
576.95	411.93
577.11	400.23
577.27	383.85
577.43	393.21
577.59	451.72
577.75	411.93
577.92	376.83
578.08	435.34
578.24	404.91
578.40	458.74
578.56	435.34
578.72	416.62
578.88	505.56
579.04	461.09
579.21	372.15
579.37	458.74
579.53	372.15
579.69	433.00
579.85	358.10
580.01	414.27
580.17	451.72
580.33	447.04
580.49	393.21
580.65	386.19
580.82	477.47
580.98	372.15
581.14	409.59
581.30	430.66
581.46	395.55
581.62	402.57
581.78	390.87
581.94	386.19
582.10	374.49
582.26	404.91
582.42	376.83
582.58	386.19
582.74	463.43
582.90	334.70
583.06	358.10
583.22	461.09
583.38	395.55
583.54	475.13
583.70	493.85
583.86	461.09
584.02	425.98
584.18	393.21
584.34	423.64
584.50	449.38
584.66	383.85
584.82	315.97
584.98	416.62
585.14	461.09
585.30	484.49
585.46	437.68
585.62	451.72
585.78	451.72
585.94	376.83
586.10	428.32
586.26	407.25
586.42	360.44
586.58	393.21
586.74	416.62
586.90	447.04
587.06	379.17
587.22	416.62
587.38	395.55
587.54	395.55
587.70	423.64
587.86	414.27
588.02	337.04
588.18	447.04
588.34	390.87
588.49	416.62
588.65	379.17
588.81	444.70
588.97	465.77
589.13	435.34
589.29	404.91
589.45	498.53
589.61	507.90
589.77	390.87
589.93	381.51
590.08	402.57
590.24	348.74
590.40	423.64
590.56	386.19
590.72	407.25
590.88	430.66
591.04	484.49
591.20	367.46
591.35	505.56
591.51	433.00
591.67	414.27
591.83	470.45
591.99	430.66
592.15	435.34
592.31	444.70
592.46	344.06
592.62	423.64
592.78	372.15
592.94	393.21
593.10	386.19
593.26	407.25
593.41	379.17
593.57	493.85
593.73	383.85
593.89	365.12
594.05	393.21
594.20	423.64
594.36	388.53
594.52	468.11
594.68	376.83
594.84	463.43
594.99	447.04
595.15	390.87
595.31	482.15
595.47	435.34
595.62	444.70
595.78	411.93
595.94	374.49
596.10	400.23
596.25	362.78
596.41	390.87
596.57	414.27
596.73	423.64
596.88	451.72
597.04	414.27
597.20	425.98
597.36	411.93
597.51	407.25
597.67	407.25
597.83	456.40
597.99	475.13
598.14	407.25
598.30	421.30
598.46	421.30
598.61	397.89
598.77	418.96
598.93	362.78
599.09	407.25
599.24	365.12
599.40	407.25
599.56	416.62
599.71	379.17
599.87	397.89
600.03	468.11
600.18	411.93
600.34	463.43
600.50	390.87
600.65	381.51
600.81	425.98
600.97	447.04
601.12	397.89
601.28	463.43
601.44	423.64
601.59	416.62
601.75	411.93
601.91	472.79
602.06	437.68
602.22	395.55
602.37	430.66
602.53	409.59
602.69	409.59
602.84	444.70
603.00	393.21
603.16	337.04
603.31	421.30
603.47	440.02
603.62	407.25
603.78	430.66
603.94	418.96
604.09	444.70
604.25	423.64
604.40	472.79
604.56	372.15
604.71	447.04
604.87	397.89
605.03	423.64
605.18	393.21
605.34	388.53
605.49	416.62
605.65	440.02
605.80	479.81
605.96	437.68
606.12	491.51
606.27	454.06
606.43	447.04
606.58	458.74
606.74	442.36
606.89	358.10
607.05	404.91
607.20	386.19
607.36	430.66
607.51	393.21
607.67	442.36
607.82	388.53
607.98	423.64
608.13	395.55
608.29	353.42
608.44	472.79
608.60	475.13
608.75	397.89
608.91	369.80
609.06	395.55
609.22	442.36
609.37	428.32
609.53	395.55
609.68	404.91
609.84	372.15
609.99	444.70
610.15	423.64
