SpectraSuite Data File
++++++++++++++++++++++++++++++++++++
Date: Fri Oct 25 12:11:36 EDT 2013
User: price-jones
Dark Spectrum Present: No
Reference Spectrum Present: No
Number of Sampled Component Spectra: 1
Spectrometers: USB2+H05261
Integration Time (usec): 100000 (USB2+H05261)
Spectra Averaged: 1 (USB2+H05261)
Boxcar Smoothing: 0 (USB2+H05261)
Correct for Electrical Dark: No (USB2+H05261)
Strobe/Lamp Enabled: No (USB2+H05261)
Correct for Detector Non-linearity: No (USB2+H05261)
Correct for Stray Light: No (USB2+H05261)
Number of Pixels in Processed Spectrum: 2048
>>>>>Begin Processed Spectral Data<<<<<
365.73	339.38
365.92	339.38
366.12	339.38
366.32	264.48
366.52	250.44
366.72	252.78
366.91	276.18
367.11	311.29
367.31	191.92
367.51	203.63
367.70	231.71
367.90	313.63
368.10	189.58
368.30	215.33
368.49	194.26
368.69	229.37
368.89	262.14
369.09	283.20
369.28	264.48
369.48	299.59
369.68	292.57
369.87	283.20
370.07	257.46
370.27	369.80
370.47	386.19
370.66	334.70
370.86	381.51
371.06	400.23
371.25	393.21
371.45	416.62
371.65	346.40
371.84	376.83
372.04	397.89
372.24	397.89
372.44	451.72
372.63	435.34
372.83	388.53
373.03	414.27
373.22	421.30
373.42	423.64
373.62	465.77
373.81	425.98
374.01	482.15
374.21	390.87
374.40	416.62
374.60	407.25
374.79	400.23
374.99	397.89
375.19	456.40
375.38	397.89
375.58	397.89
375.78	510.24
375.97	430.66
376.17	465.77
376.37	437.68
376.56	472.79
376.76	381.51
376.95	451.72
377.15	367.46
377.35	411.93
377.54	475.13
377.74	507.90
377.93	308.95
378.13	402.57
378.33	463.43
378.52	383.85
378.72	463.43
378.91	458.74
379.11	444.70
379.31	433.00
379.50	315.97
379.70	390.87
379.89	451.72
380.09	428.32
380.28	402.57
380.48	404.91
380.68	351.08
380.87	367.46
381.07	411.93
381.26	414.27
381.46	444.70
381.65	430.66
381.85	332.36
382.04	428.32
382.24	416.62
382.43	388.53
382.63	409.59
382.83	411.93
383.02	503.22
383.22	435.34
383.41	423.64
383.61	379.17
383.80	447.04
384.00	386.19
384.19	449.38
384.39	395.55
384.58	381.51
384.78	435.34
384.97	374.49
385.17	428.32
385.36	409.59
385.56	404.91
385.75	360.44
385.95	402.57
386.14	381.51
386.34	416.62
386.53	395.55
386.72	444.70
386.92	440.02
387.11	383.85
387.31	381.51
387.50	386.19
387.70	376.83
387.89	444.70
388.09	383.85
388.28	365.12
388.48	418.96
388.67	414.27
388.86	418.96
389.06	369.80
389.25	430.66
389.45	444.70
389.64	437.68
389.84	423.64
390.03	397.89
390.22	402.57
390.42	444.70
390.61	337.04
390.81	355.76
391.00	353.42
391.19	444.70
391.39	411.93
391.58	393.21
391.78	409.59
391.97	379.17
392.16	376.83
392.36	447.04
392.55	428.32
392.75	442.36
392.94	374.49
393.13	430.66
393.33	341.72
393.52	376.83
393.71	414.27
393.91	468.11
394.10	449.38
394.29	311.29
394.49	447.04
394.68	374.49
394.88	414.27
395.07	416.62
395.26	379.17
395.46	407.25
395.65	430.66
395.84	421.30
396.04	454.06
396.23	411.93
396.42	456.40
396.62	435.34
396.81	395.55
397.00	425.98
397.19	425.98
397.39	397.89
397.58	451.72
397.77	447.04
397.97	425.98
398.16	402.57
398.35	484.49
398.55	351.08
398.74	451.72
398.93	402.57
399.12	425.98
399.32	367.46
399.51	444.70
399.70	395.55
399.90	404.91
400.09	332.36
400.28	479.81
400.47	393.21
400.67	400.23
400.86	425.98
401.05	447.04
401.24	376.83
401.44	440.02
401.63	374.49
401.82	440.02
402.01	374.49
402.21	379.17
402.40	421.30
402.59	360.44
402.78	416.62
402.97	435.34
403.17	400.23
403.36	402.57
403.55	397.89
403.74	479.81
403.93	428.32
404.13	383.85
404.32	379.17
404.51	386.19
404.70	402.57
404.89	346.40
405.09	395.55
405.28	477.47
405.47	400.23
405.66	461.09
405.85	416.62
406.05	395.55
406.24	383.85
406.43	358.10
406.62	414.27
406.81	444.70
407.00	369.80
407.20	486.83
407.39	365.12
407.58	397.89
407.77	362.78
407.96	369.80
408.15	418.96
408.34	470.45
408.54	383.85
408.73	430.66
408.92	475.13
409.11	388.53
409.30	437.68
409.49	397.89
409.68	442.36
409.87	425.98
410.07	418.96
410.26	444.70
410.45	372.15
410.64	369.80
410.83	428.32
411.02	372.15
411.21	393.21
411.40	393.21
411.59	437.68
411.78	407.25
411.98	451.72
412.17	421.30
412.36	397.89
412.55	313.63
412.74	437.68
412.93	379.17
413.12	421.30
413.31	409.59
413.50	440.02
413.69	365.12
413.88	386.19
414.07	409.59
414.26	369.80
414.45	351.08
414.64	416.62
414.83	409.59
415.02	393.21
415.22	456.40
415.41	465.77
415.60	433.00
415.79	383.85
415.98	395.55
416.17	404.91
416.36	454.06
416.55	404.91
416.74	449.38
416.93	430.66
417.12	395.55
417.31	414.27
417.50	428.32
417.69	470.45
417.88	397.89
418.07	414.27
418.26	433.00
418.45	411.93
418.64	433.00
418.83	430.66
419.02	437.68
419.21	428.32
419.39	411.93
419.58	461.09
419.77	313.63
419.96	435.34
420.15	416.62
420.34	402.57
420.53	425.98
420.72	442.36
420.91	472.79
421.10	458.74
421.29	416.62
421.48	451.72
421.67	454.06
421.86	451.72
422.05	433.00
422.24	482.15
422.43	463.43
422.61	362.78
422.80	428.32
422.99	423.64
423.18	390.87
423.37	484.49
423.56	437.68
423.75	428.32
423.94	365.12
424.13	416.62
424.32	374.49
424.50	409.59
424.69	414.27
424.88	423.64
425.07	430.66
425.26	402.57
425.45	430.66
425.64	393.21
425.83	442.36
426.01	414.27
426.20	433.00
426.39	461.09
426.58	395.55
426.77	404.91
426.96	458.74
427.15	395.55
427.33	390.87
427.52	454.06
427.71	369.80
427.90	423.64
428.09	433.00
428.28	437.68
428.46	454.06
428.65	486.83
428.84	395.55
429.03	433.00
429.22	393.21
429.40	379.17
429.59	451.72
429.78	433.00
429.97	458.74
430.16	458.74
430.34	330.02
430.53	411.93
430.72	440.02
430.91	451.72
431.10	404.91
431.28	372.15
431.47	430.66
431.66	365.12
431.85	456.40
432.03	402.57
432.22	461.09
432.41	383.85
432.60	454.06
432.79	416.62
432.97	442.36
433.16	393.21
433.35	425.98
433.54	383.85
433.72	414.27
433.91	458.74
434.10	393.21
434.28	374.49
434.47	430.66
434.66	479.81
434.85	416.62
435.03	386.19
435.22	414.27
435.41	451.72
435.59	393.21
435.78	465.77
435.97	411.93
436.16	390.87
436.34	409.59
436.53	369.80
436.72	447.04
436.90	372.15
437.09	369.80
437.28	397.89
437.46	402.57
437.65	374.49
437.84	400.23
438.02	411.93
438.21	416.62
438.40	423.64
438.58	381.51
438.77	386.19
438.96	475.13
439.14	463.43
439.33	461.09
439.52	322.99
439.70	400.23
439.89	421.30
440.08	435.34
440.26	381.51
440.45	440.02
440.63	404.91
440.82	416.62
441.01	461.09
441.19	402.57
441.38	365.12
441.57	428.32
441.75	423.64
441.94	418.96
442.12	397.89
442.31	414.27
442.50	315.97
442.68	416.62
442.87	339.38
443.05	379.17
443.24	475.13
443.43	437.68
443.61	407.25
443.80	383.85
443.98	451.72
444.17	428.32
444.35	395.55
444.54	416.62
444.73	402.57
444.91	456.40
445.10	409.59
445.28	491.51
445.47	423.64
445.65	416.62
445.84	442.36
446.02	381.51
446.21	393.21
446.39	404.91
446.58	411.93
446.77	388.53
446.95	428.32
447.14	440.02
447.32	381.51
447.51	409.59
447.69	425.98
447.88	491.51
448.06	458.74
448.25	390.87
448.43	383.85
448.62	353.42
448.80	402.57
448.99	418.96
449.17	428.32
449.36	416.62
449.54	463.43
449.73	421.30
449.91	463.43
450.10	393.21
450.28	472.79
450.46	409.59
450.65	386.19
450.83	362.78
451.02	395.55
451.20	388.53
451.39	451.72
451.57	367.46
451.76	397.89
451.94	433.00
452.13	400.23
452.31	407.25
452.49	407.25
452.68	423.64
452.86	486.83
453.05	456.40
453.23	435.34
453.42	386.19
453.60	454.06
453.78	437.68
453.97	386.19
454.15	428.32
454.34	407.25
454.52	423.64
454.70	440.02
454.89	400.23
455.07	411.93
455.26	444.70
455.44	402.57
455.62	428.32
455.81	454.06
455.99	421.30
456.17	348.74
456.36	400.23
456.54	353.42
456.73	400.23
456.91	421.30
457.09	400.23
457.28	433.00
457.46	404.91
457.64	451.72
457.83	348.74
458.01	411.93
458.19	428.32
458.38	440.02
458.56	498.53
458.74	477.47
458.93	458.74
459.11	330.02
459.29	397.89
459.48	390.87
459.66	484.49
459.84	423.64
460.03	503.22
460.21	461.09
460.39	367.46
460.57	449.38
460.76	416.62
460.94	388.53
461.12	379.17
461.31	376.83
461.49	395.55
461.67	395.55
461.85	365.12
462.04	418.96
462.22	737.27
462.40	414.27
462.59	397.89
462.77	440.02
462.95	393.21
463.13	433.00
463.32	425.98
463.50	407.25
463.68	475.13
463.86	404.91
464.05	461.09
464.23	484.49
464.41	414.27
464.59	425.98
464.78	397.89
464.96	440.02
465.14	414.27
465.32	374.49
465.50	411.93
465.69	362.78
465.87	381.51
466.05	442.36
466.23	395.55
466.41	458.74
466.60	447.04
466.78	416.62
466.96	477.47
467.14	442.36
467.32	507.90
467.51	477.47
467.69	404.91
467.87	430.66
468.05	383.85
468.23	456.40
468.41	451.72
468.60	491.51
468.78	444.70
468.96	390.87
469.14	402.57
469.32	411.93
469.50	381.51
469.69	416.62
469.87	465.77
470.05	451.72
470.23	449.38
470.41	454.06
470.59	486.83
470.77	472.79
470.95	404.91
471.14	456.40
471.32	430.66
471.50	449.38
471.68	489.17
471.86	423.64
472.04	430.66
472.22	306.61
472.40	365.12
472.58	360.44
472.77	435.34
472.95	418.96
473.13	498.53
473.31	423.64
473.49	334.70
473.67	358.10
473.85	444.70
474.03	400.23
474.21	440.02
474.39	440.02
474.57	465.77
474.75	496.19
474.93	411.93
475.12	461.09
475.30	315.97
475.48	444.70
475.66	374.49
475.84	428.32
476.02	421.30
476.20	451.72
476.38	430.66
476.56	433.00
476.74	430.66
476.92	383.85
477.10	433.00
477.28	374.49
477.46	442.36
477.64	402.57
477.82	402.57
478.00	383.85
478.18	465.77
478.36	477.47
478.54	411.93
478.72	440.02
478.90	411.93
479.08	386.19
479.26	407.25
479.44	388.53
479.62	437.68
479.80	451.72
479.98	414.27
480.16	400.23
480.34	381.51
480.52	451.72
480.70	393.21
480.88	376.83
481.06	437.68
481.24	414.27
481.41	404.91
481.59	493.85
481.77	402.57
481.95	430.66
482.13	414.27
482.31	397.89
482.49	423.64
482.67	463.43
482.85	496.19
483.03	421.30
483.21	409.59
483.39	379.17
483.57	367.46
483.74	503.22
483.92	472.79
484.10	325.33
484.28	397.89
484.46	440.02
484.64	362.78
484.82	393.21
485.00	440.02
485.18	433.00
485.35	510.24
485.53	407.25
485.71	472.79
485.89	421.30
486.07	372.15
486.25	447.04
486.43	407.25
486.61	407.25
486.78	425.98
486.96	416.62
487.14	435.34
487.32	421.30
487.50	372.15
487.68	463.43
487.85	416.62
488.03	374.49
488.21	393.21
488.39	435.34
488.57	496.19
488.75	456.40
488.92	418.96
489.10	465.77
489.28	472.79
489.46	416.62
489.64	400.23
489.81	423.64
489.99	407.25
490.17	353.42
490.35	465.77
490.53	404.91
490.70	355.76
490.88	440.02
491.06	477.47
491.24	425.98
491.41	456.40
491.59	418.96
491.77	421.30
491.95	383.85
492.13	355.76
492.30	402.57
492.48	393.21
492.66	376.83
492.84	489.17
493.01	386.19
493.19	451.72
493.37	507.90
493.54	374.49
493.72	376.83
493.90	374.49
494.08	409.59
494.25	421.30
494.43	435.34
494.61	423.64
494.79	442.36
494.96	393.21
495.14	348.74
495.32	430.66
495.49	437.68
495.67	393.21
495.85	442.36
496.02	346.40
496.20	437.68
496.38	489.17
496.55	397.89
496.73	440.02
496.91	493.85
497.09	463.43
497.26	458.74
497.44	421.30
497.62	430.66
497.79	430.66
497.97	454.06
498.14	437.68
498.32	430.66
498.50	440.02
498.67	383.85
498.85	388.53
499.03	393.21
499.20	416.62
499.38	437.68
499.56	372.15
499.73	475.13
499.91	451.72
500.08	421.30
500.26	421.30
500.44	416.62
500.61	374.49
500.79	458.74
500.97	416.62
501.14	402.57
501.32	388.53
501.49	477.47
501.67	407.25
501.84	433.00
502.02	386.19
502.20	411.93
502.37	475.13
502.55	486.83
502.72	409.59
502.90	437.68
503.07	400.23
503.25	447.04
503.43	435.34
503.60	425.98
503.78	381.51
503.95	367.46
504.13	411.93
504.30	456.40
504.48	496.19
504.65	411.93
504.83	407.25
505.01	437.68
505.18	437.68
505.36	472.79
505.53	341.72
505.71	397.89
505.88	440.02
506.06	430.66
506.23	435.34
506.41	411.93
506.58	411.93
506.76	372.15
506.93	454.06
507.11	430.66
507.28	447.04
507.46	442.36
507.63	386.19
507.81	365.12
507.98	433.00
508.16	435.34
508.33	421.30
508.50	468.11
508.68	442.36
508.85	468.11
509.03	447.04
509.20	447.04
509.38	367.46
509.55	404.91
509.73	440.02
509.90	440.02
510.08	425.98
510.25	423.64
510.42	360.44
510.60	458.74
510.77	458.74
510.95	458.74
511.12	447.04
511.30	407.25
511.47	393.21
511.64	472.79
511.82	418.96
511.99	411.93
512.17	365.12
512.34	470.45
512.51	402.57
512.69	383.85
512.86	477.47
513.04	484.49
513.21	451.72
513.38	395.55
513.56	430.66
513.73	510.24
513.90	409.59
514.08	381.51
514.25	404.91
514.43	428.32
514.60	397.89
514.77	379.17
514.95	430.66
515.12	458.74
515.29	372.15
515.47	334.70
515.64	430.66
515.81	407.25
515.99	428.32
516.16	411.93
516.33	414.27
516.51	458.74
516.68	449.38
516.85	465.77
517.03	421.30
517.20	435.34
517.37	435.34
517.54	421.30
517.72	465.77
517.89	383.85
518.06	390.87
518.24	444.70
518.41	486.83
518.58	390.87
518.75	365.12
518.93	379.17
519.10	433.00
519.27	454.06
519.45	428.32
519.62	425.98
519.79	404.91
519.96	414.27
520.14	496.19
520.31	447.04
520.48	404.91
520.65	451.72
520.83	463.43
521.00	365.12
521.17	449.38
521.34	395.55
521.52	393.21
521.69	416.62
521.86	437.68
522.03	440.02
522.20	423.64
522.38	430.66
522.55	416.62
522.72	358.10
522.89	388.53
523.07	407.25
523.24	437.68
523.41	397.89
523.58	332.36
523.75	477.47
523.92	447.04
524.10	407.25
524.27	407.25
524.44	493.85
524.61	435.34
524.78	292.57
524.96	358.10
525.13	425.98
525.30	456.40
525.47	442.36
525.64	407.25
525.81	418.96
525.98	447.04
526.16	414.27
526.33	390.87
526.50	418.96
526.67	435.34
526.84	369.80
527.01	346.40
527.18	447.04
527.36	447.04
527.53	379.17
527.70	472.79
527.87	374.49
528.04	449.38
528.21	409.59
528.38	449.38
528.55	404.91
528.72	447.04
528.89	437.68
529.07	409.59
529.24	435.34
529.41	463.43
529.58	404.91
529.75	374.49
529.92	402.57
530.09	440.02
530.26	416.62
530.43	423.64
530.60	454.06
530.77	428.32
530.94	390.87
531.11	454.06
531.28	411.93
531.46	423.64
531.63	369.80
531.80	404.91
531.97	425.98
532.14	416.62
532.31	411.93
532.48	395.55
532.65	437.68
532.82	475.13
532.99	454.06
533.16	423.64
533.33	402.57
533.50	388.53
533.67	395.55
533.84	423.64
534.01	442.36
534.18	475.13
534.35	400.23
534.52	463.43
534.69	390.87
534.86	477.47
535.03	440.02
535.20	411.93
535.37	528.96
535.54	493.85
535.71	395.55
535.88	465.77
536.05	521.94
536.22	440.02
536.38	404.91
536.55	423.64
536.72	411.93
536.89	428.32
537.06	390.87
537.23	423.64
537.40	369.80
537.57	402.57
537.74	451.72
537.91	416.62
538.08	463.43
538.25	397.89
538.42	428.32
538.59	414.27
538.75	409.59
538.92	397.89
539.09	407.25
539.26	386.19
539.43	421.30
539.60	463.43
539.77	411.93
539.94	386.19
540.11	381.51
540.28	484.49
540.44	489.17
540.61	421.30
540.78	395.55
540.95	404.91
541.12	430.66
541.29	383.85
541.46	388.53
541.62	418.96
541.79	402.57
541.96	472.79
542.13	409.59
542.30	461.09
542.47	416.62
542.63	442.36
542.80	416.62
542.97	454.06
543.14	430.66
543.31	475.13
543.48	411.93
543.64	414.27
543.81	456.40
543.98	428.32
544.15	374.49
544.32	437.68
544.48	397.89
544.65	421.30
544.82	383.85
544.99	367.46
545.16	414.27
545.32	430.66
545.49	407.25
545.66	407.25
545.83	344.06
546.00	334.70
546.16	407.25
546.33	423.64
546.50	407.25
546.67	433.00
546.83	386.19
547.00	437.68
547.17	367.46
547.34	449.38
547.50	472.79
547.67	365.12
547.84	414.27
548.00	442.36
548.17	390.87
548.34	404.91
548.51	423.64
548.67	461.09
548.84	374.49
549.01	423.64
549.18	444.70
549.34	337.04
549.51	442.36
549.68	444.70
549.84	484.49
550.01	411.93
550.18	407.25
550.34	472.79
550.51	400.23
550.68	418.96
550.84	458.74
551.01	430.66
551.18	411.93
551.34	486.83
551.51	442.36
551.68	400.23
551.84	475.13
552.01	454.06
552.18	388.53
552.34	409.59
552.51	390.87
552.68	489.17
552.84	425.98
553.01	397.89
553.18	409.59
553.34	442.36
553.51	348.74
553.67	400.23
553.84	461.09
554.01	444.70
554.17	428.32
554.34	414.27
554.51	435.34
554.67	449.38
554.84	491.51
555.00	423.64
555.17	383.85
555.33	379.17
555.50	514.92
555.67	402.57
555.83	411.93
556.00	444.70
556.16	538.32
556.33	407.25
556.50	337.04
556.66	400.23
556.83	440.02
556.99	404.91
557.16	355.76
557.32	402.57
557.49	362.78
557.65	440.02
557.82	423.64
557.98	353.42
558.15	397.89
558.32	393.21
558.48	442.36
558.65	416.62
558.81	475.13
558.98	425.98
559.14	397.89
559.31	416.62
559.47	468.11
559.64	442.36
559.80	402.57
559.97	374.49
560.13	402.57
560.30	421.30
560.46	402.57
560.63	372.15
560.79	388.53
560.96	486.83
561.12	386.19
561.29	379.17
561.45	449.38
561.61	477.47
561.78	552.37
561.94	433.00
562.11	484.49
562.27	449.38
562.44	379.17
562.60	414.27
562.77	416.62
562.93	430.66
563.10	411.93
563.26	489.17
563.42	451.72
563.59	404.91
563.75	388.53
563.92	423.64
564.08	409.59
564.24	449.38
564.41	484.49
564.57	430.66
564.74	393.21
564.90	491.51
565.07	379.17
565.23	449.38
565.39	409.59
565.56	428.32
565.72	428.32
565.88	416.62
566.05	421.30
566.21	428.32
566.38	376.83
566.54	400.23
566.70	482.15
566.87	444.70
567.03	381.51
567.19	482.15
567.36	362.78
567.52	308.95
567.68	458.74
567.85	409.59
568.01	465.77
568.17	454.06
568.34	423.64
568.50	451.72
568.66	360.44
568.83	526.62
568.99	470.45
569.15	388.53
569.32	397.89
569.48	383.85
569.64	355.76
569.81	477.47
569.97	458.74
570.13	400.23
570.30	423.64
570.46	440.02
570.62	400.23
570.78	374.49
570.95	461.09
571.11	454.06
571.27	428.32
571.43	435.34
571.60	390.87
571.76	418.96
571.92	351.08
572.09	395.55
572.25	461.09
572.41	362.78
572.57	409.59
572.74	454.06
572.90	433.00
573.06	390.87
573.22	411.93
573.38	484.49
573.55	444.70
573.71	514.92
573.87	430.66
574.03	444.70
574.20	428.32
574.36	465.77
574.52	449.38
574.68	437.68
574.84	411.93
575.01	393.21
575.17	491.51
575.33	423.64
575.49	540.66
575.65	489.17
575.82	479.81
575.98	468.11
576.14	383.85
576.30	376.83
576.46	386.19
576.62	486.83
576.79	456.40
576.95	444.70
577.11	463.43
577.27	365.12
577.43	397.89
577.59	444.70
577.75	423.64
577.92	402.57
578.08	435.34
578.24	442.36
578.40	402.57
578.56	344.06
578.72	456.40
578.88	421.30
579.04	451.72
579.21	472.79
579.37	402.57
579.53	423.64
579.69	475.13
579.85	390.87
580.01	409.59
580.17	397.89
580.33	444.70
580.49	411.93
580.65	477.47
580.82	447.04
580.98	409.59
581.14	400.23
581.30	503.22
581.46	402.57
581.62	472.79
581.78	374.49
581.94	458.74
582.10	458.74
582.26	379.17
582.42	367.46
582.58	475.13
582.74	454.06
582.90	456.40
583.06	383.85
583.22	428.32
583.38	461.09
583.54	400.23
583.70	514.92
583.86	468.11
584.02	465.77
584.18	447.04
584.34	379.17
584.50	470.45
584.66	414.27
584.82	376.83
584.98	414.27
585.14	393.21
585.30	400.23
585.46	468.11
585.62	447.04
585.78	374.49
585.94	449.38
586.10	449.38
586.26	409.59
586.42	461.09
586.58	400.23
586.74	386.19
586.90	397.89
587.06	407.25
587.22	479.81
587.38	320.65
587.54	360.44
587.70	362.78
587.86	414.27
588.02	437.68
588.18	428.32
588.34	369.80
588.49	386.19
588.65	402.57
588.81	358.10
588.97	397.89
589.13	351.08
589.29	447.04
589.45	463.43
589.61	437.68
589.77	425.98
589.93	479.81
590.08	456.40
590.24	435.34
590.40	402.57
590.56	381.51
590.72	468.11
590.88	365.12
591.04	411.93
591.20	407.25
591.35	433.00
591.51	451.72
591.67	442.36
591.83	330.02
591.99	411.93
592.15	358.10
592.31	468.11
592.46	418.96
592.62	491.51
592.78	388.53
592.94	442.36
593.10	411.93
593.26	470.45
593.41	409.59
593.57	390.87
593.73	418.96
593.89	386.19
594.05	411.93
594.20	416.62
594.36	395.55
594.52	355.76
594.68	411.93
594.84	461.09
594.99	454.06
595.15	440.02
595.31	404.91
595.47	496.19
595.62	416.62
595.78	458.74
595.94	409.59
596.10	411.93
596.25	379.17
596.41	395.55
596.57	416.62
596.73	360.44
596.88	428.32
597.04	449.38
597.20	423.64
597.36	379.17
597.51	454.06
597.67	383.85
597.83	402.57
597.99	372.15
598.14	374.49
598.30	442.36
598.46	376.83
598.61	407.25
598.77	430.66
598.93	341.72
599.09	430.66
599.24	404.91
599.40	477.47
599.56	351.08
599.71	425.98
599.87	442.36
600.03	433.00
600.18	409.59
600.34	444.70
600.50	365.12
600.65	425.98
600.81	454.06
600.97	362.78
601.12	353.42
601.28	397.89
601.44	369.80
601.59	477.47
601.75	442.36
601.91	407.25
602.06	409.59
602.22	470.45
602.37	421.30
602.53	454.06
602.69	486.83
602.84	381.51
603.00	425.98
603.16	430.66
603.31	395.55
603.47	411.93
603.62	409.59
603.78	491.51
603.94	409.59
604.09	379.17
604.25	416.62
604.40	458.74
604.56	400.23
604.71	423.64
604.87	425.98
605.03	381.51
605.18	386.19
605.34	435.34
605.49	526.62
605.65	421.30
605.80	397.89
605.96	404.91
606.12	465.77
606.27	404.91
606.43	435.34
606.58	461.09
606.74	463.43
606.89	524.28
607.05	428.32
607.20	365.12
607.36	428.32
607.51	402.57
607.67	374.49
607.82	404.91
607.98	404.91
608.13	414.27
608.29	423.64
608.44	416.62
608.60	423.64
608.75	421.30
608.91	358.10
609.06	390.87
609.22	376.83
609.37	367.46
609.53	421.30
609.68	444.70
609.84	447.04
609.99	444.70
610.15	433.00
