SpectraSuite Data File
++++++++++++++++++++++++++++++++++++
Date: Fri Oct 25 12:10:43 EDT 2013
User: price-jones
Dark Spectrum Present: No
Reference Spectrum Present: No
Number of Sampled Component Spectra: 1
Spectrometers: USB2+H05261
Integration Time (usec): 100000 (USB2+H05261)
Spectra Averaged: 1 (USB2+H05261)
Boxcar Smoothing: 0 (USB2+H05261)
Correct for Electrical Dark: No (USB2+H05261)
Strobe/Lamp Enabled: No (USB2+H05261)
Correct for Detector Non-linearity: No (USB2+H05261)
Correct for Stray Light: No (USB2+H05261)
Number of Pixels in Processed Spectrum: 2048
>>>>>Begin Processed Spectral Data<<<<<
365.73	276.18
365.92	276.18
366.12	276.18
366.32	325.33
366.52	259.80
366.72	259.80
366.91	210.65
367.11	287.89
367.31	210.65
367.51	205.97
367.70	222.35
367.90	248.10
368.10	252.78
368.30	259.80
368.49	208.31
368.69	220.01
368.89	196.60
369.09	229.37
369.28	299.59
369.48	252.78
369.68	236.39
369.87	271.50
370.07	283.20
370.27	341.72
370.47	379.17
370.66	360.44
370.86	360.44
371.06	367.46
371.25	416.62
371.45	315.97
371.65	337.04
371.84	280.86
372.04	388.53
372.24	390.87
372.44	379.17
372.63	447.04
372.83	381.51
373.03	414.27
373.22	409.59
373.42	383.85
373.62	435.34
373.81	444.70
374.01	353.42
374.21	543.00
374.40	416.62
374.60	465.77
374.79	423.64
374.99	447.04
375.19	355.76
375.38	472.79
375.58	365.12
375.78	482.15
375.97	449.38
376.17	477.47
376.37	397.89
376.56	409.59
376.76	390.87
376.95	404.91
377.15	475.13
377.35	386.19
377.54	404.91
377.74	358.10
377.93	372.15
378.13	390.87
378.33	458.74
378.52	428.32
378.72	454.06
378.91	390.87
379.11	423.64
379.31	449.38
379.50	353.42
379.70	430.66
379.89	404.91
380.09	353.42
380.28	400.23
380.48	442.36
380.68	409.59
380.87	390.87
381.07	456.40
381.26	458.74
381.46	397.89
381.65	430.66
381.85	444.70
382.04	367.46
382.24	418.96
382.43	402.57
382.63	411.93
382.83	437.68
383.02	444.70
383.22	442.36
383.41	400.23
383.61	433.00
383.80	425.98
384.00	421.30
384.19	428.32
384.39	383.85
384.58	402.57
384.78	383.85
384.97	458.74
385.17	376.83
385.36	360.44
385.56	414.27
385.75	386.19
385.95	421.30
386.14	433.00
386.34	421.30
386.53	393.21
386.72	322.99
386.92	463.43
387.11	444.70
387.31	461.09
387.50	395.55
387.70	393.21
387.89	355.76
388.09	463.43
388.28	341.72
388.48	355.76
388.67	442.36
388.86	390.87
389.06	341.72
389.25	365.12
389.45	344.06
389.64	360.44
389.84	397.89
390.03	489.17
390.22	442.36
390.42	416.62
390.61	386.19
390.81	351.08
391.00	433.00
391.19	442.36
391.39	414.27
391.58	463.43
391.78	404.91
391.97	390.87
392.16	306.61
392.36	435.34
392.55	463.43
392.75	360.44
392.94	430.66
393.13	418.96
393.33	421.30
393.52	369.80
393.71	397.89
393.91	383.85
394.10	393.21
394.29	447.04
394.49	421.30
394.68	468.11
394.88	428.32
395.07	374.49
395.26	421.30
395.46	369.80
395.65	468.11
395.84	397.89
396.04	486.83
396.23	470.45
396.42	395.55
396.62	433.00
396.81	402.57
397.00	344.06
397.19	475.13
397.39	409.59
397.58	449.38
397.77	341.72
397.97	430.66
398.16	404.91
398.35	421.30
398.55	421.30
398.74	409.59
398.93	433.00
399.12	383.85
399.32	393.21
399.51	418.96
399.70	421.30
399.90	409.59
400.09	421.30
400.28	418.96
400.47	454.06
400.67	369.80
400.86	461.09
401.05	451.72
401.24	374.49
401.44	411.93
401.63	430.66
401.82	351.08
402.01	395.55
402.21	395.55
402.40	381.51
402.59	430.66
402.78	379.17
402.97	379.17
403.17	393.21
403.36	332.36
403.55	386.19
403.74	393.21
403.93	369.80
404.13	437.68
404.32	428.32
404.51	458.74
404.70	449.38
404.89	407.25
405.09	435.34
405.28	351.08
405.47	397.89
405.66	353.42
405.85	437.68
406.05	393.21
406.24	440.02
406.43	367.46
406.62	404.91
406.81	411.93
407.00	383.85
407.20	435.34
407.39	437.68
407.58	454.06
407.77	411.93
407.96	414.27
408.15	409.59
408.34	442.36
408.54	351.08
408.73	393.21
408.92	433.00
409.11	491.51
409.30	470.45
409.49	421.30
409.68	404.91
409.87	433.00
410.07	355.76
410.26	449.38
410.45	388.53
410.64	409.59
410.83	365.12
411.02	433.00
411.21	423.64
411.40	421.30
411.59	407.25
411.78	388.53
411.98	381.51
412.17	355.76
412.36	383.85
412.55	437.68
412.74	414.27
412.93	447.04
413.12	376.83
413.31	402.57
413.50	458.74
413.69	416.62
413.88	409.59
414.07	421.30
414.26	369.80
414.45	393.21
414.64	388.53
414.83	423.64
415.02	461.09
415.22	486.83
415.41	433.00
415.60	414.27
415.79	430.66
415.98	346.40
416.17	372.15
416.36	435.34
416.55	461.09
416.74	393.21
416.93	386.19
417.12	418.96
417.31	458.74
417.50	435.34
417.69	362.78
417.88	334.70
418.07	423.64
418.26	411.93
418.45	458.74
418.64	463.43
418.83	484.49
419.02	435.34
419.21	414.27
419.39	397.89
419.58	388.53
419.77	369.80
419.96	482.15
420.15	458.74
420.34	414.27
420.53	374.49
420.72	475.13
420.91	458.74
421.10	362.78
421.29	418.96
421.48	365.12
421.67	395.55
421.86	409.59
422.05	428.32
422.24	393.21
422.43	381.51
422.61	435.34
422.80	400.23
422.99	346.40
423.18	390.87
423.37	444.70
423.56	468.11
423.75	468.11
423.94	388.53
424.13	376.83
424.32	418.96
424.50	416.62
424.69	400.23
424.88	388.53
425.07	447.04
425.26	489.17
425.45	411.93
425.64	395.55
425.83	465.77
426.01	409.59
426.20	411.93
426.39	421.30
426.58	404.91
426.77	440.02
426.96	435.34
427.15	425.98
427.33	374.49
427.52	341.72
427.71	395.55
427.90	423.64
428.09	423.64
428.28	351.08
428.46	454.06
428.65	491.51
428.84	423.64
429.03	404.91
429.22	442.36
429.40	458.74
429.59	442.36
429.78	414.27
429.97	447.04
430.16	437.68
430.34	355.76
430.53	428.32
430.72	402.57
430.91	437.68
431.10	404.91
431.28	414.27
431.47	411.93
431.66	383.85
431.85	379.17
432.03	414.27
432.22	386.19
432.41	376.83
432.60	430.66
432.79	351.08
432.97	442.36
433.16	423.64
433.35	390.87
433.54	447.04
433.72	442.36
433.91	440.02
434.10	381.51
434.28	386.19
434.47	397.89
434.66	414.27
434.85	400.23
435.03	376.83
435.22	428.32
435.41	442.36
435.59	409.59
435.78	425.98
435.97	447.04
436.16	442.36
436.34	353.42
436.53	449.38
436.72	468.11
436.90	411.93
437.09	381.51
437.28	390.87
437.46	440.02
437.65	491.51
437.84	381.51
438.02	440.02
438.21	402.57
438.40	463.43
438.58	360.44
438.77	451.72
438.96	435.34
439.14	435.34
439.33	517.26
439.52	372.15
439.70	458.74
439.89	411.93
440.08	421.30
440.26	433.00
440.45	414.27
440.63	421.30
440.82	447.04
441.01	379.17
441.19	397.89
441.38	414.27
441.57	372.15
441.75	461.09
441.94	390.87
442.12	341.72
442.31	421.30
442.50	358.10
442.68	374.49
442.87	388.53
443.05	407.25
443.24	423.64
443.43	482.15
443.61	409.59
443.80	393.21
443.98	428.32
444.17	402.57
444.35	414.27
444.54	402.57
444.73	400.23
444.91	496.19
445.10	425.98
445.28	421.30
445.47	440.02
445.65	430.66
445.84	365.12
446.02	456.40
446.21	442.36
446.39	477.47
446.58	442.36
446.77	458.74
446.95	454.06
447.14	353.42
447.32	425.98
447.51	395.55
447.69	395.55
447.88	451.72
448.06	482.15
448.25	430.66
448.43	475.13
448.62	456.40
448.80	425.98
448.99	430.66
449.17	496.19
449.36	344.06
449.54	475.13
449.73	365.12
449.91	397.89
450.10	362.78
450.28	465.77
450.46	465.77
450.65	465.77
450.83	423.64
451.02	418.96
451.20	479.81
451.39	451.72
451.57	428.32
451.76	402.57
451.94	334.70
452.13	437.68
452.31	402.57
452.49	421.30
452.68	369.80
452.86	442.36
453.05	440.02
453.23	400.23
453.42	409.59
453.60	353.42
453.78	472.79
453.97	435.34
454.15	404.91
454.34	437.68
454.52	425.98
454.70	430.66
454.89	491.51
455.07	383.85
455.26	334.70
455.44	421.30
455.62	454.06
455.81	484.49
455.99	444.70
456.17	348.74
456.36	348.74
456.54	435.34
456.73	421.30
456.91	423.64
457.09	395.55
457.28	425.98
457.46	449.38
457.64	468.11
457.83	390.87
458.01	416.62
458.19	416.62
458.38	339.38
458.56	444.70
458.74	355.76
458.93	409.59
459.11	395.55
459.29	381.51
459.48	418.96
459.66	442.36
459.84	409.59
460.03	493.85
460.21	390.87
460.39	425.98
460.57	461.09
460.76	435.34
460.94	367.46
461.12	421.30
461.31	440.02
461.49	423.64
461.67	367.46
461.85	477.47
462.04	477.47
462.22	751.31
462.40	456.40
462.59	344.06
462.77	421.30
462.95	449.38
463.13	383.85
463.32	400.23
463.50	535.98
463.68	358.10
463.86	458.74
464.05	397.89
464.23	458.74
464.41	451.72
464.59	388.53
464.78	397.89
464.96	430.66
465.14	430.66
465.32	341.72
465.50	397.89
465.69	360.44
465.87	383.85
466.05	374.49
466.23	433.00
466.41	421.30
466.60	407.25
466.78	468.11
466.96	367.46
467.14	440.02
467.32	482.15
467.51	369.80
467.69	411.93
467.87	472.79
468.05	465.77
468.23	435.34
468.41	407.25
468.60	451.72
468.78	421.30
468.96	341.72
469.14	437.68
469.32	470.45
469.50	418.96
469.69	430.66
469.87	449.38
470.05	388.53
470.23	383.85
470.41	362.78
470.59	402.57
470.77	383.85
470.95	440.02
471.14	409.59
471.32	367.46
471.50	503.22
471.68	411.93
471.86	440.02
472.04	409.59
472.22	369.80
472.40	376.83
472.58	407.25
472.77	351.08
472.95	334.70
473.13	416.62
473.31	395.55
473.49	365.12
473.67	407.25
473.85	442.36
474.03	411.93
474.21	393.21
474.39	451.72
474.57	465.77
474.75	463.43
474.93	400.23
475.12	397.89
475.30	386.19
475.48	411.93
475.66	362.78
475.84	381.51
476.02	421.30
476.20	348.74
476.38	414.27
476.56	533.64
476.74	409.59
476.92	388.53
477.10	367.46
477.28	390.87
477.46	414.27
477.64	463.43
477.82	454.06
478.00	440.02
478.18	454.06
478.36	472.79
478.54	433.00
478.72	428.32
478.90	491.51
479.08	407.25
479.26	397.89
479.44	369.80
479.62	437.68
479.80	428.32
479.98	388.53
480.16	395.55
480.34	477.47
480.52	315.97
480.70	395.55
480.88	407.25
481.06	388.53
481.24	428.32
481.41	430.66
481.59	425.98
481.77	449.38
481.95	369.80
482.13	428.32
482.31	402.57
482.49	315.97
482.67	346.40
482.85	437.68
483.03	475.13
483.21	383.85
483.39	418.96
483.57	376.83
483.74	451.72
483.92	367.46
484.10	418.96
484.28	484.49
484.46	416.62
484.64	425.98
484.82	402.57
485.00	374.49
485.18	425.98
485.35	433.00
485.53	407.25
485.71	404.91
485.89	423.64
486.07	369.80
486.25	451.72
486.43	447.04
486.61	465.77
486.78	367.46
486.96	393.21
487.14	414.27
487.32	409.59
487.50	400.23
487.68	414.27
487.85	393.21
488.03	358.10
488.21	409.59
488.39	470.45
488.57	482.15
488.75	372.15
488.92	472.79
489.10	407.25
489.28	444.70
489.46	372.15
489.64	409.59
489.81	404.91
489.99	362.78
490.17	407.25
490.35	409.59
490.53	444.70
490.70	376.83
490.88	442.36
491.06	416.62
491.24	411.93
491.41	486.83
491.59	397.89
491.77	433.00
491.95	402.57
492.13	379.17
492.30	416.62
492.48	489.17
492.66	418.96
492.84	337.04
493.01	477.47
493.19	407.25
493.37	442.36
493.54	381.51
493.72	425.98
493.90	416.62
494.08	369.80
494.25	315.97
494.43	454.06
494.61	416.62
494.79	393.21
494.96	383.85
495.14	428.32
495.32	383.85
495.49	444.70
495.67	414.27
495.85	416.62
496.02	374.49
496.20	486.83
496.38	498.53
496.55	428.32
496.73	468.11
496.91	454.06
497.09	414.27
497.26	397.89
497.44	425.98
497.62	437.68
497.79	395.55
497.97	395.55
498.14	388.53
498.32	433.00
498.50	437.68
498.67	386.19
498.85	470.45
499.03	444.70
499.20	444.70
499.38	395.55
499.56	451.72
499.73	409.59
499.91	486.83
500.08	418.96
500.26	463.43
500.44	358.10
500.61	454.06
500.79	482.15
500.97	411.93
501.14	433.00
501.32	379.17
501.49	435.34
501.67	484.49
501.84	393.21
502.02	423.64
502.20	477.47
502.37	313.63
502.55	393.21
502.72	390.87
502.90	339.38
503.07	383.85
503.25	402.57
503.43	411.93
503.60	393.21
503.78	414.27
503.95	390.87
504.13	402.57
504.30	440.02
504.48	409.59
504.65	468.11
504.83	435.34
505.01	400.23
505.18	470.45
505.36	416.62
505.53	428.32
505.71	404.91
505.88	458.74
506.06	411.93
506.23	416.62
506.41	425.98
506.58	416.62
506.76	372.15
506.93	440.02
507.11	409.59
507.28	388.53
507.46	477.47
507.63	449.38
507.81	388.53
507.98	402.57
508.16	512.58
508.33	479.81
508.50	411.93
508.68	475.13
508.85	423.64
509.03	388.53
509.20	428.32
509.38	407.25
509.55	418.96
509.73	461.09
509.90	514.92
510.08	353.42
510.25	409.59
510.42	395.55
510.60	486.83
510.77	430.66
510.95	418.96
511.12	414.27
511.30	449.38
511.47	447.04
511.64	421.30
511.82	425.98
511.99	414.27
512.17	301.93
512.34	435.34
512.51	397.89
512.69	500.87
512.86	444.70
513.04	411.93
513.21	456.40
513.38	402.57
513.56	447.04
513.73	430.66
513.90	449.38
514.08	355.76
514.25	348.74
514.43	433.00
514.60	397.89
514.77	451.72
514.95	411.93
515.12	386.19
515.29	395.55
515.47	428.32
515.64	440.02
515.81	442.36
515.99	484.49
516.16	353.42
516.33	351.08
516.51	456.40
516.68	397.89
516.85	447.04
517.03	381.51
517.20	442.36
517.37	428.32
517.54	463.43
517.72	444.70
517.89	390.87
518.06	341.72
518.24	472.79
518.41	456.40
518.58	332.36
518.75	416.62
518.93	416.62
519.10	557.05
519.27	393.21
519.45	397.89
519.62	369.80
519.79	423.64
519.96	390.87
520.14	402.57
520.31	489.17
520.48	402.57
520.65	381.51
520.83	390.87
521.00	393.21
521.17	442.36
521.34	423.64
521.52	355.76
521.69	397.89
521.86	463.43
522.03	393.21
522.20	440.02
522.38	475.13
522.55	435.34
522.72	351.08
522.89	465.77
523.07	461.09
523.24	411.93
523.41	383.85
523.58	416.62
523.75	411.93
523.92	425.98
524.10	425.98
524.27	404.91
524.44	397.89
524.61	400.23
524.78	355.76
524.96	454.06
525.13	414.27
525.30	472.79
525.47	395.55
525.64	477.47
525.81	442.36
525.98	477.47
526.16	440.02
526.33	388.53
526.50	397.89
526.67	337.04
526.84	353.42
527.01	358.10
527.18	393.21
527.36	390.87
527.53	381.51
527.70	433.00
527.87	425.98
528.04	472.79
528.21	409.59
528.38	451.72
528.55	430.66
528.72	409.59
528.89	479.81
529.07	430.66
529.24	386.19
529.41	456.40
529.58	374.49
529.75	402.57
529.92	414.27
530.09	470.45
530.26	444.70
530.43	440.02
530.60	461.09
530.77	447.04
530.94	454.06
531.11	425.98
531.28	454.06
531.46	418.96
531.63	409.59
531.80	386.19
531.97	472.79
532.14	400.23
532.31	411.93
532.48	376.83
532.65	383.85
532.82	400.23
532.99	393.21
533.16	454.06
533.33	425.98
533.50	369.80
533.67	409.59
533.84	433.00
534.01	428.32
534.18	369.80
534.35	458.74
534.52	470.45
534.69	400.23
534.86	437.68
535.03	374.49
535.20	390.87
535.37	449.38
535.54	409.59
535.71	386.19
535.88	444.70
536.05	430.66
536.22	376.83
536.38	409.59
536.55	407.25
536.72	430.66
536.89	414.27
537.06	435.34
537.23	421.30
537.40	444.70
537.57	367.46
537.74	423.64
537.91	393.21
538.08	379.17
538.25	444.70
538.42	416.62
538.59	451.72
538.75	468.11
538.92	440.02
539.09	430.66
539.26	351.08
539.43	517.26
539.60	433.00
539.77	402.57
539.94	390.87
540.11	475.13
540.28	489.17
540.44	409.59
540.61	379.17
540.78	388.53
540.95	386.19
541.12	423.64
541.29	407.25
541.46	454.06
541.62	411.93
541.79	409.59
541.96	435.34
542.13	402.57
542.30	468.11
542.47	400.23
542.63	454.06
542.80	484.49
542.97	404.91
543.14	402.57
543.31	447.04
543.48	435.34
543.64	379.17
543.81	351.08
543.98	390.87
544.15	400.23
544.32	365.12
544.48	365.12
544.65	430.66
544.82	381.51
544.99	376.83
545.16	456.40
545.32	388.53
545.49	437.68
545.66	444.70
545.83	442.36
546.00	388.53
546.16	416.62
546.33	425.98
546.50	442.36
546.67	437.68
546.83	449.38
547.00	381.51
547.17	423.64
547.34	376.83
547.50	428.32
547.67	414.27
547.84	409.59
548.00	393.21
548.17	416.62
548.34	388.53
548.51	430.66
548.67	301.93
548.84	435.34
549.01	330.02
549.18	409.59
549.34	390.87
549.51	491.51
549.68	428.32
549.84	416.62
550.01	381.51
550.18	458.74
550.34	447.04
550.51	463.43
550.68	477.47
550.84	421.30
551.01	463.43
551.18	437.68
551.34	397.89
551.51	430.66
551.68	463.43
551.84	344.06
552.01	355.76
552.18	355.76
552.34	472.79
552.51	423.64
552.68	435.34
552.84	423.64
553.01	416.62
553.18	505.56
553.34	407.25
553.51	376.83
553.67	407.25
553.84	395.55
554.01	493.85
554.17	435.34
554.34	395.55
554.51	400.23
554.67	407.25
554.84	428.32
555.00	409.59
555.17	454.06
555.33	383.85
555.50	449.38
555.67	414.27
555.83	423.64
556.00	444.70
556.16	557.05
556.33	425.98
556.50	362.78
556.66	433.00
556.83	407.25
556.99	390.87
557.16	454.06
557.32	407.25
557.49	379.17
557.65	409.59
557.82	447.04
557.98	428.32
558.15	304.27
558.32	407.25
558.48	472.79
558.65	433.00
558.81	409.59
558.98	423.64
559.14	397.89
559.31	374.49
559.47	465.77
559.64	395.55
559.80	416.62
559.97	355.76
560.13	348.74
560.30	365.12
560.46	430.66
560.63	383.85
560.79	425.98
560.96	428.32
561.12	381.51
561.29	397.89
561.45	430.66
561.61	433.00
561.78	482.15
561.94	411.93
562.11	440.02
562.27	404.91
562.44	409.59
562.60	379.17
562.77	318.31
562.93	496.19
563.10	475.13
563.26	440.02
563.42	454.06
563.59	440.02
563.75	486.83
563.92	491.51
564.08	381.51
564.24	425.98
564.41	493.85
564.57	353.42
564.74	423.64
564.90	444.70
565.07	351.08
565.23	383.85
565.39	425.98
565.56	402.57
565.72	397.89
565.88	383.85
566.05	395.55
566.21	468.11
566.38	440.02
566.54	430.66
566.70	348.74
566.87	388.53
567.03	402.57
567.19	421.30
567.36	456.40
567.52	407.25
567.68	456.40
567.85	486.83
568.01	463.43
568.17	416.62
568.34	395.55
568.50	468.11
568.66	440.02
568.83	482.15
568.99	386.19
569.15	404.91
569.32	437.68
569.48	421.30
569.64	416.62
569.81	489.17
569.97	451.72
570.13	440.02
570.30	393.21
570.46	367.46
570.62	456.40
570.78	423.64
570.95	425.98
571.11	440.02
571.27	484.49
571.43	433.00
571.60	365.12
571.76	447.04
571.92	414.27
572.09	425.98
572.25	428.32
572.41	428.32
572.57	365.12
572.74	456.40
572.90	484.49
573.06	388.53
573.22	486.83
573.38	463.43
573.55	334.70
573.71	442.36
573.87	404.91
574.03	404.91
574.20	386.19
574.36	451.72
574.52	383.85
574.68	442.36
574.84	400.23
575.01	414.27
575.17	409.59
575.33	369.80
575.49	475.13
575.65	451.72
575.82	468.11
575.98	341.72
576.14	362.78
576.30	472.79
576.46	435.34
576.62	395.55
576.79	461.09
576.95	449.38
577.11	400.23
577.27	393.21
577.43	482.15
577.59	484.49
577.75	496.19
577.92	402.57
578.08	451.72
578.24	440.02
578.40	362.78
578.56	411.93
578.72	463.43
578.88	421.30
579.04	332.36
579.21	425.98
579.37	449.38
579.53	484.49
579.69	409.59
579.85	386.19
580.01	421.30
580.17	395.55
580.33	348.74
580.49	421.30
580.65	400.23
580.82	393.21
580.98	421.30
581.14	362.78
581.30	425.98
581.46	386.19
581.62	355.76
581.78	468.11
581.94	444.70
582.10	414.27
582.26	472.79
582.42	421.30
582.58	442.36
582.74	400.23
582.90	421.30
583.06	437.68
583.22	468.11
583.38	416.62
583.54	472.79
583.70	517.26
583.86	386.19
584.02	402.57
584.18	517.26
584.34	425.98
584.50	428.32
584.66	416.62
584.82	393.21
584.98	449.38
585.14	414.27
585.30	456.40
585.46	461.09
585.62	440.02
585.78	414.27
585.94	425.98
586.10	425.98
586.26	407.25
586.42	428.32
586.58	428.32
586.74	454.06
586.90	397.89
587.06	411.93
587.22	442.36
587.38	411.93
587.54	388.53
587.70	344.06
587.86	491.51
588.02	416.62
588.18	390.87
588.34	421.30
588.49	414.27
588.65	423.64
588.81	421.30
588.97	353.42
589.13	475.13
589.29	388.53
589.45	421.30
589.61	421.30
589.77	428.32
589.93	423.64
590.08	416.62
590.24	428.32
590.40	477.47
590.56	367.46
590.72	414.27
590.88	353.42
591.04	454.06
591.20	430.66
591.35	353.42
591.51	428.32
591.67	351.08
591.83	418.96
591.99	442.36
592.15	447.04
592.31	477.47
592.46	444.70
592.62	428.32
592.78	388.53
592.94	409.59
593.10	451.72
593.26	414.27
593.41	430.66
593.57	381.51
593.73	433.00
593.89	437.68
594.05	425.98
594.20	381.51
594.36	461.09
594.52	428.32
594.68	463.43
594.84	498.53
594.99	470.45
595.15	428.32
595.31	421.30
595.47	454.06
595.62	449.38
595.78	402.57
595.94	400.23
596.10	409.59
596.25	433.00
596.41	367.46
596.57	456.40
596.73	395.55
596.88	379.17
597.04	486.83
597.20	451.72
597.36	379.17
597.51	411.93
597.67	407.25
597.83	402.57
597.99	454.06
598.14	397.89
598.30	400.23
598.46	414.27
598.61	374.49
598.77	507.90
598.93	444.70
599.09	437.68
599.24	477.47
599.40	496.19
599.56	383.85
599.71	358.10
599.87	369.80
600.03	477.47
600.18	484.49
600.34	411.93
600.50	390.87
600.65	383.85
600.81	395.55
600.97	346.40
601.12	437.68
601.28	337.04
601.44	430.66
601.59	379.17
601.75	449.38
601.91	369.80
602.06	397.89
602.22	491.51
602.37	416.62
602.53	437.68
602.69	500.87
602.84	510.24
603.00	440.02
603.16	374.49
603.31	451.72
603.47	514.92
603.62	358.10
603.78	285.55
603.94	383.85
604.09	369.80
604.25	435.34
604.40	411.93
604.56	400.23
604.71	482.15
604.87	383.85
605.03	433.00
605.18	386.19
605.34	507.90
605.49	374.49
605.65	365.12
605.80	400.23
605.96	461.09
606.12	418.96
606.27	393.21
606.43	470.45
606.58	458.74
606.74	482.15
606.89	393.21
607.05	442.36
607.20	381.51
607.36	440.02
607.51	395.55
607.67	468.11
607.82	351.08
607.98	348.74
608.13	348.74
608.29	386.19
608.44	428.32
608.60	402.57
608.75	390.87
608.91	437.68
609.06	456.40
609.22	472.79
609.37	414.27
609.53	393.21
609.68	411.93
609.84	313.63
609.99	447.04
610.15	418.96
