SpectraSuite Data File
++++++++++++++++++++++++++++++++++++
Date: Fri Oct 25 12:10:39 EDT 2013
User: price-jones
Dark Spectrum Present: No
Reference Spectrum Present: No
Number of Sampled Component Spectra: 1
Spectrometers: USB2+H05261
Integration Time (usec): 100000 (USB2+H05261)
Spectra Averaged: 1 (USB2+H05261)
Boxcar Smoothing: 0 (USB2+H05261)
Correct for Electrical Dark: No (USB2+H05261)
Strobe/Lamp Enabled: No (USB2+H05261)
Correct for Detector Non-linearity: No (USB2+H05261)
Correct for Stray Light: No (USB2+H05261)
Number of Pixels in Processed Spectrum: 2048
>>>>>Begin Processed Spectral Data<<<<<
365.73	313.63
365.92	313.63
366.12	313.63
366.32	358.10
366.52	257.46
366.72	294.91
366.91	220.01
367.11	152.13
367.31	124.05
367.51	196.60
367.70	147.45
367.90	220.01
368.10	210.65
368.30	287.89
368.49	280.86
368.69	269.16
368.89	241.08
369.09	220.01
369.28	245.76
369.48	266.82
369.68	259.80
369.87	325.33
370.07	252.78
370.27	365.12
370.47	330.02
370.66	348.74
370.86	337.04
371.06	360.44
371.25	376.83
371.45	353.42
371.65	358.10
371.84	341.72
372.04	400.23
372.24	369.80
372.44	353.42
372.63	367.46
372.83	449.38
373.03	388.53
373.22	393.21
373.42	451.72
373.62	341.72
373.81	360.44
374.01	383.85
374.21	477.47
374.40	440.02
374.60	458.74
374.79	400.23
374.99	444.70
375.19	433.00
375.38	383.85
375.58	430.66
375.78	376.83
375.97	423.64
376.17	470.45
376.37	376.83
376.56	402.57
376.76	388.53
376.95	505.56
377.15	393.21
377.35	348.74
377.54	402.57
377.74	393.21
377.93	447.04
378.13	421.30
378.33	435.34
378.52	402.57
378.72	425.98
378.91	318.31
379.11	341.72
379.31	411.93
379.50	369.80
379.70	435.34
379.89	423.64
380.09	414.27
380.28	402.57
380.48	470.45
380.68	411.93
380.87	330.02
381.07	521.94
381.26	421.30
381.46	388.53
381.65	475.13
381.85	381.51
382.04	393.21
382.24	409.59
382.43	390.87
382.63	376.83
382.83	299.59
383.02	442.36
383.22	411.93
383.41	454.06
383.61	381.51
383.80	486.83
384.00	400.23
384.19	470.45
384.39	475.13
384.58	425.98
384.78	430.66
384.97	379.17
385.17	351.08
385.36	409.59
385.56	400.23
385.75	388.53
385.95	320.65
386.14	447.04
386.34	390.87
386.53	479.81
386.72	444.70
386.92	437.68
387.11	421.30
387.31	367.46
387.50	388.53
387.70	367.46
387.89	435.34
388.09	407.25
388.28	383.85
388.48	470.45
388.67	390.87
388.86	369.80
389.06	397.89
389.25	390.87
389.45	418.96
389.64	376.83
389.84	491.51
390.03	433.00
390.22	465.77
390.42	402.57
390.61	421.30
390.81	339.38
391.00	414.27
391.19	482.15
391.39	407.25
391.58	479.81
391.78	454.06
391.97	353.42
392.16	383.85
392.36	458.74
392.55	418.96
392.75	409.59
392.94	416.62
393.13	348.74
393.33	414.27
393.52	334.70
393.71	449.38
393.91	360.44
394.10	386.19
394.29	472.79
394.49	339.38
394.68	407.25
394.88	402.57
395.07	433.00
395.26	369.80
395.46	416.62
395.65	435.34
395.84	411.93
396.04	449.38
396.23	465.77
396.42	376.83
396.62	430.66
396.81	351.08
397.00	386.19
397.19	409.59
397.39	421.30
397.58	479.81
397.77	442.36
397.97	472.79
398.16	372.15
398.35	390.87
398.55	430.66
398.74	414.27
398.93	404.91
399.12	318.31
399.32	395.55
399.51	383.85
399.70	395.55
399.90	454.06
400.09	393.21
400.28	355.76
400.47	365.12
400.67	428.32
400.86	423.64
401.05	397.89
401.24	383.85
401.44	442.36
401.63	440.02
401.82	472.79
402.01	400.23
402.21	390.87
402.40	463.43
402.59	376.83
402.78	379.17
402.97	383.85
403.17	461.09
403.36	465.77
403.55	442.36
403.74	400.23
403.93	442.36
404.13	400.23
404.32	351.08
404.51	362.78
404.70	372.15
404.89	440.02
405.09	425.98
405.28	440.02
405.47	388.53
405.66	395.55
405.85	379.17
406.05	411.93
406.24	383.85
406.43	451.72
406.62	433.00
406.81	444.70
407.00	334.70
407.20	383.85
407.39	393.21
407.58	400.23
407.77	430.66
407.96	433.00
408.15	348.74
408.34	465.77
408.54	435.34
408.73	463.43
408.92	400.23
409.11	400.23
409.30	362.78
409.49	388.53
409.68	456.40
409.87	454.06
410.07	376.83
410.26	383.85
410.45	437.68
410.64	351.08
410.83	404.91
411.02	339.38
411.21	386.19
411.40	404.91
411.59	348.74
411.78	390.87
411.98	458.74
412.17	456.40
412.36	451.72
412.55	414.27
412.74	381.51
412.93	456.40
413.12	423.64
413.31	416.62
413.50	362.78
413.69	416.62
413.88	430.66
414.07	409.59
414.26	383.85
414.45	418.96
414.64	423.64
414.83	390.87
415.02	383.85
415.22	383.85
415.41	416.62
415.60	425.98
415.79	407.25
415.98	404.91
416.17	386.19
416.36	355.76
416.55	313.63
416.74	372.15
416.93	402.57
417.12	442.36
417.31	379.17
417.50	444.70
417.69	388.53
417.88	376.83
418.07	332.36
418.26	423.64
418.45	379.17
418.64	437.68
418.83	411.93
419.02	411.93
419.21	407.25
419.39	386.19
419.58	390.87
419.77	355.76
419.96	493.85
420.15	477.47
420.34	290.23
420.53	376.83
420.72	386.19
420.91	411.93
421.10	383.85
421.29	358.10
421.48	404.91
421.67	390.87
421.86	447.04
422.05	421.30
422.24	468.11
422.43	383.85
422.61	376.83
422.80	414.27
422.99	376.83
423.18	365.12
423.37	425.98
423.56	407.25
423.75	449.38
423.94	388.53
424.13	376.83
424.32	442.36
424.50	411.93
424.69	425.98
424.88	456.40
425.07	418.96
425.26	428.32
425.45	376.83
425.64	393.21
425.83	320.65
426.01	376.83
426.20	463.43
426.39	409.59
426.58	475.13
426.77	428.32
426.96	402.57
427.15	435.34
427.33	404.91
427.52	390.87
427.71	430.66
427.90	379.17
428.09	444.70
428.28	379.17
428.46	407.25
428.65	451.72
428.84	402.57
429.03	456.40
429.22	430.66
429.40	433.00
429.59	315.97
429.78	451.72
429.97	442.36
430.16	379.17
430.34	390.87
430.53	379.17
430.72	390.87
430.91	388.53
431.10	330.02
431.28	421.30
431.47	404.91
431.66	430.66
431.85	416.62
432.03	390.87
432.22	500.87
432.41	454.06
432.60	461.09
432.79	400.23
432.97	379.17
433.16	386.19
433.35	437.68
433.54	409.59
433.72	449.38
433.91	447.04
434.10	496.19
434.28	479.81
434.47	416.62
434.66	402.57
434.85	440.02
435.03	428.32
435.22	458.74
435.41	395.55
435.59	346.40
435.78	416.62
435.97	461.09
436.16	411.93
436.34	465.77
436.53	362.78
436.72	421.30
436.90	430.66
437.09	444.70
437.28	423.64
437.46	418.96
437.65	400.23
437.84	430.66
438.02	395.55
438.21	430.66
438.40	444.70
438.58	362.78
438.77	425.98
438.96	425.98
439.14	411.93
439.33	463.43
439.52	458.74
439.70	393.21
439.89	383.85
440.08	409.59
440.26	409.59
440.45	409.59
440.63	421.30
440.82	477.47
441.01	407.25
441.19	437.68
441.38	400.23
441.57	376.83
441.75	421.30
441.94	468.11
442.12	416.62
442.31	407.25
442.50	381.51
442.68	416.62
442.87	444.70
443.05	425.98
443.24	416.62
443.43	528.96
443.61	444.70
443.80	421.30
443.98	437.68
444.17	358.10
444.35	383.85
444.54	425.98
444.73	388.53
444.91	433.00
445.10	447.04
445.28	430.66
445.47	388.53
445.65	414.27
445.84	348.74
446.02	400.23
446.21	435.34
446.39	381.51
446.58	461.09
446.77	425.98
446.95	388.53
447.14	407.25
447.32	421.30
447.51	465.77
447.69	430.66
447.88	428.32
448.06	430.66
448.25	433.00
448.43	440.02
448.62	416.62
448.80	430.66
448.99	383.85
449.17	421.30
449.36	404.91
449.54	404.91
449.73	365.12
449.91	407.25
450.10	437.68
450.28	423.64
450.46	423.64
450.65	425.98
450.83	395.55
451.02	416.62
451.20	442.36
451.39	402.57
451.57	416.62
451.76	430.66
451.94	407.25
452.13	442.36
452.31	442.36
452.49	479.81
452.68	437.68
452.86	367.46
453.05	442.36
453.23	435.34
453.42	390.87
453.60	404.91
453.78	425.98
453.97	372.15
454.15	454.06
454.34	397.89
454.52	428.32
454.70	444.70
454.89	402.57
455.07	339.38
455.26	440.02
455.44	409.59
455.62	423.64
455.81	449.38
455.99	365.12
456.17	477.47
456.36	449.38
456.54	395.55
456.73	334.70
456.91	383.85
457.09	390.87
457.28	493.85
457.46	411.93
457.64	489.17
457.83	461.09
458.01	425.98
458.19	444.70
458.38	430.66
458.56	454.06
458.74	327.68
458.93	404.91
459.11	393.21
459.29	442.36
459.48	397.89
459.66	376.83
459.84	393.21
460.03	442.36
460.21	472.79
460.39	374.49
460.57	418.96
460.76	388.53
460.94	458.74
461.12	489.17
461.31	430.66
461.49	444.70
461.67	451.72
461.85	447.04
462.04	505.56
462.22	774.72
462.40	440.02
462.59	449.38
462.77	437.68
462.95	402.57
463.13	411.93
463.32	397.89
463.50	451.72
463.68	423.64
463.86	395.55
464.05	423.64
464.23	374.49
464.41	383.85
464.59	374.49
464.78	358.10
464.96	458.74
465.14	390.87
465.32	379.17
465.50	393.21
465.69	393.21
465.87	428.32
466.05	404.91
466.23	437.68
466.41	425.98
466.60	381.51
466.78	411.93
466.96	479.81
467.14	386.19
467.32	388.53
467.51	409.59
467.69	423.64
467.87	437.68
468.05	430.66
468.23	475.13
468.41	428.32
468.60	414.27
468.78	433.00
468.96	411.93
469.14	437.68
469.32	414.27
469.50	379.17
469.69	451.72
469.87	409.59
470.05	358.10
470.23	447.04
470.41	416.62
470.59	353.42
470.77	395.55
470.95	395.55
471.14	409.59
471.32	416.62
471.50	430.66
471.68	362.78
471.86	369.80
472.04	440.02
472.22	468.11
472.40	376.83
472.58	479.81
472.77	414.27
472.95	400.23
473.13	421.30
473.31	402.57
473.49	407.25
473.67	353.42
473.85	433.00
474.03	397.89
474.21	425.98
474.39	414.27
474.57	428.32
474.75	479.81
474.93	442.36
475.12	409.59
475.30	402.57
475.48	390.87
475.66	341.72
475.84	449.38
476.02	360.44
476.20	428.32
476.38	479.81
476.56	524.28
476.74	486.83
476.92	353.42
477.10	374.49
477.28	425.98
477.46	400.23
477.64	477.47
477.82	386.19
478.00	430.66
478.18	400.23
478.36	440.02
478.54	409.59
478.72	397.89
478.90	383.85
479.08	402.57
479.26	430.66
479.44	379.17
479.62	397.89
479.80	383.85
479.98	421.30
480.16	341.72
480.34	454.06
480.52	381.51
480.70	367.46
480.88	390.87
481.06	397.89
481.24	409.59
481.41	383.85
481.59	458.74
481.77	463.43
481.95	397.89
482.13	395.55
482.31	355.76
482.49	393.21
482.67	423.64
482.85	447.04
483.03	407.25
483.21	477.47
483.39	437.68
483.57	454.06
483.74	465.77
483.92	461.09
484.10	372.15
484.28	437.68
484.46	430.66
484.64	379.17
484.82	414.27
485.00	411.93
485.18	393.21
485.35	430.66
485.53	437.68
485.71	468.11
485.89	484.49
486.07	411.93
486.25	470.45
486.43	425.98
486.61	465.77
486.78	395.55
486.96	409.59
487.14	344.06
487.32	402.57
487.50	393.21
487.68	479.81
487.85	421.30
488.03	430.66
488.21	451.72
488.39	416.62
488.57	395.55
488.75	421.30
488.92	540.66
489.10	409.59
489.28	456.40
489.46	407.25
489.64	411.93
489.81	442.36
489.99	395.55
490.17	442.36
490.35	458.74
490.53	428.32
490.70	369.80
490.88	470.45
491.06	404.91
491.24	428.32
491.41	428.32
491.59	409.59
491.77	411.93
491.95	411.93
492.13	414.27
492.30	430.66
492.48	414.27
492.66	390.87
492.84	435.34
493.01	330.02
493.19	433.00
493.37	414.27
493.54	381.51
493.72	381.51
493.90	372.15
494.08	388.53
494.25	411.93
494.43	444.70
494.61	381.51
494.79	407.25
494.96	400.23
495.14	437.68
495.32	418.96
495.49	433.00
495.67	353.42
495.85	430.66
496.02	402.57
496.20	430.66
496.38	407.25
496.55	404.91
496.73	451.72
496.91	447.04
497.09	430.66
497.26	362.78
497.44	383.85
497.62	447.04
497.79	421.30
497.97	444.70
498.14	435.34
498.32	421.30
498.50	421.30
498.67	440.02
498.85	454.06
499.03	433.00
499.20	423.64
499.38	362.78
499.56	486.83
499.73	479.81
499.91	435.34
500.08	456.40
500.26	463.43
500.44	451.72
500.61	433.00
500.79	421.30
500.97	444.70
501.14	486.83
501.32	416.62
501.49	435.34
501.67	390.87
501.84	458.74
502.02	369.80
502.20	372.15
502.37	397.89
502.55	390.87
502.72	388.53
502.90	437.68
503.07	411.93
503.25	400.23
503.43	400.23
503.60	355.76
503.78	374.49
503.95	416.62
504.13	395.55
504.30	444.70
504.48	404.91
504.65	458.74
504.83	430.66
505.01	456.40
505.18	514.92
505.36	428.32
505.53	409.59
505.71	393.21
505.88	397.89
506.06	456.40
506.23	416.62
506.41	409.59
506.58	360.44
506.76	472.79
506.93	409.59
507.11	465.77
507.28	411.93
507.46	386.19
507.63	421.30
507.81	344.06
507.98	351.08
508.16	433.00
508.33	435.34
508.50	447.04
508.68	414.27
508.85	388.53
509.03	404.91
509.20	414.27
509.38	468.11
509.55	433.00
509.73	404.91
509.90	386.19
510.08	442.36
510.25	374.49
510.42	414.27
510.60	388.53
510.77	435.34
510.95	379.17
511.12	388.53
511.30	313.63
511.47	454.06
511.64	498.53
511.82	421.30
511.99	386.19
512.17	367.46
512.34	456.40
512.51	454.06
512.69	393.21
512.86	493.85
513.04	461.09
513.21	383.85
513.38	346.40
513.56	475.13
513.73	428.32
513.90	372.15
514.08	416.62
514.25	407.25
514.43	465.77
514.60	465.77
514.77	428.32
514.95	379.17
515.12	482.15
515.29	418.96
515.47	444.70
515.64	409.59
515.81	418.96
515.99	468.11
516.16	425.98
516.33	407.25
516.51	440.02
516.68	374.49
516.85	376.83
517.03	416.62
517.20	461.09
517.37	365.12
517.54	407.25
517.72	458.74
517.89	397.89
518.06	400.23
518.24	414.27
518.41	489.17
518.58	423.64
518.75	423.64
518.93	468.11
519.10	507.90
519.27	514.92
519.45	433.00
519.62	461.09
519.79	395.55
519.96	397.89
520.14	440.02
520.31	395.55
520.48	407.25
520.65	414.27
520.83	418.96
521.00	362.78
521.17	372.15
521.34	376.83
521.52	414.27
521.69	430.66
521.86	470.45
522.03	376.83
522.20	458.74
522.38	374.49
522.55	458.74
522.72	449.38
522.89	449.38
523.07	479.81
523.24	404.91
523.41	400.23
523.58	437.68
523.75	447.04
523.92	379.17
524.10	440.02
524.27	465.77
524.44	463.43
524.61	435.34
524.78	409.59
524.96	435.34
525.13	404.91
525.30	442.36
525.47	404.91
525.64	437.68
525.81	421.30
525.98	451.72
526.16	355.76
526.33	367.46
526.50	468.11
526.67	390.87
526.84	315.97
527.01	351.08
527.18	430.66
527.36	437.68
527.53	386.19
527.70	444.70
527.87	409.59
528.04	454.06
528.21	369.80
528.38	353.42
528.55	472.79
528.72	421.30
528.89	435.34
529.07	381.51
529.24	362.78
529.41	447.04
529.58	482.15
529.75	465.77
529.92	470.45
530.09	425.98
530.26	383.85
530.43	400.23
530.60	320.65
530.77	404.91
530.94	505.56
531.11	444.70
531.28	451.72
531.46	397.89
531.63	383.85
531.80	383.85
531.97	404.91
532.14	407.25
532.31	367.46
532.48	395.55
532.65	407.25
532.82	400.23
532.99	449.38
533.16	418.96
533.33	475.13
533.50	372.15
533.67	447.04
533.84	379.17
534.01	440.02
534.18	451.72
534.35	468.11
534.52	381.51
534.69	491.51
534.86	423.64
535.03	428.32
535.20	407.25
535.37	500.87
535.54	482.15
535.71	444.70
535.88	379.17
536.05	433.00
536.22	358.10
536.38	402.57
536.55	477.47
536.72	514.92
536.89	383.85
537.06	390.87
537.23	423.64
537.40	430.66
537.57	442.36
537.74	470.45
537.91	433.00
538.08	451.72
538.25	411.93
538.42	435.34
538.59	397.89
538.75	376.83
538.92	369.80
539.09	416.62
539.26	407.25
539.43	383.85
539.60	418.96
539.77	365.12
539.94	440.02
540.11	404.91
540.28	454.06
540.44	437.68
540.61	407.25
540.78	388.53
540.95	400.23
541.12	409.59
541.29	362.78
541.46	465.77
541.62	400.23
541.79	386.19
541.96	468.11
542.13	381.51
542.30	421.30
542.47	407.25
542.63	393.21
542.80	454.06
542.97	404.91
543.14	447.04
543.31	369.80
543.48	372.15
543.64	381.51
543.81	395.55
543.98	390.87
544.15	397.89
544.32	393.21
544.48	414.27
544.65	390.87
544.82	477.47
544.99	379.17
545.16	423.64
545.32	491.51
545.49	463.43
545.66	355.76
545.83	397.89
546.00	358.10
546.16	397.89
546.33	339.38
546.50	400.23
546.67	418.96
546.83	472.79
547.00	418.96
547.17	404.91
547.34	404.91
547.50	351.08
547.67	442.36
547.84	425.98
548.00	383.85
548.17	390.87
548.34	451.72
548.51	423.64
548.67	449.38
548.84	435.34
549.01	411.93
549.18	404.91
549.34	381.51
549.51	407.25
549.68	447.04
549.84	388.53
550.01	470.45
550.18	533.64
550.34	484.49
550.51	402.57
550.68	475.13
550.84	376.83
551.01	390.87
551.18	395.55
551.34	404.91
551.51	402.57
551.68	407.25
551.84	409.59
552.01	390.87
552.18	346.40
552.34	479.81
552.51	376.83
552.68	390.87
552.84	425.98
553.01	458.74
553.18	468.11
553.34	454.06
553.51	433.00
553.67	465.77
553.84	444.70
554.01	407.25
554.17	404.91
554.34	369.80
554.51	421.30
554.67	447.04
554.84	390.87
555.00	416.62
555.17	411.93
555.33	465.77
555.50	470.45
555.67	362.78
555.83	344.06
556.00	414.27
556.16	517.26
556.33	442.36
556.50	348.74
556.66	437.68
556.83	411.93
556.99	393.21
557.16	465.77
557.32	327.68
557.49	372.15
557.65	397.89
557.82	461.09
557.98	365.12
558.15	381.51
558.32	430.66
558.48	423.64
558.65	437.68
558.81	472.79
558.98	402.57
559.14	444.70
559.31	447.04
559.47	458.74
559.64	442.36
559.80	404.91
559.97	397.89
560.13	409.59
560.30	369.80
560.46	348.74
560.63	397.89
560.79	435.34
560.96	470.45
561.12	475.13
561.29	454.06
561.45	451.72
561.61	397.89
561.78	465.77
561.94	383.85
562.11	449.38
562.27	372.15
562.44	411.93
562.60	428.32
562.77	337.04
562.93	482.15
563.10	381.51
563.26	421.30
563.42	428.32
563.59	421.30
563.75	465.77
563.92	414.27
564.08	463.43
564.24	463.43
564.41	510.24
564.57	468.11
564.74	421.30
564.90	397.89
565.07	397.89
565.23	430.66
565.39	404.91
565.56	425.98
565.72	416.62
565.88	414.27
566.05	411.93
566.21	414.27
566.38	433.00
566.54	404.91
566.70	388.53
566.87	442.36
567.03	351.08
567.19	414.27
567.36	351.08
567.52	411.93
567.68	484.49
567.85	475.13
568.01	372.15
568.17	425.98
568.34	397.89
568.50	451.72
568.66	430.66
568.83	444.70
568.99	416.62
569.15	423.64
569.32	397.89
569.48	360.44
569.64	468.11
569.81	423.64
569.97	472.79
570.13	409.59
570.30	397.89
570.46	290.23
570.62	395.55
570.78	416.62
570.95	407.25
571.11	428.32
571.27	475.13
571.43	461.09
571.60	397.89
571.76	425.98
571.92	369.80
572.09	433.00
572.25	472.79
572.41	388.53
572.57	388.53
572.74	416.62
572.90	444.70
573.06	411.93
573.22	449.38
573.38	505.56
573.55	454.06
573.71	449.38
573.87	400.23
574.03	397.89
574.20	486.83
574.36	416.62
574.52	416.62
574.68	327.68
574.84	442.36
575.01	454.06
575.17	395.55
575.33	278.52
575.49	341.72
575.65	397.89
575.82	463.43
575.98	351.08
576.14	400.23
576.30	360.44
576.46	353.42
576.62	355.76
576.79	442.36
576.95	447.04
577.11	440.02
577.27	465.77
577.43	440.02
577.59	461.09
577.75	400.23
577.92	447.04
578.08	435.34
578.24	425.98
578.40	507.90
578.56	449.38
578.72	470.45
578.88	437.68
579.04	369.80
579.21	461.09
579.37	437.68
579.53	397.89
579.69	414.27
579.85	428.32
580.01	414.27
580.17	376.83
580.33	358.10
580.49	433.00
580.65	458.74
580.82	404.91
580.98	381.51
581.14	355.76
581.30	475.13
581.46	444.70
581.62	400.23
581.78	437.68
581.94	496.19
582.10	372.15
582.26	451.72
582.42	428.32
582.58	372.15
582.74	468.11
582.90	372.15
583.06	456.40
583.22	367.46
583.38	395.55
583.54	433.00
583.70	437.68
583.86	451.72
584.02	463.43
584.18	463.43
584.34	383.85
584.50	411.93
584.66	458.74
584.82	435.34
584.98	430.66
585.14	430.66
585.30	400.23
585.46	407.25
585.62	442.36
585.78	397.89
585.94	395.55
586.10	365.12
586.26	390.87
586.42	449.38
586.58	374.49
586.74	388.53
586.90	444.70
587.06	444.70
587.22	402.57
587.38	407.25
587.54	390.87
587.70	430.66
587.86	437.68
588.02	388.53
588.18	402.57
588.34	414.27
588.49	437.68
588.65	465.77
588.81	425.98
588.97	447.04
589.13	393.21
589.29	414.27
589.45	416.62
589.61	423.64
589.77	411.93
589.93	482.15
590.08	407.25
590.24	447.04
590.40	433.00
590.56	421.30
590.72	383.85
590.88	423.64
591.04	383.85
591.20	383.85
591.35	425.98
591.51	400.23
591.67	400.23
591.83	330.02
591.99	381.51
592.15	390.87
592.31	397.89
592.46	376.83
592.62	433.00
592.78	423.64
592.94	348.74
593.10	376.83
593.26	409.59
593.41	388.53
593.57	414.27
593.73	388.53
593.89	404.91
594.05	454.06
594.20	442.36
594.36	421.30
594.52	435.34
594.68	468.11
594.84	477.47
594.99	496.19
595.15	475.13
595.31	414.27
595.47	451.72
595.62	454.06
595.78	430.66
595.94	409.59
596.10	442.36
596.25	454.06
596.41	440.02
596.57	442.36
596.73	369.80
596.88	358.10
597.04	334.70
597.20	418.96
597.36	365.12
597.51	393.21
597.67	423.64
597.83	376.83
597.99	411.93
598.14	421.30
598.30	402.57
598.46	514.92
598.61	376.83
598.77	393.21
598.93	444.70
599.09	465.77
599.24	344.06
599.40	465.77
599.56	430.66
599.71	465.77
599.87	407.25
600.03	400.23
600.18	416.62
600.34	442.36
600.50	409.59
600.65	425.98
600.81	449.38
600.97	442.36
601.12	435.34
601.28	416.62
601.44	475.13
601.59	358.10
601.75	444.70
601.91	351.08
602.06	475.13
602.22	442.36
602.37	461.09
602.53	376.83
602.69	388.53
602.84	475.13
603.00	395.55
603.16	362.78
603.31	493.85
603.47	416.62
603.62	454.06
603.78	409.59
603.94	470.45
604.09	444.70
604.25	433.00
604.40	433.00
604.56	400.23
604.71	388.53
604.87	372.15
605.03	444.70
605.18	482.15
605.34	430.66
605.49	433.00
605.65	388.53
605.80	437.68
605.96	451.72
606.12	463.43
606.27	440.02
606.43	379.17
606.58	449.38
606.74	411.93
606.89	449.38
607.05	454.06
607.20	437.68
607.36	454.06
607.51	423.64
607.67	393.21
607.82	411.93
607.98	423.64
608.13	435.34
608.29	395.55
608.44	465.77
608.60	442.36
608.75	416.62
608.91	376.83
609.06	428.32
609.22	475.13
609.37	456.40
609.53	404.91
609.68	435.34
609.84	395.55
609.99	386.19
610.15	472.79
