SpectraSuite Data File
++++++++++++++++++++++++++++++++++++
Date: Fri Oct 25 12:11:02 EDT 2013
User: price-jones
Dark Spectrum Present: No
Reference Spectrum Present: No
Number of Sampled Component Spectra: 1
Spectrometers: USB2+H05261
Integration Time (usec): 100000 (USB2+H05261)
Spectra Averaged: 1 (USB2+H05261)
Boxcar Smoothing: 0 (USB2+H05261)
Correct for Electrical Dark: No (USB2+H05261)
Strobe/Lamp Enabled: No (USB2+H05261)
Correct for Detector Non-linearity: No (USB2+H05261)
Correct for Stray Light: No (USB2+H05261)
Number of Pixels in Processed Spectrum: 2048
>>>>>Begin Processed Spectral Data<<<<<
365.73	290.23
365.92	290.23
366.12	290.23
366.32	262.14
366.52	177.88
366.72	311.29
366.91	173.20
367.11	210.65
367.31	187.24
367.51	191.92
367.70	222.35
367.90	231.71
368.10	191.92
368.30	252.78
368.49	271.50
368.69	304.27
368.89	252.78
369.09	273.84
369.28	220.01
369.48	332.36
369.68	231.71
369.87	271.50
370.07	322.99
370.27	341.72
370.47	330.02
370.66	301.93
370.86	322.99
371.06	388.53
371.25	379.17
371.45	320.65
371.65	383.85
371.84	327.68
372.04	397.89
372.24	393.21
372.44	337.04
372.63	372.15
372.83	308.95
373.03	463.43
373.22	358.10
373.42	332.36
373.62	428.32
373.81	435.34
374.01	463.43
374.21	379.17
374.40	402.57
374.60	449.38
374.79	421.30
374.99	491.51
375.19	468.11
375.38	430.66
375.58	395.55
375.78	479.81
375.97	521.94
376.17	449.38
376.37	468.11
376.56	430.66
376.76	423.64
376.95	421.30
377.15	444.70
377.35	383.85
377.54	388.53
377.74	407.25
377.93	411.93
378.13	428.32
378.33	477.47
378.52	358.10
378.72	351.08
378.91	458.74
379.11	402.57
379.31	409.59
379.50	411.93
379.70	379.17
379.89	472.79
380.09	458.74
380.28	404.91
380.48	468.11
380.68	369.80
380.87	299.59
381.07	428.32
381.26	491.51
381.46	362.78
381.65	358.10
381.85	409.59
382.04	320.65
382.24	372.15
382.43	533.64
382.63	414.27
382.83	390.87
383.02	374.49
383.22	386.19
383.41	379.17
383.61	416.62
383.80	397.89
384.00	435.34
384.19	395.55
384.39	334.70
384.58	353.42
384.78	390.87
384.97	414.27
385.17	414.27
385.36	416.62
385.56	409.59
385.75	353.42
385.95	367.46
386.14	423.64
386.34	341.72
386.53	390.87
386.72	383.85
386.92	500.87
387.11	423.64
387.31	418.96
387.50	353.42
387.70	395.55
387.89	440.02
388.09	428.32
388.28	440.02
388.48	435.34
388.67	416.62
388.86	393.21
389.06	425.98
389.25	369.80
389.45	341.72
389.64	395.55
389.84	397.89
390.03	491.51
390.22	355.76
390.42	348.74
390.61	428.32
390.81	414.27
391.00	416.62
391.19	409.59
391.39	400.23
391.58	362.78
391.78	395.55
391.97	318.31
392.16	390.87
392.36	491.51
392.55	386.19
392.75	344.06
392.94	433.00
393.13	456.40
393.33	360.44
393.52	409.59
393.71	344.06
393.91	425.98
394.10	440.02
394.29	423.64
394.49	395.55
394.68	454.06
394.88	386.19
395.07	390.87
395.26	402.57
395.46	451.72
395.65	444.70
395.84	433.00
396.04	477.47
396.23	379.17
396.42	444.70
396.62	425.98
396.81	423.64
397.00	414.27
397.19	447.04
397.39	425.98
397.58	423.64
397.77	353.42
397.97	283.20
398.16	395.55
398.35	351.08
398.55	346.40
398.74	472.79
398.93	477.47
399.12	421.30
399.32	397.89
399.51	496.19
399.70	416.62
399.90	409.59
400.09	365.12
400.28	423.64
400.47	341.72
400.67	421.30
400.86	451.72
401.05	367.46
401.24	332.36
401.44	411.93
401.63	402.57
401.82	393.21
402.01	468.11
402.21	418.96
402.40	428.32
402.59	388.53
402.78	402.57
402.97	358.10
403.17	407.25
403.36	442.36
403.55	362.78
403.74	386.19
403.93	400.23
404.13	465.77
404.32	369.80
404.51	365.12
404.70	393.21
404.89	311.29
405.09	423.64
405.28	425.98
405.47	400.23
405.66	447.04
405.85	440.02
406.05	374.49
406.24	449.38
406.43	393.21
406.62	386.19
406.81	503.22
407.00	430.66
407.20	440.02
407.39	433.00
407.58	386.19
407.77	425.98
407.96	444.70
408.15	428.32
408.34	390.87
408.54	437.68
408.73	449.38
408.92	477.47
409.11	458.74
409.30	442.36
409.49	355.76
409.68	414.27
409.87	306.61
410.07	374.49
410.26	451.72
410.45	355.76
410.64	327.68
410.83	435.34
411.02	449.38
411.21	390.87
411.40	449.38
411.59	376.83
411.78	433.00
411.98	388.53
412.17	400.23
412.36	411.93
412.55	404.91
412.74	418.96
412.93	409.59
413.12	355.76
413.31	414.27
413.50	451.72
413.69	388.53
413.88	437.68
414.07	379.17
414.26	365.12
414.45	330.02
414.64	414.27
414.83	465.77
415.02	367.46
415.22	409.59
415.41	444.70
415.60	409.59
415.79	449.38
415.98	404.91
416.17	454.06
416.36	418.96
416.55	430.66
416.74	402.57
416.93	386.19
417.12	451.72
417.31	430.66
417.50	362.78
417.69	454.06
417.88	360.44
418.07	334.70
418.26	393.21
418.45	367.46
418.64	437.68
418.83	435.34
419.02	325.33
419.21	379.17
419.39	383.85
419.58	404.91
419.77	430.66
419.96	463.43
420.15	512.58
420.34	404.91
420.53	390.87
420.72	418.96
420.91	449.38
421.10	393.21
421.29	386.19
421.48	383.85
421.67	437.68
421.86	456.40
422.05	414.27
422.24	397.89
422.43	428.32
422.61	337.04
422.80	379.17
422.99	456.40
423.18	437.68
423.37	470.45
423.56	360.44
423.75	358.10
423.94	374.49
424.13	402.57
424.32	388.53
424.50	374.49
424.69	416.62
424.88	458.74
425.07	414.27
425.26	425.98
425.45	449.38
425.64	425.98
425.83	414.27
426.01	402.57
426.20	404.91
426.39	374.49
426.58	353.42
426.77	461.09
426.96	433.00
427.15	379.17
427.33	393.21
427.52	386.19
427.71	428.32
427.90	425.98
428.09	395.55
428.28	442.36
428.46	402.57
428.65	379.17
428.84	442.36
429.03	433.00
429.22	411.93
429.40	400.23
429.59	402.57
429.78	418.96
429.97	463.43
430.16	407.25
430.34	397.89
430.53	458.74
430.72	477.47
430.91	395.55
431.10	390.87
431.28	433.00
431.47	404.91
431.66	390.87
431.85	409.59
432.03	444.70
432.22	493.85
432.41	409.59
432.60	510.24
432.79	463.43
432.97	425.98
433.16	365.12
433.35	477.47
433.54	400.23
433.72	493.85
433.91	461.09
434.10	348.74
434.28	475.13
434.47	376.83
434.66	442.36
434.85	393.21
435.03	447.04
435.22	465.77
435.41	437.68
435.59	416.62
435.78	390.87
435.97	458.74
436.16	428.32
436.34	437.68
436.53	421.30
436.72	451.72
436.90	402.57
437.09	393.21
437.28	393.21
437.46	390.87
437.65	472.79
437.84	393.21
438.02	423.64
438.21	318.31
438.40	381.51
438.58	383.85
438.77	430.66
438.96	444.70
439.14	409.59
439.33	407.25
439.52	397.89
439.70	390.87
439.89	407.25
440.08	433.00
440.26	407.25
440.45	435.34
440.63	454.06
440.82	400.23
441.01	458.74
441.19	416.62
441.38	402.57
441.57	437.68
441.75	362.78
441.94	486.83
442.12	423.64
442.31	374.49
442.50	423.64
442.68	348.74
442.87	449.38
443.05	372.15
443.24	458.74
443.43	475.13
443.61	461.09
443.80	430.66
443.98	442.36
444.17	444.70
444.35	383.85
444.54	351.08
444.73	463.43
444.91	451.72
445.10	388.53
445.28	470.45
445.47	479.81
445.65	416.62
445.84	386.19
446.02	390.87
446.21	435.34
446.39	430.66
446.58	430.66
446.77	447.04
446.95	393.21
447.14	528.96
447.32	423.64
447.51	395.55
447.69	503.22
447.88	468.11
448.06	472.79
448.25	465.77
448.43	379.17
448.62	423.64
448.80	437.68
448.99	505.56
449.17	362.78
449.36	430.66
449.54	475.13
449.73	334.70
449.91	433.00
450.10	491.51
450.28	468.11
450.46	433.00
450.65	428.32
450.83	444.70
451.02	390.87
451.20	358.10
451.39	454.06
451.57	348.74
451.76	402.57
451.94	440.02
452.13	397.89
452.31	449.38
452.49	428.32
452.68	348.74
452.86	440.02
453.05	409.59
453.23	365.12
453.42	404.91
453.60	435.34
453.78	386.19
453.97	386.19
454.15	409.59
454.34	372.15
454.52	430.66
454.70	470.45
454.89	458.74
455.07	440.02
455.26	449.38
455.44	454.06
455.62	433.00
455.81	414.27
455.99	414.27
456.17	524.28
456.36	411.93
456.54	435.34
456.73	409.59
456.91	362.78
457.09	425.98
457.28	454.06
457.46	416.62
457.64	435.34
457.83	374.49
458.01	358.10
458.19	395.55
458.38	372.15
458.56	475.13
458.74	433.00
458.93	433.00
459.11	430.66
459.29	367.46
459.48	451.72
459.66	418.96
459.84	437.68
460.03	486.83
460.21	430.66
460.39	381.51
460.57	397.89
460.76	470.45
460.94	407.25
461.12	449.38
461.31	428.32
461.49	479.81
461.67	388.53
461.85	400.23
462.04	355.76
462.22	510.24
462.40	351.08
462.59	449.38
462.77	425.98
462.95	400.23
463.13	409.59
463.32	402.57
463.50	437.68
463.68	475.13
463.86	393.21
464.05	430.66
464.23	369.80
464.41	451.72
464.59	402.57
464.78	437.68
464.96	409.59
465.14	400.23
465.32	355.76
465.50	418.96
465.69	416.62
465.87	334.70
466.05	414.27
466.23	402.57
466.41	409.59
466.60	407.25
466.78	470.45
466.96	425.98
467.14	390.87
467.32	507.90
467.51	425.98
467.69	449.38
467.87	409.59
468.05	390.87
468.23	465.77
468.41	416.62
468.60	376.83
468.78	454.06
468.96	433.00
469.14	416.62
469.32	409.59
469.50	435.34
469.69	414.27
469.87	379.17
470.05	369.80
470.23	402.57
470.41	388.53
470.59	416.62
470.77	404.91
470.95	327.68
471.14	533.64
471.32	386.19
471.50	444.70
471.68	489.17
471.86	423.64
472.04	447.04
472.22	376.83
472.40	451.72
472.58	444.70
472.77	423.64
472.95	344.06
473.13	440.02
473.31	447.04
473.49	447.04
473.67	437.68
473.85	397.89
474.03	430.66
474.21	418.96
474.39	372.15
474.57	393.21
474.75	451.72
474.93	437.68
475.12	381.51
475.30	461.09
475.48	423.64
475.66	498.53
475.84	393.21
476.02	435.34
476.20	369.80
476.38	437.68
476.56	458.74
476.74	428.32
476.92	414.27
477.10	435.34
477.28	402.57
477.46	470.45
477.64	395.55
477.82	414.27
478.00	421.30
478.18	416.62
478.36	409.59
478.54	435.34
478.72	440.02
478.90	433.00
479.08	365.12
479.26	414.27
479.44	397.89
479.62	416.62
479.80	372.15
479.98	404.91
480.16	411.93
480.34	423.64
480.52	454.06
480.70	435.34
480.88	397.89
481.06	315.97
481.24	421.30
481.41	475.13
481.59	425.98
481.77	437.68
481.95	435.34
482.13	416.62
482.31	435.34
482.49	451.72
482.67	358.10
482.85	416.62
483.03	404.91
483.21	402.57
483.39	423.64
483.57	369.80
483.74	428.32
483.92	437.68
484.10	449.38
484.28	472.79
484.46	400.23
484.64	442.36
484.82	444.70
485.00	358.10
485.18	425.98
485.35	409.59
485.53	337.04
485.71	400.23
485.89	416.62
486.07	397.89
486.25	456.40
486.43	402.57
486.61	430.66
486.78	461.09
486.96	369.80
487.14	400.23
487.32	369.80
487.50	456.40
487.68	461.09
487.85	372.15
488.03	423.64
488.21	435.34
488.39	489.17
488.57	440.02
488.75	395.55
488.92	564.07
489.10	416.62
489.28	358.10
489.46	458.74
489.64	440.02
489.81	381.51
489.99	376.83
490.17	362.78
490.35	477.47
490.53	435.34
490.70	411.93
490.88	414.27
491.06	383.85
491.24	465.77
491.41	402.57
491.59	421.30
491.77	402.57
491.95	337.04
492.13	358.10
492.30	390.87
492.48	475.13
492.66	341.72
492.84	414.27
493.01	358.10
493.19	386.19
493.37	367.46
493.54	425.98
493.72	400.23
493.90	433.00
494.08	400.23
494.25	479.81
494.43	386.19
494.61	451.72
494.79	388.53
494.96	404.91
495.14	351.08
495.32	388.53
495.49	435.34
495.67	372.15
495.85	430.66
496.02	353.42
496.20	421.30
496.38	449.38
496.55	404.91
496.73	393.21
496.91	477.47
497.09	482.15
497.26	332.36
497.44	428.32
497.62	407.25
497.79	447.04
497.97	430.66
498.14	390.87
498.32	479.81
498.50	411.93
498.67	390.87
498.85	414.27
499.03	409.59
499.20	397.89
499.38	367.46
499.56	454.06
499.73	425.98
499.91	482.15
500.08	376.83
500.26	386.19
500.44	381.51
500.61	395.55
500.79	421.30
500.97	486.83
501.14	440.02
501.32	430.66
501.49	454.06
501.67	372.15
501.84	470.45
502.02	341.72
502.20	388.53
502.37	475.13
502.55	414.27
502.72	409.59
502.90	362.78
503.07	383.85
503.25	440.02
503.43	411.93
503.60	470.45
503.78	388.53
503.95	379.17
504.13	423.64
504.30	351.08
504.48	423.64
504.65	369.80
504.83	447.04
505.01	418.96
505.18	287.89
505.36	447.04
505.53	463.43
505.71	402.57
505.88	425.98
506.06	395.55
506.23	409.59
506.41	360.44
506.58	428.32
506.76	423.64
506.93	463.43
507.11	491.51
507.28	421.30
507.46	362.78
507.63	440.02
507.81	442.36
507.98	402.57
508.16	390.87
508.33	414.27
508.50	421.30
508.68	402.57
508.85	402.57
509.03	337.04
509.20	397.89
509.38	393.21
509.55	428.32
509.73	386.19
509.90	428.32
510.08	388.53
510.25	407.25
510.42	433.00
510.60	425.98
510.77	449.38
510.95	411.93
511.12	362.78
511.30	428.32
511.47	369.80
511.64	514.92
511.82	540.66
511.99	430.66
512.17	369.80
512.34	411.93
512.51	411.93
512.69	390.87
512.86	383.85
513.04	454.06
513.21	362.78
513.38	351.08
513.56	428.32
513.73	433.00
513.90	355.76
514.08	306.61
514.25	414.27
514.43	367.46
514.60	355.76
514.77	437.68
514.95	395.55
515.12	433.00
515.29	390.87
515.47	407.25
515.64	346.40
515.81	428.32
515.99	379.17
516.16	346.40
516.33	465.77
516.51	418.96
516.68	369.80
516.85	440.02
517.03	397.89
517.20	383.85
517.37	465.77
517.54	425.98
517.72	404.91
517.89	461.09
518.06	533.64
518.24	421.30
518.41	423.64
518.58	372.15
518.75	451.72
518.93	430.66
519.10	414.27
519.27	425.98
519.45	416.62
519.62	421.30
519.79	416.62
519.96	421.30
520.14	374.49
520.31	456.40
520.48	435.34
520.65	423.64
520.83	475.13
521.00	395.55
521.17	411.93
521.34	411.93
521.52	437.68
521.69	449.38
521.86	393.21
522.03	482.15
522.20	458.74
522.38	402.57
522.55	456.40
522.72	409.59
522.89	430.66
523.07	416.62
523.24	404.91
523.41	430.66
523.58	386.19
523.75	449.38
523.92	400.23
524.10	437.68
524.27	411.93
524.44	404.91
524.61	507.90
524.78	379.17
524.96	416.62
525.13	416.62
525.30	486.83
525.47	411.93
525.64	465.77
525.81	386.19
525.98	393.21
526.16	458.74
526.33	372.15
526.50	386.19
526.67	433.00
526.84	444.70
527.01	409.59
527.18	449.38
527.36	423.64
527.53	470.45
527.70	479.81
527.87	404.91
528.04	458.74
528.21	449.38
528.38	407.25
528.55	454.06
528.72	425.98
528.89	400.23
529.07	418.96
529.24	372.15
529.41	423.64
529.58	444.70
529.75	407.25
529.92	442.36
530.09	447.04
530.26	463.43
530.43	402.57
530.60	348.74
530.77	367.46
530.94	489.17
531.11	451.72
531.28	414.27
531.46	393.21
531.63	402.57
531.80	414.27
531.97	449.38
532.14	437.68
532.31	433.00
532.48	531.30
532.65	416.62
532.82	374.49
532.99	311.29
533.16	416.62
533.33	416.62
533.50	416.62
533.67	395.55
533.84	470.45
534.01	454.06
534.18	428.32
534.35	461.09
534.52	423.64
534.69	447.04
534.86	369.80
535.03	433.00
535.20	390.87
535.37	475.13
535.54	442.36
535.71	327.68
535.88	489.17
536.05	421.30
536.22	414.27
536.38	365.12
536.55	409.59
536.72	421.30
536.89	407.25
537.06	491.51
537.23	418.96
537.40	451.72
537.57	379.17
537.74	454.06
537.91	418.96
538.08	360.44
538.25	503.22
538.42	395.55
538.59	386.19
538.75	379.17
538.92	423.64
539.09	430.66
539.26	369.80
539.43	440.02
539.60	444.70
539.77	393.21
539.94	390.87
540.11	355.76
540.28	454.06
540.44	433.00
540.61	376.83
540.78	407.25
540.95	428.32
541.12	451.72
541.29	388.53
541.46	421.30
541.62	447.04
541.79	440.02
541.96	425.98
542.13	463.43
542.30	418.96
542.47	416.62
542.63	381.51
542.80	414.27
542.97	430.66
543.14	383.85
543.31	428.32
543.48	393.21
543.64	395.55
543.81	428.32
543.98	390.87
544.15	433.00
544.32	367.46
544.48	362.78
544.65	421.30
544.82	386.19
544.99	341.72
545.16	468.11
545.32	440.02
545.49	376.83
545.66	397.89
545.83	411.93
546.00	428.32
546.16	376.83
546.33	440.02
546.50	433.00
546.67	477.47
546.83	456.40
547.00	423.64
547.17	369.80
547.34	437.68
547.50	468.11
547.67	395.55
547.84	390.87
548.00	388.53
548.17	404.91
548.34	423.64
548.51	416.62
548.67	440.02
548.84	442.36
549.01	437.68
549.18	353.42
549.34	393.21
549.51	454.06
549.68	435.34
549.84	423.64
550.01	379.17
550.18	411.93
550.34	400.23
550.51	421.30
550.68	463.43
550.84	369.80
551.01	395.55
551.18	409.59
551.34	388.53
551.51	402.57
551.68	351.08
551.84	416.62
552.01	381.51
552.18	423.64
552.34	365.12
552.51	447.04
552.68	400.23
552.84	440.02
553.01	479.81
553.18	428.32
553.34	386.19
553.51	360.44
553.67	351.08
553.84	491.51
554.01	433.00
554.17	433.00
554.34	409.59
554.51	404.91
554.67	437.68
554.84	390.87
555.00	407.25
555.17	358.10
555.33	475.13
555.50	442.36
555.67	482.15
555.83	330.02
556.00	454.06
556.16	545.34
556.33	360.44
556.50	479.81
556.66	374.49
556.83	402.57
556.99	414.27
557.16	433.00
557.32	423.64
557.49	355.76
557.65	425.98
557.82	386.19
557.98	437.68
558.15	425.98
558.32	393.21
558.48	416.62
558.65	423.64
558.81	437.68
558.98	416.62
559.14	437.68
559.31	367.46
559.47	461.09
559.64	402.57
559.80	400.23
559.97	407.25
560.13	395.55
560.30	430.66
560.46	400.23
560.63	456.40
560.79	418.96
560.96	477.47
561.12	383.85
561.29	477.47
561.45	358.10
561.61	330.02
561.78	528.96
561.94	444.70
562.11	458.74
562.27	407.25
562.44	479.81
562.60	421.30
562.77	421.30
562.93	482.15
563.10	376.83
563.26	447.04
563.42	442.36
563.59	414.27
563.75	425.98
563.92	451.72
564.08	440.02
564.24	411.93
564.41	531.30
564.57	400.23
564.74	430.66
564.90	430.66
565.07	411.93
565.23	397.89
565.39	454.06
565.56	465.77
565.72	376.83
565.88	489.17
566.05	402.57
566.21	414.27
566.38	447.04
566.54	395.55
566.70	465.77
566.87	400.23
567.03	402.57
567.19	339.38
567.36	512.58
567.52	442.36
567.68	402.57
567.85	416.62
568.01	393.21
568.17	355.76
568.34	318.31
568.50	484.49
568.66	423.64
568.83	507.90
568.99	376.83
569.15	458.74
569.32	379.17
569.48	407.25
569.64	435.34
569.81	407.25
569.97	463.43
570.13	409.59
570.30	484.49
570.46	388.53
570.62	423.64
570.78	404.91
570.95	416.62
571.11	533.64
571.27	404.91
571.43	451.72
571.60	418.96
571.76	456.40
571.92	393.21
572.09	435.34
572.25	416.62
572.41	360.44
572.57	423.64
572.74	461.09
572.90	416.62
573.06	376.83
573.22	381.51
573.38	442.36
573.55	479.81
573.71	447.04
573.87	416.62
574.03	393.21
574.20	397.89
574.36	458.74
574.52	442.36
574.68	402.57
574.84	390.87
575.01	395.55
575.17	477.47
575.33	496.19
575.49	479.81
575.65	433.00
575.82	416.62
575.98	454.06
576.14	421.30
576.30	379.17
576.46	395.55
576.62	468.11
576.79	449.38
576.95	437.68
577.11	369.80
577.27	376.83
577.43	524.28
577.59	489.17
577.75	493.85
577.92	400.23
578.08	404.91
578.24	418.96
578.40	458.74
578.56	409.59
578.72	414.27
578.88	383.85
579.04	390.87
579.21	470.45
579.37	425.98
579.53	386.19
579.69	376.83
579.85	374.49
580.01	491.51
580.17	444.70
580.33	461.09
580.49	425.98
580.65	442.36
580.82	442.36
580.98	402.57
581.14	423.64
581.30	472.79
581.46	365.12
581.62	421.30
581.78	444.70
581.94	451.72
582.10	435.34
582.26	351.08
582.42	407.25
582.58	458.74
582.74	433.00
582.90	437.68
583.06	479.81
583.22	407.25
583.38	435.34
583.54	369.80
583.70	486.83
583.86	404.91
584.02	393.21
584.18	423.64
584.34	416.62
584.50	400.23
584.66	418.96
584.82	315.97
584.98	400.23
585.14	425.98
585.30	433.00
585.46	376.83
585.62	402.57
585.78	407.25
585.94	442.36
586.10	388.53
586.26	393.21
586.42	477.47
586.58	369.80
586.74	395.55
586.90	433.00
587.06	348.74
587.22	442.36
587.38	376.83
587.54	428.32
587.70	444.70
587.86	409.59
588.02	365.12
588.18	482.15
588.34	437.68
588.49	437.68
588.65	447.04
588.81	442.36
588.97	430.66
589.13	486.83
589.29	411.93
589.45	421.30
589.61	447.04
589.77	437.68
589.93	442.36
590.08	468.11
590.24	355.76
590.40	388.53
590.56	463.43
590.72	470.45
590.88	376.83
591.04	451.72
591.20	395.55
591.35	397.89
591.51	381.51
591.67	386.19
591.83	379.17
591.99	505.56
592.15	433.00
592.31	568.75
592.46	376.83
592.62	390.87
592.78	386.19
592.94	369.80
593.10	397.89
593.26	393.21
593.41	421.30
593.57	374.49
593.73	423.64
593.89	435.34
594.05	404.91
594.20	372.15
594.36	407.25
594.52	395.55
594.68	454.06
594.84	367.46
594.99	393.21
595.15	442.36
595.31	407.25
595.47	437.68
595.62	379.17
595.78	409.59
595.94	383.85
596.10	409.59
596.25	395.55
596.41	440.02
596.57	407.25
596.73	397.89
596.88	428.32
597.04	440.02
597.20	369.80
597.36	411.93
597.51	484.49
597.67	461.09
597.83	503.22
597.99	402.57
598.14	400.23
598.30	407.25
598.46	444.70
598.61	416.62
598.77	386.19
598.93	416.62
599.09	444.70
599.24	351.08
599.40	416.62
599.56	458.74
599.71	463.43
599.87	390.87
600.03	388.53
600.18	367.46
600.34	390.87
600.50	430.66
600.65	402.57
600.81	449.38
600.97	442.36
601.12	358.10
601.28	428.32
601.44	348.74
601.59	383.85
601.75	421.30
601.91	479.81
602.06	425.98
602.22	442.36
602.37	400.23
602.53	386.19
602.69	435.34
602.84	388.53
603.00	442.36
603.16	465.77
603.31	428.32
603.47	491.51
603.62	463.43
603.78	418.96
603.94	428.32
604.09	484.49
604.25	465.77
604.40	468.11
604.56	433.00
604.71	454.06
604.87	498.53
605.03	395.55
605.18	404.91
605.34	482.15
605.49	435.34
605.65	362.78
605.80	414.27
605.96	379.17
606.12	386.19
606.27	458.74
606.43	395.55
606.58	379.17
606.74	379.17
606.89	381.51
607.05	383.85
607.20	400.23
607.36	477.47
607.51	440.02
607.67	397.89
607.82	444.70
607.98	383.85
608.13	381.51
608.29	332.36
608.44	353.42
608.60	407.25
608.75	418.96
608.91	482.15
609.06	435.34
609.22	458.74
609.37	437.68
609.53	414.27
609.68	461.09
609.84	416.62
609.99	407.25
610.15	404.91
