SpectraSuite Data File
++++++++++++++++++++++++++++++++++++
Date: Fri Oct 25 12:11:06 EDT 2013
User: price-jones
Dark Spectrum Present: No
Reference Spectrum Present: No
Number of Sampled Component Spectra: 1
Spectrometers: USB2+H05261
Integration Time (usec): 100000 (USB2+H05261)
Spectra Averaged: 1 (USB2+H05261)
Boxcar Smoothing: 0 (USB2+H05261)
Correct for Electrical Dark: No (USB2+H05261)
Strobe/Lamp Enabled: No (USB2+H05261)
Correct for Detector Non-linearity: No (USB2+H05261)
Correct for Stray Light: No (USB2+H05261)
Number of Pixels in Processed Spectrum: 2048
>>>>>Begin Processed Spectral Data<<<<<
365.73	346.40
365.92	346.40
366.12	346.40
366.32	294.91
366.52	224.69
366.72	243.42
366.91	269.16
367.11	203.63
367.31	201.29
367.51	229.37
367.70	175.54
367.90	248.10
368.10	191.92
368.30	266.82
368.49	215.33
368.69	337.04
368.89	299.59
369.09	308.95
369.28	252.78
369.48	262.14
369.68	283.20
369.87	287.89
370.07	283.20
370.27	348.74
370.47	276.18
370.66	278.52
370.86	355.76
371.06	332.36
371.25	454.06
371.45	304.27
371.65	414.27
371.84	318.31
372.04	409.59
372.24	458.74
372.44	435.34
372.63	388.53
372.83	435.34
373.03	372.15
373.22	409.59
373.42	421.30
373.62	402.57
373.81	383.85
374.01	440.02
374.21	435.34
374.40	374.49
374.60	442.36
374.79	421.30
374.99	437.68
375.19	379.17
375.38	376.83
375.58	414.27
375.78	510.24
375.97	416.62
376.17	444.70
376.37	433.00
376.56	404.91
376.76	468.11
376.95	416.62
377.15	437.68
377.35	472.79
377.54	482.15
377.74	463.43
377.93	433.00
378.13	358.10
378.33	407.25
378.52	456.40
378.72	367.46
378.91	435.34
379.11	381.51
379.31	386.19
379.50	395.55
379.70	437.68
379.89	395.55
380.09	402.57
380.28	330.02
380.48	407.25
380.68	362.78
380.87	360.44
381.07	372.15
381.26	414.27
381.46	433.00
381.65	440.02
381.85	442.36
382.04	404.91
382.24	470.45
382.43	386.19
382.63	348.74
382.83	449.38
383.02	444.70
383.22	430.66
383.41	318.31
383.61	461.09
383.80	451.72
384.00	463.43
384.19	379.17
384.39	440.02
384.58	386.19
384.78	421.30
384.97	365.12
385.17	383.85
385.36	430.66
385.56	430.66
385.75	421.30
385.95	430.66
386.14	414.27
386.34	362.78
386.53	454.06
386.72	421.30
386.92	402.57
387.11	397.89
387.31	416.62
387.50	414.27
387.70	423.64
387.89	418.96
388.09	367.46
388.28	369.80
388.48	421.30
388.67	367.46
388.86	393.21
389.06	411.93
389.25	442.36
389.45	390.87
389.64	437.68
389.84	360.44
390.03	447.04
390.22	444.70
390.42	360.44
390.61	360.44
390.81	390.87
391.00	418.96
391.19	465.77
391.39	416.62
391.58	383.85
391.78	433.00
391.97	369.80
392.16	407.25
392.36	393.21
392.55	407.25
392.75	393.21
392.94	386.19
393.13	383.85
393.33	383.85
393.52	395.55
393.71	386.19
393.91	444.70
394.10	386.19
394.29	437.68
394.49	379.17
394.68	407.25
394.88	416.62
395.07	411.93
395.26	440.02
395.46	465.77
395.65	449.38
395.84	454.06
396.04	414.27
396.23	442.36
396.42	421.30
396.62	362.78
396.81	421.30
397.00	379.17
397.19	440.02
397.39	397.89
397.58	433.00
397.77	337.04
397.97	435.34
398.16	273.84
398.35	435.34
398.55	397.89
398.74	404.91
398.93	444.70
399.12	411.93
399.32	407.25
399.51	433.00
399.70	388.53
399.90	470.45
400.09	458.74
400.28	416.62
400.47	411.93
400.67	449.38
400.86	374.49
401.05	397.89
401.24	510.24
401.44	383.85
401.63	348.74
401.82	433.00
402.01	388.53
402.21	421.30
402.40	400.23
402.59	358.10
402.78	355.76
402.97	440.02
403.17	435.34
403.36	404.91
403.55	454.06
403.74	393.21
403.93	402.57
404.13	390.87
404.32	372.15
404.51	404.91
404.70	397.89
404.89	311.29
405.09	409.59
405.28	362.78
405.47	463.43
405.66	486.83
405.85	379.17
406.05	444.70
406.24	355.76
406.43	421.30
406.62	365.12
406.81	376.83
407.00	468.11
407.20	400.23
407.39	423.64
407.58	425.98
407.77	409.59
407.96	393.21
408.15	444.70
408.34	456.40
408.54	437.68
408.73	425.98
408.92	449.38
409.11	463.43
409.30	386.19
409.49	341.72
409.68	411.93
409.87	416.62
410.07	381.51
410.26	421.30
410.45	411.93
410.64	390.87
410.83	433.00
411.02	411.93
411.21	428.32
411.40	334.70
411.59	407.25
411.78	414.27
411.98	365.12
412.17	449.38
412.36	409.59
412.55	428.32
412.74	367.46
412.93	425.98
413.12	442.36
413.31	376.83
413.50	425.98
413.69	435.34
413.88	430.66
414.07	435.34
414.26	404.91
414.45	372.15
414.64	395.55
414.83	433.00
415.02	351.08
415.22	479.81
415.41	383.85
415.60	421.30
415.79	433.00
415.98	470.45
416.17	341.72
416.36	358.10
416.55	407.25
416.74	418.96
416.93	402.57
417.12	404.91
417.31	437.68
417.50	449.38
417.69	500.87
417.88	463.43
418.07	407.25
418.26	407.25
418.45	524.28
418.64	411.93
418.83	416.62
419.02	437.68
419.21	418.96
419.39	379.17
419.58	437.68
419.77	414.27
419.96	416.62
420.15	418.96
420.34	414.27
420.53	411.93
420.72	416.62
420.91	425.98
421.10	381.51
421.29	351.08
421.48	400.23
421.67	374.49
421.86	477.47
422.05	463.43
422.24	411.93
422.43	444.70
422.61	449.38
422.80	404.91
422.99	440.02
423.18	390.87
423.37	433.00
423.56	369.80
423.75	442.36
423.94	388.53
424.13	425.98
424.32	397.89
424.50	440.02
424.69	477.47
424.88	454.06
425.07	397.89
425.26	395.55
425.45	400.23
425.64	416.62
425.83	360.44
426.01	411.93
426.20	390.87
426.39	402.57
426.58	404.91
426.77	458.74
426.96	397.89
427.15	454.06
427.33	397.89
427.52	461.09
427.71	500.87
427.90	435.34
428.09	383.85
428.28	472.79
428.46	388.53
428.65	407.25
428.84	390.87
429.03	416.62
429.22	402.57
429.40	423.64
429.59	470.45
429.78	334.70
429.97	421.30
430.16	440.02
430.34	374.49
430.53	400.23
430.72	400.23
430.91	454.06
431.10	358.10
431.28	397.89
431.47	395.55
431.66	421.30
431.85	404.91
432.03	383.85
432.22	440.02
432.41	440.02
432.60	411.93
432.79	421.30
432.97	397.89
433.16	383.85
433.35	454.06
433.54	444.70
433.72	444.70
433.91	461.09
434.10	416.62
434.28	393.21
434.47	374.49
434.66	458.74
434.85	388.53
435.03	404.91
435.22	423.64
435.41	437.68
435.59	374.49
435.78	404.91
435.97	381.51
436.16	447.04
436.34	472.79
436.53	388.53
436.72	454.06
436.90	355.76
437.09	423.64
437.28	360.44
437.46	449.38
437.65	470.45
437.84	395.55
438.02	470.45
438.21	390.87
438.40	386.19
438.58	393.21
438.77	386.19
438.96	418.96
439.14	414.27
439.33	475.13
439.52	372.15
439.70	404.91
439.89	404.91
440.08	383.85
440.26	372.15
440.45	451.72
440.63	400.23
440.82	404.91
441.01	376.83
441.19	360.44
441.38	463.43
441.57	404.91
441.75	437.68
441.94	500.87
442.12	454.06
442.31	454.06
442.50	418.96
442.68	477.47
442.87	381.51
443.05	376.83
443.24	400.23
443.43	386.19
443.61	411.93
443.80	482.15
443.98	393.21
444.17	386.19
444.35	456.40
444.54	461.09
444.73	437.68
444.91	451.72
445.10	402.57
445.28	442.36
445.47	418.96
445.65	451.72
445.84	407.25
446.02	393.21
446.21	369.80
446.39	367.46
446.58	435.34
446.77	433.00
446.95	400.23
447.14	402.57
447.32	421.30
447.51	379.17
447.69	372.15
447.88	461.09
448.06	404.91
448.25	353.42
448.43	386.19
448.62	386.19
448.80	390.87
448.99	423.64
449.17	477.47
449.36	376.83
449.54	456.40
449.73	407.25
449.91	414.27
450.10	369.80
450.28	451.72
450.46	461.09
450.65	437.68
450.83	388.53
451.02	414.27
451.20	423.64
451.39	437.68
451.57	435.34
451.76	421.30
451.94	437.68
452.13	444.70
452.31	437.68
452.49	461.09
452.68	444.70
452.86	437.68
453.05	463.43
453.23	454.06
453.42	390.87
453.60	428.32
453.78	379.17
453.97	386.19
454.15	433.00
454.34	386.19
454.52	400.23
454.70	447.04
454.89	423.64
455.07	404.91
455.26	421.30
455.44	500.87
455.62	444.70
455.81	461.09
455.99	372.15
456.17	425.98
456.36	372.15
456.54	435.34
456.73	411.93
456.91	395.55
457.09	383.85
457.28	435.34
457.46	388.53
457.64	395.55
457.83	517.26
458.01	390.87
458.19	346.40
458.38	444.70
458.56	414.27
458.74	475.13
458.93	332.36
459.11	388.53
459.29	407.25
459.48	383.85
459.66	491.51
459.84	454.06
460.03	507.90
460.21	447.04
460.39	444.70
460.57	444.70
460.76	409.59
460.94	374.49
461.12	484.49
461.31	372.15
461.49	322.99
461.67	390.87
461.85	423.64
462.04	433.00
462.22	786.42
462.40	425.98
462.59	351.08
462.77	442.36
462.95	376.83
463.13	414.27
463.32	402.57
463.50	397.89
463.68	355.76
463.86	358.10
464.05	376.83
464.23	461.09
464.41	440.02
464.59	358.10
464.78	341.72
464.96	416.62
465.14	437.68
465.32	414.27
465.50	442.36
465.69	451.72
465.87	358.10
466.05	395.55
466.23	433.00
466.41	383.85
466.60	404.91
466.78	428.32
466.96	386.19
467.14	423.64
467.32	386.19
467.51	400.23
467.69	414.27
467.87	463.43
468.05	348.74
468.23	454.06
468.41	416.62
468.60	428.32
468.78	397.89
468.96	463.43
469.14	465.77
469.32	397.89
469.50	423.64
469.69	395.55
469.87	407.25
470.05	458.74
470.23	451.72
470.41	362.78
470.59	454.06
470.77	423.64
470.95	393.21
471.14	444.70
471.32	484.49
471.50	383.85
471.68	386.19
471.86	428.32
472.04	400.23
472.22	447.04
472.40	402.57
472.58	447.04
472.77	425.98
472.95	435.34
473.13	470.45
473.31	421.30
473.49	442.36
473.67	454.06
473.85	449.38
474.03	425.98
474.21	440.02
474.39	444.70
474.57	449.38
474.75	360.44
474.93	433.00
475.12	395.55
475.30	519.60
475.48	409.59
475.66	414.27
475.84	400.23
476.02	395.55
476.20	430.66
476.38	404.91
476.56	463.43
476.74	411.93
476.92	365.12
477.10	341.72
477.28	465.77
477.46	407.25
477.64	456.40
477.82	390.87
478.00	411.93
478.18	362.78
478.36	423.64
478.54	479.81
478.72	337.04
478.90	367.46
479.08	369.80
479.26	489.17
479.44	486.83
479.62	463.43
479.80	447.04
479.98	444.70
480.16	425.98
480.34	465.77
480.52	465.77
480.70	381.51
480.88	411.93
481.06	409.59
481.24	458.74
481.41	407.25
481.59	411.93
481.77	397.89
481.95	393.21
482.13	465.77
482.31	442.36
482.49	433.00
482.67	407.25
482.85	463.43
483.03	355.76
483.21	482.15
483.39	425.98
483.57	458.74
483.74	393.21
483.92	379.17
484.10	409.59
484.28	430.66
484.46	552.37
484.64	447.04
484.82	381.51
485.00	463.43
485.18	416.62
485.35	397.89
485.53	425.98
485.71	337.04
485.89	386.19
486.07	397.89
486.25	465.77
486.43	428.32
486.61	383.85
486.78	388.53
486.96	416.62
487.14	409.59
487.32	332.36
487.50	402.57
487.68	365.12
487.85	470.45
488.03	400.23
488.21	409.59
488.39	458.74
488.57	430.66
488.75	355.76
488.92	533.64
489.10	397.89
489.28	421.30
489.46	327.68
489.64	440.02
489.81	437.68
489.99	411.93
490.17	353.42
490.35	374.49
490.53	388.53
490.70	409.59
490.88	482.15
491.06	463.43
491.24	388.53
491.41	505.56
491.59	414.27
491.77	360.44
491.95	341.72
492.13	421.30
492.30	374.49
492.48	451.72
492.66	433.00
492.84	414.27
493.01	444.70
493.19	355.76
493.37	365.12
493.54	407.25
493.72	454.06
493.90	383.85
494.08	430.66
494.25	437.68
494.43	353.42
494.61	465.77
494.79	390.87
494.96	416.62
495.14	390.87
495.32	390.87
495.49	409.59
495.67	379.17
495.85	421.30
496.02	348.74
496.20	411.93
496.38	477.47
496.55	369.80
496.73	435.34
496.91	500.87
497.09	383.85
497.26	425.98
497.44	465.77
497.62	430.66
497.79	428.32
497.97	404.91
498.14	418.96
498.32	416.62
498.50	395.55
498.67	477.47
498.85	393.21
499.03	449.38
499.20	358.10
499.38	397.89
499.56	444.70
499.73	444.70
499.91	339.38
500.08	390.87
500.26	379.17
500.44	397.89
500.61	433.00
500.79	360.44
500.97	369.80
501.14	451.72
501.32	433.00
501.49	411.93
501.67	358.10
501.84	442.36
502.02	411.93
502.20	454.06
502.37	444.70
502.55	416.62
502.72	411.93
502.90	397.89
503.07	433.00
503.25	395.55
503.43	346.40
503.60	372.15
503.78	442.36
503.95	425.98
504.13	393.21
504.30	463.43
504.48	393.21
504.65	407.25
504.83	421.30
505.01	369.80
505.18	414.27
505.36	458.74
505.53	425.98
505.71	484.49
505.88	449.38
506.06	425.98
506.23	451.72
506.41	404.91
506.58	463.43
506.76	428.32
506.93	451.72
507.11	423.64
507.28	390.87
507.46	360.44
507.63	430.66
507.81	372.15
507.98	411.93
508.16	341.72
508.33	468.11
508.50	456.40
508.68	397.89
508.85	414.27
509.03	421.30
509.20	395.55
509.38	315.97
509.55	428.32
509.73	421.30
509.90	409.59
510.08	454.06
510.25	421.30
510.42	414.27
510.60	423.64
510.77	369.80
510.95	379.17
511.12	388.53
511.30	400.23
511.47	440.02
511.64	451.72
511.82	397.89
511.99	379.17
512.17	344.06
512.34	428.32
512.51	461.09
512.69	381.51
512.86	465.77
513.04	388.53
513.21	428.32
513.38	393.21
513.56	418.96
513.73	386.19
513.90	362.78
514.08	339.38
514.25	374.49
514.43	428.32
514.60	330.02
514.77	409.59
514.95	430.66
515.12	402.57
515.29	388.53
515.47	386.19
515.64	416.62
515.81	444.70
515.99	444.70
516.16	411.93
516.33	463.43
516.51	430.66
516.68	440.02
516.85	409.59
517.03	451.72
517.20	454.06
517.37	390.87
517.54	451.72
517.72	425.98
517.89	458.74
518.06	437.68
518.24	463.43
518.41	353.42
518.58	479.81
518.75	409.59
518.93	425.98
519.10	407.25
519.27	390.87
519.45	414.27
519.62	423.64
519.79	468.11
519.96	444.70
520.14	449.38
520.31	451.72
520.48	381.51
520.65	383.85
520.83	404.91
521.00	402.57
521.17	386.19
521.34	430.66
521.52	339.38
521.69	449.38
521.86	423.64
522.03	381.51
522.20	411.93
522.38	393.21
522.55	477.47
522.72	327.68
522.89	414.27
523.07	456.40
523.24	500.87
523.41	407.25
523.58	458.74
523.75	435.34
523.92	383.85
524.10	351.08
524.27	358.10
524.44	360.44
524.61	428.32
524.78	379.17
524.96	437.68
525.13	477.47
525.30	440.02
525.47	447.04
525.64	428.32
525.81	369.80
525.98	454.06
526.16	421.30
526.33	402.57
526.50	402.57
526.67	440.02
526.84	355.76
527.01	428.32
527.18	404.91
527.36	454.06
527.53	437.68
527.70	388.53
527.87	430.66
528.04	454.06
528.21	458.74
528.38	402.57
528.55	454.06
528.72	465.77
528.89	477.47
529.07	402.57
529.24	451.72
529.41	433.00
529.58	449.38
529.75	423.64
529.92	507.90
530.09	416.62
530.26	447.04
530.43	376.83
530.60	402.57
530.77	416.62
530.94	463.43
531.11	449.38
531.28	407.25
531.46	421.30
531.63	369.80
531.80	472.79
531.97	468.11
532.14	479.81
532.31	433.00
532.48	353.42
532.65	381.51
532.82	470.45
532.99	425.98
533.16	369.80
533.33	470.45
533.50	397.89
533.67	369.80
533.84	411.93
534.01	461.09
534.18	430.66
534.35	442.36
534.52	407.25
534.69	334.70
534.86	482.15
535.03	411.93
535.20	444.70
535.37	388.53
535.54	433.00
535.71	435.34
535.88	400.23
536.05	423.64
536.22	404.91
536.38	428.32
536.55	421.30
536.72	409.59
536.89	458.74
537.06	409.59
537.23	369.80
537.40	514.92
537.57	416.62
537.74	472.79
537.91	390.87
538.08	421.30
538.25	383.85
538.42	423.64
538.59	407.25
538.75	414.27
538.92	442.36
539.09	418.96
539.26	433.00
539.43	468.11
539.60	440.02
539.77	416.62
539.94	421.30
540.11	442.36
540.28	423.64
540.44	449.38
540.61	421.30
540.78	421.30
540.95	400.23
541.12	423.64
541.29	404.91
541.46	369.80
541.62	418.96
541.79	449.38
541.96	402.57
542.13	472.79
542.30	397.89
542.47	425.98
542.63	416.62
542.80	449.38
542.97	472.79
543.14	355.76
543.31	449.38
543.48	463.43
543.64	463.43
543.81	407.25
543.98	365.12
544.15	418.96
544.32	388.53
544.48	409.59
544.65	393.21
544.82	418.96
544.99	409.59
545.16	454.06
545.32	458.74
545.49	397.89
545.66	402.57
545.83	395.55
546.00	421.30
546.16	435.34
546.33	421.30
546.50	407.25
546.67	470.45
546.83	411.93
547.00	463.43
547.17	440.02
547.34	393.21
547.50	395.55
547.67	386.19
547.84	425.98
548.00	390.87
548.17	444.70
548.34	381.51
548.51	465.77
548.67	477.47
548.84	402.57
549.01	433.00
549.18	484.49
549.34	500.87
549.51	409.59
549.68	411.93
549.84	440.02
550.01	421.30
550.18	418.96
550.34	503.22
550.51	423.64
550.68	496.19
550.84	444.70
551.01	339.38
551.18	381.51
551.34	346.40
551.51	397.89
551.68	341.72
551.84	538.32
552.01	369.80
552.18	404.91
552.34	468.11
552.51	393.21
552.68	418.96
552.84	449.38
553.01	416.62
553.18	430.66
553.34	451.72
553.51	409.59
553.67	456.40
553.84	456.40
554.01	348.74
554.17	383.85
554.34	386.19
554.51	404.91
554.67	451.72
554.84	458.74
555.00	365.12
555.17	444.70
555.33	402.57
555.50	320.65
555.67	458.74
555.83	458.74
556.00	430.66
556.16	552.37
556.33	486.83
556.50	442.36
556.66	397.89
556.83	341.72
556.99	447.04
557.16	395.55
557.32	468.11
557.49	397.89
557.65	458.74
557.82	379.17
557.98	454.06
558.15	379.17
558.32	390.87
558.48	451.72
558.65	367.46
558.81	449.38
558.98	395.55
559.14	395.55
559.31	416.62
559.47	463.43
559.64	404.91
559.80	318.31
559.97	435.34
560.13	346.40
560.30	381.51
560.46	402.57
560.63	442.36
560.79	463.43
560.96	341.72
561.12	402.57
561.29	517.26
561.45	454.06
561.61	465.77
561.78	344.06
561.94	425.98
562.11	437.68
562.27	381.51
562.44	379.17
562.60	381.51
562.77	465.77
562.93	437.68
563.10	346.40
563.26	348.74
563.42	334.70
563.59	433.00
563.75	423.64
563.92	428.32
564.08	461.09
564.24	465.77
564.41	425.98
564.57	447.04
564.74	395.55
564.90	397.89
565.07	421.30
565.23	411.93
565.39	393.21
565.56	442.36
565.72	383.85
565.88	444.70
566.05	425.98
566.21	433.00
566.38	440.02
566.54	458.74
566.70	468.11
566.87	428.32
567.03	435.34
567.19	428.32
567.36	421.30
567.52	386.19
567.68	479.81
567.85	339.38
568.01	468.11
568.17	418.96
568.34	414.27
568.50	442.36
568.66	383.85
568.83	463.43
568.99	360.44
569.15	498.53
569.32	433.00
569.48	400.23
569.64	465.77
569.81	407.25
569.97	402.57
570.13	470.45
570.30	355.76
570.46	437.68
570.62	433.00
570.78	470.45
570.95	444.70
571.11	458.74
571.27	468.11
571.43	400.23
571.60	435.34
571.76	402.57
571.92	395.55
572.09	465.77
572.25	447.04
572.41	404.91
572.57	442.36
572.74	475.13
572.90	390.87
573.06	423.64
573.22	423.64
573.38	423.64
573.55	442.36
573.71	430.66
573.87	444.70
574.03	411.93
574.20	383.85
574.36	503.22
574.52	449.38
574.68	400.23
574.84	374.49
575.01	416.62
575.17	463.43
575.33	365.12
575.49	402.57
575.65	409.59
575.82	404.91
575.98	367.46
576.14	327.68
576.30	433.00
576.46	393.21
576.62	456.40
576.79	374.49
576.95	498.53
577.11	447.04
577.27	435.34
577.43	425.98
577.59	416.62
577.75	397.89
577.92	496.19
578.08	491.51
578.24	383.85
578.40	430.66
578.56	503.22
578.72	512.58
578.88	433.00
579.04	402.57
579.21	397.89
579.37	479.81
579.53	381.51
579.69	486.83
579.85	355.76
580.01	444.70
580.17	416.62
580.33	423.64
580.49	414.27
580.65	430.66
580.82	479.81
580.98	365.12
581.14	458.74
581.30	423.64
581.46	365.12
581.62	421.30
581.78	447.04
581.94	416.62
582.10	362.78
582.26	409.59
582.42	409.59
582.58	486.83
582.74	414.27
582.90	435.34
583.06	348.74
583.22	489.17
583.38	379.17
583.54	430.66
583.70	416.62
583.86	449.38
584.02	435.34
584.18	472.79
584.34	379.17
584.50	383.85
584.66	421.30
584.82	353.42
584.98	372.15
585.14	440.02
585.30	423.64
585.46	500.87
585.62	491.51
585.78	433.00
585.94	458.74
586.10	409.59
586.26	451.72
586.42	514.92
586.58	433.00
586.74	447.04
586.90	437.68
587.06	435.34
587.22	451.72
587.38	330.02
587.54	332.36
587.70	414.27
587.86	379.17
588.02	437.68
588.18	437.68
588.34	444.70
588.49	454.06
588.65	449.38
588.81	407.25
588.97	437.68
589.13	423.64
589.29	353.42
589.45	374.49
589.61	409.59
589.77	430.66
589.93	365.12
590.08	404.91
590.24	388.53
590.40	423.64
590.56	409.59
590.72	400.23
590.88	397.89
591.04	414.27
591.20	393.21
591.35	444.70
591.51	374.49
591.67	383.85
591.83	416.62
591.99	447.04
592.15	437.68
592.31	418.96
592.46	404.91
592.62	299.59
592.78	430.66
592.94	425.98
593.10	397.89
593.26	486.83
593.41	416.62
593.57	416.62
593.73	407.25
593.89	404.91
594.05	397.89
594.20	369.80
594.36	379.17
594.52	407.25
594.68	407.25
594.84	435.34
594.99	428.32
595.15	393.21
595.31	475.13
595.47	433.00
595.62	463.43
595.78	447.04
595.94	404.91
596.10	454.06
596.25	390.87
596.41	463.43
596.57	397.89
596.73	440.02
596.88	454.06
597.04	421.30
597.20	407.25
597.36	435.34
597.51	395.55
597.67	367.46
597.83	444.70
597.99	465.77
598.14	428.32
598.30	482.15
598.46	404.91
598.61	397.89
598.77	414.27
598.93	447.04
599.09	414.27
599.24	367.46
599.40	425.98
599.56	376.83
599.71	451.72
599.87	393.21
600.03	437.68
600.18	407.25
600.34	402.57
600.50	395.55
600.65	395.55
600.81	374.49
600.97	362.78
601.12	454.06
601.28	470.45
601.44	414.27
601.59	458.74
601.75	404.91
601.91	437.68
602.06	390.87
602.22	454.06
602.37	393.21
602.53	411.93
602.69	341.72
602.84	442.36
603.00	400.23
603.16	388.53
603.31	395.55
603.47	423.64
603.62	428.32
603.78	353.42
603.94	402.57
604.09	386.19
604.25	428.32
604.40	442.36
604.56	430.66
604.71	430.66
604.87	418.96
605.03	437.68
605.18	332.36
605.34	442.36
605.49	388.53
605.65	379.17
605.80	365.12
605.96	397.89
606.12	388.53
606.27	388.53
606.43	440.02
606.58	362.78
606.74	496.19
606.89	421.30
607.05	411.93
607.20	435.34
607.36	437.68
607.51	379.17
607.67	404.91
607.82	404.91
607.98	372.15
608.13	407.25
608.29	505.56
608.44	428.32
608.60	496.19
608.75	379.17
608.91	425.98
609.06	491.51
609.22	416.62
609.37	433.00
609.53	395.55
609.68	400.23
609.84	379.17
609.99	395.55
610.15	400.23
