SpectraSuite Data File
++++++++++++++++++++++++++++++++++++
Date: Fri Oct 25 12:11:16 EDT 2013
User: price-jones
Dark Spectrum Present: No
Reference Spectrum Present: No
Number of Sampled Component Spectra: 1
Spectrometers: USB2+H05261
Integration Time (usec): 100000 (USB2+H05261)
Spectra Averaged: 1 (USB2+H05261)
Boxcar Smoothing: 0 (USB2+H05261)
Correct for Electrical Dark: No (USB2+H05261)
Strobe/Lamp Enabled: No (USB2+H05261)
Correct for Detector Non-linearity: No (USB2+H05261)
Correct for Stray Light: No (USB2+H05261)
Number of Pixels in Processed Spectrum: 2048
>>>>>Begin Processed Spectral Data<<<<<
365.73	318.31
365.92	318.31
366.12	318.31
366.32	269.16
366.52	170.86
366.72	252.78
366.91	280.86
367.11	259.80
367.31	198.95
367.51	299.59
367.70	173.20
367.90	220.01
368.10	271.50
368.30	236.39
368.49	201.29
368.69	229.37
368.89	287.89
369.09	262.14
369.28	236.39
369.48	294.91
369.68	292.57
369.87	320.65
370.07	266.82
370.27	315.97
370.47	351.08
370.66	322.99
370.86	339.38
371.06	383.85
371.25	346.40
371.45	407.25
371.65	381.51
371.84	365.12
372.04	372.15
372.24	339.38
372.44	376.83
372.63	402.57
372.83	388.53
373.03	365.12
373.22	388.53
373.42	395.55
373.62	435.34
373.81	393.21
374.01	416.62
374.21	400.23
374.40	402.57
374.60	414.27
374.79	458.74
374.99	507.90
375.19	472.79
375.38	479.81
375.58	430.66
375.78	449.38
375.97	442.36
376.17	498.53
376.37	404.91
376.56	400.23
376.76	404.91
376.95	379.17
377.15	390.87
377.35	435.34
377.54	433.00
377.74	395.55
377.93	433.00
378.13	440.02
378.33	397.89
378.52	442.36
378.72	423.64
378.91	411.93
379.11	402.57
379.31	421.30
379.50	379.17
379.70	465.77
379.89	421.30
380.09	388.53
380.28	425.98
380.48	383.85
380.68	381.51
380.87	348.74
381.07	355.76
381.26	430.66
381.46	423.64
381.65	451.72
381.85	411.93
382.04	376.83
382.24	414.27
382.43	414.27
382.63	397.89
382.83	383.85
383.02	411.93
383.22	444.70
383.41	416.62
383.61	407.25
383.80	416.62
384.00	468.11
384.19	369.80
384.39	456.40
384.58	425.98
384.78	313.63
384.97	360.44
385.17	430.66
385.36	358.10
385.56	407.25
385.75	430.66
385.95	468.11
386.14	372.15
386.34	433.00
386.53	463.43
386.72	379.17
386.92	397.89
387.11	465.77
387.31	416.62
387.50	411.93
387.70	421.30
387.89	433.00
388.09	414.27
388.28	365.12
388.48	393.21
388.67	395.55
388.86	358.10
389.06	388.53
389.25	447.04
389.45	442.36
389.64	423.64
389.84	505.56
390.03	381.51
390.22	444.70
390.42	477.47
390.61	367.46
390.81	428.32
391.00	395.55
391.19	388.53
391.39	332.36
391.58	451.72
391.78	404.91
391.97	320.65
392.16	397.89
392.36	444.70
392.55	456.40
392.75	407.25
392.94	428.32
393.13	447.04
393.33	381.51
393.52	447.04
393.71	372.15
393.91	397.89
394.10	374.49
394.29	425.98
394.49	348.74
394.68	414.27
394.88	468.11
395.07	486.83
395.26	386.19
395.46	416.62
395.65	430.66
395.84	414.27
396.04	447.04
396.23	407.25
396.42	411.93
396.62	430.66
396.81	454.06
397.00	341.72
397.19	447.04
397.39	365.12
397.58	440.02
397.77	393.21
397.97	362.78
398.16	440.02
398.35	390.87
398.55	339.38
398.74	393.21
398.93	402.57
399.12	411.93
399.32	411.93
399.51	393.21
399.70	404.91
399.90	407.25
400.09	360.44
400.28	379.17
400.47	433.00
400.67	421.30
400.86	369.80
401.05	418.96
401.24	470.45
401.44	428.32
401.63	381.51
401.82	458.74
402.01	423.64
402.21	388.53
402.40	322.99
402.59	421.30
402.78	322.99
402.97	454.06
403.17	397.89
403.36	418.96
403.55	362.78
403.74	402.57
403.93	388.53
404.13	421.30
404.32	379.17
404.51	344.06
404.70	407.25
404.89	423.64
405.09	355.76
405.28	393.21
405.47	358.10
405.66	348.74
405.85	381.51
406.05	393.21
406.24	365.12
406.43	351.08
406.62	498.53
406.81	425.98
407.00	414.27
407.20	451.72
407.39	404.91
407.58	404.91
407.77	468.11
407.96	444.70
408.15	449.38
408.34	456.40
408.54	341.72
408.73	404.91
408.92	404.91
409.11	482.15
409.30	397.89
409.49	461.09
409.68	367.46
409.87	414.27
410.07	397.89
410.26	477.47
410.45	379.17
410.64	442.36
410.83	386.19
411.02	332.36
411.21	425.98
411.40	454.06
411.59	362.78
411.78	374.49
411.98	395.55
412.17	451.72
412.36	379.17
412.55	367.46
412.74	456.40
412.93	407.25
413.12	360.44
413.31	397.89
413.50	444.70
413.69	472.79
413.88	447.04
414.07	421.30
414.26	400.23
414.45	397.89
414.64	440.02
414.83	383.85
415.02	390.87
415.22	402.57
415.41	418.96
415.60	461.09
415.79	402.57
415.98	477.47
416.17	437.68
416.36	477.47
416.55	367.46
416.74	437.68
416.93	337.04
417.12	461.09
417.31	390.87
417.50	470.45
417.69	435.34
417.88	320.65
418.07	318.31
418.26	470.45
418.45	374.49
418.64	372.15
418.83	299.59
419.02	393.21
419.21	395.55
419.39	433.00
419.58	423.64
419.77	369.80
419.96	407.25
420.15	409.59
420.34	388.53
420.53	409.59
420.72	437.68
420.91	433.00
421.10	416.62
421.29	440.02
421.48	451.72
421.67	386.19
421.86	451.72
422.05	362.78
422.24	402.57
422.43	461.09
422.61	444.70
422.80	421.30
422.99	472.79
423.18	372.15
423.37	397.89
423.56	388.53
423.75	388.53
423.94	440.02
424.13	414.27
424.32	489.17
424.50	421.30
424.69	362.78
424.88	444.70
425.07	404.91
425.26	397.89
425.45	451.72
425.64	379.17
425.83	393.21
426.01	402.57
426.20	397.89
426.39	479.81
426.58	383.85
426.77	346.40
426.96	353.42
427.15	411.93
427.33	428.32
427.52	337.04
427.71	393.21
427.90	425.98
428.09	383.85
428.28	442.36
428.46	407.25
428.65	433.00
428.84	360.44
429.03	442.36
429.22	400.23
429.40	423.64
429.59	348.74
429.78	498.53
429.97	449.38
430.16	416.62
430.34	346.40
430.53	442.36
430.72	339.38
430.91	365.12
431.10	407.25
431.28	353.42
431.47	430.66
431.66	451.72
431.85	414.27
432.03	458.74
432.22	486.83
432.41	430.66
432.60	360.44
432.79	430.66
432.97	421.30
433.16	447.04
433.35	393.21
433.54	425.98
433.72	402.57
433.91	374.49
434.10	393.21
434.28	428.32
434.47	395.55
434.66	442.36
434.85	351.08
435.03	409.59
435.22	421.30
435.41	428.32
435.59	433.00
435.78	409.59
435.97	425.98
436.16	386.19
436.34	372.15
436.53	414.27
436.72	421.30
436.90	383.85
437.09	444.70
437.28	416.62
437.46	437.68
437.65	493.85
437.84	397.89
438.02	430.66
438.21	414.27
438.40	404.91
438.58	376.83
438.77	390.87
438.96	411.93
439.14	390.87
439.33	444.70
439.52	351.08
439.70	334.70
439.89	393.21
440.08	404.91
440.26	493.85
440.45	489.17
440.63	433.00
440.82	381.51
441.01	367.46
441.19	374.49
441.38	430.66
441.57	362.78
441.75	407.25
441.94	465.77
442.12	322.99
442.31	402.57
442.50	423.64
442.68	383.85
442.87	489.17
443.05	360.44
443.24	355.76
443.43	451.72
443.61	479.81
443.80	444.70
443.98	454.06
444.17	402.57
444.35	449.38
444.54	435.34
444.73	388.53
444.91	449.38
445.10	348.74
445.28	428.32
445.47	374.49
445.65	433.00
445.84	454.06
446.02	400.23
446.21	458.74
446.39	442.36
446.58	486.83
446.77	418.96
446.95	423.64
447.14	463.43
447.32	447.04
447.51	463.43
447.69	437.68
447.88	388.53
448.06	414.27
448.25	402.57
448.43	407.25
448.62	437.68
448.80	402.57
448.99	430.66
449.17	477.47
449.36	458.74
449.54	423.64
449.73	407.25
449.91	414.27
450.10	416.62
450.28	374.49
450.46	418.96
450.65	409.59
450.83	433.00
451.02	418.96
451.20	435.34
451.39	425.98
451.57	423.64
451.76	449.38
451.94	393.21
452.13	395.55
452.31	442.36
452.49	425.98
452.68	449.38
452.86	437.68
453.05	418.96
453.23	337.04
453.42	440.02
453.60	475.13
453.78	353.42
453.97	390.87
454.15	376.83
454.34	449.38
454.52	393.21
454.70	425.98
454.89	447.04
455.07	423.64
455.26	379.17
455.44	484.49
455.62	425.98
455.81	395.55
455.99	404.91
456.17	465.77
456.36	449.38
456.54	381.51
456.73	360.44
456.91	418.96
457.09	418.96
457.28	358.10
457.46	386.19
457.64	423.64
457.83	393.21
458.01	418.96
458.19	430.66
458.38	418.96
458.56	388.53
458.74	299.59
458.93	444.70
459.11	489.17
459.29	447.04
459.48	374.49
459.66	369.80
459.84	428.32
460.03	496.19
460.21	390.87
460.39	381.51
460.57	433.00
460.76	454.06
460.94	437.68
461.12	404.91
461.31	496.19
461.49	376.83
461.67	404.91
461.85	407.25
462.04	404.91
462.22	709.18
462.40	388.53
462.59	404.91
462.77	376.83
462.95	393.21
463.13	395.55
463.32	463.43
463.50	437.68
463.68	376.83
463.86	397.89
464.05	428.32
464.23	498.53
464.41	425.98
464.59	449.38
464.78	465.77
464.96	425.98
465.14	444.70
465.32	386.19
465.50	393.21
465.69	381.51
465.87	379.17
466.05	388.53
466.23	390.87
466.41	444.70
466.60	402.57
466.78	351.08
466.96	475.13
467.14	390.87
467.32	425.98
467.51	463.43
467.69	489.17
467.87	472.79
468.05	395.55
468.23	372.15
468.41	390.87
468.60	365.12
468.78	409.59
468.96	449.38
469.14	390.87
469.32	409.59
469.50	400.23
469.69	503.22
469.87	393.21
470.05	407.25
470.23	395.55
470.41	418.96
470.59	454.06
470.77	421.30
470.95	362.78
471.14	444.70
471.32	407.25
471.50	423.64
471.68	341.72
471.86	386.19
472.04	397.89
472.22	404.91
472.40	388.53
472.58	442.36
472.77	468.11
472.95	379.17
473.13	435.34
473.31	397.89
473.49	360.44
473.67	418.96
473.85	390.87
474.03	425.98
474.21	411.93
474.39	510.24
474.57	472.79
474.75	407.25
474.93	383.85
475.12	360.44
475.30	362.78
475.48	440.02
475.66	404.91
475.84	407.25
476.02	430.66
476.20	421.30
476.38	435.34
476.56	461.09
476.74	444.70
476.92	428.32
477.10	390.87
477.28	423.64
477.46	367.46
477.64	402.57
477.82	397.89
478.00	411.93
478.18	435.34
478.36	442.36
478.54	404.91
478.72	456.40
478.90	449.38
479.08	388.53
479.26	442.36
479.44	451.72
479.62	456.40
479.80	447.04
479.98	442.36
480.16	395.55
480.34	409.59
480.52	418.96
480.70	414.27
480.88	472.79
481.06	458.74
481.24	376.83
481.41	402.57
481.59	447.04
481.77	449.38
481.95	411.93
482.13	358.10
482.31	423.64
482.49	456.40
482.67	395.55
482.85	418.96
483.03	400.23
483.21	451.72
483.39	395.55
483.57	344.06
483.74	367.46
483.92	393.21
484.10	430.66
484.28	447.04
484.46	442.36
484.64	402.57
484.82	407.25
485.00	430.66
485.18	390.87
485.35	379.17
485.53	437.68
485.71	402.57
485.89	400.23
486.07	451.72
486.25	482.15
486.43	407.25
486.61	463.43
486.78	418.96
486.96	362.78
487.14	411.93
487.32	421.30
487.50	411.93
487.68	407.25
487.85	409.59
488.03	411.93
488.21	437.68
488.39	372.15
488.57	421.30
488.75	433.00
488.92	449.38
489.10	393.21
489.28	437.68
489.46	433.00
489.64	416.62
489.81	388.53
489.99	397.89
490.17	458.74
490.35	465.77
490.53	449.38
490.70	402.57
490.88	383.85
491.06	416.62
491.24	360.44
491.41	491.51
491.59	451.72
491.77	409.59
491.95	433.00
492.13	365.12
492.30	454.06
492.48	428.32
492.66	451.72
492.84	332.36
493.01	376.83
493.19	414.27
493.37	393.21
493.54	411.93
493.72	437.68
493.90	404.91
494.08	369.80
494.25	374.49
494.43	388.53
494.61	449.38
494.79	404.91
494.96	402.57
495.14	477.47
495.32	430.66
495.49	407.25
495.67	418.96
495.85	435.34
496.02	409.59
496.20	451.72
496.38	468.11
496.55	449.38
496.73	458.74
496.91	388.53
497.09	379.17
497.26	428.32
497.44	404.91
497.62	456.40
497.79	440.02
497.97	496.19
498.14	320.65
498.32	437.68
498.50	425.98
498.67	395.55
498.85	393.21
499.03	404.91
499.20	421.30
499.38	428.32
499.56	423.64
499.73	414.27
499.91	414.27
500.08	430.66
500.26	444.70
500.44	411.93
500.61	409.59
500.79	458.74
500.97	484.49
501.14	395.55
501.32	435.34
501.49	421.30
501.67	346.40
501.84	425.98
502.02	315.97
502.20	456.40
502.37	393.21
502.55	402.57
502.72	433.00
502.90	435.34
503.07	374.49
503.25	465.77
503.43	456.40
503.60	465.77
503.78	451.72
503.95	393.21
504.13	444.70
504.30	463.43
504.48	451.72
504.65	435.34
504.83	454.06
505.01	369.80
505.18	458.74
505.36	425.98
505.53	498.53
505.71	411.93
505.88	395.55
506.06	482.15
506.23	386.19
506.41	428.32
506.58	437.68
506.76	423.64
506.93	388.53
507.11	449.38
507.28	463.43
507.46	402.57
507.63	449.38
507.81	416.62
507.98	468.11
508.16	512.58
508.33	351.08
508.50	433.00
508.68	477.47
508.85	482.15
509.03	421.30
509.20	414.27
509.38	414.27
509.55	425.98
509.73	423.64
509.90	409.59
510.08	388.53
510.25	447.04
510.42	423.64
510.60	442.36
510.77	416.62
510.95	491.51
511.12	404.91
511.30	404.91
511.47	355.76
511.64	388.53
511.82	440.02
511.99	433.00
512.17	381.51
512.34	395.55
512.51	463.43
512.69	369.80
512.86	451.72
513.04	435.34
513.21	428.32
513.38	435.34
513.56	411.93
513.73	397.89
513.90	475.13
514.08	407.25
514.25	383.85
514.43	376.83
514.60	374.49
514.77	456.40
514.95	376.83
515.12	411.93
515.29	465.77
515.47	372.15
515.64	390.87
515.81	367.46
515.99	416.62
516.16	442.36
516.33	472.79
516.51	388.53
516.68	390.87
516.85	416.62
517.03	482.15
517.20	418.96
517.37	421.30
517.54	433.00
517.72	449.38
517.89	386.19
518.06	344.06
518.24	425.98
518.41	428.32
518.58	491.51
518.75	365.12
518.93	423.64
519.10	442.36
519.27	386.19
519.45	454.06
519.62	409.59
519.79	372.15
519.96	383.85
520.14	383.85
520.31	407.25
520.48	341.72
520.65	351.08
520.83	381.51
521.00	430.66
521.17	444.70
521.34	388.53
521.52	442.36
521.69	390.87
521.86	411.93
522.03	395.55
522.20	416.62
522.38	400.23
522.55	418.96
522.72	423.64
522.89	369.80
523.07	472.79
523.24	458.74
523.41	376.83
523.58	411.93
523.75	440.02
523.92	379.17
524.10	463.43
524.27	386.19
524.44	433.00
524.61	475.13
524.78	444.70
524.96	423.64
525.13	437.68
525.30	411.93
525.47	444.70
525.64	346.40
525.81	475.13
525.98	440.02
526.16	482.15
526.33	393.21
526.50	435.34
526.67	409.59
526.84	397.89
527.01	421.30
527.18	482.15
527.36	423.64
527.53	416.62
527.70	440.02
527.87	428.32
528.04	393.21
528.21	458.74
528.38	353.42
528.55	400.23
528.72	414.27
528.89	472.79
529.07	397.89
529.24	437.68
529.41	433.00
529.58	327.68
529.75	369.80
529.92	381.51
530.09	477.47
530.26	486.83
530.43	479.81
530.60	477.47
530.77	337.04
530.94	397.89
531.11	442.36
531.28	430.66
531.46	416.62
531.63	433.00
531.80	507.90
531.97	451.72
532.14	381.51
532.31	407.25
532.48	407.25
532.65	351.08
532.82	472.79
532.99	463.43
533.16	327.68
533.33	425.98
533.50	484.49
533.67	449.38
533.84	463.43
534.01	491.51
534.18	423.64
534.35	397.89
534.52	458.74
534.69	454.06
534.86	416.62
535.03	351.08
535.20	351.08
535.37	376.83
535.54	369.80
535.71	444.70
535.88	386.19
536.05	404.91
536.22	400.23
536.38	484.49
536.55	376.83
536.72	418.96
536.89	433.00
537.06	372.15
537.23	393.21
537.40	388.53
537.57	435.34
537.74	442.36
537.91	393.21
538.08	421.30
538.25	344.06
538.42	381.51
538.59	486.83
538.75	374.49
538.92	418.96
539.09	451.72
539.26	444.70
539.43	484.49
539.60	400.23
539.77	421.30
539.94	435.34
540.11	442.36
540.28	454.06
540.44	416.62
540.61	327.68
540.78	447.04
540.95	430.66
541.12	442.36
541.29	428.32
541.46	437.68
541.62	461.09
541.79	395.55
541.96	463.43
542.13	435.34
542.30	402.57
542.47	355.76
542.63	409.59
542.80	390.87
542.97	425.98
543.14	376.83
543.31	411.93
543.48	428.32
543.64	372.15
543.81	402.57
543.98	374.49
544.15	442.36
544.32	458.74
544.48	425.98
544.65	430.66
544.82	414.27
544.99	397.89
545.16	411.93
545.32	449.38
545.49	416.62
545.66	451.72
545.83	379.17
546.00	320.65
546.16	428.32
546.33	376.83
546.50	437.68
546.67	442.36
546.83	461.09
547.00	416.62
547.17	425.98
547.34	416.62
547.50	376.83
547.67	374.49
547.84	402.57
548.00	440.02
548.17	362.78
548.34	376.83
548.51	470.45
548.67	362.78
548.84	379.17
549.01	470.45
549.18	414.27
549.34	348.74
549.51	475.13
549.68	388.53
549.84	512.58
550.01	407.25
550.18	498.53
550.34	421.30
550.51	379.17
550.68	454.06
550.84	442.36
551.01	402.57
551.18	395.55
551.34	444.70
551.51	337.04
551.68	381.51
551.84	463.43
552.01	454.06
552.18	440.02
552.34	393.21
552.51	454.06
552.68	407.25
552.84	409.59
553.01	425.98
553.18	423.64
553.34	416.62
553.51	458.74
553.67	409.59
553.84	353.42
554.01	402.57
554.17	369.80
554.34	409.59
554.51	388.53
554.67	402.57
554.84	472.79
555.00	505.56
555.17	507.90
555.33	461.09
555.50	414.27
555.67	407.25
555.83	423.64
556.00	395.55
556.16	491.51
556.33	472.79
556.50	365.12
556.66	423.64
556.83	381.51
556.99	433.00
557.16	418.96
557.32	404.91
557.49	433.00
557.65	411.93
557.82	402.57
557.98	390.87
558.15	400.23
558.32	449.38
558.48	477.47
558.65	388.53
558.81	372.15
558.98	365.12
559.14	400.23
559.31	402.57
559.47	409.59
559.64	344.06
559.80	383.85
559.97	470.45
560.13	362.78
560.30	395.55
560.46	395.55
560.63	414.27
560.79	430.66
560.96	388.53
561.12	369.80
561.29	381.51
561.45	468.11
561.61	388.53
561.78	433.00
561.94	327.68
562.11	341.72
562.27	430.66
562.44	362.78
562.60	435.34
562.77	414.27
562.93	477.47
563.10	411.93
563.26	400.23
563.42	428.32
563.59	376.83
563.75	381.51
563.92	367.46
564.08	463.43
564.24	416.62
564.41	463.43
564.57	425.98
564.74	383.85
564.90	400.23
565.07	470.45
565.23	486.83
565.39	421.30
565.56	447.04
565.72	376.83
565.88	372.15
566.05	362.78
566.21	423.64
566.38	482.15
566.54	395.55
566.70	395.55
566.87	407.25
567.03	386.19
567.19	451.72
567.36	477.47
567.52	407.25
567.68	433.00
567.85	393.21
568.01	374.49
568.17	400.23
568.34	390.87
568.50	416.62
568.66	344.06
568.83	435.34
568.99	365.12
569.15	489.17
569.32	402.57
569.48	418.96
569.64	416.62
569.81	454.06
569.97	383.85
570.13	475.13
570.30	414.27
570.46	388.53
570.62	423.64
570.78	372.15
570.95	442.36
571.11	472.79
571.27	400.23
571.43	409.59
571.60	369.80
571.76	348.74
571.92	397.89
572.09	465.77
572.25	421.30
572.41	421.30
572.57	416.62
572.74	444.70
572.90	402.57
573.06	456.40
573.22	433.00
573.38	449.38
573.55	397.89
573.71	484.49
573.87	404.91
574.03	409.59
574.20	425.98
574.36	393.21
574.52	409.59
574.68	395.55
574.84	341.72
575.01	348.74
575.17	454.06
575.33	390.87
575.49	388.53
575.65	440.02
575.82	428.32
575.98	388.53
576.14	463.43
576.30	428.32
576.46	475.13
576.62	421.30
576.79	409.59
576.95	425.98
577.11	449.38
577.27	388.53
577.43	470.45
577.59	442.36
577.75	442.36
577.92	479.81
578.08	465.77
578.24	407.25
578.40	423.64
578.56	482.15
578.72	367.46
578.88	442.36
579.04	404.91
579.21	433.00
579.37	383.85
579.53	486.83
579.69	388.53
579.85	414.27
580.01	386.19
580.17	388.53
580.33	425.98
580.49	430.66
580.65	433.00
580.82	472.79
580.98	353.42
581.14	414.27
581.30	435.34
581.46	463.43
581.62	484.49
581.78	418.96
581.94	388.53
582.10	461.09
582.26	414.27
582.42	402.57
582.58	409.59
582.74	437.68
582.90	425.98
583.06	393.21
583.22	447.04
583.38	397.89
583.54	404.91
583.70	369.80
583.86	379.17
584.02	470.45
584.18	430.66
584.34	320.65
584.50	449.38
584.66	388.53
584.82	463.43
584.98	425.98
585.14	463.43
585.30	449.38
585.46	475.13
585.62	395.55
585.78	416.62
585.94	337.04
586.10	428.32
586.26	428.32
586.42	418.96
586.58	491.51
586.74	416.62
586.90	351.08
587.06	325.33
587.22	414.27
587.38	381.51
587.54	409.59
587.70	456.40
587.86	374.49
588.02	421.30
588.18	498.53
588.34	454.06
588.49	388.53
588.65	416.62
588.81	402.57
588.97	393.21
589.13	456.40
589.29	365.12
589.45	428.32
589.61	472.79
589.77	404.91
589.93	395.55
590.08	332.36
590.24	397.89
590.40	367.46
590.56	416.62
590.72	425.98
590.88	423.64
591.04	428.32
591.20	416.62
591.35	489.17
591.51	451.72
591.67	430.66
591.83	418.96
591.99	423.64
592.15	449.38
592.31	386.19
592.46	416.62
592.62	428.32
592.78	383.85
592.94	367.46
593.10	341.72
593.26	397.89
593.41	482.15
593.57	414.27
593.73	376.83
593.89	421.30
594.05	411.93
594.20	425.98
594.36	461.09
594.52	404.91
594.68	400.23
594.84	440.02
594.99	458.74
595.15	454.06
595.31	395.55
595.47	428.32
595.62	430.66
595.78	353.42
595.94	442.36
596.10	407.25
596.25	409.59
596.41	479.81
596.57	414.27
596.73	442.36
596.88	442.36
597.04	365.12
597.20	330.02
597.36	404.91
597.51	353.42
597.67	425.98
597.83	395.55
597.99	486.83
598.14	433.00
598.30	444.70
598.46	416.62
598.61	395.55
598.77	447.04
598.93	397.89
599.09	322.99
599.24	433.00
599.40	418.96
599.56	330.02
599.71	425.98
599.87	358.10
600.03	404.91
600.18	435.34
600.34	449.38
600.50	414.27
600.65	407.25
600.81	517.26
600.97	402.57
601.12	372.15
601.28	482.15
601.44	451.72
601.59	440.02
601.75	365.12
601.91	348.74
602.06	367.46
602.22	503.22
602.37	416.62
602.53	442.36
602.69	397.89
602.84	402.57
603.00	425.98
603.16	456.40
603.31	418.96
603.47	372.15
603.62	348.74
603.78	374.49
603.94	337.04
604.09	374.49
604.25	442.36
604.40	428.32
604.56	440.02
604.71	355.76
604.87	428.32
605.03	435.34
605.18	407.25
605.34	411.93
605.49	369.80
605.65	346.40
605.80	409.59
605.96	416.62
606.12	416.62
606.27	421.30
606.43	393.21
606.58	433.00
606.74	393.21
606.89	456.40
607.05	489.17
607.20	440.02
607.36	463.43
607.51	402.57
607.67	447.04
607.82	416.62
607.98	414.27
608.13	430.66
608.29	437.68
608.44	442.36
608.60	449.38
608.75	411.93
608.91	477.47
609.06	440.02
609.22	397.89
609.37	428.32
609.53	440.02
609.68	454.06
609.84	463.43
609.99	383.85
610.15	491.51
