SpectraSuite Data File
++++++++++++++++++++++++++++++++++++
Date: Fri Oct 25 12:11:43 EDT 2013
User: price-jones
Dark Spectrum Present: No
Reference Spectrum Present: No
Number of Sampled Component Spectra: 1
Spectrometers: USB2+H05261
Integration Time (usec): 100000 (USB2+H05261)
Spectra Averaged: 1 (USB2+H05261)
Boxcar Smoothing: 0 (USB2+H05261)
Correct for Electrical Dark: No (USB2+H05261)
Strobe/Lamp Enabled: No (USB2+H05261)
Correct for Detector Non-linearity: No (USB2+H05261)
Correct for Stray Light: No (USB2+H05261)
Number of Pixels in Processed Spectrum: 2048
>>>>>Begin Processed Spectral Data<<<<<
365.73	315.97
365.92	315.97
366.12	315.97
366.32	283.20
366.52	259.80
366.72	243.42
366.91	257.46
367.11	220.01
367.31	182.56
367.51	241.08
367.70	187.24
367.90	236.39
368.10	255.12
368.30	231.71
368.49	194.26
368.69	224.69
368.89	264.48
369.09	290.23
369.28	297.25
369.48	266.82
369.68	262.14
369.87	283.20
370.07	266.82
370.27	423.64
370.47	306.61
370.66	271.50
370.86	334.70
371.06	376.83
371.25	402.57
371.45	395.55
371.65	372.15
371.84	348.74
372.04	346.40
372.24	414.27
372.44	372.15
372.63	376.83
372.83	437.68
373.03	339.38
373.22	472.79
373.42	346.40
373.62	428.32
373.81	381.51
374.01	468.11
374.21	463.43
374.40	400.23
374.60	425.98
374.79	353.42
374.99	376.83
375.19	421.30
375.38	468.11
375.58	444.70
375.78	374.49
375.97	440.02
376.17	493.85
376.37	496.19
376.56	383.85
376.76	395.55
376.95	428.32
377.15	411.93
377.35	381.51
377.54	386.19
377.74	374.49
377.93	374.49
378.13	369.80
378.33	383.85
378.52	383.85
378.72	418.96
378.91	393.21
379.11	348.74
379.31	472.79
379.50	379.17
379.70	430.66
379.89	416.62
380.09	416.62
380.28	372.15
380.48	292.57
380.68	334.70
380.87	404.91
381.07	332.36
381.26	521.94
381.46	390.87
381.65	425.98
381.85	362.78
382.04	358.10
382.24	414.27
382.43	358.10
382.63	400.23
382.83	397.89
383.02	454.06
383.22	428.32
383.41	355.76
383.61	414.27
383.80	404.91
384.00	388.53
384.19	341.72
384.39	397.89
384.58	442.36
384.78	404.91
384.97	433.00
385.17	407.25
385.36	386.19
385.56	407.25
385.75	409.59
385.95	346.40
386.14	393.21
386.34	341.72
386.53	433.00
386.72	421.30
386.92	416.62
387.11	447.04
387.31	393.21
387.50	407.25
387.70	390.87
387.89	433.00
388.09	395.55
388.28	416.62
388.48	421.30
388.67	496.19
388.86	369.80
389.06	409.59
389.25	365.12
389.45	430.66
389.64	463.43
389.84	411.93
390.03	433.00
390.22	337.04
390.42	393.21
390.61	372.15
390.81	367.46
391.00	358.10
391.19	425.98
391.39	470.45
391.58	402.57
391.78	360.44
391.97	369.80
392.16	407.25
392.36	416.62
392.55	400.23
392.75	463.43
392.94	414.27
393.13	390.87
393.33	362.78
393.52	372.15
393.71	407.25
393.91	421.30
394.10	374.49
394.29	362.78
394.49	358.10
394.68	440.02
394.88	486.83
395.07	416.62
395.26	407.25
395.46	451.72
395.65	344.06
395.84	442.36
396.04	491.51
396.23	435.34
396.42	456.40
396.62	393.21
396.81	484.49
397.00	409.59
397.19	496.19
397.39	369.80
397.58	425.98
397.77	423.64
397.97	451.72
398.16	411.93
398.35	409.59
398.55	451.72
398.74	442.36
398.93	414.27
399.12	374.49
399.32	411.93
399.51	393.21
399.70	388.53
399.90	379.17
400.09	344.06
400.28	393.21
400.47	404.91
400.67	416.62
400.86	470.45
401.05	430.66
401.24	416.62
401.44	437.68
401.63	449.38
401.82	374.49
402.01	402.57
402.21	409.59
402.40	416.62
402.59	376.83
402.78	388.53
402.97	416.62
403.17	458.74
403.36	437.68
403.55	489.17
403.74	416.62
403.93	414.27
404.13	423.64
404.32	358.10
404.51	425.98
404.70	433.00
404.89	418.96
405.09	425.98
405.28	421.30
405.47	437.68
405.66	449.38
405.85	458.74
406.05	409.59
406.24	465.77
406.43	489.17
406.62	383.85
406.81	470.45
407.00	423.64
407.20	379.17
407.39	416.62
407.58	414.27
407.77	463.43
407.96	447.04
408.15	386.19
408.34	433.00
408.54	444.70
408.73	395.55
408.92	397.89
409.11	449.38
409.30	407.25
409.49	388.53
409.68	440.02
409.87	404.91
410.07	397.89
410.26	372.15
410.45	355.76
410.64	397.89
410.83	423.64
411.02	360.44
411.21	411.93
411.40	435.34
411.59	437.68
411.78	416.62
411.98	470.45
412.17	440.02
412.36	437.68
412.55	414.27
412.74	442.36
412.93	451.72
413.12	358.10
413.31	437.68
413.50	465.77
413.69	461.09
413.88	463.43
414.07	468.11
414.26	393.21
414.45	367.46
414.64	374.49
414.83	477.47
415.02	337.04
415.22	386.19
415.41	463.43
415.60	390.87
415.79	404.91
415.98	414.27
416.17	292.57
416.36	400.23
416.55	407.25
416.74	421.30
416.93	379.17
417.12	411.93
417.31	400.23
417.50	402.57
417.69	435.34
417.88	383.85
418.07	423.64
418.26	383.85
418.45	435.34
418.64	395.55
418.83	388.53
419.02	390.87
419.21	461.09
419.39	477.47
419.58	386.19
419.77	383.85
419.96	428.32
420.15	535.98
420.34	425.98
420.53	407.25
420.72	414.27
420.91	440.02
421.10	367.46
421.29	447.04
421.48	479.81
421.67	433.00
421.86	416.62
422.05	447.04
422.24	477.47
422.43	393.21
422.61	404.91
422.80	437.68
422.99	388.53
423.18	411.93
423.37	458.74
423.56	491.51
423.75	425.98
423.94	404.91
424.13	437.68
424.32	393.21
424.50	449.38
424.69	411.93
424.88	451.72
425.07	332.36
425.26	475.13
425.45	308.95
425.64	376.83
425.83	390.87
426.01	411.93
426.20	416.62
426.39	407.25
426.58	388.53
426.77	374.49
426.96	442.36
427.15	447.04
427.33	360.44
427.52	372.15
427.71	404.91
427.90	372.15
428.09	341.72
428.28	395.55
428.46	386.19
428.65	433.00
428.84	458.74
429.03	463.43
429.22	456.40
429.40	390.87
429.59	465.77
429.78	451.72
429.97	325.33
430.16	386.19
430.34	390.87
430.53	416.62
430.72	440.02
430.91	428.32
431.10	367.46
431.28	421.30
431.47	416.62
431.66	402.57
431.85	456.40
432.03	381.51
432.22	507.90
432.41	383.85
432.60	381.51
432.79	379.17
432.97	339.38
433.16	390.87
433.35	451.72
433.54	369.80
433.72	421.30
433.91	440.02
434.10	395.55
434.28	390.87
434.47	374.49
434.66	358.10
434.85	442.36
435.03	400.23
435.22	365.12
435.41	451.72
435.59	486.83
435.78	475.13
435.97	418.96
436.16	458.74
436.34	433.00
436.53	393.21
436.72	418.96
436.90	404.91
437.09	435.34
437.28	374.49
437.46	358.10
437.65	500.87
437.84	348.74
438.02	421.30
438.21	400.23
438.40	447.04
438.58	365.12
438.77	421.30
438.96	372.15
439.14	367.46
439.33	416.62
439.52	372.15
439.70	461.09
439.89	458.74
440.08	362.78
440.26	458.74
440.45	395.55
440.63	449.38
440.82	383.85
441.01	418.96
441.19	423.64
441.38	383.85
441.57	437.68
441.75	430.66
441.94	489.17
442.12	437.68
442.31	397.89
442.50	472.79
442.68	320.65
442.87	395.55
443.05	411.93
443.24	372.15
443.43	404.91
443.61	440.02
443.80	423.64
443.98	390.87
444.17	376.83
444.35	425.98
444.54	358.10
444.73	423.64
444.91	433.00
445.10	423.64
445.28	374.49
445.47	341.72
445.65	397.89
445.84	479.81
446.02	409.59
446.21	383.85
446.39	395.55
446.58	421.30
446.77	451.72
446.95	421.30
447.14	367.46
447.32	433.00
447.51	379.17
447.69	404.91
447.88	458.74
448.06	404.91
448.25	381.51
448.43	407.25
448.62	390.87
448.80	397.89
448.99	461.09
449.17	348.74
449.36	355.76
449.54	451.72
449.73	437.68
449.91	383.85
450.10	414.27
450.28	433.00
450.46	489.17
450.65	372.15
450.83	451.72
451.02	395.55
451.20	440.02
451.39	402.57
451.57	374.49
451.76	430.66
451.94	362.78
452.13	390.87
452.31	433.00
452.49	458.74
452.68	428.32
452.86	367.46
453.05	379.17
453.23	465.77
453.42	381.51
453.60	447.04
453.78	435.34
453.97	313.63
454.15	397.89
454.34	421.30
454.52	374.49
454.70	500.87
454.89	376.83
455.07	374.49
455.26	465.77
455.44	407.25
455.62	374.49
455.81	496.19
455.99	416.62
456.17	402.57
456.36	416.62
456.54	428.32
456.73	458.74
456.91	390.87
457.09	428.32
457.28	397.89
457.46	379.17
457.64	411.93
457.83	440.02
458.01	433.00
458.19	465.77
458.38	430.66
458.56	477.47
458.74	423.64
458.93	372.15
459.11	390.87
459.29	435.34
459.48	365.12
459.66	444.70
459.84	482.15
460.03	479.81
460.21	404.91
460.39	397.89
460.57	470.45
460.76	397.89
460.94	386.19
461.12	454.06
461.31	475.13
461.49	428.32
461.67	358.10
461.85	379.17
462.04	407.25
462.22	798.12
462.40	411.93
462.59	411.93
462.77	376.83
462.95	433.00
463.13	400.23
463.32	374.49
463.50	433.00
463.68	407.25
463.86	348.74
464.05	456.40
464.23	475.13
464.41	454.06
464.59	397.89
464.78	353.42
464.96	402.57
465.14	461.09
465.32	461.09
465.50	437.68
465.69	418.96
465.87	397.89
466.05	425.98
466.23	449.38
466.41	449.38
466.60	456.40
466.78	404.91
466.96	442.36
467.14	397.89
467.32	355.76
467.51	409.59
467.69	447.04
467.87	463.43
468.05	472.79
468.23	475.13
468.41	414.27
468.60	435.34
468.78	407.25
468.96	454.06
469.14	409.59
469.32	383.85
469.50	407.25
469.69	437.68
469.87	395.55
470.05	430.66
470.23	407.25
470.41	388.53
470.59	416.62
470.77	414.27
470.95	444.70
471.14	428.32
471.32	339.38
471.50	472.79
471.68	444.70
471.86	386.19
472.04	362.78
472.22	407.25
472.40	440.02
472.58	383.85
472.77	454.06
472.95	365.12
473.13	526.62
473.31	383.85
473.49	418.96
473.67	428.32
473.85	402.57
474.03	388.53
474.21	463.43
474.39	440.02
474.57	414.27
474.75	386.19
474.93	388.53
475.12	369.80
475.30	383.85
475.48	409.59
475.66	430.66
475.84	421.30
476.02	376.83
476.20	386.19
476.38	428.32
476.56	503.22
476.74	437.68
476.92	379.17
477.10	486.83
477.28	404.91
477.46	362.78
477.64	374.49
477.82	397.89
478.00	400.23
478.18	367.46
478.36	449.38
478.54	428.32
478.72	428.32
478.90	351.08
479.08	411.93
479.26	407.25
479.44	454.06
479.62	433.00
479.80	381.51
479.98	390.87
480.16	341.72
480.34	423.64
480.52	393.21
480.70	416.62
480.88	456.40
481.06	311.29
481.24	414.27
481.41	461.09
481.59	409.59
481.77	400.23
481.95	404.91
482.13	456.40
482.31	449.38
482.49	435.34
482.67	437.68
482.85	454.06
483.03	374.49
483.21	411.93
483.39	449.38
483.57	409.59
483.74	454.06
483.92	435.34
484.10	463.43
484.28	430.66
484.46	470.45
484.64	435.34
484.82	451.72
485.00	393.21
485.18	409.59
485.35	470.45
485.53	355.76
485.71	456.40
485.89	395.55
486.07	322.99
486.25	397.89
486.43	386.19
486.61	433.00
486.78	440.02
486.96	430.66
487.14	447.04
487.32	463.43
487.50	395.55
487.68	433.00
487.85	372.15
488.03	416.62
488.21	440.02
488.39	444.70
488.57	454.06
488.75	369.80
488.92	468.11
489.10	397.89
489.28	386.19
489.46	411.93
489.64	395.55
489.81	433.00
489.99	491.51
490.17	411.93
490.35	491.51
490.53	468.11
490.70	390.87
490.88	463.43
491.06	383.85
491.24	411.93
491.41	433.00
491.59	461.09
491.77	461.09
491.95	355.76
492.13	430.66
492.30	388.53
492.48	409.59
492.66	430.66
492.84	440.02
493.01	393.21
493.19	435.34
493.37	435.34
493.54	472.79
493.72	395.55
493.90	381.51
494.08	418.96
494.25	414.27
494.43	428.32
494.61	407.25
494.79	421.30
494.96	374.49
495.14	479.81
495.32	414.27
495.49	421.30
495.67	454.06
495.85	414.27
496.02	395.55
496.20	428.32
496.38	437.68
496.55	463.43
496.73	447.04
496.91	390.87
497.09	402.57
497.26	395.55
497.44	402.57
497.62	369.80
497.79	421.30
497.97	465.77
498.14	374.49
498.32	440.02
498.50	358.10
498.67	404.91
498.85	416.62
499.03	442.36
499.20	451.72
499.38	411.93
499.56	421.30
499.73	414.27
499.91	463.43
500.08	477.47
500.26	351.08
500.44	433.00
500.61	400.23
500.79	451.72
500.97	425.98
501.14	411.93
501.32	386.19
501.49	421.30
501.67	404.91
501.84	414.27
502.02	458.74
502.20	425.98
502.37	458.74
502.55	444.70
502.72	482.15
502.90	442.36
503.07	409.59
503.25	440.02
503.43	379.17
503.60	362.78
503.78	456.40
503.95	404.91
504.13	365.12
504.30	454.06
504.48	393.21
504.65	444.70
504.83	470.45
505.01	358.10
505.18	386.19
505.36	379.17
505.53	395.55
505.71	409.59
505.88	418.96
506.06	472.79
506.23	409.59
506.41	376.83
506.58	451.72
506.76	418.96
506.93	477.47
507.11	440.02
507.28	444.70
507.46	407.25
507.63	400.23
507.81	416.62
507.98	442.36
508.16	454.06
508.33	379.17
508.50	458.74
508.68	465.77
508.85	475.13
509.03	414.27
509.20	414.27
509.38	428.32
509.55	395.55
509.73	433.00
509.90	400.23
510.08	437.68
510.25	365.12
510.42	416.62
510.60	409.59
510.77	425.98
510.95	390.87
511.12	395.55
511.30	393.21
511.47	430.66
511.64	425.98
511.82	423.64
511.99	543.00
512.17	409.59
512.34	404.91
512.51	400.23
512.69	423.64
512.86	393.21
513.04	381.51
513.21	402.57
513.38	409.59
513.56	433.00
513.73	379.17
513.90	372.15
514.08	414.27
514.25	482.15
514.43	489.17
514.60	374.49
514.77	376.83
514.95	416.62
515.12	475.13
515.29	447.04
515.47	447.04
515.64	374.49
515.81	477.47
515.99	440.02
516.16	458.74
516.33	414.27
516.51	472.79
516.68	400.23
516.85	369.80
517.03	447.04
517.20	372.15
517.37	388.53
517.54	425.98
517.72	454.06
517.89	463.43
518.06	489.17
518.24	475.13
518.41	449.38
518.58	435.34
518.75	386.19
518.93	449.38
519.10	470.45
519.27	416.62
519.45	376.83
519.62	348.74
519.79	365.12
519.96	416.62
520.14	360.44
520.31	463.43
520.48	344.06
520.65	367.46
520.83	390.87
521.00	437.68
521.17	409.59
521.34	393.21
521.52	414.27
521.69	418.96
521.86	433.00
522.03	449.38
522.20	451.72
522.38	351.08
522.55	407.25
522.72	409.59
522.89	433.00
523.07	416.62
523.24	465.77
523.41	404.91
523.58	430.66
523.75	440.02
523.92	465.77
524.10	437.68
524.27	440.02
524.44	442.36
524.61	376.83
524.78	404.91
524.96	425.98
525.13	351.08
525.30	425.98
525.47	444.70
525.64	409.59
525.81	430.66
525.98	397.89
526.16	400.23
526.33	362.78
526.50	390.87
526.67	411.93
526.84	344.06
527.01	376.83
527.18	472.79
527.36	409.59
527.53	409.59
527.70	435.34
527.87	409.59
528.04	388.53
528.21	414.27
528.38	477.47
528.55	418.96
528.72	442.36
528.89	475.13
529.07	397.89
529.24	468.11
529.41	444.70
529.58	461.09
529.75	397.89
529.92	461.09
530.09	414.27
530.26	397.89
530.43	442.36
530.60	416.62
530.77	355.76
530.94	353.42
531.11	449.38
531.28	409.59
531.46	470.45
531.63	402.57
531.80	376.83
531.97	386.19
532.14	407.25
532.31	322.99
532.48	451.72
532.65	433.00
532.82	395.55
532.99	461.09
533.16	334.70
533.33	351.08
533.50	465.77
533.67	395.55
533.84	423.64
534.01	400.23
534.18	468.11
534.35	400.23
534.52	440.02
534.69	400.23
534.86	449.38
535.03	332.36
535.20	418.96
535.37	463.43
535.54	444.70
535.71	430.66
535.88	477.47
536.05	390.87
536.22	442.36
536.38	430.66
536.55	358.10
536.72	423.64
536.89	489.17
537.06	479.81
537.23	402.57
537.40	388.53
537.57	337.04
537.74	456.40
537.91	423.64
538.08	376.83
538.25	386.19
538.42	379.17
538.59	407.25
538.75	372.15
538.92	458.74
539.09	440.02
539.26	388.53
539.43	484.49
539.60	472.79
539.77	425.98
539.94	407.25
540.11	461.09
540.28	475.13
540.44	428.32
540.61	430.66
540.78	414.27
540.95	421.30
541.12	440.02
541.29	327.68
541.46	482.15
541.62	421.30
541.79	402.57
541.96	369.80
542.13	411.93
542.30	470.45
542.47	472.79
542.63	440.02
542.80	409.59
542.97	442.36
543.14	435.34
543.31	482.15
543.48	482.15
543.64	428.32
543.81	418.96
543.98	404.91
544.15	374.49
544.32	442.36
544.48	421.30
544.65	440.02
544.82	365.12
544.99	479.81
545.16	425.98
545.32	400.23
545.49	435.34
545.66	451.72
545.83	409.59
546.00	381.51
546.16	402.57
546.33	409.59
546.50	407.25
546.67	456.40
546.83	433.00
547.00	435.34
547.17	437.68
547.34	430.66
547.50	404.91
547.67	444.70
547.84	435.34
548.00	330.02
548.17	404.91
548.34	390.87
548.51	374.49
548.67	493.85
548.84	423.64
549.01	353.42
549.18	430.66
549.34	496.19
549.51	510.24
549.68	461.09
549.84	423.64
550.01	365.12
550.18	482.15
550.34	472.79
550.51	463.43
550.68	491.51
550.84	449.38
551.01	400.23
551.18	411.93
551.34	440.02
551.51	381.51
551.68	463.43
551.84	360.44
552.01	402.57
552.18	447.04
552.34	449.38
552.51	397.89
552.68	374.49
552.84	402.57
553.01	372.15
553.18	388.53
553.34	395.55
553.51	440.02
553.67	393.21
553.84	423.64
554.01	447.04
554.17	407.25
554.34	442.36
554.51	411.93
554.67	433.00
554.84	451.72
555.00	458.74
555.17	404.91
555.33	430.66
555.50	411.93
555.67	449.38
555.83	376.83
556.00	440.02
556.16	545.34
556.33	435.34
556.50	425.98
556.66	477.47
556.83	435.34
556.99	404.91
557.16	397.89
557.32	362.78
557.49	435.34
557.65	442.36
557.82	482.15
557.98	435.34
558.15	367.46
558.32	358.10
558.48	402.57
558.65	358.10
558.81	433.00
558.98	379.17
559.14	521.94
559.31	477.47
559.47	479.81
559.64	344.06
559.80	367.46
559.97	344.06
560.13	433.00
560.30	374.49
560.46	465.77
560.63	407.25
560.79	418.96
560.96	376.83
561.12	477.47
561.29	505.56
561.45	383.85
561.61	414.27
561.78	545.34
561.94	421.30
562.11	409.59
562.27	454.06
562.44	468.11
562.60	374.49
562.77	393.21
562.93	458.74
563.10	386.19
563.26	456.40
563.42	409.59
563.59	414.27
563.75	440.02
563.92	463.43
564.08	440.02
564.24	393.21
564.41	468.11
564.57	393.21
564.74	433.00
564.90	430.66
565.07	440.02
565.23	552.37
565.39	447.04
565.56	489.17
565.72	416.62
565.88	402.57
566.05	395.55
566.21	463.43
566.38	428.32
566.54	358.10
566.70	444.70
566.87	334.70
567.03	346.40
567.19	393.21
567.36	472.79
567.52	383.85
567.68	421.30
567.85	465.77
568.01	409.59
568.17	423.64
568.34	449.38
568.50	416.62
568.66	381.51
568.83	461.09
568.99	344.06
569.15	454.06
569.32	393.21
569.48	456.40
569.64	468.11
569.81	498.53
569.97	456.40
570.13	491.51
570.30	397.89
570.46	402.57
570.62	407.25
570.78	442.36
570.95	423.64
571.11	425.98
571.27	372.15
571.43	437.68
571.60	374.49
571.76	381.51
571.92	369.80
572.09	421.30
572.25	430.66
572.41	362.78
572.57	376.83
572.74	451.72
572.90	362.78
573.06	374.49
573.22	468.11
573.38	367.46
573.55	510.24
573.71	444.70
573.87	425.98
574.03	430.66
574.20	433.00
574.36	397.89
574.52	325.33
574.68	458.74
574.84	477.47
575.01	447.04
575.17	512.58
575.33	437.68
575.49	440.02
575.65	411.93
575.82	400.23
575.98	390.87
576.14	451.72
576.30	449.38
576.46	416.62
576.62	411.93
576.79	435.34
576.95	470.45
577.11	421.30
577.27	454.06
577.43	442.36
577.59	484.49
577.75	451.72
577.92	444.70
578.08	428.32
578.24	470.45
578.40	393.21
578.56	458.74
578.72	458.74
578.88	463.43
579.04	381.51
579.21	428.32
579.37	383.85
579.53	351.08
579.69	519.60
579.85	358.10
580.01	454.06
580.17	414.27
580.33	479.81
580.49	447.04
580.65	519.60
580.82	416.62
580.98	425.98
581.14	451.72
581.30	479.81
581.46	440.02
581.62	425.98
581.78	486.83
581.94	451.72
582.10	484.49
582.26	421.30
582.42	409.59
582.58	470.45
582.74	468.11
582.90	397.89
583.06	411.93
583.22	437.68
583.38	362.78
583.54	379.17
583.70	465.77
583.86	442.36
584.02	437.68
584.18	437.68
584.34	475.13
584.50	484.49
584.66	444.70
584.82	425.98
584.98	421.30
585.14	369.80
585.30	444.70
585.46	390.87
585.62	379.17
585.78	416.62
585.94	411.93
586.10	409.59
586.26	437.68
586.42	479.81
586.58	435.34
586.74	430.66
586.90	437.68
587.06	388.53
587.22	397.89
587.38	414.27
587.54	390.87
587.70	444.70
587.86	393.21
588.02	386.19
588.18	414.27
588.34	449.38
588.49	334.70
588.65	463.43
588.81	416.62
588.97	400.23
589.13	418.96
589.29	461.09
589.45	379.17
589.61	395.55
589.77	451.72
589.93	440.02
590.08	414.27
590.24	528.96
590.40	367.46
590.56	454.06
590.72	430.66
590.88	374.49
591.04	400.23
591.20	425.98
591.35	468.11
591.51	475.13
591.67	383.85
591.83	388.53
591.99	365.12
592.15	435.34
592.31	482.15
592.46	388.53
592.62	437.68
592.78	390.87
592.94	437.68
593.10	414.27
593.26	341.72
593.41	402.57
593.57	444.70
593.73	393.21
593.89	486.83
594.05	430.66
594.20	440.02
594.36	454.06
594.52	372.15
594.68	388.53
594.84	433.00
594.99	447.04
595.15	381.51
595.31	388.53
595.47	428.32
595.62	479.81
595.78	430.66
595.94	465.77
596.10	465.77
596.25	465.77
596.41	407.25
596.57	362.78
596.73	395.55
596.88	348.74
597.04	259.80
597.20	381.51
597.36	482.15
597.51	409.59
597.67	330.02
597.83	411.93
597.99	402.57
598.14	416.62
598.30	395.55
598.46	416.62
598.61	365.12
598.77	388.53
598.93	435.34
599.09	423.64
599.24	475.13
599.40	461.09
599.56	397.89
599.71	390.87
599.87	449.38
600.03	425.98
600.18	402.57
600.34	435.34
600.50	393.21
600.65	411.93
600.81	393.21
600.97	433.00
601.12	444.70
601.28	404.91
601.44	365.12
601.59	390.87
601.75	477.47
601.91	454.06
602.06	397.89
602.22	425.98
602.37	348.74
602.53	423.64
602.69	409.59
602.84	421.30
603.00	414.27
603.16	428.32
603.31	430.66
603.47	355.76
603.62	386.19
603.78	376.83
603.94	416.62
604.09	409.59
604.25	468.11
604.40	482.15
604.56	381.51
604.71	428.32
604.87	444.70
605.03	479.81
605.18	430.66
605.34	463.43
605.49	395.55
605.65	411.93
605.80	383.85
605.96	465.77
606.12	463.43
606.27	451.72
606.43	369.80
606.58	341.72
606.74	360.44
606.89	409.59
607.05	447.04
607.20	409.59
607.36	386.19
607.51	435.34
607.67	397.89
607.82	416.62
607.98	440.02
608.13	449.38
608.29	372.15
608.44	423.64
608.60	437.68
608.75	447.04
608.91	379.17
609.06	468.11
609.22	484.49
609.37	404.91
609.53	322.99
609.68	414.27
609.84	348.74
609.99	346.40
610.15	421.30
