SpectraSuite Data File
++++++++++++++++++++++++++++++++++++
Date: Fri Oct 25 12:11:16 EDT 2013
User: price-jones
Dark Spectrum Present: No
Reference Spectrum Present: No
Number of Sampled Component Spectra: 1
Spectrometers: USB2+H05261
Integration Time (usec): 100000 (USB2+H05261)
Spectra Averaged: 1 (USB2+H05261)
Boxcar Smoothing: 0 (USB2+H05261)
Correct for Electrical Dark: No (USB2+H05261)
Strobe/Lamp Enabled: No (USB2+H05261)
Correct for Detector Non-linearity: No (USB2+H05261)
Correct for Stray Light: No (USB2+H05261)
Number of Pixels in Processed Spectrum: 2048
>>>>>Begin Processed Spectral Data<<<<<
365.73	334.70
365.92	334.70
366.12	334.70
366.32	313.63
366.52	245.76
366.72	175.54
366.91	222.35
367.11	212.99
367.31	210.65
367.51	257.46
367.70	243.42
367.90	220.01
368.10	173.20
368.30	191.92
368.49	224.69
368.69	220.01
368.89	273.84
369.09	227.03
369.28	276.18
369.48	278.52
369.68	348.74
369.87	292.57
370.07	381.51
370.27	313.63
370.47	367.46
370.66	351.08
370.86	374.49
371.06	353.42
371.25	365.12
371.45	360.44
371.65	404.91
371.84	327.68
372.04	344.06
372.24	376.83
372.44	360.44
372.63	407.25
372.83	397.89
373.03	416.62
373.22	437.68
373.42	421.30
373.62	386.19
373.81	374.49
374.01	505.56
374.21	491.51
374.40	461.09
374.60	402.57
374.79	369.80
374.99	339.38
375.19	437.68
375.38	379.17
375.58	393.21
375.78	379.17
375.97	505.56
376.17	496.19
376.37	383.85
376.56	451.72
376.76	388.53
376.95	463.43
377.15	491.51
377.35	414.27
377.54	355.76
377.74	360.44
377.93	402.57
378.13	447.04
378.33	381.51
378.52	404.91
378.72	447.04
378.91	411.93
379.11	421.30
379.31	418.96
379.50	456.40
379.70	337.04
379.89	351.08
380.09	344.06
380.28	411.93
380.48	337.04
380.68	475.13
380.87	407.25
381.07	402.57
381.26	461.09
381.46	390.87
381.65	388.53
381.85	433.00
382.04	397.89
382.24	358.10
382.43	425.98
382.63	362.78
382.83	365.12
383.02	454.06
383.22	395.55
383.41	440.02
383.61	468.11
383.80	456.40
384.00	369.80
384.19	458.74
384.39	447.04
384.58	484.49
384.78	416.62
384.97	440.02
385.17	376.83
385.36	437.68
385.56	416.62
385.75	383.85
385.95	425.98
386.14	440.02
386.34	468.11
386.53	482.15
386.72	409.59
386.92	397.89
387.11	386.19
387.31	397.89
387.50	395.55
387.70	353.42
387.89	425.98
388.09	388.53
388.28	444.70
388.48	407.25
388.67	465.77
388.86	390.87
389.06	386.19
389.25	386.19
389.45	379.17
389.64	383.85
389.84	468.11
390.03	465.77
390.22	362.78
390.42	416.62
390.61	428.32
390.81	454.06
391.00	435.34
391.19	409.59
391.39	414.27
391.58	390.87
391.78	447.04
391.97	400.23
392.16	360.44
392.36	383.85
392.55	393.21
392.75	397.89
392.94	423.64
393.13	416.62
393.33	334.70
393.52	468.11
393.71	440.02
393.91	421.30
394.10	386.19
394.29	414.27
394.49	409.59
394.68	418.96
394.88	386.19
395.07	397.89
395.26	421.30
395.46	477.47
395.65	379.17
395.84	437.68
396.04	463.43
396.23	409.59
396.42	435.34
396.62	500.87
396.81	388.53
397.00	440.02
397.19	421.30
397.39	423.64
397.58	421.30
397.77	433.00
397.97	369.80
398.16	449.38
398.35	411.93
398.55	381.51
398.74	400.23
398.93	514.92
399.12	351.08
399.32	407.25
399.51	430.66
399.70	383.85
399.90	437.68
400.09	351.08
400.28	414.27
400.47	468.11
400.67	414.27
400.86	409.59
401.05	425.98
401.24	463.43
401.44	404.91
401.63	447.04
401.82	449.38
402.01	367.46
402.21	433.00
402.40	437.68
402.59	442.36
402.78	486.83
402.97	433.00
403.17	437.68
403.36	402.57
403.55	451.72
403.74	435.34
403.93	416.62
404.13	440.02
404.32	421.30
404.51	374.49
404.70	414.27
404.89	414.27
405.09	496.19
405.28	404.91
405.47	404.91
405.66	409.59
405.85	433.00
406.05	421.30
406.24	397.89
406.43	409.59
406.62	341.72
406.81	395.55
407.00	451.72
407.20	381.51
407.39	360.44
407.58	369.80
407.77	414.27
407.96	430.66
408.15	461.09
408.34	409.59
408.54	428.32
408.73	381.51
408.92	365.12
409.11	423.64
409.30	430.66
409.49	416.62
409.68	435.34
409.87	416.62
410.07	423.64
410.26	362.78
410.45	346.40
410.64	411.93
410.83	421.30
411.02	437.68
411.21	327.68
411.40	440.02
411.59	442.36
411.78	437.68
411.98	379.17
412.17	430.66
412.36	365.12
412.55	440.02
412.74	447.04
412.93	440.02
413.12	435.34
413.31	379.17
413.50	456.40
413.69	386.19
413.88	496.19
414.07	435.34
414.26	428.32
414.45	346.40
414.64	421.30
414.83	388.53
415.02	430.66
415.22	416.62
415.41	430.66
415.60	367.46
415.79	351.08
415.98	461.09
416.17	369.80
416.36	383.85
416.55	388.53
416.74	407.25
416.93	423.64
417.12	365.12
417.31	404.91
417.50	388.53
417.69	367.46
417.88	421.30
418.07	397.89
418.26	337.04
418.45	402.57
418.64	409.59
418.83	435.34
419.02	402.57
419.21	416.62
419.39	433.00
419.58	351.08
419.77	379.17
419.96	315.97
420.15	456.40
420.34	374.49
420.53	454.06
420.72	418.96
420.91	402.57
421.10	423.64
421.29	372.15
421.48	425.98
421.67	402.57
421.86	397.89
422.05	407.25
422.24	372.15
422.43	421.30
422.61	358.10
422.80	491.51
422.99	414.27
423.18	451.72
423.37	475.13
423.56	468.11
423.75	444.70
423.94	418.96
424.13	395.55
424.32	372.15
424.50	418.96
424.69	437.68
424.88	400.23
425.07	404.91
425.26	416.62
425.45	393.21
425.64	367.46
425.83	404.91
426.01	440.02
426.20	353.42
426.39	341.72
426.58	407.25
426.77	388.53
426.96	465.77
427.15	470.45
427.33	402.57
427.52	348.74
427.71	393.21
427.90	404.91
428.09	428.32
428.28	423.64
428.46	358.10
428.65	489.17
428.84	402.57
429.03	416.62
429.22	353.42
429.40	397.89
429.59	318.31
429.78	458.74
429.97	386.19
430.16	360.44
430.34	411.93
430.53	322.99
430.72	407.25
430.91	407.25
431.10	358.10
431.28	456.40
431.47	447.04
431.66	393.21
431.85	379.17
432.03	411.93
432.22	402.57
432.41	353.42
432.60	440.02
432.79	409.59
432.97	479.81
433.16	390.87
433.35	337.04
433.54	358.10
433.72	465.77
433.91	404.91
434.10	465.77
434.28	444.70
434.47	397.89
434.66	451.72
434.85	379.17
435.03	397.89
435.22	444.70
435.41	416.62
435.59	423.64
435.78	411.93
435.97	449.38
436.16	451.72
436.34	433.00
436.53	482.15
436.72	470.45
436.90	414.27
437.09	372.15
437.28	414.27
437.46	430.66
437.65	381.51
437.84	475.13
438.02	507.90
438.21	407.25
438.40	416.62
438.58	423.64
438.77	421.30
438.96	397.89
439.14	404.91
439.33	425.98
439.52	358.10
439.70	454.06
439.89	388.53
440.08	442.36
440.26	358.10
440.45	395.55
440.63	493.85
440.82	409.59
441.01	397.89
441.19	411.93
441.38	451.72
441.57	402.57
441.75	369.80
441.94	484.49
442.12	411.93
442.31	454.06
442.50	428.32
442.68	402.57
442.87	409.59
443.05	397.89
443.24	367.46
443.43	393.21
443.61	447.04
443.80	421.30
443.98	416.62
444.17	379.17
444.35	465.77
444.54	423.64
444.73	407.25
444.91	428.32
445.10	388.53
445.28	386.19
445.47	451.72
445.65	442.36
445.84	376.83
446.02	397.89
446.21	393.21
446.39	425.98
446.58	454.06
446.77	442.36
446.95	447.04
447.14	402.57
447.32	381.51
447.51	465.77
447.69	379.17
447.88	355.76
448.06	397.89
448.25	435.34
448.43	348.74
448.62	461.09
448.80	414.27
448.99	416.62
449.17	327.68
449.36	306.61
449.54	351.08
449.73	395.55
449.91	442.36
450.10	423.64
450.28	442.36
450.46	482.15
450.65	402.57
450.83	472.79
451.02	421.30
451.20	402.57
451.39	477.47
451.57	325.33
451.76	381.51
451.94	416.62
452.13	344.06
452.31	477.47
452.49	456.40
452.68	332.36
452.86	447.04
453.05	440.02
453.23	414.27
453.42	449.38
453.60	456.40
453.78	430.66
453.97	367.46
454.15	388.53
454.34	414.27
454.52	416.62
454.70	381.51
454.89	409.59
455.07	454.06
455.26	402.57
455.44	444.70
455.62	416.62
455.81	409.59
455.99	440.02
456.17	437.68
456.36	475.13
456.54	390.87
456.73	386.19
456.91	376.83
457.09	409.59
457.28	444.70
457.46	402.57
457.64	447.04
457.83	425.98
458.01	418.96
458.19	468.11
458.38	461.09
458.56	430.66
458.74	407.25
458.93	456.40
459.11	348.74
459.29	444.70
459.48	395.55
459.66	435.34
459.84	468.11
460.03	496.19
460.21	463.43
460.39	358.10
460.57	379.17
460.76	411.93
460.94	442.36
461.12	456.40
461.31	414.27
461.49	421.30
461.67	514.92
461.85	376.83
462.04	475.13
462.22	699.82
462.40	418.96
462.59	489.17
462.77	447.04
462.95	461.09
463.13	395.55
463.32	449.38
463.50	376.83
463.68	470.45
463.86	423.64
464.05	416.62
464.23	414.27
464.41	374.49
464.59	393.21
464.78	444.70
464.96	339.38
465.14	379.17
465.32	463.43
465.50	428.32
465.69	451.72
465.87	461.09
466.05	369.80
466.23	397.89
466.41	397.89
466.60	404.91
466.78	454.06
466.96	400.23
467.14	393.21
467.32	479.81
467.51	447.04
467.69	468.11
467.87	447.04
468.05	390.87
468.23	332.36
468.41	388.53
468.60	461.09
468.78	484.49
468.96	383.85
469.14	437.68
469.32	390.87
469.50	360.44
469.69	421.30
469.87	477.47
470.05	390.87
470.23	437.68
470.41	372.15
470.59	407.25
470.77	322.99
470.95	430.66
471.14	491.51
471.32	435.34
471.50	409.59
471.68	353.42
471.86	416.62
472.04	381.51
472.22	442.36
472.40	423.64
472.58	395.55
472.77	376.83
472.95	491.51
473.13	496.19
473.31	400.23
473.49	390.87
473.67	461.09
473.85	479.81
474.03	451.72
474.21	395.55
474.39	477.47
474.57	463.43
474.75	475.13
474.93	486.83
475.12	428.32
475.30	414.27
475.48	397.89
475.66	360.44
475.84	475.13
476.02	409.59
476.20	400.23
476.38	414.27
476.56	463.43
476.74	414.27
476.92	418.96
477.10	449.38
477.28	458.74
477.46	367.46
477.64	411.93
477.82	400.23
478.00	430.66
478.18	442.36
478.36	425.98
478.54	393.21
478.72	379.17
478.90	430.66
479.08	435.34
479.26	447.04
479.44	386.19
479.62	416.62
479.80	414.27
479.98	409.59
480.16	397.89
480.34	430.66
480.52	390.87
480.70	395.55
480.88	451.72
481.06	381.51
481.24	409.59
481.41	437.68
481.59	449.38
481.77	374.49
481.95	414.27
482.13	421.30
482.31	397.89
482.49	400.23
482.67	404.91
482.85	449.38
483.03	444.70
483.21	456.40
483.39	344.06
483.57	423.64
483.74	423.64
483.92	440.02
484.10	409.59
484.28	425.98
484.46	472.79
484.64	442.36
484.82	416.62
485.00	358.10
485.18	369.80
485.35	430.66
485.53	435.34
485.71	383.85
485.89	390.87
486.07	416.62
486.25	425.98
486.43	400.23
486.61	416.62
486.78	418.96
486.96	407.25
487.14	383.85
487.32	313.63
487.50	423.64
487.68	526.62
487.85	372.15
488.03	500.87
488.21	463.43
488.39	400.23
488.57	430.66
488.75	376.83
488.92	493.85
489.10	393.21
489.28	414.27
489.46	390.87
489.64	409.59
489.81	437.68
489.99	346.40
490.17	416.62
490.35	468.11
490.53	444.70
490.70	414.27
490.88	409.59
491.06	337.04
491.24	517.26
491.41	379.17
491.59	381.51
491.77	365.12
491.95	376.83
492.13	416.62
492.30	407.25
492.48	330.02
492.66	416.62
492.84	402.57
493.01	383.85
493.19	454.06
493.37	444.70
493.54	465.77
493.72	374.49
493.90	498.53
494.08	468.11
494.25	411.93
494.43	444.70
494.61	381.51
494.79	339.38
494.96	430.66
495.14	447.04
495.32	381.51
495.49	402.57
495.67	409.59
495.85	355.76
496.02	407.25
496.20	386.19
496.38	433.00
496.55	451.72
496.73	430.66
496.91	367.46
497.09	390.87
497.26	388.53
497.44	365.12
497.62	383.85
497.79	461.09
497.97	334.70
498.14	402.57
498.32	409.59
498.50	393.21
498.67	475.13
498.85	486.83
499.03	381.51
499.20	341.72
499.38	423.64
499.56	365.12
499.73	465.77
499.91	348.74
500.08	402.57
500.26	414.27
500.44	421.30
500.61	435.34
500.79	339.38
500.97	458.74
501.14	451.72
501.32	381.51
501.49	402.57
501.67	414.27
501.84	423.64
502.02	461.09
502.20	383.85
502.37	393.21
502.55	416.62
502.72	315.97
502.90	456.40
503.07	444.70
503.25	400.23
503.43	395.55
503.60	414.27
503.78	428.32
503.95	381.51
504.13	404.91
504.30	454.06
504.48	470.45
504.65	409.59
504.83	372.15
505.01	369.80
505.18	444.70
505.36	498.53
505.53	456.40
505.71	437.68
505.88	456.40
506.06	327.68
506.23	390.87
506.41	395.55
506.58	482.15
506.76	444.70
506.93	362.78
507.11	397.89
507.28	447.04
507.46	409.59
507.63	489.17
507.81	360.44
507.98	358.10
508.16	423.64
508.33	346.40
508.50	393.21
508.68	407.25
508.85	383.85
509.03	341.72
509.20	421.30
509.38	458.74
509.55	465.77
509.73	500.87
509.90	360.44
510.08	404.91
510.25	437.68
510.42	416.62
510.60	437.68
510.77	489.17
510.95	461.09
511.12	390.87
511.30	374.49
511.47	514.92
511.64	451.72
511.82	367.46
511.99	414.27
512.17	407.25
512.34	444.70
512.51	379.17
512.69	344.06
512.86	418.96
513.04	369.80
513.21	383.85
513.38	421.30
513.56	355.76
513.73	407.25
513.90	416.62
514.08	386.19
514.25	447.04
514.43	400.23
514.60	374.49
514.77	400.23
514.95	486.83
515.12	400.23
515.29	449.38
515.47	428.32
515.64	447.04
515.81	346.40
515.99	421.30
516.16	395.55
516.33	461.09
516.51	381.51
516.68	355.76
516.85	400.23
517.03	381.51
517.20	390.87
517.37	397.89
517.54	444.70
517.72	367.46
517.89	456.40
518.06	463.43
518.24	442.36
518.41	425.98
518.58	456.40
518.75	393.21
518.93	395.55
519.10	458.74
519.27	407.25
519.45	470.45
519.62	390.87
519.79	468.11
519.96	414.27
520.14	458.74
520.31	470.45
520.48	416.62
520.65	407.25
520.83	454.06
521.00	425.98
521.17	465.77
521.34	379.17
521.52	374.49
521.69	421.30
521.86	402.57
522.03	425.98
522.20	468.11
522.38	390.87
522.55	428.32
522.72	374.49
522.89	433.00
523.07	463.43
523.24	372.15
523.41	395.55
523.58	407.25
523.75	428.32
523.92	388.53
524.10	465.77
524.27	397.89
524.44	404.91
524.61	484.49
524.78	428.32
524.96	437.68
525.13	425.98
525.30	461.09
525.47	430.66
525.64	428.32
525.81	421.30
525.98	451.72
526.16	470.45
526.33	416.62
526.50	379.17
526.67	409.59
526.84	470.45
527.01	421.30
527.18	414.27
527.36	402.57
527.53	430.66
527.70	386.19
527.87	404.91
528.04	482.15
528.21	414.27
528.38	479.81
528.55	475.13
528.72	416.62
528.89	444.70
529.07	449.38
529.24	435.34
529.41	442.36
529.58	437.68
529.75	388.53
529.92	407.25
530.09	358.10
530.26	430.66
530.43	435.34
530.60	435.34
530.77	353.42
530.94	449.38
531.11	346.40
531.28	407.25
531.46	334.70
531.63	428.32
531.80	409.59
531.97	479.81
532.14	463.43
532.31	468.11
532.48	404.91
532.65	409.59
532.82	404.91
532.99	400.23
533.16	449.38
533.33	416.62
533.50	386.19
533.67	447.04
533.84	444.70
534.01	437.68
534.18	379.17
534.35	360.44
534.52	402.57
534.69	435.34
534.86	322.99
535.03	428.32
535.20	409.59
535.37	418.96
535.54	414.27
535.71	362.78
535.88	421.30
536.05	437.68
536.22	416.62
536.38	447.04
536.55	458.74
536.72	444.70
536.89	320.65
537.06	395.55
537.23	418.96
537.40	383.85
537.57	416.62
537.74	418.96
537.91	425.98
538.08	388.53
538.25	393.21
538.42	346.40
538.59	383.85
538.75	409.59
538.92	360.44
539.09	433.00
539.26	440.02
539.43	383.85
539.60	472.79
539.77	390.87
539.94	447.04
540.11	393.21
540.28	400.23
540.44	456.40
540.61	479.81
540.78	428.32
540.95	348.74
541.12	444.70
541.29	454.06
541.46	489.17
541.62	468.11
541.79	411.93
541.96	409.59
542.13	411.93
542.30	416.62
542.47	437.68
542.63	383.85
542.80	451.72
542.97	437.68
543.14	447.04
543.31	440.02
543.48	503.22
543.64	496.19
543.81	456.40
543.98	472.79
544.15	374.49
544.32	423.64
544.48	409.59
544.65	463.43
544.82	435.34
544.99	475.13
545.16	491.51
545.32	461.09
545.49	428.32
545.66	418.96
545.83	421.30
546.00	414.27
546.16	423.64
546.33	482.15
546.50	383.85
546.67	353.42
546.83	463.43
547.00	435.34
547.17	411.93
547.34	383.85
547.50	395.55
547.67	425.98
547.84	477.47
548.00	442.36
548.17	381.51
548.34	435.34
548.51	421.30
548.67	465.77
548.84	367.46
549.01	386.19
549.18	409.59
549.34	468.11
549.51	421.30
549.68	409.59
549.84	416.62
550.01	381.51
550.18	482.15
550.34	491.51
550.51	421.30
550.68	428.32
550.84	395.55
551.01	430.66
551.18	463.43
551.34	437.68
551.51	386.19
551.68	369.80
551.84	423.64
552.01	320.65
552.18	451.72
552.34	454.06
552.51	425.98
552.68	447.04
552.84	421.30
553.01	414.27
553.18	418.96
553.34	418.96
553.51	393.21
553.67	376.83
553.84	496.19
554.01	397.89
554.17	407.25
554.34	437.68
554.51	470.45
554.67	428.32
554.84	433.00
555.00	306.61
555.17	435.34
555.33	397.89
555.50	421.30
555.67	456.40
555.83	395.55
556.00	407.25
556.16	524.28
556.33	381.51
556.50	418.96
556.66	456.40
556.83	404.91
556.99	369.80
557.16	407.25
557.32	444.70
557.49	456.40
557.65	334.70
557.82	351.08
557.98	456.40
558.15	472.79
558.32	393.21
558.48	397.89
558.65	404.91
558.81	409.59
558.98	409.59
559.14	400.23
559.31	372.15
559.47	425.98
559.64	407.25
559.80	407.25
559.97	437.68
560.13	428.32
560.30	397.89
560.46	437.68
560.63	404.91
560.79	538.32
560.96	372.15
561.12	414.27
561.29	430.66
561.45	376.83
561.61	379.17
561.78	475.13
561.94	421.30
562.11	430.66
562.27	440.02
562.44	423.64
562.60	430.66
562.77	334.70
562.93	393.21
563.10	369.80
563.26	456.40
563.42	468.11
563.59	477.47
563.75	390.87
563.92	407.25
564.08	444.70
564.24	421.30
564.41	433.00
564.57	351.08
564.74	468.11
564.90	428.32
565.07	437.68
565.23	486.83
565.39	430.66
565.56	456.40
565.72	421.30
565.88	360.44
566.05	409.59
566.21	425.98
566.38	486.83
566.54	491.51
566.70	416.62
566.87	407.25
567.03	351.08
567.19	407.25
567.36	418.96
567.52	379.17
567.68	390.87
567.85	388.53
568.01	463.43
568.17	372.15
568.34	358.10
568.50	437.68
568.66	425.98
568.83	510.24
568.99	386.19
569.15	531.30
569.32	416.62
569.48	472.79
569.64	407.25
569.81	369.80
569.97	470.45
570.13	458.74
570.30	390.87
570.46	447.04
570.62	386.19
570.78	353.42
570.95	400.23
571.11	456.40
571.27	390.87
571.43	411.93
571.60	421.30
571.76	390.87
571.92	435.34
572.09	433.00
572.25	423.64
572.41	430.66
572.57	435.34
572.74	433.00
572.90	449.38
573.06	374.49
573.22	440.02
573.38	416.62
573.55	514.92
573.71	503.22
573.87	414.27
574.03	433.00
574.20	458.74
574.36	383.85
574.52	430.66
574.68	400.23
574.84	463.43
575.01	442.36
575.17	388.53
575.33	404.91
575.49	411.93
575.65	454.06
575.82	407.25
575.98	425.98
576.14	404.91
576.30	379.17
576.46	437.68
576.62	400.23
576.79	479.81
576.95	482.15
577.11	454.06
577.27	475.13
577.43	440.02
577.59	397.89
577.75	414.27
577.92	388.53
578.08	449.38
578.24	414.27
578.40	472.79
578.56	472.79
578.72	465.77
578.88	442.36
579.04	414.27
579.21	465.77
579.37	397.89
579.53	353.42
579.69	402.57
579.85	421.30
580.01	381.51
580.17	383.85
580.33	416.62
580.49	423.64
580.65	365.12
580.82	381.51
580.98	477.47
581.14	418.96
581.30	472.79
581.46	435.34
581.62	400.23
581.78	416.62
581.94	416.62
582.10	346.40
582.26	454.06
582.42	395.55
582.58	418.96
582.74	458.74
582.90	468.11
583.06	468.11
583.22	353.42
583.38	461.09
583.54	425.98
583.70	430.66
583.86	418.96
584.02	409.59
584.18	503.22
584.34	428.32
584.50	374.49
584.66	423.64
584.82	458.74
584.98	447.04
585.14	411.93
585.30	486.83
585.46	421.30
585.62	402.57
585.78	440.02
585.94	416.62
586.10	421.30
586.26	435.34
586.42	388.53
586.58	454.06
586.74	461.09
586.90	407.25
587.06	404.91
587.22	472.79
587.38	421.30
587.54	425.98
587.70	383.85
587.86	465.77
588.02	444.70
588.18	409.59
588.34	397.89
588.49	320.65
588.65	407.25
588.81	423.64
588.97	388.53
589.13	393.21
589.29	449.38
589.45	475.13
589.61	402.57
589.77	456.40
589.93	383.85
590.08	472.79
590.24	435.34
590.40	397.89
590.56	376.83
590.72	386.19
590.88	353.42
591.04	390.87
591.20	428.32
591.35	418.96
591.51	440.02
591.67	390.87
591.83	390.87
591.99	407.25
592.15	379.17
592.31	383.85
592.46	379.17
592.62	430.66
592.78	421.30
592.94	400.23
593.10	402.57
593.26	404.91
593.41	395.55
593.57	461.09
593.73	400.23
593.89	362.78
594.05	397.89
594.20	428.32
594.36	423.64
594.52	461.09
594.68	365.12
594.84	395.55
594.99	454.06
595.15	421.30
595.31	430.66
595.47	454.06
595.62	416.62
595.78	472.79
595.94	390.87
596.10	475.13
596.25	414.27
596.41	440.02
596.57	425.98
596.73	372.15
596.88	348.74
597.04	461.09
597.20	482.15
597.36	435.34
597.51	320.65
597.67	458.74
597.83	388.53
597.99	482.15
598.14	369.80
598.30	365.12
598.46	381.51
598.61	437.68
598.77	428.32
598.93	390.87
599.09	411.93
599.24	421.30
599.40	461.09
599.56	397.89
599.71	404.91
599.87	416.62
600.03	421.30
600.18	489.17
600.34	444.70
600.50	435.34
600.65	381.51
600.81	388.53
600.97	437.68
601.12	374.49
601.28	458.74
601.44	440.02
601.59	393.21
601.75	418.96
601.91	402.57
602.06	449.38
602.22	479.81
602.37	482.15
602.53	531.30
602.69	395.55
602.84	454.06
603.00	374.49
603.16	423.64
603.31	397.89
603.47	376.83
603.62	379.17
603.78	402.57
603.94	386.19
604.09	428.32
604.25	477.47
604.40	430.66
604.56	482.15
604.71	425.98
604.87	409.59
605.03	372.15
605.18	440.02
605.34	397.89
605.49	400.23
605.65	442.36
605.80	376.83
605.96	435.34
606.12	489.17
606.27	479.81
606.43	367.46
606.58	381.51
606.74	339.38
606.89	430.66
607.05	484.49
607.20	444.70
607.36	449.38
607.51	304.27
607.67	416.62
607.82	395.55
607.98	484.49
608.13	376.83
608.29	402.57
608.44	428.32
608.60	444.70
608.75	440.02
608.91	468.11
609.06	472.79
609.22	430.66
609.37	454.06
609.53	372.15
609.68	437.68
609.84	463.43
609.99	386.19
610.15	421.30
