SpectraSuite Data File
++++++++++++++++++++++++++++++++++++
Date: Fri Oct 25 12:10:23 EDT 2013
User: price-jones
Dark Spectrum Present: No
Reference Spectrum Present: No
Number of Sampled Component Spectra: 1
Spectrometers: USB2+H05261
Integration Time (usec): 100000 (USB2+H05261)
Spectra Averaged: 1 (USB2+H05261)
Boxcar Smoothing: 0 (USB2+H05261)
Correct for Electrical Dark: No (USB2+H05261)
Strobe/Lamp Enabled: No (USB2+H05261)
Correct for Detector Non-linearity: No (USB2+H05261)
Correct for Stray Light: No (USB2+H05261)
Number of Pixels in Processed Spectrum: 2048
>>>>>Begin Processed Spectral Data<<<<<
365.73	313.63
365.92	313.63
366.12	313.63
366.32	201.29
366.52	280.86
366.72	278.52
366.91	196.60
367.11	224.69
367.31	175.54
367.51	229.37
367.70	250.44
367.90	212.99
368.10	245.76
368.30	280.86
368.49	264.48
368.69	269.16
368.89	248.10
369.09	236.39
369.28	308.95
369.48	278.52
369.68	290.23
369.87	294.91
370.07	332.36
370.27	332.36
370.47	351.08
370.66	344.06
370.86	365.12
371.06	325.33
371.25	362.78
371.45	353.42
371.65	339.38
371.84	346.40
372.04	311.29
372.24	425.98
372.44	351.08
372.63	418.96
372.83	430.66
373.03	330.02
373.22	486.83
373.42	397.89
373.62	423.64
373.81	430.66
374.01	346.40
374.21	374.49
374.40	367.46
374.60	381.51
374.79	351.08
374.99	407.25
375.19	454.06
375.38	454.06
375.58	435.34
375.78	421.30
375.97	433.00
376.17	449.38
376.37	400.23
376.56	444.70
376.76	407.25
376.95	400.23
377.15	423.64
377.35	428.32
377.54	423.64
377.74	372.15
377.93	362.78
378.13	409.59
378.33	416.62
378.52	442.36
378.72	388.53
378.91	353.42
379.11	388.53
379.31	416.62
379.50	409.59
379.70	461.09
379.89	458.74
380.09	418.96
380.28	367.46
380.48	372.15
380.68	351.08
380.87	404.91
381.07	425.98
381.26	365.12
381.46	381.51
381.65	409.59
381.85	423.64
382.04	402.57
382.24	376.83
382.43	472.79
382.63	372.15
382.83	414.27
383.02	404.91
383.22	435.34
383.41	444.70
383.61	456.40
383.80	397.89
384.00	351.08
384.19	470.45
384.39	449.38
384.58	435.34
384.78	376.83
384.97	407.25
385.17	454.06
385.36	402.57
385.56	393.21
385.75	407.25
385.95	425.98
386.14	409.59
386.34	397.89
386.53	390.87
386.72	428.32
386.92	454.06
387.11	341.72
387.31	393.21
387.50	390.87
387.70	376.83
387.89	376.83
388.09	390.87
388.28	388.53
388.48	372.15
388.67	463.43
388.86	346.40
389.06	395.55
389.25	386.19
389.45	372.15
389.64	416.62
389.84	456.40
390.03	423.64
390.22	437.68
390.42	411.93
390.61	444.70
390.81	397.89
391.00	411.93
391.19	402.57
391.39	390.87
391.58	447.04
391.78	437.68
391.97	463.43
392.16	376.83
392.36	376.83
392.55	407.25
392.75	407.25
392.94	388.53
393.13	402.57
393.33	390.87
393.52	358.10
393.71	440.02
393.91	374.49
394.10	386.19
394.29	386.19
394.49	367.46
394.68	477.47
394.88	407.25
395.07	437.68
395.26	362.78
395.46	383.85
395.65	374.49
395.84	437.68
396.04	465.77
396.23	430.66
396.42	440.02
396.62	463.43
396.81	430.66
397.00	400.23
397.19	381.51
397.39	374.49
397.58	367.46
397.77	428.32
397.97	414.27
398.16	386.19
398.35	440.02
398.55	365.12
398.74	393.21
398.93	402.57
399.12	411.93
399.32	353.42
399.51	423.64
399.70	437.68
399.90	411.93
400.09	400.23
400.28	468.11
400.47	365.12
400.67	451.72
400.86	482.15
401.05	414.27
401.24	388.53
401.44	390.87
401.63	416.62
401.82	418.96
402.01	397.89
402.21	425.98
402.40	440.02
402.59	348.74
402.78	440.02
402.97	320.65
403.17	465.77
403.36	416.62
403.55	449.38
403.74	381.51
403.93	411.93
404.13	400.23
404.32	355.76
404.51	428.32
404.70	388.53
404.89	388.53
405.09	402.57
405.28	418.96
405.47	379.17
405.66	435.34
405.85	416.62
406.05	428.32
406.24	388.53
406.43	414.27
406.62	367.46
406.81	463.43
407.00	397.89
407.20	404.91
407.39	379.17
407.58	372.15
407.77	402.57
407.96	442.36
408.15	461.09
408.34	388.53
408.54	376.83
408.73	468.11
408.92	379.17
409.11	477.47
409.30	409.59
409.49	444.70
409.68	362.78
409.87	404.91
410.07	404.91
410.26	411.93
410.45	351.08
410.64	414.27
410.83	376.83
411.02	374.49
411.21	411.93
411.40	367.46
411.59	376.83
411.78	414.27
411.98	433.00
412.17	381.51
412.36	451.72
412.55	404.91
412.74	393.21
412.93	418.96
413.12	369.80
413.31	367.46
413.50	390.87
413.69	346.40
413.88	449.38
414.07	362.78
414.26	397.89
414.45	425.98
414.64	407.25
414.83	402.57
415.02	442.36
415.22	456.40
415.41	425.98
415.60	416.62
415.79	369.80
415.98	430.66
416.17	402.57
416.36	409.59
416.55	421.30
416.74	397.89
416.93	447.04
417.12	362.78
417.31	468.11
417.50	337.04
417.69	369.80
417.88	472.79
418.07	437.68
418.26	421.30
418.45	447.04
418.64	418.96
418.83	418.96
419.02	428.32
419.21	372.15
419.39	369.80
419.58	355.76
419.77	437.68
419.96	416.62
420.15	409.59
420.34	407.25
420.53	444.70
420.72	468.11
420.91	433.00
421.10	376.83
421.29	376.83
421.48	388.53
421.67	393.21
421.86	390.87
422.05	353.42
422.24	416.62
422.43	402.57
422.61	372.15
422.80	437.68
422.99	414.27
423.18	447.04
423.37	440.02
423.56	425.98
423.75	402.57
423.94	407.25
424.13	465.77
424.32	428.32
424.50	477.47
424.69	435.34
424.88	423.64
425.07	376.83
425.26	327.68
425.45	341.72
425.64	320.65
425.83	395.55
426.01	449.38
426.20	425.98
426.39	346.40
426.58	416.62
426.77	442.36
426.96	386.19
427.15	440.02
427.33	372.15
427.52	437.68
427.71	348.74
427.90	458.74
428.09	383.85
428.28	418.96
428.46	379.17
428.65	379.17
428.84	388.53
429.03	498.53
429.22	379.17
429.40	411.93
429.59	346.40
429.78	461.09
429.97	402.57
430.16	416.62
430.34	409.59
430.53	409.59
430.72	369.80
430.91	362.78
431.10	346.40
431.28	428.32
431.47	409.59
431.66	376.83
431.85	367.46
432.03	454.06
432.22	402.57
432.41	393.21
432.60	430.66
432.79	451.72
432.97	395.55
433.16	358.10
433.35	388.53
433.54	379.17
433.72	372.15
433.91	442.36
434.10	472.79
434.28	402.57
434.47	454.06
434.66	482.15
434.85	383.85
435.03	411.93
435.22	379.17
435.41	451.72
435.59	416.62
435.78	418.96
435.97	411.93
436.16	418.96
436.34	409.59
436.53	376.83
436.72	381.51
436.90	447.04
437.09	376.83
437.28	428.32
437.46	390.87
437.65	315.97
437.84	369.80
438.02	388.53
438.21	381.51
438.40	322.99
438.58	393.21
438.77	414.27
438.96	414.27
439.14	416.62
439.33	428.32
439.52	397.89
439.70	411.93
439.89	355.76
440.08	425.98
440.26	444.70
440.45	454.06
440.63	334.70
440.82	386.19
441.01	402.57
441.19	430.66
441.38	442.36
441.57	365.12
441.75	430.66
441.94	510.24
442.12	381.51
442.31	376.83
442.50	365.12
442.68	402.57
442.87	397.89
443.05	425.98
443.24	465.77
443.43	418.96
443.61	484.49
443.80	372.15
443.98	376.83
444.17	418.96
444.35	444.70
444.54	404.91
444.73	344.06
444.91	444.70
445.10	404.91
445.28	383.85
445.47	416.62
445.65	421.30
445.84	372.15
446.02	374.49
446.21	390.87
446.39	374.49
446.58	393.21
446.77	489.17
446.95	451.72
447.14	409.59
447.32	458.74
447.51	388.53
447.69	470.45
447.88	411.93
448.06	393.21
448.25	395.55
448.43	418.96
448.62	322.99
448.80	379.17
448.99	440.02
449.17	423.64
449.36	456.40
449.54	454.06
449.73	351.08
449.91	358.10
450.10	346.40
450.28	428.32
450.46	421.30
450.65	397.89
450.83	418.96
451.02	447.04
451.20	393.21
451.39	454.06
451.57	383.85
451.76	390.87
451.94	414.27
452.13	442.36
452.31	451.72
452.49	348.74
452.68	449.38
452.86	395.55
453.05	519.60
453.23	369.80
453.42	409.59
453.60	433.00
453.78	435.34
453.97	397.89
454.15	376.83
454.34	428.32
454.52	374.49
454.70	486.83
454.89	442.36
455.07	440.02
455.26	416.62
455.44	433.00
455.62	430.66
455.81	341.72
455.99	390.87
456.17	379.17
456.36	440.02
456.54	395.55
456.73	355.76
456.91	379.17
457.09	348.74
457.28	416.62
457.46	367.46
457.64	421.30
457.83	402.57
458.01	395.55
458.19	421.30
458.38	416.62
458.56	418.96
458.74	358.10
458.93	442.36
459.11	428.32
459.29	390.87
459.48	463.43
459.66	440.02
459.84	393.21
460.03	533.64
460.21	372.15
460.39	407.25
460.57	451.72
460.76	395.55
460.94	442.36
461.12	435.34
461.31	477.47
461.49	402.57
461.67	404.91
461.85	374.49
462.04	397.89
462.22	805.14
462.40	472.79
462.59	423.64
462.77	430.66
462.95	402.57
463.13	414.27
463.32	442.36
463.50	435.34
463.68	425.98
463.86	421.30
464.05	327.68
464.23	458.74
464.41	472.79
464.59	407.25
464.78	346.40
464.96	388.53
465.14	330.02
465.32	393.21
465.50	402.57
465.69	430.66
465.87	414.27
466.05	500.87
466.23	362.78
466.41	416.62
466.60	351.08
466.78	433.00
466.96	489.17
467.14	404.91
467.32	395.55
467.51	388.53
467.69	440.02
467.87	479.81
468.05	416.62
468.23	493.85
468.41	472.79
468.60	402.57
468.78	430.66
468.96	409.59
469.14	390.87
469.32	362.78
469.50	390.87
469.69	376.83
469.87	395.55
470.05	397.89
470.23	400.23
470.41	411.93
470.59	447.04
470.77	447.04
470.95	409.59
471.14	463.43
471.32	400.23
471.50	402.57
471.68	423.64
471.86	379.17
472.04	430.66
472.22	409.59
472.40	402.57
472.58	411.93
472.77	365.12
472.95	442.36
473.13	468.11
473.31	416.62
473.49	339.38
473.67	409.59
473.85	390.87
474.03	395.55
474.21	414.27
474.39	400.23
474.57	379.17
474.75	430.66
474.93	454.06
475.12	353.42
475.30	416.62
475.48	477.47
475.66	388.53
475.84	430.66
476.02	428.32
476.20	524.28
476.38	416.62
476.56	465.77
476.74	423.64
476.92	409.59
477.10	402.57
477.28	442.36
477.46	461.09
477.64	367.46
477.82	435.34
478.00	468.11
478.18	449.38
478.36	468.11
478.54	374.49
478.72	386.19
478.90	376.83
479.08	458.74
479.26	414.27
479.44	442.36
479.62	414.27
479.80	423.64
479.98	393.21
480.16	435.34
480.34	416.62
480.52	437.68
480.70	423.64
480.88	411.93
481.06	463.43
481.24	433.00
481.41	430.66
481.59	428.32
481.77	428.32
481.95	362.78
482.13	463.43
482.31	444.70
482.49	409.59
482.67	421.30
482.85	395.55
483.03	449.38
483.21	393.21
483.39	374.49
483.57	456.40
483.74	479.81
483.92	461.09
484.10	430.66
484.28	362.78
484.46	435.34
484.64	365.12
484.82	442.36
485.00	430.66
485.18	360.44
485.35	435.34
485.53	397.89
485.71	456.40
485.89	418.96
486.07	402.57
486.25	425.98
486.43	428.32
486.61	442.36
486.78	397.89
486.96	390.87
487.14	440.02
487.32	397.89
487.50	386.19
487.68	430.66
487.85	404.91
488.03	404.91
488.21	472.79
488.39	346.40
488.57	386.19
488.75	404.91
488.92	465.77
489.10	430.66
489.28	451.72
489.46	458.74
489.64	339.38
489.81	447.04
489.99	397.89
490.17	425.98
490.35	517.26
490.53	334.70
490.70	423.64
490.88	346.40
491.06	428.32
491.24	440.02
491.41	390.87
491.59	379.17
491.77	411.93
491.95	386.19
492.13	383.85
492.30	402.57
492.48	414.27
492.66	409.59
492.84	477.47
493.01	425.98
493.19	423.64
493.37	491.51
493.54	411.93
493.72	489.17
493.90	383.85
494.08	416.62
494.25	468.11
494.43	421.30
494.61	383.85
494.79	393.21
494.96	397.89
495.14	362.78
495.32	369.80
495.49	493.85
495.67	400.23
495.85	341.72
496.02	393.21
496.20	376.83
496.38	425.98
496.55	411.93
496.73	397.89
496.91	517.26
497.09	461.09
497.26	444.70
497.44	435.34
497.62	386.19
497.79	390.87
497.97	407.25
498.14	402.57
498.32	416.62
498.50	339.38
498.67	334.70
498.85	414.27
499.03	390.87
499.20	451.72
499.38	360.44
499.56	425.98
499.73	423.64
499.91	440.02
500.08	505.56
500.26	407.25
500.44	393.21
500.61	395.55
500.79	451.72
500.97	437.68
501.14	470.45
501.32	353.42
501.49	437.68
501.67	428.32
501.84	477.47
502.02	435.34
502.20	482.15
502.37	454.06
502.55	440.02
502.72	400.23
502.90	416.62
503.07	454.06
503.25	486.83
503.43	395.55
503.60	449.38
503.78	421.30
503.95	400.23
504.13	442.36
504.30	447.04
504.48	407.25
504.65	425.98
504.83	437.68
505.01	376.83
505.18	421.30
505.36	414.27
505.53	433.00
505.71	458.74
505.88	498.53
506.06	437.68
506.23	430.66
506.41	456.40
506.58	409.59
506.76	449.38
506.93	465.77
507.11	383.85
507.28	386.19
507.46	379.17
507.63	440.02
507.81	386.19
507.98	486.83
508.16	383.85
508.33	425.98
508.50	425.98
508.68	428.32
508.85	472.79
509.03	332.36
509.20	402.57
509.38	433.00
509.55	407.25
509.73	421.30
509.90	461.09
510.08	374.49
510.25	433.00
510.42	458.74
510.60	367.46
510.77	447.04
510.95	444.70
511.12	400.23
511.30	463.43
511.47	428.32
511.64	341.72
511.82	315.97
511.99	344.06
512.17	322.99
512.34	430.66
512.51	360.44
512.69	360.44
512.86	442.36
513.04	388.53
513.21	463.43
513.38	442.36
513.56	425.98
513.73	411.93
513.90	397.89
514.08	320.65
514.25	475.13
514.43	493.85
514.60	444.70
514.77	477.47
514.95	472.79
515.12	355.76
515.29	388.53
515.47	397.89
515.64	402.57
515.81	449.38
515.99	456.40
516.16	388.53
516.33	376.83
516.51	407.25
516.68	465.77
516.85	454.06
517.03	447.04
517.20	449.38
517.37	425.98
517.54	465.77
517.72	416.62
517.89	409.59
518.06	393.21
518.24	447.04
518.41	524.28
518.58	442.36
518.75	311.29
518.93	435.34
519.10	404.91
519.27	440.02
519.45	334.70
519.62	383.85
519.79	442.36
519.96	381.51
520.14	479.81
520.31	404.91
520.48	409.59
520.65	454.06
520.83	421.30
521.00	442.36
521.17	409.59
521.34	400.23
521.52	465.77
521.69	482.15
521.86	433.00
522.03	456.40
522.20	402.57
522.38	400.23
522.55	447.04
522.72	383.85
522.89	344.06
523.07	465.77
523.24	400.23
523.41	433.00
523.58	491.51
523.75	435.34
523.92	479.81
524.10	414.27
524.27	470.45
524.44	465.77
524.61	435.34
524.78	430.66
524.96	423.64
525.13	416.62
525.30	411.93
525.47	449.38
525.64	449.38
525.81	414.27
525.98	414.27
526.16	428.32
526.33	449.38
526.50	442.36
526.67	414.27
526.84	353.42
527.01	423.64
527.18	428.32
527.36	435.34
527.53	425.98
527.70	437.68
527.87	395.55
528.04	428.32
528.21	435.34
528.38	425.98
528.55	456.40
528.72	421.30
528.89	437.68
529.07	374.49
529.24	447.04
529.41	456.40
529.58	451.72
529.75	411.93
529.92	411.93
530.09	409.59
530.26	367.46
530.43	365.12
530.60	414.27
530.77	430.66
530.94	425.98
531.11	447.04
531.28	428.32
531.46	397.89
531.63	456.40
531.80	430.66
531.97	416.62
532.14	428.32
532.31	440.02
532.48	386.19
532.65	397.89
532.82	383.85
532.99	369.80
533.16	423.64
533.33	379.17
533.50	489.17
533.67	430.66
533.84	402.57
534.01	456.40
534.18	447.04
534.35	388.53
534.52	407.25
534.69	421.30
534.86	374.49
535.03	440.02
535.20	355.76
535.37	456.40
535.54	365.12
535.71	397.89
535.88	451.72
536.05	339.38
536.22	444.70
536.38	397.89
536.55	390.87
536.72	456.40
536.89	430.66
537.06	376.83
537.23	440.02
537.40	428.32
537.57	479.81
537.74	477.47
537.91	411.93
538.08	421.30
538.25	451.72
538.42	390.87
538.59	449.38
538.75	447.04
538.92	423.64
539.09	456.40
539.26	463.43
539.43	500.87
539.60	435.34
539.77	402.57
539.94	463.43
540.11	461.09
540.28	433.00
540.44	535.98
540.61	437.68
540.78	407.25
540.95	423.64
541.12	344.06
541.29	381.51
541.46	365.12
541.62	388.53
541.79	374.49
541.96	397.89
542.13	458.74
542.30	461.09
542.47	447.04
542.63	390.87
542.80	449.38
542.97	414.27
543.14	444.70
543.31	400.23
543.48	400.23
543.64	402.57
543.81	430.66
543.98	414.27
544.15	395.55
544.32	430.66
544.48	407.25
544.65	395.55
544.82	362.78
544.99	496.19
545.16	458.74
545.32	379.17
545.49	411.93
545.66	414.27
545.83	440.02
546.00	449.38
546.16	458.74
546.33	372.15
546.50	425.98
546.67	447.04
546.83	397.89
547.00	402.57
547.17	435.34
547.34	383.85
547.50	423.64
547.67	437.68
547.84	379.17
548.00	435.34
548.17	418.96
548.34	388.53
548.51	428.32
548.67	465.77
548.84	395.55
549.01	386.19
549.18	451.72
549.34	411.93
549.51	451.72
549.68	449.38
549.84	379.17
550.01	407.25
550.18	468.11
550.34	456.40
550.51	484.49
550.68	468.11
550.84	435.34
551.01	400.23
551.18	400.23
551.34	397.89
551.51	433.00
551.68	379.17
551.84	440.02
552.01	409.59
552.18	416.62
552.34	379.17
552.51	418.96
552.68	416.62
552.84	451.72
553.01	374.49
553.18	397.89
553.34	425.98
553.51	433.00
553.67	397.89
553.84	423.64
554.01	428.32
554.17	397.89
554.34	409.59
554.51	348.74
554.67	440.02
554.84	381.51
555.00	404.91
555.17	437.68
555.33	444.70
555.50	400.23
555.67	376.83
555.83	421.30
556.00	454.06
556.16	500.87
556.33	428.32
556.50	414.27
556.66	397.89
556.83	458.74
556.99	433.00
557.16	428.32
557.32	416.62
557.49	407.25
557.65	423.64
557.82	402.57
557.98	430.66
558.15	383.85
558.32	376.83
558.48	346.40
558.65	428.32
558.81	411.93
558.98	379.17
559.14	379.17
559.31	496.19
559.47	395.55
559.64	395.55
559.80	393.21
559.97	435.34
560.13	409.59
560.30	418.96
560.46	402.57
560.63	418.96
560.79	454.06
560.96	404.91
561.12	416.62
561.29	430.66
561.45	411.93
561.61	447.04
561.78	470.45
561.94	381.51
562.11	404.91
562.27	477.47
562.44	440.02
562.60	423.64
562.77	482.15
562.93	447.04
563.10	416.62
563.26	367.46
563.42	411.93
563.59	414.27
563.75	479.81
563.92	479.81
564.08	397.89
564.24	423.64
564.41	437.68
564.57	425.98
564.74	428.32
564.90	402.57
565.07	472.79
565.23	381.51
565.39	409.59
565.56	404.91
565.72	444.70
565.88	407.25
566.05	423.64
566.21	416.62
566.38	381.51
566.54	395.55
566.70	407.25
566.87	428.32
567.03	386.19
567.19	444.70
567.36	341.72
567.52	463.43
567.68	444.70
567.85	423.64
568.01	351.08
568.17	423.64
568.34	472.79
568.50	411.93
568.66	451.72
568.83	468.11
568.99	472.79
569.15	447.04
569.32	416.62
569.48	437.68
569.64	348.74
569.81	388.53
569.97	390.87
570.13	461.09
570.30	379.17
570.46	428.32
570.62	447.04
570.78	423.64
570.95	400.23
571.11	493.85
571.27	491.51
571.43	409.59
571.60	435.34
571.76	442.36
571.92	404.91
572.09	428.32
572.25	418.96
572.41	451.72
572.57	407.25
572.74	465.77
572.90	418.96
573.06	376.83
573.22	512.58
573.38	430.66
573.55	437.68
573.71	402.57
573.87	465.77
574.03	442.36
574.20	454.06
574.36	423.64
574.52	393.21
574.68	404.91
574.84	451.72
575.01	444.70
575.17	456.40
575.33	397.89
575.49	463.43
575.65	440.02
575.82	451.72
575.98	423.64
576.14	379.17
576.30	414.27
576.46	496.19
576.62	327.68
576.79	442.36
576.95	367.46
577.11	433.00
577.27	388.53
577.43	390.87
577.59	454.06
577.75	442.36
577.92	461.09
578.08	421.30
578.24	402.57
578.40	442.36
578.56	409.59
578.72	500.87
578.88	393.21
579.04	428.32
579.21	440.02
579.37	433.00
579.53	379.17
579.69	442.36
579.85	423.64
580.01	440.02
580.17	362.78
580.33	386.19
580.49	456.40
580.65	430.66
580.82	411.93
580.98	376.83
581.14	369.80
581.30	404.91
581.46	409.59
581.62	430.66
581.78	376.83
581.94	442.36
582.10	449.38
582.26	369.80
582.42	414.27
582.58	468.11
582.74	421.30
582.90	423.64
583.06	409.59
583.22	442.36
583.38	383.85
583.54	449.38
583.70	482.15
583.86	400.23
584.02	444.70
584.18	430.66
584.34	414.27
584.50	400.23
584.66	442.36
584.82	418.96
584.98	440.02
585.14	414.27
585.30	372.15
585.46	447.04
585.62	397.89
585.78	447.04
585.94	430.66
586.10	449.38
586.26	440.02
586.42	479.81
586.58	353.42
586.74	418.96
586.90	409.59
587.06	416.62
587.22	428.32
587.38	358.10
587.54	458.74
587.70	456.40
587.86	409.59
588.02	454.06
588.18	437.68
588.34	381.51
588.49	395.55
588.65	482.15
588.81	418.96
588.97	390.87
589.13	355.76
589.29	458.74
589.45	430.66
589.61	449.38
589.77	395.55
589.93	416.62
590.08	477.47
590.24	355.76
590.40	407.25
590.56	395.55
590.72	365.12
590.88	414.27
591.04	444.70
591.20	402.57
591.35	465.77
591.51	388.53
591.67	351.08
591.83	367.46
591.99	416.62
592.15	400.23
592.31	428.32
592.46	411.93
592.62	409.59
592.78	421.30
592.94	428.32
593.10	454.06
593.26	400.23
593.41	449.38
593.57	458.74
593.73	430.66
593.89	454.06
594.05	425.98
594.20	447.04
594.36	435.34
594.52	437.68
594.68	407.25
594.84	367.46
594.99	423.64
595.15	400.23
595.31	461.09
595.47	451.72
595.62	358.10
595.78	372.15
595.94	447.04
596.10	475.13
596.25	379.17
596.41	442.36
596.57	479.81
596.73	411.93
596.88	416.62
597.04	308.95
597.20	393.21
597.36	404.91
597.51	496.19
597.67	388.53
597.83	404.91
597.99	362.78
598.14	468.11
598.30	428.32
598.46	397.89
598.61	390.87
598.77	423.64
598.93	433.00
599.09	381.51
599.24	409.59
599.40	409.59
599.56	388.53
599.71	465.77
599.87	416.62
600.03	379.17
600.18	423.64
600.34	435.34
600.50	372.15
600.65	404.91
600.81	470.45
600.97	470.45
601.12	433.00
601.28	433.00
601.44	404.91
601.59	365.12
601.75	456.40
601.91	395.55
602.06	411.93
602.22	454.06
602.37	367.46
602.53	383.85
602.69	402.57
602.84	362.78
603.00	423.64
603.16	449.38
603.31	477.47
603.47	433.00
603.62	418.96
603.78	355.76
603.94	463.43
604.09	482.15
604.25	414.27
604.40	472.79
604.56	472.79
604.71	425.98
604.87	423.64
605.03	404.91
605.18	435.34
605.34	463.43
605.49	454.06
605.65	421.30
605.80	447.04
605.96	411.93
606.12	477.47
606.27	414.27
606.43	486.83
606.58	414.27
606.74	449.38
606.89	421.30
607.05	414.27
607.20	475.13
607.36	421.30
607.51	395.55
607.67	458.74
607.82	423.64
607.98	397.89
608.13	477.47
608.29	454.06
608.44	425.98
608.60	430.66
608.75	458.74
608.91	444.70
609.06	449.38
609.22	430.66
609.37	407.25
609.53	395.55
609.68	484.49
609.84	395.55
609.99	369.80
610.15	372.15
