SpectraSuite Data File
++++++++++++++++++++++++++++++++++++
Date: Fri Oct 25 12:11:27 EDT 2013
User: price-jones
Dark Spectrum Present: No
Reference Spectrum Present: No
Number of Sampled Component Spectra: 1
Spectrometers: USB2+H05261
Integration Time (usec): 100000 (USB2+H05261)
Spectra Averaged: 1 (USB2+H05261)
Boxcar Smoothing: 0 (USB2+H05261)
Correct for Electrical Dark: No (USB2+H05261)
Strobe/Lamp Enabled: No (USB2+H05261)
Correct for Detector Non-linearity: No (USB2+H05261)
Correct for Stray Light: No (USB2+H05261)
Number of Pixels in Processed Spectrum: 2048
>>>>>Begin Processed Spectral Data<<<<<
365.73	322.99
365.92	322.99
366.12	322.99
366.32	227.03
366.52	255.12
366.72	273.84
366.91	234.05
367.11	280.86
367.31	248.10
367.51	205.97
367.70	262.14
367.90	283.20
368.10	299.59
368.30	212.99
368.49	220.01
368.69	292.57
368.89	238.73
369.09	217.67
369.28	320.65
369.48	264.48
369.68	290.23
369.87	262.14
370.07	330.02
370.27	330.02
370.47	339.38
370.66	320.65
370.86	339.38
371.06	365.12
371.25	393.21
371.45	365.12
371.65	435.34
371.84	308.95
372.04	411.93
372.24	353.42
372.44	383.85
372.63	376.83
372.83	428.32
373.03	402.57
373.22	379.17
373.42	369.80
373.62	372.15
373.81	437.68
374.01	437.68
374.21	421.30
374.40	344.06
374.60	374.49
374.79	397.89
374.99	418.96
375.19	477.47
375.38	437.68
375.58	411.93
375.78	372.15
375.97	421.30
376.17	435.34
376.37	416.62
376.56	400.23
376.76	442.36
376.95	390.87
377.15	458.74
377.35	409.59
377.54	458.74
377.74	355.76
377.93	454.06
378.13	418.96
378.33	472.79
378.52	334.70
378.72	376.83
378.91	402.57
379.11	374.49
379.31	320.65
379.50	447.04
379.70	369.80
379.89	400.23
380.09	341.72
380.28	379.17
380.48	404.91
380.68	421.30
380.87	435.34
381.07	411.93
381.26	433.00
381.46	411.93
381.65	320.65
381.85	418.96
382.04	383.85
382.24	386.19
382.43	411.93
382.63	355.76
382.83	428.32
383.02	395.55
383.22	423.64
383.41	388.53
383.61	388.53
383.80	416.62
384.00	407.25
384.19	402.57
384.39	411.93
384.58	423.64
384.78	402.57
384.97	430.66
385.17	465.77
385.36	458.74
385.56	355.76
385.75	339.38
385.95	404.91
386.14	416.62
386.34	442.36
386.53	468.11
386.72	374.49
386.92	486.83
387.11	409.59
387.31	472.79
387.50	383.85
387.70	404.91
387.89	447.04
388.09	372.15
388.28	430.66
388.48	332.36
388.67	444.70
388.86	414.27
389.06	454.06
389.25	440.02
389.45	327.68
389.64	369.80
389.84	482.15
390.03	503.22
390.22	374.49
390.42	388.53
390.61	383.85
390.81	395.55
391.00	472.79
391.19	390.87
391.39	423.64
391.58	435.34
391.78	395.55
391.97	475.13
392.16	400.23
392.36	402.57
392.55	325.33
392.75	376.83
392.94	402.57
393.13	369.80
393.33	479.81
393.52	379.17
393.71	451.72
393.91	381.51
394.10	397.89
394.29	407.25
394.49	325.33
394.68	358.10
394.88	486.83
395.07	493.85
395.26	400.23
395.46	477.47
395.65	468.11
395.84	416.62
396.04	447.04
396.23	414.27
396.42	486.83
396.62	409.59
396.81	423.64
397.00	409.59
397.19	458.74
397.39	369.80
397.58	425.98
397.77	456.40
397.97	442.36
398.16	444.70
398.35	402.57
398.55	425.98
398.74	479.81
398.93	362.78
399.12	348.74
399.32	442.36
399.51	411.93
399.70	430.66
399.90	374.49
400.09	428.32
400.28	411.93
400.47	400.23
400.67	444.70
400.86	425.98
401.05	477.47
401.24	428.32
401.44	404.91
401.63	440.02
401.82	437.68
402.01	493.85
402.21	400.23
402.40	369.80
402.59	358.10
402.78	365.12
402.97	388.53
403.17	367.46
403.36	430.66
403.55	369.80
403.74	416.62
403.93	383.85
404.13	440.02
404.32	416.62
404.51	400.23
404.70	383.85
404.89	393.21
405.09	486.83
405.28	390.87
405.47	330.02
405.66	500.87
405.85	454.06
406.05	423.64
406.24	421.30
406.43	374.49
406.62	463.43
406.81	451.72
407.00	465.77
407.20	388.53
407.39	306.61
407.58	374.49
407.77	444.70
407.96	447.04
408.15	390.87
408.34	386.19
408.54	372.15
408.73	381.51
408.92	404.91
409.11	400.23
409.30	397.89
409.49	358.10
409.68	435.34
409.87	458.74
410.07	365.12
410.26	381.51
410.45	435.34
410.64	341.72
410.83	381.51
411.02	374.49
411.21	442.36
411.40	388.53
411.59	479.81
411.78	393.21
411.98	327.68
412.17	425.98
412.36	407.25
412.55	372.15
412.74	367.46
412.93	383.85
413.12	430.66
413.31	440.02
413.50	332.36
413.69	374.49
413.88	369.80
414.07	461.09
414.26	447.04
414.45	465.77
414.64	430.66
414.83	414.27
415.02	428.32
415.22	447.04
415.41	447.04
415.60	433.00
415.79	444.70
415.98	461.09
416.17	358.10
416.36	468.11
416.55	425.98
416.74	491.51
416.93	486.83
417.12	334.70
417.31	360.44
417.50	411.93
417.69	402.57
417.88	411.93
418.07	381.51
418.26	351.08
418.45	416.62
418.64	430.66
418.83	404.91
419.02	383.85
419.21	383.85
419.39	465.77
419.58	409.59
419.77	346.40
419.96	414.27
420.15	414.27
420.34	346.40
420.53	397.89
420.72	491.51
420.91	421.30
421.10	407.25
421.29	442.36
421.48	395.55
421.67	489.17
421.86	393.21
422.05	407.25
422.24	423.64
422.43	428.32
422.61	379.17
422.80	374.49
422.99	414.27
423.18	400.23
423.37	493.85
423.56	421.30
423.75	414.27
423.94	442.36
424.13	372.15
424.32	383.85
424.50	393.21
424.69	414.27
424.88	454.06
425.07	437.68
425.26	456.40
425.45	397.89
425.64	379.17
425.83	330.02
426.01	416.62
426.20	404.91
426.39	407.25
426.58	454.06
426.77	491.51
426.96	440.02
427.15	381.51
427.33	461.09
427.52	414.27
427.71	353.42
427.90	447.04
428.09	390.87
428.28	414.27
428.46	346.40
428.65	454.06
428.84	388.53
429.03	369.80
429.22	404.91
429.40	458.74
429.59	440.02
429.78	435.34
429.97	379.17
430.16	423.64
430.34	421.30
430.53	407.25
430.72	332.36
430.91	381.51
431.10	456.40
431.28	456.40
431.47	418.96
431.66	416.62
431.85	433.00
432.03	388.53
432.22	388.53
432.41	372.15
432.60	440.02
432.79	416.62
432.97	404.91
433.16	383.85
433.35	381.51
433.54	402.57
433.72	517.26
433.91	468.11
434.10	330.02
434.28	451.72
434.47	339.38
434.66	444.70
434.85	428.32
435.03	416.62
435.22	433.00
435.41	421.30
435.59	365.12
435.78	407.25
435.97	358.10
436.16	437.68
436.34	421.30
436.53	435.34
436.72	498.53
436.90	472.79
437.09	414.27
437.28	430.66
437.46	402.57
437.65	416.62
437.84	468.11
438.02	423.64
438.21	454.06
438.40	421.30
438.58	374.49
438.77	325.33
438.96	454.06
439.14	451.72
439.33	456.40
439.52	437.68
439.70	355.76
439.89	477.47
440.08	369.80
440.26	388.53
440.45	458.74
440.63	393.21
440.82	376.83
441.01	465.77
441.19	376.83
441.38	430.66
441.57	386.19
441.75	435.34
441.94	404.91
442.12	444.70
442.31	402.57
442.50	416.62
442.68	402.57
442.87	358.10
443.05	374.49
443.24	416.62
443.43	379.17
443.61	433.00
443.80	447.04
443.98	435.34
444.17	372.15
444.35	372.15
444.54	402.57
444.73	409.59
444.91	451.72
445.10	435.34
445.28	416.62
445.47	486.83
445.65	421.30
445.84	425.98
446.02	409.59
446.21	383.85
446.39	358.10
446.58	425.98
446.77	388.53
446.95	400.23
447.14	444.70
447.32	428.32
447.51	376.83
447.69	425.98
447.88	367.46
448.06	430.66
448.25	411.93
448.43	465.77
448.62	404.91
448.80	454.06
448.99	463.43
449.17	383.85
449.36	383.85
449.54	386.19
449.73	428.32
449.91	395.55
450.10	414.27
450.28	430.66
450.46	451.72
450.65	388.53
450.83	465.77
451.02	355.76
451.20	503.22
451.39	395.55
451.57	423.64
451.76	390.87
451.94	411.93
452.13	447.04
452.31	433.00
452.49	435.34
452.68	451.72
452.86	383.85
453.05	421.30
453.23	318.31
453.42	393.21
453.60	400.23
453.78	409.59
453.97	367.46
454.15	454.06
454.34	482.15
454.52	425.98
454.70	435.34
454.89	390.87
455.07	383.85
455.26	425.98
455.44	437.68
455.62	407.25
455.81	435.34
455.99	437.68
456.17	447.04
456.36	463.43
456.54	395.55
456.73	409.59
456.91	369.80
457.09	472.79
457.28	477.47
457.46	395.55
457.64	414.27
457.83	400.23
458.01	395.55
458.19	433.00
458.38	411.93
458.56	381.51
458.74	414.27
458.93	360.44
459.11	372.15
459.29	372.15
459.48	397.89
459.66	479.81
459.84	407.25
460.03	411.93
460.21	461.09
460.39	372.15
460.57	454.06
460.76	491.51
460.94	440.02
461.12	463.43
461.31	433.00
461.49	402.57
461.67	365.12
461.85	388.53
462.04	390.87
462.22	772.38
462.40	440.02
462.59	353.42
462.77	411.93
462.95	402.57
463.13	418.96
463.32	425.98
463.50	461.09
463.68	465.77
463.86	362.78
464.05	393.21
464.23	428.32
464.41	449.38
464.59	402.57
464.78	414.27
464.96	315.97
465.14	428.32
465.32	339.38
465.50	433.00
465.69	418.96
465.87	421.30
466.05	365.12
466.23	360.44
466.41	430.66
466.60	414.27
466.78	358.10
466.96	472.79
467.14	428.32
467.32	386.19
467.51	397.89
467.69	362.78
467.87	400.23
468.05	360.44
468.23	500.87
468.41	435.34
468.60	390.87
468.78	409.59
468.96	388.53
469.14	418.96
469.32	397.89
469.50	390.87
469.69	465.77
469.87	388.53
470.05	435.34
470.23	433.00
470.41	454.06
470.59	479.81
470.77	437.68
470.95	414.27
471.14	372.15
471.32	351.08
471.50	458.74
471.68	402.57
471.86	451.72
472.04	400.23
472.22	428.32
472.40	435.34
472.58	379.17
472.77	465.77
472.95	489.17
473.13	433.00
473.31	435.34
473.49	344.06
473.67	423.64
473.85	463.43
474.03	395.55
474.21	437.68
474.39	440.02
474.57	425.98
474.75	442.36
474.93	435.34
475.12	322.99
475.30	306.61
475.48	447.04
475.66	416.62
475.84	400.23
476.02	433.00
476.20	428.32
476.38	416.62
476.56	428.32
476.74	444.70
476.92	454.06
477.10	425.98
477.28	367.46
477.46	414.27
477.64	449.38
477.82	404.91
478.00	397.89
478.18	449.38
478.36	433.00
478.54	430.66
478.72	397.89
478.90	423.64
479.08	437.68
479.26	409.59
479.44	327.68
479.62	372.15
479.80	397.89
479.98	379.17
480.16	395.55
480.34	418.96
480.52	421.30
480.70	383.85
480.88	435.34
481.06	461.09
481.24	433.00
481.41	416.62
481.59	447.04
481.77	414.27
481.95	435.34
482.13	402.57
482.31	475.13
482.49	362.78
482.67	397.89
482.85	414.27
483.03	369.80
483.21	400.23
483.39	390.87
483.57	360.44
483.74	411.93
483.92	339.38
484.10	383.85
484.28	470.45
484.46	503.22
484.64	407.25
484.82	404.91
485.00	428.32
485.18	440.02
485.35	440.02
485.53	421.30
485.71	414.27
485.89	360.44
486.07	383.85
486.25	418.96
486.43	409.59
486.61	454.06
486.78	404.91
486.96	369.80
487.14	348.74
487.32	442.36
487.50	383.85
487.68	395.55
487.85	423.64
488.03	463.43
488.21	433.00
488.39	463.43
488.57	397.89
488.75	414.27
488.92	461.09
489.10	402.57
489.28	388.53
489.46	440.02
489.64	334.70
489.81	395.55
489.99	430.66
490.17	416.62
490.35	428.32
490.53	388.53
490.70	362.78
490.88	355.76
491.06	425.98
491.24	388.53
491.41	440.02
491.59	447.04
491.77	416.62
491.95	337.04
492.13	404.91
492.30	395.55
492.48	451.72
492.66	367.46
492.84	451.72
493.01	414.27
493.19	369.80
493.37	454.06
493.54	414.27
493.72	381.51
493.90	360.44
494.08	496.19
494.25	444.70
494.43	395.55
494.61	505.56
494.79	451.72
494.96	400.23
495.14	400.23
495.32	428.32
495.49	447.04
495.67	390.87
495.85	458.74
496.02	381.51
496.20	337.04
496.38	447.04
496.55	418.96
496.73	411.93
496.91	433.00
497.09	463.43
497.26	404.91
497.44	395.55
497.62	414.27
497.79	451.72
497.97	465.77
498.14	423.64
498.32	418.96
498.50	451.72
498.67	395.55
498.85	421.30
499.03	463.43
499.20	355.76
499.38	411.93
499.56	461.09
499.73	442.36
499.91	423.64
500.08	512.58
500.26	430.66
500.44	425.98
500.61	444.70
500.79	430.66
500.97	418.96
501.14	421.30
501.32	444.70
501.49	489.17
501.67	393.21
501.84	390.87
502.02	339.38
502.20	390.87
502.37	442.36
502.55	344.06
502.72	390.87
502.90	433.00
503.07	421.30
503.25	376.83
503.43	386.19
503.60	451.72
503.78	425.98
503.95	416.62
504.13	379.17
504.30	365.12
504.48	376.83
504.65	465.77
504.83	447.04
505.01	449.38
505.18	430.66
505.36	383.85
505.53	348.74
505.71	362.78
505.88	337.04
506.06	421.30
506.23	442.36
506.41	425.98
506.58	418.96
506.76	390.87
506.93	421.30
507.11	330.02
507.28	325.33
507.46	397.89
507.63	358.10
507.81	372.15
507.98	463.43
508.16	486.83
508.33	360.44
508.50	376.83
508.68	430.66
508.85	437.68
509.03	353.42
509.20	454.06
509.38	409.59
509.55	493.85
509.73	425.98
509.90	500.87
510.08	414.27
510.25	440.02
510.42	477.47
510.60	505.56
510.77	386.19
510.95	379.17
511.12	421.30
511.30	418.96
511.47	376.83
511.64	407.25
511.82	409.59
511.99	374.49
512.17	407.25
512.34	454.06
512.51	344.06
512.69	414.27
512.86	365.12
513.04	358.10
513.21	372.15
513.38	341.72
513.56	409.59
513.73	463.43
513.90	416.62
514.08	433.00
514.25	360.44
514.43	367.46
514.60	407.25
514.77	444.70
514.95	440.02
515.12	418.96
515.29	367.46
515.47	409.59
515.64	454.06
515.81	393.21
515.99	407.25
516.16	449.38
516.33	404.91
516.51	386.19
516.68	407.25
516.85	451.72
517.03	425.98
517.20	437.68
517.37	442.36
517.54	465.77
517.72	437.68
517.89	421.30
518.06	409.59
518.24	449.38
518.41	475.13
518.58	400.23
518.75	437.68
518.93	327.68
519.10	416.62
519.27	456.40
519.45	402.57
519.62	477.47
519.79	362.78
519.96	322.99
520.14	367.46
520.31	409.59
520.48	472.79
520.65	348.74
520.83	425.98
521.00	362.78
521.17	463.43
521.34	409.59
521.52	418.96
521.69	437.68
521.86	411.93
522.03	395.55
522.20	440.02
522.38	397.89
522.55	428.32
522.72	421.30
522.89	386.19
523.07	538.32
523.24	411.93
523.41	395.55
523.58	404.91
523.75	395.55
523.92	409.59
524.10	409.59
524.27	442.36
524.44	428.32
524.61	437.68
524.78	393.21
524.96	411.93
525.13	404.91
525.30	383.85
525.47	437.68
525.64	435.34
525.81	465.77
525.98	409.59
526.16	404.91
526.33	458.74
526.50	402.57
526.67	390.87
526.84	428.32
527.01	337.04
527.18	409.59
527.36	367.46
527.53	423.64
527.70	454.06
527.87	388.53
528.04	372.15
528.21	468.11
528.38	433.00
528.55	423.64
528.72	433.00
528.89	416.62
529.07	435.34
529.24	365.12
529.41	491.51
529.58	388.53
529.75	393.21
529.92	440.02
530.09	472.79
530.26	444.70
530.43	409.59
530.60	390.87
530.77	409.59
530.94	411.93
531.11	393.21
531.28	433.00
531.46	402.57
531.63	393.21
531.80	435.34
531.97	472.79
532.14	433.00
532.31	433.00
532.48	346.40
532.65	414.27
532.82	423.64
532.99	397.89
533.16	372.15
533.33	416.62
533.50	433.00
533.67	421.30
533.84	444.70
534.01	386.19
534.18	388.53
534.35	353.42
534.52	400.23
534.69	418.96
534.86	379.17
535.03	416.62
535.20	402.57
535.37	414.27
535.54	418.96
535.71	374.49
535.88	482.15
536.05	418.96
536.22	430.66
536.38	400.23
536.55	409.59
536.72	416.62
536.89	372.15
537.06	386.19
537.23	381.51
537.40	360.44
537.57	341.72
537.74	437.68
537.91	472.79
538.08	454.06
538.25	425.98
538.42	461.09
538.59	404.91
538.75	407.25
538.92	374.49
539.09	458.74
539.26	437.68
539.43	409.59
539.60	433.00
539.77	404.91
539.94	440.02
540.11	437.68
540.28	425.98
540.44	475.13
540.61	425.98
540.78	395.55
540.95	327.68
541.12	477.47
541.29	322.99
541.46	454.06
541.62	437.68
541.79	351.08
541.96	402.57
542.13	322.99
542.30	444.70
542.47	367.46
542.63	383.85
542.80	376.83
542.97	360.44
543.14	425.98
543.31	454.06
543.48	493.85
543.64	409.59
543.81	397.89
543.98	437.68
544.15	437.68
544.32	421.30
544.48	451.72
544.65	416.62
544.82	428.32
544.99	442.36
545.16	440.02
545.32	470.45
545.49	486.83
545.66	461.09
545.83	388.53
546.00	358.10
546.16	442.36
546.33	458.74
546.50	451.72
546.67	442.36
546.83	390.87
547.00	468.11
547.17	421.30
547.34	386.19
547.50	397.89
547.67	451.72
547.84	402.57
548.00	486.83
548.17	381.51
548.34	449.38
548.51	461.09
548.67	463.43
548.84	353.42
549.01	411.93
549.18	313.63
549.34	330.02
549.51	411.93
549.68	463.43
549.84	449.38
550.01	425.98
550.18	437.68
550.34	449.38
550.51	425.98
550.68	423.64
550.84	388.53
551.01	479.81
551.18	433.00
551.34	435.34
551.51	381.51
551.68	451.72
551.84	421.30
552.01	386.19
552.18	369.80
552.34	379.17
552.51	400.23
552.68	458.74
552.84	470.45
553.01	425.98
553.18	442.36
553.34	440.02
553.51	421.30
553.67	388.53
553.84	484.49
554.01	365.12
554.17	433.00
554.34	355.76
554.51	442.36
554.67	402.57
554.84	416.62
555.00	416.62
555.17	346.40
555.33	365.12
555.50	498.53
555.67	425.98
555.83	390.87
556.00	491.51
556.16	496.19
556.33	418.96
556.50	484.49
556.66	425.98
556.83	435.34
556.99	390.87
557.16	430.66
557.32	507.90
557.49	475.13
557.65	383.85
557.82	475.13
557.98	482.15
558.15	395.55
558.32	341.72
558.48	414.27
558.65	430.66
558.81	468.11
558.98	383.85
559.14	482.15
559.31	477.47
559.47	477.47
559.64	456.40
559.80	409.59
559.97	383.85
560.13	402.57
560.30	421.30
560.46	397.89
560.63	353.42
560.79	376.83
560.96	442.36
561.12	468.11
561.29	451.72
561.45	444.70
561.61	493.85
561.78	500.87
561.94	404.91
562.11	351.08
562.27	421.30
562.44	442.36
562.60	395.55
562.77	442.36
562.93	510.24
563.10	486.83
563.26	393.21
563.42	390.87
563.59	421.30
563.75	400.23
563.92	442.36
564.08	447.04
564.24	400.23
564.41	444.70
564.57	430.66
564.74	433.00
564.90	421.30
565.07	440.02
565.23	411.93
565.39	386.19
565.56	416.62
565.72	451.72
565.88	444.70
566.05	409.59
566.21	444.70
566.38	414.27
566.54	442.36
566.70	388.53
566.87	374.49
567.03	428.32
567.19	470.45
567.36	402.57
567.52	367.46
567.68	435.34
567.85	334.70
568.01	486.83
568.17	379.17
568.34	376.83
568.50	477.47
568.66	423.64
568.83	512.58
568.99	444.70
569.15	500.87
569.32	456.40
569.48	353.42
569.64	388.53
569.81	393.21
569.97	390.87
570.13	456.40
570.30	388.53
570.46	395.55
570.62	458.74
570.78	369.80
570.95	379.17
571.11	552.37
571.27	472.79
571.43	425.98
571.60	404.91
571.76	386.19
571.92	341.72
572.09	461.09
572.25	404.91
572.41	367.46
572.57	404.91
572.74	500.87
572.90	402.57
573.06	430.66
573.22	440.02
573.38	433.00
573.55	463.43
573.71	423.64
573.87	404.91
574.03	442.36
574.20	447.04
574.36	416.62
574.52	458.74
574.68	409.59
574.84	449.38
575.01	386.19
575.17	409.59
575.33	402.57
575.49	465.77
575.65	470.45
575.82	388.53
575.98	395.55
576.14	337.04
576.30	423.64
576.46	435.34
576.62	442.36
576.79	468.11
576.95	390.87
577.11	437.68
577.27	402.57
577.43	383.85
577.59	381.51
577.75	425.98
577.92	360.44
578.08	402.57
578.24	404.91
578.40	465.77
578.56	437.68
578.72	461.09
578.88	409.59
579.04	475.13
579.21	381.51
579.37	454.06
579.53	379.17
579.69	433.00
579.85	451.72
580.01	428.32
580.17	381.51
580.33	381.51
580.49	346.40
580.65	404.91
580.82	440.02
580.98	465.77
581.14	390.87
581.30	449.38
581.46	458.74
581.62	374.49
581.78	475.13
581.94	442.36
582.10	327.68
582.26	367.46
582.42	444.70
582.58	418.96
582.74	442.36
582.90	447.04
583.06	489.17
583.22	393.21
583.38	376.83
583.54	381.51
583.70	491.51
583.86	444.70
584.02	423.64
584.18	491.51
584.34	386.19
584.50	500.87
584.66	454.06
584.82	433.00
584.98	486.83
585.14	388.53
585.30	500.87
585.46	425.98
585.62	390.87
585.78	353.42
585.94	411.93
586.10	430.66
586.26	430.66
586.42	458.74
586.58	435.34
586.74	374.49
586.90	388.53
587.06	383.85
587.22	409.59
587.38	397.89
587.54	449.38
587.70	442.36
587.86	421.30
588.02	425.98
588.18	411.93
588.34	437.68
588.49	393.21
588.65	435.34
588.81	390.87
588.97	411.93
589.13	423.64
589.29	475.13
589.45	414.27
589.61	442.36
589.77	465.77
589.93	407.25
590.08	395.55
590.24	451.72
590.40	472.79
590.56	423.64
590.72	402.57
590.88	418.96
591.04	461.09
591.20	498.53
591.35	475.13
591.51	383.85
591.67	435.34
591.83	468.11
591.99	470.45
592.15	402.57
592.31	435.34
592.46	388.53
592.62	400.23
592.78	407.25
592.94	407.25
593.10	423.64
593.26	435.34
593.41	461.09
593.57	454.06
593.73	341.72
593.89	430.66
594.05	461.09
594.20	463.43
594.36	477.47
594.52	489.17
594.68	423.64
594.84	440.02
594.99	388.53
595.15	437.68
595.31	463.43
595.47	444.70
595.62	397.89
595.78	386.19
595.94	479.81
596.10	475.13
596.25	442.36
596.41	411.93
596.57	414.27
596.73	395.55
596.88	454.06
597.04	425.98
597.20	355.76
597.36	411.93
597.51	465.77
597.67	503.22
597.83	386.19
597.99	465.77
598.14	440.02
598.30	414.27
598.46	411.93
598.61	447.04
598.77	472.79
598.93	468.11
599.09	437.68
599.24	395.55
599.40	449.38
599.56	444.70
599.71	421.30
599.87	376.83
600.03	416.62
600.18	407.25
600.34	430.66
600.50	407.25
600.65	435.34
600.81	456.40
600.97	388.53
601.12	404.91
601.28	491.51
601.44	416.62
601.59	404.91
601.75	430.66
601.91	423.64
602.06	411.93
602.22	435.34
602.37	472.79
602.53	365.12
602.69	411.93
602.84	404.91
603.00	456.40
603.16	428.32
603.31	444.70
603.47	379.17
603.62	395.55
603.78	381.51
603.94	372.15
604.09	442.36
604.25	444.70
604.40	421.30
604.56	423.64
604.71	428.32
604.87	411.93
605.03	402.57
605.18	430.66
605.34	388.53
605.49	423.64
605.65	393.21
605.80	449.38
605.96	404.91
606.12	433.00
606.27	418.96
606.43	395.55
606.58	472.79
606.74	418.96
606.89	393.21
607.05	444.70
607.20	433.00
607.36	437.68
607.51	395.55
607.67	358.10
607.82	444.70
607.98	500.87
608.13	423.64
608.29	407.25
608.44	486.83
608.60	435.34
608.75	465.77
608.91	386.19
609.06	440.02
609.22	500.87
609.37	416.62
609.53	418.96
609.68	451.72
609.84	449.38
609.99	442.36
610.15	383.85
