SpectraSuite Data File
++++++++++++++++++++++++++++++++++++
Date: Fri Oct 25 12:11:06 EDT 2013
User: price-jones
Dark Spectrum Present: No
Reference Spectrum Present: No
Number of Sampled Component Spectra: 1
Spectrometers: USB2+H05261
Integration Time (usec): 100000 (USB2+H05261)
Spectra Averaged: 1 (USB2+H05261)
Boxcar Smoothing: 0 (USB2+H05261)
Correct for Electrical Dark: No (USB2+H05261)
Strobe/Lamp Enabled: No (USB2+H05261)
Correct for Detector Non-linearity: No (USB2+H05261)
Correct for Stray Light: No (USB2+H05261)
Number of Pixels in Processed Spectrum: 2048
>>>>>Begin Processed Spectral Data<<<<<
365.73	332.36
365.92	332.36
366.12	332.36
366.32	201.29
366.52	243.42
366.72	238.73
366.91	238.73
367.11	208.31
367.31	224.69
367.51	227.03
367.70	262.14
367.90	292.57
368.10	227.03
368.30	184.90
368.49	241.08
368.69	266.82
368.89	234.05
369.09	346.40
369.28	266.82
369.48	266.82
369.68	341.72
369.87	292.57
370.07	304.27
370.27	327.68
370.47	264.48
370.66	332.36
370.86	262.14
371.06	416.62
371.25	355.76
371.45	322.99
371.65	390.87
371.84	381.51
372.04	344.06
372.24	313.63
372.44	383.85
372.63	402.57
372.83	318.31
373.03	435.34
373.22	433.00
373.42	381.51
373.62	390.87
373.81	416.62
374.01	428.32
374.21	458.74
374.40	454.06
374.60	428.32
374.79	376.83
374.99	404.91
375.19	421.30
375.38	367.46
375.58	477.47
375.78	489.17
375.97	421.30
376.17	484.49
376.37	379.17
376.56	454.06
376.76	409.59
376.95	397.89
377.15	472.79
377.35	409.59
377.54	390.87
377.74	423.64
377.93	425.98
378.13	442.36
378.33	442.36
378.52	430.66
378.72	358.10
378.91	428.32
379.11	423.64
379.31	416.62
379.50	395.55
379.70	386.19
379.89	428.32
380.09	433.00
380.28	404.91
380.48	414.27
380.68	423.64
380.87	360.44
381.07	465.77
381.26	416.62
381.46	430.66
381.65	449.38
381.85	360.44
382.04	454.06
382.24	421.30
382.43	388.53
382.63	355.76
382.83	379.17
383.02	430.66
383.22	440.02
383.41	376.83
383.61	411.93
383.80	428.32
384.00	416.62
384.19	386.19
384.39	451.72
384.58	358.10
384.78	388.53
384.97	475.13
385.17	425.98
385.36	362.78
385.56	397.89
385.75	433.00
385.95	372.15
386.14	393.21
386.34	395.55
386.53	402.57
386.72	400.23
386.92	512.58
387.11	442.36
387.31	332.36
387.50	393.21
387.70	442.36
387.89	423.64
388.09	358.10
388.28	440.02
388.48	423.64
388.67	383.85
388.86	374.49
389.06	397.89
389.25	416.62
389.45	475.13
389.64	360.44
389.84	428.32
390.03	407.25
390.22	320.65
390.42	348.74
390.61	365.12
390.81	341.72
391.00	393.21
391.19	360.44
391.39	409.59
391.58	414.27
391.78	435.34
391.97	409.59
392.16	390.87
392.36	444.70
392.55	447.04
392.75	397.89
392.94	418.96
393.13	367.46
393.33	404.91
393.52	397.89
393.71	367.46
393.91	330.02
394.10	461.09
394.29	411.93
394.49	524.28
394.68	374.49
394.88	496.19
395.07	486.83
395.26	397.89
395.46	425.98
395.65	433.00
395.84	433.00
396.04	430.66
396.23	383.85
396.42	358.10
396.62	479.81
396.81	421.30
397.00	362.78
397.19	418.96
397.39	365.12
397.58	367.46
397.77	409.59
397.97	423.64
398.16	418.96
398.35	451.72
398.55	414.27
398.74	444.70
398.93	433.00
399.12	397.89
399.32	383.85
399.51	383.85
399.70	407.25
399.90	430.66
400.09	379.17
400.28	433.00
400.47	386.19
400.67	341.72
400.86	465.77
401.05	404.91
401.24	402.57
401.44	435.34
401.63	411.93
401.82	386.19
402.01	400.23
402.21	489.17
402.40	421.30
402.59	358.10
402.78	376.83
402.97	454.06
403.17	400.23
403.36	404.91
403.55	395.55
403.74	374.49
403.93	402.57
404.13	517.26
404.32	393.21
404.51	407.25
404.70	386.19
404.89	477.47
405.09	437.68
405.28	409.59
405.47	493.85
405.66	407.25
405.85	468.11
406.05	428.32
406.24	351.08
406.43	409.59
406.62	386.19
406.81	489.17
407.00	416.62
407.20	423.64
407.39	451.72
407.58	411.93
407.77	374.49
407.96	423.64
408.15	454.06
408.34	388.53
408.54	390.87
408.73	374.49
408.92	407.25
409.11	390.87
409.30	444.70
409.49	376.83
409.68	355.76
409.87	388.53
410.07	388.53
410.26	444.70
410.45	463.43
410.64	358.10
410.83	397.89
411.02	416.62
411.21	327.68
411.40	428.32
411.59	397.89
411.78	374.49
411.98	402.57
412.17	327.68
412.36	374.49
412.55	458.74
412.74	390.87
412.93	393.21
413.12	423.64
413.31	402.57
413.50	369.80
413.69	423.64
413.88	472.79
414.07	472.79
414.26	428.32
414.45	397.89
414.64	330.02
414.83	376.83
415.02	372.15
415.22	395.55
415.41	442.36
415.60	454.06
415.79	402.57
415.98	463.43
416.17	425.98
416.36	409.59
416.55	435.34
416.74	465.77
416.93	430.66
417.12	423.64
417.31	421.30
417.50	400.23
417.69	440.02
417.88	477.47
418.07	414.27
418.26	486.83
418.45	374.49
418.64	407.25
418.83	353.42
419.02	369.80
419.21	390.87
419.39	402.57
419.58	440.02
419.77	449.38
419.96	440.02
420.15	449.38
420.34	444.70
420.53	341.72
420.72	437.68
420.91	472.79
421.10	367.46
421.29	411.93
421.48	400.23
421.67	477.47
421.86	400.23
422.05	386.19
422.24	365.12
422.43	409.59
422.61	430.66
422.80	346.40
422.99	369.80
423.18	416.62
423.37	404.91
423.56	421.30
423.75	381.51
423.94	390.87
424.13	472.79
424.32	461.09
424.50	402.57
424.69	332.36
424.88	393.21
425.07	397.89
425.26	423.64
425.45	400.23
425.64	470.45
425.83	402.57
426.01	360.44
426.20	435.34
426.39	379.17
426.58	454.06
426.77	395.55
426.96	390.87
427.15	463.43
427.33	388.53
427.52	435.34
427.71	416.62
427.90	390.87
428.09	397.89
428.28	411.93
428.46	447.04
428.65	400.23
428.84	463.43
429.03	470.45
429.22	437.68
429.40	402.57
429.59	374.49
429.78	465.77
429.97	503.22
430.16	447.04
430.34	393.21
430.53	421.30
430.72	379.17
430.91	376.83
431.10	374.49
431.28	425.98
431.47	402.57
431.66	484.49
431.85	435.34
432.03	428.32
432.22	456.40
432.41	421.30
432.60	440.02
432.79	374.49
432.97	386.19
433.16	402.57
433.35	367.46
433.54	484.49
433.72	493.85
433.91	440.02
434.10	411.93
434.28	465.77
434.47	435.34
434.66	423.64
434.85	463.43
435.03	395.55
435.22	442.36
435.41	421.30
435.59	456.40
435.78	447.04
435.97	449.38
436.16	409.59
436.34	444.70
436.53	470.45
436.72	437.68
436.90	435.34
437.09	374.49
437.28	475.13
437.46	404.91
437.65	367.46
437.84	435.34
438.02	409.59
438.21	440.02
438.40	369.80
438.58	353.42
438.77	351.08
438.96	332.36
439.14	423.64
439.33	409.59
439.52	477.47
439.70	388.53
439.89	451.72
440.08	402.57
440.26	369.80
440.45	390.87
440.63	353.42
440.82	379.17
441.01	372.15
441.19	386.19
441.38	423.64
441.57	362.78
441.75	435.34
441.94	409.59
442.12	461.09
442.31	425.98
442.50	372.15
442.68	454.06
442.87	447.04
443.05	367.46
443.24	351.08
443.43	318.31
443.61	418.96
443.80	381.51
443.98	449.38
444.17	337.04
444.35	383.85
444.54	367.46
444.73	477.47
444.91	404.91
445.10	402.57
445.28	402.57
445.47	381.51
445.65	411.93
445.84	433.00
446.02	451.72
446.21	402.57
446.39	440.02
446.58	475.13
446.77	411.93
446.95	390.87
447.14	423.64
447.32	428.32
447.51	444.70
447.69	451.72
447.88	489.17
448.06	416.62
448.25	463.43
448.43	402.57
448.62	437.68
448.80	444.70
448.99	414.27
449.17	416.62
449.36	360.44
449.54	449.38
449.73	444.70
449.91	447.04
450.10	425.98
450.28	440.02
450.46	500.87
450.65	463.43
450.83	379.17
451.02	367.46
451.20	430.66
451.39	407.25
451.57	393.21
451.76	425.98
451.94	395.55
452.13	369.80
452.31	397.89
452.49	442.36
452.68	402.57
452.86	407.25
453.05	442.36
453.23	346.40
453.42	369.80
453.60	449.38
453.78	437.68
453.97	381.51
454.15	400.23
454.34	411.93
454.52	376.83
454.70	468.11
454.89	407.25
455.07	367.46
455.26	528.96
455.44	381.51
455.62	400.23
455.81	407.25
455.99	416.62
456.17	451.72
456.36	416.62
456.54	468.11
456.73	430.66
456.91	411.93
457.09	407.25
457.28	395.55
457.46	407.25
457.64	491.51
457.83	437.68
458.01	468.11
458.19	498.53
458.38	344.06
458.56	442.36
458.74	355.76
458.93	383.85
459.11	397.89
459.29	456.40
459.48	409.59
459.66	369.80
459.84	458.74
460.03	451.72
460.21	383.85
460.39	416.62
460.57	472.79
460.76	416.62
460.94	423.64
461.12	475.13
461.31	463.43
461.49	454.06
461.67	507.90
461.85	332.36
462.04	383.85
462.22	718.54
462.40	493.85
462.59	442.36
462.77	430.66
462.95	414.27
463.13	393.21
463.32	360.44
463.50	479.81
463.68	360.44
463.86	435.34
464.05	376.83
464.23	470.45
464.41	479.81
464.59	372.15
464.78	421.30
464.96	393.21
465.14	409.59
465.32	411.93
465.50	435.34
465.69	435.34
465.87	379.17
466.05	374.49
466.23	395.55
466.41	308.95
466.60	433.00
466.78	461.09
466.96	444.70
467.14	475.13
467.32	472.79
467.51	365.12
467.69	461.09
467.87	465.77
468.05	397.89
468.23	425.98
468.41	447.04
468.60	388.53
468.78	423.64
468.96	397.89
469.14	407.25
469.32	468.11
469.50	454.06
469.69	360.44
469.87	437.68
470.05	388.53
470.23	390.87
470.41	390.87
470.59	386.19
470.77	437.68
470.95	442.36
471.14	411.93
471.32	404.91
471.50	360.44
471.68	322.99
471.86	395.55
472.04	435.34
472.22	402.57
472.40	414.27
472.58	400.23
472.77	376.83
472.95	442.36
473.13	428.32
473.31	407.25
473.49	376.83
473.67	325.33
473.85	428.32
474.03	372.15
474.21	430.66
474.39	437.68
474.57	383.85
474.75	440.02
474.93	472.79
475.12	435.34
475.30	425.98
475.48	425.98
475.66	433.00
475.84	409.59
476.02	442.36
476.20	440.02
476.38	386.19
476.56	538.32
476.74	461.09
476.92	442.36
477.10	447.04
477.28	475.13
477.46	383.85
477.64	397.89
477.82	372.15
478.00	393.21
478.18	433.00
478.36	383.85
478.54	379.17
478.72	376.83
478.90	425.98
479.08	440.02
479.26	440.02
479.44	395.55
479.62	318.31
479.80	393.21
479.98	393.21
480.16	402.57
480.34	411.93
480.52	299.59
480.70	477.47
480.88	311.29
481.06	423.64
481.24	409.59
481.41	411.93
481.59	447.04
481.77	407.25
481.95	416.62
482.13	475.13
482.31	440.02
482.49	411.93
482.67	454.06
482.85	456.40
483.03	409.59
483.21	444.70
483.39	348.74
483.57	358.10
483.74	355.76
483.92	334.70
484.10	388.53
484.28	437.68
484.46	470.45
484.64	437.68
484.82	367.46
485.00	482.15
485.18	409.59
485.35	418.96
485.53	341.72
485.71	381.51
485.89	416.62
486.07	449.38
486.25	463.43
486.43	435.34
486.61	428.32
486.78	360.44
486.96	388.53
487.14	386.19
487.32	477.47
487.50	421.30
487.68	407.25
487.85	418.96
488.03	433.00
488.21	395.55
488.39	372.15
488.57	449.38
488.75	400.23
488.92	400.23
489.10	390.87
489.28	428.32
489.46	440.02
489.64	418.96
489.81	400.23
489.99	414.27
490.17	437.68
490.35	526.62
490.53	362.78
490.70	383.85
490.88	430.66
491.06	348.74
491.24	407.25
491.41	421.30
491.59	407.25
491.77	421.30
491.95	451.72
492.13	409.59
492.30	454.06
492.48	411.93
492.66	423.64
492.84	461.09
493.01	383.85
493.19	454.06
493.37	418.96
493.54	447.04
493.72	411.93
493.90	428.32
494.08	437.68
494.25	379.17
494.43	421.30
494.61	454.06
494.79	362.78
494.96	461.09
495.14	374.49
495.32	386.19
495.49	416.62
495.67	456.40
495.85	435.34
496.02	369.80
496.20	383.85
496.38	425.98
496.55	381.51
496.73	428.32
496.91	367.46
497.09	404.91
497.26	372.15
497.44	395.55
497.62	442.36
497.79	440.02
497.97	416.62
498.14	433.00
498.32	442.36
498.50	416.62
498.67	395.55
498.85	411.93
499.03	447.04
499.20	318.31
499.38	407.25
499.56	395.55
499.73	383.85
499.91	449.38
500.08	447.04
500.26	397.89
500.44	344.06
500.61	421.30
500.79	358.10
500.97	418.96
501.14	379.17
501.32	437.68
501.49	383.85
501.67	393.21
501.84	468.11
502.02	395.55
502.20	411.93
502.37	414.27
502.55	383.85
502.72	404.91
502.90	374.49
503.07	400.23
503.25	437.68
503.43	435.34
503.60	442.36
503.78	367.46
503.95	423.64
504.13	362.78
504.30	395.55
504.48	461.09
504.65	447.04
504.83	407.25
505.01	444.70
505.18	421.30
505.36	449.38
505.53	346.40
505.71	353.42
505.88	451.72
506.06	447.04
506.23	458.74
506.41	390.87
506.58	383.85
506.76	402.57
506.93	430.66
507.11	407.25
507.28	442.36
507.46	383.85
507.63	477.47
507.81	472.79
507.98	418.96
508.16	454.06
508.33	407.25
508.50	449.38
508.68	454.06
508.85	428.32
509.03	444.70
509.20	407.25
509.38	425.98
509.55	468.11
509.73	447.04
509.90	454.06
510.08	416.62
510.25	437.68
510.42	423.64
510.60	400.23
510.77	383.85
510.95	414.27
511.12	409.59
511.30	416.62
511.47	421.30
511.64	390.87
511.82	425.98
511.99	407.25
512.17	404.91
512.34	390.87
512.51	414.27
512.69	372.15
512.86	388.53
513.04	423.64
513.21	458.74
513.38	353.42
513.56	430.66
513.73	372.15
513.90	313.63
514.08	402.57
514.25	339.38
514.43	442.36
514.60	388.53
514.77	393.21
514.95	463.43
515.12	379.17
515.29	428.32
515.47	372.15
515.64	383.85
515.81	411.93
515.99	428.32
516.16	407.25
516.33	414.27
516.51	430.66
516.68	402.57
516.85	360.44
517.03	355.76
517.20	437.68
517.37	463.43
517.54	400.23
517.72	440.02
517.89	381.51
518.06	344.06
518.24	435.34
518.41	500.87
518.58	381.51
518.75	367.46
518.93	425.98
519.10	531.30
519.27	463.43
519.45	383.85
519.62	484.49
519.79	463.43
519.96	390.87
520.14	379.17
520.31	425.98
520.48	418.96
520.65	447.04
520.83	355.76
521.00	433.00
521.17	470.45
521.34	468.11
521.52	437.68
521.69	374.49
521.86	407.25
522.03	447.04
522.20	465.77
522.38	400.23
522.55	395.55
522.72	407.25
522.89	451.72
523.07	496.19
523.24	428.32
523.41	404.91
523.58	397.89
523.75	397.89
523.92	351.08
524.10	395.55
524.27	416.62
524.44	433.00
524.61	400.23
524.78	437.68
524.96	423.64
525.13	416.62
525.30	372.15
525.47	397.89
525.64	397.89
525.81	428.32
525.98	381.51
526.16	404.91
526.33	435.34
526.50	369.80
526.67	428.32
526.84	379.17
527.01	376.83
527.18	435.34
527.36	395.55
527.53	339.38
527.70	414.27
527.87	451.72
528.04	498.53
528.21	369.80
528.38	444.70
528.55	444.70
528.72	437.68
528.89	465.77
529.07	475.13
529.24	409.59
529.41	411.93
529.58	423.64
529.75	374.49
529.92	423.64
530.09	421.30
530.26	360.44
530.43	381.51
530.60	393.21
530.77	451.72
530.94	362.78
531.11	388.53
531.28	400.23
531.46	428.32
531.63	423.64
531.80	404.91
531.97	463.43
532.14	423.64
532.31	463.43
532.48	468.11
532.65	433.00
532.82	442.36
532.99	393.21
533.16	402.57
533.33	428.32
533.50	456.40
533.67	301.93
533.84	442.36
534.01	404.91
534.18	404.91
534.35	463.43
534.52	454.06
534.69	397.89
534.86	418.96
535.03	418.96
535.20	449.38
535.37	440.02
535.54	367.46
535.71	437.68
535.88	496.19
536.05	379.17
536.22	472.79
536.38	444.70
536.55	428.32
536.72	437.68
536.89	425.98
537.06	404.91
537.23	367.46
537.40	435.34
537.57	430.66
537.74	458.74
537.91	337.04
538.08	458.74
538.25	416.62
538.42	519.60
538.59	393.21
538.75	444.70
538.92	423.64
539.09	477.47
539.26	386.19
539.43	465.77
539.60	449.38
539.77	400.23
539.94	397.89
540.11	444.70
540.28	503.22
540.44	461.09
540.61	388.53
540.78	386.19
540.95	428.32
541.12	461.09
541.29	407.25
541.46	456.40
541.62	435.34
541.79	451.72
541.96	423.64
542.13	411.93
542.30	440.02
542.47	402.57
542.63	428.32
542.80	428.32
542.97	423.64
543.14	374.49
543.31	458.74
543.48	369.80
543.64	397.89
543.81	409.59
543.98	348.74
544.15	425.98
544.32	414.27
544.48	503.22
544.65	409.59
544.82	496.19
544.99	334.70
545.16	425.98
545.32	447.04
545.49	423.64
545.66	393.21
545.83	463.43
546.00	390.87
546.16	440.02
546.33	383.85
546.50	395.55
546.67	400.23
546.83	447.04
547.00	425.98
547.17	390.87
547.34	400.23
547.50	376.83
547.67	365.12
547.84	365.12
548.00	454.06
548.17	414.27
548.34	428.32
548.51	362.78
548.67	374.49
548.84	461.09
549.01	383.85
549.18	449.38
549.34	376.83
549.51	425.98
549.68	442.36
549.84	397.89
550.01	402.57
550.18	428.32
550.34	482.15
550.51	433.00
550.68	444.70
550.84	435.34
551.01	393.21
551.18	451.72
551.34	418.96
551.51	367.46
551.68	379.17
551.84	482.15
552.01	402.57
552.18	402.57
552.34	470.45
552.51	414.27
552.68	468.11
552.84	390.87
553.01	479.81
553.18	416.62
553.34	543.00
553.51	414.27
553.67	418.96
553.84	465.77
554.01	402.57
554.17	423.64
554.34	423.64
554.51	372.15
554.67	395.55
554.84	369.80
555.00	442.36
555.17	425.98
555.33	440.02
555.50	409.59
555.67	386.19
555.83	353.42
556.00	397.89
556.16	547.69
556.33	433.00
556.50	390.87
556.66	397.89
556.83	407.25
556.99	489.17
557.16	365.12
557.32	454.06
557.49	411.93
557.65	461.09
557.82	423.64
557.98	411.93
558.15	423.64
558.32	465.77
558.48	409.59
558.65	433.00
558.81	397.89
558.98	407.25
559.14	463.43
559.31	444.70
559.47	463.43
559.64	414.27
559.80	409.59
559.97	393.21
560.13	449.38
560.30	390.87
560.46	416.62
560.63	400.23
560.79	416.62
560.96	442.36
561.12	449.38
561.29	411.93
561.45	400.23
561.61	379.17
561.78	491.51
561.94	404.91
562.11	404.91
562.27	425.98
562.44	386.19
562.60	449.38
562.77	418.96
562.93	456.40
563.10	444.70
563.26	404.91
563.42	470.45
563.59	451.72
563.75	318.31
563.92	444.70
564.08	447.04
564.24	397.89
564.41	409.59
564.57	360.44
564.74	390.87
564.90	346.40
565.07	395.55
565.23	447.04
565.39	472.79
565.56	465.77
565.72	468.11
565.88	369.80
566.05	358.10
566.21	404.91
566.38	414.27
566.54	430.66
566.70	369.80
566.87	400.23
567.03	393.21
567.19	374.49
567.36	407.25
567.52	411.93
567.68	369.80
567.85	449.38
568.01	444.70
568.17	383.85
568.34	372.15
568.50	430.66
568.66	435.34
568.83	477.47
568.99	454.06
569.15	423.64
569.32	379.17
569.48	418.96
569.64	355.76
569.81	430.66
569.97	390.87
570.13	465.77
570.30	440.02
570.46	458.74
570.62	411.93
570.78	475.13
570.95	409.59
571.11	449.38
571.27	461.09
571.43	411.93
571.60	440.02
571.76	458.74
571.92	421.30
572.09	393.21
572.25	416.62
572.41	425.98
572.57	360.44
572.74	430.66
572.90	451.72
573.06	409.59
573.22	388.53
573.38	444.70
573.55	381.51
573.71	418.96
573.87	411.93
574.03	393.21
574.20	418.96
574.36	470.45
574.52	414.27
574.68	444.70
574.84	454.06
575.01	449.38
575.17	395.55
575.33	425.98
575.49	400.23
575.65	428.32
575.82	447.04
575.98	472.79
576.14	397.89
576.30	425.98
576.46	465.77
576.62	411.93
576.79	435.34
576.95	386.19
577.11	418.96
577.27	353.42
577.43	416.62
577.59	489.17
577.75	393.21
577.92	442.36
578.08	395.55
578.24	458.74
578.40	400.23
578.56	470.45
578.72	449.38
578.88	393.21
579.04	386.19
579.21	461.09
579.37	423.64
579.53	479.81
579.69	414.27
579.85	383.85
580.01	365.12
580.17	411.93
580.33	379.17
580.49	393.21
580.65	418.96
580.82	383.85
580.98	400.23
581.14	435.34
581.30	407.25
581.46	416.62
581.62	425.98
581.78	379.17
581.94	444.70
582.10	423.64
582.26	400.23
582.42	374.49
582.58	395.55
582.74	376.83
582.90	503.22
583.06	463.43
583.22	386.19
583.38	388.53
583.54	423.64
583.70	442.36
583.86	404.91
584.02	449.38
584.18	437.68
584.34	351.08
584.50	407.25
584.66	374.49
584.82	362.78
584.98	454.06
585.14	404.91
585.30	461.09
585.46	482.15
585.62	437.68
585.78	437.68
585.94	503.22
586.10	468.11
586.26	388.53
586.42	454.06
586.58	447.04
586.74	374.49
586.90	388.53
587.06	418.96
587.22	348.74
587.38	376.83
587.54	414.27
587.70	482.15
587.86	440.02
588.02	362.78
588.18	425.98
588.34	425.98
588.49	374.49
588.65	386.19
588.81	402.57
588.97	440.02
589.13	447.04
589.29	435.34
589.45	421.30
589.61	372.15
589.77	451.72
589.93	449.38
590.08	423.64
590.24	395.55
590.40	421.30
590.56	425.98
590.72	376.83
590.88	374.49
591.04	402.57
591.20	486.83
591.35	414.27
591.51	381.51
591.67	393.21
591.83	428.32
591.99	383.85
592.15	428.32
592.31	395.55
592.46	374.49
592.62	442.36
592.78	430.66
592.94	379.17
593.10	386.19
593.26	346.40
593.41	437.68
593.57	400.23
593.73	397.89
593.89	409.59
594.05	470.45
594.20	440.02
594.36	400.23
594.52	397.89
594.68	416.62
594.84	386.19
594.99	416.62
595.15	409.59
595.31	390.87
595.47	519.60
595.62	444.70
595.78	423.64
595.94	421.30
596.10	397.89
596.25	433.00
596.41	489.17
596.57	407.25
596.73	390.87
596.88	449.38
597.04	423.64
597.20	442.36
597.36	437.68
597.51	360.44
597.67	407.25
597.83	421.30
597.99	451.72
598.14	475.13
598.30	414.27
598.46	411.93
598.61	451.72
598.77	379.17
598.93	400.23
599.09	381.51
599.24	416.62
599.40	404.91
599.56	440.02
599.71	362.78
599.87	381.51
600.03	306.61
600.18	360.44
600.34	411.93
600.50	374.49
600.65	444.70
600.81	470.45
600.97	402.57
601.12	442.36
601.28	395.55
601.44	390.87
601.59	421.30
601.75	393.21
601.91	442.36
602.06	409.59
602.22	505.56
602.37	454.06
602.53	416.62
602.69	435.34
602.84	411.93
603.00	320.65
603.16	447.04
603.31	421.30
603.47	449.38
603.62	402.57
603.78	440.02
603.94	447.04
604.09	388.53
604.25	393.21
604.40	482.15
604.56	358.10
604.71	468.11
604.87	402.57
605.03	421.30
605.18	393.21
605.34	454.06
605.49	428.32
605.65	360.44
605.80	395.55
605.96	379.17
606.12	442.36
606.27	458.74
606.43	402.57
606.58	461.09
606.74	418.96
606.89	470.45
607.05	498.53
607.20	362.78
607.36	416.62
607.51	437.68
607.67	383.85
607.82	381.51
607.98	458.74
608.13	416.62
608.29	440.02
608.44	484.49
608.60	383.85
608.75	383.85
608.91	454.06
609.06	463.43
609.22	423.64
609.37	386.19
609.53	407.25
609.68	416.62
609.84	351.08
609.99	376.83
610.15	395.55
