SpectraSuite Data File
++++++++++++++++++++++++++++++++++++
Date: Fri Oct 25 12:11:33 EDT 2013
User: price-jones
Dark Spectrum Present: No
Reference Spectrum Present: No
Number of Sampled Component Spectra: 1
Spectrometers: USB2+H05261
Integration Time (usec): 100000 (USB2+H05261)
Spectra Averaged: 1 (USB2+H05261)
Boxcar Smoothing: 0 (USB2+H05261)
Correct for Electrical Dark: No (USB2+H05261)
Strobe/Lamp Enabled: No (USB2+H05261)
Correct for Detector Non-linearity: No (USB2+H05261)
Correct for Stray Light: No (USB2+H05261)
Number of Pixels in Processed Spectrum: 2048
>>>>>Begin Processed Spectral Data<<<<<
365.73	369.80
365.92	369.80
366.12	369.80
366.32	255.12
366.52	203.63
366.72	229.37
366.91	201.29
367.11	287.89
367.31	196.60
367.51	222.35
367.70	290.23
367.90	259.80
368.10	229.37
368.30	231.71
368.49	248.10
368.69	273.84
368.89	180.22
369.09	290.23
369.28	248.10
369.48	299.59
369.68	301.93
369.87	276.18
370.07	287.89
370.27	379.17
370.47	404.91
370.66	301.93
370.86	367.46
371.06	383.85
371.25	379.17
371.45	344.06
371.65	346.40
371.84	313.63
372.04	322.99
372.24	449.38
372.44	451.72
372.63	447.04
372.83	313.63
373.03	395.55
373.22	386.19
373.42	449.38
373.62	482.15
373.81	442.36
374.01	393.21
374.21	416.62
374.40	374.49
374.60	390.87
374.79	395.55
374.99	390.87
375.19	386.19
375.38	402.57
375.58	404.91
375.78	425.98
375.97	447.04
376.17	475.13
376.37	395.55
376.56	423.64
376.76	409.59
376.95	379.17
377.15	407.25
377.35	360.44
377.54	313.63
377.74	409.59
377.93	423.64
378.13	397.89
378.33	449.38
378.52	369.80
378.72	491.51
378.91	383.85
379.11	348.74
379.31	332.36
379.50	341.72
379.70	442.36
379.89	442.36
380.09	376.83
380.28	440.02
380.48	423.64
380.68	465.77
380.87	416.62
381.07	367.46
381.26	388.53
381.46	416.62
381.65	468.11
381.85	374.49
382.04	393.21
382.24	395.55
382.43	348.74
382.63	341.72
382.83	421.30
383.02	486.83
383.22	428.32
383.41	339.38
383.61	355.76
383.80	414.27
384.00	425.98
384.19	388.53
384.39	442.36
384.58	423.64
384.78	355.76
384.97	442.36
385.17	414.27
385.36	362.78
385.56	376.83
385.75	358.10
385.95	400.23
386.14	493.85
386.34	402.57
386.53	374.49
386.72	484.49
386.92	402.57
387.11	416.62
387.31	470.45
387.50	320.65
387.70	301.93
387.89	458.74
388.09	451.72
388.28	430.66
388.48	397.89
388.67	402.57
388.86	353.42
389.06	402.57
389.25	358.10
389.45	332.36
389.64	433.00
389.84	463.43
390.03	444.70
390.22	386.19
390.42	344.06
390.61	346.40
390.81	358.10
391.00	379.17
391.19	418.96
391.39	393.21
391.58	454.06
391.78	409.59
391.97	397.89
392.16	334.70
392.36	418.96
392.55	409.59
392.75	397.89
392.94	407.25
393.13	383.85
393.33	395.55
393.52	390.87
393.71	411.93
393.91	423.64
394.10	397.89
394.29	351.08
394.49	472.79
394.68	414.27
394.88	411.93
395.07	388.53
395.26	416.62
395.46	428.32
395.65	437.68
395.84	484.49
396.04	463.43
396.23	428.32
396.42	470.45
396.62	465.77
396.81	404.91
397.00	414.27
397.19	379.17
397.39	454.06
397.58	393.21
397.77	444.70
397.97	458.74
398.16	407.25
398.35	393.21
398.55	365.12
398.74	390.87
398.93	407.25
399.12	433.00
399.32	393.21
399.51	437.68
399.70	369.80
399.90	400.23
400.09	358.10
400.28	411.93
400.47	479.81
400.67	395.55
400.86	409.59
401.05	388.53
401.24	383.85
401.44	404.91
401.63	407.25
401.82	428.32
402.01	388.53
402.21	388.53
402.40	447.04
402.59	414.27
402.78	454.06
402.97	313.63
403.17	428.32
403.36	379.17
403.55	362.78
403.74	451.72
403.93	365.12
404.13	430.66
404.32	315.97
404.51	435.34
404.70	376.83
404.89	425.98
405.09	449.38
405.28	376.83
405.47	447.04
405.66	381.51
405.85	437.68
406.05	440.02
406.24	353.42
406.43	442.36
406.62	444.70
406.81	397.89
407.00	470.45
407.20	433.00
407.39	374.49
407.58	458.74
407.77	400.23
407.96	388.53
408.15	369.80
408.34	416.62
408.54	418.96
408.73	425.98
408.92	428.32
409.11	407.25
409.30	404.91
409.49	400.23
409.68	397.89
409.87	414.27
410.07	381.51
410.26	468.11
410.45	393.21
410.64	355.76
410.83	365.12
411.02	388.53
411.21	400.23
411.40	409.59
411.59	390.87
411.78	351.08
411.98	425.98
412.17	376.83
412.36	355.76
412.55	341.72
412.74	400.23
412.93	454.06
413.12	339.38
413.31	447.04
413.50	400.23
413.69	386.19
413.88	351.08
414.07	351.08
414.26	407.25
414.45	372.15
414.64	414.27
414.83	369.80
415.02	421.30
415.22	395.55
415.41	404.91
415.60	416.62
415.79	341.72
415.98	402.57
416.17	456.40
416.36	414.27
416.55	388.53
416.74	444.70
416.93	440.02
417.12	376.83
417.31	369.80
417.50	447.04
417.69	470.45
417.88	449.38
418.07	407.25
418.26	433.00
418.45	400.23
418.64	414.27
418.83	458.74
419.02	425.98
419.21	418.96
419.39	423.64
419.58	402.57
419.77	425.98
419.96	383.85
420.15	451.72
420.34	346.40
420.53	447.04
420.72	395.55
420.91	451.72
421.10	425.98
421.29	414.27
421.48	440.02
421.67	414.27
421.86	386.19
422.05	416.62
422.24	468.11
422.43	414.27
422.61	362.78
422.80	374.49
422.99	428.32
423.18	404.91
423.37	402.57
423.56	449.38
423.75	428.32
423.94	365.12
424.13	393.21
424.32	411.93
424.50	360.44
424.69	404.91
424.88	358.10
425.07	409.59
425.26	435.34
425.45	491.51
425.64	430.66
425.83	461.09
426.01	449.38
426.20	367.46
426.39	376.83
426.58	416.62
426.77	425.98
426.96	456.40
427.15	470.45
427.33	369.80
427.52	390.87
427.71	421.30
427.90	447.04
428.09	423.64
428.28	379.17
428.46	400.23
428.65	461.09
428.84	416.62
429.03	456.40
429.22	374.49
429.40	348.74
429.59	393.21
429.78	369.80
429.97	379.17
430.16	418.96
430.34	435.34
430.53	491.51
430.72	454.06
430.91	444.70
431.10	386.19
431.28	416.62
431.47	444.70
431.66	472.79
431.85	461.09
432.03	386.19
432.22	484.49
432.41	440.02
432.60	348.74
432.79	435.34
432.97	402.57
433.16	416.62
433.35	369.80
433.54	435.34
433.72	451.72
433.91	414.27
434.10	390.87
434.28	383.85
434.47	372.15
434.66	388.53
434.85	388.53
435.03	428.32
435.22	475.13
435.41	379.17
435.59	416.62
435.78	374.49
435.97	433.00
436.16	447.04
436.34	376.83
436.53	397.89
436.72	528.96
436.90	421.30
437.09	472.79
437.28	404.91
437.46	430.66
437.65	365.12
437.84	367.46
438.02	465.77
438.21	418.96
438.40	381.51
438.58	393.21
438.77	468.11
438.96	397.89
439.14	463.43
439.33	463.43
439.52	372.15
439.70	456.40
439.89	433.00
440.08	381.51
440.26	458.74
440.45	468.11
440.63	444.70
440.82	463.43
441.01	433.00
441.19	367.46
441.38	416.62
441.57	418.96
441.75	451.72
441.94	463.43
442.12	418.96
442.31	423.64
442.50	369.80
442.68	374.49
442.87	362.78
443.05	390.87
443.24	421.30
443.43	374.49
443.61	425.98
443.80	353.42
443.98	353.42
444.17	393.21
444.35	411.93
444.54	425.98
444.73	400.23
444.91	435.34
445.10	489.17
445.28	372.15
445.47	437.68
445.65	461.09
445.84	369.80
446.02	456.40
446.21	433.00
446.39	381.51
446.58	430.66
446.77	477.47
446.95	416.62
447.14	390.87
447.32	423.64
447.51	409.59
447.69	393.21
447.88	397.89
448.06	521.94
448.25	397.89
448.43	383.85
448.62	451.72
448.80	444.70
448.99	449.38
449.17	372.15
449.36	437.68
449.54	409.59
449.73	411.93
449.91	433.00
450.10	435.34
450.28	418.96
450.46	447.04
450.65	425.98
450.83	372.15
451.02	397.89
451.20	470.45
451.39	454.06
451.57	400.23
451.76	423.64
451.94	409.59
452.13	430.66
452.31	395.55
452.49	381.51
452.68	449.38
452.86	482.15
453.05	425.98
453.23	372.15
453.42	454.06
453.60	451.72
453.78	386.19
453.97	430.66
454.15	369.80
454.34	327.68
454.52	351.08
454.70	451.72
454.89	475.13
455.07	383.85
455.26	372.15
455.44	454.06
455.62	428.32
455.81	491.51
455.99	409.59
456.17	390.87
456.36	374.49
456.54	442.36
456.73	355.76
456.91	325.33
457.09	404.91
457.28	442.36
457.46	409.59
457.64	369.80
457.83	379.17
458.01	372.15
458.19	489.17
458.38	421.30
458.56	423.64
458.74	447.04
458.93	393.21
459.11	376.83
459.29	379.17
459.48	435.34
459.66	381.51
459.84	379.17
460.03	451.72
460.21	421.30
460.39	339.38
460.57	430.66
460.76	416.62
460.94	388.53
461.12	468.11
461.31	468.11
461.49	479.81
461.67	393.21
461.85	409.59
462.04	358.10
462.22	793.44
462.40	470.45
462.59	411.93
462.77	411.93
462.95	393.21
463.13	358.10
463.32	397.89
463.50	388.53
463.68	374.49
463.86	430.66
464.05	404.91
464.23	409.59
464.41	470.45
464.59	411.93
464.78	435.34
464.96	367.46
465.14	397.89
465.32	442.36
465.50	416.62
465.69	458.74
465.87	362.78
466.05	383.85
466.23	367.46
466.41	372.15
466.60	411.93
466.78	454.06
466.96	409.59
467.14	421.30
467.32	383.85
467.51	458.74
467.69	402.57
467.87	449.38
468.05	376.83
468.23	454.06
468.41	475.13
468.60	437.68
468.78	475.13
468.96	416.62
469.14	411.93
469.32	444.70
469.50	503.22
469.69	433.00
469.87	397.89
470.05	458.74
470.23	447.04
470.41	381.51
470.59	442.36
470.77	451.72
470.95	365.12
471.14	423.64
471.32	393.21
471.50	428.32
471.68	374.49
471.86	395.55
472.04	358.10
472.22	400.23
472.40	402.57
472.58	411.93
472.77	435.34
472.95	449.38
473.13	447.04
473.31	430.66
473.49	491.51
473.67	353.42
473.85	358.10
474.03	379.17
474.21	433.00
474.39	512.58
474.57	407.25
474.75	423.64
474.93	451.72
475.12	477.47
475.30	425.98
475.48	390.87
475.66	479.81
475.84	428.32
476.02	414.27
476.20	423.64
476.38	402.57
476.56	430.66
476.74	451.72
476.92	435.34
477.10	449.38
477.28	393.21
477.46	404.91
477.64	411.93
477.82	407.25
478.00	425.98
478.18	351.08
478.36	374.49
478.54	397.89
478.72	418.96
478.90	374.49
479.08	372.15
479.26	454.06
479.44	365.12
479.62	435.34
479.80	318.31
479.98	320.65
480.16	376.83
480.34	498.53
480.52	463.43
480.70	461.09
480.88	428.32
481.06	355.76
481.24	400.23
481.41	409.59
481.59	433.00
481.77	383.85
481.95	444.70
482.13	428.32
482.31	390.87
482.49	477.47
482.67	379.17
482.85	400.23
483.03	418.96
483.21	472.79
483.39	372.15
483.57	397.89
483.74	449.38
483.92	369.80
484.10	393.21
484.28	451.72
484.46	514.92
484.64	418.96
484.82	428.32
485.00	465.77
485.18	388.53
485.35	456.40
485.53	409.59
485.71	397.89
485.89	344.06
486.07	423.64
486.25	449.38
486.43	533.64
486.61	365.12
486.78	411.93
486.96	428.32
487.14	468.11
487.32	421.30
487.50	320.65
487.68	397.89
487.85	463.43
488.03	433.00
488.21	461.09
488.39	458.74
488.57	430.66
488.75	477.47
488.92	397.89
489.10	428.32
489.28	423.64
489.46	341.72
489.64	428.32
489.81	435.34
489.99	374.49
490.17	306.61
490.35	456.40
490.53	418.96
490.70	498.53
490.88	428.32
491.06	407.25
491.24	404.91
491.41	395.55
491.59	456.40
491.77	486.83
491.95	454.06
492.13	435.34
492.30	442.36
492.48	360.44
492.66	433.00
492.84	386.19
493.01	390.87
493.19	397.89
493.37	470.45
493.54	477.47
493.72	395.55
493.90	428.32
494.08	402.57
494.25	442.36
494.43	437.68
494.61	383.85
494.79	416.62
494.96	395.55
495.14	358.10
495.32	472.79
495.49	407.25
495.67	440.02
495.85	449.38
496.02	393.21
496.20	451.72
496.38	388.53
496.55	360.44
496.73	440.02
496.91	381.51
497.09	404.91
497.26	442.36
497.44	388.53
497.62	409.59
497.79	463.43
497.97	390.87
498.14	461.09
498.32	362.78
498.50	388.53
498.67	395.55
498.85	388.53
499.03	372.15
499.20	400.23
499.38	414.27
499.56	475.13
499.73	472.79
499.91	470.45
500.08	465.77
500.26	447.04
500.44	374.49
500.61	395.55
500.79	367.46
500.97	428.32
501.14	416.62
501.32	397.89
501.49	447.04
501.67	407.25
501.84	411.93
502.02	416.62
502.20	463.43
502.37	388.53
502.55	468.11
502.72	383.85
502.90	351.08
503.07	400.23
503.25	454.06
503.43	393.21
503.60	449.38
503.78	353.42
503.95	531.30
504.13	411.93
504.30	451.72
504.48	397.89
504.65	425.98
504.83	444.70
505.01	360.44
505.18	425.98
505.36	454.06
505.53	449.38
505.71	540.66
505.88	442.36
506.06	493.85
506.23	379.17
506.41	365.12
506.58	437.68
506.76	423.64
506.93	433.00
507.11	400.23
507.28	395.55
507.46	369.80
507.63	390.87
507.81	437.68
507.98	383.85
508.16	433.00
508.33	437.68
508.50	416.62
508.68	472.79
508.85	425.98
509.03	381.51
509.20	383.85
509.38	470.45
509.55	418.96
509.73	409.59
509.90	411.93
510.08	475.13
510.25	400.23
510.42	475.13
510.60	440.02
510.77	465.77
510.95	454.06
511.12	404.91
511.30	372.15
511.47	447.04
511.64	449.38
511.82	362.78
511.99	418.96
512.17	421.30
512.34	416.62
512.51	425.98
512.69	369.80
512.86	458.74
513.04	409.59
513.21	437.68
513.38	409.59
513.56	390.87
513.73	360.44
513.90	390.87
514.08	423.64
514.25	451.72
514.43	425.98
514.60	376.83
514.77	395.55
514.95	449.38
515.12	440.02
515.29	475.13
515.47	442.36
515.64	435.34
515.81	531.30
515.99	440.02
516.16	470.45
516.33	397.89
516.51	428.32
516.68	428.32
516.85	400.23
517.03	397.89
517.20	421.30
517.37	386.19
517.54	423.64
517.72	423.64
517.89	381.51
518.06	395.55
518.24	507.90
518.41	381.51
518.58	393.21
518.75	433.00
518.93	472.79
519.10	381.51
519.27	479.81
519.45	407.25
519.62	372.15
519.79	369.80
519.96	337.04
520.14	435.34
520.31	482.15
520.48	430.66
520.65	344.06
520.83	489.17
521.00	465.77
521.17	381.51
521.34	428.32
521.52	496.19
521.69	428.32
521.86	444.70
522.03	479.81
522.20	496.19
522.38	440.02
522.55	463.43
522.72	444.70
522.89	468.11
523.07	440.02
523.24	475.13
523.41	411.93
523.58	409.59
523.75	444.70
523.92	442.36
524.10	454.06
524.27	388.53
524.44	407.25
524.61	447.04
524.78	346.40
524.96	498.53
525.13	428.32
525.30	437.68
525.47	458.74
525.64	456.40
525.81	407.25
525.98	407.25
526.16	433.00
526.33	409.59
526.50	390.87
526.67	461.09
526.84	451.72
527.01	435.34
527.18	367.46
527.36	407.25
527.53	358.10
527.70	475.13
527.87	400.23
528.04	440.02
528.21	404.91
528.38	425.98
528.55	425.98
528.72	409.59
528.89	498.53
529.07	393.21
529.24	442.36
529.41	477.47
529.58	402.57
529.75	416.62
529.92	414.27
530.09	372.15
530.26	447.04
530.43	388.53
530.60	430.66
530.77	402.57
530.94	428.32
531.11	435.34
531.28	421.30
531.46	402.57
531.63	454.06
531.80	449.38
531.97	477.47
532.14	430.66
532.31	374.49
532.48	416.62
532.65	440.02
532.82	397.89
532.99	416.62
533.16	409.59
533.33	397.89
533.50	383.85
533.67	449.38
533.84	369.80
534.01	423.64
534.18	360.44
534.35	411.93
534.52	433.00
534.69	376.83
534.86	428.32
535.03	440.02
535.20	393.21
535.37	365.12
535.54	486.83
535.71	414.27
535.88	454.06
536.05	451.72
536.22	381.51
536.38	461.09
536.55	416.62
536.72	404.91
536.89	437.68
537.06	400.23
537.23	341.72
537.40	409.59
537.57	369.80
537.74	440.02
537.91	337.04
538.08	458.74
538.25	411.93
538.42	449.38
538.59	463.43
538.75	400.23
538.92	425.98
539.09	440.02
539.26	442.36
539.43	451.72
539.60	383.85
539.77	365.12
539.94	418.96
540.11	376.83
540.28	451.72
540.44	400.23
540.61	390.87
540.78	423.64
540.95	454.06
541.12	397.89
541.29	404.91
541.46	421.30
541.62	489.17
541.79	437.68
541.96	428.32
542.13	409.59
542.30	428.32
542.47	470.45
542.63	463.43
542.80	411.93
542.97	468.11
543.14	414.27
543.31	430.66
543.48	409.59
543.64	390.87
543.81	430.66
543.98	407.25
544.15	409.59
544.32	355.76
544.48	383.85
544.65	330.02
544.82	365.12
544.99	372.15
545.16	433.00
545.32	444.70
545.49	430.66
545.66	423.64
545.83	418.96
546.00	433.00
546.16	337.04
546.33	351.08
546.50	472.79
546.67	421.30
546.83	395.55
547.00	449.38
547.17	411.93
547.34	435.34
547.50	369.80
547.67	409.59
547.84	458.74
548.00	353.42
548.17	395.55
548.34	449.38
548.51	521.94
548.67	425.98
548.84	465.77
549.01	444.70
549.18	383.85
549.34	409.59
549.51	444.70
549.68	353.42
549.84	330.02
550.01	341.72
550.18	444.70
550.34	477.47
550.51	339.38
550.68	451.72
550.84	411.93
551.01	470.45
551.18	463.43
551.34	416.62
551.51	479.81
551.68	376.83
551.84	383.85
552.01	477.47
552.18	360.44
552.34	489.17
552.51	444.70
552.68	444.70
552.84	433.00
553.01	447.04
553.18	507.90
553.34	388.53
553.51	369.80
553.67	423.64
553.84	362.78
554.01	411.93
554.17	341.72
554.34	390.87
554.51	414.27
554.67	475.13
554.84	449.38
555.00	379.17
555.17	421.30
555.33	444.70
555.50	423.64
555.67	421.30
555.83	386.19
556.00	500.87
556.16	428.32
556.33	414.27
556.50	348.74
556.66	376.83
556.83	433.00
556.99	428.32
557.16	421.30
557.32	423.64
557.49	400.23
557.65	435.34
557.82	402.57
557.98	411.93
558.15	376.83
558.32	416.62
558.48	402.57
558.65	479.81
558.81	461.09
558.98	463.43
559.14	381.51
559.31	482.15
559.47	421.30
559.64	360.44
559.80	393.21
559.97	337.04
560.13	393.21
560.30	397.89
560.46	454.06
560.63	374.49
560.79	418.96
560.96	435.34
561.12	416.62
561.29	451.72
561.45	383.85
561.61	416.62
561.78	500.87
561.94	435.34
562.11	472.79
562.27	411.93
562.44	468.11
562.60	456.40
562.77	425.98
562.93	463.43
563.10	435.34
563.26	395.55
563.42	421.30
563.59	388.53
563.75	440.02
563.92	524.28
564.08	407.25
564.24	440.02
564.41	411.93
564.57	423.64
564.74	416.62
564.90	449.38
565.07	489.17
565.23	358.10
565.39	407.25
565.56	437.68
565.72	447.04
565.88	386.19
566.05	381.51
566.21	416.62
566.38	456.40
566.54	411.93
566.70	463.43
566.87	372.15
567.03	388.53
567.19	351.08
567.36	395.55
567.52	287.89
567.68	397.89
567.85	486.83
568.01	341.72
568.17	409.59
568.34	461.09
568.50	433.00
568.66	381.51
568.83	444.70
568.99	411.93
569.15	489.17
569.32	393.21
569.48	402.57
569.64	447.04
569.81	400.23
569.97	400.23
570.13	433.00
570.30	383.85
570.46	440.02
570.62	521.94
570.78	489.17
570.95	414.27
571.11	451.72
571.27	463.43
571.43	463.43
571.60	440.02
571.76	444.70
571.92	447.04
572.09	390.87
572.25	423.64
572.41	454.06
572.57	428.32
572.74	477.47
572.90	458.74
573.06	407.25
573.22	397.89
573.38	447.04
573.55	346.40
573.71	346.40
573.87	451.72
574.03	425.98
574.20	440.02
574.36	416.62
574.52	404.91
574.68	358.10
574.84	423.64
575.01	418.96
575.17	416.62
575.33	386.19
575.49	449.38
575.65	353.42
575.82	383.85
575.98	451.72
576.14	440.02
576.30	435.34
576.46	512.58
576.62	409.59
576.79	402.57
576.95	428.32
577.11	442.36
577.27	421.30
577.43	425.98
577.59	437.68
577.75	318.31
577.92	360.44
578.08	374.49
578.24	407.25
578.40	470.45
578.56	433.00
578.72	440.02
578.88	362.78
579.04	423.64
579.21	409.59
579.37	428.32
579.53	484.49
579.69	430.66
579.85	454.06
580.01	496.19
580.17	369.80
580.33	402.57
580.49	402.57
580.65	416.62
580.82	397.89
580.98	379.17
581.14	430.66
581.30	407.25
581.46	477.47
581.62	433.00
581.78	362.78
581.94	397.89
582.10	383.85
582.26	404.91
582.42	404.91
582.58	437.68
582.74	451.72
582.90	421.30
583.06	390.87
583.22	372.15
583.38	339.38
583.54	430.66
583.70	425.98
583.86	425.98
584.02	458.74
584.18	475.13
584.34	411.93
584.50	418.96
584.66	449.38
584.82	381.51
584.98	383.85
585.14	388.53
585.30	435.34
585.46	353.42
585.62	442.36
585.78	367.46
585.94	444.70
586.10	416.62
586.26	491.51
586.42	411.93
586.58	418.96
586.74	395.55
586.90	383.85
587.06	437.68
587.22	379.17
587.38	425.98
587.54	461.09
587.70	440.02
587.86	388.53
588.02	395.55
588.18	440.02
588.34	388.53
588.49	421.30
588.65	374.49
588.81	447.04
588.97	421.30
589.13	397.89
589.29	416.62
589.45	486.83
589.61	367.46
589.77	421.30
589.93	475.13
590.08	418.96
590.24	425.98
590.40	440.02
590.56	430.66
590.72	425.98
590.88	348.74
591.04	404.91
591.20	454.06
591.35	383.85
591.51	444.70
591.67	353.42
591.83	418.96
591.99	346.40
592.15	423.64
592.31	388.53
592.46	435.34
592.62	430.66
592.78	337.04
592.94	440.02
593.10	458.74
593.26	341.72
593.41	423.64
593.57	395.55
593.73	395.55
593.89	397.89
594.05	379.17
594.20	425.98
594.36	423.64
594.52	393.21
594.68	430.66
594.84	521.94
594.99	353.42
595.15	379.17
595.31	416.62
595.47	498.53
595.62	444.70
595.78	423.64
595.94	379.17
596.10	526.62
596.25	411.93
596.41	468.11
596.57	414.27
596.73	351.08
596.88	367.46
597.04	491.51
597.20	425.98
597.36	468.11
597.51	463.43
597.67	414.27
597.83	435.34
597.99	416.62
598.14	379.17
598.30	472.79
598.46	477.47
598.61	461.09
598.77	498.53
598.93	414.27
599.09	447.04
599.24	428.32
599.40	458.74
599.56	447.04
599.71	397.89
599.87	395.55
600.03	395.55
600.18	423.64
600.34	421.30
600.50	421.30
600.65	416.62
600.81	475.13
600.97	416.62
601.12	447.04
601.28	433.00
601.44	409.59
601.59	367.46
601.75	390.87
601.91	479.81
602.06	395.55
602.22	411.93
602.37	362.78
602.53	355.76
602.69	353.42
602.84	433.00
603.00	388.53
603.16	402.57
603.31	409.59
603.47	440.02
603.62	351.08
603.78	454.06
603.94	461.09
604.09	482.15
604.25	433.00
604.40	428.32
604.56	407.25
604.71	484.49
604.87	369.80
605.03	360.44
605.18	409.59
605.34	339.38
605.49	400.23
605.65	374.49
605.80	379.17
605.96	418.96
606.12	407.25
606.27	451.72
606.43	425.98
606.58	447.04
606.74	425.98
606.89	512.58
607.05	407.25
607.20	416.62
607.36	463.43
607.51	449.38
607.67	449.38
607.82	418.96
607.98	425.98
608.13	425.98
608.29	468.11
608.44	440.02
608.60	376.83
608.75	470.45
608.91	428.32
609.06	435.34
609.22	475.13
609.37	402.57
609.53	400.23
609.68	428.32
609.84	397.89
609.99	425.98
610.15	416.62
