SpectraSuite Data File
++++++++++++++++++++++++++++++++++++
Date: Fri Oct 25 12:10:55 EDT 2013
User: price-jones
Dark Spectrum Present: No
Reference Spectrum Present: No
Number of Sampled Component Spectra: 1
Spectrometers: USB2+H05261
Integration Time (usec): 100000 (USB2+H05261)
Spectra Averaged: 1 (USB2+H05261)
Boxcar Smoothing: 0 (USB2+H05261)
Correct for Electrical Dark: No (USB2+H05261)
Strobe/Lamp Enabled: No (USB2+H05261)
Correct for Detector Non-linearity: No (USB2+H05261)
Correct for Stray Light: No (USB2+H05261)
Number of Pixels in Processed Spectrum: 2048
>>>>>Begin Processed Spectral Data<<<<<
365.73	358.10
365.92	358.10
366.12	358.10
366.32	234.05
366.52	212.99
366.72	266.82
366.91	205.97
367.11	250.44
367.31	201.29
367.51	273.84
367.70	248.10
367.90	287.89
368.10	208.31
368.30	191.92
368.49	229.37
368.69	266.82
368.89	238.73
369.09	227.03
369.28	222.35
369.48	264.48
369.68	285.55
369.87	292.57
370.07	344.06
370.27	332.36
370.47	278.52
370.66	365.12
370.86	322.99
371.06	358.10
371.25	390.87
371.45	358.10
371.65	334.70
371.84	337.04
372.04	425.98
372.24	416.62
372.44	353.42
372.63	341.72
372.83	390.87
373.03	325.33
373.22	346.40
373.42	440.02
373.62	358.10
373.81	430.66
374.01	425.98
374.21	442.36
374.40	423.64
374.60	409.59
374.79	397.89
374.99	465.77
375.19	430.66
375.38	388.53
375.58	416.62
375.78	477.47
375.97	379.17
376.17	449.38
376.37	409.59
376.56	400.23
376.76	458.74
376.95	388.53
377.15	365.12
377.35	404.91
377.54	409.59
377.74	440.02
377.93	383.85
378.13	458.74
378.33	454.06
378.52	397.89
378.72	505.56
378.91	388.53
379.11	430.66
379.31	353.42
379.50	383.85
379.70	437.68
379.89	320.65
380.09	416.62
380.28	393.21
380.48	344.06
380.68	369.80
380.87	381.51
381.07	414.27
381.26	435.34
381.46	369.80
381.65	416.62
381.85	397.89
382.04	362.78
382.24	367.46
382.43	332.36
382.63	360.44
382.83	444.70
383.02	456.40
383.22	416.62
383.41	383.85
383.61	449.38
383.80	404.91
384.00	404.91
384.19	376.83
384.39	465.77
384.58	374.49
384.78	411.93
384.97	451.72
385.17	372.15
385.36	402.57
385.56	341.72
385.75	430.66
385.95	374.49
386.14	388.53
386.34	388.53
386.53	355.76
386.72	362.78
386.92	414.27
387.11	390.87
387.31	414.27
387.50	374.49
387.70	414.27
387.89	421.30
388.09	423.64
388.28	393.21
388.48	442.36
388.67	470.45
388.86	374.49
389.06	383.85
389.25	428.32
389.45	411.93
389.64	374.49
389.84	421.30
390.03	400.23
390.22	402.57
390.42	416.62
390.61	423.64
390.81	290.23
391.00	479.81
391.19	454.06
391.39	358.10
391.58	470.45
391.78	374.49
391.97	430.66
392.16	393.21
392.36	367.46
392.55	491.51
392.75	416.62
392.94	409.59
393.13	425.98
393.33	379.17
393.52	416.62
393.71	393.21
393.91	388.53
394.10	463.43
394.29	433.00
394.49	421.30
394.68	484.49
394.88	442.36
395.07	402.57
395.26	416.62
395.46	437.68
395.65	383.85
395.84	414.27
396.04	470.45
396.23	411.93
396.42	463.43
396.62	414.27
396.81	491.51
397.00	362.78
397.19	388.53
397.39	440.02
397.58	414.27
397.77	404.91
397.97	428.32
398.16	435.34
398.35	372.15
398.55	308.95
398.74	407.25
398.93	407.25
399.12	447.04
399.32	395.55
399.51	433.00
399.70	456.40
399.90	383.85
400.09	456.40
400.28	395.55
400.47	386.19
400.67	390.87
400.86	360.44
401.05	425.98
401.24	423.64
401.44	472.79
401.63	425.98
401.82	404.91
402.01	430.66
402.21	430.66
402.40	400.23
402.59	416.62
402.78	344.06
402.97	372.15
403.17	381.51
403.36	407.25
403.55	393.21
403.74	388.53
403.93	428.32
404.13	435.34
404.32	421.30
404.51	388.53
404.70	393.21
404.89	360.44
405.09	472.79
405.28	416.62
405.47	386.19
405.66	376.83
405.85	393.21
406.05	421.30
406.24	383.85
406.43	372.15
406.62	379.17
406.81	393.21
407.00	433.00
407.20	444.70
407.39	468.11
407.58	437.68
407.77	367.46
407.96	400.23
408.15	423.64
408.34	388.53
408.54	346.40
408.73	388.53
408.92	430.66
409.11	425.98
409.30	379.17
409.49	418.96
409.68	428.32
409.87	435.34
410.07	388.53
410.26	414.27
410.45	393.21
410.64	407.25
410.83	386.19
411.02	369.80
411.21	423.64
411.40	428.32
411.59	400.23
411.78	402.57
411.98	430.66
412.17	407.25
412.36	395.55
412.55	407.25
412.74	442.36
412.93	395.55
413.12	346.40
413.31	447.04
413.50	437.68
413.69	475.13
413.88	400.23
414.07	451.72
414.26	442.36
414.45	330.02
414.64	421.30
414.83	454.06
415.02	404.91
415.22	402.57
415.41	360.44
415.60	358.10
415.79	388.53
415.98	461.09
416.17	404.91
416.36	362.78
416.55	437.68
416.74	397.89
416.93	470.45
417.12	430.66
417.31	381.51
417.50	435.34
417.69	465.77
417.88	411.93
418.07	393.21
418.26	395.55
418.45	369.80
418.64	421.30
418.83	447.04
419.02	414.27
419.21	360.44
419.39	411.93
419.58	372.15
419.77	414.27
419.96	388.53
420.15	451.72
420.34	435.34
420.53	407.25
420.72	404.91
420.91	376.83
421.10	449.38
421.29	374.49
421.48	400.23
421.67	435.34
421.86	374.49
422.05	390.87
422.24	418.96
422.43	369.80
422.61	425.98
422.80	416.62
422.99	456.40
423.18	386.19
423.37	388.53
423.56	430.66
423.75	468.11
423.94	421.30
424.13	456.40
424.32	477.47
424.50	458.74
424.69	407.25
424.88	433.00
425.07	372.15
425.26	400.23
425.45	400.23
425.64	416.62
425.83	397.89
426.01	355.76
426.20	400.23
426.39	379.17
426.58	372.15
426.77	379.17
426.96	383.85
427.15	418.96
427.33	414.27
427.52	397.89
427.71	470.45
427.90	346.40
428.09	402.57
428.28	425.98
428.46	351.08
428.65	418.96
428.84	346.40
429.03	437.68
429.22	400.23
429.40	381.51
429.59	463.43
429.78	456.40
429.97	362.78
430.16	418.96
430.34	404.91
430.53	386.19
430.72	409.59
430.91	430.66
431.10	440.02
431.28	479.81
431.47	395.55
431.66	404.91
431.85	409.59
432.03	451.72
432.22	435.34
432.41	409.59
432.60	461.09
432.79	381.51
432.97	383.85
433.16	362.78
433.35	372.15
433.54	395.55
433.72	447.04
433.91	449.38
434.10	325.33
434.28	465.77
434.47	411.93
434.66	318.31
434.85	414.27
435.03	421.30
435.22	435.34
435.41	409.59
435.59	421.30
435.78	449.38
435.97	388.53
436.16	416.62
436.34	421.30
436.53	477.47
436.72	442.36
436.90	362.78
437.09	393.21
437.28	381.51
437.46	418.96
437.65	407.25
437.84	393.21
438.02	421.30
438.21	369.80
438.40	390.87
438.58	360.44
438.77	339.38
438.96	313.63
439.14	411.93
439.33	477.47
439.52	346.40
439.70	463.43
439.89	440.02
440.08	367.46
440.26	400.23
440.45	454.06
440.63	468.11
440.82	442.36
441.01	435.34
441.19	355.76
441.38	397.89
441.57	449.38
441.75	388.53
441.94	440.02
442.12	416.62
442.31	433.00
442.50	411.93
442.68	475.13
442.87	334.70
443.05	421.30
443.24	416.62
443.43	388.53
443.61	433.00
443.80	409.59
443.98	362.78
444.17	362.78
444.35	440.02
444.54	395.55
444.73	470.45
444.91	353.42
445.10	416.62
445.28	372.15
445.47	437.68
445.65	409.59
445.84	327.68
446.02	388.53
446.21	435.34
446.39	472.79
446.58	386.19
446.77	374.49
446.95	430.66
447.14	433.00
447.32	482.15
447.51	386.19
447.69	437.68
447.88	421.30
448.06	372.15
448.25	409.59
448.43	318.31
448.62	341.72
448.80	479.81
448.99	486.83
449.17	404.91
449.36	353.42
449.54	428.32
449.73	454.06
449.91	428.32
450.10	435.34
450.28	484.49
450.46	379.17
450.65	395.55
450.83	425.98
451.02	418.96
451.20	423.64
451.39	358.10
451.57	414.27
451.76	423.64
451.94	404.91
452.13	407.25
452.31	414.27
452.49	365.12
452.68	346.40
452.86	444.70
453.05	496.19
453.23	437.68
453.42	381.51
453.60	374.49
453.78	344.06
453.97	444.70
454.15	435.34
454.34	404.91
454.52	418.96
454.70	442.36
454.89	463.43
455.07	369.80
455.26	418.96
455.44	393.21
455.62	362.78
455.81	414.27
455.99	428.32
456.17	416.62
456.36	362.78
456.54	400.23
456.73	458.74
456.91	404.91
457.09	461.09
457.28	451.72
457.46	440.02
457.64	411.93
457.83	428.32
458.01	456.40
458.19	381.51
458.38	421.30
458.56	393.21
458.74	418.96
458.93	362.78
459.11	374.49
459.29	381.51
459.48	430.66
459.66	458.74
459.84	428.32
460.03	477.47
460.21	463.43
460.39	411.93
460.57	430.66
460.76	440.02
460.94	407.25
461.12	437.68
461.31	440.02
461.49	379.17
461.67	409.59
461.85	393.21
462.04	468.11
462.22	819.19
462.40	451.72
462.59	383.85
462.77	505.56
462.95	362.78
463.13	416.62
463.32	416.62
463.50	533.64
463.68	451.72
463.86	411.93
464.05	458.74
464.23	444.70
464.41	416.62
464.59	393.21
464.78	367.46
464.96	442.36
465.14	383.85
465.32	444.70
465.50	381.51
465.69	397.89
465.87	383.85
466.05	404.91
466.23	461.09
466.41	346.40
466.60	290.23
466.78	386.19
466.96	454.06
467.14	428.32
467.32	496.19
467.51	418.96
467.69	433.00
467.87	442.36
468.05	454.06
468.23	428.32
468.41	416.62
468.60	388.53
468.78	362.78
468.96	465.77
469.14	442.36
469.32	388.53
469.50	433.00
469.69	397.89
469.87	472.79
470.05	390.87
470.23	390.87
470.41	390.87
470.59	409.59
470.77	454.06
470.95	463.43
471.14	395.55
471.32	428.32
471.50	510.24
471.68	365.12
471.86	498.53
472.04	407.25
472.22	418.96
472.40	381.51
472.58	418.96
472.77	414.27
472.95	414.27
473.13	411.93
473.31	404.91
473.49	390.87
473.67	442.36
473.85	395.55
474.03	444.70
474.21	379.17
474.39	414.27
474.57	468.11
474.75	444.70
474.93	409.59
475.12	332.36
475.30	390.87
475.48	414.27
475.66	407.25
475.84	397.89
476.02	428.32
476.20	411.93
476.38	442.36
476.56	479.81
476.74	463.43
476.92	507.90
477.10	418.96
477.28	433.00
477.46	442.36
477.64	379.17
477.82	442.36
478.00	388.53
478.18	332.36
478.36	416.62
478.54	365.12
478.72	433.00
478.90	393.21
479.08	397.89
479.26	482.15
479.44	414.27
479.62	447.04
479.80	435.34
479.98	400.23
480.16	409.59
480.34	470.45
480.52	428.32
480.70	470.45
480.88	379.17
481.06	353.42
481.24	472.79
481.41	390.87
481.59	416.62
481.77	440.02
481.95	409.59
482.13	430.66
482.31	496.19
482.49	418.96
482.67	475.13
482.85	465.77
483.03	463.43
483.21	404.91
483.39	341.72
483.57	402.57
483.74	463.43
483.92	475.13
484.10	428.32
484.28	440.02
484.46	472.79
484.64	421.30
484.82	447.04
485.00	428.32
485.18	475.13
485.35	493.85
485.53	388.53
485.71	423.64
485.89	451.72
486.07	393.21
486.25	458.74
486.43	491.51
486.61	479.81
486.78	376.83
486.96	451.72
487.14	428.32
487.32	348.74
487.50	428.32
487.68	512.58
487.85	421.30
488.03	369.80
488.21	458.74
488.39	442.36
488.57	442.36
488.75	395.55
488.92	521.94
489.10	369.80
489.28	496.19
489.46	348.74
489.64	400.23
489.81	421.30
489.99	381.51
490.17	447.04
490.35	524.28
490.53	461.09
490.70	425.98
490.88	447.04
491.06	433.00
491.24	374.49
491.41	407.25
491.59	444.70
491.77	402.57
491.95	393.21
492.13	376.83
492.30	442.36
492.48	404.91
492.66	435.34
492.84	458.74
493.01	393.21
493.19	425.98
493.37	421.30
493.54	395.55
493.72	433.00
493.90	397.89
494.08	442.36
494.25	461.09
494.43	521.94
494.61	337.04
494.79	423.64
494.96	353.42
495.14	456.40
495.32	496.19
495.49	409.59
495.67	444.70
495.85	430.66
496.02	383.85
496.20	395.55
496.38	428.32
496.55	395.55
496.73	395.55
496.91	397.89
497.09	479.81
497.26	482.15
497.44	468.11
497.62	327.68
497.79	435.34
497.97	437.68
498.14	468.11
498.32	353.42
498.50	472.79
498.67	330.02
498.85	315.97
499.03	430.66
499.20	430.66
499.38	425.98
499.56	409.59
499.73	404.91
499.91	409.59
500.08	428.32
500.26	414.27
500.44	362.78
500.61	353.42
500.79	395.55
500.97	425.98
501.14	362.78
501.32	414.27
501.49	381.51
501.67	346.40
501.84	393.21
502.02	430.66
502.20	355.76
502.37	435.34
502.55	355.76
502.72	339.38
502.90	444.70
503.07	489.17
503.25	411.93
503.43	386.19
503.60	411.93
503.78	482.15
503.95	402.57
504.13	442.36
504.30	454.06
504.48	458.74
504.65	482.15
504.83	400.23
505.01	400.23
505.18	376.83
505.36	376.83
505.53	402.57
505.71	414.27
505.88	414.27
506.06	386.19
506.23	318.31
506.41	430.66
506.58	421.30
506.76	395.55
506.93	376.83
507.11	404.91
507.28	369.80
507.46	430.66
507.63	416.62
507.81	451.72
507.98	383.85
508.16	402.57
508.33	425.98
508.50	369.80
508.68	444.70
508.85	390.87
509.03	414.27
509.20	418.96
509.38	449.38
509.55	376.83
509.73	498.53
509.90	386.19
510.08	482.15
510.25	479.81
510.42	440.02
510.60	395.55
510.77	423.64
510.95	376.83
511.12	451.72
511.30	404.91
511.47	482.15
511.64	510.24
511.82	454.06
511.99	449.38
512.17	362.78
512.34	397.89
512.51	369.80
512.69	418.96
512.86	442.36
513.04	470.45
513.21	381.51
513.38	430.66
513.56	390.87
513.73	369.80
513.90	341.72
514.08	393.21
514.25	390.87
514.43	388.53
514.60	400.23
514.77	369.80
514.95	376.83
515.12	393.21
515.29	442.36
515.47	388.53
515.64	437.68
515.81	393.21
515.99	390.87
516.16	411.93
516.33	383.85
516.51	400.23
516.68	454.06
516.85	369.80
517.03	430.66
517.20	397.89
517.37	397.89
517.54	440.02
517.72	421.30
517.89	454.06
518.06	416.62
518.24	400.23
518.41	374.49
518.58	409.59
518.75	390.87
518.93	423.64
519.10	397.89
519.27	381.51
519.45	393.21
519.62	425.98
519.79	428.32
519.96	407.25
520.14	409.59
520.31	433.00
520.48	397.89
520.65	440.02
520.83	360.44
521.00	444.70
521.17	411.93
521.34	428.32
521.52	440.02
521.69	437.68
521.86	433.00
522.03	386.19
522.20	491.51
522.38	381.51
522.55	477.47
522.72	416.62
522.89	489.17
523.07	381.51
523.24	425.98
523.41	365.12
523.58	395.55
523.75	414.27
523.92	442.36
524.10	451.72
524.27	339.38
524.44	425.98
524.61	381.51
524.78	461.09
524.96	383.85
525.13	435.34
525.30	510.24
525.47	404.91
525.64	421.30
525.81	454.06
525.98	442.36
526.16	423.64
526.33	346.40
526.50	507.90
526.67	344.06
526.84	447.04
527.01	327.68
527.18	404.91
527.36	402.57
527.53	374.49
527.70	449.38
527.87	416.62
528.04	440.02
528.21	379.17
528.38	472.79
528.55	395.55
528.72	404.91
528.89	421.30
529.07	435.34
529.24	468.11
529.41	435.34
529.58	444.70
529.75	440.02
529.92	458.74
530.09	433.00
530.26	465.77
530.43	482.15
530.60	397.89
530.77	397.89
530.94	407.25
531.11	369.80
531.28	468.11
531.46	395.55
531.63	430.66
531.80	386.19
531.97	418.96
532.14	451.72
532.31	428.32
532.48	376.83
532.65	381.51
532.82	383.85
532.99	273.84
533.16	393.21
533.33	479.81
533.50	421.30
533.67	383.85
533.84	433.00
534.01	383.85
534.18	447.04
534.35	416.62
534.52	444.70
534.69	425.98
534.86	355.76
535.03	360.44
535.20	456.40
535.37	451.72
535.54	360.44
535.71	514.92
535.88	465.77
536.05	461.09
536.22	486.83
536.38	435.34
536.55	428.32
536.72	407.25
536.89	400.23
537.06	397.89
537.23	374.49
537.40	498.53
537.57	458.74
537.74	433.00
537.91	458.74
538.08	437.68
538.25	374.49
538.42	367.46
538.59	444.70
538.75	404.91
538.92	430.66
539.09	477.47
539.26	458.74
539.43	400.23
539.60	440.02
539.77	449.38
539.94	372.15
540.11	358.10
540.28	430.66
540.44	407.25
540.61	409.59
540.78	465.77
540.95	451.72
541.12	500.87
541.29	451.72
541.46	461.09
541.62	372.15
541.79	491.51
541.96	376.83
542.13	355.76
542.30	367.46
542.47	428.32
542.63	411.93
542.80	374.49
542.97	496.19
543.14	376.83
543.31	489.17
543.48	461.09
543.64	395.55
543.81	402.57
543.98	332.36
544.15	353.42
544.32	400.23
544.48	425.98
544.65	383.85
544.82	409.59
544.99	372.15
545.16	461.09
545.32	369.80
545.49	416.62
545.66	414.27
545.83	393.21
546.00	404.91
546.16	395.55
546.33	454.06
546.50	430.66
546.67	433.00
546.83	407.25
547.00	423.64
547.17	372.15
547.34	365.12
547.50	400.23
547.67	386.19
547.84	442.36
548.00	362.78
548.17	334.70
548.34	379.17
548.51	393.21
548.67	411.93
548.84	337.04
549.01	376.83
549.18	386.19
549.34	425.98
549.51	416.62
549.68	362.78
549.84	461.09
550.01	407.25
550.18	491.51
550.34	470.45
550.51	407.25
550.68	519.60
550.84	397.89
551.01	428.32
551.18	393.21
551.34	393.21
551.51	442.36
551.68	383.85
551.84	425.98
552.01	433.00
552.18	390.87
552.34	381.51
552.51	418.96
552.68	479.81
552.84	423.64
553.01	421.30
553.18	348.74
553.34	430.66
553.51	372.15
553.67	400.23
553.84	428.32
554.01	381.51
554.17	393.21
554.34	388.53
554.51	498.53
554.67	442.36
554.84	433.00
555.00	428.32
555.17	402.57
555.33	458.74
555.50	416.62
555.67	395.55
555.83	418.96
556.00	409.59
556.16	596.84
556.33	435.34
556.50	322.99
556.66	379.17
556.83	376.83
556.99	355.76
557.16	456.40
557.32	423.64
557.49	484.49
557.65	479.81
557.82	390.87
557.98	407.25
558.15	404.91
558.32	430.66
558.48	449.38
558.65	402.57
558.81	451.72
558.98	423.64
559.14	449.38
559.31	472.79
559.47	393.21
559.64	404.91
559.80	416.62
559.97	402.57
560.13	449.38
560.30	376.83
560.46	409.59
560.63	416.62
560.79	400.23
560.96	404.91
561.12	437.68
561.29	461.09
561.45	461.09
561.61	390.87
561.78	447.04
561.94	383.85
562.11	402.57
562.27	402.57
562.44	383.85
562.60	374.49
562.77	430.66
562.93	463.43
563.10	411.93
563.26	437.68
563.42	416.62
563.59	409.59
563.75	397.89
563.92	470.45
564.08	402.57
564.24	395.55
564.41	454.06
564.57	369.80
564.74	418.96
564.90	440.02
565.07	402.57
565.23	414.27
565.39	454.06
565.56	372.15
565.72	400.23
565.88	442.36
566.05	404.91
566.21	442.36
566.38	402.57
566.54	414.27
566.70	397.89
566.87	414.27
567.03	447.04
567.19	369.80
567.36	418.96
567.52	404.91
567.68	468.11
567.85	400.23
568.01	456.40
568.17	421.30
568.34	397.89
568.50	416.62
568.66	425.98
568.83	435.34
568.99	498.53
569.15	447.04
569.32	435.34
569.48	444.70
569.64	409.59
569.81	442.36
569.97	428.32
570.13	517.26
570.30	428.32
570.46	421.30
570.62	449.38
570.78	379.17
570.95	444.70
571.11	477.47
571.27	416.62
571.43	374.49
571.60	395.55
571.76	444.70
571.92	414.27
572.09	414.27
572.25	390.87
572.41	411.93
572.57	383.85
572.74	472.79
572.90	468.11
573.06	437.68
573.22	437.68
573.38	475.13
573.55	416.62
573.71	421.30
573.87	400.23
574.03	461.09
574.20	351.08
574.36	519.60
574.52	407.25
574.68	407.25
574.84	372.15
575.01	386.19
575.17	428.32
575.33	353.42
575.49	444.70
575.65	470.45
575.82	449.38
575.98	477.47
576.14	402.57
576.30	454.06
576.46	416.62
576.62	482.15
576.79	437.68
576.95	444.70
577.11	390.87
577.27	496.19
577.43	423.64
577.59	475.13
577.75	379.17
577.92	409.59
578.08	411.93
578.24	390.87
578.40	395.55
578.56	393.21
578.72	461.09
578.88	414.27
579.04	402.57
579.21	423.64
579.37	409.59
579.53	360.44
579.69	465.77
579.85	423.64
580.01	435.34
580.17	402.57
580.33	489.17
580.49	456.40
580.65	454.06
580.82	444.70
580.98	423.64
581.14	381.51
581.30	470.45
581.46	449.38
581.62	454.06
581.78	379.17
581.94	407.25
582.10	456.40
582.26	423.64
582.42	435.34
582.58	440.02
582.74	393.21
582.90	425.98
583.06	447.04
583.22	376.83
583.38	430.66
583.54	353.42
583.70	451.72
583.86	397.89
584.02	456.40
584.18	514.92
584.34	428.32
584.50	437.68
584.66	393.21
584.82	409.59
584.98	444.70
585.14	369.80
585.30	454.06
585.46	346.40
585.62	414.27
585.78	409.59
585.94	465.77
586.10	435.34
586.26	400.23
586.42	477.47
586.58	430.66
586.74	409.59
586.90	470.45
587.06	390.87
587.22	381.51
587.38	369.80
587.54	409.59
587.70	437.68
587.86	433.00
588.02	379.17
588.18	479.81
588.34	430.66
588.49	397.89
588.65	451.72
588.81	390.87
588.97	367.46
589.13	383.85
589.29	482.15
589.45	458.74
589.61	404.91
589.77	409.59
589.93	449.38
590.08	367.46
590.24	409.59
590.40	409.59
590.56	388.53
590.72	407.25
590.88	397.89
591.04	404.91
591.20	440.02
591.35	400.23
591.51	395.55
591.67	428.32
591.83	404.91
591.99	395.55
592.15	486.83
592.31	437.68
592.46	411.93
592.62	407.25
592.78	416.62
592.94	393.21
593.10	423.64
593.26	372.15
593.41	430.66
593.57	489.17
593.73	409.59
593.89	442.36
594.05	433.00
594.20	458.74
594.36	407.25
594.52	381.51
594.68	390.87
594.84	390.87
594.99	440.02
595.15	435.34
595.31	456.40
595.47	421.30
595.62	409.59
595.78	383.85
595.94	322.99
596.10	486.83
596.25	430.66
596.41	433.00
596.57	416.62
596.73	423.64
596.88	397.89
597.04	393.21
597.20	362.78
597.36	440.02
597.51	444.70
597.67	344.06
597.83	421.30
597.99	435.34
598.14	393.21
598.30	404.91
598.46	386.19
598.61	475.13
598.77	451.72
598.93	425.98
599.09	475.13
599.24	477.47
599.40	397.89
599.56	360.44
599.71	411.93
599.87	482.15
600.03	372.15
600.18	423.64
600.34	435.34
600.50	433.00
600.65	454.06
600.81	395.55
600.97	351.08
601.12	390.87
601.28	500.87
601.44	393.21
601.59	369.80
601.75	400.23
601.91	421.30
602.06	437.68
602.22	428.32
602.37	395.55
602.53	428.32
602.69	442.36
602.84	362.78
603.00	388.53
603.16	418.96
603.31	479.81
603.47	430.66
603.62	421.30
603.78	491.51
603.94	407.25
604.09	400.23
604.25	404.91
604.40	435.34
604.56	437.68
604.71	393.21
604.87	409.59
605.03	416.62
605.18	409.59
605.34	472.79
605.49	318.31
605.65	444.70
605.80	414.27
605.96	386.19
606.12	430.66
606.27	456.40
606.43	433.00
606.58	402.57
606.74	416.62
606.89	428.32
607.05	402.57
607.20	404.91
607.36	458.74
607.51	458.74
607.67	416.62
607.82	458.74
607.98	482.15
608.13	358.10
608.29	433.00
608.44	407.25
608.60	414.27
608.75	477.47
608.91	400.23
609.06	407.25
609.22	437.68
609.37	451.72
609.53	421.30
609.68	381.51
609.84	372.15
609.99	358.10
610.15	404.91
