SpectraSuite Data File
++++++++++++++++++++++++++++++++++++
Date: Fri Oct 25 12:11:19 EDT 2013
User: price-jones
Dark Spectrum Present: No
Reference Spectrum Present: No
Number of Sampled Component Spectra: 1
Spectrometers: USB2+H05261
Integration Time (usec): 100000 (USB2+H05261)
Spectra Averaged: 1 (USB2+H05261)
Boxcar Smoothing: 0 (USB2+H05261)
Correct for Electrical Dark: No (USB2+H05261)
Strobe/Lamp Enabled: No (USB2+H05261)
Correct for Detector Non-linearity: No (USB2+H05261)
Correct for Stray Light: No (USB2+H05261)
Number of Pixels in Processed Spectrum: 2048
>>>>>Begin Processed Spectral Data<<<<<
365.73	297.25
365.92	297.25
366.12	297.25
366.32	184.90
366.52	264.48
366.72	222.35
366.91	215.33
367.11	262.14
367.31	163.84
367.51	280.86
367.70	252.78
367.90	320.65
368.10	229.37
368.30	210.65
368.49	220.01
368.69	266.82
368.89	245.76
369.09	229.37
369.28	229.37
369.48	273.84
369.68	369.80
369.87	337.04
370.07	297.25
370.27	362.78
370.47	322.99
370.66	308.95
370.86	322.99
371.06	355.76
371.25	397.89
371.45	360.44
371.65	393.21
371.84	421.30
372.04	365.12
372.24	386.19
372.44	407.25
372.63	454.06
372.83	442.36
373.03	388.53
373.22	402.57
373.42	433.00
373.62	430.66
373.81	472.79
374.01	463.43
374.21	482.15
374.40	369.80
374.60	416.62
374.79	411.93
374.99	458.74
375.19	416.62
375.38	411.93
375.58	423.64
375.78	524.28
375.97	444.70
376.17	421.30
376.37	421.30
376.56	381.51
376.76	407.25
376.95	325.33
377.15	458.74
377.35	393.21
377.54	416.62
377.74	388.53
377.93	414.27
378.13	358.10
378.33	430.66
378.52	386.19
378.72	489.17
378.91	456.40
379.11	409.59
379.31	381.51
379.50	414.27
379.70	423.64
379.89	395.55
380.09	425.98
380.28	421.30
380.48	372.15
380.68	442.36
380.87	444.70
381.07	421.30
381.26	325.33
381.46	458.74
381.65	402.57
381.85	421.30
382.04	376.83
382.24	416.62
382.43	463.43
382.63	372.15
382.83	444.70
383.02	346.40
383.22	482.15
383.41	421.30
383.61	416.62
383.80	505.56
384.00	498.53
384.19	397.89
384.39	348.74
384.58	367.46
384.78	388.53
384.97	395.55
385.17	444.70
385.36	374.49
385.56	465.77
385.75	351.08
385.95	379.17
386.14	418.96
386.34	348.74
386.53	407.25
386.72	442.36
386.92	381.51
387.11	404.91
387.31	372.15
387.50	444.70
387.70	383.85
387.89	404.91
388.09	388.53
388.28	430.66
388.48	381.51
388.67	442.36
388.86	397.89
389.06	404.91
389.25	358.10
389.45	365.12
389.64	411.93
389.84	409.59
390.03	435.34
390.22	428.32
390.42	400.23
390.61	395.55
390.81	365.12
391.00	381.51
391.19	428.32
391.39	365.12
391.58	430.66
391.78	386.19
391.97	372.15
392.16	348.74
392.36	381.51
392.55	409.59
392.75	435.34
392.94	428.32
393.13	482.15
393.33	332.36
393.52	437.68
393.71	437.68
393.91	393.21
394.10	409.59
394.29	379.17
394.49	365.12
394.68	388.53
394.88	367.46
395.07	430.66
395.26	414.27
395.46	409.59
395.65	470.45
395.84	383.85
396.04	435.34
396.23	479.81
396.42	416.62
396.62	435.34
396.81	482.15
397.00	435.34
397.19	360.44
397.39	456.40
397.58	418.96
397.77	472.79
397.97	383.85
398.16	355.76
398.35	407.25
398.55	433.00
398.74	393.21
398.93	458.74
399.12	409.59
399.32	421.30
399.51	437.68
399.70	374.49
399.90	442.36
400.09	404.91
400.28	414.27
400.47	379.17
400.67	358.10
400.86	383.85
401.05	395.55
401.24	425.98
401.44	397.89
401.63	418.96
401.82	372.15
402.01	386.19
402.21	402.57
402.40	416.62
402.59	397.89
402.78	437.68
402.97	442.36
403.17	456.40
403.36	440.02
403.55	423.64
403.74	430.66
403.93	402.57
404.13	425.98
404.32	435.34
404.51	381.51
404.70	407.25
404.89	365.12
405.09	440.02
405.28	386.19
405.47	393.21
405.66	414.27
405.85	489.17
406.05	477.47
406.24	407.25
406.43	416.62
406.62	414.27
406.81	503.22
407.00	423.64
407.20	430.66
407.39	381.51
407.58	365.12
407.77	425.98
407.96	447.04
408.15	393.21
408.34	400.23
408.54	423.64
408.73	463.43
408.92	442.36
409.11	416.62
409.30	463.43
409.49	418.96
409.68	449.38
409.87	402.57
410.07	397.89
410.26	430.66
410.45	383.85
410.64	381.51
410.83	407.25
411.02	440.02
411.21	423.64
411.40	404.91
411.59	449.38
411.78	437.68
411.98	425.98
412.17	430.66
412.36	383.85
412.55	383.85
412.74	435.34
412.93	479.81
413.12	351.08
413.31	472.79
413.50	461.09
413.69	390.87
413.88	491.51
414.07	472.79
414.26	411.93
414.45	430.66
414.64	322.99
414.83	388.53
415.02	397.89
415.22	437.68
415.41	418.96
415.60	362.78
415.79	470.45
415.98	463.43
416.17	454.06
416.36	430.66
416.55	355.76
416.74	463.43
416.93	388.53
417.12	365.12
417.31	440.02
417.50	411.93
417.69	444.70
417.88	456.40
418.07	444.70
418.26	421.30
418.45	470.45
418.64	521.94
418.83	428.32
419.02	472.79
419.21	444.70
419.39	414.27
419.58	348.74
419.77	388.53
419.96	358.10
420.15	493.85
420.34	447.04
420.53	297.25
420.72	442.36
420.91	390.87
421.10	374.49
421.29	421.30
421.48	358.10
421.67	393.21
421.86	461.09
422.05	421.30
422.24	381.51
422.43	346.40
422.61	393.21
422.80	393.21
422.99	409.59
423.18	369.80
423.37	346.40
423.56	430.66
423.75	416.62
423.94	404.91
424.13	449.38
424.32	353.42
424.50	407.25
424.69	425.98
424.88	390.87
425.07	425.98
425.26	400.23
425.45	404.91
425.64	346.40
425.83	369.80
426.01	428.32
426.20	365.12
426.39	381.51
426.58	437.68
426.77	374.49
426.96	449.38
427.15	444.70
427.33	397.89
427.52	421.30
427.71	440.02
427.90	451.72
428.09	400.23
428.28	435.34
428.46	393.21
428.65	493.85
428.84	470.45
429.03	442.36
429.22	379.17
429.40	423.64
429.59	428.32
429.78	477.47
429.97	386.19
430.16	376.83
430.34	451.72
430.53	395.55
430.72	390.87
430.91	500.87
431.10	397.89
431.28	372.15
431.47	430.66
431.66	428.32
431.85	475.13
432.03	437.68
432.22	468.11
432.41	430.66
432.60	454.06
432.79	428.32
432.97	388.53
433.16	402.57
433.35	372.15
433.54	327.68
433.72	428.32
433.91	423.64
434.10	395.55
434.28	442.36
434.47	379.17
434.66	437.68
434.85	383.85
435.03	418.96
435.22	440.02
435.41	454.06
435.59	454.06
435.78	557.05
435.97	372.15
436.16	388.53
436.34	407.25
436.53	397.89
436.72	489.17
436.90	397.89
437.09	414.27
437.28	346.40
437.46	365.12
437.65	369.80
437.84	437.68
438.02	454.06
438.21	444.70
438.40	428.32
438.58	437.68
438.77	423.64
438.96	407.25
439.14	376.83
439.33	397.89
439.52	421.30
439.70	381.51
439.89	414.27
440.08	510.24
440.26	468.11
440.45	407.25
440.63	447.04
440.82	395.55
441.01	414.27
441.19	414.27
441.38	423.64
441.57	477.47
441.75	519.60
441.94	435.34
442.12	414.27
442.31	369.80
442.50	512.58
442.68	386.19
442.87	416.62
443.05	435.34
443.24	390.87
443.43	423.64
443.61	409.59
443.80	442.36
443.98	400.23
444.17	444.70
444.35	374.49
444.54	407.25
444.73	379.17
444.91	465.77
445.10	376.83
445.28	393.21
445.47	395.55
445.65	381.51
445.84	449.38
446.02	433.00
446.21	379.17
446.39	418.96
446.58	395.55
446.77	454.06
446.95	418.96
447.14	430.66
447.32	543.00
447.51	442.36
447.69	449.38
447.88	470.45
448.06	369.80
448.25	409.59
448.43	463.43
448.62	461.09
448.80	404.91
448.99	393.21
449.17	395.55
449.36	395.55
449.54	435.34
449.73	393.21
449.91	451.72
450.10	388.53
450.28	416.62
450.46	535.98
450.65	367.46
450.83	461.09
451.02	393.21
451.20	493.85
451.39	416.62
451.57	428.32
451.76	414.27
451.94	430.66
452.13	404.91
452.31	491.51
452.49	444.70
452.68	351.08
452.86	400.23
453.05	404.91
453.23	383.85
453.42	402.57
453.60	421.30
453.78	346.40
453.97	395.55
454.15	470.45
454.34	362.78
454.52	372.15
454.70	395.55
454.89	411.93
455.07	374.49
455.26	362.78
455.44	468.11
455.62	440.02
455.81	468.11
455.99	433.00
456.17	416.62
456.36	407.25
456.54	414.27
456.73	367.46
456.91	351.08
457.09	451.72
457.28	496.19
457.46	475.13
457.64	454.06
457.83	440.02
458.01	409.59
458.19	451.72
458.38	383.85
458.56	449.38
458.74	386.19
458.93	489.17
459.11	468.11
459.29	360.44
459.48	393.21
459.66	449.38
459.84	435.34
460.03	503.22
460.21	395.55
460.39	428.32
460.57	484.49
460.76	430.66
460.94	369.80
461.12	447.04
461.31	400.23
461.49	379.17
461.67	482.15
461.85	428.32
462.04	465.77
462.22	823.87
462.40	360.44
462.59	411.93
462.77	395.55
462.95	369.80
463.13	421.30
463.32	435.34
463.50	395.55
463.68	486.83
463.86	428.32
464.05	517.26
464.23	390.87
464.41	447.04
464.59	379.17
464.78	580.45
464.96	430.66
465.14	470.45
465.32	486.83
465.50	449.38
465.69	407.25
465.87	402.57
466.05	402.57
466.23	372.15
466.41	421.30
466.60	374.49
466.78	425.98
466.96	400.23
467.14	360.44
467.32	393.21
467.51	435.34
467.69	428.32
467.87	428.32
468.05	418.96
468.23	407.25
468.41	472.79
468.60	418.96
468.78	433.00
468.96	430.66
469.14	454.06
469.32	411.93
469.50	423.64
469.69	463.43
469.87	414.27
470.05	430.66
470.23	454.06
470.41	421.30
470.59	440.02
470.77	397.89
470.95	390.87
471.14	418.96
471.32	447.04
471.50	421.30
471.68	447.04
471.86	428.32
472.04	468.11
472.22	437.68
472.40	407.25
472.58	421.30
472.77	454.06
472.95	407.25
473.13	442.36
473.31	430.66
473.49	404.91
473.67	449.38
473.85	475.13
474.03	470.45
474.21	334.70
474.39	442.36
474.57	430.66
474.75	411.93
474.93	395.55
475.12	348.74
475.30	444.70
475.48	416.62
475.66	449.38
475.84	383.85
476.02	407.25
476.20	472.79
476.38	402.57
476.56	503.22
476.74	500.87
476.92	421.30
477.10	451.72
477.28	463.43
477.46	456.40
477.64	367.46
477.82	472.79
478.00	433.00
478.18	381.51
478.36	421.30
478.54	416.62
478.72	386.19
478.90	491.51
479.08	433.00
479.26	425.98
479.44	395.55
479.62	470.45
479.80	428.32
479.98	383.85
480.16	440.02
480.34	397.89
480.52	402.57
480.70	440.02
480.88	381.51
481.06	449.38
481.24	383.85
481.41	404.91
481.59	475.13
481.77	421.30
481.95	433.00
482.13	456.40
482.31	400.23
482.49	362.78
482.67	379.17
482.85	376.83
483.03	505.56
483.21	402.57
483.39	358.10
483.57	400.23
483.74	468.11
483.92	330.02
484.10	409.59
484.28	451.72
484.46	514.92
484.64	430.66
484.82	393.21
485.00	390.87
485.18	428.32
485.35	407.25
485.53	337.04
485.71	482.15
485.89	379.17
486.07	397.89
486.25	414.27
486.43	444.70
486.61	444.70
486.78	407.25
486.96	409.59
487.14	344.06
487.32	386.19
487.50	379.17
487.68	461.09
487.85	461.09
488.03	388.53
488.21	472.79
488.39	388.53
488.57	386.19
488.75	449.38
488.92	489.17
489.10	468.11
489.28	489.17
489.46	414.27
489.64	397.89
489.81	369.80
489.99	507.90
490.17	442.36
490.35	531.30
490.53	400.23
490.70	374.49
490.88	465.77
491.06	425.98
491.24	418.96
491.41	456.40
491.59	376.83
491.77	362.78
491.95	372.15
492.13	418.96
492.30	365.12
492.48	442.36
492.66	402.57
492.84	418.96
493.01	402.57
493.19	433.00
493.37	475.13
493.54	451.72
493.72	383.85
493.90	444.70
494.08	414.27
494.25	447.04
494.43	437.68
494.61	397.89
494.79	390.87
494.96	407.25
495.14	428.32
495.32	360.44
495.49	421.30
495.67	421.30
495.85	442.36
496.02	416.62
496.20	418.96
496.38	425.98
496.55	383.85
496.73	421.30
496.91	437.68
497.09	449.38
497.26	313.63
497.44	425.98
497.62	489.17
497.79	411.93
497.97	456.40
498.14	369.80
498.32	552.37
498.50	416.62
498.67	372.15
498.85	365.12
499.03	379.17
499.20	379.17
499.38	418.96
499.56	416.62
499.73	397.89
499.91	465.77
500.08	423.64
500.26	475.13
500.44	475.13
500.61	393.21
500.79	454.06
500.97	482.15
501.14	470.45
501.32	372.15
501.49	437.68
501.67	456.40
501.84	374.49
502.02	407.25
502.20	486.83
502.37	381.51
502.55	449.38
502.72	479.81
502.90	383.85
503.07	383.85
503.25	386.19
503.43	411.93
503.60	411.93
503.78	437.68
503.95	397.89
504.13	367.46
504.30	386.19
504.48	423.64
504.65	486.83
504.83	404.91
505.01	433.00
505.18	451.72
505.36	397.89
505.53	393.21
505.71	402.57
505.88	479.81
506.06	414.27
506.23	461.09
506.41	444.70
506.58	428.32
506.76	348.74
506.93	402.57
507.11	372.15
507.28	386.19
507.46	428.32
507.63	440.02
507.81	447.04
507.98	397.89
508.16	348.74
508.33	496.19
508.50	435.34
508.68	379.17
508.85	388.53
509.03	395.55
509.20	463.43
509.38	437.68
509.55	320.65
509.73	458.74
509.90	433.00
510.08	428.32
510.25	365.12
510.42	337.04
510.60	409.59
510.77	444.70
510.95	435.34
511.12	435.34
511.30	379.17
511.47	444.70
511.64	496.19
511.82	430.66
511.99	416.62
512.17	442.36
512.34	418.96
512.51	390.87
512.69	367.46
512.86	442.36
513.04	416.62
513.21	404.91
513.38	397.89
513.56	440.02
513.73	397.89
513.90	346.40
514.08	355.76
514.25	407.25
514.43	447.04
514.60	486.83
514.77	351.08
514.95	367.46
515.12	383.85
515.29	381.51
515.47	379.17
515.64	381.51
515.81	379.17
515.99	423.64
516.16	379.17
516.33	416.62
516.51	393.21
516.68	388.53
516.85	400.23
517.03	418.96
517.20	479.81
517.37	430.66
517.54	400.23
517.72	344.06
517.89	381.51
518.06	388.53
518.24	449.38
518.41	505.56
518.58	489.17
518.75	461.09
518.93	486.83
519.10	409.59
519.27	475.13
519.45	397.89
519.62	433.00
519.79	433.00
519.96	409.59
520.14	360.44
520.31	482.15
520.48	472.79
520.65	414.27
520.83	433.00
521.00	479.81
521.17	447.04
521.34	423.64
521.52	451.72
521.69	458.74
521.86	383.85
522.03	395.55
522.20	510.24
522.38	358.10
522.55	451.72
522.72	360.44
522.89	425.98
523.07	451.72
523.24	510.24
523.41	400.23
523.58	369.80
523.75	397.89
523.92	409.59
524.10	418.96
524.27	461.09
524.44	472.79
524.61	451.72
524.78	470.45
524.96	465.77
525.13	374.49
525.30	414.27
525.47	362.78
525.64	440.02
525.81	451.72
525.98	346.40
526.16	461.09
526.33	414.27
526.50	411.93
526.67	407.25
526.84	379.17
527.01	367.46
527.18	402.57
527.36	454.06
527.53	409.59
527.70	444.70
527.87	437.68
528.04	458.74
528.21	414.27
528.38	475.13
528.55	447.04
528.72	425.98
528.89	390.87
529.07	327.68
529.24	430.66
529.41	430.66
529.58	400.23
529.75	437.68
529.92	447.04
530.09	489.17
530.26	493.85
530.43	425.98
530.60	393.21
530.77	479.81
530.94	430.66
531.11	421.30
531.28	388.53
531.46	409.59
531.63	433.00
531.80	386.19
531.97	435.34
532.14	461.09
532.31	421.30
532.48	346.40
532.65	369.80
532.82	472.79
532.99	456.40
533.16	390.87
533.33	390.87
533.50	402.57
533.67	409.59
533.84	414.27
534.01	421.30
534.18	454.06
534.35	425.98
534.52	458.74
534.69	451.72
534.86	337.04
535.03	433.00
535.20	381.51
535.37	425.98
535.54	400.23
535.71	437.68
535.88	416.62
536.05	414.27
536.22	379.17
536.38	388.53
536.55	451.72
536.72	451.72
536.89	468.11
537.06	437.68
537.23	400.23
537.40	418.96
537.57	383.85
537.74	472.79
537.91	482.15
538.08	383.85
538.25	337.04
538.42	362.78
538.59	463.43
538.75	498.53
538.92	411.93
539.09	425.98
539.26	409.59
539.43	388.53
539.60	454.06
539.77	374.49
539.94	416.62
540.11	407.25
540.28	447.04
540.44	486.83
540.61	416.62
540.78	416.62
540.95	407.25
541.12	447.04
541.29	351.08
541.46	573.43
541.62	456.40
541.79	414.27
541.96	351.08
542.13	358.10
542.30	454.06
542.47	470.45
542.63	416.62
542.80	451.72
542.97	423.64
543.14	414.27
543.31	444.70
543.48	402.57
543.64	400.23
543.81	381.51
543.98	407.25
544.15	489.17
544.32	428.32
544.48	404.91
544.65	388.53
544.82	348.74
544.99	418.96
545.16	437.68
545.32	416.62
545.49	383.85
545.66	444.70
545.83	330.02
546.00	456.40
546.16	435.34
546.33	404.91
546.50	407.25
546.67	362.78
546.83	383.85
547.00	393.21
547.17	383.85
547.34	470.45
547.50	451.72
547.67	390.87
547.84	367.46
548.00	409.59
548.17	395.55
548.34	411.93
548.51	437.68
548.67	421.30
548.84	379.17
549.01	444.70
549.18	423.64
549.34	372.15
549.51	386.19
549.68	379.17
549.84	416.62
550.01	311.29
550.18	550.03
550.34	461.09
550.51	493.85
550.68	393.21
550.84	379.17
551.01	409.59
551.18	421.30
551.34	374.49
551.51	390.87
551.68	372.15
551.84	454.06
552.01	388.53
552.18	458.74
552.34	477.47
552.51	411.93
552.68	430.66
552.84	475.13
553.01	416.62
553.18	421.30
553.34	430.66
553.51	400.23
553.67	449.38
553.84	430.66
554.01	435.34
554.17	444.70
554.34	400.23
554.51	390.87
554.67	400.23
554.84	437.68
555.00	402.57
555.17	416.62
555.33	470.45
555.50	465.77
555.67	430.66
555.83	383.85
556.00	428.32
556.16	491.51
556.33	479.81
556.50	416.62
556.66	437.68
556.83	351.08
556.99	454.06
557.16	442.36
557.32	484.49
557.49	435.34
557.65	388.53
557.82	383.85
557.98	393.21
558.15	423.64
558.32	440.02
558.48	418.96
558.65	449.38
558.81	407.25
558.98	409.59
559.14	381.51
559.31	524.28
559.47	411.93
559.64	400.23
559.80	355.76
559.97	418.96
560.13	402.57
560.30	402.57
560.46	334.70
560.63	421.30
560.79	390.87
560.96	383.85
561.12	390.87
561.29	423.64
561.45	458.74
561.61	388.53
561.78	477.47
561.94	468.11
562.11	379.17
562.27	397.89
562.44	458.74
562.60	393.21
562.77	395.55
562.93	540.66
563.10	395.55
563.26	461.09
563.42	414.27
563.59	440.02
563.75	402.57
563.92	425.98
564.08	409.59
564.24	395.55
564.41	435.34
564.57	414.27
564.74	360.44
564.90	454.06
565.07	355.76
565.23	507.90
565.39	440.02
565.56	425.98
565.72	386.19
565.88	402.57
566.05	435.34
566.21	416.62
566.38	437.68
566.54	463.43
566.70	369.80
566.87	409.59
567.03	440.02
567.19	404.91
567.36	407.25
567.52	374.49
567.68	400.23
567.85	449.38
568.01	390.87
568.17	402.57
568.34	444.70
568.50	421.30
568.66	386.19
568.83	531.30
568.99	393.21
569.15	425.98
569.32	444.70
569.48	449.38
569.64	482.15
569.81	430.66
569.97	411.93
570.13	440.02
570.30	320.65
570.46	425.98
570.62	444.70
570.78	451.72
570.95	456.40
571.11	447.04
571.27	444.70
571.43	461.09
571.60	397.89
571.76	447.04
571.92	463.43
572.09	402.57
572.25	437.68
572.41	470.45
572.57	409.59
572.74	482.15
572.90	447.04
573.06	397.89
573.22	372.15
573.38	456.40
573.55	486.83
573.71	461.09
573.87	500.87
574.03	470.45
574.20	440.02
574.36	400.23
574.52	430.66
574.68	341.72
574.84	449.38
575.01	404.91
575.17	388.53
575.33	425.98
575.49	423.64
575.65	414.27
575.82	454.06
575.98	451.72
576.14	447.04
576.30	362.78
576.46	365.12
576.62	301.93
576.79	428.32
576.95	451.72
577.11	402.57
577.27	451.72
577.43	362.78
577.59	454.06
577.75	498.53
577.92	402.57
578.08	390.87
578.24	362.78
578.40	411.93
578.56	395.55
578.72	414.27
578.88	421.30
579.04	442.36
579.21	442.36
579.37	440.02
579.53	395.55
579.69	440.02
579.85	461.09
580.01	369.80
580.17	475.13
580.33	442.36
580.49	351.08
580.65	421.30
580.82	430.66
580.98	393.21
581.14	414.27
581.30	360.44
581.46	444.70
581.62	484.49
581.78	461.09
581.94	397.89
582.10	425.98
582.26	393.21
582.42	393.21
582.58	383.85
582.74	346.40
582.90	400.23
583.06	430.66
583.22	414.27
583.38	367.46
583.54	458.74
583.70	404.91
583.86	351.08
584.02	395.55
584.18	390.87
584.34	414.27
584.50	461.09
584.66	437.68
584.82	414.27
584.98	367.46
585.14	369.80
585.30	461.09
585.46	428.32
585.62	433.00
585.78	449.38
585.94	423.64
586.10	442.36
586.26	388.53
586.42	449.38
586.58	372.15
586.74	449.38
586.90	395.55
587.06	402.57
587.22	367.46
587.38	456.40
587.54	470.45
587.70	404.91
587.86	486.83
588.02	369.80
588.18	400.23
588.34	339.38
588.49	435.34
588.65	395.55
588.81	454.06
588.97	442.36
589.13	421.30
589.29	348.74
589.45	465.77
589.61	482.15
589.77	484.49
589.93	360.44
590.08	402.57
590.24	393.21
590.40	423.64
590.56	510.24
590.72	500.87
590.88	388.53
591.04	388.53
591.20	409.59
591.35	416.62
591.51	425.98
591.67	444.70
591.83	437.68
591.99	407.25
592.15	367.46
592.31	440.02
592.46	421.30
592.62	437.68
592.78	421.30
592.94	440.02
593.10	351.08
593.26	369.80
593.41	437.68
593.57	418.96
593.73	421.30
593.89	414.27
594.05	435.34
594.20	430.66
594.36	414.27
594.52	433.00
594.68	404.91
594.84	444.70
594.99	500.87
595.15	411.93
595.31	430.66
595.47	456.40
595.62	447.04
595.78	367.46
595.94	388.53
596.10	411.93
596.25	367.46
596.41	468.11
596.57	505.56
596.73	395.55
596.88	395.55
597.04	358.10
597.20	393.21
597.36	442.36
597.51	472.79
597.67	393.21
597.83	393.21
597.99	416.62
598.14	430.66
598.30	456.40
598.46	447.04
598.61	456.40
598.77	423.64
598.93	440.02
599.09	360.44
599.24	423.64
599.40	449.38
599.56	397.89
599.71	395.55
599.87	411.93
600.03	430.66
600.18	456.40
600.34	346.40
600.50	437.68
600.65	435.34
600.81	440.02
600.97	381.51
601.12	379.17
601.28	461.09
601.44	425.98
601.59	468.11
601.75	468.11
601.91	423.64
602.06	404.91
602.22	463.43
602.37	442.36
602.53	379.17
602.69	418.96
602.84	404.91
603.00	362.78
603.16	404.91
603.31	486.83
603.47	416.62
603.62	418.96
603.78	411.93
603.94	447.04
604.09	433.00
604.25	475.13
604.40	430.66
604.56	440.02
604.71	402.57
604.87	388.53
605.03	444.70
605.18	428.32
605.34	374.49
605.49	393.21
605.65	449.38
605.80	397.89
605.96	421.30
606.12	423.64
606.27	484.49
606.43	383.85
606.58	440.02
606.74	458.74
606.89	428.32
607.05	428.32
607.20	411.93
607.36	423.64
607.51	449.38
607.67	388.53
607.82	402.57
607.98	430.66
608.13	416.62
608.29	407.25
608.44	465.77
608.60	355.76
608.75	498.53
608.91	458.74
609.06	421.30
609.22	369.80
609.37	449.38
609.53	418.96
609.68	435.34
609.84	395.55
609.99	423.64
610.15	418.96
