SpectraSuite Data File
++++++++++++++++++++++++++++++++++++
Date: Fri Oct 25 12:10:33 EDT 2013
User: price-jones
Dark Spectrum Present: No
Reference Spectrum Present: No
Number of Sampled Component Spectra: 1
Spectrometers: USB2+H05261
Integration Time (usec): 100000 (USB2+H05261)
Spectra Averaged: 1 (USB2+H05261)
Boxcar Smoothing: 0 (USB2+H05261)
Correct for Electrical Dark: No (USB2+H05261)
Strobe/Lamp Enabled: No (USB2+H05261)
Correct for Detector Non-linearity: No (USB2+H05261)
Correct for Stray Light: No (USB2+H05261)
Number of Pixels in Processed Spectrum: 2048
>>>>>Begin Processed Spectral Data<<<<<
365.73	374.49
365.92	374.49
366.12	374.49
366.32	280.86
366.52	205.97
366.72	241.08
366.91	208.31
367.11	170.86
367.31	229.37
367.51	231.71
367.70	191.92
367.90	238.73
368.10	283.20
368.30	166.18
368.49	189.58
368.69	229.37
368.89	215.33
369.09	290.23
369.28	269.16
369.48	257.46
369.68	250.44
369.87	276.18
370.07	276.18
370.27	395.55
370.47	278.52
370.66	337.04
370.86	320.65
371.06	325.33
371.25	395.55
371.45	414.27
371.65	421.30
371.84	397.89
372.04	327.68
372.24	379.17
372.44	407.25
372.63	435.34
372.83	339.38
373.03	421.30
373.22	362.78
373.42	367.46
373.62	407.25
373.81	440.02
374.01	407.25
374.21	437.68
374.40	447.04
374.60	428.32
374.79	414.27
374.99	428.32
375.19	367.46
375.38	395.55
375.58	400.23
375.78	440.02
375.97	477.47
376.17	470.45
376.37	409.59
376.56	381.51
376.76	348.74
376.95	454.06
377.15	435.34
377.35	465.77
377.54	444.70
377.74	379.17
377.93	447.04
378.13	353.42
378.33	512.58
378.52	362.78
378.72	362.78
378.91	332.36
379.11	372.15
379.31	379.17
379.50	423.64
379.70	447.04
379.89	374.49
380.09	315.97
380.28	421.30
380.48	482.15
380.68	327.68
380.87	362.78
381.07	351.08
381.26	414.27
381.46	341.72
381.65	423.64
381.85	400.23
382.04	458.74
382.24	435.34
382.43	388.53
382.63	386.19
382.83	409.59
383.02	477.47
383.22	447.04
383.41	421.30
383.61	393.21
383.80	393.21
384.00	383.85
384.19	346.40
384.39	428.32
384.58	388.53
384.78	437.68
384.97	428.32
385.17	400.23
385.36	374.49
385.56	437.68
385.75	341.72
385.95	437.68
386.14	351.08
386.34	409.59
386.53	463.43
386.72	383.85
386.92	444.70
387.11	435.34
387.31	449.38
387.50	348.74
387.70	404.91
387.89	423.64
388.09	372.15
388.28	327.68
388.48	353.42
388.67	479.81
388.86	437.68
389.06	414.27
389.25	442.36
389.45	386.19
389.64	470.45
389.84	414.27
390.03	379.17
390.22	367.46
390.42	423.64
390.61	409.59
390.81	390.87
391.00	437.68
391.19	383.85
391.39	390.87
391.58	367.46
391.78	414.27
391.97	447.04
392.16	360.44
392.36	337.04
392.55	369.80
392.75	360.44
392.94	423.64
393.13	388.53
393.33	416.62
393.52	472.79
393.71	409.59
393.91	393.21
394.10	344.06
394.29	444.70
394.49	341.72
394.68	379.17
394.88	386.19
395.07	425.98
395.26	414.27
395.46	395.55
395.65	411.93
395.84	393.21
396.04	456.40
396.23	461.09
396.42	376.83
396.62	365.12
396.81	418.96
397.00	411.93
397.19	400.23
397.39	458.74
397.58	409.59
397.77	351.08
397.97	468.11
398.16	411.93
398.35	386.19
398.55	402.57
398.74	332.36
398.93	386.19
399.12	435.34
399.32	404.91
399.51	437.68
399.70	402.57
399.90	433.00
400.09	421.30
400.28	554.71
400.47	428.32
400.67	416.62
400.86	404.91
401.05	416.62
401.24	376.83
401.44	360.44
401.63	327.68
401.82	433.00
402.01	325.33
402.21	397.89
402.40	414.27
402.59	390.87
402.78	397.89
402.97	416.62
403.17	369.80
403.36	393.21
403.55	404.91
403.74	341.72
403.93	437.68
404.13	383.85
404.32	365.12
404.51	365.12
404.70	411.93
404.89	376.83
405.09	388.53
405.28	374.49
405.47	358.10
405.66	491.51
405.85	458.74
406.05	411.93
406.24	442.36
406.43	402.57
406.62	414.27
406.81	458.74
407.00	407.25
407.20	374.49
407.39	444.70
407.58	344.06
407.77	344.06
407.96	409.59
408.15	402.57
408.34	402.57
408.54	418.96
408.73	421.30
408.92	400.23
409.11	376.83
409.30	428.32
409.49	442.36
409.68	425.98
409.87	421.30
410.07	465.77
410.26	404.91
410.45	440.02
410.64	402.57
410.83	433.00
411.02	416.62
411.21	414.27
411.40	369.80
411.59	374.49
411.78	440.02
411.98	409.59
412.17	381.51
412.36	454.06
412.55	411.93
412.74	379.17
412.93	440.02
413.12	372.15
413.31	421.30
413.50	418.96
413.69	397.89
413.88	442.36
414.07	407.25
414.26	409.59
414.45	507.90
414.64	346.40
414.83	376.83
415.02	414.27
415.22	383.85
415.41	325.33
415.60	355.76
415.79	306.61
415.98	451.72
416.17	418.96
416.36	454.06
416.55	475.13
416.74	444.70
416.93	372.15
417.12	327.68
417.31	348.74
417.50	440.02
417.69	498.53
417.88	397.89
418.07	369.80
418.26	376.83
418.45	348.74
418.64	395.55
418.83	379.17
419.02	397.89
419.21	423.64
419.39	365.12
419.58	355.76
419.77	416.62
419.96	411.93
420.15	477.47
420.34	456.40
420.53	465.77
420.72	451.72
420.91	365.12
421.10	411.93
421.29	369.80
421.48	386.19
421.67	465.77
421.86	416.62
422.05	372.15
422.24	341.72
422.43	407.25
422.61	404.91
422.80	428.32
422.99	407.25
423.18	383.85
423.37	397.89
423.56	428.32
423.75	440.02
423.94	414.27
424.13	442.36
424.32	388.53
424.50	416.62
424.69	374.49
424.88	414.27
425.07	409.59
425.26	454.06
425.45	407.25
425.64	355.76
425.83	374.49
426.01	447.04
426.20	374.49
426.39	407.25
426.58	379.17
426.77	416.62
426.96	365.12
427.15	374.49
427.33	414.27
427.52	423.64
427.71	430.66
427.90	442.36
428.09	348.74
428.28	409.59
428.46	404.91
428.65	484.49
428.84	470.45
429.03	477.47
429.22	461.09
429.40	337.04
429.59	416.62
429.78	395.55
429.97	411.93
430.16	379.17
430.34	367.46
430.53	423.64
430.72	468.11
430.91	433.00
431.10	404.91
431.28	414.27
431.47	444.70
431.66	442.36
431.85	465.77
432.03	409.59
432.22	430.66
432.41	414.27
432.60	440.02
432.79	428.32
432.97	407.25
433.16	440.02
433.35	444.70
433.54	341.72
433.72	402.57
433.91	362.78
434.10	421.30
434.28	388.53
434.47	407.25
434.66	479.81
434.85	397.89
435.03	346.40
435.22	416.62
435.41	486.83
435.59	435.34
435.78	454.06
435.97	404.91
436.16	414.27
436.34	442.36
436.53	395.55
436.72	379.17
436.90	425.98
437.09	393.21
437.28	369.80
437.46	388.53
437.65	442.36
437.84	418.96
438.02	454.06
438.21	425.98
438.40	407.25
438.58	463.43
438.77	379.17
438.96	376.83
439.14	414.27
439.33	444.70
439.52	402.57
439.70	416.62
439.89	435.34
440.08	388.53
440.26	428.32
440.45	388.53
440.63	411.93
440.82	409.59
441.01	367.46
441.19	376.83
441.38	390.87
441.57	320.65
441.75	444.70
441.94	465.77
442.12	383.85
442.31	372.15
442.50	409.59
442.68	362.78
442.87	379.17
443.05	330.02
443.24	475.13
443.43	369.80
443.61	435.34
443.80	393.21
443.98	454.06
444.17	407.25
444.35	531.30
444.54	442.36
444.73	416.62
444.91	428.32
445.10	341.72
445.28	393.21
445.47	386.19
445.65	447.04
445.84	374.49
446.02	493.85
446.21	397.89
446.39	355.76
446.58	407.25
446.77	430.66
446.95	418.96
447.14	435.34
447.32	442.36
447.51	409.59
447.69	493.85
447.88	355.76
448.06	435.34
448.25	430.66
448.43	416.62
448.62	402.57
448.80	421.30
448.99	442.36
449.17	416.62
449.36	404.91
449.54	372.15
449.73	367.46
449.91	386.19
450.10	416.62
450.28	386.19
450.46	425.98
450.65	325.33
450.83	400.23
451.02	379.17
451.20	320.65
451.39	367.46
451.57	414.27
451.76	411.93
451.94	418.96
452.13	479.81
452.31	428.32
452.49	393.21
452.68	376.83
452.86	472.79
453.05	423.64
453.23	454.06
453.42	379.17
453.60	428.32
453.78	400.23
453.97	374.49
454.15	437.68
454.34	407.25
454.52	360.44
454.70	358.10
454.89	475.13
455.07	430.66
455.26	407.25
455.44	367.46
455.62	381.51
455.81	416.62
455.99	390.87
456.17	425.98
456.36	386.19
456.54	423.64
456.73	386.19
456.91	374.49
457.09	416.62
457.28	416.62
457.46	456.40
457.64	374.49
457.83	423.64
458.01	369.80
458.19	400.23
458.38	435.34
458.56	447.04
458.74	351.08
458.93	449.38
459.11	388.53
459.29	353.42
459.48	376.83
459.66	437.68
459.84	388.53
460.03	418.96
460.21	440.02
460.39	430.66
460.57	437.68
460.76	379.17
460.94	435.34
461.12	430.66
461.31	409.59
461.49	383.85
461.67	418.96
461.85	425.98
462.04	425.98
462.22	805.14
462.40	472.79
462.59	400.23
462.77	341.72
462.95	437.68
463.13	449.38
463.32	395.55
463.50	383.85
463.68	475.13
463.86	423.64
464.05	468.11
464.23	404.91
464.41	348.74
464.59	397.89
464.78	379.17
464.96	407.25
465.14	362.78
465.32	444.70
465.50	400.23
465.69	435.34
465.87	470.45
466.05	409.59
466.23	425.98
466.41	393.21
466.60	367.46
466.78	414.27
466.96	486.83
467.14	437.68
467.32	470.45
467.51	428.32
467.69	367.46
467.87	491.51
468.05	311.29
468.23	458.74
468.41	463.43
468.60	414.27
468.78	463.43
468.96	407.25
469.14	423.64
469.32	383.85
469.50	308.95
469.69	386.19
469.87	341.72
470.05	362.78
470.23	346.40
470.41	367.46
470.59	393.21
470.77	416.62
470.95	381.51
471.14	416.62
471.32	418.96
471.50	440.02
471.68	379.17
471.86	369.80
472.04	416.62
472.22	458.74
472.40	365.12
472.58	339.38
472.77	362.78
472.95	404.91
473.13	500.87
473.31	430.66
473.49	404.91
473.67	503.22
473.85	437.68
474.03	477.47
474.21	451.72
474.39	491.51
474.57	440.02
474.75	308.95
474.93	353.42
475.12	397.89
475.30	404.91
475.48	425.98
475.66	444.70
475.84	390.87
476.02	386.19
476.20	421.30
476.38	418.96
476.56	458.74
476.74	465.77
476.92	428.32
477.10	440.02
477.28	442.36
477.46	390.87
477.64	463.43
477.82	407.25
478.00	475.13
478.18	374.49
478.36	393.21
478.54	421.30
478.72	440.02
478.90	404.91
479.08	444.70
479.26	383.85
479.44	383.85
479.62	390.87
479.80	372.15
479.98	409.59
480.16	374.49
480.34	491.51
480.52	367.46
480.70	425.98
480.88	360.44
481.06	379.17
481.24	358.10
481.41	402.57
481.59	397.89
481.77	454.06
481.95	454.06
482.13	454.06
482.31	395.55
482.49	409.59
482.67	386.19
482.85	397.89
483.03	475.13
483.21	421.30
483.39	421.30
483.57	388.53
483.74	444.70
483.92	461.09
484.10	449.38
484.28	379.17
484.46	421.30
484.64	440.02
484.82	430.66
485.00	430.66
485.18	374.49
485.35	470.45
485.53	372.15
485.71	374.49
485.89	423.64
486.07	451.72
486.25	484.49
486.43	393.21
486.61	395.55
486.78	358.10
486.96	332.36
487.14	388.53
487.32	409.59
487.50	423.64
487.68	395.55
487.85	444.70
488.03	416.62
488.21	458.74
488.39	367.46
488.57	465.77
488.75	418.96
488.92	414.27
489.10	423.64
489.28	421.30
489.46	447.04
489.64	475.13
489.81	440.02
489.99	451.72
490.17	327.68
490.35	440.02
490.53	390.87
490.70	390.87
490.88	451.72
491.06	397.89
491.24	397.89
491.41	397.89
491.59	458.74
491.77	414.27
491.95	362.78
492.13	404.91
492.30	407.25
492.48	421.30
492.66	423.64
492.84	411.93
493.01	440.02
493.19	383.85
493.37	430.66
493.54	365.12
493.72	374.49
493.90	414.27
494.08	397.89
494.25	449.38
494.43	383.85
494.61	383.85
494.79	400.23
494.96	440.02
495.14	444.70
495.32	414.27
495.49	414.27
495.67	372.15
495.85	367.46
496.02	400.23
496.20	348.74
496.38	447.04
496.55	379.17
496.73	351.08
496.91	341.72
497.09	512.58
497.26	486.83
497.44	484.49
497.62	437.68
497.79	468.11
497.97	418.96
498.14	423.64
498.32	376.83
498.50	482.15
498.67	400.23
498.85	423.64
499.03	393.21
499.20	379.17
499.38	379.17
499.56	468.11
499.73	386.19
499.91	463.43
500.08	433.00
500.26	421.30
500.44	383.85
500.61	388.53
500.79	344.06
500.97	395.55
501.14	475.13
501.32	514.92
501.49	407.25
501.67	456.40
501.84	465.77
502.02	353.42
502.20	500.87
502.37	386.19
502.55	379.17
502.72	421.30
502.90	423.64
503.07	451.72
503.25	390.87
503.43	414.27
503.60	404.91
503.78	449.38
503.95	409.59
504.13	388.53
504.30	376.83
504.48	393.21
504.65	442.36
504.83	400.23
505.01	411.93
505.18	388.53
505.36	486.83
505.53	423.64
505.71	355.76
505.88	491.51
506.06	383.85
506.23	416.62
506.41	365.12
506.58	365.12
506.76	376.83
506.93	395.55
507.11	442.36
507.28	458.74
507.46	435.34
507.63	348.74
507.81	423.64
507.98	390.87
508.16	367.46
508.33	482.15
508.50	407.25
508.68	372.15
508.85	388.53
509.03	430.66
509.20	386.19
509.38	376.83
509.55	433.00
509.73	433.00
509.90	409.59
510.08	393.21
510.25	428.32
510.42	367.46
510.60	414.27
510.77	402.57
510.95	425.98
511.12	383.85
511.30	421.30
511.47	447.04
511.64	489.17
511.82	433.00
511.99	423.64
512.17	390.87
512.34	411.93
512.51	425.98
512.69	358.10
512.86	407.25
513.04	475.13
513.21	454.06
513.38	367.46
513.56	458.74
513.73	383.85
513.90	435.34
514.08	386.19
514.25	425.98
514.43	435.34
514.60	386.19
514.77	442.36
514.95	388.53
515.12	430.66
515.29	397.89
515.47	351.08
515.64	414.27
515.81	486.83
515.99	395.55
516.16	416.62
516.33	463.43
516.51	313.63
516.68	416.62
516.85	355.76
517.03	409.59
517.20	395.55
517.37	400.23
517.54	379.17
517.72	458.74
517.89	381.51
518.06	390.87
518.24	437.68
518.41	447.04
518.58	409.59
518.75	428.32
518.93	374.49
519.10	423.64
519.27	404.91
519.45	414.27
519.62	507.90
519.79	423.64
519.96	433.00
520.14	486.83
520.31	454.06
520.48	484.49
520.65	447.04
520.83	442.36
521.00	402.57
521.17	402.57
521.34	451.72
521.52	430.66
521.69	440.02
521.86	444.70
522.03	383.85
522.20	416.62
522.38	498.53
522.55	407.25
522.72	407.25
522.89	416.62
523.07	517.26
523.24	498.53
523.41	465.77
523.58	407.25
523.75	444.70
523.92	414.27
524.10	358.10
524.27	409.59
524.44	425.98
524.61	390.87
524.78	388.53
524.96	395.55
525.13	390.87
525.30	400.23
525.47	428.32
525.64	414.27
525.81	425.98
525.98	404.91
526.16	362.78
526.33	381.51
526.50	362.78
526.67	397.89
526.84	376.83
527.01	353.42
527.18	383.85
527.36	414.27
527.53	372.15
527.70	489.17
527.87	383.85
528.04	454.06
528.21	418.96
528.38	451.72
528.55	346.40
528.72	400.23
528.89	418.96
529.07	400.23
529.24	407.25
529.41	477.47
529.58	430.66
529.75	414.27
529.92	428.32
530.09	414.27
530.26	360.44
530.43	376.83
530.60	435.34
530.77	351.08
530.94	416.62
531.11	449.38
531.28	402.57
531.46	421.30
531.63	496.19
531.80	407.25
531.97	409.59
532.14	397.89
532.31	346.40
532.48	360.44
532.65	468.11
532.82	360.44
532.99	421.30
533.16	369.80
533.33	374.49
533.50	383.85
533.67	393.21
533.84	409.59
534.01	435.34
534.18	400.23
534.35	383.85
534.52	428.32
534.69	428.32
534.86	423.64
535.03	393.21
535.20	360.44
535.37	440.02
535.54	440.02
535.71	458.74
535.88	390.87
536.05	367.46
536.22	404.91
536.38	449.38
536.55	451.72
536.72	498.53
536.89	451.72
537.06	435.34
537.23	442.36
537.40	409.59
537.57	428.32
537.74	425.98
537.91	388.53
538.08	411.93
538.25	407.25
538.42	374.49
538.59	362.78
538.75	433.00
538.92	456.40
539.09	395.55
539.26	414.27
539.43	428.32
539.60	379.17
539.77	442.36
539.94	458.74
540.11	433.00
540.28	465.77
540.44	388.53
540.61	456.40
540.78	423.64
540.95	402.57
541.12	472.79
541.29	454.06
541.46	468.11
541.62	444.70
541.79	433.00
541.96	444.70
542.13	414.27
542.30	390.87
542.47	451.72
542.63	454.06
542.80	437.68
542.97	447.04
543.14	444.70
543.31	414.27
543.48	351.08
543.64	332.36
543.81	397.89
543.98	421.30
544.15	386.19
544.32	425.98
544.48	442.36
544.65	386.19
544.82	372.15
544.99	379.17
545.16	407.25
545.32	402.57
545.49	428.32
545.66	400.23
545.83	397.89
546.00	379.17
546.16	376.83
546.33	425.98
546.50	365.12
546.67	409.59
546.83	449.38
547.00	449.38
547.17	386.19
547.34	353.42
547.50	433.00
547.67	456.40
547.84	311.29
548.00	447.04
548.17	376.83
548.34	421.30
548.51	463.43
548.67	416.62
548.84	339.38
549.01	379.17
549.18	374.49
549.34	444.70
549.51	437.68
549.68	458.74
549.84	388.53
550.01	423.64
550.18	468.11
550.34	482.15
550.51	447.04
550.68	383.85
550.84	444.70
551.01	409.59
551.18	430.66
551.34	369.80
551.51	435.34
551.68	409.59
551.84	472.79
552.01	383.85
552.18	353.42
552.34	393.21
552.51	400.23
552.68	463.43
552.84	414.27
553.01	388.53
553.18	414.27
553.34	458.74
553.51	402.57
553.67	388.53
553.84	458.74
554.01	414.27
554.17	353.42
554.34	418.96
554.51	397.89
554.67	379.17
554.84	397.89
555.00	397.89
555.17	416.62
555.33	404.91
555.50	425.98
555.67	409.59
555.83	414.27
556.00	383.85
556.16	528.96
556.33	482.15
556.50	414.27
556.66	395.55
556.83	414.27
556.99	461.09
557.16	372.15
557.32	409.59
557.49	414.27
557.65	440.02
557.82	353.42
557.98	402.57
558.15	437.68
558.32	334.70
558.48	402.57
558.65	379.17
558.81	407.25
558.98	470.45
559.14	461.09
559.31	435.34
559.47	393.21
559.64	456.40
559.80	468.11
559.97	381.51
560.13	479.81
560.30	411.93
560.46	383.85
560.63	362.78
560.79	360.44
560.96	395.55
561.12	402.57
561.29	440.02
561.45	407.25
561.61	444.70
561.78	421.30
561.94	430.66
562.11	449.38
562.27	470.45
562.44	456.40
562.60	437.68
562.77	358.10
562.93	463.43
563.10	430.66
563.26	395.55
563.42	428.32
563.59	402.57
563.75	290.23
563.92	524.28
564.08	339.38
564.24	489.17
564.41	456.40
564.57	395.55
564.74	409.59
564.90	365.12
565.07	407.25
565.23	484.49
565.39	383.85
565.56	456.40
565.72	414.27
565.88	348.74
566.05	346.40
566.21	393.21
566.38	351.08
566.54	423.64
566.70	358.10
566.87	435.34
567.03	372.15
567.19	383.85
567.36	393.21
567.52	416.62
567.68	351.08
567.85	430.66
568.01	379.17
568.17	386.19
568.34	379.17
568.50	498.53
568.66	402.57
568.83	498.53
568.99	381.51
569.15	447.04
569.32	418.96
569.48	463.43
569.64	416.62
569.81	365.12
569.97	372.15
570.13	425.98
570.30	421.30
570.46	397.89
570.62	440.02
570.78	470.45
570.95	430.66
571.11	470.45
571.27	430.66
571.43	416.62
571.60	479.81
571.76	444.70
571.92	425.98
572.09	486.83
572.25	400.23
572.41	451.72
572.57	447.04
572.74	491.51
572.90	418.96
573.06	400.23
573.22	376.83
573.38	447.04
573.55	458.74
573.71	451.72
573.87	428.32
574.03	379.17
574.20	440.02
574.36	430.66
574.52	339.38
574.68	409.59
574.84	437.68
575.01	430.66
575.17	386.19
575.33	451.72
575.49	407.25
575.65	393.21
575.82	409.59
575.98	386.19
576.14	437.68
576.30	465.77
576.46	402.57
576.62	437.68
576.79	395.55
576.95	440.02
577.11	315.97
577.27	411.93
577.43	458.74
577.59	482.15
577.75	491.51
577.92	390.87
578.08	423.64
578.24	461.09
578.40	400.23
578.56	461.09
578.72	458.74
578.88	500.87
579.04	416.62
579.21	393.21
579.37	433.00
579.53	512.58
579.69	390.87
579.85	440.02
580.01	468.11
580.17	418.96
580.33	454.06
580.49	395.55
580.65	414.27
580.82	383.85
580.98	458.74
581.14	397.89
581.30	388.53
581.46	433.00
581.62	400.23
581.78	444.70
581.94	430.66
582.10	383.85
582.26	407.25
582.42	428.32
582.58	449.38
582.74	407.25
582.90	435.34
583.06	454.06
583.22	376.83
583.38	400.23
583.54	374.49
583.70	402.57
583.86	404.91
584.02	353.42
584.18	390.87
584.34	372.15
584.50	421.30
584.66	428.32
584.82	428.32
584.98	411.93
585.14	414.27
585.30	463.43
585.46	425.98
585.62	498.53
585.78	374.49
585.94	440.02
586.10	425.98
586.26	402.57
586.42	451.72
586.58	421.30
586.74	414.27
586.90	465.77
587.06	472.79
587.22	437.68
587.38	423.64
587.54	388.53
587.70	435.34
587.86	409.59
588.02	372.15
588.18	416.62
588.34	472.79
588.49	418.96
588.65	339.38
588.81	414.27
588.97	463.43
589.13	358.10
589.29	484.49
589.45	512.58
589.61	456.40
589.77	404.91
589.93	397.89
590.08	374.49
590.24	456.40
590.40	442.36
590.56	374.49
590.72	418.96
590.88	440.02
591.04	442.36
591.20	386.19
591.35	503.22
591.51	416.62
591.67	348.74
591.83	381.51
591.99	379.17
592.15	435.34
592.31	407.25
592.46	411.93
592.62	461.09
592.78	423.64
592.94	383.85
593.10	437.68
593.26	418.96
593.41	395.55
593.57	430.66
593.73	411.93
593.89	472.79
594.05	397.89
594.20	470.45
594.36	477.47
594.52	376.83
594.68	400.23
594.84	369.80
594.99	400.23
595.15	451.72
595.31	376.83
595.47	447.04
595.62	437.68
595.78	353.42
595.94	411.93
596.10	402.57
596.25	435.34
596.41	418.96
596.57	351.08
596.73	458.74
596.88	355.76
597.04	400.23
597.20	353.42
597.36	367.46
597.51	390.87
597.67	465.77
597.83	454.06
597.99	418.96
598.14	407.25
598.30	491.51
598.46	381.51
598.61	414.27
598.77	407.25
598.93	404.91
599.09	372.15
599.24	376.83
599.40	444.70
599.56	489.17
599.71	358.10
599.87	374.49
600.03	411.93
600.18	458.74
600.34	458.74
600.50	454.06
600.65	402.57
600.81	365.12
600.97	393.21
601.12	390.87
601.28	383.85
601.44	425.98
601.59	390.87
601.75	433.00
601.91	407.25
602.06	402.57
602.22	447.04
602.37	365.12
602.53	404.91
602.69	376.83
602.84	395.55
603.00	341.72
603.16	503.22
603.31	470.45
603.47	411.93
603.62	416.62
603.78	458.74
603.94	397.89
604.09	421.30
604.25	440.02
604.40	395.55
604.56	348.74
604.71	458.74
604.87	433.00
605.03	491.51
605.18	454.06
605.34	400.23
605.49	404.91
605.65	477.47
605.80	421.30
605.96	365.12
606.12	418.96
606.27	421.30
606.43	451.72
606.58	470.45
606.74	444.70
606.89	395.55
607.05	433.00
607.20	458.74
607.36	440.02
607.51	390.87
607.67	435.34
607.82	444.70
607.98	365.12
608.13	409.59
608.29	449.38
608.44	388.53
608.60	409.59
608.75	465.77
608.91	437.68
609.06	428.32
609.22	367.46
609.37	376.83
609.53	451.72
609.68	456.40
609.84	393.21
609.99	369.80
610.15	393.21
