SpectraSuite Data File
++++++++++++++++++++++++++++++++++++
Date: Fri Oct 25 12:11:18 EDT 2013
User: price-jones
Dark Spectrum Present: No
Reference Spectrum Present: No
Number of Sampled Component Spectra: 1
Spectrometers: USB2+H05261
Integration Time (usec): 100000 (USB2+H05261)
Spectra Averaged: 1 (USB2+H05261)
Boxcar Smoothing: 0 (USB2+H05261)
Correct for Electrical Dark: No (USB2+H05261)
Strobe/Lamp Enabled: No (USB2+H05261)
Correct for Detector Non-linearity: No (USB2+H05261)
Correct for Stray Light: No (USB2+H05261)
Number of Pixels in Processed Spectrum: 2048
>>>>>Begin Processed Spectral Data<<<<<
365.73	355.76
365.92	355.76
366.12	355.76
366.32	315.97
366.52	238.73
366.72	208.31
366.91	276.18
367.11	269.16
367.31	220.01
367.51	236.39
367.70	255.12
367.90	203.63
368.10	280.86
368.30	184.90
368.49	306.61
368.69	229.37
368.89	245.76
369.09	241.08
369.28	308.95
369.48	334.70
369.68	353.42
369.87	304.27
370.07	285.55
370.27	409.59
370.47	379.17
370.66	409.59
370.86	402.57
371.06	341.72
371.25	423.64
371.45	320.65
371.65	444.70
371.84	397.89
372.04	372.15
372.24	444.70
372.44	330.02
372.63	428.32
372.83	482.15
373.03	390.87
373.22	451.72
373.42	458.74
373.62	454.06
373.81	437.68
374.01	482.15
374.21	402.57
374.40	402.57
374.60	348.74
374.79	447.04
374.99	468.11
375.19	383.85
375.38	379.17
375.58	484.49
375.78	411.93
375.97	435.34
376.17	484.49
376.37	421.30
376.56	454.06
376.76	407.25
376.95	444.70
377.15	468.11
377.35	449.38
377.54	465.77
377.74	332.36
377.93	402.57
378.13	414.27
378.33	468.11
378.52	421.30
378.72	470.45
378.91	444.70
379.11	458.74
379.31	383.85
379.50	362.78
379.70	390.87
379.89	416.62
380.09	388.53
380.28	299.59
380.48	383.85
380.68	451.72
380.87	388.53
381.07	395.55
381.26	414.27
381.46	407.25
381.65	386.19
381.85	395.55
382.04	388.53
382.24	418.96
382.43	397.89
382.63	381.51
382.83	437.68
383.02	365.12
383.22	409.59
383.41	374.49
383.61	428.32
383.80	414.27
384.00	358.10
384.19	409.59
384.39	379.17
384.58	353.42
384.78	421.30
384.97	430.66
385.17	393.21
385.36	327.68
385.56	395.55
385.75	351.08
385.95	390.87
386.14	430.66
386.34	479.81
386.53	402.57
386.72	381.51
386.92	372.15
387.11	348.74
387.31	423.64
387.50	372.15
387.70	402.57
387.89	461.09
388.09	416.62
388.28	409.59
388.48	423.64
388.67	397.89
388.86	407.25
389.06	379.17
389.25	442.36
389.45	334.70
389.64	449.38
389.84	440.02
390.03	449.38
390.22	411.93
390.42	397.89
390.61	423.64
390.81	397.89
391.00	402.57
391.19	430.66
391.39	362.78
391.58	418.96
391.78	341.72
391.97	425.98
392.16	379.17
392.36	442.36
392.55	454.06
392.75	482.15
392.94	393.21
393.13	444.70
393.33	465.77
393.52	458.74
393.71	472.79
393.91	454.06
394.10	418.96
394.29	400.23
394.49	397.89
394.68	355.76
394.88	444.70
395.07	423.64
395.26	447.04
395.46	409.59
395.65	390.87
395.84	327.68
396.04	475.13
396.23	353.42
396.42	367.46
396.62	346.40
396.81	416.62
397.00	395.55
397.19	383.85
397.39	346.40
397.58	383.85
397.77	320.65
397.97	339.38
398.16	423.64
398.35	451.72
398.55	414.27
398.74	479.81
398.93	393.21
399.12	437.68
399.32	440.02
399.51	369.80
399.70	390.87
399.90	451.72
400.09	449.38
400.28	397.89
400.47	322.99
400.67	433.00
400.86	449.38
401.05	449.38
401.24	430.66
401.44	346.40
401.63	379.17
401.82	381.51
402.01	393.21
402.21	468.11
402.40	449.38
402.59	416.62
402.78	409.59
402.97	475.13
403.17	355.76
403.36	390.87
403.55	395.55
403.74	414.27
403.93	351.08
404.13	351.08
404.32	397.89
404.51	374.49
404.70	428.32
404.89	390.87
405.09	449.38
405.28	374.49
405.47	367.46
405.66	451.72
405.85	442.36
406.05	437.68
406.24	411.93
406.43	344.06
406.62	388.53
406.81	433.00
407.00	440.02
407.20	411.93
407.39	388.53
407.58	463.43
407.77	397.89
407.96	409.59
408.15	451.72
408.34	407.25
408.54	447.04
408.73	393.21
408.92	451.72
409.11	461.09
409.30	421.30
409.49	423.64
409.68	400.23
409.87	437.68
410.07	442.36
410.26	404.91
410.45	386.19
410.64	395.55
410.83	458.74
411.02	395.55
411.21	430.66
411.40	430.66
411.59	491.51
411.78	390.87
411.98	411.93
412.17	421.30
412.36	358.10
412.55	414.27
412.74	428.32
412.93	472.79
413.12	393.21
413.31	449.38
413.50	496.19
413.69	381.51
413.88	433.00
414.07	400.23
414.26	341.72
414.45	330.02
414.64	437.68
414.83	454.06
415.02	409.59
415.22	451.72
415.41	442.36
415.60	346.40
415.79	390.87
415.98	367.46
416.17	402.57
416.36	397.89
416.55	454.06
416.74	407.25
416.93	437.68
417.12	433.00
417.31	411.93
417.50	369.80
417.69	437.68
417.88	369.80
418.07	397.89
418.26	330.02
418.45	346.40
418.64	477.47
418.83	416.62
419.02	468.11
419.21	461.09
419.39	423.64
419.58	442.36
419.77	437.68
419.96	409.59
420.15	409.59
420.34	454.06
420.53	374.49
420.72	451.72
420.91	442.36
421.10	440.02
421.29	411.93
421.48	383.85
421.67	388.53
421.86	353.42
422.05	383.85
422.24	465.77
422.43	393.21
422.61	346.40
422.80	425.98
422.99	454.06
423.18	411.93
423.37	409.59
423.56	372.15
423.75	465.77
423.94	423.64
424.13	463.43
424.32	346.40
424.50	390.87
424.69	411.93
424.88	449.38
425.07	369.80
425.26	491.51
425.45	451.72
425.64	411.93
425.83	395.55
426.01	383.85
426.20	416.62
426.39	498.53
426.58	486.83
426.77	430.66
426.96	367.46
427.15	449.38
427.33	430.66
427.52	454.06
427.71	372.15
427.90	437.68
428.09	433.00
428.28	400.23
428.46	418.96
428.65	437.68
428.84	386.19
429.03	489.17
429.22	383.85
429.40	390.87
429.59	435.34
429.78	456.40
429.97	404.91
430.16	388.53
430.34	390.87
430.53	404.91
430.72	418.96
430.91	409.59
431.10	475.13
431.28	421.30
431.47	383.85
431.66	454.06
431.85	395.55
432.03	332.36
432.22	444.70
432.41	458.74
432.60	451.72
432.79	444.70
432.97	461.09
433.16	458.74
433.35	458.74
433.54	346.40
433.72	437.68
433.91	393.21
434.10	327.68
434.28	388.53
434.47	383.85
434.66	308.95
434.85	383.85
435.03	404.91
435.22	390.87
435.41	383.85
435.59	397.89
435.78	444.70
435.97	388.53
436.16	428.32
436.34	444.70
436.53	482.15
436.72	482.15
436.90	409.59
437.09	447.04
437.28	449.38
437.46	386.19
437.65	447.04
437.84	477.47
438.02	454.06
438.21	430.66
438.40	433.00
438.58	409.59
438.77	435.34
438.96	472.79
439.14	416.62
439.33	407.25
439.52	444.70
439.70	381.51
439.89	395.55
440.08	348.74
440.26	454.06
440.45	411.93
440.63	351.08
440.82	411.93
441.01	489.17
441.19	395.55
441.38	435.34
441.57	442.36
441.75	449.38
441.94	461.09
442.12	447.04
442.31	437.68
442.50	454.06
442.68	397.89
442.87	409.59
443.05	397.89
443.24	379.17
443.43	376.83
443.61	454.06
443.80	411.93
443.98	414.27
444.17	369.80
444.35	458.74
444.54	447.04
444.73	376.83
444.91	496.19
445.10	390.87
445.28	386.19
445.47	414.27
445.65	411.93
445.84	411.93
446.02	454.06
446.21	442.36
446.39	418.96
446.58	416.62
446.77	409.59
446.95	386.19
447.14	365.12
447.32	386.19
447.51	430.66
447.69	395.55
447.88	397.89
448.06	447.04
448.25	430.66
448.43	365.12
448.62	388.53
448.80	353.42
448.99	383.85
449.17	468.11
449.36	477.47
449.54	449.38
449.73	376.83
449.91	428.32
450.10	428.32
450.28	503.22
450.46	402.57
450.65	376.83
450.83	407.25
451.02	376.83
451.20	407.25
451.39	463.43
451.57	344.06
451.76	423.64
451.94	475.13
452.13	383.85
452.31	390.87
452.49	458.74
452.68	416.62
452.86	344.06
453.05	376.83
453.23	341.72
453.42	358.10
453.60	390.87
453.78	433.00
453.97	390.87
454.15	337.04
454.34	430.66
454.52	379.17
454.70	458.74
454.89	404.91
455.07	433.00
455.26	430.66
455.44	393.21
455.62	440.02
455.81	397.89
455.99	435.34
456.17	442.36
456.36	442.36
456.54	444.70
456.73	418.96
456.91	334.70
457.09	421.30
457.28	397.89
457.46	435.34
457.64	421.30
457.83	372.15
458.01	327.68
458.19	402.57
458.38	402.57
458.56	400.23
458.74	376.83
458.93	451.72
459.11	447.04
459.29	425.98
459.48	388.53
459.66	393.21
459.84	404.91
460.03	425.98
460.21	362.78
460.39	341.72
460.57	407.25
460.76	411.93
460.94	360.44
461.12	463.43
461.31	425.98
461.49	374.49
461.67	407.25
461.85	468.11
462.04	383.85
462.22	718.54
462.40	423.64
462.59	421.30
462.77	400.23
462.95	428.32
463.13	479.81
463.32	507.90
463.50	461.09
463.68	358.10
463.86	409.59
464.05	463.43
464.23	442.36
464.41	463.43
464.59	461.09
464.78	416.62
464.96	355.76
465.14	355.76
465.32	379.17
465.50	381.51
465.69	376.83
465.87	362.78
466.05	477.47
466.23	479.81
466.41	423.64
466.60	433.00
466.78	416.62
466.96	433.00
467.14	425.98
467.32	449.38
467.51	449.38
467.69	433.00
467.87	397.89
468.05	428.32
468.23	435.34
468.41	365.12
468.60	451.72
468.78	475.13
468.96	430.66
469.14	425.98
469.32	463.43
469.50	433.00
469.69	388.53
469.87	454.06
470.05	416.62
470.23	463.43
470.41	372.15
470.59	388.53
470.77	409.59
470.95	348.74
471.14	444.70
471.32	379.17
471.50	428.32
471.68	414.27
471.86	416.62
472.04	355.76
472.22	341.72
472.40	362.78
472.58	369.80
472.77	447.04
472.95	397.89
473.13	442.36
473.31	407.25
473.49	383.85
473.67	451.72
473.85	472.79
474.03	395.55
474.21	402.57
474.39	388.53
474.57	461.09
474.75	425.98
474.93	402.57
475.12	360.44
475.30	437.68
475.48	332.36
475.66	372.15
475.84	348.74
476.02	486.83
476.20	409.59
476.38	414.27
476.56	470.45
476.74	369.80
476.92	404.91
477.10	416.62
477.28	521.94
477.46	425.98
477.64	447.04
477.82	355.76
478.00	285.55
478.18	435.34
478.36	421.30
478.54	379.17
478.72	395.55
478.90	461.09
479.08	418.96
479.26	454.06
479.44	379.17
479.62	400.23
479.80	397.89
479.98	421.30
480.16	463.43
480.34	447.04
480.52	400.23
480.70	414.27
480.88	421.30
481.06	421.30
481.24	500.87
481.41	433.00
481.59	332.36
481.77	461.09
481.95	433.00
482.13	423.64
482.31	435.34
482.49	402.57
482.67	421.30
482.85	430.66
483.03	395.55
483.21	353.42
483.39	334.70
483.57	435.34
483.74	376.83
483.92	461.09
484.10	437.68
484.28	440.02
484.46	444.70
484.64	468.11
484.82	447.04
485.00	411.93
485.18	421.30
485.35	367.46
485.53	428.32
485.71	411.93
485.89	360.44
486.07	470.45
486.25	489.17
486.43	362.78
486.61	449.38
486.78	433.00
486.96	365.12
487.14	365.12
487.32	402.57
487.50	430.66
487.68	402.57
487.85	416.62
488.03	425.98
488.21	397.89
488.39	411.93
488.57	475.13
488.75	358.10
488.92	454.06
489.10	428.32
489.28	418.96
489.46	376.83
489.64	376.83
489.81	409.59
489.99	479.81
490.17	411.93
490.35	475.13
490.53	423.64
490.70	379.17
490.88	322.99
491.06	388.53
491.24	367.46
491.41	423.64
491.59	395.55
491.77	409.59
491.95	458.74
492.13	437.68
492.30	423.64
492.48	372.15
492.66	416.62
492.84	360.44
493.01	327.68
493.19	409.59
493.37	374.49
493.54	374.49
493.72	437.68
493.90	407.25
494.08	428.32
494.25	355.76
494.43	395.55
494.61	395.55
494.79	344.06
494.96	390.87
495.14	472.79
495.32	428.32
495.49	444.70
495.67	463.43
495.85	484.49
496.02	423.64
496.20	437.68
496.38	351.08
496.55	444.70
496.73	388.53
496.91	421.30
497.09	388.53
497.26	379.17
497.44	334.70
497.62	477.47
497.79	454.06
497.97	414.27
498.14	472.79
498.32	430.66
498.50	402.57
498.67	437.68
498.85	414.27
499.03	390.87
499.20	498.53
499.38	430.66
499.56	386.19
499.73	458.74
499.91	428.32
500.08	430.66
500.26	383.85
500.44	442.36
500.61	388.53
500.79	428.32
500.97	428.32
501.14	393.21
501.32	435.34
501.49	407.25
501.67	386.19
501.84	489.17
502.02	444.70
502.20	458.74
502.37	374.49
502.55	461.09
502.72	435.34
502.90	414.27
503.07	381.51
503.25	367.46
503.43	440.02
503.60	339.38
503.78	381.51
503.95	414.27
504.13	374.49
504.30	449.38
504.48	456.40
504.65	510.24
504.83	381.51
505.01	430.66
505.18	489.17
505.36	475.13
505.53	355.76
505.71	409.59
505.88	409.59
506.06	411.93
506.23	414.27
506.41	374.49
506.58	470.45
506.76	362.78
506.93	463.43
507.11	444.70
507.28	402.57
507.46	442.36
507.63	440.02
507.81	418.96
507.98	421.30
508.16	447.04
508.33	430.66
508.50	381.51
508.68	341.72
508.85	528.96
509.03	418.96
509.20	414.27
509.38	386.19
509.55	472.79
509.73	442.36
509.90	510.24
510.08	437.68
510.25	409.59
510.42	423.64
510.60	360.44
510.77	407.25
510.95	498.53
511.12	374.49
511.30	383.85
511.47	433.00
511.64	496.19
511.82	477.47
511.99	327.68
512.17	344.06
512.34	442.36
512.51	433.00
512.69	400.23
512.86	418.96
513.04	447.04
513.21	383.85
513.38	386.19
513.56	322.99
513.73	393.21
513.90	409.59
514.08	428.32
514.25	421.30
514.43	477.47
514.60	493.85
514.77	404.91
514.95	477.47
515.12	341.72
515.29	447.04
515.47	393.21
515.64	388.53
515.81	404.91
515.99	362.78
516.16	442.36
516.33	435.34
516.51	400.23
516.68	393.21
516.85	346.40
517.03	477.47
517.20	428.32
517.37	353.42
517.54	407.25
517.72	397.89
517.89	402.57
518.06	470.45
518.24	442.36
518.41	332.36
518.58	367.46
518.75	308.95
518.93	395.55
519.10	454.06
519.27	372.15
519.45	388.53
519.62	355.76
519.79	482.15
519.96	409.59
520.14	423.64
520.31	468.11
520.48	400.23
520.65	388.53
520.83	465.77
521.00	435.34
521.17	411.93
521.34	339.38
521.52	435.34
521.69	393.21
521.86	479.81
522.03	390.87
522.20	421.30
522.38	428.32
522.55	374.49
522.72	355.76
522.89	451.72
523.07	447.04
523.24	411.93
523.41	430.66
523.58	400.23
523.75	423.64
523.92	423.64
524.10	454.06
524.27	437.68
524.44	414.27
524.61	447.04
524.78	402.57
524.96	400.23
525.13	400.23
525.30	425.98
525.47	379.17
525.64	472.79
525.81	437.68
525.98	414.27
526.16	440.02
526.33	414.27
526.50	402.57
526.67	421.30
526.84	381.51
527.01	388.53
527.18	465.77
527.36	404.91
527.53	463.43
527.70	362.78
527.87	374.49
528.04	418.96
528.21	449.38
528.38	428.32
528.55	379.17
528.72	472.79
528.89	383.85
529.07	428.32
529.24	435.34
529.41	510.24
529.58	463.43
529.75	458.74
529.92	400.23
530.09	381.51
530.26	353.42
530.43	393.21
530.60	449.38
530.77	421.30
530.94	362.78
531.11	435.34
531.28	404.91
531.46	381.51
531.63	428.32
531.80	440.02
531.97	468.11
532.14	447.04
532.31	425.98
532.48	362.78
532.65	444.70
532.82	372.15
532.99	409.59
533.16	463.43
533.33	388.53
533.50	360.44
533.67	442.36
533.84	449.38
534.01	386.19
534.18	388.53
534.35	435.34
534.52	423.64
534.69	421.30
534.86	365.12
535.03	425.98
535.20	456.40
535.37	447.04
535.54	411.93
535.71	414.27
535.88	425.98
536.05	477.47
536.22	402.57
536.38	479.81
536.55	470.45
536.72	374.49
536.89	411.93
537.06	365.12
537.23	337.04
537.40	388.53
537.57	437.68
537.74	484.49
537.91	395.55
538.08	383.85
538.25	379.17
538.42	365.12
538.59	435.34
538.75	465.77
538.92	409.59
539.09	390.87
539.26	376.83
539.43	421.30
539.60	397.89
539.77	362.78
539.94	470.45
540.11	454.06
540.28	425.98
540.44	440.02
540.61	376.83
540.78	386.19
540.95	402.57
541.12	465.77
541.29	379.17
541.46	458.74
541.62	393.21
541.79	404.91
541.96	470.45
542.13	435.34
542.30	430.66
542.47	472.79
542.63	409.59
542.80	409.59
542.97	447.04
543.14	442.36
543.31	458.74
543.48	369.80
543.64	402.57
543.81	444.70
543.98	315.97
544.15	355.76
544.32	409.59
544.48	367.46
544.65	425.98
544.82	414.27
544.99	397.89
545.16	479.81
545.32	458.74
545.49	421.30
545.66	344.06
545.83	425.98
546.00	341.72
546.16	440.02
546.33	440.02
546.50	447.04
546.67	407.25
546.83	393.21
547.00	360.44
547.17	390.87
547.34	379.17
547.50	449.38
547.67	362.78
547.84	437.68
548.00	374.49
548.17	393.21
548.34	376.83
548.51	461.09
548.67	395.55
548.84	393.21
549.01	442.36
549.18	442.36
549.34	440.02
549.51	442.36
549.68	374.49
549.84	440.02
550.01	411.93
550.18	517.26
550.34	454.06
550.51	461.09
550.68	451.72
550.84	362.78
551.01	428.32
551.18	463.43
551.34	369.80
551.51	447.04
551.68	383.85
551.84	447.04
552.01	440.02
552.18	451.72
552.34	411.93
552.51	397.89
552.68	489.17
552.84	416.62
553.01	393.21
553.18	428.32
553.34	444.70
553.51	416.62
553.67	386.19
553.84	475.13
554.01	414.27
554.17	400.23
554.34	369.80
554.51	346.40
554.67	421.30
554.84	393.21
555.00	411.93
555.17	428.32
555.33	451.72
555.50	381.51
555.67	449.38
555.83	444.70
556.00	519.60
556.16	538.32
556.33	472.79
556.50	390.87
556.66	379.17
556.83	411.93
556.99	475.13
557.16	447.04
557.32	407.25
557.49	400.23
557.65	402.57
557.82	418.96
557.98	423.64
558.15	505.56
558.32	458.74
558.48	402.57
558.65	402.57
558.81	381.51
558.98	353.42
559.14	447.04
559.31	451.72
559.47	409.59
559.64	400.23
559.80	411.93
559.97	409.59
560.13	442.36
560.30	451.72
560.46	472.79
560.63	402.57
560.79	388.53
560.96	397.89
561.12	388.53
561.29	379.17
561.45	428.32
561.61	358.10
561.78	479.81
561.94	440.02
562.11	383.85
562.27	463.43
562.44	486.83
562.60	393.21
562.77	435.34
562.93	449.38
563.10	376.83
563.26	404.91
563.42	353.42
563.59	383.85
563.75	374.49
563.92	409.59
564.08	386.19
564.24	418.96
564.41	454.06
564.57	397.89
564.74	390.87
564.90	503.22
565.07	433.00
565.23	418.96
565.39	402.57
565.56	409.59
565.72	404.91
565.88	440.02
566.05	388.53
566.21	451.72
566.38	397.89
566.54	475.13
566.70	411.93
566.87	388.53
567.03	407.25
567.19	484.49
567.36	341.72
567.52	393.21
567.68	376.83
567.85	421.30
568.01	393.21
568.17	351.08
568.34	383.85
568.50	468.11
568.66	390.87
568.83	454.06
568.99	451.72
569.15	400.23
569.32	318.31
569.48	416.62
569.64	381.51
569.81	379.17
569.97	400.23
570.13	463.43
570.30	433.00
570.46	381.51
570.62	435.34
570.78	400.23
570.95	416.62
571.11	409.59
571.27	437.68
571.43	395.55
571.60	423.64
571.76	367.46
571.92	430.66
572.09	409.59
572.25	414.27
572.41	355.76
572.57	390.87
572.74	421.30
572.90	470.45
573.06	463.43
573.22	477.47
573.38	411.93
573.55	395.55
573.71	447.04
573.87	489.17
574.03	414.27
574.20	390.87
574.36	423.64
574.52	386.19
574.68	360.44
574.84	416.62
575.01	337.04
575.17	383.85
575.33	418.96
575.49	463.43
575.65	425.98
575.82	418.96
575.98	425.98
576.14	404.91
576.30	463.43
576.46	519.60
576.62	428.32
576.79	451.72
576.95	381.51
577.11	416.62
577.27	470.45
577.43	505.56
577.59	484.49
577.75	372.15
577.92	463.43
578.08	447.04
578.24	498.53
578.40	489.17
578.56	510.24
578.72	440.02
578.88	496.19
579.04	421.30
579.21	379.17
579.37	402.57
579.53	423.64
579.69	493.85
579.85	409.59
580.01	458.74
580.17	383.85
580.33	372.15
580.49	395.55
580.65	386.19
580.82	428.32
580.98	369.80
581.14	355.76
581.30	463.43
581.46	425.98
581.62	409.59
581.78	395.55
581.94	411.93
582.10	294.91
582.26	397.89
582.42	425.98
582.58	437.68
582.74	404.91
582.90	440.02
583.06	456.40
583.22	430.66
583.38	421.30
583.54	365.12
583.70	440.02
583.86	379.17
584.02	433.00
584.18	428.32
584.34	360.44
584.50	421.30
584.66	425.98
584.82	409.59
584.98	360.44
585.14	388.53
585.30	472.79
585.46	475.13
585.62	449.38
585.78	463.43
585.94	489.17
586.10	454.06
586.26	440.02
586.42	470.45
586.58	461.09
586.74	468.11
586.90	386.19
587.06	430.66
587.22	400.23
587.38	430.66
587.54	442.36
587.70	437.68
587.86	465.77
588.02	482.15
588.18	442.36
588.34	425.98
588.49	383.85
588.65	397.89
588.81	372.15
588.97	379.17
589.13	402.57
589.29	423.64
589.45	400.23
589.61	397.89
589.77	404.91
589.93	433.00
590.08	442.36
590.24	454.06
590.40	416.62
590.56	376.83
590.72	447.04
590.88	362.78
591.04	322.99
591.20	428.32
591.35	440.02
591.51	458.74
591.67	346.40
591.83	416.62
591.99	425.98
592.15	409.59
592.31	528.96
592.46	400.23
592.62	407.25
592.78	475.13
592.94	477.47
593.10	447.04
593.26	313.63
593.41	381.51
593.57	416.62
593.73	383.85
593.89	425.98
594.05	355.76
594.20	395.55
594.36	425.98
594.52	437.68
594.68	442.36
594.84	442.36
594.99	435.34
595.15	449.38
595.31	362.78
595.47	437.68
595.62	386.19
595.78	365.12
595.94	421.30
596.10	430.66
596.25	435.34
596.41	407.25
596.57	433.00
596.73	425.98
596.88	355.76
597.04	437.68
597.20	383.85
597.36	458.74
597.51	418.96
597.67	388.53
597.83	414.27
597.99	435.34
598.14	404.91
598.30	449.38
598.46	372.15
598.61	468.11
598.77	421.30
598.93	404.91
599.09	369.80
599.24	470.45
599.40	397.89
599.56	444.70
599.71	404.91
599.87	404.91
600.03	433.00
600.18	482.15
600.34	437.68
600.50	437.68
600.65	393.21
600.81	418.96
600.97	365.12
601.12	416.62
601.28	425.98
601.44	430.66
601.59	444.70
601.75	395.55
601.91	355.76
602.06	388.53
602.22	451.72
602.37	414.27
602.53	365.12
602.69	489.17
602.84	402.57
603.00	472.79
603.16	423.64
603.31	423.64
603.47	477.47
603.62	465.77
603.78	444.70
603.94	423.64
604.09	435.34
604.25	444.70
604.40	402.57
604.56	435.34
604.71	472.79
604.87	435.34
605.03	437.68
605.18	444.70
605.34	456.40
605.49	468.11
605.65	414.27
605.80	456.40
605.96	404.91
606.12	421.30
606.27	463.43
606.43	362.78
606.58	313.63
606.74	379.17
606.89	454.06
607.05	379.17
607.20	437.68
607.36	397.89
607.51	449.38
607.67	400.23
607.82	381.51
607.98	393.21
608.13	367.46
608.29	430.66
608.44	468.11
608.60	468.11
608.75	395.55
608.91	414.27
609.06	498.53
609.22	503.22
609.37	397.89
609.53	407.25
609.68	454.06
609.84	393.21
609.99	418.96
610.15	425.98
