SpectraSuite Data File
++++++++++++++++++++++++++++++++++++
Date: Fri Oct 25 12:10:31 EDT 2013
User: price-jones
Dark Spectrum Present: No
Reference Spectrum Present: No
Number of Sampled Component Spectra: 1
Spectrometers: USB2+H05261
Integration Time (usec): 100000 (USB2+H05261)
Spectra Averaged: 1 (USB2+H05261)
Boxcar Smoothing: 0 (USB2+H05261)
Correct for Electrical Dark: No (USB2+H05261)
Strobe/Lamp Enabled: No (USB2+H05261)
Correct for Detector Non-linearity: No (USB2+H05261)
Correct for Stray Light: No (USB2+H05261)
Number of Pixels in Processed Spectrum: 2048
>>>>>Begin Processed Spectral Data<<<<<
365.73	304.27
365.92	304.27
366.12	304.27
366.32	290.23
366.52	262.14
366.72	229.37
366.91	243.42
367.11	170.86
367.31	168.52
367.51	266.82
367.70	250.44
367.90	271.50
368.10	201.29
368.30	215.33
368.49	280.86
368.69	262.14
368.89	224.69
369.09	257.46
369.28	264.48
369.48	294.91
369.68	294.91
369.87	283.20
370.07	327.68
370.27	388.53
370.47	367.46
370.66	330.02
370.86	339.38
371.06	318.31
371.25	337.04
371.45	407.25
371.65	355.76
371.84	320.65
372.04	381.51
372.24	360.44
372.44	440.02
372.63	416.62
372.83	365.12
373.03	388.53
373.22	414.27
373.42	402.57
373.62	402.57
373.81	416.62
374.01	404.91
374.21	421.30
374.40	365.12
374.60	484.49
374.79	367.46
374.99	519.60
375.19	470.45
375.38	416.62
375.58	418.96
375.78	475.13
375.97	470.45
376.17	435.34
376.37	433.00
376.56	454.06
376.76	383.85
376.95	433.00
377.15	428.32
377.35	381.51
377.54	376.83
377.74	376.83
377.93	402.57
378.13	470.45
378.33	334.70
378.52	348.74
378.72	456.40
378.91	402.57
379.11	404.91
379.31	430.66
379.50	418.96
379.70	454.06
379.89	425.98
380.09	393.21
380.28	421.30
380.48	395.55
380.68	430.66
380.87	409.59
381.07	393.21
381.26	404.91
381.46	383.85
381.65	388.53
381.85	390.87
382.04	397.89
382.24	407.25
382.43	383.85
382.63	383.85
382.83	353.42
383.02	433.00
383.22	449.38
383.41	327.68
383.61	395.55
383.80	376.83
384.00	407.25
384.19	320.65
384.39	414.27
384.58	376.83
384.78	411.93
384.97	440.02
385.17	444.70
385.36	339.38
385.56	372.15
385.75	346.40
385.95	383.85
386.14	451.72
386.34	440.02
386.53	407.25
386.72	355.76
386.92	402.57
387.11	404.91
387.31	402.57
387.50	355.76
387.70	362.78
387.89	395.55
388.09	468.11
388.28	395.55
388.48	374.49
388.67	374.49
388.86	393.21
389.06	409.59
389.25	404.91
389.45	372.15
389.64	411.93
389.84	386.19
390.03	430.66
390.22	400.23
390.42	418.96
390.61	477.47
390.81	353.42
391.00	330.02
391.19	355.76
391.39	374.49
391.58	369.80
391.78	433.00
391.97	414.27
392.16	388.53
392.36	444.70
392.55	395.55
392.75	416.62
392.94	334.70
393.13	360.44
393.33	416.62
393.52	414.27
393.71	397.89
393.91	411.93
394.10	360.44
394.29	388.53
394.49	444.70
394.68	458.74
394.88	386.19
395.07	400.23
395.26	411.93
395.46	374.49
395.65	463.43
395.84	407.25
396.04	423.64
396.23	430.66
396.42	428.32
396.62	407.25
396.81	390.87
397.00	430.66
397.19	404.91
397.39	353.42
397.58	346.40
397.77	407.25
397.97	425.98
398.16	414.27
398.35	421.30
398.55	433.00
398.74	418.96
398.93	409.59
399.12	393.21
399.32	416.62
399.51	416.62
399.70	344.06
399.90	418.96
400.09	461.09
400.28	470.45
400.47	348.74
400.67	461.09
400.86	311.29
401.05	402.57
401.24	397.89
401.44	472.79
401.63	440.02
401.82	346.40
402.01	351.08
402.21	428.32
402.40	418.96
402.59	379.17
402.78	430.66
402.97	414.27
403.17	355.76
403.36	337.04
403.55	402.57
403.74	351.08
403.93	383.85
404.13	451.72
404.32	414.27
404.51	393.21
404.70	393.21
404.89	404.91
405.09	411.93
405.28	320.65
405.47	379.17
405.66	372.15
405.85	404.91
406.05	383.85
406.24	395.55
406.43	416.62
406.62	414.27
406.81	411.93
407.00	451.72
407.20	447.04
407.39	409.59
407.58	355.76
407.77	390.87
407.96	423.64
408.15	421.30
408.34	463.43
408.54	416.62
408.73	423.64
408.92	376.83
409.11	409.59
409.30	503.22
409.49	435.34
409.68	390.87
409.87	425.98
410.07	379.17
410.26	433.00
410.45	447.04
410.64	402.57
410.83	414.27
411.02	362.78
411.21	454.06
411.40	409.59
411.59	353.42
411.78	477.47
411.98	418.96
412.17	351.08
412.36	330.02
412.55	437.68
412.74	465.77
412.93	428.32
413.12	395.55
413.31	479.81
413.50	376.83
413.69	395.55
413.88	463.43
414.07	393.21
414.26	381.51
414.45	407.25
414.64	390.87
414.83	433.00
415.02	440.02
415.22	397.89
415.41	477.47
415.60	442.36
415.79	372.15
415.98	479.81
416.17	418.96
416.36	341.72
416.55	454.06
416.74	367.46
416.93	381.51
417.12	369.80
417.31	379.17
417.50	351.08
417.69	414.27
417.88	414.27
418.07	390.87
418.26	475.13
418.45	404.91
418.64	435.34
418.83	477.47
419.02	341.72
419.21	362.78
419.39	351.08
419.58	444.70
419.77	433.00
419.96	486.83
420.15	444.70
420.34	456.40
420.53	414.27
420.72	421.30
420.91	416.62
421.10	425.98
421.29	388.53
421.48	341.72
421.67	409.59
421.86	369.80
422.05	407.25
422.24	379.17
422.43	421.30
422.61	374.49
422.80	402.57
422.99	374.49
423.18	367.46
423.37	512.58
423.56	428.32
423.75	425.98
423.94	416.62
424.13	465.77
424.32	374.49
424.50	290.23
424.69	402.57
424.88	423.64
425.07	472.79
425.26	386.19
425.45	404.91
425.64	456.40
425.83	362.78
426.01	423.64
426.20	461.09
426.39	379.17
426.58	440.02
426.77	421.30
426.96	454.06
427.15	454.06
427.33	433.00
427.52	428.32
427.71	411.93
427.90	386.19
428.09	421.30
428.28	358.10
428.46	468.11
428.65	367.46
428.84	386.19
429.03	369.80
429.22	447.04
429.40	425.98
429.59	388.53
429.78	437.68
429.97	416.62
430.16	395.55
430.34	425.98
430.53	402.57
430.72	418.96
430.91	383.85
431.10	395.55
431.28	409.59
431.47	418.96
431.66	425.98
431.85	365.12
432.03	381.51
432.22	393.21
432.41	397.89
432.60	388.53
432.79	390.87
432.97	421.30
433.16	369.80
433.35	376.83
433.54	390.87
433.72	425.98
433.91	393.21
434.10	470.45
434.28	435.34
434.47	409.59
434.66	390.87
434.85	390.87
435.03	395.55
435.22	393.21
435.41	365.12
435.59	414.27
435.78	402.57
435.97	407.25
436.16	411.93
436.34	421.30
436.53	447.04
436.72	470.45
436.90	360.44
437.09	360.44
437.28	404.91
437.46	379.17
437.65	505.56
437.84	409.59
438.02	449.38
438.21	449.38
438.40	355.76
438.58	411.93
438.77	423.64
438.96	348.74
439.14	449.38
439.33	456.40
439.52	451.72
439.70	355.76
439.89	367.46
440.08	376.83
440.26	367.46
440.45	400.23
440.63	376.83
440.82	414.27
441.01	404.91
441.19	423.64
441.38	372.15
441.57	339.38
441.75	500.87
441.94	437.68
442.12	407.25
442.31	409.59
442.50	400.23
442.68	379.17
442.87	418.96
443.05	383.85
443.24	416.62
443.43	435.34
443.61	437.68
443.80	477.47
443.98	421.30
444.17	404.91
444.35	409.59
444.54	372.15
444.73	423.64
444.91	442.36
445.10	376.83
445.28	376.83
445.47	461.09
445.65	409.59
445.84	353.42
446.02	447.04
446.21	421.30
446.39	397.89
446.58	425.98
446.77	461.09
446.95	393.21
447.14	400.23
447.32	421.30
447.51	402.57
447.69	409.59
447.88	409.59
448.06	421.30
448.25	423.64
448.43	479.81
448.62	351.08
448.80	411.93
448.99	414.27
449.17	411.93
449.36	383.85
449.54	402.57
449.73	447.04
449.91	369.80
450.10	440.02
450.28	440.02
450.46	458.74
450.65	447.04
450.83	425.98
451.02	386.19
451.20	362.78
451.39	437.68
451.57	383.85
451.76	423.64
451.94	332.36
452.13	472.79
452.31	463.43
452.49	397.89
452.68	379.17
452.86	425.98
453.05	517.26
453.23	430.66
453.42	458.74
453.60	418.96
453.78	435.34
453.97	365.12
454.15	421.30
454.34	369.80
454.52	400.23
454.70	451.72
454.89	402.57
455.07	449.38
455.26	475.13
455.44	414.27
455.62	390.87
455.81	360.44
455.99	416.62
456.17	409.59
456.36	425.98
456.54	458.74
456.73	409.59
456.91	472.79
457.09	437.68
457.28	374.49
457.46	400.23
457.64	421.30
457.83	348.74
458.01	362.78
458.19	416.62
458.38	386.19
458.56	381.51
458.74	418.96
458.93	472.79
459.11	465.77
459.29	449.38
459.48	423.64
459.66	379.17
459.84	456.40
460.03	482.15
460.21	372.15
460.39	407.25
460.57	451.72
460.76	479.81
460.94	393.21
461.12	430.66
461.31	444.70
461.49	428.32
461.67	369.80
461.85	376.83
462.04	454.06
462.22	830.89
462.40	386.19
462.59	442.36
462.77	367.46
462.95	421.30
463.13	402.57
463.32	430.66
463.50	397.89
463.68	423.64
463.86	416.62
464.05	433.00
464.23	425.98
464.41	430.66
464.59	379.17
464.78	383.85
464.96	447.04
465.14	418.96
465.32	449.38
465.50	388.53
465.69	414.27
465.87	369.80
466.05	362.78
466.23	421.30
466.41	421.30
466.60	430.66
466.78	351.08
466.96	447.04
467.14	437.68
467.32	423.64
467.51	402.57
467.69	416.62
467.87	341.72
468.05	360.44
468.23	498.53
468.41	379.17
468.60	421.30
468.78	449.38
468.96	425.98
469.14	433.00
469.32	404.91
469.50	374.49
469.69	386.19
469.87	428.32
470.05	409.59
470.23	423.64
470.41	395.55
470.59	433.00
470.77	435.34
470.95	423.64
471.14	393.21
471.32	435.34
471.50	447.04
471.68	440.02
471.86	418.96
472.04	418.96
472.22	451.72
472.40	397.89
472.58	463.43
472.77	411.93
472.95	367.46
473.13	433.00
473.31	428.32
473.49	299.59
473.67	416.62
473.85	395.55
474.03	557.05
474.21	437.68
474.39	418.96
474.57	472.79
474.75	348.74
474.93	341.72
475.12	362.78
475.30	390.87
475.48	425.98
475.66	395.55
475.84	451.72
476.02	468.11
476.20	423.64
476.38	444.70
476.56	447.04
476.74	475.13
476.92	428.32
477.10	322.99
477.28	374.49
477.46	395.55
477.64	430.66
477.82	442.36
478.00	428.32
478.18	411.93
478.36	423.64
478.54	400.23
478.72	442.36
478.90	428.32
479.08	430.66
479.26	400.23
479.44	346.40
479.62	409.59
479.80	416.62
479.98	362.78
480.16	416.62
480.34	393.21
480.52	393.21
480.70	341.72
480.88	465.77
481.06	390.87
481.24	465.77
481.41	461.09
481.59	416.62
481.77	433.00
481.95	407.25
482.13	414.27
482.31	423.64
482.49	376.83
482.67	332.36
482.85	365.12
483.03	458.74
483.21	369.80
483.39	358.10
483.57	402.57
483.74	397.89
483.92	383.85
484.10	372.15
484.28	433.00
484.46	456.40
484.64	407.25
484.82	383.85
485.00	360.44
485.18	428.32
485.35	465.77
485.53	397.89
485.71	489.17
485.89	475.13
486.07	470.45
486.25	447.04
486.43	376.83
486.61	402.57
486.78	444.70
486.96	411.93
487.14	395.55
487.32	418.96
487.50	402.57
487.68	418.96
487.85	475.13
488.03	416.62
488.21	465.77
488.39	360.44
488.57	428.32
488.75	444.70
488.92	440.02
489.10	355.76
489.28	372.15
489.46	367.46
489.64	386.19
489.81	397.89
489.99	390.87
490.17	348.74
490.35	416.62
490.53	409.59
490.70	407.25
490.88	407.25
491.06	346.40
491.24	437.68
491.41	472.79
491.59	332.36
491.77	400.23
491.95	376.83
492.13	362.78
492.30	379.17
492.48	365.12
492.66	402.57
492.84	397.89
493.01	416.62
493.19	400.23
493.37	360.44
493.54	376.83
493.72	407.25
493.90	351.08
494.08	390.87
494.25	404.91
494.43	386.19
494.61	472.79
494.79	463.43
494.96	400.23
495.14	383.85
495.32	416.62
495.49	397.89
495.67	360.44
495.85	414.27
496.02	458.74
496.20	397.89
496.38	465.77
496.55	393.21
496.73	486.83
496.91	421.30
497.09	442.36
497.26	400.23
497.44	379.17
497.62	386.19
497.79	456.40
497.97	418.96
498.14	454.06
498.32	433.00
498.50	402.57
498.67	381.51
498.85	390.87
499.03	381.51
499.20	395.55
499.38	404.91
499.56	395.55
499.73	444.70
499.91	461.09
500.08	411.93
500.26	372.15
500.44	383.85
500.61	430.66
500.79	437.68
500.97	468.11
501.14	456.40
501.32	381.51
501.49	379.17
501.67	388.53
501.84	414.27
502.02	393.21
502.20	423.64
502.37	491.51
502.55	451.72
502.72	390.87
502.90	437.68
503.07	421.30
503.25	447.04
503.43	383.85
503.60	407.25
503.78	421.30
503.95	360.44
504.13	430.66
504.30	397.89
504.48	491.51
504.65	458.74
504.83	435.34
505.01	365.12
505.18	416.62
505.36	400.23
505.53	486.83
505.71	493.85
505.88	461.09
506.06	386.19
506.23	440.02
506.41	421.30
506.58	414.27
506.76	402.57
506.93	414.27
507.11	409.59
507.28	402.57
507.46	414.27
507.63	454.06
507.81	442.36
507.98	421.30
508.16	442.36
508.33	416.62
508.50	418.96
508.68	423.64
508.85	491.51
509.03	425.98
509.20	421.30
509.38	444.70
509.55	393.21
509.73	482.15
509.90	472.79
510.08	322.99
510.25	386.19
510.42	372.15
510.60	386.19
510.77	416.62
510.95	418.96
511.12	383.85
511.30	433.00
511.47	388.53
511.64	437.68
511.82	390.87
511.99	491.51
512.17	418.96
512.34	465.77
512.51	360.44
512.69	416.62
512.86	444.70
513.04	414.27
513.21	428.32
513.38	433.00
513.56	376.83
513.73	362.78
513.90	395.55
514.08	278.52
514.25	414.27
514.43	444.70
514.60	470.45
514.77	369.80
514.95	351.08
515.12	437.68
515.29	360.44
515.47	369.80
515.64	388.53
515.81	369.80
515.99	491.51
516.16	451.72
516.33	447.04
516.51	355.76
516.68	404.91
516.85	386.19
517.03	402.57
517.20	425.98
517.37	498.53
517.54	407.25
517.72	444.70
517.89	365.12
518.06	430.66
518.24	428.32
518.41	461.09
518.58	418.96
518.75	365.12
518.93	414.27
519.10	397.89
519.27	395.55
519.45	348.74
519.62	465.77
519.79	470.45
519.96	404.91
520.14	390.87
520.31	435.34
520.48	386.19
520.65	379.17
520.83	440.02
521.00	484.49
521.17	435.34
521.34	407.25
521.52	358.10
521.69	381.51
521.86	397.89
522.03	425.98
522.20	409.59
522.38	351.08
522.55	425.98
522.72	386.19
522.89	423.64
523.07	510.24
523.24	451.72
523.41	339.38
523.58	339.38
523.75	440.02
523.92	454.06
524.10	353.42
524.27	409.59
524.44	430.66
524.61	505.56
524.78	465.77
524.96	430.66
525.13	430.66
525.30	381.51
525.47	409.59
525.64	379.17
525.81	355.76
525.98	409.59
526.16	440.02
526.33	423.64
526.50	477.47
526.67	381.51
526.84	411.93
527.01	444.70
527.18	444.70
527.36	423.64
527.53	418.96
527.70	444.70
527.87	479.81
528.04	447.04
528.21	341.72
528.38	447.04
528.55	414.27
528.72	435.34
528.89	393.21
529.07	442.36
529.24	428.32
529.41	458.74
529.58	435.34
529.75	383.85
529.92	409.59
530.09	475.13
530.26	440.02
530.43	381.51
530.60	365.12
530.77	407.25
530.94	498.53
531.11	383.85
531.28	388.53
531.46	334.70
531.63	454.06
531.80	414.27
531.97	493.85
532.14	433.00
532.31	484.49
532.48	372.15
532.65	379.17
532.82	362.78
532.99	346.40
533.16	383.85
533.33	454.06
533.50	470.45
533.67	388.53
533.84	409.59
534.01	372.15
534.18	409.59
534.35	411.93
534.52	411.93
534.69	386.19
534.86	400.23
535.03	430.66
535.20	388.53
535.37	421.30
535.54	414.27
535.71	395.55
535.88	421.30
536.05	381.51
536.22	451.72
536.38	482.15
536.55	484.49
536.72	430.66
536.89	390.87
537.06	318.31
537.23	411.93
537.40	397.89
537.57	477.47
537.74	472.79
537.91	327.68
538.08	400.23
538.25	402.57
538.42	299.59
538.59	435.34
538.75	449.38
538.92	339.38
539.09	442.36
539.26	510.24
539.43	447.04
539.60	390.87
539.77	351.08
539.94	416.62
540.11	531.30
540.28	421.30
540.44	440.02
540.61	470.45
540.78	421.30
540.95	397.89
541.12	449.38
541.29	332.36
541.46	435.34
541.62	414.27
541.79	395.55
541.96	332.36
542.13	402.57
542.30	454.06
542.47	421.30
542.63	402.57
542.80	407.25
542.97	418.96
543.14	454.06
543.31	400.23
543.48	407.25
543.64	444.70
543.81	433.00
543.98	369.80
544.15	400.23
544.32	393.21
544.48	390.87
544.65	449.38
544.82	430.66
544.99	435.34
545.16	486.83
545.32	458.74
545.49	428.32
545.66	393.21
545.83	409.59
546.00	355.76
546.16	337.04
546.33	402.57
546.50	367.46
546.67	425.98
546.83	416.62
547.00	440.02
547.17	411.93
547.34	418.96
547.50	409.59
547.67	435.34
547.84	449.38
548.00	456.40
548.17	435.34
548.34	383.85
548.51	458.74
548.67	458.74
548.84	395.55
549.01	428.32
549.18	433.00
549.34	442.36
549.51	381.51
549.68	456.40
549.84	447.04
550.01	428.32
550.18	503.22
550.34	440.02
550.51	339.38
550.68	425.98
550.84	395.55
551.01	437.68
551.18	461.09
551.34	444.70
551.51	402.57
551.68	369.80
551.84	514.92
552.01	397.89
552.18	383.85
552.34	437.68
552.51	428.32
552.68	456.40
552.84	334.70
553.01	414.27
553.18	423.64
553.34	454.06
553.51	369.80
553.67	454.06
553.84	374.49
554.01	402.57
554.17	442.36
554.34	395.55
554.51	381.51
554.67	404.91
554.84	374.49
555.00	395.55
555.17	437.68
555.33	491.51
555.50	468.11
555.67	400.23
555.83	423.64
556.00	351.08
556.16	573.43
556.33	451.72
556.50	395.55
556.66	400.23
556.83	367.46
556.99	433.00
557.16	498.53
557.32	407.25
557.49	407.25
557.65	416.62
557.82	442.36
557.98	409.59
558.15	402.57
558.32	477.47
558.48	458.74
558.65	407.25
558.81	397.89
558.98	362.78
559.14	470.45
559.31	430.66
559.47	456.40
559.64	500.87
559.80	456.40
559.97	376.83
560.13	505.56
560.30	386.19
560.46	397.89
560.63	374.49
560.79	440.02
560.96	461.09
561.12	381.51
561.29	409.59
561.45	435.34
561.61	376.83
561.78	449.38
561.94	472.79
562.11	407.25
562.27	444.70
562.44	390.87
562.60	470.45
562.77	360.44
562.93	451.72
563.10	400.23
563.26	381.51
563.42	428.32
563.59	388.53
563.75	344.06
563.92	463.43
564.08	376.83
564.24	444.70
564.41	454.06
564.57	397.89
564.74	395.55
564.90	428.32
565.07	428.32
565.23	404.91
565.39	411.93
565.56	500.87
565.72	430.66
565.88	390.87
566.05	397.89
566.21	400.23
566.38	430.66
566.54	465.77
566.70	409.59
566.87	386.19
567.03	393.21
567.19	454.06
567.36	423.64
567.52	425.98
567.68	428.32
567.85	330.02
568.01	463.43
568.17	344.06
568.34	341.72
568.50	449.38
568.66	341.72
568.83	451.72
568.99	423.64
569.15	428.32
569.32	454.06
569.48	376.83
569.64	386.19
569.81	351.08
569.97	449.38
570.13	454.06
570.30	433.00
570.46	472.79
570.62	423.64
570.78	381.51
570.95	390.87
571.11	454.06
571.27	447.04
571.43	402.57
571.60	386.19
571.76	423.64
571.92	416.62
572.09	402.57
572.25	440.02
572.41	423.64
572.57	386.19
572.74	442.36
572.90	425.98
573.06	414.27
573.22	414.27
573.38	386.19
573.55	456.40
573.71	526.62
573.87	463.43
574.03	430.66
574.20	353.42
574.36	414.27
574.52	437.68
574.68	397.89
574.84	388.53
575.01	433.00
575.17	458.74
575.33	433.00
575.49	423.64
575.65	449.38
575.82	454.06
575.98	376.83
576.14	440.02
576.30	442.36
576.46	444.70
576.62	409.59
576.79	402.57
576.95	440.02
577.11	414.27
577.27	379.17
577.43	444.70
577.59	407.25
577.75	444.70
577.92	519.60
578.08	372.15
578.24	409.59
578.40	418.96
578.56	454.06
578.72	430.66
578.88	468.11
579.04	379.17
579.21	374.49
579.37	374.49
579.53	365.12
579.69	409.59
579.85	379.17
580.01	461.09
580.17	430.66
580.33	402.57
580.49	414.27
580.65	400.23
580.82	461.09
580.98	397.89
581.14	400.23
581.30	416.62
581.46	444.70
581.62	468.11
581.78	407.25
581.94	369.80
582.10	383.85
582.26	437.68
582.42	376.83
582.58	447.04
582.74	308.95
582.90	409.59
583.06	383.85
583.22	449.38
583.38	388.53
583.54	418.96
583.70	421.30
583.86	461.09
584.02	395.55
584.18	383.85
584.34	383.85
584.50	416.62
584.66	421.30
584.82	365.12
584.98	367.46
585.14	425.98
585.30	393.21
585.46	409.59
585.62	402.57
585.78	327.68
585.94	393.21
586.10	416.62
586.26	416.62
586.42	425.98
586.58	428.32
586.74	379.17
586.90	423.64
587.06	451.72
587.22	411.93
587.38	444.70
587.54	379.17
587.70	414.27
587.86	463.43
588.02	477.47
588.18	407.25
588.34	393.21
588.49	404.91
588.65	411.93
588.81	390.87
588.97	341.72
589.13	395.55
589.29	465.77
589.45	465.77
589.61	397.89
589.77	477.47
589.93	440.02
590.08	414.27
590.24	437.68
590.40	440.02
590.56	461.09
590.72	440.02
590.88	423.64
591.04	430.66
591.20	468.11
591.35	479.81
591.51	430.66
591.67	463.43
591.83	444.70
591.99	416.62
592.15	421.30
592.31	428.32
592.46	421.30
592.62	463.43
592.78	414.27
592.94	390.87
593.10	386.19
593.26	425.98
593.41	470.45
593.57	423.64
593.73	367.46
593.89	428.32
594.05	367.46
594.20	381.51
594.36	451.72
594.52	404.91
594.68	287.89
594.84	435.34
594.99	489.17
595.15	440.02
595.31	383.85
595.47	407.25
595.62	423.64
595.78	327.68
595.94	475.13
596.10	430.66
596.25	442.36
596.41	477.47
596.57	395.55
596.73	344.06
596.88	430.66
597.04	454.06
597.20	395.55
597.36	477.47
597.51	376.83
597.67	421.30
597.83	397.89
597.99	461.09
598.14	540.66
598.30	461.09
598.46	440.02
598.61	423.64
598.77	507.90
598.93	383.85
599.09	393.21
599.24	402.57
599.40	454.06
599.56	407.25
599.71	442.36
599.87	402.57
600.03	451.72
600.18	470.45
600.34	510.24
600.50	355.76
600.65	489.17
600.81	437.68
600.97	425.98
601.12	346.40
601.28	458.74
601.44	500.87
601.59	433.00
601.75	381.51
601.91	414.27
602.06	456.40
602.22	472.79
602.37	400.23
602.53	381.51
602.69	433.00
602.84	472.79
603.00	435.34
603.16	451.72
603.31	414.27
603.47	404.91
603.62	390.87
603.78	304.27
603.94	388.53
604.09	447.04
604.25	461.09
604.40	400.23
604.56	369.80
604.71	397.89
604.87	360.44
605.03	482.15
605.18	440.02
605.34	444.70
605.49	414.27
605.65	437.68
605.80	376.83
605.96	381.51
606.12	428.32
606.27	360.44
606.43	407.25
606.58	461.09
606.74	397.89
606.89	444.70
607.05	498.53
607.20	402.57
607.36	423.64
607.51	388.53
607.67	428.32
607.82	449.38
607.98	440.02
608.13	423.64
608.29	407.25
608.44	454.06
608.60	360.44
608.75	451.72
608.91	383.85
609.06	430.66
609.22	400.23
609.37	388.53
609.53	365.12
609.68	353.42
609.84	437.68
609.99	360.44
610.15	416.62
