SpectraSuite Data File
++++++++++++++++++++++++++++++++++++
Date: Fri Oct 25 12:10:23 EDT 2013
User: price-jones
Dark Spectrum Present: No
Reference Spectrum Present: No
Number of Sampled Component Spectra: 1
Spectrometers: USB2+H05261
Integration Time (usec): 100000 (USB2+H05261)
Spectra Averaged: 1 (USB2+H05261)
Boxcar Smoothing: 0 (USB2+H05261)
Correct for Electrical Dark: No (USB2+H05261)
Strobe/Lamp Enabled: No (USB2+H05261)
Correct for Detector Non-linearity: No (USB2+H05261)
Correct for Stray Light: No (USB2+H05261)
Number of Pixels in Processed Spectrum: 2048
>>>>>Begin Processed Spectral Data<<<<<
365.73	376.83
365.92	376.83
366.12	376.83
366.32	283.20
366.52	250.44
366.72	273.84
366.91	255.12
367.11	264.48
367.31	234.05
367.51	182.56
367.70	180.22
367.90	205.97
368.10	191.92
368.30	266.82
368.49	205.97
368.69	215.33
368.89	241.08
369.09	222.35
369.28	283.20
369.48	311.29
369.68	259.80
369.87	311.29
370.07	250.44
370.27	315.97
370.47	266.82
370.66	404.91
370.86	402.57
371.06	315.97
371.25	395.55
371.45	428.32
371.65	341.72
371.84	362.78
372.04	383.85
372.24	386.19
372.44	360.44
372.63	423.64
372.83	409.59
373.03	404.91
373.22	435.34
373.42	395.55
373.62	447.04
373.81	421.30
374.01	397.89
374.21	369.80
374.40	468.11
374.60	461.09
374.79	433.00
374.99	414.27
375.19	341.72
375.38	451.72
375.58	379.17
375.78	416.62
375.97	430.66
376.17	442.36
376.37	397.89
376.56	409.59
376.76	433.00
376.95	320.65
377.15	402.57
377.35	440.02
377.54	418.96
377.74	383.85
377.93	456.40
378.13	479.81
378.33	376.83
378.52	395.55
378.72	416.62
378.91	521.94
379.11	367.46
379.31	402.57
379.50	362.78
379.70	386.19
379.89	362.78
380.09	414.27
380.28	393.21
380.48	447.04
380.68	393.21
380.87	400.23
381.07	367.46
381.26	381.51
381.46	376.83
381.65	468.11
381.85	395.55
382.04	442.36
382.24	402.57
382.43	423.64
382.63	421.30
382.83	425.98
383.02	390.87
383.22	472.79
383.41	442.36
383.61	402.57
383.80	468.11
384.00	355.76
384.19	353.42
384.39	390.87
384.58	404.91
384.78	393.21
384.97	411.93
385.17	409.59
385.36	449.38
385.56	397.89
385.75	332.36
385.95	421.30
386.14	416.62
386.34	435.34
386.53	463.43
386.72	355.76
386.92	381.51
387.11	388.53
387.31	362.78
387.50	418.96
387.70	390.87
387.89	355.76
388.09	418.96
388.28	376.83
388.48	456.40
388.67	407.25
388.86	430.66
389.06	397.89
389.25	423.64
389.45	386.19
389.64	395.55
389.84	423.64
390.03	493.85
390.22	430.66
390.42	409.59
390.61	374.49
390.81	379.17
391.00	369.80
391.19	454.06
391.39	397.89
391.58	421.30
391.78	358.10
391.97	440.02
392.16	407.25
392.36	458.74
392.55	449.38
392.75	477.47
392.94	407.25
393.13	414.27
393.33	388.53
393.52	463.43
393.71	440.02
393.91	376.83
394.10	386.19
394.29	339.38
394.49	461.09
394.68	400.23
394.88	447.04
395.07	421.30
395.26	447.04
395.46	355.76
395.65	463.43
395.84	393.21
396.04	444.70
396.23	365.12
396.42	447.04
396.62	411.93
396.81	428.32
397.00	423.64
397.19	402.57
397.39	397.89
397.58	372.15
397.77	315.97
397.97	376.83
398.16	407.25
398.35	421.30
398.55	404.91
398.74	362.78
398.93	386.19
399.12	437.68
399.32	451.72
399.51	369.80
399.70	402.57
399.90	402.57
400.09	468.11
400.28	444.70
400.47	449.38
400.67	395.55
400.86	348.74
401.05	374.49
401.24	367.46
401.44	355.76
401.63	477.47
401.82	409.59
402.01	388.53
402.21	437.68
402.40	421.30
402.59	360.44
402.78	393.21
402.97	395.55
403.17	355.76
403.36	325.33
403.55	379.17
403.74	423.64
403.93	393.21
404.13	428.32
404.32	454.06
404.51	430.66
404.70	486.83
404.89	463.43
405.09	372.15
405.28	397.89
405.47	433.00
405.66	465.77
405.85	341.72
406.05	383.85
406.24	381.51
406.43	344.06
406.62	393.21
406.81	339.38
407.00	376.83
407.20	393.21
407.39	383.85
407.58	447.04
407.77	475.13
407.96	402.57
408.15	376.83
408.34	390.87
408.54	489.17
408.73	416.62
408.92	395.55
409.11	437.68
409.30	449.38
409.49	402.57
409.68	334.70
409.87	358.10
410.07	374.49
410.26	379.17
410.45	367.46
410.64	411.93
410.83	395.55
411.02	416.62
411.21	393.21
411.40	505.56
411.59	404.91
411.78	449.38
411.98	381.51
412.17	421.30
412.36	388.53
412.55	433.00
412.74	477.47
412.93	531.30
413.12	435.34
413.31	433.00
413.50	411.93
413.69	407.25
413.88	418.96
414.07	416.62
414.26	360.44
414.45	379.17
414.64	433.00
414.83	390.87
415.02	449.38
415.22	456.40
415.41	351.08
415.60	435.34
415.79	423.64
415.98	447.04
416.17	383.85
416.36	397.89
416.55	397.89
416.74	379.17
416.93	463.43
417.12	435.34
417.31	451.72
417.50	407.25
417.69	407.25
417.88	430.66
418.07	362.78
418.26	388.53
418.45	339.38
418.64	425.98
418.83	433.00
419.02	444.70
419.21	365.12
419.39	381.51
419.58	397.89
419.77	416.62
419.96	409.59
420.15	390.87
420.34	402.57
420.53	400.23
420.72	493.85
420.91	388.53
421.10	430.66
421.29	428.32
421.48	489.17
421.67	458.74
421.86	358.10
422.05	433.00
422.24	351.08
422.43	421.30
422.61	407.25
422.80	395.55
422.99	428.32
423.18	379.17
423.37	461.09
423.56	472.79
423.75	510.24
423.94	475.13
424.13	428.32
424.32	322.99
424.50	402.57
424.69	365.12
424.88	440.02
425.07	383.85
425.26	404.91
425.45	433.00
425.64	418.96
425.83	484.49
426.01	447.04
426.20	411.93
426.39	369.80
426.58	407.25
426.77	425.98
426.96	430.66
427.15	442.36
427.33	388.53
427.52	397.89
427.71	421.30
427.90	332.36
428.09	416.62
428.28	409.59
428.46	489.17
428.65	414.27
428.84	470.45
429.03	425.98
429.22	447.04
429.40	390.87
429.59	379.17
429.78	451.72
429.97	447.04
430.16	358.10
430.34	435.34
430.53	433.00
430.72	442.36
430.91	454.06
431.10	433.00
431.28	395.55
431.47	423.64
431.66	379.17
431.85	362.78
432.03	372.15
432.22	421.30
432.41	402.57
432.60	456.40
432.79	407.25
432.97	463.43
433.16	346.40
433.35	430.66
433.54	390.87
433.72	381.51
433.91	421.30
434.10	416.62
434.28	379.17
434.47	337.04
434.66	465.77
434.85	407.25
435.03	409.59
435.22	458.74
435.41	486.83
435.59	372.15
435.78	360.44
435.97	355.76
436.16	416.62
436.34	390.87
436.53	346.40
436.72	388.53
436.90	395.55
437.09	409.59
437.28	367.46
437.46	367.46
437.65	451.72
437.84	428.32
438.02	409.59
438.21	400.23
438.40	395.55
438.58	416.62
438.77	468.11
438.96	430.66
439.14	374.49
439.33	444.70
439.52	365.12
439.70	353.42
439.89	437.68
440.08	458.74
440.26	390.87
440.45	362.78
440.63	409.59
440.82	456.40
441.01	479.81
441.19	379.17
441.38	397.89
441.57	418.96
441.75	353.42
441.94	486.83
442.12	425.98
442.31	367.46
442.50	397.89
442.68	447.04
442.87	376.83
443.05	376.83
443.24	444.70
443.43	470.45
443.61	390.87
443.80	376.83
443.98	402.57
444.17	454.06
444.35	437.68
444.54	440.02
444.73	444.70
444.91	437.68
445.10	390.87
445.28	447.04
445.47	444.70
445.65	458.74
445.84	421.30
446.02	325.33
446.21	402.57
446.39	386.19
446.58	449.38
446.77	442.36
446.95	447.04
447.14	428.32
447.32	365.12
447.51	383.85
447.69	381.51
447.88	440.02
448.06	437.68
448.25	444.70
448.43	491.51
448.62	451.72
448.80	447.04
448.99	428.32
449.17	421.30
449.36	477.47
449.54	393.21
449.73	383.85
449.91	423.64
450.10	416.62
450.28	414.27
450.46	503.22
450.65	409.59
450.83	425.98
451.02	416.62
451.20	397.89
451.39	383.85
451.57	390.87
451.76	461.09
451.94	360.44
452.13	367.46
452.31	454.06
452.49	334.70
452.68	451.72
452.86	397.89
453.05	416.62
453.23	442.36
453.42	358.10
453.60	365.12
453.78	390.87
453.97	400.23
454.15	404.91
454.34	379.17
454.52	447.04
454.70	449.38
454.89	449.38
455.07	461.09
455.26	456.40
455.44	430.66
455.62	386.19
455.81	433.00
455.99	374.49
456.17	423.64
456.36	430.66
456.54	425.98
456.73	381.51
456.91	411.93
457.09	461.09
457.28	411.93
457.46	379.17
457.64	425.98
457.83	372.15
458.01	447.04
458.19	372.15
458.38	386.19
458.56	444.70
458.74	440.02
458.93	442.36
459.11	360.44
459.29	447.04
459.48	423.64
459.66	428.32
459.84	449.38
460.03	461.09
460.21	456.40
460.39	404.91
460.57	418.96
460.76	437.68
460.94	404.91
461.12	454.06
461.31	430.66
461.49	404.91
461.67	362.78
461.85	407.25
462.04	409.59
462.22	823.87
462.40	456.40
462.59	456.40
462.77	334.70
462.95	461.09
463.13	416.62
463.32	355.76
463.50	393.21
463.68	414.27
463.86	376.83
464.05	468.11
464.23	456.40
464.41	418.96
464.59	458.74
464.78	449.38
464.96	346.40
465.14	472.79
465.32	444.70
465.50	421.30
465.69	491.51
465.87	433.00
466.05	442.36
466.23	388.53
466.41	372.15
466.60	463.43
466.78	416.62
466.96	517.26
467.14	435.34
467.32	395.55
467.51	402.57
467.69	498.53
467.87	430.66
468.05	346.40
468.23	428.32
468.41	461.09
468.60	355.76
468.78	421.30
468.96	393.21
469.14	458.74
469.32	428.32
469.50	376.83
469.69	430.66
469.87	390.87
470.05	491.51
470.23	435.34
470.41	468.11
470.59	409.59
470.77	512.58
470.95	437.68
471.14	442.36
471.32	402.57
471.50	458.74
471.68	418.96
471.86	353.42
472.04	397.89
472.22	397.89
472.40	348.74
472.58	435.34
472.77	374.49
472.95	416.62
473.13	416.62
473.31	493.85
473.49	390.87
473.67	416.62
473.85	397.89
474.03	393.21
474.21	484.49
474.39	498.53
474.57	514.92
474.75	449.38
474.93	407.25
475.12	418.96
475.30	390.87
475.48	437.68
475.66	404.91
475.84	383.85
476.02	496.19
476.20	358.10
476.38	421.30
476.56	517.26
476.74	388.53
476.92	388.53
477.10	433.00
477.28	454.06
477.46	395.55
477.64	374.49
477.82	416.62
478.00	418.96
478.18	395.55
478.36	451.72
478.54	393.21
478.72	416.62
478.90	390.87
479.08	465.77
479.26	397.89
479.44	355.76
479.62	444.70
479.80	348.74
479.98	374.49
480.16	451.72
480.34	407.25
480.52	416.62
480.70	442.36
480.88	451.72
481.06	423.64
481.24	435.34
481.41	465.77
481.59	414.27
481.77	330.02
481.95	411.93
482.13	505.56
482.31	367.46
482.49	437.68
482.67	393.21
482.85	409.59
483.03	442.36
483.21	451.72
483.39	477.47
483.57	353.42
483.74	367.46
483.92	414.27
484.10	393.21
484.28	433.00
484.46	437.68
484.64	465.77
484.82	407.25
485.00	369.80
485.18	402.57
485.35	404.91
485.53	437.68
485.71	493.85
485.89	393.21
486.07	416.62
486.25	418.96
486.43	414.27
486.61	383.85
486.78	416.62
486.96	433.00
487.14	390.87
487.32	383.85
487.50	393.21
487.68	423.64
487.85	440.02
488.03	390.87
488.21	421.30
488.39	313.63
488.57	416.62
488.75	376.83
488.92	465.77
489.10	470.45
489.28	482.15
489.46	423.64
489.64	414.27
489.81	383.85
489.99	339.38
490.17	458.74
490.35	489.17
490.53	430.66
490.70	421.30
490.88	397.89
491.06	463.43
491.24	409.59
491.41	414.27
491.59	435.34
491.77	437.68
491.95	353.42
492.13	341.72
492.30	421.30
492.48	437.68
492.66	404.91
492.84	435.34
493.01	409.59
493.19	362.78
493.37	388.53
493.54	402.57
493.72	421.30
493.90	374.49
494.08	404.91
494.25	418.96
494.43	449.38
494.61	411.93
494.79	393.21
494.96	388.53
495.14	425.98
495.32	409.59
495.49	458.74
495.67	409.59
495.85	484.49
496.02	386.19
496.20	421.30
496.38	486.83
496.55	388.53
496.73	447.04
496.91	461.09
497.09	409.59
497.26	456.40
497.44	414.27
497.62	442.36
497.79	360.44
497.97	404.91
498.14	435.34
498.32	383.85
498.50	463.43
498.67	414.27
498.85	358.10
499.03	376.83
499.20	365.12
499.38	472.79
499.56	376.83
499.73	444.70
499.91	386.19
500.08	407.25
500.26	442.36
500.44	390.87
500.61	463.43
500.79	372.15
500.97	477.47
501.14	496.19
501.32	414.27
501.49	386.19
501.67	376.83
501.84	348.74
502.02	435.34
502.20	475.13
502.37	433.00
502.55	395.55
502.72	442.36
502.90	416.62
503.07	442.36
503.25	454.06
503.43	468.11
503.60	365.12
503.78	503.22
503.95	454.06
504.13	430.66
504.30	421.30
504.48	386.19
504.65	470.45
504.83	454.06
505.01	390.87
505.18	430.66
505.36	423.64
505.53	421.30
505.71	442.36
505.88	435.34
506.06	322.99
506.23	383.85
506.41	423.64
506.58	444.70
506.76	444.70
506.93	388.53
507.11	425.98
507.28	440.02
507.46	397.89
507.63	400.23
507.81	383.85
507.98	369.80
508.16	372.15
508.33	395.55
508.50	421.30
508.68	407.25
508.85	404.91
509.03	400.23
509.20	465.77
509.38	435.34
509.55	465.77
509.73	381.51
509.90	395.55
510.08	414.27
510.25	388.53
510.42	465.77
510.60	414.27
510.77	395.55
510.95	470.45
511.12	346.40
511.30	425.98
511.47	416.62
511.64	461.09
511.82	388.53
511.99	395.55
512.17	421.30
512.34	517.26
512.51	454.06
512.69	503.22
512.86	475.13
513.04	393.21
513.21	423.64
513.38	318.31
513.56	451.72
513.73	498.53
513.90	376.83
514.08	360.44
514.25	430.66
514.43	428.32
514.60	358.10
514.77	437.68
514.95	341.72
515.12	367.46
515.29	341.72
515.47	444.70
515.64	479.81
515.81	332.36
515.99	440.02
516.16	484.49
516.33	388.53
516.51	409.59
516.68	423.64
516.85	418.96
517.03	353.42
517.20	362.78
517.37	393.21
517.54	433.00
517.72	407.25
517.89	458.74
518.06	447.04
518.24	437.68
518.41	482.15
518.58	442.36
518.75	414.27
518.93	395.55
519.10	402.57
519.27	351.08
519.45	407.25
519.62	444.70
519.79	409.59
519.96	484.49
520.14	440.02
520.31	489.17
520.48	379.17
520.65	393.21
520.83	442.36
521.00	447.04
521.17	477.47
521.34	451.72
521.52	454.06
521.69	395.55
521.86	437.68
522.03	397.89
522.20	397.89
522.38	477.47
522.55	470.45
522.72	449.38
522.89	393.21
523.07	454.06
523.24	440.02
523.41	456.40
523.58	425.98
523.75	444.70
523.92	379.17
524.10	332.36
524.27	442.36
524.44	374.49
524.61	372.15
524.78	400.23
524.96	489.17
525.13	461.09
525.30	400.23
525.47	414.27
525.64	449.38
525.81	376.83
525.98	433.00
526.16	374.49
526.33	383.85
526.50	409.59
526.67	360.44
526.84	423.64
527.01	409.59
527.18	414.27
527.36	440.02
527.53	435.34
527.70	430.66
527.87	367.46
528.04	416.62
528.21	435.34
528.38	437.68
528.55	475.13
528.72	479.81
528.89	430.66
529.07	416.62
529.24	430.66
529.41	461.09
529.58	344.06
529.75	433.00
529.92	440.02
530.09	341.72
530.26	393.21
530.43	381.51
530.60	425.98
530.77	433.00
530.94	369.80
531.11	379.17
531.28	365.12
531.46	440.02
531.63	463.43
531.80	454.06
531.97	423.64
532.14	372.15
532.31	505.56
532.48	407.25
532.65	470.45
532.82	514.92
532.99	411.93
533.16	374.49
533.33	416.62
533.50	390.87
533.67	451.72
533.84	374.49
534.01	444.70
534.18	454.06
534.35	400.23
534.52	407.25
534.69	404.91
534.86	337.04
535.03	416.62
535.20	451.72
535.37	456.40
535.54	411.93
535.71	400.23
535.88	400.23
536.05	346.40
536.22	407.25
536.38	400.23
536.55	386.19
536.72	402.57
536.89	376.83
537.06	383.85
537.23	425.98
537.40	390.87
537.57	346.40
537.74	528.96
537.91	428.32
538.08	444.70
538.25	411.93
538.42	395.55
538.59	475.13
538.75	421.30
538.92	416.62
539.09	430.66
539.26	421.30
539.43	425.98
539.60	425.98
539.77	376.83
539.94	369.80
540.11	463.43
540.28	456.40
540.44	433.00
540.61	454.06
540.78	393.21
540.95	367.46
541.12	416.62
541.29	407.25
541.46	407.25
541.62	421.30
541.79	372.15
541.96	388.53
542.13	447.04
542.30	367.46
542.47	421.30
542.63	411.93
542.80	367.46
542.97	428.32
543.14	440.02
543.31	465.77
543.48	430.66
543.64	491.51
543.81	454.06
543.98	404.91
544.15	404.91
544.32	374.49
544.48	411.93
544.65	414.27
544.82	416.62
544.99	374.49
545.16	451.72
545.32	425.98
545.49	418.96
545.66	428.32
545.83	346.40
546.00	393.21
546.16	383.85
546.33	313.63
546.50	428.32
546.67	435.34
546.83	442.36
547.00	404.91
547.17	454.06
547.34	449.38
547.50	402.57
547.67	390.87
547.84	409.59
548.00	472.79
548.17	491.51
548.34	461.09
548.51	461.09
548.67	341.72
548.84	449.38
549.01	372.15
549.18	437.68
549.34	404.91
549.51	379.17
549.68	440.02
549.84	440.02
550.01	397.89
550.18	486.83
550.34	477.47
550.51	397.89
550.68	463.43
550.84	404.91
551.01	353.42
551.18	440.02
551.34	407.25
551.51	449.38
551.68	348.74
551.84	440.02
552.01	369.80
552.18	409.59
552.34	414.27
552.51	442.36
552.68	397.89
552.84	397.89
553.01	379.17
553.18	402.57
553.34	451.72
553.51	407.25
553.67	397.89
553.84	388.53
554.01	423.64
554.17	470.45
554.34	517.26
554.51	484.49
554.67	428.32
554.84	479.81
555.00	437.68
555.17	442.36
555.33	451.72
555.50	393.21
555.67	397.89
555.83	351.08
556.00	400.23
556.16	573.43
556.33	376.83
556.50	437.68
556.66	498.53
556.83	404.91
556.99	414.27
557.16	449.38
557.32	402.57
557.49	416.62
557.65	442.36
557.82	381.51
557.98	465.77
558.15	423.64
558.32	447.04
558.48	491.51
558.65	400.23
558.81	442.36
558.98	449.38
559.14	418.96
559.31	423.64
559.47	430.66
559.64	449.38
559.80	418.96
559.97	388.53
560.13	440.02
560.30	414.27
560.46	416.62
560.63	395.55
560.79	454.06
560.96	433.00
561.12	402.57
561.29	409.59
561.45	367.46
561.61	388.53
561.78	484.49
561.94	353.42
562.11	435.34
562.27	414.27
562.44	383.85
562.60	430.66
562.77	428.32
562.93	479.81
563.10	411.93
563.26	400.23
563.42	456.40
563.59	428.32
563.75	376.83
563.92	402.57
564.08	393.21
564.24	411.93
564.41	437.68
564.57	428.32
564.74	423.64
564.90	423.64
565.07	362.78
565.23	482.15
565.39	414.27
565.56	369.80
565.72	393.21
565.88	414.27
566.05	414.27
566.21	421.30
566.38	449.38
566.54	437.68
566.70	433.00
566.87	404.91
567.03	442.36
567.19	376.83
567.36	440.02
567.52	442.36
567.68	454.06
567.85	397.89
568.01	454.06
568.17	407.25
568.34	330.02
568.50	421.30
568.66	433.00
568.83	479.81
568.99	379.17
569.15	456.40
569.32	489.17
569.48	400.23
569.64	416.62
569.81	451.72
569.97	404.91
570.13	435.34
570.30	447.04
570.46	402.57
570.62	418.96
570.78	355.76
570.95	423.64
571.11	514.92
571.27	367.46
571.43	386.19
571.60	414.27
571.76	454.06
571.92	388.53
572.09	400.23
572.25	421.30
572.41	393.21
572.57	400.23
572.74	465.77
572.90	444.70
573.06	421.30
573.22	449.38
573.38	374.49
573.55	425.98
573.71	470.45
573.87	414.27
574.03	381.51
574.20	461.09
574.36	465.77
574.52	390.87
574.68	374.49
574.84	435.34
575.01	437.68
575.17	468.11
575.33	451.72
575.49	468.11
575.65	409.59
575.82	390.87
575.98	430.66
576.14	409.59
576.30	433.00
576.46	425.98
576.62	386.19
576.79	397.89
576.95	456.40
577.11	379.17
577.27	397.89
577.43	423.64
577.59	428.32
577.75	400.23
577.92	390.87
578.08	372.15
578.24	393.21
578.40	374.49
578.56	454.06
578.72	468.11
578.88	449.38
579.04	383.85
579.21	463.43
579.37	390.87
579.53	423.64
579.69	362.78
579.85	437.68
580.01	442.36
580.17	477.47
580.33	477.47
580.49	435.34
580.65	414.27
580.82	367.46
580.98	479.81
581.14	390.87
581.30	383.85
581.46	395.55
581.62	372.15
581.78	393.21
581.94	365.12
582.10	353.42
582.26	430.66
582.42	421.30
582.58	430.66
582.74	388.53
582.90	444.70
583.06	383.85
583.22	409.59
583.38	397.89
583.54	390.87
583.70	468.11
583.86	437.68
584.02	447.04
584.18	451.72
584.34	355.76
584.50	411.93
584.66	486.83
584.82	390.87
584.98	507.90
585.14	353.42
585.30	358.10
585.46	451.72
585.62	442.36
585.78	360.44
585.94	306.61
586.10	430.66
586.26	390.87
586.42	500.87
586.58	449.38
586.74	407.25
586.90	416.62
587.06	418.96
587.22	449.38
587.38	456.40
587.54	477.47
587.70	454.06
587.86	433.00
588.02	388.53
588.18	423.64
588.34	489.17
588.49	440.02
588.65	442.36
588.81	372.15
588.97	353.42
589.13	435.34
589.29	479.81
589.45	465.77
589.61	311.29
589.77	407.25
589.93	402.57
590.08	444.70
590.24	353.42
590.40	409.59
590.56	421.30
590.72	435.34
590.88	407.25
591.04	444.70
591.20	390.87
591.35	355.76
591.51	456.40
591.67	472.79
591.83	454.06
591.99	442.36
592.15	386.19
592.31	430.66
592.46	437.68
592.62	451.72
592.78	381.51
592.94	423.64
593.10	379.17
593.26	454.06
593.41	449.38
593.57	416.62
593.73	440.02
593.89	402.57
594.05	358.10
594.20	393.21
594.36	468.11
594.52	433.00
594.68	414.27
594.84	503.22
594.99	472.79
595.15	418.96
595.31	463.43
595.47	430.66
595.62	358.10
595.78	402.57
595.94	376.83
596.10	393.21
596.25	418.96
596.41	381.51
596.57	449.38
596.73	433.00
596.88	449.38
597.04	423.64
597.20	407.25
597.36	433.00
597.51	388.53
597.67	409.59
597.83	381.51
597.99	402.57
598.14	430.66
598.30	402.57
598.46	430.66
598.61	383.85
598.77	470.45
598.93	421.30
599.09	444.70
599.24	386.19
599.40	433.00
599.56	411.93
599.71	444.70
599.87	423.64
600.03	472.79
600.18	461.09
600.34	442.36
600.50	409.59
600.65	397.89
600.81	409.59
600.97	381.51
601.12	477.47
601.28	454.06
601.44	383.85
601.59	428.32
601.75	409.59
601.91	407.25
602.06	428.32
602.22	463.43
602.37	418.96
602.53	430.66
602.69	358.10
602.84	414.27
603.00	397.89
603.16	425.98
603.31	334.70
603.47	414.27
603.62	409.59
603.78	414.27
603.94	383.85
604.09	376.83
604.25	376.83
604.40	482.15
604.56	423.64
604.71	484.49
604.87	369.80
605.03	404.91
605.18	402.57
605.34	444.70
605.49	433.00
605.65	447.04
605.80	402.57
605.96	400.23
606.12	390.87
606.27	463.43
606.43	463.43
606.58	437.68
606.74	407.25
606.89	411.93
607.05	444.70
607.20	463.43
607.36	428.32
607.51	418.96
607.67	402.57
607.82	416.62
607.98	416.62
608.13	486.83
608.29	388.53
608.44	468.11
608.60	486.83
608.75	489.17
608.91	463.43
609.06	365.12
609.22	414.27
609.37	318.31
609.53	388.53
609.68	428.32
609.84	383.85
609.99	381.51
610.15	430.66
