SpectraSuite Data File
++++++++++++++++++++++++++++++++++++
Date: Fri Oct 25 12:11:10 EDT 2013
User: price-jones
Dark Spectrum Present: No
Reference Spectrum Present: No
Number of Sampled Component Spectra: 1
Spectrometers: USB2+H05261
Integration Time (usec): 100000 (USB2+H05261)
Spectra Averaged: 1 (USB2+H05261)
Boxcar Smoothing: 0 (USB2+H05261)
Correct for Electrical Dark: No (USB2+H05261)
Strobe/Lamp Enabled: No (USB2+H05261)
Correct for Detector Non-linearity: No (USB2+H05261)
Correct for Stray Light: No (USB2+H05261)
Number of Pixels in Processed Spectrum: 2048
>>>>>Begin Processed Spectral Data<<<<<
365.73	402.57
365.92	402.57
366.12	402.57
366.32	175.54
366.52	264.48
366.72	273.84
366.91	245.76
367.11	245.76
367.31	196.60
367.51	250.44
367.70	205.97
367.90	299.59
368.10	187.24
368.30	133.41
368.49	243.42
368.69	280.86
368.89	201.29
369.09	266.82
369.28	259.80
369.48	245.76
369.68	297.25
369.87	313.63
370.07	339.38
370.27	353.42
370.47	318.31
370.66	379.17
370.86	322.99
371.06	369.80
371.25	376.83
371.45	360.44
371.65	360.44
371.84	376.83
372.04	334.70
372.24	477.47
372.44	437.68
372.63	435.34
372.83	367.46
373.03	388.53
373.22	409.59
373.42	397.89
373.62	383.85
373.81	400.23
374.01	433.00
374.21	428.32
374.40	390.87
374.60	435.34
374.79	404.91
374.99	374.49
375.19	449.38
375.38	519.60
375.58	407.25
375.78	447.04
375.97	458.74
376.17	458.74
376.37	383.85
376.56	451.72
376.76	440.02
376.95	444.70
377.15	430.66
377.35	444.70
377.54	395.55
377.74	327.68
377.93	423.64
378.13	409.59
378.33	404.91
378.52	449.38
378.72	367.46
378.91	369.80
379.11	454.06
379.31	355.76
379.50	421.30
379.70	421.30
379.89	430.66
380.09	386.19
380.28	388.53
380.48	367.46
380.68	381.51
380.87	362.78
381.07	374.49
381.26	461.09
381.46	353.42
381.65	435.34
381.85	355.76
382.04	386.19
382.24	414.27
382.43	379.17
382.63	341.72
382.83	440.02
383.02	472.79
383.22	472.79
383.41	421.30
383.61	360.44
383.80	411.93
384.00	379.17
384.19	397.89
384.39	402.57
384.58	416.62
384.78	409.59
384.97	360.44
385.17	414.27
385.36	428.32
385.56	386.19
385.75	308.95
385.95	428.32
386.14	397.89
386.34	383.85
386.53	482.15
386.72	407.25
386.92	367.46
387.11	414.27
387.31	386.19
387.50	388.53
387.70	400.23
387.89	411.93
388.09	388.53
388.28	358.10
388.48	397.89
388.67	418.96
388.86	447.04
389.06	440.02
389.25	423.64
389.45	397.89
389.64	400.23
389.84	383.85
390.03	400.23
390.22	379.17
390.42	355.76
390.61	360.44
390.81	369.80
391.00	351.08
391.19	449.38
391.39	379.17
391.58	381.51
391.78	402.57
391.97	416.62
392.16	411.93
392.36	374.49
392.55	404.91
392.75	397.89
392.94	388.53
393.13	475.13
393.33	496.19
393.52	402.57
393.71	315.97
393.91	362.78
394.10	395.55
394.29	337.04
394.49	344.06
394.68	423.64
394.88	468.11
395.07	369.80
395.26	454.06
395.46	386.19
395.65	402.57
395.84	411.93
396.04	528.96
396.23	397.89
396.42	341.72
396.62	454.06
396.81	397.89
397.00	362.78
397.19	418.96
397.39	411.93
397.58	463.43
397.77	416.62
397.97	433.00
398.16	440.02
398.35	442.36
398.55	395.55
398.74	411.93
398.93	421.30
399.12	482.15
399.32	421.30
399.51	435.34
399.70	332.36
399.90	379.17
400.09	437.68
400.28	430.66
400.47	379.17
400.67	402.57
400.86	435.34
401.05	393.21
401.24	449.38
401.44	372.15
401.63	454.06
401.82	355.76
402.01	344.06
402.21	369.80
402.40	437.68
402.59	395.55
402.78	444.70
402.97	367.46
403.17	433.00
403.36	442.36
403.55	374.49
403.74	423.64
403.93	409.59
404.13	447.04
404.32	369.80
404.51	397.89
404.70	425.98
404.89	388.53
405.09	491.51
405.28	454.06
405.47	397.89
405.66	402.57
405.85	374.49
406.05	376.83
406.24	365.12
406.43	407.25
406.62	376.83
406.81	440.02
407.00	388.53
407.20	379.17
407.39	437.68
407.58	372.15
407.77	433.00
407.96	461.09
408.15	379.17
408.34	395.55
408.54	397.89
408.73	383.85
408.92	320.65
409.11	388.53
409.30	418.96
409.49	388.53
409.68	360.44
409.87	414.27
410.07	409.59
410.26	330.02
410.45	337.04
410.64	393.21
410.83	358.10
411.02	454.06
411.21	393.21
411.40	376.83
411.59	442.36
411.78	390.87
411.98	386.19
412.17	337.04
412.36	440.02
412.55	381.51
412.74	418.96
412.93	477.47
413.12	479.81
413.31	440.02
413.50	421.30
413.69	442.36
413.88	414.27
414.07	348.74
414.26	418.96
414.45	395.55
414.64	451.72
414.83	444.70
415.02	402.57
415.22	425.98
415.41	421.30
415.60	470.45
415.79	381.51
415.98	449.38
416.17	442.36
416.36	402.57
416.55	337.04
416.74	404.91
416.93	404.91
417.12	454.06
417.31	423.64
417.50	341.72
417.69	468.11
417.88	404.91
418.07	330.02
418.26	421.30
418.45	404.91
418.64	433.00
418.83	402.57
419.02	358.10
419.21	472.79
419.39	447.04
419.58	369.80
419.77	397.89
419.96	414.27
420.15	383.85
420.34	360.44
420.53	339.38
420.72	449.38
420.91	416.62
421.10	351.08
421.29	379.17
421.48	388.53
421.67	416.62
421.86	397.89
422.05	372.15
422.24	372.15
422.43	393.21
422.61	390.87
422.80	430.66
422.99	507.90
423.18	416.62
423.37	404.91
423.56	425.98
423.75	463.43
423.94	379.17
424.13	456.40
424.32	449.38
424.50	423.64
424.69	449.38
424.88	458.74
425.07	425.98
425.26	379.17
425.45	376.83
425.64	365.12
425.83	339.38
426.01	461.09
426.20	477.47
426.39	423.64
426.58	376.83
426.77	360.44
426.96	372.15
427.15	425.98
427.33	435.34
427.52	390.87
427.71	358.10
427.90	444.70
428.09	386.19
428.28	397.89
428.46	395.55
428.65	447.04
428.84	437.68
429.03	440.02
429.22	390.87
429.40	383.85
429.59	360.44
429.78	451.72
429.97	421.30
430.16	442.36
430.34	416.62
430.53	407.25
430.72	440.02
430.91	444.70
431.10	454.06
431.28	456.40
431.47	433.00
431.66	475.13
431.85	449.38
432.03	383.85
432.22	423.64
432.41	341.72
432.60	437.68
432.79	433.00
432.97	444.70
433.16	402.57
433.35	440.02
433.54	362.78
433.72	437.68
433.91	306.61
434.10	447.04
434.28	362.78
434.47	407.25
434.66	447.04
434.85	397.89
435.03	397.89
435.22	435.34
435.41	489.17
435.59	386.19
435.78	376.83
435.97	400.23
436.16	421.30
436.34	397.89
436.53	388.53
436.72	421.30
436.90	416.62
437.09	379.17
437.28	367.46
437.46	397.89
437.65	404.91
437.84	402.57
438.02	383.85
438.21	489.17
438.40	358.10
438.58	376.83
438.77	421.30
438.96	463.43
439.14	362.78
439.33	433.00
439.52	421.30
439.70	390.87
439.89	461.09
440.08	416.62
440.26	437.68
440.45	442.36
440.63	423.64
440.82	428.32
441.01	451.72
441.19	367.46
441.38	390.87
441.57	449.38
441.75	454.06
441.94	454.06
442.12	374.49
442.31	365.12
442.50	411.93
442.68	393.21
442.87	442.36
443.05	337.04
443.24	407.25
443.43	344.06
443.61	458.74
443.80	440.02
443.98	447.04
444.17	393.21
444.35	423.64
444.54	411.93
444.73	505.56
444.91	358.10
445.10	440.02
445.28	358.10
445.47	414.27
445.65	402.57
445.84	383.85
446.02	472.79
446.21	430.66
446.39	428.32
446.58	388.53
446.77	456.40
446.95	372.15
447.14	442.36
447.32	454.06
447.51	505.56
447.69	423.64
447.88	409.59
448.06	454.06
448.25	341.72
448.43	418.96
448.62	411.93
448.80	451.72
448.99	376.83
449.17	421.30
449.36	388.53
449.54	411.93
449.73	458.74
449.91	461.09
450.10	393.21
450.28	402.57
450.46	407.25
450.65	428.32
450.83	428.32
451.02	458.74
451.20	428.32
451.39	433.00
451.57	440.02
451.76	360.44
451.94	437.68
452.13	444.70
452.31	418.96
452.49	416.62
452.68	409.59
452.86	390.87
453.05	418.96
453.23	393.21
453.42	418.96
453.60	409.59
453.78	425.98
453.97	416.62
454.15	421.30
454.34	397.89
454.52	360.44
454.70	386.19
454.89	454.06
455.07	393.21
455.26	433.00
455.44	397.89
455.62	465.77
455.81	397.89
455.99	435.34
456.17	383.85
456.36	395.55
456.54	372.15
456.73	393.21
456.91	475.13
457.09	395.55
457.28	423.64
457.46	451.72
457.64	367.46
457.83	374.49
458.01	465.77
458.19	379.17
458.38	353.42
458.56	402.57
458.74	339.38
458.93	395.55
459.11	390.87
459.29	404.91
459.48	430.66
459.66	409.59
459.84	407.25
460.03	461.09
460.21	341.72
460.39	435.34
460.57	493.85
460.76	341.72
460.94	435.34
461.12	428.32
461.31	381.51
461.49	437.68
461.67	376.83
461.85	411.93
462.04	423.64
462.22	723.23
462.40	444.70
462.59	435.34
462.77	472.79
462.95	404.91
463.13	425.98
463.32	421.30
463.50	346.40
463.68	449.38
463.86	421.30
464.05	463.43
464.23	423.64
464.41	367.46
464.59	395.55
464.78	355.76
464.96	376.83
465.14	491.51
465.32	414.27
465.50	435.34
465.69	463.43
465.87	362.78
466.05	409.59
466.23	404.91
466.41	472.79
466.60	397.89
466.78	437.68
466.96	428.32
467.14	458.74
467.32	367.46
467.51	430.66
467.69	440.02
467.87	313.63
468.05	416.62
468.23	463.43
468.41	475.13
468.60	334.70
468.78	449.38
468.96	430.66
469.14	435.34
469.32	400.23
469.50	414.27
469.69	369.80
469.87	381.51
470.05	423.64
470.23	477.47
470.41	358.10
470.59	313.63
470.77	290.23
470.95	402.57
471.14	435.34
471.32	374.49
471.50	463.43
471.68	444.70
471.86	461.09
472.04	390.87
472.22	411.93
472.40	400.23
472.58	433.00
472.77	341.72
472.95	411.93
473.13	449.38
473.31	430.66
473.49	369.80
473.67	404.91
473.85	430.66
474.03	472.79
474.21	416.62
474.39	496.19
474.57	465.77
474.75	367.46
474.93	435.34
475.12	362.78
475.30	444.70
475.48	442.36
475.66	414.27
475.84	482.15
476.02	428.32
476.20	425.98
476.38	351.08
476.56	444.70
476.74	433.00
476.92	351.08
477.10	365.12
477.28	521.94
477.46	433.00
477.64	400.23
477.82	437.68
478.00	447.04
478.18	428.32
478.36	369.80
478.54	393.21
478.72	402.57
478.90	372.15
479.08	355.76
479.26	465.77
479.44	395.55
479.62	416.62
479.80	374.49
479.98	367.46
480.16	421.30
480.34	393.21
480.52	414.27
480.70	451.72
480.88	414.27
481.06	360.44
481.24	362.78
481.41	395.55
481.59	379.17
481.77	411.93
481.95	418.96
482.13	423.64
482.31	414.27
482.49	423.64
482.67	444.70
482.85	493.85
483.03	482.15
483.21	395.55
483.39	423.64
483.57	444.70
483.74	442.36
483.92	465.77
484.10	346.40
484.28	414.27
484.46	397.89
484.64	344.06
484.82	468.11
485.00	407.25
485.18	351.08
485.35	465.77
485.53	463.43
485.71	435.34
485.89	442.36
486.07	454.06
486.25	458.74
486.43	365.12
486.61	423.64
486.78	496.19
486.96	461.09
487.14	423.64
487.32	430.66
487.50	425.98
487.68	411.93
487.85	437.68
488.03	376.83
488.21	479.81
488.39	388.53
488.57	465.77
488.75	386.19
488.92	444.70
489.10	454.06
489.28	365.12
489.46	341.72
489.64	397.89
489.81	423.64
489.99	348.74
490.17	388.53
490.35	454.06
490.53	468.11
490.70	341.72
490.88	374.49
491.06	468.11
491.24	402.57
491.41	414.27
491.59	407.25
491.77	372.15
491.95	348.74
492.13	404.91
492.30	313.63
492.48	423.64
492.66	348.74
492.84	372.15
493.01	402.57
493.19	449.38
493.37	498.53
493.54	402.57
493.72	414.27
493.90	383.85
494.08	437.68
494.25	456.40
494.43	444.70
494.61	339.38
494.79	402.57
494.96	353.42
495.14	395.55
495.32	423.64
495.49	447.04
495.67	449.38
495.85	418.96
496.02	435.34
496.20	353.42
496.38	463.43
496.55	360.44
496.73	374.49
496.91	409.59
497.09	440.02
497.26	465.77
497.44	465.77
497.62	416.62
497.79	444.70
497.97	369.80
498.14	421.30
498.32	425.98
498.50	414.27
498.67	435.34
498.85	454.06
499.03	430.66
499.20	470.45
499.38	442.36
499.56	393.21
499.73	416.62
499.91	461.09
500.08	423.64
500.26	386.19
500.44	360.44
500.61	430.66
500.79	372.15
500.97	397.89
501.14	423.64
501.32	447.04
501.49	458.74
501.67	447.04
501.84	390.87
502.02	379.17
502.20	407.25
502.37	423.64
502.55	402.57
502.72	407.25
502.90	482.15
503.07	421.30
503.25	407.25
503.43	433.00
503.60	376.83
503.78	393.21
503.95	372.15
504.13	416.62
504.30	409.59
504.48	444.70
504.65	468.11
504.83	451.72
505.01	477.47
505.18	458.74
505.36	444.70
505.53	433.00
505.71	437.68
505.88	447.04
506.06	470.45
506.23	369.80
506.41	351.08
506.58	491.51
506.76	381.51
506.93	428.32
507.11	449.38
507.28	379.17
507.46	421.30
507.63	472.79
507.81	341.72
507.98	428.32
508.16	418.96
508.33	449.38
508.50	383.85
508.68	491.51
508.85	447.04
509.03	395.55
509.20	409.59
509.38	430.66
509.55	440.02
509.73	344.06
509.90	423.64
510.08	409.59
510.25	449.38
510.42	386.19
510.60	416.62
510.77	414.27
510.95	390.87
511.12	440.02
511.30	386.19
511.47	430.66
511.64	456.40
511.82	376.83
511.99	388.53
512.17	404.91
512.34	397.89
512.51	397.89
512.69	416.62
512.86	451.72
513.04	386.19
513.21	421.30
513.38	351.08
513.56	407.25
513.73	463.43
513.90	416.62
514.08	449.38
514.25	400.23
514.43	381.51
514.60	358.10
514.77	477.47
514.95	472.79
515.12	435.34
515.29	414.27
515.47	376.83
515.64	409.59
515.81	367.46
515.99	493.85
516.16	404.91
516.33	505.56
516.51	421.30
516.68	386.19
516.85	421.30
517.03	353.42
517.20	421.30
517.37	400.23
517.54	362.78
517.72	416.62
517.89	407.25
518.06	428.32
518.24	444.70
518.41	447.04
518.58	447.04
518.75	372.15
518.93	404.91
519.10	411.93
519.27	407.25
519.45	367.46
519.62	379.17
519.79	397.89
519.96	376.83
520.14	421.30
520.31	458.74
520.48	428.32
520.65	390.87
520.83	430.66
521.00	517.26
521.17	435.34
521.34	367.46
521.52	351.08
521.69	383.85
521.86	425.98
522.03	379.17
522.20	475.13
522.38	451.72
522.55	416.62
522.72	388.53
522.89	393.21
523.07	425.98
523.24	383.85
523.41	442.36
523.58	409.59
523.75	320.65
523.92	390.87
524.10	407.25
524.27	379.17
524.44	447.04
524.61	428.32
524.78	411.93
524.96	421.30
525.13	390.87
525.30	421.30
525.47	472.79
525.64	421.30
525.81	393.21
525.98	425.98
526.16	454.06
526.33	383.85
526.50	311.29
526.67	346.40
526.84	404.91
527.01	430.66
527.18	395.55
527.36	407.25
527.53	425.98
527.70	451.72
527.87	486.83
528.04	402.57
528.21	393.21
528.38	381.51
528.55	447.04
528.72	472.79
528.89	470.45
529.07	437.68
529.24	409.59
529.41	400.23
529.58	390.87
529.75	416.62
529.92	411.93
530.09	442.36
530.26	447.04
530.43	425.98
530.60	390.87
530.77	428.32
530.94	447.04
531.11	397.89
531.28	444.70
531.46	451.72
531.63	400.23
531.80	369.80
531.97	404.91
532.14	440.02
532.31	351.08
532.48	498.53
532.65	416.62
532.82	372.15
532.99	362.78
533.16	404.91
533.33	409.59
533.50	395.55
533.67	355.76
533.84	407.25
534.01	423.64
534.18	449.38
534.35	514.92
534.52	386.19
534.69	430.66
534.86	425.98
535.03	409.59
535.20	414.27
535.37	362.78
535.54	425.98
535.71	388.53
535.88	418.96
536.05	397.89
536.22	468.11
536.38	421.30
536.55	418.96
536.72	416.62
536.89	395.55
537.06	402.57
537.23	442.36
537.40	388.53
537.57	458.74
537.74	416.62
537.91	449.38
538.08	414.27
538.25	374.49
538.42	428.32
538.59	388.53
538.75	416.62
538.92	447.04
539.09	418.96
539.26	447.04
539.43	449.38
539.60	461.09
539.77	444.70
539.94	360.44
540.11	433.00
540.28	440.02
540.44	442.36
540.61	407.25
540.78	402.57
540.95	414.27
541.12	428.32
541.29	409.59
541.46	407.25
541.62	376.83
541.79	423.64
541.96	379.17
542.13	318.31
542.30	421.30
542.47	402.57
542.63	470.45
542.80	418.96
542.97	395.55
543.14	393.21
543.31	435.34
543.48	416.62
543.64	428.32
543.81	416.62
543.98	421.30
544.15	425.98
544.32	353.42
544.48	376.83
544.65	479.81
544.82	428.32
544.99	402.57
545.16	479.81
545.32	341.72
545.49	358.10
545.66	404.91
545.83	444.70
546.00	393.21
546.16	381.51
546.33	355.76
546.50	421.30
546.67	397.89
546.83	461.09
547.00	423.64
547.17	409.59
547.34	388.53
547.50	421.30
547.67	423.64
547.84	404.91
548.00	433.00
548.17	442.36
548.34	430.66
548.51	442.36
548.67	472.79
548.84	482.15
549.01	351.08
549.18	468.11
549.34	435.34
549.51	470.45
549.68	496.19
549.84	425.98
550.01	397.89
550.18	463.43
550.34	477.47
550.51	489.17
550.68	447.04
550.84	386.19
551.01	397.89
551.18	367.46
551.34	465.77
551.51	418.96
551.68	456.40
551.84	421.30
552.01	390.87
552.18	463.43
552.34	402.57
552.51	423.64
552.68	433.00
552.84	400.23
553.01	374.49
553.18	447.04
553.34	402.57
553.51	379.17
553.67	414.27
553.84	444.70
554.01	440.02
554.17	416.62
554.34	430.66
554.51	423.64
554.67	472.79
554.84	414.27
555.00	383.85
555.17	454.06
555.33	447.04
555.50	449.38
555.67	433.00
555.83	421.30
556.00	416.62
556.16	500.87
556.33	486.83
556.50	381.51
556.66	416.62
556.83	458.74
556.99	348.74
557.16	332.36
557.32	416.62
557.49	381.51
557.65	416.62
557.82	433.00
557.98	425.98
558.15	353.42
558.32	461.09
558.48	397.89
558.65	430.66
558.81	465.77
558.98	498.53
559.14	414.27
559.31	376.83
559.47	456.40
559.64	390.87
559.80	374.49
559.97	355.76
560.13	416.62
560.30	482.15
560.46	397.89
560.63	400.23
560.79	463.43
560.96	470.45
561.12	524.28
561.29	498.53
561.45	500.87
561.61	397.89
561.78	482.15
561.94	393.21
562.11	397.89
562.27	327.68
562.44	428.32
562.60	351.08
562.77	353.42
562.93	390.87
563.10	418.96
563.26	411.93
563.42	423.64
563.59	400.23
563.75	365.12
563.92	447.04
564.08	437.68
564.24	421.30
564.41	437.68
564.57	402.57
564.74	444.70
564.90	486.83
565.07	428.32
565.23	409.59
565.39	416.62
565.56	449.38
565.72	486.83
565.88	402.57
566.05	425.98
566.21	374.49
566.38	444.70
566.54	416.62
566.70	421.30
566.87	414.27
567.03	414.27
567.19	421.30
567.36	407.25
567.52	397.89
567.68	400.23
567.85	414.27
568.01	404.91
568.17	456.40
568.34	451.72
568.50	423.64
568.66	395.55
568.83	395.55
568.99	388.53
569.15	454.06
569.32	411.93
569.48	416.62
569.64	418.96
569.81	489.17
569.97	468.11
570.13	489.17
570.30	365.12
570.46	393.21
570.62	386.19
570.78	386.19
570.95	351.08
571.11	465.77
571.27	418.96
571.43	484.49
571.60	423.64
571.76	379.17
571.92	440.02
572.09	451.72
572.25	503.22
572.41	421.30
572.57	414.27
572.74	418.96
572.90	449.38
573.06	365.12
573.22	456.40
573.38	472.79
573.55	414.27
573.71	388.53
573.87	475.13
574.03	374.49
574.20	477.47
574.36	470.45
574.52	425.98
574.68	437.68
574.84	456.40
575.01	437.68
575.17	390.87
575.33	388.53
575.49	470.45
575.65	449.38
575.82	435.34
575.98	400.23
576.14	402.57
576.30	428.32
576.46	388.53
576.62	414.27
576.79	402.57
576.95	468.11
577.11	388.53
577.27	402.57
577.43	411.93
577.59	395.55
577.75	369.80
577.92	395.55
578.08	358.10
578.24	414.27
578.40	395.55
578.56	472.79
578.72	400.23
578.88	433.00
579.04	395.55
579.21	470.45
579.37	440.02
579.53	451.72
579.69	433.00
579.85	404.91
580.01	386.19
580.17	400.23
580.33	383.85
580.49	437.68
580.65	397.89
580.82	428.32
580.98	344.06
581.14	442.36
581.30	386.19
581.46	435.34
581.62	414.27
581.78	418.96
581.94	404.91
582.10	416.62
582.26	458.74
582.42	421.30
582.58	400.23
582.74	449.38
582.90	449.38
583.06	421.30
583.22	423.64
583.38	374.49
583.54	402.57
583.70	451.72
583.86	418.96
584.02	383.85
584.18	484.49
584.34	444.70
584.50	407.25
584.66	390.87
584.82	325.33
584.98	388.53
585.14	358.10
585.30	397.89
585.46	440.02
585.62	402.57
585.78	447.04
585.94	437.68
586.10	440.02
586.26	416.62
586.42	395.55
586.58	428.32
586.74	435.34
586.90	433.00
587.06	402.57
587.22	451.72
587.38	428.32
587.54	376.83
587.70	451.72
587.86	484.49
588.02	339.38
588.18	390.87
588.34	414.27
588.49	404.91
588.65	397.89
588.81	440.02
588.97	465.77
589.13	414.27
589.29	360.44
589.45	440.02
589.61	327.68
589.77	430.66
589.93	393.21
590.08	461.09
590.24	358.10
590.40	433.00
590.56	463.43
590.72	393.21
590.88	451.72
591.04	421.30
591.20	454.06
591.35	500.87
591.51	435.34
591.67	344.06
591.83	404.91
591.99	428.32
592.15	411.93
592.31	425.98
592.46	367.46
592.62	397.89
592.78	369.80
592.94	425.98
593.10	388.53
593.26	369.80
593.41	402.57
593.57	463.43
593.73	416.62
593.89	386.19
594.05	372.15
594.20	374.49
594.36	486.83
594.52	475.13
594.68	421.30
594.84	388.53
594.99	479.81
595.15	400.23
595.31	440.02
595.47	470.45
595.62	393.21
595.78	383.85
595.94	475.13
596.10	421.30
596.25	435.34
596.41	404.91
596.57	423.64
596.73	386.19
596.88	449.38
597.04	437.68
597.20	430.66
597.36	468.11
597.51	454.06
597.67	372.15
597.83	442.36
597.99	409.59
598.14	486.83
598.30	496.19
598.46	470.45
598.61	418.96
598.77	430.66
598.93	414.27
599.09	491.51
599.24	388.53
599.40	416.62
599.56	379.17
599.71	493.85
599.87	330.02
600.03	430.66
600.18	421.30
600.34	365.12
600.50	449.38
600.65	454.06
600.81	376.83
600.97	374.49
601.12	447.04
601.28	451.72
601.44	486.83
601.59	409.59
601.75	430.66
601.91	374.49
602.06	428.32
602.22	423.64
602.37	400.23
602.53	423.64
602.69	409.59
602.84	463.43
603.00	428.32
603.16	383.85
603.31	430.66
603.47	407.25
603.62	468.11
603.78	374.49
603.94	407.25
604.09	397.89
604.25	381.51
604.40	397.89
604.56	414.27
604.71	461.09
604.87	330.02
605.03	416.62
605.18	318.31
605.34	437.68
605.49	454.06
605.65	461.09
605.80	416.62
605.96	402.57
606.12	496.19
606.27	395.55
606.43	393.21
606.58	407.25
606.74	390.87
606.89	379.17
607.05	456.40
607.20	383.85
607.36	496.19
607.51	482.15
607.67	374.49
607.82	475.13
607.98	407.25
608.13	425.98
608.29	428.32
608.44	374.49
608.60	390.87
608.75	425.98
608.91	355.76
609.06	372.15
609.22	449.38
609.37	383.85
609.53	395.55
609.68	395.55
609.84	390.87
609.99	407.25
610.15	388.53
