SpectraSuite Data File
++++++++++++++++++++++++++++++++++++
Date: Fri Oct 25 12:10:53 EDT 2013
User: price-jones
Dark Spectrum Present: No
Reference Spectrum Present: No
Number of Sampled Component Spectra: 1
Spectrometers: USB2+H05261
Integration Time (usec): 100000 (USB2+H05261)
Spectra Averaged: 1 (USB2+H05261)
Boxcar Smoothing: 0 (USB2+H05261)
Correct for Electrical Dark: No (USB2+H05261)
Strobe/Lamp Enabled: No (USB2+H05261)
Correct for Detector Non-linearity: No (USB2+H05261)
Correct for Stray Light: No (USB2+H05261)
Number of Pixels in Processed Spectrum: 2048
>>>>>Begin Processed Spectral Data<<<<<
365.73	332.36
365.92	332.36
366.12	332.36
366.32	313.63
366.52	184.90
366.72	205.97
366.91	229.37
367.11	252.78
367.31	299.59
367.51	201.29
367.70	320.65
367.90	285.55
368.10	215.33
368.30	229.37
368.49	266.82
368.69	257.46
368.89	271.50
369.09	222.35
369.28	283.20
369.48	341.72
369.68	273.84
369.87	301.93
370.07	304.27
370.27	311.29
370.47	266.82
370.66	292.57
370.86	397.89
371.06	388.53
371.25	365.12
371.45	423.64
371.65	407.25
371.84	383.85
372.04	414.27
372.24	414.27
372.44	435.34
372.63	379.17
372.83	409.59
373.03	444.70
373.22	433.00
373.42	458.74
373.62	402.57
373.81	479.81
374.01	465.77
374.21	416.62
374.40	512.58
374.60	433.00
374.79	386.19
374.99	390.87
375.19	362.78
375.38	465.77
375.58	428.32
375.78	425.98
375.97	369.80
376.17	386.19
376.37	418.96
376.56	449.38
376.76	484.49
376.95	379.17
377.15	386.19
377.35	414.27
377.54	400.23
377.74	402.57
377.93	407.25
378.13	341.72
378.33	400.23
378.52	407.25
378.72	411.93
378.91	442.36
379.11	379.17
379.31	379.17
379.50	346.40
379.70	451.72
379.89	395.55
380.09	468.11
380.28	421.30
380.48	402.57
380.68	421.30
380.87	372.15
381.07	430.66
381.26	409.59
381.46	339.38
381.65	470.45
381.85	353.42
382.04	376.83
382.24	489.17
382.43	430.66
382.63	407.25
382.83	379.17
383.02	369.80
383.22	409.59
383.41	362.78
383.61	362.78
383.80	435.34
384.00	402.57
384.19	395.55
384.39	428.32
384.58	376.83
384.78	367.46
384.97	421.30
385.17	437.68
385.36	463.43
385.56	346.40
385.75	381.51
385.95	372.15
386.14	376.83
386.34	416.62
386.53	386.19
386.72	330.02
386.92	397.89
387.11	395.55
387.31	404.91
387.50	404.91
387.70	381.51
387.89	334.70
388.09	444.70
388.28	414.27
388.48	472.79
388.67	414.27
388.86	428.32
389.06	358.10
389.25	465.77
389.45	372.15
389.64	430.66
389.84	353.42
390.03	365.12
390.22	376.83
390.42	301.93
390.61	353.42
390.81	484.49
391.00	498.53
391.19	442.36
391.39	414.27
391.58	428.32
391.78	407.25
391.97	397.89
392.16	451.72
392.36	414.27
392.55	390.87
392.75	442.36
392.94	423.64
393.13	348.74
393.33	442.36
393.52	400.23
393.71	376.83
393.91	463.43
394.10	430.66
394.29	369.80
394.49	374.49
394.68	365.12
394.88	433.00
395.07	390.87
395.26	437.68
395.46	421.30
395.65	440.02
395.84	381.51
396.04	449.38
396.23	400.23
396.42	430.66
396.62	423.64
396.81	376.83
397.00	383.85
397.19	461.09
397.39	444.70
397.58	428.32
397.77	425.98
397.97	491.51
398.16	470.45
398.35	381.51
398.55	365.12
398.74	379.17
398.93	414.27
399.12	409.59
399.32	390.87
399.51	383.85
399.70	430.66
399.90	456.40
400.09	437.68
400.28	433.00
400.47	454.06
400.67	393.21
400.86	440.02
401.05	381.51
401.24	369.80
401.44	379.17
401.63	418.96
401.82	440.02
402.01	411.93
402.21	435.34
402.40	425.98
402.59	447.04
402.78	409.59
402.97	390.87
403.17	421.30
403.36	418.96
403.55	379.17
403.74	383.85
403.93	367.46
404.13	351.08
404.32	400.23
404.51	369.80
404.70	416.62
404.89	425.98
405.09	395.55
405.28	407.25
405.47	411.93
405.66	362.78
405.85	402.57
406.05	360.44
406.24	468.11
406.43	379.17
406.62	351.08
406.81	465.77
407.00	294.91
407.20	395.55
407.39	449.38
407.58	355.76
407.77	451.72
407.96	479.81
408.15	397.89
408.34	402.57
408.54	397.89
408.73	414.27
408.92	372.15
409.11	397.89
409.30	440.02
409.49	367.46
409.68	430.66
409.87	456.40
410.07	386.19
410.26	369.80
410.45	383.85
410.64	376.83
410.83	339.38
411.02	393.21
411.21	395.55
411.40	489.17
411.59	407.25
411.78	428.32
411.98	388.53
412.17	393.21
412.36	463.43
412.55	365.12
412.74	383.85
412.93	454.06
413.12	365.12
413.31	482.15
413.50	430.66
413.69	421.30
413.88	482.15
414.07	449.38
414.26	418.96
414.45	404.91
414.64	454.06
414.83	390.87
415.02	411.93
415.22	430.66
415.41	421.30
415.60	402.57
415.79	442.36
415.98	383.85
416.17	397.89
416.36	388.53
416.55	421.30
416.74	454.06
416.93	491.51
417.12	379.17
417.31	393.21
417.50	379.17
417.69	346.40
417.88	386.19
418.07	414.27
418.26	425.98
418.45	332.36
418.64	397.89
418.83	411.93
419.02	430.66
419.21	486.83
419.39	390.87
419.58	454.06
419.77	397.89
419.96	454.06
420.15	545.34
420.34	430.66
420.53	498.53
420.72	425.98
420.91	449.38
421.10	423.64
421.29	454.06
421.48	477.47
421.67	372.15
421.86	400.23
422.05	475.13
422.24	428.32
422.43	437.68
422.61	322.99
422.80	358.10
422.99	388.53
423.18	433.00
423.37	493.85
423.56	386.19
423.75	388.53
423.94	421.30
424.13	433.00
424.32	358.10
424.50	430.66
424.69	414.27
424.88	425.98
425.07	388.53
425.26	447.04
425.45	407.25
425.64	433.00
425.83	418.96
426.01	395.55
426.20	418.96
426.39	376.83
426.58	409.59
426.77	386.19
426.96	409.59
427.15	425.98
427.33	421.30
427.52	404.91
427.71	374.49
427.90	430.66
428.09	423.64
428.28	386.19
428.46	454.06
428.65	367.46
428.84	362.78
429.03	409.59
429.22	463.43
429.40	416.62
429.59	346.40
429.78	456.40
429.97	449.38
430.16	376.83
430.34	353.42
430.53	393.21
430.72	463.43
430.91	390.87
431.10	374.49
431.28	374.49
431.47	468.11
431.66	437.68
431.85	386.19
432.03	423.64
432.22	484.49
432.41	386.19
432.60	423.64
432.79	449.38
432.97	355.76
433.16	393.21
433.35	407.25
433.54	348.74
433.72	444.70
433.91	421.30
434.10	486.83
434.28	461.09
434.47	428.32
434.66	505.56
434.85	390.87
435.03	409.59
435.22	421.30
435.41	433.00
435.59	381.51
435.78	395.55
435.97	294.91
436.16	386.19
436.34	395.55
436.53	383.85
436.72	388.53
436.90	339.38
437.09	414.27
437.28	463.43
437.46	411.93
437.65	482.15
437.84	402.57
438.02	390.87
438.21	442.36
438.40	390.87
438.58	395.55
438.77	423.64
438.96	447.04
439.14	374.49
439.33	369.80
439.52	447.04
439.70	435.34
439.89	388.53
440.08	435.34
440.26	402.57
440.45	400.23
440.63	411.93
440.82	451.72
441.01	374.49
441.19	425.98
441.38	395.55
441.57	423.64
441.75	411.93
441.94	418.96
442.12	376.83
442.31	381.51
442.50	440.02
442.68	407.25
442.87	461.09
443.05	458.74
443.24	447.04
443.43	437.68
443.61	440.02
443.80	440.02
443.98	440.02
444.17	437.68
444.35	456.40
444.54	421.30
444.73	367.46
444.91	472.79
445.10	411.93
445.28	362.78
445.47	379.17
445.65	444.70
445.84	402.57
446.02	337.04
446.21	386.19
446.39	402.57
446.58	433.00
446.77	397.89
446.95	376.83
447.14	468.11
447.32	463.43
447.51	447.04
447.69	383.85
447.88	381.51
448.06	414.27
448.25	437.68
448.43	383.85
448.62	421.30
448.80	351.08
448.99	411.93
449.17	447.04
449.36	409.59
449.54	454.06
449.73	414.27
449.91	409.59
450.10	442.36
450.28	465.77
450.46	484.49
450.65	414.27
450.83	383.85
451.02	353.42
451.20	442.36
451.39	486.83
451.57	386.19
451.76	416.62
451.94	355.76
452.13	395.55
452.31	418.96
452.49	383.85
452.68	447.04
452.86	402.57
453.05	435.34
453.23	430.66
453.42	470.45
453.60	470.45
453.78	407.25
453.97	369.80
454.15	423.64
454.34	409.59
454.52	367.46
454.70	449.38
454.89	388.53
455.07	461.09
455.26	393.21
455.44	390.87
455.62	414.27
455.81	407.25
455.99	379.17
456.17	372.15
456.36	456.40
456.54	430.66
456.73	411.93
456.91	383.85
457.09	461.09
457.28	376.83
457.46	386.19
457.64	409.59
457.83	475.13
458.01	486.83
458.19	393.21
458.38	411.93
458.56	421.30
458.74	423.64
458.93	500.87
459.11	456.40
459.29	428.32
459.48	369.80
459.66	505.56
459.84	376.83
460.03	463.43
460.21	409.59
460.39	402.57
460.57	440.02
460.76	519.60
460.94	381.51
461.12	440.02
461.31	442.36
461.49	334.70
461.67	409.59
461.85	461.09
462.04	381.51
462.22	800.46
462.40	465.77
462.59	449.38
462.77	411.93
462.95	355.76
463.13	470.45
463.32	433.00
463.50	444.70
463.68	409.59
463.86	461.09
464.05	344.06
464.23	386.19
464.41	423.64
464.59	376.83
464.78	397.89
464.96	400.23
465.14	475.13
465.32	388.53
465.50	428.32
465.69	402.57
465.87	433.00
466.05	486.83
466.23	475.13
466.41	421.30
466.60	437.68
466.78	449.38
466.96	472.79
467.14	451.72
467.32	465.77
467.51	425.98
467.69	442.36
467.87	503.22
468.05	444.70
468.23	496.19
468.41	498.53
468.60	468.11
468.78	395.55
468.96	449.38
469.14	444.70
469.32	461.09
469.50	421.30
469.69	435.34
469.87	404.91
470.05	400.23
470.23	472.79
470.41	369.80
470.59	402.57
470.77	484.49
470.95	395.55
471.14	358.10
471.32	489.17
471.50	482.15
471.68	414.27
471.86	388.53
472.04	442.36
472.22	425.98
472.40	430.66
472.58	383.85
472.77	433.00
472.95	402.57
473.13	409.59
473.31	346.40
473.49	425.98
473.67	386.19
473.85	379.17
474.03	372.15
474.21	407.25
474.39	454.06
474.57	489.17
474.75	404.91
474.93	383.85
475.12	409.59
475.30	435.34
475.48	400.23
475.66	353.42
475.84	437.68
476.02	421.30
476.20	416.62
476.38	416.62
476.56	444.70
476.74	428.32
476.92	430.66
477.10	379.17
477.28	404.91
477.46	397.89
477.64	437.68
477.82	463.43
478.00	393.21
478.18	407.25
478.36	400.23
478.54	454.06
478.72	411.93
478.90	383.85
479.08	428.32
479.26	397.89
479.44	472.79
479.62	428.32
479.80	376.83
479.98	421.30
480.16	440.02
480.34	379.17
480.52	358.10
480.70	388.53
480.88	425.98
481.06	416.62
481.24	369.80
481.41	461.09
481.59	381.51
481.77	463.43
481.95	416.62
482.13	442.36
482.31	407.25
482.49	341.72
482.67	433.00
482.85	435.34
483.03	454.06
483.21	367.46
483.39	379.17
483.57	444.70
483.74	421.30
483.92	407.25
484.10	461.09
484.28	444.70
484.46	414.27
484.64	388.53
484.82	372.15
485.00	411.93
485.18	418.96
485.35	423.64
485.53	404.91
485.71	500.87
485.89	402.57
486.07	428.32
486.25	500.87
486.43	418.96
486.61	425.98
486.78	376.83
486.96	397.89
487.14	360.44
487.32	407.25
487.50	416.62
487.68	414.27
487.85	423.64
488.03	423.64
488.21	449.38
488.39	435.34
488.57	418.96
488.75	477.47
488.92	524.28
489.10	388.53
489.28	451.72
489.46	449.38
489.64	402.57
489.81	397.89
489.99	334.70
490.17	416.62
490.35	477.47
490.53	395.55
490.70	456.40
490.88	486.83
491.06	397.89
491.24	456.40
491.41	461.09
491.59	388.53
491.77	327.68
491.95	341.72
492.13	325.33
492.30	374.49
492.48	365.12
492.66	397.89
492.84	393.21
493.01	402.57
493.19	400.23
493.37	479.81
493.54	379.17
493.72	435.34
493.90	440.02
494.08	416.62
494.25	465.77
494.43	491.51
494.61	372.15
494.79	383.85
494.96	409.59
495.14	472.79
495.32	409.59
495.49	442.36
495.67	411.93
495.85	407.25
496.02	393.21
496.20	456.40
496.38	418.96
496.55	477.47
496.73	416.62
496.91	477.47
497.09	388.53
497.26	414.27
497.44	379.17
497.62	407.25
497.79	430.66
497.97	425.98
498.14	442.36
498.32	451.72
498.50	344.06
498.67	400.23
498.85	365.12
499.03	423.64
499.20	421.30
499.38	397.89
499.56	423.64
499.73	400.23
499.91	395.55
500.08	435.34
500.26	468.11
500.44	430.66
500.61	393.21
500.79	402.57
500.97	491.51
501.14	425.98
501.32	463.43
501.49	484.49
501.67	388.53
501.84	444.70
502.02	418.96
502.20	486.83
502.37	430.66
502.55	414.27
502.72	397.89
502.90	454.06
503.07	465.77
503.25	479.81
503.43	304.27
503.60	404.91
503.78	435.34
503.95	437.68
504.13	383.85
504.30	388.53
504.48	435.34
504.65	440.02
504.83	458.74
505.01	463.43
505.18	381.51
505.36	458.74
505.53	400.23
505.71	393.21
505.88	456.40
506.06	486.83
506.23	435.34
506.41	433.00
506.58	435.34
506.76	374.49
506.93	372.15
507.11	395.55
507.28	407.25
507.46	440.02
507.63	379.17
507.81	451.72
507.98	409.59
508.16	386.19
508.33	365.12
508.50	402.57
508.68	407.25
508.85	388.53
509.03	372.15
509.20	430.66
509.38	379.17
509.55	376.83
509.73	489.17
509.90	442.36
510.08	346.40
510.25	433.00
510.42	444.70
510.60	418.96
510.77	395.55
510.95	407.25
511.12	489.17
511.30	428.32
511.47	454.06
511.64	475.13
511.82	367.46
511.99	360.44
512.17	437.68
512.34	397.89
512.51	456.40
512.69	428.32
512.86	374.49
513.04	444.70
513.21	360.44
513.38	407.25
513.56	379.17
513.73	411.93
513.90	383.85
514.08	470.45
514.25	404.91
514.43	456.40
514.60	430.66
514.77	414.27
514.95	447.04
515.12	362.78
515.29	404.91
515.47	454.06
515.64	411.93
515.81	440.02
515.99	482.15
516.16	421.30
516.33	437.68
516.51	433.00
516.68	407.25
516.85	395.55
517.03	315.97
517.20	388.53
517.37	374.49
517.54	411.93
517.72	437.68
517.89	425.98
518.06	433.00
518.24	465.77
518.41	475.13
518.58	484.49
518.75	440.02
518.93	433.00
519.10	334.70
519.27	397.89
519.45	388.53
519.62	449.38
519.79	437.68
519.96	423.64
520.14	461.09
520.31	369.80
520.48	404.91
520.65	421.30
520.83	421.30
521.00	486.83
521.17	367.46
521.34	444.70
521.52	383.85
521.69	381.51
521.86	383.85
522.03	407.25
522.20	482.15
522.38	372.15
522.55	418.96
522.72	383.85
522.89	440.02
523.07	463.43
523.24	404.91
523.41	376.83
523.58	428.32
523.75	388.53
523.92	402.57
524.10	454.06
524.27	423.64
524.44	360.44
524.61	458.74
524.78	461.09
524.96	360.44
525.13	411.93
525.30	433.00
525.47	470.45
525.64	411.93
525.81	416.62
525.98	416.62
526.16	449.38
526.33	435.34
526.50	383.85
526.67	421.30
526.84	365.12
527.01	393.21
527.18	461.09
527.36	442.36
527.53	381.51
527.70	472.79
527.87	395.55
528.04	440.02
528.21	482.15
528.38	430.66
528.55	430.66
528.72	393.21
528.89	449.38
529.07	425.98
529.24	414.27
529.41	411.93
529.58	404.91
529.75	404.91
529.92	416.62
530.09	454.06
530.26	433.00
530.43	447.04
530.60	409.59
530.77	414.27
530.94	397.89
531.11	393.21
531.28	409.59
531.46	374.49
531.63	393.21
531.80	402.57
531.97	430.66
532.14	409.59
532.31	468.11
532.48	344.06
532.65	386.19
532.82	400.23
532.99	416.62
533.16	421.30
533.33	390.87
533.50	386.19
533.67	346.40
533.84	365.12
534.01	458.74
534.18	390.87
534.35	468.11
534.52	423.64
534.69	454.06
534.86	428.32
535.03	470.45
535.20	327.68
535.37	449.38
535.54	428.32
535.71	444.70
535.88	414.27
536.05	355.76
536.22	388.53
536.38	454.06
536.55	402.57
536.72	386.19
536.89	428.32
537.06	414.27
537.23	433.00
537.40	402.57
537.57	372.15
537.74	477.47
537.91	390.87
538.08	383.85
538.25	430.66
538.42	400.23
538.59	414.27
538.75	353.42
538.92	397.89
539.09	372.15
539.26	362.78
539.43	416.62
539.60	414.27
539.77	456.40
539.94	425.98
540.11	496.19
540.28	430.66
540.44	397.89
540.61	433.00
540.78	414.27
540.95	358.10
541.12	447.04
541.29	418.96
541.46	425.98
541.62	454.06
541.79	447.04
541.96	418.96
542.13	365.12
542.30	376.83
542.47	437.68
542.63	402.57
542.80	407.25
542.97	440.02
543.14	503.22
543.31	496.19
543.48	386.19
543.64	416.62
543.81	421.30
543.98	360.44
544.15	369.80
544.32	433.00
544.48	409.59
544.65	458.74
544.82	397.89
544.99	411.93
545.16	430.66
545.32	442.36
545.49	430.66
545.66	451.72
545.83	437.68
546.00	397.89
546.16	381.51
546.33	428.32
546.50	362.78
546.67	388.53
546.83	344.06
547.00	393.21
547.17	390.87
547.34	456.40
547.50	425.98
547.67	383.85
547.84	423.64
548.00	402.57
548.17	400.23
548.34	351.08
548.51	449.38
548.67	339.38
548.84	458.74
549.01	440.02
549.18	458.74
549.34	423.64
549.51	451.72
549.68	411.93
549.84	433.00
550.01	456.40
550.18	503.22
550.34	489.17
550.51	372.15
550.68	454.06
550.84	423.64
551.01	374.49
551.18	411.93
551.34	379.17
551.51	449.38
551.68	379.17
551.84	451.72
552.01	454.06
552.18	414.27
552.34	440.02
552.51	388.53
552.68	489.17
552.84	414.27
553.01	407.25
553.18	374.49
553.34	418.96
553.51	437.68
553.67	425.98
553.84	456.40
554.01	402.57
554.17	454.06
554.34	388.53
554.51	482.15
554.67	360.44
554.84	451.72
555.00	440.02
555.17	440.02
555.33	456.40
555.50	465.77
555.67	404.91
555.83	318.31
556.00	372.15
556.16	512.58
556.33	425.98
556.50	404.91
556.66	400.23
556.83	421.30
556.99	407.25
557.16	341.72
557.32	500.87
557.49	381.51
557.65	451.72
557.82	414.27
557.98	456.40
558.15	409.59
558.32	372.15
558.48	393.21
558.65	360.44
558.81	397.89
558.98	468.11
559.14	454.06
559.31	414.27
559.47	449.38
559.64	386.19
559.80	442.36
559.97	470.45
560.13	411.93
560.30	404.91
560.46	456.40
560.63	376.83
560.79	404.91
560.96	503.22
561.12	468.11
561.29	475.13
561.45	393.21
561.61	395.55
561.78	456.40
561.94	456.40
562.11	430.66
562.27	407.25
562.44	404.91
562.60	440.02
562.77	404.91
562.93	402.57
563.10	421.30
563.26	472.79
563.42	505.56
563.59	386.19
563.75	386.19
563.92	397.89
564.08	468.11
564.24	437.68
564.41	461.09
564.57	428.32
564.74	430.66
564.90	341.72
565.07	409.59
565.23	433.00
565.39	393.21
565.56	402.57
565.72	449.38
565.88	402.57
566.05	390.87
566.21	386.19
566.38	409.59
566.54	369.80
566.70	428.32
566.87	393.21
567.03	365.12
567.19	468.11
567.36	435.34
567.52	379.17
567.68	468.11
567.85	454.06
568.01	430.66
568.17	362.78
568.34	414.27
568.50	440.02
568.66	444.70
568.83	489.17
568.99	435.34
569.15	395.55
569.32	381.51
569.48	447.04
569.64	430.66
569.81	470.45
569.97	477.47
570.13	496.19
570.30	388.53
570.46	407.25
570.62	463.43
570.78	491.51
570.95	393.21
571.11	486.83
571.27	444.70
571.43	418.96
571.60	440.02
571.76	365.12
571.92	374.49
572.09	411.93
572.25	397.89
572.41	484.49
572.57	379.17
572.74	430.66
572.90	367.46
573.06	447.04
573.22	407.25
573.38	402.57
573.55	393.21
573.71	433.00
573.87	428.32
574.03	430.66
574.20	402.57
574.36	454.06
574.52	402.57
574.68	411.93
574.84	465.77
575.01	402.57
575.17	433.00
575.33	418.96
575.49	435.34
575.65	458.74
575.82	430.66
575.98	435.34
576.14	425.98
576.30	430.66
576.46	433.00
576.62	421.30
576.79	449.38
576.95	482.15
577.11	421.30
577.27	337.04
577.43	475.13
577.59	461.09
577.75	484.49
577.92	383.85
578.08	416.62
578.24	367.46
578.40	395.55
578.56	465.77
578.72	447.04
578.88	442.36
579.04	458.74
579.21	407.25
579.37	397.89
579.53	414.27
579.69	489.17
579.85	362.78
580.01	433.00
580.17	395.55
580.33	421.30
580.49	397.89
580.65	510.24
580.82	440.02
580.98	477.47
581.14	433.00
581.30	379.17
581.46	351.08
581.62	454.06
581.78	423.64
581.94	465.77
582.10	430.66
582.26	437.68
582.42	395.55
582.58	430.66
582.74	393.21
582.90	339.38
583.06	444.70
583.22	421.30
583.38	346.40
583.54	402.57
583.70	447.04
583.86	418.96
584.02	433.00
584.18	447.04
584.34	404.91
584.50	440.02
584.66	437.68
584.82	461.09
584.98	358.10
585.14	395.55
585.30	472.79
585.46	402.57
585.62	386.19
585.78	372.15
585.94	386.19
586.10	447.04
586.26	414.27
586.42	468.11
586.58	395.55
586.74	411.93
586.90	372.15
587.06	339.38
587.22	423.64
587.38	444.70
587.54	437.68
587.70	428.32
587.86	421.30
588.02	435.34
588.18	442.36
588.34	383.85
588.49	358.10
588.65	362.78
588.81	461.09
588.97	479.81
589.13	390.87
589.29	433.00
589.45	433.00
589.61	402.57
589.77	451.72
589.93	451.72
590.08	372.15
590.24	440.02
590.40	470.45
590.56	416.62
590.72	416.62
590.88	409.59
591.04	489.17
591.20	353.42
591.35	477.47
591.51	437.68
591.67	374.49
591.83	418.96
591.99	437.68
592.15	397.89
592.31	428.32
592.46	430.66
592.62	477.47
592.78	442.36
592.94	430.66
593.10	421.30
593.26	332.36
593.41	472.79
593.57	456.40
593.73	463.43
593.89	465.77
594.05	414.27
594.20	379.17
594.36	456.40
594.52	423.64
594.68	383.85
594.84	435.34
594.99	510.24
595.15	418.96
595.31	372.15
595.47	428.32
595.62	381.51
595.78	337.04
595.94	407.25
596.10	425.98
596.25	404.91
596.41	393.21
596.57	372.15
596.73	322.99
596.88	454.06
597.04	463.43
597.20	315.97
597.36	402.57
597.51	421.30
597.67	498.53
597.83	416.62
597.99	402.57
598.14	411.93
598.30	458.74
598.46	421.30
598.61	421.30
598.77	404.91
598.93	402.57
599.09	447.04
599.24	444.70
599.40	475.13
599.56	409.59
599.71	449.38
599.87	386.19
600.03	491.51
600.18	402.57
600.34	486.83
600.50	404.91
600.65	407.25
600.81	449.38
600.97	496.19
601.12	367.46
601.28	442.36
601.44	414.27
601.59	369.80
601.75	386.19
601.91	395.55
602.06	421.30
602.22	486.83
602.37	472.79
602.53	444.70
602.69	367.46
602.84	416.62
603.00	407.25
603.16	468.11
603.31	493.85
603.47	388.53
603.62	348.74
603.78	390.87
603.94	449.38
604.09	386.19
604.25	444.70
604.40	414.27
604.56	428.32
604.71	386.19
604.87	379.17
605.03	416.62
605.18	390.87
605.34	440.02
605.49	491.51
605.65	404.91
605.80	386.19
605.96	397.89
606.12	407.25
606.27	444.70
606.43	402.57
606.58	388.53
606.74	400.23
606.89	447.04
607.05	433.00
607.20	411.93
607.36	423.64
607.51	344.06
607.67	454.06
607.82	374.49
607.98	397.89
608.13	337.04
608.29	414.27
608.44	463.43
608.60	493.85
608.75	486.83
608.91	433.00
609.06	472.79
609.22	447.04
609.37	421.30
609.53	437.68
609.68	402.57
609.84	386.19
609.99	444.70
610.15	376.83
