SpectraSuite Data File
++++++++++++++++++++++++++++++++++++
Date: Fri Oct 25 12:10:35 EDT 2013
User: price-jones
Dark Spectrum Present: No
Reference Spectrum Present: No
Number of Sampled Component Spectra: 1
Spectrometers: USB2+H05261
Integration Time (usec): 100000 (USB2+H05261)
Spectra Averaged: 1 (USB2+H05261)
Boxcar Smoothing: 0 (USB2+H05261)
Correct for Electrical Dark: No (USB2+H05261)
Strobe/Lamp Enabled: No (USB2+H05261)
Correct for Detector Non-linearity: No (USB2+H05261)
Correct for Stray Light: No (USB2+H05261)
Number of Pixels in Processed Spectrum: 2048
>>>>>Begin Processed Spectral Data<<<<<
365.73	367.46
365.92	367.46
366.12	367.46
366.32	353.42
366.52	290.23
366.72	297.25
366.91	269.16
367.11	290.23
367.31	243.42
367.51	280.86
367.70	245.76
367.90	203.63
368.10	201.29
368.30	306.61
368.49	222.35
368.69	248.10
368.89	351.08
369.09	243.42
369.28	344.06
369.48	259.80
369.68	271.50
369.87	217.67
370.07	344.06
370.27	337.04
370.47	311.29
370.66	287.89
370.86	381.51
371.06	362.78
371.25	388.53
371.45	337.04
371.65	414.27
371.84	393.21
372.04	400.23
372.24	383.85
372.44	407.25
372.63	332.36
372.83	381.51
373.03	365.12
373.22	374.49
373.42	409.59
373.62	437.68
373.81	383.85
374.01	383.85
374.21	414.27
374.40	414.27
374.60	477.47
374.79	409.59
374.99	404.91
375.19	449.38
375.38	421.30
375.58	423.64
375.78	430.66
375.97	348.74
376.17	454.06
376.37	369.80
376.56	407.25
376.76	425.98
376.95	390.87
377.15	404.91
377.35	407.25
377.54	376.83
377.74	437.68
377.93	472.79
378.13	369.80
378.33	390.87
378.52	411.93
378.72	390.87
378.91	423.64
379.11	433.00
379.31	444.70
379.50	395.55
379.70	430.66
379.89	402.57
380.09	353.42
380.28	376.83
380.48	428.32
380.68	411.93
380.87	334.70
381.07	416.62
381.26	390.87
381.46	449.38
381.65	458.74
381.85	362.78
382.04	376.83
382.24	365.12
382.43	337.04
382.63	299.59
382.83	381.51
383.02	393.21
383.22	374.49
383.41	435.34
383.61	468.11
383.80	383.85
384.00	358.10
384.19	367.46
384.39	402.57
384.58	407.25
384.78	388.53
384.97	489.17
385.17	376.83
385.36	376.83
385.56	454.06
385.75	325.33
385.95	416.62
386.14	472.79
386.34	388.53
386.53	369.80
386.72	381.51
386.92	414.27
387.11	379.17
387.31	390.87
387.50	390.87
387.70	362.78
387.89	409.59
388.09	348.74
388.28	369.80
388.48	400.23
388.67	409.59
388.86	397.89
389.06	365.12
389.25	381.51
389.45	390.87
389.64	421.30
389.84	407.25
390.03	376.83
390.22	339.38
390.42	475.13
390.61	468.11
390.81	397.89
391.00	407.25
391.19	428.32
391.39	386.19
391.58	433.00
391.78	397.89
391.97	381.51
392.16	442.36
392.36	402.57
392.55	430.66
392.75	433.00
392.94	362.78
393.13	348.74
393.33	369.80
393.52	416.62
393.71	491.51
393.91	372.15
394.10	440.02
394.29	411.93
394.49	430.66
394.68	390.87
394.88	421.30
395.07	435.34
395.26	411.93
395.46	425.98
395.65	393.21
395.84	418.96
396.04	458.74
396.23	386.19
396.42	458.74
396.62	435.34
396.81	409.59
397.00	421.30
397.19	388.53
397.39	425.98
397.58	433.00
397.77	367.46
397.97	409.59
398.16	461.09
398.35	479.81
398.55	365.12
398.74	372.15
398.93	402.57
399.12	365.12
399.32	409.59
399.51	395.55
399.70	362.78
399.90	423.64
400.09	435.34
400.28	440.02
400.47	397.89
400.67	451.72
400.86	372.15
401.05	388.53
401.24	442.36
401.44	428.32
401.63	376.83
401.82	372.15
402.01	411.93
402.21	358.10
402.40	451.72
402.59	440.02
402.78	409.59
402.97	353.42
403.17	299.59
403.36	458.74
403.55	425.98
403.74	411.93
403.93	372.15
404.13	510.24
404.32	379.17
404.51	395.55
404.70	407.25
404.89	442.36
405.09	430.66
405.28	383.85
405.47	454.06
405.66	418.96
405.85	414.27
406.05	468.11
406.24	372.15
406.43	440.02
406.62	376.83
406.81	442.36
407.00	496.19
407.20	463.43
407.39	348.74
407.58	456.40
407.77	440.02
407.96	362.78
408.15	369.80
408.34	388.53
408.54	416.62
408.73	498.53
408.92	456.40
409.11	416.62
409.30	423.64
409.49	374.49
409.68	430.66
409.87	416.62
410.07	395.55
410.26	428.32
410.45	404.91
410.64	437.68
410.83	348.74
411.02	442.36
411.21	472.79
411.40	409.59
411.59	428.32
411.78	393.21
411.98	395.55
412.17	388.53
412.36	390.87
412.55	421.30
412.74	397.89
412.93	449.38
413.12	402.57
413.31	290.23
413.50	390.87
413.69	423.64
413.88	479.81
414.07	367.46
414.26	367.46
414.45	416.62
414.64	418.96
414.83	421.30
415.02	397.89
415.22	442.36
415.41	407.25
415.60	395.55
415.79	425.98
415.98	407.25
416.17	425.98
416.36	390.87
416.55	423.64
416.74	344.06
416.93	442.36
417.12	458.74
417.31	365.12
417.50	393.21
417.69	428.32
417.88	360.44
418.07	400.23
418.26	411.93
418.45	414.27
418.64	454.06
418.83	423.64
419.02	437.68
419.21	411.93
419.39	411.93
419.58	381.51
419.77	454.06
419.96	407.25
420.15	500.87
420.34	421.30
420.53	381.51
420.72	369.80
420.91	409.59
421.10	409.59
421.29	472.79
421.48	376.83
421.67	440.02
421.86	376.83
422.05	418.96
422.24	355.76
422.43	468.11
422.61	372.15
422.80	390.87
422.99	395.55
423.18	383.85
423.37	360.44
423.56	348.74
423.75	433.00
423.94	440.02
424.13	447.04
424.32	468.11
424.50	479.81
424.69	393.21
424.88	407.25
425.07	381.51
425.26	374.49
425.45	402.57
425.64	348.74
425.83	397.89
426.01	458.74
426.20	341.72
426.39	372.15
426.58	416.62
426.77	400.23
426.96	454.06
427.15	327.68
427.33	379.17
427.52	374.49
427.71	369.80
427.90	402.57
428.09	428.32
428.28	355.76
428.46	400.23
428.65	402.57
428.84	400.23
429.03	491.51
429.22	360.44
429.40	418.96
429.59	369.80
429.78	355.76
429.97	430.66
430.16	407.25
430.34	437.68
430.53	390.87
430.72	477.47
430.91	461.09
431.10	365.12
431.28	425.98
431.47	468.11
431.66	479.81
431.85	360.44
432.03	348.74
432.22	475.13
432.41	404.91
432.60	484.49
432.79	404.91
432.97	379.17
433.16	353.42
433.35	383.85
433.54	479.81
433.72	362.78
433.91	428.32
434.10	400.23
434.28	475.13
434.47	411.93
434.66	468.11
434.85	383.85
435.03	423.64
435.22	397.89
435.41	423.64
435.59	472.79
435.78	491.51
435.97	454.06
436.16	411.93
436.34	407.25
436.53	468.11
436.72	369.80
436.90	444.70
437.09	461.09
437.28	442.36
437.46	374.49
437.65	447.04
437.84	376.83
438.02	395.55
438.21	425.98
438.40	423.64
438.58	344.06
438.77	489.17
438.96	444.70
439.14	393.21
439.33	440.02
439.52	397.89
439.70	461.09
439.89	393.21
440.08	414.27
440.26	430.66
440.45	416.62
440.63	409.59
440.82	376.83
441.01	330.02
441.19	369.80
441.38	339.38
441.57	433.00
441.75	379.17
441.94	463.43
442.12	428.32
442.31	414.27
442.50	421.30
442.68	339.38
442.87	423.64
443.05	418.96
443.24	428.32
443.43	367.46
443.61	470.45
443.80	416.62
443.98	407.25
444.17	395.55
444.35	421.30
444.54	433.00
444.73	414.27
444.91	479.81
445.10	400.23
445.28	423.64
445.47	423.64
445.65	330.02
445.84	402.57
446.02	425.98
446.21	489.17
446.39	428.32
446.58	423.64
446.77	428.32
446.95	369.80
447.14	435.34
447.32	421.30
447.51	465.77
447.69	397.89
447.88	433.00
448.06	409.59
448.25	369.80
448.43	416.62
448.62	458.74
448.80	442.36
448.99	425.98
449.17	395.55
449.36	395.55
449.54	386.19
449.73	402.57
449.91	428.32
450.10	421.30
450.28	468.11
450.46	484.49
450.65	404.91
450.83	472.79
451.02	407.25
451.20	381.51
451.39	381.51
451.57	428.32
451.76	369.80
451.94	435.34
452.13	418.96
452.31	425.98
452.49	381.51
452.68	376.83
452.86	369.80
453.05	468.11
453.23	393.21
453.42	400.23
453.60	416.62
453.78	442.36
453.97	414.27
454.15	440.02
454.34	444.70
454.52	393.21
454.70	458.74
454.89	411.93
455.07	386.19
455.26	421.30
455.44	477.47
455.62	442.36
455.81	381.51
455.99	395.55
456.17	440.02
456.36	390.87
456.54	381.51
456.73	360.44
456.91	414.27
457.09	390.87
457.28	454.06
457.46	454.06
457.64	416.62
457.83	358.10
458.01	463.43
458.19	482.15
458.38	430.66
458.56	433.00
458.74	379.17
458.93	430.66
459.11	404.91
459.29	393.21
459.48	440.02
459.66	435.34
459.84	383.85
460.03	461.09
460.21	404.91
460.39	409.59
460.57	423.64
460.76	376.83
460.94	383.85
461.12	451.72
461.31	573.43
461.49	440.02
461.67	421.30
461.85	369.80
462.04	402.57
462.22	753.65
462.40	454.06
462.59	400.23
462.77	355.76
462.95	433.00
463.13	351.08
463.32	440.02
463.50	402.57
463.68	444.70
463.86	484.49
464.05	435.34
464.23	435.34
464.41	428.32
464.59	400.23
464.78	402.57
464.96	451.72
465.14	449.38
465.32	341.72
465.50	407.25
465.69	400.23
465.87	430.66
466.05	454.06
466.23	390.87
466.41	468.11
466.60	400.23
466.78	411.93
466.96	447.04
467.14	397.89
467.32	435.34
467.51	435.34
467.69	425.98
467.87	433.00
468.05	444.70
468.23	470.45
468.41	428.32
468.60	407.25
468.78	372.15
468.96	402.57
469.14	425.98
469.32	425.98
469.50	442.36
469.69	454.06
469.87	454.06
470.05	482.15
470.23	393.21
470.41	353.42
470.59	386.19
470.77	442.36
470.95	383.85
471.14	440.02
471.32	433.00
471.50	376.83
471.68	353.42
471.86	376.83
472.04	395.55
472.22	435.34
472.40	404.91
472.58	491.51
472.77	409.59
472.95	404.91
473.13	421.30
473.31	449.38
473.49	430.66
473.67	369.80
473.85	435.34
474.03	465.77
474.21	465.77
474.39	416.62
474.57	386.19
474.75	484.49
474.93	423.64
475.12	451.72
475.30	388.53
475.48	423.64
475.66	390.87
475.84	414.27
476.02	388.53
476.20	435.34
476.38	421.30
476.56	454.06
476.74	369.80
476.92	430.66
477.10	407.25
477.28	430.66
477.46	428.32
477.64	475.13
477.82	444.70
478.00	423.64
478.18	402.57
478.36	411.93
478.54	320.65
478.72	447.04
478.90	388.53
479.08	379.17
479.26	444.70
479.44	409.59
479.62	402.57
479.80	358.10
479.98	433.00
480.16	475.13
480.34	477.47
480.52	339.38
480.70	468.11
480.88	430.66
481.06	400.23
481.24	404.91
481.41	400.23
481.59	411.93
481.77	423.64
481.95	463.43
482.13	477.47
482.31	402.57
482.49	344.06
482.67	397.89
482.85	489.17
483.03	421.30
483.21	423.64
483.39	458.74
483.57	397.89
483.74	437.68
483.92	461.09
484.10	381.51
484.28	409.59
484.46	528.96
484.64	362.78
484.82	353.42
485.00	325.33
485.18	454.06
485.35	402.57
485.53	369.80
485.71	465.77
485.89	346.40
486.07	386.19
486.25	444.70
486.43	465.77
486.61	484.49
486.78	400.23
486.96	388.53
487.14	400.23
487.32	461.09
487.50	425.98
487.68	456.40
487.85	421.30
488.03	353.42
488.21	425.98
488.39	339.38
488.57	400.23
488.75	402.57
488.92	564.07
489.10	409.59
489.28	461.09
489.46	367.46
489.64	416.62
489.81	404.91
489.99	407.25
490.17	423.64
490.35	407.25
490.53	386.19
490.70	383.85
490.88	390.87
491.06	428.32
491.24	435.34
491.41	463.43
491.59	433.00
491.77	397.89
491.95	409.59
492.13	393.21
492.30	397.89
492.48	386.19
492.66	393.21
492.84	358.10
493.01	421.30
493.19	414.27
493.37	416.62
493.54	430.66
493.72	395.55
493.90	461.09
494.08	393.21
494.25	447.04
494.43	383.85
494.61	397.89
494.79	379.17
494.96	435.34
495.14	404.91
495.32	416.62
495.49	433.00
495.67	379.17
495.85	339.38
496.02	388.53
496.20	451.72
496.38	500.87
496.55	402.57
496.73	454.06
496.91	332.36
497.09	351.08
497.26	414.27
497.44	402.57
497.62	418.96
497.79	372.15
497.97	418.96
498.14	355.76
498.32	428.32
498.50	425.98
498.67	418.96
498.85	479.81
499.03	407.25
499.20	353.42
499.38	369.80
499.56	355.76
499.73	442.36
499.91	456.40
500.08	447.04
500.26	376.83
500.44	390.87
500.61	421.30
500.79	435.34
500.97	395.55
501.14	454.06
501.32	365.12
501.49	369.80
501.67	475.13
501.84	369.80
502.02	472.79
502.20	470.45
502.37	489.17
502.55	482.15
502.72	358.10
502.90	435.34
503.07	362.78
503.25	472.79
503.43	421.30
503.60	414.27
503.78	433.00
503.95	421.30
504.13	451.72
504.30	416.62
504.48	414.27
504.65	414.27
504.83	374.49
505.01	409.59
505.18	404.91
505.36	433.00
505.53	437.68
505.71	397.89
505.88	402.57
506.06	369.80
506.23	409.59
506.41	397.89
506.58	362.78
506.76	365.12
506.93	390.87
507.11	444.70
507.28	456.40
507.46	395.55
507.63	383.85
507.81	372.15
507.98	372.15
508.16	477.47
508.33	358.10
508.50	390.87
508.68	447.04
508.85	411.93
509.03	402.57
509.20	425.98
509.38	472.79
509.55	461.09
509.73	442.36
509.90	416.62
510.08	404.91
510.25	346.40
510.42	468.11
510.60	374.49
510.77	393.21
510.95	395.55
511.12	465.77
511.30	489.17
511.47	409.59
511.64	433.00
511.82	369.80
511.99	440.02
512.17	440.02
512.34	393.21
512.51	388.53
512.69	425.98
512.86	435.34
513.04	360.44
513.21	425.98
513.38	435.34
513.56	454.06
513.73	376.83
513.90	397.89
514.08	425.98
514.25	416.62
514.43	334.70
514.60	393.21
514.77	400.23
514.95	325.33
515.12	383.85
515.29	369.80
515.47	430.66
515.64	386.19
515.81	379.17
515.99	397.89
516.16	428.32
516.33	461.09
516.51	353.42
516.68	358.10
516.85	423.64
517.03	482.15
517.20	358.10
517.37	383.85
517.54	433.00
517.72	407.25
517.89	383.85
518.06	442.36
518.24	442.36
518.41	489.17
518.58	444.70
518.75	383.85
518.93	421.30
519.10	421.30
519.27	379.17
519.45	463.43
519.62	390.87
519.79	482.15
519.96	421.30
520.14	379.17
520.31	458.74
520.48	435.34
520.65	358.10
520.83	411.93
521.00	400.23
521.17	416.62
521.34	362.78
521.52	418.96
521.69	428.32
521.86	330.02
522.03	388.53
522.20	433.00
522.38	397.89
522.55	456.40
522.72	339.38
522.89	465.77
523.07	493.85
523.24	433.00
523.41	397.89
523.58	444.70
523.75	374.49
523.92	379.17
524.10	425.98
524.27	407.25
524.44	355.76
524.61	454.06
524.78	397.89
524.96	477.47
525.13	407.25
525.30	400.23
525.47	447.04
525.64	402.57
525.81	409.59
525.98	430.66
526.16	454.06
526.33	400.23
526.50	447.04
526.67	376.83
526.84	411.93
527.01	435.34
527.18	458.74
527.36	400.23
527.53	383.85
527.70	430.66
527.87	397.89
528.04	463.43
528.21	404.91
528.38	404.91
528.55	388.53
528.72	374.49
528.89	428.32
529.07	360.44
529.24	360.44
529.41	470.45
529.58	358.10
529.75	402.57
529.92	416.62
530.09	388.53
530.26	388.53
530.43	376.83
530.60	369.80
530.77	379.17
530.94	433.00
531.11	442.36
531.28	423.64
531.46	409.59
531.63	313.63
531.80	430.66
531.97	521.94
532.14	461.09
532.31	461.09
532.48	409.59
532.65	454.06
532.82	463.43
532.99	383.85
533.16	400.23
533.33	355.76
533.50	348.74
533.67	416.62
533.84	423.64
534.01	425.98
534.18	414.27
534.35	383.85
534.52	318.31
534.69	447.04
534.86	430.66
535.03	456.40
535.20	456.40
535.37	425.98
535.54	397.89
535.71	465.77
535.88	454.06
536.05	479.81
536.22	444.70
536.38	386.19
536.55	482.15
536.72	409.59
536.89	360.44
537.06	435.34
537.23	411.93
537.40	395.55
537.57	397.89
537.74	461.09
537.91	442.36
538.08	421.30
538.25	369.80
538.42	374.49
538.59	489.17
538.75	369.80
538.92	456.40
539.09	416.62
539.26	407.25
539.43	489.17
539.60	475.13
539.77	428.32
539.94	404.91
540.11	425.98
540.28	437.68
540.44	414.27
540.61	374.49
540.78	388.53
540.95	421.30
541.12	409.59
541.29	390.87
541.46	461.09
541.62	388.53
541.79	400.23
541.96	423.64
542.13	435.34
542.30	421.30
542.47	435.34
542.63	402.57
542.80	447.04
542.97	416.62
543.14	390.87
543.31	500.87
543.48	407.25
543.64	435.34
543.81	355.76
543.98	353.42
544.15	379.17
544.32	456.40
544.48	430.66
544.65	430.66
544.82	414.27
544.99	440.02
545.16	461.09
545.32	402.57
545.49	430.66
545.66	365.12
545.83	451.72
546.00	428.32
546.16	447.04
546.33	421.30
546.50	437.68
546.67	449.38
546.83	470.45
547.00	421.30
547.17	346.40
547.34	369.80
547.50	470.45
547.67	344.06
547.84	475.13
548.00	395.55
548.17	409.59
548.34	388.53
548.51	451.72
548.67	407.25
548.84	409.59
549.01	379.17
549.18	437.68
549.34	416.62
549.51	437.68
549.68	369.80
549.84	386.19
550.01	390.87
550.18	566.41
550.34	454.06
550.51	416.62
550.68	442.36
550.84	376.83
551.01	461.09
551.18	402.57
551.34	390.87
551.51	395.55
551.68	444.70
551.84	430.66
552.01	472.79
552.18	465.77
552.34	400.23
552.51	477.47
552.68	442.36
552.84	442.36
553.01	454.06
553.18	444.70
553.34	374.49
553.51	383.85
553.67	402.57
553.84	440.02
554.01	461.09
554.17	395.55
554.34	393.21
554.51	409.59
554.67	430.66
554.84	365.12
555.00	365.12
555.17	454.06
555.33	470.45
555.50	484.49
555.67	414.27
555.83	449.38
556.00	372.15
556.16	540.66
556.33	451.72
556.50	411.93
556.66	566.41
556.83	437.68
556.99	397.89
557.16	379.17
557.32	388.53
557.49	397.89
557.65	388.53
557.82	433.00
557.98	411.93
558.15	423.64
558.32	402.57
558.48	400.23
558.65	423.64
558.81	376.83
558.98	465.77
559.14	447.04
559.31	395.55
559.47	430.66
559.64	447.04
559.80	461.09
559.97	475.13
560.13	428.32
560.30	491.51
560.46	393.21
560.63	379.17
560.79	437.68
560.96	409.59
561.12	353.42
561.29	444.70
561.45	414.27
561.61	486.83
561.78	505.56
561.94	374.49
562.11	423.64
562.27	458.74
562.44	383.85
562.60	454.06
562.77	442.36
562.93	458.74
563.10	400.23
563.26	400.23
563.42	409.59
563.59	425.98
563.75	472.79
563.92	428.32
564.08	442.36
564.24	369.80
564.41	470.45
564.57	449.38
564.74	421.30
564.90	386.19
565.07	395.55
565.23	393.21
565.39	330.02
565.56	442.36
565.72	433.00
565.88	458.74
566.05	390.87
566.21	390.87
566.38	369.80
566.54	423.64
566.70	388.53
566.87	395.55
567.03	362.78
567.19	313.63
567.36	433.00
567.52	400.23
567.68	388.53
567.85	372.15
568.01	414.27
568.17	395.55
568.34	348.74
568.50	479.81
568.66	390.87
568.83	461.09
568.99	365.12
569.15	451.72
569.32	435.34
569.48	458.74
569.64	353.42
569.81	503.22
569.97	414.27
570.13	390.87
570.30	374.49
570.46	468.11
570.62	374.49
570.78	433.00
570.95	435.34
571.11	425.98
571.27	409.59
571.43	358.10
571.60	449.38
571.76	449.38
571.92	416.62
572.09	451.72
572.25	425.98
572.41	425.98
572.57	416.62
572.74	447.04
572.90	353.42
573.06	381.51
573.22	362.78
573.38	425.98
573.55	433.00
573.71	390.87
573.87	447.04
574.03	400.23
574.20	395.55
574.36	470.45
574.52	414.27
574.68	444.70
574.84	442.36
575.01	433.00
575.17	379.17
575.33	313.63
575.49	456.40
575.65	472.79
575.82	465.77
575.98	486.83
576.14	463.43
576.30	416.62
576.46	428.32
576.62	430.66
576.79	444.70
576.95	491.51
577.11	379.17
577.27	358.10
577.43	486.83
577.59	444.70
577.75	472.79
577.92	493.85
578.08	348.74
578.24	423.64
578.40	519.60
578.56	482.15
578.72	475.13
578.88	360.44
579.04	414.27
579.21	489.17
579.37	334.70
579.53	425.98
579.69	411.93
579.85	416.62
580.01	433.00
580.17	360.44
580.33	435.34
580.49	437.68
580.65	416.62
580.82	430.66
580.98	376.83
581.14	402.57
581.30	449.38
581.46	404.91
581.62	482.15
581.78	344.06
581.94	437.68
582.10	435.34
582.26	395.55
582.42	395.55
582.58	449.38
582.74	393.21
582.90	386.19
583.06	344.06
583.22	411.93
583.38	393.21
583.54	411.93
583.70	472.79
583.86	386.19
584.02	437.68
584.18	465.77
584.34	379.17
584.50	400.23
584.66	435.34
584.82	365.12
584.98	376.83
585.14	433.00
585.30	433.00
585.46	418.96
585.62	409.59
585.78	421.30
585.94	430.66
586.10	423.64
586.26	397.89
586.42	465.77
586.58	456.40
586.74	404.91
586.90	477.47
587.06	416.62
587.22	369.80
587.38	393.21
587.54	393.21
587.70	521.94
587.86	442.36
588.02	404.91
588.18	388.53
588.34	479.81
588.49	414.27
588.65	355.76
588.81	407.25
588.97	376.83
589.13	442.36
589.29	454.06
589.45	414.27
589.61	423.64
589.77	449.38
589.93	374.49
590.08	416.62
590.24	388.53
590.40	435.34
590.56	461.09
590.72	425.98
590.88	351.08
591.04	369.80
591.20	395.55
591.35	430.66
591.51	414.27
591.67	379.17
591.83	372.15
591.99	514.92
592.15	393.21
592.31	458.74
592.46	411.93
592.62	433.00
592.78	353.42
592.94	341.72
593.10	416.62
593.26	454.06
593.41	444.70
593.57	397.89
593.73	360.44
593.89	458.74
594.05	402.57
594.20	435.34
594.36	421.30
594.52	414.27
594.68	339.38
594.84	409.59
594.99	414.27
595.15	456.40
595.31	437.68
595.47	496.19
595.62	409.59
595.78	447.04
595.94	433.00
596.10	489.17
596.25	372.15
596.41	433.00
596.57	423.64
596.73	456.40
596.88	386.19
597.04	386.19
597.20	465.77
597.36	388.53
597.51	390.87
597.67	425.98
597.83	418.96
597.99	386.19
598.14	315.97
598.30	400.23
598.46	463.43
598.61	414.27
598.77	463.43
598.93	428.32
599.09	442.36
599.24	409.59
599.40	421.30
599.56	437.68
599.71	440.02
599.87	451.72
600.03	379.17
600.18	395.55
600.34	409.59
600.50	447.04
600.65	423.64
600.81	390.87
600.97	402.57
601.12	461.09
601.28	454.06
601.44	411.93
601.59	437.68
601.75	458.74
601.91	414.27
602.06	379.17
602.22	498.53
602.37	451.72
602.53	404.91
602.69	489.17
602.84	383.85
603.00	374.49
603.16	360.44
603.31	390.87
603.47	423.64
603.62	365.12
603.78	376.83
603.94	416.62
604.09	442.36
604.25	430.66
604.40	470.45
604.56	395.55
604.71	440.02
604.87	400.23
605.03	402.57
605.18	355.76
605.34	388.53
605.49	435.34
605.65	440.02
605.80	372.15
605.96	397.89
606.12	454.06
606.27	386.19
606.43	449.38
606.58	531.30
606.74	479.81
606.89	428.32
607.05	440.02
607.20	400.23
607.36	376.83
607.51	421.30
607.67	409.59
607.82	390.87
607.98	402.57
608.13	458.74
608.29	447.04
608.44	386.19
608.60	435.34
608.75	451.72
608.91	397.89
609.06	423.64
609.22	465.77
609.37	435.34
609.53	409.59
609.68	388.53
609.84	390.87
609.99	402.57
610.15	404.91
