SpectraSuite Data File
++++++++++++++++++++++++++++++++++++
Date: Fri Oct 25 12:11:44 EDT 2013
User: price-jones
Dark Spectrum Present: No
Reference Spectrum Present: No
Number of Sampled Component Spectra: 1
Spectrometers: USB2+H05261
Integration Time (usec): 100000 (USB2+H05261)
Spectra Averaged: 1 (USB2+H05261)
Boxcar Smoothing: 0 (USB2+H05261)
Correct for Electrical Dark: No (USB2+H05261)
Strobe/Lamp Enabled: No (USB2+H05261)
Correct for Detector Non-linearity: No (USB2+H05261)
Correct for Stray Light: No (USB2+H05261)
Number of Pixels in Processed Spectrum: 2048
>>>>>Begin Processed Spectral Data<<<<<
365.73	362.78
365.92	362.78
366.12	362.78
366.32	325.33
366.52	227.03
366.72	257.46
366.91	241.08
367.11	285.55
367.31	212.99
367.51	229.37
367.70	283.20
367.90	250.44
368.10	248.10
368.30	212.99
368.49	257.46
368.69	320.65
368.89	248.10
369.09	168.52
369.28	196.60
369.48	269.16
369.68	264.48
369.87	318.31
370.07	344.06
370.27	290.23
370.47	276.18
370.66	290.23
370.86	355.76
371.06	355.76
371.25	430.66
371.45	369.80
371.65	425.98
371.84	369.80
372.04	337.04
372.24	381.51
372.44	322.99
372.63	276.18
372.83	409.59
373.03	407.25
373.22	458.74
373.42	433.00
373.62	397.89
373.81	397.89
374.01	482.15
374.21	440.02
374.40	409.59
374.60	447.04
374.79	423.64
374.99	400.23
375.19	376.83
375.38	437.68
375.58	458.74
375.78	437.68
375.97	465.77
376.17	461.09
376.37	425.98
376.56	491.51
376.76	425.98
376.95	390.87
377.15	444.70
377.35	376.83
377.54	362.78
377.74	390.87
377.93	414.27
378.13	409.59
378.33	397.89
378.52	404.91
378.72	407.25
378.91	407.25
379.11	381.51
379.31	458.74
379.50	322.99
379.70	456.40
379.89	421.30
380.09	395.55
380.28	369.80
380.48	360.44
380.68	418.96
380.87	428.32
381.07	407.25
381.26	425.98
381.46	404.91
381.65	418.96
381.85	304.27
382.04	386.19
382.24	386.19
382.43	414.27
382.63	428.32
382.83	404.91
383.02	374.49
383.22	437.68
383.41	409.59
383.61	374.49
383.80	428.32
384.00	440.02
384.19	360.44
384.39	421.30
384.58	407.25
384.78	383.85
384.97	362.78
385.17	416.62
385.36	397.89
385.56	358.10
385.75	449.38
385.95	355.76
386.14	390.87
386.34	395.55
386.53	395.55
386.72	372.15
386.92	444.70
387.11	451.72
387.31	456.40
387.50	416.62
387.70	425.98
387.89	369.80
388.09	332.36
388.28	376.83
388.48	353.42
388.67	491.51
388.86	376.83
389.06	397.89
389.25	393.21
389.45	374.49
389.64	425.98
389.84	414.27
390.03	381.51
390.22	393.21
390.42	369.80
390.61	411.93
390.81	381.51
391.00	374.49
391.19	454.06
391.39	456.40
391.58	437.68
391.78	418.96
391.97	397.89
392.16	433.00
392.36	423.64
392.55	397.89
392.75	416.62
392.94	372.15
393.13	402.57
393.33	339.38
393.52	388.53
393.71	425.98
393.91	442.36
394.10	519.60
394.29	346.40
394.49	416.62
394.68	404.91
394.88	416.62
395.07	437.68
395.26	444.70
395.46	442.36
395.65	447.04
395.84	372.15
396.04	425.98
396.23	358.10
396.42	330.02
396.62	411.93
396.81	423.64
397.00	475.13
397.19	454.06
397.39	393.21
397.58	425.98
397.77	395.55
397.97	418.96
398.16	402.57
398.35	365.12
398.55	395.55
398.74	400.23
398.93	411.93
399.12	383.85
399.32	414.27
399.51	386.19
399.70	479.81
399.90	397.89
400.09	418.96
400.28	339.38
400.47	435.34
400.67	503.22
400.86	376.83
401.05	395.55
401.24	393.21
401.44	428.32
401.63	397.89
401.82	372.15
402.01	376.83
402.21	372.15
402.40	400.23
402.59	390.87
402.78	456.40
402.97	355.76
403.17	451.72
403.36	418.96
403.55	425.98
403.74	376.83
403.93	416.62
404.13	404.91
404.32	383.85
404.51	390.87
404.70	372.15
404.89	416.62
405.09	423.64
405.28	374.49
405.47	404.91
405.66	463.43
405.85	376.83
406.05	351.08
406.24	411.93
406.43	451.72
406.62	435.34
406.81	414.27
407.00	468.11
407.20	409.59
407.39	414.27
407.58	409.59
407.77	465.77
407.96	451.72
408.15	477.47
408.34	435.34
408.54	449.38
408.73	369.80
408.92	433.00
409.11	369.80
409.30	435.34
409.49	362.78
409.68	411.93
409.87	433.00
410.07	423.64
410.26	496.19
410.45	395.55
410.64	465.77
410.83	425.98
411.02	444.70
411.21	390.87
411.40	339.38
411.59	458.74
411.78	512.58
411.98	360.44
412.17	444.70
412.36	346.40
412.55	393.21
412.74	416.62
412.93	416.62
413.12	421.30
413.31	393.21
413.50	468.11
413.69	376.83
413.88	461.09
414.07	472.79
414.26	456.40
414.45	449.38
414.64	444.70
414.83	416.62
415.02	386.19
415.22	440.02
415.41	411.93
415.60	402.57
415.79	442.36
415.98	395.55
416.17	404.91
416.36	435.34
416.55	362.78
416.74	416.62
416.93	444.70
417.12	433.00
417.31	423.64
417.50	425.98
417.69	451.72
417.88	411.93
418.07	416.62
418.26	395.55
418.45	421.30
418.64	404.91
418.83	407.25
419.02	519.60
419.21	386.19
419.39	397.89
419.58	411.93
419.77	416.62
419.96	369.80
420.15	449.38
420.34	400.23
420.53	348.74
420.72	451.72
420.91	409.59
421.10	383.85
421.29	313.63
421.48	374.49
421.67	468.11
421.86	411.93
422.05	444.70
422.24	386.19
422.43	493.85
422.61	423.64
422.80	369.80
422.99	407.25
423.18	367.46
423.37	418.96
423.56	404.91
423.75	428.32
423.94	400.23
424.13	402.57
424.32	442.36
424.50	402.57
424.69	423.64
424.88	367.46
425.07	407.25
425.26	402.57
425.45	407.25
425.64	423.64
425.83	390.87
426.01	425.98
426.20	400.23
426.39	435.34
426.58	433.00
426.77	440.02
426.96	463.43
427.15	435.34
427.33	362.78
427.52	421.30
427.71	435.34
427.90	402.57
428.09	440.02
428.28	390.87
428.46	308.95
428.65	421.30
428.84	383.85
429.03	400.23
429.22	348.74
429.40	468.11
429.59	454.06
429.78	442.36
429.97	397.89
430.16	400.23
430.34	423.64
430.53	404.91
430.72	390.87
430.91	454.06
431.10	404.91
431.28	435.34
431.47	416.62
431.66	449.38
431.85	393.21
432.03	376.83
432.22	407.25
432.41	348.74
432.60	418.96
432.79	362.78
432.97	461.09
433.16	386.19
433.35	393.21
433.54	388.53
433.72	404.91
433.91	430.66
434.10	418.96
434.28	475.13
434.47	437.68
434.66	442.36
434.85	369.80
435.03	409.59
435.22	409.59
435.41	425.98
435.59	461.09
435.78	425.98
435.97	442.36
436.16	416.62
436.34	437.68
436.53	379.17
436.72	470.45
436.90	470.45
437.09	414.27
437.28	442.36
437.46	386.19
437.65	407.25
437.84	503.22
438.02	463.43
438.21	435.34
438.40	393.21
438.58	360.44
438.77	367.46
438.96	374.49
439.14	451.72
439.33	526.62
439.52	365.12
439.70	393.21
439.89	437.68
440.08	491.51
440.26	454.06
440.45	395.55
440.63	451.72
440.82	458.74
441.01	435.34
441.19	404.91
441.38	379.17
441.57	470.45
441.75	423.64
441.94	315.97
442.12	414.27
442.31	374.49
442.50	362.78
442.68	433.00
442.87	433.00
443.05	423.64
443.24	425.98
443.43	477.47
443.61	386.19
443.80	442.36
443.98	416.62
444.17	418.96
444.35	433.00
444.54	428.32
444.73	362.78
444.91	383.85
445.10	395.55
445.28	472.79
445.47	477.47
445.65	369.80
445.84	416.62
446.02	430.66
446.21	390.87
446.39	437.68
446.58	463.43
446.77	454.06
446.95	409.59
447.14	463.43
447.32	397.89
447.51	397.89
447.69	369.80
447.88	463.43
448.06	451.72
448.25	421.30
448.43	465.77
448.62	421.30
448.80	383.85
448.99	430.66
449.17	416.62
449.36	477.47
449.54	477.47
449.73	416.62
449.91	421.30
450.10	397.89
450.28	475.13
450.46	465.77
450.65	351.08
450.83	477.47
451.02	346.40
451.20	376.83
451.39	360.44
451.57	437.68
451.76	400.23
451.94	451.72
452.13	430.66
452.31	435.34
452.49	409.59
452.68	468.11
452.86	440.02
453.05	470.45
453.23	423.64
453.42	351.08
453.60	383.85
453.78	341.72
453.97	484.49
454.15	313.63
454.34	358.10
454.52	360.44
454.70	428.32
454.89	404.91
455.07	482.15
455.26	484.49
455.44	411.93
455.62	379.17
455.81	351.08
455.99	407.25
456.17	442.36
456.36	402.57
456.54	374.49
456.73	390.87
456.91	423.64
457.09	496.19
457.28	433.00
457.46	414.27
457.64	416.62
457.83	423.64
458.01	383.85
458.19	449.38
458.38	407.25
458.56	423.64
458.74	339.38
458.93	430.66
459.11	397.89
459.29	397.89
459.48	454.06
459.66	433.00
459.84	435.34
460.03	507.90
460.21	444.70
460.39	435.34
460.57	418.96
460.76	444.70
460.94	409.59
461.12	444.70
461.31	433.00
461.49	505.56
461.67	379.17
461.85	374.49
462.04	465.77
462.22	765.36
462.40	430.66
462.59	444.70
462.77	393.21
462.95	430.66
463.13	341.72
463.32	407.25
463.50	411.93
463.68	353.42
463.86	393.21
464.05	388.53
464.23	484.49
464.41	458.74
464.59	339.38
464.78	430.66
464.96	430.66
465.14	400.23
465.32	374.49
465.50	299.59
465.69	437.68
465.87	393.21
466.05	374.49
466.23	418.96
466.41	421.30
466.60	503.22
466.78	458.74
466.96	430.66
467.14	479.81
467.32	407.25
467.51	454.06
467.69	400.23
467.87	402.57
468.05	367.46
468.23	442.36
468.41	409.59
468.60	376.83
468.78	381.51
468.96	421.30
469.14	400.23
469.32	351.08
469.50	414.27
469.69	414.27
469.87	388.53
470.05	407.25
470.23	500.87
470.41	409.59
470.59	404.91
470.77	451.72
470.95	421.30
471.14	355.76
471.32	449.38
471.50	442.36
471.68	390.87
471.86	409.59
472.04	465.77
472.22	465.77
472.40	451.72
472.58	386.19
472.77	390.87
472.95	374.49
473.13	442.36
473.31	395.55
473.49	397.89
473.67	386.19
473.85	409.59
474.03	421.30
474.21	402.57
474.39	374.49
474.57	472.79
474.75	353.42
474.93	365.12
475.12	428.32
475.30	393.21
475.48	456.40
475.66	447.04
475.84	397.89
476.02	477.47
476.20	414.27
476.38	381.51
476.56	447.04
476.74	402.57
476.92	416.62
477.10	416.62
477.28	379.17
477.46	372.15
477.64	423.64
477.82	442.36
478.00	496.19
478.18	334.70
478.36	442.36
478.54	425.98
478.72	442.36
478.90	411.93
479.08	468.11
479.26	468.11
479.44	404.91
479.62	414.27
479.80	348.74
479.98	479.81
480.16	376.83
480.34	437.68
480.52	454.06
480.70	423.64
480.88	390.87
481.06	369.80
481.24	447.04
481.41	433.00
481.59	409.59
481.77	454.06
481.95	411.93
482.13	435.34
482.31	390.87
482.49	390.87
482.67	430.66
482.85	402.57
483.03	479.81
483.21	442.36
483.39	423.64
483.57	388.53
483.74	409.59
483.92	437.68
484.10	369.80
484.28	395.55
484.46	482.15
484.64	416.62
484.82	433.00
485.00	400.23
485.18	416.62
485.35	454.06
485.53	435.34
485.71	468.11
485.89	381.51
486.07	393.21
486.25	496.19
486.43	400.23
486.61	402.57
486.78	442.36
486.96	498.53
487.14	411.93
487.32	428.32
487.50	428.32
487.68	449.38
487.85	386.19
488.03	442.36
488.21	528.96
488.39	435.34
488.57	472.79
488.75	390.87
488.92	498.53
489.10	423.64
489.28	472.79
489.46	418.96
489.64	449.38
489.81	463.43
489.99	468.11
490.17	428.32
490.35	430.66
490.53	418.96
490.70	381.51
490.88	463.43
491.06	404.91
491.24	435.34
491.41	463.43
491.59	435.34
491.77	433.00
491.95	512.58
492.13	386.19
492.30	416.62
492.48	409.59
492.66	451.72
492.84	390.87
493.01	482.15
493.19	400.23
493.37	463.43
493.54	395.55
493.72	369.80
493.90	379.17
494.08	351.08
494.25	423.64
494.43	358.10
494.61	393.21
494.79	381.51
494.96	458.74
495.14	404.91
495.32	437.68
495.49	500.87
495.67	458.74
495.85	409.59
496.02	437.68
496.20	372.15
496.38	365.12
496.55	454.06
496.73	423.64
496.91	423.64
497.09	465.77
497.26	372.15
497.44	402.57
497.62	440.02
497.79	360.44
497.97	463.43
498.14	404.91
498.32	411.93
498.50	395.55
498.67	442.36
498.85	362.78
499.03	435.34
499.20	397.89
499.38	379.17
499.56	418.96
499.73	449.38
499.91	372.15
500.08	449.38
500.26	433.00
500.44	397.89
500.61	489.17
500.79	381.51
500.97	416.62
501.14	447.04
501.32	449.38
501.49	381.51
501.67	423.64
501.84	397.89
502.02	435.34
502.20	482.15
502.37	416.62
502.55	433.00
502.72	376.83
502.90	407.25
503.07	435.34
503.25	428.32
503.43	407.25
503.60	395.55
503.78	447.04
503.95	428.32
504.13	388.53
504.30	397.89
504.48	470.45
504.65	458.74
504.83	416.62
505.01	416.62
505.18	379.17
505.36	456.40
505.53	447.04
505.71	388.53
505.88	451.72
506.06	435.34
506.23	341.72
506.41	390.87
506.58	395.55
506.76	475.13
506.93	374.49
507.11	442.36
507.28	388.53
507.46	397.89
507.63	362.78
507.81	332.36
507.98	367.46
508.16	454.06
508.33	416.62
508.50	404.91
508.68	390.87
508.85	386.19
509.03	374.49
509.20	376.83
509.38	404.91
509.55	437.68
509.73	435.34
509.90	463.43
510.08	360.44
510.25	435.34
510.42	388.53
510.60	372.15
510.77	402.57
510.95	454.06
511.12	463.43
511.30	430.66
511.47	454.06
511.64	496.19
511.82	365.12
511.99	416.62
512.17	386.19
512.34	381.51
512.51	428.32
512.69	404.91
512.86	484.49
513.04	449.38
513.21	433.00
513.38	395.55
513.56	409.59
513.73	372.15
513.90	416.62
514.08	365.12
514.25	369.80
514.43	435.34
514.60	344.06
514.77	355.76
514.95	395.55
515.12	435.34
515.29	369.80
515.47	425.98
515.64	402.57
515.81	404.91
515.99	379.17
516.16	402.57
516.33	451.72
516.51	372.15
516.68	383.85
516.85	437.68
517.03	365.12
517.20	444.70
517.37	372.15
517.54	433.00
517.72	409.59
517.89	388.53
518.06	421.30
518.24	402.57
518.41	407.25
518.58	402.57
518.75	381.51
518.93	440.02
519.10	381.51
519.27	355.76
519.45	407.25
519.62	327.68
519.79	428.32
519.96	449.38
520.14	390.87
520.31	397.89
520.48	463.43
520.65	369.80
520.83	430.66
521.00	379.17
521.17	348.74
521.34	477.47
521.52	458.74
521.69	407.25
521.86	395.55
522.03	339.38
522.20	447.04
522.38	465.77
522.55	362.78
522.72	407.25
522.89	442.36
523.07	503.22
523.24	411.93
523.41	444.70
523.58	390.87
523.75	503.22
523.92	418.96
524.10	397.89
524.27	470.45
524.44	337.04
524.61	418.96
524.78	339.38
524.96	402.57
525.13	421.30
525.30	425.98
525.47	423.64
525.64	440.02
525.81	407.25
525.98	430.66
526.16	440.02
526.33	425.98
526.50	365.12
526.67	414.27
526.84	355.76
527.01	369.80
527.18	395.55
527.36	461.09
527.53	437.68
527.70	451.72
527.87	425.98
528.04	416.62
528.21	418.96
528.38	393.21
528.55	440.02
528.72	454.06
528.89	477.47
529.07	421.30
529.24	423.64
529.41	454.06
529.58	472.79
529.75	468.11
529.92	425.98
530.09	421.30
530.26	322.99
530.43	397.89
530.60	332.36
530.77	414.27
530.94	470.45
531.11	468.11
531.28	477.47
531.46	442.36
531.63	404.91
531.80	397.89
531.97	353.42
532.14	423.64
532.31	461.09
532.48	402.57
532.65	435.34
532.82	351.08
532.99	430.66
533.16	390.87
533.33	381.51
533.50	437.68
533.67	372.15
533.84	430.66
534.01	433.00
534.18	470.45
534.35	379.17
534.52	414.27
534.69	374.49
534.86	458.74
535.03	435.34
535.20	388.53
535.37	444.70
535.54	444.70
535.71	423.64
535.88	442.36
536.05	498.53
536.22	428.32
536.38	369.80
536.55	409.59
536.72	470.45
536.89	409.59
537.06	454.06
537.23	421.30
537.40	353.42
537.57	367.46
537.74	440.02
537.91	465.77
538.08	404.91
538.25	390.87
538.42	493.85
538.59	430.66
538.75	428.32
538.92	463.43
539.09	519.60
539.26	430.66
539.43	425.98
539.60	428.32
539.77	463.43
539.94	400.23
540.11	472.79
540.28	456.40
540.44	465.77
540.61	418.96
540.78	334.70
540.95	458.74
541.12	486.83
541.29	390.87
541.46	463.43
541.62	327.68
541.79	379.17
541.96	433.00
542.13	358.10
542.30	386.19
542.47	486.83
542.63	447.04
542.80	463.43
542.97	409.59
543.14	449.38
543.31	433.00
543.48	444.70
543.64	479.81
543.81	381.51
543.98	468.11
544.15	418.96
544.32	484.49
544.48	416.62
544.65	404.91
544.82	348.74
544.99	447.04
545.16	496.19
545.32	430.66
545.49	430.66
545.66	404.91
545.83	393.21
546.00	421.30
546.16	411.93
546.33	346.40
546.50	409.59
546.67	355.76
546.83	440.02
547.00	423.64
547.17	404.91
547.34	353.42
547.50	461.09
547.67	374.49
547.84	451.72
548.00	468.11
548.17	397.89
548.34	409.59
548.51	409.59
548.67	421.30
548.84	454.06
549.01	447.04
549.18	390.87
549.34	365.12
549.51	362.78
549.68	393.21
549.84	444.70
550.01	369.80
550.18	489.17
550.34	461.09
550.51	404.91
550.68	514.92
550.84	409.59
551.01	442.36
551.18	521.94
551.34	332.36
551.51	468.11
551.68	362.78
551.84	397.89
552.01	456.40
552.18	468.11
552.34	411.93
552.51	416.62
552.68	463.43
552.84	421.30
553.01	400.23
553.18	428.32
553.34	477.47
553.51	404.91
553.67	365.12
553.84	395.55
554.01	400.23
554.17	423.64
554.34	383.85
554.51	449.38
554.67	482.15
554.84	442.36
555.00	395.55
555.17	404.91
555.33	416.62
555.50	397.89
555.67	425.98
555.83	397.89
556.00	435.34
556.16	571.09
556.33	374.49
556.50	348.74
556.66	400.23
556.83	369.80
556.99	397.89
557.16	376.83
557.32	341.72
557.49	454.06
557.65	383.85
557.82	372.15
557.98	407.25
558.15	442.36
558.32	390.87
558.48	428.32
558.65	447.04
558.81	369.80
558.98	404.91
559.14	416.62
559.31	376.83
559.47	489.17
559.64	395.55
559.80	433.00
559.97	390.87
560.13	484.49
560.30	416.62
560.46	449.38
560.63	437.68
560.79	414.27
560.96	402.57
561.12	416.62
561.29	414.27
561.45	374.49
561.61	423.64
561.78	456.40
561.94	430.66
562.11	437.68
562.27	381.51
562.44	395.55
562.60	374.49
562.77	437.68
562.93	489.17
563.10	484.49
563.26	430.66
563.42	416.62
563.59	374.49
563.75	330.02
563.92	472.79
564.08	372.15
564.24	461.09
564.41	454.06
564.57	397.89
564.74	400.23
564.90	472.79
565.07	428.32
565.23	493.85
565.39	414.27
565.56	423.64
565.72	409.59
565.88	416.62
566.05	374.49
566.21	430.66
566.38	486.83
566.54	477.47
566.70	388.53
566.87	433.00
567.03	365.12
567.19	369.80
567.36	421.30
567.52	484.49
567.68	428.32
567.85	397.89
568.01	362.78
568.17	383.85
568.34	400.23
568.50	465.77
568.66	320.65
568.83	489.17
568.99	463.43
569.15	435.34
569.32	421.30
569.48	430.66
569.64	409.59
569.81	376.83
569.97	447.04
570.13	409.59
570.30	433.00
570.46	407.25
570.62	388.53
570.78	376.83
570.95	428.32
571.11	461.09
571.27	440.02
571.43	442.36
571.60	395.55
571.76	379.17
571.92	444.70
572.09	348.74
572.25	421.30
572.41	470.45
572.57	362.78
572.74	423.64
572.90	400.23
573.06	339.38
573.22	386.19
573.38	433.00
573.55	365.12
573.71	482.15
573.87	386.19
574.03	423.64
574.20	388.53
574.36	428.32
574.52	381.51
574.68	430.66
574.84	425.98
575.01	360.44
575.17	395.55
575.33	395.55
575.49	430.66
575.65	407.25
575.82	416.62
575.98	454.06
576.14	404.91
576.30	383.85
576.46	449.38
576.62	346.40
576.79	404.91
576.95	463.43
577.11	416.62
577.27	468.11
577.43	440.02
577.59	470.45
577.75	447.04
577.92	425.98
578.08	407.25
578.24	379.17
578.40	425.98
578.56	484.49
578.72	456.40
578.88	355.76
579.04	404.91
579.21	367.46
579.37	451.72
579.53	369.80
579.69	428.32
579.85	437.68
580.01	449.38
580.17	407.25
580.33	428.32
580.49	411.93
580.65	456.40
580.82	447.04
580.98	423.64
581.14	451.72
581.30	477.47
581.46	353.42
581.62	376.83
581.78	428.32
581.94	484.49
582.10	411.93
582.26	418.96
582.42	346.40
582.58	425.98
582.74	440.02
582.90	381.51
583.06	388.53
583.22	414.27
583.38	372.15
583.54	472.79
583.70	484.49
583.86	411.93
584.02	435.34
584.18	472.79
584.34	376.83
584.50	369.80
584.66	437.68
584.82	365.12
584.98	507.90
585.14	390.87
585.30	402.57
585.46	379.17
585.62	428.32
585.78	414.27
585.94	447.04
586.10	435.34
586.26	388.53
586.42	397.89
586.58	397.89
586.74	430.66
586.90	433.00
587.06	369.80
587.22	341.72
587.38	463.43
587.54	428.32
587.70	479.81
587.86	397.89
588.02	440.02
588.18	472.79
588.34	372.15
588.49	379.17
588.65	397.89
588.81	461.09
588.97	355.76
589.13	421.30
589.29	386.19
589.45	465.77
589.61	404.91
589.77	383.85
589.93	404.91
590.08	416.62
590.24	376.83
590.40	416.62
590.56	484.49
590.72	402.57
590.88	376.83
591.04	463.43
591.20	390.87
591.35	404.91
591.51	442.36
591.67	376.83
591.83	449.38
591.99	374.49
592.15	411.93
592.31	407.25
592.46	418.96
592.62	425.98
592.78	383.85
592.94	486.83
593.10	381.51
593.26	393.21
593.41	425.98
593.57	416.62
593.73	407.25
593.89	468.11
594.05	475.13
594.20	468.11
594.36	421.30
594.52	491.51
594.68	376.83
594.84	400.23
594.99	425.98
595.15	360.44
595.31	451.72
595.47	498.53
595.62	425.98
595.78	430.66
595.94	458.74
596.10	451.72
596.25	416.62
596.41	456.40
596.57	428.32
596.73	400.23
596.88	344.06
597.04	386.19
597.20	400.23
597.36	395.55
597.51	456.40
597.67	421.30
597.83	409.59
597.99	430.66
598.14	468.11
598.30	416.62
598.46	393.21
598.61	402.57
598.77	458.74
598.93	414.27
599.09	435.34
599.24	355.76
599.40	421.30
599.56	428.32
599.71	362.78
599.87	409.59
600.03	418.96
600.18	400.23
600.34	379.17
600.50	472.79
600.65	454.06
600.81	397.89
600.97	390.87
601.12	402.57
601.28	435.34
601.44	472.79
601.59	428.32
601.75	400.23
601.91	402.57
602.06	416.62
602.22	433.00
602.37	404.91
602.53	423.64
602.69	414.27
602.84	416.62
603.00	407.25
603.16	388.53
603.31	458.74
603.47	292.57
603.62	379.17
603.78	339.38
603.94	348.74
604.09	503.22
604.25	407.25
604.40	369.80
604.56	461.09
604.71	449.38
604.87	404.91
605.03	388.53
605.18	409.59
605.34	435.34
605.49	484.49
605.65	341.72
605.80	402.57
605.96	402.57
606.12	393.21
606.27	365.12
606.43	454.06
606.58	468.11
606.74	369.80
606.89	493.85
607.05	414.27
607.20	374.49
607.36	355.76
607.51	400.23
607.67	416.62
607.82	437.68
607.98	376.83
608.13	472.79
608.29	393.21
608.44	444.70
608.60	435.34
608.75	442.36
608.91	411.93
609.06	409.59
609.22	435.34
609.37	402.57
609.53	421.30
609.68	407.25
609.84	379.17
609.99	472.79
610.15	393.21
