SpectraSuite Data File
++++++++++++++++++++++++++++++++++++
Date: Fri Oct 25 12:10:23 EDT 2013
User: price-jones
Dark Spectrum Present: No
Reference Spectrum Present: No
Number of Sampled Component Spectra: 1
Spectrometers: USB2+H05261
Integration Time (usec): 100000 (USB2+H05261)
Spectra Averaged: 1 (USB2+H05261)
Boxcar Smoothing: 0 (USB2+H05261)
Correct for Electrical Dark: No (USB2+H05261)
Strobe/Lamp Enabled: No (USB2+H05261)
Correct for Detector Non-linearity: No (USB2+H05261)
Correct for Stray Light: No (USB2+H05261)
Number of Pixels in Processed Spectrum: 2048
>>>>>Begin Processed Spectral Data<<<<<
365.73	337.04
365.92	337.04
366.12	337.04
366.32	262.14
366.52	184.90
366.72	222.35
366.91	217.67
367.11	212.99
367.31	248.10
367.51	257.46
367.70	290.23
367.90	271.50
368.10	229.37
368.30	266.82
368.49	271.50
368.69	280.86
368.89	248.10
369.09	210.65
369.28	278.52
369.48	278.52
369.68	285.55
369.87	327.68
370.07	266.82
370.27	243.42
370.47	322.99
370.66	292.57
370.86	334.70
371.06	418.96
371.25	292.57
371.45	344.06
371.65	393.21
371.84	320.65
372.04	409.59
372.24	411.93
372.44	428.32
372.63	372.15
372.83	390.87
373.03	418.96
373.22	444.70
373.42	451.72
373.62	409.59
373.81	395.55
374.01	449.38
374.21	367.46
374.40	374.49
374.60	533.64
374.79	435.34
374.99	416.62
375.19	397.89
375.38	451.72
375.58	442.36
375.78	423.64
375.97	355.76
376.17	498.53
376.37	358.10
376.56	423.64
376.76	322.99
376.95	351.08
377.15	411.93
377.35	442.36
377.54	409.59
377.74	425.98
377.93	383.85
378.13	381.51
378.33	444.70
378.52	372.15
378.72	409.59
378.91	362.78
379.11	283.20
379.31	433.00
379.50	360.44
379.70	437.68
379.89	421.30
380.09	418.96
380.28	477.47
380.48	421.30
380.68	486.83
380.87	372.15
381.07	386.19
381.26	358.10
381.46	386.19
381.65	358.10
381.85	423.64
382.04	351.08
382.24	416.62
382.43	416.62
382.63	374.49
382.83	411.93
383.02	400.23
383.22	425.98
383.41	374.49
383.61	390.87
383.80	433.00
384.00	400.23
384.19	362.78
384.39	465.77
384.58	433.00
384.78	414.27
384.97	348.74
385.17	407.25
385.36	402.57
385.56	470.45
385.75	440.02
385.95	414.27
386.14	510.24
386.34	449.38
386.53	369.80
386.72	407.25
386.92	418.96
387.11	390.87
387.31	407.25
387.50	388.53
387.70	374.49
387.89	451.72
388.09	390.87
388.28	386.19
388.48	458.74
388.67	414.27
388.86	496.19
389.06	397.89
389.25	395.55
389.45	376.83
389.64	418.96
389.84	376.83
390.03	437.68
390.22	379.17
390.42	393.21
390.61	402.57
390.81	402.57
391.00	325.33
391.19	334.70
391.39	414.27
391.58	421.30
391.78	376.83
391.97	414.27
392.16	341.72
392.36	388.53
392.55	425.98
392.75	397.89
392.94	334.70
393.13	444.70
393.33	393.21
393.52	414.27
393.71	430.66
393.91	360.44
394.10	416.62
394.29	402.57
394.49	411.93
394.68	435.34
394.88	451.72
395.07	395.55
395.26	442.36
395.46	428.32
395.65	437.68
395.84	414.27
396.04	433.00
396.23	505.56
396.42	374.49
396.62	409.59
396.81	418.96
397.00	444.70
397.19	400.23
397.39	451.72
397.58	306.61
397.77	456.40
397.97	372.15
398.16	381.51
398.35	421.30
398.55	367.46
398.74	416.62
398.93	367.46
399.12	421.30
399.32	376.83
399.51	369.80
399.70	388.53
399.90	433.00
400.09	423.64
400.28	440.02
400.47	379.17
400.67	372.15
400.86	404.91
401.05	423.64
401.24	383.85
401.44	411.93
401.63	400.23
401.82	416.62
402.01	407.25
402.21	465.77
402.40	292.57
402.59	376.83
402.78	386.19
402.97	444.70
403.17	386.19
403.36	411.93
403.55	435.34
403.74	416.62
403.93	393.21
404.13	386.19
404.32	379.17
404.51	383.85
404.70	402.57
404.89	461.09
405.09	468.11
405.28	414.27
405.47	390.87
405.66	428.32
405.85	435.34
406.05	465.77
406.24	383.85
406.43	393.21
406.62	447.04
406.81	388.53
407.00	451.72
407.20	351.08
407.39	400.23
407.58	468.11
407.77	416.62
407.96	430.66
408.15	421.30
408.34	468.11
408.54	437.68
408.73	379.17
408.92	318.31
409.11	397.89
409.30	425.98
409.49	311.29
409.68	353.42
409.87	369.80
410.07	383.85
410.26	449.38
410.45	367.46
410.64	383.85
410.83	402.57
411.02	397.89
411.21	367.46
411.40	425.98
411.59	376.83
411.78	360.44
411.98	404.91
412.17	463.43
412.36	390.87
412.55	440.02
412.74	444.70
412.93	402.57
413.12	409.59
413.31	383.85
413.50	374.49
413.69	400.23
413.88	407.25
414.07	428.32
414.26	395.55
414.45	440.02
414.64	383.85
414.83	355.76
415.02	386.19
415.22	360.44
415.41	472.79
415.60	409.59
415.79	435.34
415.98	407.25
416.17	381.51
416.36	404.91
416.55	393.21
416.74	444.70
416.93	505.56
417.12	397.89
417.31	365.12
417.50	421.30
417.69	418.96
417.88	402.57
418.07	393.21
418.26	409.59
418.45	404.91
418.64	404.91
418.83	465.77
419.02	461.09
419.21	374.49
419.39	472.79
419.58	362.78
419.77	440.02
419.96	489.17
420.15	440.02
420.34	376.83
420.53	407.25
420.72	425.98
420.91	374.49
421.10	365.12
421.29	386.19
421.48	470.45
421.67	421.30
421.86	393.21
422.05	447.04
422.24	402.57
422.43	444.70
422.61	433.00
422.80	348.74
422.99	395.55
423.18	414.27
423.37	463.43
423.56	393.21
423.75	409.59
423.94	388.53
424.13	376.83
424.32	409.59
424.50	414.27
424.69	393.21
424.88	454.06
425.07	428.32
425.26	388.53
425.45	362.78
425.64	376.83
425.83	430.66
426.01	414.27
426.20	430.66
426.39	430.66
426.58	332.36
426.77	421.30
426.96	472.79
427.15	409.59
427.33	330.02
427.52	397.89
427.71	400.23
427.90	360.44
428.09	433.00
428.28	383.85
428.46	461.09
428.65	447.04
428.84	430.66
429.03	437.68
429.22	423.64
429.40	397.89
429.59	358.10
429.78	468.11
429.97	376.83
430.16	404.91
430.34	447.04
430.53	360.44
430.72	395.55
430.91	479.81
431.10	458.74
431.28	409.59
431.47	351.08
431.66	374.49
431.85	400.23
432.03	411.93
432.22	341.72
432.41	428.32
432.60	519.60
432.79	372.15
432.97	383.85
433.16	437.68
433.35	425.98
433.54	447.04
433.72	369.80
433.91	468.11
434.10	430.66
434.28	407.25
434.47	416.62
434.66	386.19
434.85	379.17
435.03	414.27
435.22	449.38
435.41	414.27
435.59	456.40
435.78	468.11
435.97	362.78
436.16	404.91
436.34	400.23
436.53	428.32
436.72	379.17
436.90	493.85
437.09	440.02
437.28	449.38
437.46	407.25
437.65	421.30
437.84	404.91
438.02	454.06
438.21	379.17
438.40	362.78
438.58	409.59
438.77	409.59
438.96	416.62
439.14	407.25
439.33	376.83
439.52	388.53
439.70	428.32
439.89	465.77
440.08	428.32
440.26	407.25
440.45	418.96
440.63	421.30
440.82	346.40
441.01	379.17
441.19	351.08
441.38	388.53
441.57	369.80
441.75	489.17
441.94	433.00
442.12	386.19
442.31	430.66
442.50	428.32
442.68	411.93
442.87	475.13
443.05	386.19
443.24	400.23
443.43	351.08
443.61	411.93
443.80	442.36
443.98	440.02
444.17	447.04
444.35	472.79
444.54	416.62
444.73	395.55
444.91	533.64
445.10	393.21
445.28	330.02
445.47	531.30
445.65	376.83
445.84	397.89
446.02	498.53
446.21	397.89
446.39	425.98
446.58	393.21
446.77	376.83
446.95	381.51
447.14	390.87
447.32	444.70
447.51	397.89
447.69	416.62
447.88	404.91
448.06	461.09
448.25	409.59
448.43	393.21
448.62	404.91
448.80	402.57
448.99	463.43
449.17	451.72
449.36	365.12
449.54	393.21
449.73	381.51
449.91	355.76
450.10	388.53
450.28	416.62
450.46	449.38
450.65	430.66
450.83	447.04
451.02	358.10
451.20	477.47
451.39	404.91
451.57	449.38
451.76	416.62
451.94	327.68
452.13	430.66
452.31	414.27
452.49	379.17
452.68	376.83
452.86	449.38
453.05	440.02
453.23	472.79
453.42	386.19
453.60	353.42
453.78	395.55
453.97	404.91
454.15	360.44
454.34	362.78
454.52	409.59
454.70	325.33
454.89	402.57
455.07	433.00
455.26	454.06
455.44	538.32
455.62	353.42
455.81	362.78
455.99	423.64
456.17	395.55
456.36	442.36
456.54	404.91
456.73	423.64
456.91	393.21
457.09	397.89
457.28	449.38
457.46	418.96
457.64	454.06
457.83	428.32
458.01	386.19
458.19	414.27
458.38	304.27
458.56	444.70
458.74	421.30
458.93	390.87
459.11	360.44
459.29	372.15
459.48	400.23
459.66	402.57
459.84	376.83
460.03	425.98
460.21	447.04
460.39	365.12
460.57	454.06
460.76	479.81
460.94	465.77
461.12	379.17
461.31	383.85
461.49	376.83
461.67	421.30
461.85	454.06
462.04	454.06
462.22	781.74
462.40	395.55
462.59	411.93
462.77	395.55
462.95	496.19
463.13	440.02
463.32	433.00
463.50	388.53
463.68	379.17
463.86	351.08
464.05	379.17
464.23	470.45
464.41	421.30
464.59	365.12
464.78	416.62
464.96	404.91
465.14	388.53
465.32	383.85
465.50	400.23
465.69	362.78
465.87	416.62
466.05	418.96
466.23	376.83
466.41	358.10
466.60	390.87
466.78	358.10
466.96	407.25
467.14	425.98
467.32	451.72
467.51	442.36
467.69	442.36
467.87	444.70
468.05	440.02
468.23	449.38
468.41	451.72
468.60	409.59
468.78	505.56
468.96	433.00
469.14	411.93
469.32	400.23
469.50	428.32
469.69	376.83
469.87	402.57
470.05	428.32
470.23	472.79
470.41	451.72
470.59	407.25
470.77	430.66
470.95	367.46
471.14	470.45
471.32	447.04
471.50	407.25
471.68	414.27
471.86	404.91
472.04	440.02
472.22	404.91
472.40	418.96
472.58	465.77
472.77	393.21
472.95	442.36
473.13	496.19
473.31	496.19
473.49	397.89
473.67	374.49
473.85	421.30
474.03	430.66
474.21	414.27
474.39	489.17
474.57	397.89
474.75	400.23
474.93	411.93
475.12	386.19
475.30	379.17
475.48	442.36
475.66	365.12
475.84	400.23
476.02	428.32
476.20	447.04
476.38	330.02
476.56	479.81
476.74	416.62
476.92	423.64
477.10	395.55
477.28	362.78
477.46	355.76
477.64	367.46
477.82	421.30
478.00	381.51
478.18	414.27
478.36	400.23
478.54	451.72
478.72	402.57
478.90	402.57
479.08	360.44
479.26	425.98
479.44	482.15
479.62	447.04
479.80	421.30
479.98	442.36
480.16	395.55
480.34	458.74
480.52	395.55
480.70	402.57
480.88	433.00
481.06	461.09
481.24	425.98
481.41	397.89
481.59	479.81
481.77	456.40
481.95	421.30
482.13	449.38
482.31	332.36
482.49	395.55
482.67	442.36
482.85	437.68
483.03	402.57
483.21	461.09
483.39	372.15
483.57	355.76
483.74	411.93
483.92	433.00
484.10	360.44
484.28	388.53
484.46	454.06
484.64	458.74
484.82	447.04
485.00	409.59
485.18	416.62
485.35	358.10
485.53	381.51
485.71	433.00
485.89	416.62
486.07	358.10
486.25	475.13
486.43	393.21
486.61	418.96
486.78	407.25
486.96	388.53
487.14	409.59
487.32	456.40
487.50	414.27
487.68	393.21
487.85	325.33
488.03	458.74
488.21	477.47
488.39	416.62
488.57	372.15
488.75	393.21
488.92	531.30
489.10	433.00
489.28	449.38
489.46	428.32
489.64	440.02
489.81	388.53
489.99	470.45
490.17	447.04
490.35	543.00
490.53	418.96
490.70	493.85
490.88	411.93
491.06	393.21
491.24	447.04
491.41	463.43
491.59	383.85
491.77	341.72
491.95	395.55
492.13	388.53
492.30	477.47
492.48	458.74
492.66	365.12
492.84	425.98
493.01	456.40
493.19	383.85
493.37	379.17
493.54	468.11
493.72	470.45
493.90	425.98
494.08	437.68
494.25	381.51
494.43	407.25
494.61	479.81
494.79	360.44
494.96	433.00
495.14	430.66
495.32	397.89
495.49	372.15
495.67	407.25
495.85	337.04
496.02	407.25
496.20	330.02
496.38	458.74
496.55	397.89
496.73	311.29
496.91	353.42
497.09	451.72
497.26	425.98
497.44	404.91
497.62	386.19
497.79	409.59
497.97	444.70
498.14	456.40
498.32	489.17
498.50	449.38
498.67	372.15
498.85	353.42
499.03	386.19
499.20	344.06
499.38	360.44
499.56	444.70
499.73	550.03
499.91	437.68
500.08	430.66
500.26	404.91
500.44	355.76
500.61	440.02
500.79	402.57
500.97	404.91
501.14	402.57
501.32	341.72
501.49	409.59
501.67	414.27
501.84	428.32
502.02	402.57
502.20	484.49
502.37	535.98
502.55	395.55
502.72	447.04
502.90	423.64
503.07	407.25
503.25	379.17
503.43	428.32
503.60	365.12
503.78	451.72
503.95	397.89
504.13	449.38
504.30	447.04
504.48	477.47
504.65	425.98
504.83	411.93
505.01	369.80
505.18	360.44
505.36	418.96
505.53	365.12
505.71	397.89
505.88	461.09
506.06	423.64
506.23	402.57
506.41	379.17
506.58	437.68
506.76	447.04
506.93	465.77
507.11	407.25
507.28	409.59
507.46	388.53
507.63	376.83
507.81	388.53
507.98	454.06
508.16	423.64
508.33	425.98
508.50	365.12
508.68	367.46
508.85	425.98
509.03	404.91
509.20	442.36
509.38	393.21
509.55	491.51
509.73	463.43
509.90	433.00
510.08	315.97
510.25	416.62
510.42	379.17
510.60	416.62
510.77	428.32
510.95	479.81
511.12	468.11
511.30	381.51
511.47	472.79
511.64	409.59
511.82	440.02
511.99	423.64
512.17	442.36
512.34	355.76
512.51	339.38
512.69	404.91
512.86	358.10
513.04	337.04
513.21	376.83
513.38	425.98
513.56	447.04
513.73	379.17
513.90	418.96
514.08	393.21
514.25	437.68
514.43	365.12
514.60	393.21
514.77	383.85
514.95	409.59
515.12	379.17
515.29	395.55
515.47	397.89
515.64	388.53
515.81	414.27
515.99	503.22
516.16	451.72
516.33	435.34
516.51	351.08
516.68	430.66
516.85	409.59
517.03	358.10
517.20	395.55
517.37	442.36
517.54	407.25
517.72	360.44
517.89	369.80
518.06	418.96
518.24	465.77
518.41	503.22
518.58	402.57
518.75	397.89
518.93	493.85
519.10	433.00
519.27	444.70
519.45	482.15
519.62	423.64
519.79	449.38
519.96	442.36
520.14	390.87
520.31	423.64
520.48	416.62
520.65	397.89
520.83	404.91
521.00	505.56
521.17	418.96
521.34	411.93
521.52	447.04
521.69	433.00
521.86	484.49
522.03	437.68
522.20	447.04
522.38	421.30
522.55	514.92
522.72	475.13
522.89	461.09
523.07	423.64
523.24	423.64
523.41	454.06
523.58	379.17
523.75	355.76
523.92	395.55
524.10	379.17
524.27	475.13
524.44	386.19
524.61	444.70
524.78	390.87
524.96	383.85
525.13	442.36
525.30	433.00
525.47	444.70
525.64	397.89
525.81	348.74
525.98	461.09
526.16	369.80
526.33	374.49
526.50	400.23
526.67	339.38
526.84	433.00
527.01	414.27
527.18	411.93
527.36	395.55
527.53	418.96
527.70	332.36
527.87	486.83
528.04	437.68
528.21	451.72
528.38	409.59
528.55	458.74
528.72	386.19
528.89	500.87
529.07	411.93
529.24	416.62
529.41	435.34
529.58	425.98
529.75	463.43
529.92	493.85
530.09	444.70
530.26	416.62
530.43	383.85
530.60	440.02
530.77	353.42
530.94	423.64
531.11	388.53
531.28	442.36
531.46	306.61
531.63	334.70
531.80	491.51
531.97	470.45
532.14	442.36
532.31	447.04
532.48	418.96
532.65	393.21
532.82	430.66
532.99	477.47
533.16	451.72
533.33	454.06
533.50	425.98
533.67	402.57
533.84	395.55
534.01	463.43
534.18	400.23
534.35	463.43
534.52	437.68
534.69	402.57
534.86	458.74
535.03	414.27
535.20	468.11
535.37	400.23
535.54	416.62
535.71	444.70
535.88	409.59
536.05	451.72
536.22	468.11
536.38	461.09
536.55	358.10
536.72	418.96
536.89	400.23
537.06	400.23
537.23	423.64
537.40	369.80
537.57	376.83
537.74	461.09
537.91	482.15
538.08	395.55
538.25	381.51
538.42	369.80
538.59	379.17
538.75	425.98
538.92	388.53
539.09	414.27
539.26	423.64
539.43	500.87
539.60	400.23
539.77	437.68
539.94	414.27
540.11	475.13
540.28	461.09
540.44	461.09
540.61	390.87
540.78	414.27
540.95	437.68
541.12	465.77
541.29	322.99
541.46	369.80
541.62	454.06
541.79	390.87
541.96	451.72
542.13	407.25
542.30	414.27
542.47	449.38
542.63	353.42
542.80	430.66
542.97	442.36
543.14	423.64
543.31	465.77
543.48	393.21
543.64	325.33
543.81	428.32
543.98	428.32
544.15	393.21
544.32	393.21
544.48	404.91
544.65	407.25
544.82	477.47
544.99	388.53
545.16	414.27
545.32	407.25
545.49	433.00
545.66	425.98
545.83	390.87
546.00	433.00
546.16	383.85
546.33	358.10
546.50	456.40
546.67	491.51
546.83	386.19
547.00	465.77
547.17	423.64
547.34	498.53
547.50	425.98
547.67	407.25
547.84	437.68
548.00	440.02
548.17	437.68
548.34	346.40
548.51	423.64
548.67	400.23
548.84	414.27
549.01	442.36
549.18	486.83
549.34	411.93
549.51	390.87
549.68	470.45
549.84	498.53
550.01	376.83
550.18	442.36
550.34	531.30
550.51	458.74
550.68	465.77
550.84	395.55
551.01	421.30
551.18	463.43
551.34	360.44
551.51	496.19
551.68	414.27
551.84	362.78
552.01	402.57
552.18	437.68
552.34	395.55
552.51	379.17
552.68	393.21
552.84	465.77
553.01	395.55
553.18	442.36
553.34	447.04
553.51	461.09
553.67	484.49
553.84	447.04
554.01	367.46
554.17	381.51
554.34	402.57
554.51	390.87
554.67	386.19
554.84	451.72
555.00	383.85
555.17	475.13
555.33	430.66
555.50	458.74
555.67	407.25
555.83	430.66
556.00	472.79
556.16	489.17
556.33	416.62
556.50	400.23
556.66	400.23
556.83	437.68
556.99	423.64
557.16	388.53
557.32	440.02
557.49	400.23
557.65	374.49
557.82	444.70
557.98	379.17
558.15	404.91
558.32	442.36
558.48	468.11
558.65	463.43
558.81	447.04
558.98	440.02
559.14	404.91
559.31	407.25
559.47	381.51
559.64	376.83
559.80	332.36
559.97	404.91
560.13	421.30
560.30	379.17
560.46	454.06
560.63	360.44
560.79	362.78
560.96	390.87
561.12	404.91
561.29	451.72
561.45	430.66
561.61	477.47
561.78	512.58
561.94	404.91
562.11	369.80
562.27	421.30
562.44	348.74
562.60	386.19
562.77	454.06
562.93	482.15
563.10	402.57
563.26	428.32
563.42	444.70
563.59	498.53
563.75	334.70
563.92	402.57
564.08	428.32
564.24	433.00
564.41	463.43
564.57	437.68
564.74	454.06
564.90	475.13
565.07	442.36
565.23	468.11
565.39	440.02
565.56	407.25
565.72	421.30
565.88	425.98
566.05	402.57
566.21	355.76
566.38	376.83
566.54	411.93
566.70	395.55
566.87	430.66
567.03	376.83
567.19	346.40
567.36	414.27
567.52	327.68
567.68	482.15
567.85	468.11
568.01	447.04
568.17	423.64
568.34	404.91
568.50	519.60
568.66	379.17
568.83	430.66
568.99	418.96
569.15	383.85
569.32	397.89
569.48	475.13
569.64	411.93
569.81	388.53
569.97	372.15
570.13	470.45
570.30	388.53
570.46	376.83
570.62	379.17
570.78	393.21
570.95	381.51
571.11	472.79
571.27	433.00
571.43	341.72
571.60	425.98
571.76	444.70
571.92	381.51
572.09	430.66
572.25	395.55
572.41	397.89
572.57	381.51
572.74	411.93
572.90	388.53
573.06	437.68
573.22	444.70
573.38	430.66
573.55	430.66
573.71	463.43
573.87	423.64
574.03	395.55
574.20	418.96
574.36	386.19
574.52	433.00
574.68	395.55
574.84	351.08
575.01	451.72
575.17	454.06
575.33	454.06
575.49	416.62
575.65	444.70
575.82	353.42
575.98	451.72
576.14	421.30
576.30	416.62
576.46	461.09
576.62	379.17
576.79	407.25
576.95	418.96
577.11	465.77
577.27	418.96
577.43	456.40
577.59	454.06
577.75	430.66
577.92	411.93
578.08	430.66
578.24	423.64
578.40	500.87
578.56	451.72
578.72	402.57
578.88	468.11
579.04	374.49
579.21	430.66
579.37	482.15
579.53	428.32
579.69	437.68
579.85	379.17
580.01	416.62
580.17	367.46
580.33	402.57
580.49	379.17
580.65	416.62
580.82	440.02
580.98	430.66
581.14	388.53
581.30	381.51
581.46	409.59
581.62	360.44
581.78	449.38
581.94	425.98
582.10	395.55
582.26	489.17
582.42	409.59
582.58	395.55
582.74	414.27
582.90	372.15
583.06	418.96
583.22	475.13
583.38	418.96
583.54	400.23
583.70	358.10
583.86	393.21
584.02	475.13
584.18	390.87
584.34	379.17
584.50	423.64
584.66	351.08
584.82	409.59
584.98	381.51
585.14	456.40
585.30	425.98
585.46	395.55
585.62	458.74
585.78	365.12
585.94	397.89
586.10	407.25
586.26	458.74
586.42	440.02
586.58	421.30
586.74	411.93
586.90	444.70
587.06	463.43
587.22	348.74
587.38	416.62
587.54	435.34
587.70	414.27
587.86	437.68
588.02	433.00
588.18	376.83
588.34	440.02
588.49	414.27
588.65	428.32
588.81	355.76
588.97	365.12
589.13	383.85
589.29	454.06
589.45	479.81
589.61	388.53
589.77	479.81
589.93	409.59
590.08	425.98
590.24	454.06
590.40	496.19
590.56	433.00
590.72	418.96
590.88	397.89
591.04	414.27
591.20	348.74
591.35	451.72
591.51	383.85
591.67	414.27
591.83	369.80
591.99	423.64
592.15	358.10
592.31	470.45
592.46	341.72
592.62	383.85
592.78	411.93
592.94	381.51
593.10	348.74
593.26	379.17
593.41	390.87
593.57	428.32
593.73	425.98
593.89	477.47
594.05	404.91
594.20	428.32
594.36	435.34
594.52	383.85
594.68	416.62
594.84	428.32
594.99	461.09
595.15	461.09
595.31	444.70
595.47	465.77
595.62	491.51
595.78	388.53
595.94	430.66
596.10	468.11
596.25	475.13
596.41	437.68
596.57	428.32
596.73	428.32
596.88	386.19
597.04	414.27
597.20	376.83
597.36	468.11
597.51	465.77
597.67	390.87
597.83	430.66
597.99	461.09
598.14	430.66
598.30	451.72
598.46	421.30
598.61	381.51
598.77	386.19
598.93	472.79
599.09	444.70
599.24	440.02
599.40	526.62
599.56	475.13
599.71	447.04
599.87	383.85
600.03	482.15
600.18	435.34
600.34	451.72
600.50	374.49
600.65	500.87
600.81	400.23
600.97	372.15
601.12	367.46
601.28	416.62
601.44	411.93
601.59	451.72
601.75	423.64
601.91	447.04
602.06	411.93
602.22	496.19
602.37	442.36
602.53	369.80
602.69	437.68
602.84	388.53
603.00	404.91
603.16	447.04
603.31	463.43
603.47	465.77
603.62	475.13
603.78	418.96
603.94	435.34
604.09	383.85
604.25	430.66
604.40	449.38
604.56	444.70
604.71	444.70
604.87	444.70
605.03	425.98
605.18	374.49
605.34	402.57
605.49	456.40
605.65	341.72
605.80	418.96
605.96	489.17
606.12	425.98
606.27	369.80
606.43	428.32
606.58	369.80
606.74	402.57
606.89	442.36
607.05	437.68
607.20	383.85
607.36	383.85
607.51	425.98
607.67	435.34
607.82	442.36
607.98	435.34
608.13	383.85
608.29	428.32
608.44	430.66
608.60	418.96
608.75	372.15
608.91	369.80
609.06	418.96
609.22	437.68
609.37	440.02
609.53	358.10
609.68	458.74
609.84	428.32
609.99	491.51
610.15	407.25
