SpectraSuite Data File
++++++++++++++++++++++++++++++++++++
Date: Fri Oct 25 12:11:37 EDT 2013
User: price-jones
Dark Spectrum Present: No
Reference Spectrum Present: No
Number of Sampled Component Spectra: 1
Spectrometers: USB2+H05261
Integration Time (usec): 100000 (USB2+H05261)
Spectra Averaged: 1 (USB2+H05261)
Boxcar Smoothing: 0 (USB2+H05261)
Correct for Electrical Dark: No (USB2+H05261)
Strobe/Lamp Enabled: No (USB2+H05261)
Correct for Detector Non-linearity: No (USB2+H05261)
Correct for Stray Light: No (USB2+H05261)
Number of Pixels in Processed Spectrum: 2048
>>>>>Begin Processed Spectral Data<<<<<
365.73	376.83
365.92	376.83
366.12	376.83
366.32	283.20
366.52	266.82
366.72	264.48
366.91	292.57
367.11	220.01
367.31	285.55
367.51	250.44
367.70	250.44
367.90	152.13
368.10	290.23
368.30	266.82
368.49	198.95
368.69	238.73
368.89	280.86
369.09	283.20
369.28	285.55
369.48	299.59
369.68	308.95
369.87	334.70
370.07	299.59
370.27	425.98
370.47	374.49
370.66	269.16
370.86	348.74
371.06	341.72
371.25	433.00
371.45	358.10
371.65	358.10
371.84	374.49
372.04	320.65
372.24	425.98
372.44	456.40
372.63	407.25
372.83	421.30
373.03	428.32
373.22	355.76
373.42	477.47
373.62	388.53
373.81	397.89
374.01	428.32
374.21	454.06
374.40	444.70
374.60	376.83
374.79	451.72
374.99	414.27
375.19	468.11
375.38	400.23
375.58	433.00
375.78	411.93
375.97	409.59
376.17	470.45
376.37	449.38
376.56	433.00
376.76	437.68
376.95	484.49
377.15	428.32
377.35	496.19
377.54	337.04
377.74	421.30
377.93	414.27
378.13	388.53
378.33	430.66
378.52	369.80
378.72	430.66
378.91	393.21
379.11	386.19
379.31	383.85
379.50	383.85
379.70	510.24
379.89	458.74
380.09	442.36
380.28	353.42
380.48	407.25
380.68	465.77
380.87	411.93
381.07	400.23
381.26	430.66
381.46	435.34
381.65	428.32
381.85	461.09
382.04	393.21
382.24	437.68
382.43	503.22
382.63	414.27
382.83	395.55
383.02	458.74
383.22	404.91
383.41	451.72
383.61	414.27
383.80	355.76
384.00	367.46
384.19	425.98
384.39	433.00
384.58	365.12
384.78	400.23
384.97	468.11
385.17	383.85
385.36	390.87
385.56	463.43
385.75	383.85
385.95	423.64
386.14	428.32
386.34	430.66
386.53	423.64
386.72	451.72
386.92	425.98
387.11	472.79
387.31	428.32
387.50	369.80
387.70	435.34
387.89	395.55
388.09	360.44
388.28	430.66
388.48	437.68
388.67	435.34
388.86	381.51
389.06	393.21
389.25	449.38
389.45	418.96
389.64	414.27
389.84	470.45
390.03	386.19
390.22	414.27
390.42	367.46
390.61	400.23
390.81	404.91
391.00	461.09
391.19	468.11
391.39	423.64
391.58	430.66
391.78	365.12
391.97	421.30
392.16	493.85
392.36	425.98
392.55	444.70
392.75	379.17
392.94	393.21
393.13	437.68
393.33	423.64
393.52	367.46
393.71	528.96
393.91	418.96
394.10	393.21
394.29	388.53
394.49	400.23
394.68	372.15
394.88	400.23
395.07	395.55
395.26	388.53
395.46	500.87
395.65	362.78
395.84	486.83
396.04	472.79
396.23	442.36
396.42	348.74
396.62	376.83
396.81	381.51
397.00	400.23
397.19	451.72
397.39	400.23
397.58	451.72
397.77	358.10
397.97	447.04
398.16	402.57
398.35	411.93
398.55	360.44
398.74	409.59
398.93	381.51
399.12	365.12
399.32	367.46
399.51	397.89
399.70	444.70
399.90	362.78
400.09	379.17
400.28	500.87
400.47	423.64
400.67	360.44
400.86	404.91
401.05	414.27
401.24	418.96
401.44	409.59
401.63	416.62
401.82	386.19
402.01	390.87
402.21	386.19
402.40	418.96
402.59	409.59
402.78	414.27
402.97	454.06
403.17	456.40
403.36	388.53
403.55	374.49
403.74	433.00
403.93	400.23
404.13	458.74
404.32	351.08
404.51	423.64
404.70	418.96
404.89	423.64
405.09	444.70
405.28	416.62
405.47	437.68
405.66	400.23
405.85	397.89
406.05	435.34
406.24	374.49
406.43	393.21
406.62	418.96
406.81	535.98
407.00	458.74
407.20	404.91
407.39	423.64
407.58	418.96
407.77	402.57
407.96	442.36
408.15	435.34
408.34	421.30
408.54	470.45
408.73	425.98
408.92	418.96
409.11	505.56
409.30	404.91
409.49	393.21
409.68	388.53
409.87	386.19
410.07	404.91
410.26	421.30
410.45	360.44
410.64	416.62
410.83	470.45
411.02	411.93
411.21	360.44
411.40	383.85
411.59	402.57
411.78	379.17
411.98	416.62
412.17	386.19
412.36	376.83
412.55	358.10
412.74	454.06
412.93	505.56
413.12	418.96
413.31	433.00
413.50	407.25
413.69	423.64
413.88	437.68
414.07	376.83
414.26	369.80
414.45	395.55
414.64	447.04
414.83	456.40
415.02	449.38
415.22	477.47
415.41	414.27
415.60	379.17
415.79	388.53
415.98	383.85
416.17	421.30
416.36	411.93
416.55	428.32
416.74	409.59
416.93	397.89
417.12	400.23
417.31	435.34
417.50	458.74
417.69	489.17
417.88	430.66
418.07	430.66
418.26	465.77
418.45	475.13
418.64	400.23
418.83	411.93
419.02	397.89
419.21	404.91
419.39	437.68
419.58	470.45
419.77	402.57
419.96	442.36
420.15	383.85
420.34	362.78
420.53	491.51
420.72	425.98
420.91	470.45
421.10	407.25
421.29	428.32
421.48	381.51
421.67	491.51
421.86	397.89
422.05	503.22
422.24	472.79
422.43	435.34
422.61	456.40
422.80	397.89
422.99	489.17
423.18	456.40
423.37	409.59
423.56	346.40
423.75	348.74
423.94	393.21
424.13	409.59
424.32	400.23
424.50	472.79
424.69	332.36
424.88	479.81
425.07	425.98
425.26	414.27
425.45	425.98
425.64	402.57
425.83	330.02
426.01	451.72
426.20	369.80
426.39	414.27
426.58	397.89
426.77	416.62
426.96	421.30
427.15	404.91
427.33	423.64
427.52	421.30
427.71	418.96
427.90	425.98
428.09	428.32
428.28	425.98
428.46	433.00
428.65	390.87
428.84	400.23
429.03	308.95
429.22	416.62
429.40	388.53
429.59	369.80
429.78	435.34
429.97	437.68
430.16	393.21
430.34	386.19
430.53	468.11
430.72	449.38
430.91	386.19
431.10	381.51
431.28	397.89
431.47	327.68
431.66	454.06
431.85	442.36
432.03	444.70
432.22	472.79
432.41	341.72
432.60	400.23
432.79	444.70
432.97	411.93
433.16	447.04
433.35	390.87
433.54	407.25
433.72	402.57
433.91	411.93
434.10	458.74
434.28	421.30
434.47	402.57
434.66	444.70
434.85	437.68
435.03	428.32
435.22	463.43
435.41	388.53
435.59	388.53
435.78	397.89
435.97	437.68
436.16	456.40
436.34	416.62
436.53	362.78
436.72	367.46
436.90	418.96
437.09	355.76
437.28	423.64
437.46	388.53
437.65	458.74
437.84	430.66
438.02	379.17
438.21	475.13
438.40	397.89
438.58	437.68
438.77	447.04
438.96	463.43
439.14	449.38
439.33	440.02
439.52	430.66
439.70	496.19
439.89	472.79
440.08	428.32
440.26	421.30
440.45	395.55
440.63	430.66
440.82	404.91
441.01	430.66
441.19	449.38
441.38	428.32
441.57	430.66
441.75	397.89
441.94	437.68
442.12	479.81
442.31	376.83
442.50	400.23
442.68	423.64
442.87	404.91
443.05	463.43
443.24	383.85
443.43	388.53
443.61	383.85
443.80	386.19
443.98	390.87
444.17	404.91
444.35	444.70
444.54	440.02
444.73	423.64
444.91	402.57
445.10	388.53
445.28	409.59
445.47	395.55
445.65	458.74
445.84	327.68
446.02	409.59
446.21	463.43
446.39	346.40
446.58	425.98
446.77	451.72
446.95	334.70
447.14	423.64
447.32	383.85
447.51	414.27
447.69	470.45
447.88	374.49
448.06	435.34
448.25	397.89
448.43	458.74
448.62	381.51
448.80	346.40
448.99	454.06
449.17	416.62
449.36	397.89
449.54	397.89
449.73	472.79
449.91	461.09
450.10	416.62
450.28	477.47
450.46	503.22
450.65	411.93
450.83	435.34
451.02	381.51
451.20	433.00
451.39	397.89
451.57	404.91
451.76	404.91
451.94	390.87
452.13	465.77
452.31	475.13
452.49	369.80
452.68	395.55
452.86	416.62
453.05	430.66
453.23	425.98
453.42	409.59
453.60	416.62
453.78	390.87
453.97	418.96
454.15	428.32
454.34	421.30
454.52	374.49
454.70	442.36
454.89	411.93
455.07	388.53
455.26	416.62
455.44	414.27
455.62	425.98
455.81	458.74
455.99	465.77
456.17	435.34
456.36	423.64
456.54	395.55
456.73	444.70
456.91	433.00
457.09	414.27
457.28	503.22
457.46	416.62
457.64	444.70
457.83	372.15
458.01	362.78
458.19	461.09
458.38	461.09
458.56	386.19
458.74	465.77
458.93	468.11
459.11	442.36
459.29	381.51
459.48	409.59
459.66	430.66
459.84	402.57
460.03	449.38
460.21	409.59
460.39	390.87
460.57	404.91
460.76	376.83
460.94	425.98
461.12	447.04
461.31	528.96
461.49	372.15
461.67	397.89
461.85	355.76
462.04	442.36
462.22	816.85
462.40	409.59
462.59	456.40
462.77	404.91
462.95	440.02
463.13	402.57
463.32	386.19
463.50	447.04
463.68	414.27
463.86	433.00
464.05	400.23
464.23	442.36
464.41	440.02
464.59	397.89
464.78	348.74
464.96	411.93
465.14	447.04
465.32	470.45
465.50	435.34
465.69	482.15
465.87	304.27
466.05	376.83
466.23	454.06
466.41	409.59
466.60	414.27
466.78	428.32
466.96	397.89
467.14	461.09
467.32	411.93
467.51	416.62
467.69	393.21
467.87	379.17
468.05	409.59
468.23	500.87
468.41	365.12
468.60	374.49
468.78	402.57
468.96	400.23
469.14	423.64
469.32	360.44
469.50	433.00
469.69	388.53
469.87	411.93
470.05	430.66
470.23	430.66
470.41	390.87
470.59	365.12
470.77	397.89
470.95	444.70
471.14	444.70
471.32	404.91
471.50	425.98
471.68	409.59
471.86	468.11
472.04	442.36
472.22	468.11
472.40	376.83
472.58	425.98
472.77	372.15
472.95	463.43
473.13	423.64
473.31	430.66
473.49	475.13
473.67	475.13
473.85	456.40
474.03	374.49
474.21	425.98
474.39	484.49
474.57	458.74
474.75	470.45
474.93	395.55
475.12	395.55
475.30	390.87
475.48	416.62
475.66	365.12
475.84	409.59
476.02	395.55
476.20	411.93
476.38	414.27
476.56	409.59
476.74	428.32
476.92	360.44
477.10	388.53
477.28	440.02
477.46	351.08
477.64	402.57
477.82	416.62
478.00	383.85
478.18	440.02
478.36	388.53
478.54	423.64
478.72	395.55
478.90	423.64
479.08	423.64
479.26	386.19
479.44	449.38
479.62	395.55
479.80	407.25
479.98	477.47
480.16	416.62
480.34	404.91
480.52	433.00
480.70	440.02
480.88	437.68
481.06	423.64
481.24	421.30
481.41	390.87
481.59	461.09
481.77	505.56
481.95	489.17
482.13	517.26
482.31	433.00
482.49	421.30
482.67	454.06
482.85	475.13
483.03	468.11
483.21	449.38
483.39	414.27
483.57	376.83
483.74	475.13
483.92	442.36
484.10	421.30
484.28	454.06
484.46	479.81
484.64	409.59
484.82	372.15
485.00	386.19
485.18	447.04
485.35	411.93
485.53	456.40
485.71	468.11
485.89	433.00
486.07	442.36
486.25	409.59
486.43	411.93
486.61	369.80
486.78	402.57
486.96	346.40
487.14	449.38
487.32	440.02
487.50	414.27
487.68	437.68
487.85	437.68
488.03	465.77
488.21	425.98
488.39	421.30
488.57	416.62
488.75	428.32
488.92	489.17
489.10	435.34
489.28	437.68
489.46	395.55
489.64	425.98
489.81	507.90
489.99	393.21
490.17	433.00
490.35	521.94
490.53	367.46
490.70	414.27
490.88	423.64
491.06	449.38
491.24	435.34
491.41	475.13
491.59	451.72
491.77	416.62
491.95	360.44
492.13	367.46
492.30	421.30
492.48	395.55
492.66	437.68
492.84	451.72
493.01	491.51
493.19	351.08
493.37	421.30
493.54	414.27
493.72	465.77
493.90	489.17
494.08	416.62
494.25	397.89
494.43	430.66
494.61	393.21
494.79	393.21
494.96	423.64
495.14	416.62
495.32	379.17
495.49	374.49
495.67	477.47
495.85	414.27
496.02	435.34
496.20	381.51
496.38	425.98
496.55	458.74
496.73	402.57
496.91	440.02
497.09	472.79
497.26	461.09
497.44	383.85
497.62	400.23
497.79	416.62
497.97	425.98
498.14	461.09
498.32	507.90
498.50	393.21
498.67	470.45
498.85	447.04
499.03	489.17
499.20	404.91
499.38	409.59
499.56	449.38
499.73	411.93
499.91	386.19
500.08	433.00
500.26	421.30
500.44	393.21
500.61	440.02
500.79	468.11
500.97	421.30
501.14	503.22
501.32	451.72
501.49	444.70
501.67	437.68
501.84	482.15
502.02	416.62
502.20	404.91
502.37	383.85
502.55	381.51
502.72	393.21
502.90	386.19
503.07	409.59
503.25	433.00
503.43	421.30
503.60	414.27
503.78	428.32
503.95	458.74
504.13	451.72
504.30	411.93
504.48	425.98
504.65	447.04
504.83	395.55
505.01	411.93
505.18	400.23
505.36	428.32
505.53	428.32
505.71	444.70
505.88	437.68
506.06	404.91
506.23	402.57
506.41	400.23
506.58	465.77
506.76	477.47
506.93	397.89
507.11	482.15
507.28	402.57
507.46	425.98
507.63	397.89
507.81	376.83
507.98	416.62
508.16	374.49
508.33	444.70
508.50	388.53
508.68	449.38
508.85	458.74
509.03	456.40
509.20	465.77
509.38	402.57
509.55	435.34
509.73	337.04
509.90	503.22
510.08	395.55
510.25	428.32
510.42	379.17
510.60	379.17
510.77	444.70
510.95	493.85
511.12	418.96
511.30	458.74
511.47	416.62
511.64	458.74
511.82	484.49
511.99	404.91
512.17	472.79
512.34	449.38
512.51	430.66
512.69	367.46
512.86	428.32
513.04	470.45
513.21	444.70
513.38	355.76
513.56	465.77
513.73	421.30
513.90	346.40
514.08	379.17
514.25	409.59
514.43	418.96
514.60	482.15
514.77	372.15
514.95	468.11
515.12	440.02
515.29	454.06
515.47	400.23
515.64	374.49
515.81	402.57
515.99	388.53
516.16	395.55
516.33	423.64
516.51	404.91
516.68	390.87
516.85	376.83
517.03	299.59
517.20	369.80
517.37	430.66
517.54	388.53
517.72	428.32
517.89	423.64
518.06	353.42
518.24	456.40
518.41	425.98
518.58	440.02
518.75	435.34
518.93	456.40
519.10	440.02
519.27	449.38
519.45	482.15
519.62	404.91
519.79	390.87
519.96	404.91
520.14	416.62
520.31	395.55
520.48	428.32
520.65	486.83
520.83	397.89
521.00	435.34
521.17	400.23
521.34	404.91
521.52	367.46
521.69	390.87
521.86	393.21
522.03	423.64
522.20	475.13
522.38	404.91
522.55	374.49
522.72	365.12
522.89	526.62
523.07	463.43
523.24	451.72
523.41	433.00
523.58	510.24
523.75	390.87
523.92	470.45
524.10	346.40
524.27	456.40
524.44	383.85
524.61	404.91
524.78	358.10
524.96	433.00
525.13	397.89
525.30	395.55
525.47	479.81
525.64	416.62
525.81	479.81
525.98	367.46
526.16	425.98
526.33	351.08
526.50	411.93
526.67	395.55
526.84	383.85
527.01	437.68
527.18	411.93
527.36	404.91
527.53	493.85
527.70	404.91
527.87	458.74
528.04	454.06
528.21	456.40
528.38	451.72
528.55	484.49
528.72	444.70
528.89	395.55
529.07	430.66
529.24	416.62
529.41	383.85
529.58	444.70
529.75	498.53
529.92	360.44
530.09	428.32
530.26	465.77
530.43	456.40
530.60	430.66
530.77	369.80
530.94	444.70
531.11	409.59
531.28	428.32
531.46	358.10
531.63	360.44
531.80	421.30
531.97	395.55
532.14	451.72
532.31	360.44
532.48	440.02
532.65	421.30
532.82	414.27
532.99	423.64
533.16	433.00
533.33	468.11
533.50	421.30
533.67	444.70
533.84	479.81
534.01	440.02
534.18	423.64
534.35	395.55
534.52	456.40
534.69	425.98
534.86	444.70
535.03	465.77
535.20	444.70
535.37	409.59
535.54	409.59
535.71	423.64
535.88	341.72
536.05	451.72
536.22	463.43
536.38	416.62
536.55	379.17
536.72	479.81
536.89	353.42
537.06	423.64
537.23	447.04
537.40	435.34
537.57	447.04
537.74	425.98
537.91	493.85
538.08	344.06
538.25	365.12
538.42	393.21
538.59	409.59
538.75	433.00
538.92	379.17
539.09	463.43
539.26	435.34
539.43	430.66
539.60	447.04
539.77	414.27
539.94	428.32
540.11	451.72
540.28	430.66
540.44	479.81
540.61	409.59
540.78	416.62
540.95	442.36
541.12	428.32
541.29	407.25
541.46	531.30
541.62	451.72
541.79	430.66
541.96	418.96
542.13	454.06
542.30	393.21
542.47	358.10
542.63	475.13
542.80	435.34
542.97	393.21
543.14	418.96
543.31	397.89
543.48	437.68
543.64	386.19
543.81	337.04
543.98	433.00
544.15	416.62
544.32	374.49
544.48	344.06
544.65	433.00
544.82	386.19
544.99	440.02
545.16	374.49
545.32	381.51
545.49	463.43
545.66	444.70
545.83	407.25
546.00	409.59
546.16	463.43
546.33	472.79
546.50	400.23
546.67	421.30
546.83	374.49
547.00	440.02
547.17	430.66
547.34	381.51
547.50	421.30
547.67	411.93
547.84	330.02
548.00	421.30
548.17	388.53
548.34	376.83
548.51	444.70
548.67	463.43
548.84	414.27
549.01	388.53
549.18	428.32
549.34	477.47
549.51	468.11
549.68	414.27
549.84	421.30
550.01	430.66
550.18	514.92
550.34	470.45
550.51	362.78
550.68	465.77
550.84	458.74
551.01	418.96
551.18	461.09
551.34	444.70
551.51	358.10
551.68	423.64
551.84	327.68
552.01	362.78
552.18	444.70
552.34	355.76
552.51	470.45
552.68	435.34
552.84	383.85
553.01	421.30
553.18	425.98
553.34	407.25
553.51	365.12
553.67	411.93
553.84	484.49
554.01	465.77
554.17	440.02
554.34	402.57
554.51	409.59
554.67	344.06
554.84	454.06
555.00	463.43
555.17	440.02
555.33	404.91
555.50	425.98
555.67	423.64
555.83	425.98
556.00	433.00
556.16	559.39
556.33	442.36
556.50	411.93
556.66	372.15
556.83	383.85
556.99	437.68
557.16	388.53
557.32	407.25
557.49	514.92
557.65	416.62
557.82	379.17
557.98	418.96
558.15	409.59
558.32	456.40
558.48	358.10
558.65	374.49
558.81	402.57
558.98	400.23
559.14	395.55
559.31	433.00
559.47	444.70
559.64	526.62
559.80	437.68
559.97	440.02
560.13	400.23
560.30	411.93
560.46	433.00
560.63	451.72
560.79	468.11
560.96	430.66
561.12	461.09
561.29	404.91
561.45	463.43
561.61	360.44
561.78	496.19
561.94	404.91
562.11	425.98
562.27	395.55
562.44	351.08
562.60	400.23
562.77	421.30
562.93	470.45
563.10	433.00
563.26	397.89
563.42	416.62
563.59	388.53
563.75	444.70
563.92	416.62
564.08	397.89
564.24	486.83
564.41	517.26
564.57	402.57
564.74	470.45
564.90	430.66
565.07	437.68
565.23	475.13
565.39	376.83
565.56	435.34
565.72	425.98
565.88	383.85
566.05	409.59
566.21	393.21
566.38	407.25
566.54	369.80
566.70	484.49
566.87	395.55
567.03	435.34
567.19	416.62
567.36	437.68
567.52	423.64
567.68	372.15
567.85	428.32
568.01	418.96
568.17	475.13
568.34	444.70
568.50	451.72
568.66	428.32
568.83	435.34
568.99	395.55
569.15	437.68
569.32	383.85
569.48	451.72
569.64	400.23
569.81	409.59
569.97	425.98
570.13	381.51
570.30	425.98
570.46	414.27
570.62	437.68
570.78	376.83
570.95	468.11
571.11	451.72
571.27	489.17
571.43	444.70
571.60	442.36
571.76	404.91
571.92	355.76
572.09	433.00
572.25	381.51
572.41	360.44
572.57	428.32
572.74	454.06
572.90	444.70
573.06	442.36
573.22	402.57
573.38	458.74
573.55	458.74
573.71	400.23
573.87	477.47
574.03	437.68
574.20	442.36
574.36	428.32
574.52	407.25
574.68	404.91
574.84	418.96
575.01	458.74
575.17	470.45
575.33	449.38
575.49	421.30
575.65	393.21
575.82	477.47
575.98	411.93
576.14	451.72
576.30	353.42
576.46	390.87
576.62	348.74
576.79	376.83
576.95	435.34
577.11	449.38
577.27	451.72
577.43	538.32
577.59	339.38
577.75	395.55
577.92	447.04
578.08	365.12
578.24	369.80
578.40	521.94
578.56	498.53
578.72	327.68
578.88	397.89
579.04	437.68
579.21	388.53
579.37	442.36
579.53	376.83
579.69	435.34
579.85	362.78
580.01	390.87
580.17	379.17
580.33	339.38
580.49	423.64
580.65	458.74
580.82	407.25
580.98	402.57
581.14	376.83
581.30	470.45
581.46	428.32
581.62	440.02
581.78	423.64
581.94	409.59
582.10	355.76
582.26	430.66
582.42	475.13
582.58	428.32
582.74	381.51
582.90	552.37
583.06	404.91
583.22	430.66
583.38	433.00
583.54	430.66
583.70	418.96
583.86	348.74
584.02	386.19
584.18	379.17
584.34	386.19
584.50	416.62
584.66	440.02
584.82	472.79
584.98	465.77
585.14	395.55
585.30	393.21
585.46	454.06
585.62	400.23
585.78	491.51
585.94	475.13
586.10	475.13
586.26	425.98
586.42	505.56
586.58	395.55
586.74	376.83
586.90	414.27
587.06	440.02
587.22	489.17
587.38	411.93
587.54	451.72
587.70	451.72
587.86	484.49
588.02	479.81
588.18	442.36
588.34	407.25
588.49	372.15
588.65	411.93
588.81	414.27
588.97	397.89
589.13	400.23
589.29	388.53
589.45	374.49
589.61	376.83
589.77	472.79
589.93	407.25
590.08	463.43
590.24	423.64
590.40	411.93
590.56	484.49
590.72	423.64
590.88	425.98
591.04	425.98
591.20	484.49
591.35	468.11
591.51	362.78
591.67	348.74
591.83	400.23
591.99	454.06
592.15	393.21
592.31	447.04
592.46	365.12
592.62	430.66
592.78	395.55
592.94	379.17
593.10	395.55
593.26	397.89
593.41	463.43
593.57	428.32
593.73	397.89
593.89	451.72
594.05	390.87
594.20	351.08
594.36	421.30
594.52	425.98
594.68	395.55
594.84	449.38
594.99	395.55
595.15	461.09
595.31	521.94
595.47	423.64
595.62	381.51
595.78	400.23
595.94	407.25
596.10	400.23
596.25	470.45
596.41	477.47
596.57	435.34
596.73	463.43
596.88	470.45
597.04	456.40
597.20	353.42
597.36	428.32
597.51	437.68
597.67	376.83
597.83	390.87
597.99	423.64
598.14	491.51
598.30	447.04
598.46	418.96
598.61	440.02
598.77	404.91
598.93	351.08
599.09	407.25
599.24	433.00
599.40	397.89
599.56	435.34
599.71	379.17
599.87	465.77
600.03	395.55
600.18	379.17
600.34	477.47
600.50	383.85
600.65	386.19
600.81	425.98
600.97	433.00
601.12	423.64
601.28	430.66
601.44	297.25
601.59	388.53
601.75	383.85
601.91	402.57
602.06	442.36
602.22	498.53
602.37	421.30
602.53	416.62
602.69	409.59
602.84	393.21
603.00	482.15
603.16	369.80
603.31	435.34
603.47	430.66
603.62	341.72
603.78	505.56
603.94	358.10
604.09	416.62
604.25	393.21
604.40	510.24
604.56	339.38
604.71	390.87
604.87	365.12
605.03	423.64
605.18	379.17
605.34	425.98
605.49	395.55
605.65	428.32
605.80	484.49
605.96	414.27
606.12	435.34
606.27	414.27
606.43	435.34
606.58	383.85
606.74	489.17
606.89	430.66
607.05	397.89
607.20	435.34
607.36	416.62
607.51	407.25
607.67	449.38
607.82	407.25
607.98	482.15
608.13	369.80
608.29	376.83
608.44	437.68
608.60	421.30
608.75	430.66
608.91	416.62
609.06	393.21
609.22	430.66
609.37	341.72
609.53	397.89
609.68	442.36
609.84	386.19
609.99	468.11
610.15	484.49
