SpectraSuite Data File
++++++++++++++++++++++++++++++++++++
Date: Fri Oct 25 12:10:57 EDT 2013
User: price-jones
Dark Spectrum Present: No
Reference Spectrum Present: No
Number of Sampled Component Spectra: 1
Spectrometers: USB2+H05261
Integration Time (usec): 100000 (USB2+H05261)
Spectra Averaged: 1 (USB2+H05261)
Boxcar Smoothing: 0 (USB2+H05261)
Correct for Electrical Dark: No (USB2+H05261)
Strobe/Lamp Enabled: No (USB2+H05261)
Correct for Detector Non-linearity: No (USB2+H05261)
Correct for Stray Light: No (USB2+H05261)
Number of Pixels in Processed Spectrum: 2048
>>>>>Begin Processed Spectral Data<<<<<
365.73	320.65
365.92	320.65
366.12	320.65
366.32	210.65
366.52	243.42
366.72	243.42
366.91	215.33
367.11	259.80
367.31	224.69
367.51	278.52
367.70	245.76
367.90	234.05
368.10	231.71
368.30	131.07
368.49	215.33
368.69	257.46
368.89	297.25
369.09	311.29
369.28	231.71
369.48	273.84
369.68	248.10
369.87	318.31
370.07	320.65
370.27	355.76
370.47	383.85
370.66	308.95
370.86	430.66
371.06	440.02
371.25	386.19
371.45	374.49
371.65	386.19
371.84	390.87
372.04	365.12
372.24	351.08
372.44	367.46
372.63	440.02
372.83	451.72
373.03	393.21
373.22	458.74
373.42	428.32
373.62	372.15
373.81	416.62
374.01	517.26
374.21	411.93
374.40	451.72
374.60	430.66
374.79	407.25
374.99	423.64
375.19	393.21
375.38	404.91
375.58	381.51
375.78	454.06
375.97	388.53
376.17	444.70
376.37	390.87
376.56	430.66
376.76	461.09
376.95	407.25
377.15	442.36
377.35	437.68
377.54	423.64
377.74	456.40
377.93	414.27
378.13	458.74
378.33	411.93
378.52	433.00
378.72	393.21
378.91	442.36
379.11	372.15
379.31	360.44
379.50	400.23
379.70	383.85
379.89	458.74
380.09	348.74
380.28	454.06
380.48	433.00
380.68	374.49
380.87	416.62
381.07	477.47
381.26	393.21
381.46	393.21
381.65	430.66
381.85	444.70
382.04	372.15
382.24	416.62
382.43	379.17
382.63	409.59
382.83	397.89
383.02	440.02
383.22	404.91
383.41	379.17
383.61	423.64
383.80	498.53
384.00	428.32
384.19	318.31
384.39	311.29
384.58	456.40
384.78	507.90
384.97	395.55
385.17	379.17
385.36	503.22
385.56	442.36
385.75	423.64
385.95	360.44
386.14	470.45
386.34	386.19
386.53	388.53
386.72	290.23
386.92	397.89
387.11	411.93
387.31	425.98
387.50	393.21
387.70	409.59
387.89	404.91
388.09	437.68
388.28	414.27
388.48	362.78
388.67	358.10
388.86	383.85
389.06	388.53
389.25	393.21
389.45	351.08
389.64	369.80
389.84	407.25
390.03	447.04
390.22	484.49
390.42	397.89
390.61	390.87
390.81	344.06
391.00	468.11
391.19	402.57
391.39	383.85
391.58	374.49
391.78	379.17
391.97	433.00
392.16	337.04
392.36	421.30
392.55	437.68
392.75	395.55
392.94	402.57
393.13	388.53
393.33	393.21
393.52	428.32
393.71	423.64
393.91	372.15
394.10	381.51
394.29	344.06
394.49	447.04
394.68	442.36
394.88	388.53
395.07	456.40
395.26	451.72
395.46	407.25
395.65	444.70
395.84	421.30
396.04	423.64
396.23	383.85
396.42	330.02
396.62	400.23
396.81	423.64
397.00	397.89
397.19	409.59
397.39	393.21
397.58	433.00
397.77	369.80
397.97	386.19
398.16	437.68
398.35	390.87
398.55	348.74
398.74	440.02
398.93	411.93
399.12	442.36
399.32	465.77
399.51	397.89
399.70	470.45
399.90	379.17
400.09	433.00
400.28	400.23
400.47	447.04
400.67	397.89
400.86	369.80
401.05	421.30
401.24	468.11
401.44	470.45
401.63	414.27
401.82	369.80
402.01	374.49
402.21	447.04
402.40	414.27
402.59	433.00
402.78	362.78
402.97	404.91
403.17	346.40
403.36	383.85
403.55	353.42
403.74	409.59
403.93	372.15
404.13	510.24
404.32	388.53
404.51	388.53
404.70	390.87
404.89	395.55
405.09	411.93
405.28	341.72
405.47	435.34
405.66	344.06
405.85	418.96
406.05	402.57
406.24	421.30
406.43	390.87
406.62	400.23
406.81	496.19
407.00	386.19
407.20	367.46
407.39	395.55
407.58	372.15
407.77	397.89
407.96	372.15
408.15	435.34
408.34	327.68
408.54	423.64
408.73	421.30
408.92	435.34
409.11	381.51
409.30	468.11
409.49	411.93
409.68	468.11
409.87	435.34
410.07	423.64
410.26	407.25
410.45	372.15
410.64	430.66
410.83	388.53
411.02	470.45
411.21	470.45
411.40	456.40
411.59	423.64
411.78	372.15
411.98	447.04
412.17	383.85
412.36	418.96
412.55	421.30
412.74	379.17
412.93	425.98
413.12	381.51
413.31	367.46
413.50	433.00
413.69	444.70
413.88	437.68
414.07	388.53
414.26	456.40
414.45	444.70
414.64	433.00
414.83	435.34
415.02	360.44
415.22	374.49
415.41	437.68
415.60	402.57
415.79	393.21
415.98	334.70
416.17	428.32
416.36	421.30
416.55	334.70
416.74	421.30
416.93	390.87
417.12	358.10
417.31	477.47
417.50	458.74
417.69	421.30
417.88	421.30
418.07	381.51
418.26	365.12
418.45	393.21
418.64	423.64
418.83	400.23
419.02	465.77
419.21	414.27
419.39	430.66
419.58	315.97
419.77	367.46
419.96	388.53
420.15	414.27
420.34	348.74
420.53	339.38
420.72	475.13
420.91	379.17
421.10	404.91
421.29	409.59
421.48	444.70
421.67	472.79
421.86	348.74
422.05	430.66
422.24	393.21
422.43	355.76
422.61	369.80
422.80	437.68
422.99	407.25
423.18	447.04
423.37	390.87
423.56	428.32
423.75	468.11
423.94	430.66
424.13	440.02
424.32	367.46
424.50	461.09
424.69	428.32
424.88	461.09
425.07	411.93
425.26	407.25
425.45	369.80
425.64	376.83
425.83	461.09
426.01	428.32
426.20	369.80
426.39	418.96
426.58	393.21
426.77	425.98
426.96	416.62
427.15	409.59
427.33	400.23
427.52	362.78
427.71	449.38
427.90	465.77
428.09	374.49
428.28	409.59
428.46	440.02
428.65	444.70
428.84	416.62
429.03	437.68
429.22	468.11
429.40	484.49
429.59	374.49
429.78	355.76
429.97	388.53
430.16	386.19
430.34	491.51
430.53	393.21
430.72	463.43
430.91	463.43
431.10	402.57
431.28	344.06
431.47	383.85
431.66	402.57
431.85	418.96
432.03	393.21
432.22	472.79
432.41	418.96
432.60	486.83
432.79	430.66
432.97	468.11
433.16	341.72
433.35	512.58
433.54	430.66
433.72	472.79
433.91	390.87
434.10	404.91
434.28	365.12
434.47	411.93
434.66	458.74
434.85	451.72
435.03	418.96
435.22	379.17
435.41	397.89
435.59	496.19
435.78	404.91
435.97	374.49
436.16	374.49
436.34	416.62
436.53	454.06
436.72	433.00
436.90	493.85
437.09	376.83
437.28	402.57
437.46	390.87
437.65	418.96
437.84	444.70
438.02	351.08
438.21	465.77
438.40	358.10
438.58	416.62
438.77	395.55
438.96	348.74
439.14	447.04
439.33	442.36
439.52	423.64
439.70	414.27
439.89	404.91
440.08	440.02
440.26	414.27
440.45	409.59
440.63	397.89
440.82	411.93
441.01	393.21
441.19	379.17
441.38	400.23
441.57	440.02
441.75	381.51
441.94	376.83
442.12	400.23
442.31	447.04
442.50	456.40
442.68	376.83
442.87	400.23
443.05	447.04
443.24	360.44
443.43	468.11
443.61	425.98
443.80	379.17
443.98	456.40
444.17	454.06
444.35	418.96
444.54	393.21
444.73	428.32
444.91	484.49
445.10	409.59
445.28	397.89
445.47	442.36
445.65	444.70
445.84	404.91
446.02	421.30
446.21	451.72
446.39	383.85
446.58	381.51
446.77	442.36
446.95	451.72
447.14	421.30
447.32	414.27
447.51	388.53
447.69	416.62
447.88	351.08
448.06	435.34
448.25	414.27
448.43	365.12
448.62	437.68
448.80	397.89
448.99	374.49
449.17	383.85
449.36	470.45
449.54	468.11
449.73	360.44
449.91	386.19
450.10	383.85
450.28	454.06
450.46	440.02
450.65	369.80
450.83	437.68
451.02	484.49
451.20	435.34
451.39	409.59
451.57	402.57
451.76	404.91
451.94	397.89
452.13	400.23
452.31	407.25
452.49	379.17
452.68	409.59
452.86	348.74
453.05	376.83
453.23	421.30
453.42	386.19
453.60	376.83
453.78	404.91
453.97	395.55
454.15	367.46
454.34	461.09
454.52	423.64
454.70	435.34
454.89	400.23
455.07	423.64
455.26	442.36
455.44	353.42
455.62	416.62
455.81	435.34
455.99	358.10
456.17	421.30
456.36	381.51
456.54	341.72
456.73	442.36
456.91	386.19
457.09	425.98
457.28	479.81
457.46	367.46
457.64	381.51
457.83	465.77
458.01	416.62
458.19	430.66
458.38	369.80
458.56	402.57
458.74	388.53
458.93	372.15
459.11	416.62
459.29	360.44
459.48	404.91
459.66	475.13
459.84	435.34
460.03	517.26
460.21	374.49
460.39	425.98
460.57	437.68
460.76	454.06
460.94	463.43
461.12	463.43
461.31	451.72
461.49	428.32
461.67	435.34
461.85	383.85
462.04	402.57
462.22	697.48
462.40	423.64
462.59	379.17
462.77	346.40
462.95	421.30
463.13	404.91
463.32	418.96
463.50	472.79
463.68	407.25
463.86	348.74
464.05	456.40
464.23	404.91
464.41	451.72
464.59	397.89
464.78	444.70
464.96	358.10
465.14	397.89
465.32	423.64
465.50	418.96
465.69	416.62
465.87	465.77
466.05	367.46
466.23	447.04
466.41	358.10
466.60	411.93
466.78	442.36
466.96	435.34
467.14	386.19
467.32	418.96
467.51	383.85
467.69	458.74
467.87	379.17
468.05	454.06
468.23	440.02
468.41	491.51
468.60	397.89
468.78	393.21
468.96	425.98
469.14	400.23
469.32	367.46
469.50	411.93
469.69	360.44
469.87	379.17
470.05	367.46
470.23	491.51
470.41	449.38
470.59	414.27
470.77	486.83
470.95	362.78
471.14	402.57
471.32	374.49
471.50	411.93
471.68	369.80
471.86	458.74
472.04	339.38
472.22	407.25
472.40	407.25
472.58	444.70
472.77	390.87
472.95	437.68
473.13	416.62
473.31	491.51
473.49	383.85
473.67	428.32
473.85	416.62
474.03	458.74
474.21	397.89
474.39	374.49
474.57	353.42
474.75	435.34
474.93	379.17
475.12	404.91
475.30	386.19
475.48	444.70
475.66	437.68
475.84	365.12
476.02	395.55
476.20	402.57
476.38	507.90
476.56	463.43
476.74	423.64
476.92	325.33
477.10	360.44
477.28	414.27
477.46	379.17
477.64	437.68
477.82	458.74
478.00	369.80
478.18	433.00
478.36	440.02
478.54	456.40
478.72	444.70
478.90	362.78
479.08	376.83
479.26	386.19
479.44	383.85
479.62	442.36
479.80	409.59
479.98	428.32
480.16	381.51
480.34	458.74
480.52	423.64
480.70	482.15
480.88	414.27
481.06	355.76
481.24	414.27
481.41	451.72
481.59	449.38
481.77	437.68
481.95	416.62
482.13	461.09
482.31	440.02
482.49	442.36
482.67	397.89
482.85	437.68
483.03	430.66
483.21	409.59
483.39	407.25
483.57	444.70
483.74	496.19
483.92	463.43
484.10	407.25
484.28	484.49
484.46	456.40
484.64	388.53
484.82	346.40
485.00	346.40
485.18	463.43
485.35	337.04
485.53	447.04
485.71	435.34
485.89	367.46
486.07	421.30
486.25	437.68
486.43	454.06
486.61	447.04
486.78	418.96
486.96	376.83
487.14	294.91
487.32	376.83
487.50	421.30
487.68	479.81
487.85	344.06
488.03	404.91
488.21	423.64
488.39	430.66
488.57	397.89
488.75	402.57
488.92	472.79
489.10	425.98
489.28	428.32
489.46	308.95
489.64	404.91
489.81	468.11
489.99	341.72
490.17	390.87
490.35	475.13
490.53	517.26
490.70	374.49
490.88	381.51
491.06	409.59
491.24	376.83
491.41	390.87
491.59	411.93
491.77	411.93
491.95	402.57
492.13	372.15
492.30	449.38
492.48	440.02
492.66	379.17
492.84	311.29
493.01	428.32
493.19	409.59
493.37	451.72
493.54	430.66
493.72	376.83
493.90	461.09
494.08	397.89
494.25	365.12
494.43	447.04
494.61	433.00
494.79	411.93
494.96	386.19
495.14	423.64
495.32	435.34
495.49	374.49
495.67	365.12
495.85	482.15
496.02	442.36
496.20	465.77
496.38	423.64
496.55	442.36
496.73	379.17
496.91	437.68
497.09	374.49
497.26	463.43
497.44	454.06
497.62	395.55
497.79	435.34
497.97	404.91
498.14	468.11
498.32	444.70
498.50	376.83
498.67	451.72
498.85	402.57
499.03	367.46
499.20	341.72
499.38	414.27
499.56	402.57
499.73	411.93
499.91	414.27
500.08	491.51
500.26	428.32
500.44	433.00
500.61	421.30
500.79	444.70
500.97	451.72
501.14	500.87
501.32	334.70
501.49	400.23
501.67	437.68
501.84	386.19
502.02	395.55
502.20	433.00
502.37	386.19
502.55	395.55
502.72	397.89
502.90	425.98
503.07	425.98
503.25	414.27
503.43	365.12
503.60	393.21
503.78	386.19
503.95	451.72
504.13	444.70
504.30	386.19
504.48	489.17
504.65	498.53
504.83	489.17
505.01	472.79
505.18	369.80
505.36	428.32
505.53	425.98
505.71	372.15
505.88	435.34
506.06	411.93
506.23	376.83
506.41	395.55
506.58	402.57
506.76	440.02
506.93	327.68
507.11	418.96
507.28	411.93
507.46	440.02
507.63	496.19
507.81	456.40
507.98	407.25
508.16	376.83
508.33	454.06
508.50	355.76
508.68	386.19
508.85	402.57
509.03	437.68
509.20	388.53
509.38	386.19
509.55	430.66
509.73	486.83
509.90	397.89
510.08	407.25
510.25	395.55
510.42	374.49
510.60	390.87
510.77	428.32
510.95	402.57
511.12	308.95
511.30	390.87
511.47	400.23
511.64	468.11
511.82	376.83
511.99	428.32
512.17	353.42
512.34	442.36
512.51	374.49
512.69	369.80
512.86	456.40
513.04	449.38
513.21	409.59
513.38	433.00
513.56	400.23
513.73	433.00
513.90	400.23
514.08	395.55
514.25	362.78
514.43	400.23
514.60	475.13
514.77	418.96
514.95	397.89
515.12	348.74
515.29	486.83
515.47	395.55
515.64	393.21
515.81	404.91
515.99	418.96
516.16	334.70
516.33	397.89
516.51	369.80
516.68	374.49
516.85	376.83
517.03	409.59
517.20	388.53
517.37	409.59
517.54	468.11
517.72	435.34
517.89	400.23
518.06	416.62
518.24	440.02
518.41	472.79
518.58	379.17
518.75	376.83
518.93	390.87
519.10	337.04
519.27	400.23
519.45	418.96
519.62	351.08
519.79	444.70
519.96	423.64
520.14	358.10
520.31	456.40
520.48	444.70
520.65	416.62
520.83	437.68
521.00	402.57
521.17	416.62
521.34	486.83
521.52	374.49
521.69	454.06
521.86	379.17
522.03	362.78
522.20	468.11
522.38	449.38
522.55	447.04
522.72	395.55
522.89	425.98
523.07	463.43
523.24	386.19
523.41	423.64
523.58	397.89
523.75	440.02
523.92	381.51
524.10	447.04
524.27	428.32
524.44	365.12
524.61	447.04
524.78	435.34
524.96	407.25
525.13	409.59
525.30	461.09
525.47	390.87
525.64	451.72
525.81	351.08
525.98	383.85
526.16	486.83
526.33	468.11
526.50	493.85
526.67	397.89
526.84	458.74
527.01	390.87
527.18	433.00
527.36	390.87
527.53	360.44
527.70	442.36
527.87	465.77
528.04	475.13
528.21	365.12
528.38	433.00
528.55	423.64
528.72	444.70
528.89	547.69
529.07	440.02
529.24	379.17
529.41	393.21
529.58	428.32
529.75	498.53
529.92	472.79
530.09	360.44
530.26	374.49
530.43	447.04
530.60	421.30
530.77	440.02
530.94	379.17
531.11	425.98
531.28	484.49
531.46	456.40
531.63	334.70
531.80	433.00
531.97	365.12
532.14	442.36
532.31	313.63
532.48	400.23
532.65	418.96
532.82	397.89
532.99	421.30
533.16	414.27
533.33	409.59
533.50	425.98
533.67	472.79
533.84	393.21
534.01	395.55
534.18	435.34
534.35	430.66
534.52	411.93
534.69	404.91
534.86	409.59
535.03	414.27
535.20	435.34
535.37	449.38
535.54	397.89
535.71	456.40
535.88	461.09
536.05	510.24
536.22	440.02
536.38	477.47
536.55	482.15
536.72	465.77
536.89	425.98
537.06	395.55
537.23	397.89
537.40	409.59
537.57	395.55
537.74	449.38
537.91	423.64
538.08	388.53
538.25	416.62
538.42	393.21
538.59	348.74
538.75	365.12
538.92	400.23
539.09	475.13
539.26	514.92
539.43	449.38
539.60	414.27
539.77	418.96
539.94	416.62
540.11	416.62
540.28	451.72
540.44	411.93
540.61	381.51
540.78	337.04
540.95	381.51
541.12	440.02
541.29	451.72
541.46	451.72
541.62	486.83
541.79	465.77
541.96	341.72
542.13	451.72
542.30	358.10
542.47	407.25
542.63	367.46
542.80	500.87
542.97	447.04
543.14	447.04
543.31	451.72
543.48	411.93
543.64	407.25
543.81	395.55
543.98	395.55
544.15	461.09
544.32	390.87
544.48	477.47
544.65	421.30
544.82	465.77
544.99	447.04
545.16	454.06
545.32	339.38
545.49	456.40
545.66	388.53
545.83	372.15
546.00	372.15
546.16	397.89
546.33	442.36
546.50	447.04
546.67	383.85
546.83	407.25
547.00	393.21
547.17	400.23
547.34	418.96
547.50	444.70
547.67	402.57
547.84	442.36
548.00	360.44
548.17	479.81
548.34	388.53
548.51	383.85
548.67	430.66
548.84	416.62
549.01	496.19
549.18	388.53
549.34	442.36
549.51	386.19
549.68	383.85
549.84	400.23
550.01	395.55
550.18	500.87
550.34	425.98
550.51	351.08
550.68	547.69
550.84	451.72
551.01	362.78
551.18	456.40
551.34	362.78
551.51	465.77
551.68	423.64
551.84	440.02
552.01	489.17
552.18	388.53
552.34	477.47
552.51	447.04
552.68	433.00
552.84	433.00
553.01	374.49
553.18	477.47
553.34	397.89
553.51	397.89
553.67	437.68
553.84	411.93
554.01	386.19
554.17	437.68
554.34	381.51
554.51	458.74
554.67	533.64
554.84	465.77
555.00	416.62
555.17	395.55
555.33	379.17
555.50	433.00
555.67	376.83
555.83	355.76
556.00	465.77
556.16	559.39
556.33	421.30
556.50	428.32
556.66	404.91
556.83	416.62
556.99	461.09
557.16	437.68
557.32	428.32
557.49	409.59
557.65	388.53
557.82	372.15
557.98	465.77
558.15	374.49
558.32	411.93
558.48	416.62
558.65	425.98
558.81	468.11
558.98	477.47
559.14	407.25
559.31	397.89
559.47	407.25
559.64	386.19
559.80	440.02
559.97	393.21
560.13	498.53
560.30	463.43
560.46	360.44
560.63	374.49
560.79	372.15
560.96	482.15
561.12	500.87
561.29	418.96
561.45	428.32
561.61	493.85
561.78	491.51
561.94	433.00
562.11	386.19
562.27	493.85
562.44	486.83
562.60	423.64
562.77	416.62
562.93	454.06
563.10	390.87
563.26	433.00
563.42	404.91
563.59	489.17
563.75	381.51
563.92	454.06
564.08	421.30
564.24	444.70
564.41	489.17
564.57	449.38
564.74	468.11
564.90	538.32
565.07	425.98
565.23	409.59
565.39	346.40
565.56	451.72
565.72	402.57
565.88	355.76
566.05	369.80
566.21	437.68
566.38	458.74
566.54	411.93
566.70	458.74
566.87	402.57
567.03	365.12
567.19	388.53
567.36	397.89
567.52	397.89
567.68	463.43
567.85	444.70
568.01	437.68
568.17	425.98
568.34	437.68
568.50	435.34
568.66	437.68
568.83	486.83
568.99	447.04
569.15	395.55
569.32	428.32
569.48	388.53
569.64	372.15
569.81	444.70
569.97	437.68
570.13	430.66
570.30	404.91
570.46	425.98
570.62	461.09
570.78	454.06
570.95	376.83
571.11	484.49
571.27	444.70
571.43	430.66
571.60	411.93
571.76	379.17
571.92	500.87
572.09	400.23
572.25	440.02
572.41	381.51
572.57	414.27
572.74	465.77
572.90	442.36
573.06	484.49
573.22	468.11
573.38	372.15
573.55	386.19
573.71	444.70
573.87	484.49
574.03	454.06
574.20	381.51
574.36	475.13
574.52	397.89
574.68	348.74
574.84	341.72
575.01	528.96
575.17	435.34
575.33	437.68
575.49	477.47
575.65	351.08
575.82	388.53
575.98	435.34
576.14	505.56
576.30	379.17
576.46	421.30
576.62	407.25
576.79	433.00
576.95	423.64
577.11	456.40
577.27	428.32
577.43	409.59
577.59	458.74
577.75	369.80
577.92	423.64
578.08	440.02
578.24	395.55
578.40	430.66
578.56	505.56
578.72	484.49
578.88	416.62
579.04	407.25
579.21	435.34
579.37	423.64
579.53	404.91
579.69	468.11
579.85	383.85
580.01	360.44
580.17	390.87
580.33	374.49
580.49	442.36
580.65	437.68
580.82	379.17
580.98	463.43
581.14	388.53
581.30	369.80
581.46	332.36
581.62	454.06
581.78	325.33
581.94	388.53
582.10	435.34
582.26	454.06
582.42	358.10
582.58	414.27
582.74	477.47
582.90	444.70
583.06	400.23
583.22	346.40
583.38	383.85
583.54	404.91
583.70	365.12
583.86	369.80
584.02	383.85
584.18	414.27
584.34	447.04
584.50	435.34
584.66	358.10
584.82	397.89
584.98	393.21
585.14	423.64
585.30	397.89
585.46	416.62
585.62	379.17
585.78	407.25
585.94	411.93
586.10	489.17
586.26	444.70
586.42	390.87
586.58	383.85
586.74	411.93
586.90	430.66
587.06	470.45
587.22	428.32
587.38	360.44
587.54	400.23
587.70	365.12
587.86	461.09
588.02	463.43
588.18	454.06
588.34	421.30
588.49	341.72
588.65	404.91
588.81	416.62
588.97	423.64
589.13	404.91
589.29	465.77
589.45	482.15
589.61	390.87
589.77	475.13
589.93	381.51
590.08	428.32
590.24	451.72
590.40	456.40
590.56	507.90
590.72	421.30
590.88	339.38
591.04	381.51
591.20	407.25
591.35	383.85
591.51	381.51
591.67	362.78
591.83	456.40
591.99	409.59
592.15	346.40
592.31	402.57
592.46	381.51
592.62	489.17
592.78	397.89
592.94	404.91
593.10	395.55
593.26	325.33
593.41	423.64
593.57	376.83
593.73	428.32
593.89	393.21
594.05	458.74
594.20	451.72
594.36	400.23
594.52	376.83
594.68	435.34
594.84	444.70
594.99	430.66
595.15	409.59
595.31	442.36
595.47	449.38
595.62	409.59
595.78	402.57
595.94	330.02
596.10	449.38
596.25	433.00
596.41	416.62
596.57	449.38
596.73	407.25
596.88	433.00
597.04	395.55
597.20	421.30
597.36	423.64
597.51	442.36
597.67	362.78
597.83	472.79
597.99	440.02
598.14	486.83
598.30	397.89
598.46	423.64
598.61	444.70
598.77	442.36
598.93	379.17
599.09	400.23
599.24	425.98
599.40	454.06
599.56	430.66
599.71	425.98
599.87	416.62
600.03	416.62
600.18	437.68
600.34	465.77
600.50	433.00
600.65	390.87
600.81	365.12
600.97	440.02
601.12	393.21
601.28	472.79
601.44	484.49
601.59	348.74
601.75	493.85
601.91	435.34
602.06	458.74
602.22	465.77
602.37	402.57
602.53	381.51
602.69	425.98
602.84	397.89
603.00	503.22
603.16	397.89
603.31	407.25
603.47	463.43
603.62	456.40
603.78	505.56
603.94	498.53
604.09	454.06
604.25	332.36
604.40	484.49
604.56	475.13
604.71	425.98
604.87	400.23
605.03	409.59
605.18	472.79
605.34	416.62
605.49	433.00
605.65	440.02
605.80	381.51
605.96	447.04
606.12	409.59
606.27	400.23
606.43	402.57
606.58	367.46
606.74	365.12
606.89	381.51
607.05	465.77
607.20	411.93
607.36	390.87
607.51	423.64
607.67	411.93
607.82	433.00
607.98	390.87
608.13	407.25
608.29	463.43
608.44	421.30
608.60	374.49
608.75	411.93
608.91	482.15
609.06	435.34
609.22	393.21
609.37	437.68
609.53	437.68
609.68	404.91
609.84	482.15
609.99	390.87
610.15	449.38
