SpectraSuite Data File
++++++++++++++++++++++++++++++++++++
Date: Fri Oct 25 12:11:42 EDT 2013
User: price-jones
Dark Spectrum Present: No
Reference Spectrum Present: No
Number of Sampled Component Spectra: 1
Spectrometers: USB2+H05261
Integration Time (usec): 100000 (USB2+H05261)
Spectra Averaged: 1 (USB2+H05261)
Boxcar Smoothing: 0 (USB2+H05261)
Correct for Electrical Dark: No (USB2+H05261)
Strobe/Lamp Enabled: No (USB2+H05261)
Correct for Detector Non-linearity: No (USB2+H05261)
Correct for Stray Light: No (USB2+H05261)
Number of Pixels in Processed Spectrum: 2048
>>>>>Begin Processed Spectral Data<<<<<
365.73	379.17
365.92	379.17
366.12	379.17
366.32	346.40
366.52	208.31
366.72	205.97
366.91	229.37
367.11	252.78
367.31	241.08
367.51	241.08
367.70	285.55
367.90	184.90
368.10	278.52
368.30	236.39
368.49	184.90
368.69	255.12
368.89	259.80
369.09	217.67
369.28	220.01
369.48	266.82
369.68	217.67
369.87	280.86
370.07	283.20
370.27	330.02
370.47	355.76
370.66	280.86
370.86	374.49
371.06	416.62
371.25	425.98
371.45	400.23
371.65	416.62
371.84	339.38
372.04	374.49
372.24	330.02
372.44	425.98
372.63	423.64
372.83	351.08
373.03	348.74
373.22	454.06
373.42	421.30
373.62	416.62
373.81	339.38
374.01	479.81
374.21	423.64
374.40	374.49
374.60	397.89
374.79	444.70
374.99	486.83
375.19	465.77
375.38	397.89
375.58	400.23
375.78	393.21
375.97	433.00
376.17	451.72
376.37	433.00
376.56	351.08
376.76	346.40
376.95	386.19
377.15	428.32
377.35	404.91
377.54	390.87
377.74	423.64
377.93	379.17
378.13	414.27
378.33	465.77
378.52	386.19
378.72	367.46
378.91	484.49
379.11	449.38
379.31	365.12
379.50	353.42
379.70	400.23
379.89	397.89
380.09	409.59
380.28	416.62
380.48	411.93
380.68	402.57
380.87	407.25
381.07	461.09
381.26	421.30
381.46	409.59
381.65	435.34
381.85	414.27
382.04	374.49
382.24	425.98
382.43	414.27
382.63	360.44
382.83	376.83
383.02	369.80
383.22	451.72
383.41	400.23
383.61	409.59
383.80	390.87
384.00	407.25
384.19	435.34
384.39	369.80
384.58	376.83
384.78	414.27
384.97	365.12
385.17	341.72
385.36	428.32
385.56	407.25
385.75	337.04
385.95	425.98
386.14	409.59
386.34	458.74
386.53	409.59
386.72	447.04
386.92	468.11
387.11	402.57
387.31	489.17
387.50	402.57
387.70	400.23
387.89	360.44
388.09	404.91
388.28	430.66
388.48	397.89
388.67	447.04
388.86	400.23
389.06	421.30
389.25	407.25
389.45	411.93
389.64	451.72
389.84	386.19
390.03	414.27
390.22	400.23
390.42	369.80
390.61	414.27
390.81	409.59
391.00	372.15
391.19	411.93
391.39	433.00
391.58	510.24
391.78	372.15
391.97	383.85
392.16	390.87
392.36	379.17
392.55	496.19
392.75	428.32
392.94	388.53
393.13	425.98
393.33	404.91
393.52	376.83
393.71	470.45
393.91	411.93
394.10	449.38
394.29	409.59
394.49	386.19
394.68	407.25
394.88	381.51
395.07	447.04
395.26	465.77
395.46	454.06
395.65	400.23
395.84	451.72
396.04	449.38
396.23	411.93
396.42	395.55
396.62	435.34
396.81	397.89
397.00	414.27
397.19	433.00
397.39	379.17
397.58	442.36
397.77	400.23
397.97	404.91
398.16	341.72
398.35	425.98
398.55	414.27
398.74	435.34
398.93	461.09
399.12	433.00
399.32	346.40
399.51	416.62
399.70	320.65
399.90	444.70
400.09	454.06
400.28	524.28
400.47	353.42
400.67	411.93
400.86	411.93
401.05	379.17
401.24	538.32
401.44	442.36
401.63	365.12
401.82	472.79
402.01	409.59
402.21	430.66
402.40	372.15
402.59	360.44
402.78	411.93
402.97	346.40
403.17	430.66
403.36	353.42
403.55	421.30
403.74	418.96
403.93	451.72
404.13	400.23
404.32	449.38
404.51	362.78
404.70	465.77
404.89	421.30
405.09	472.79
405.28	475.13
405.47	425.98
405.66	372.15
405.85	442.36
406.05	395.55
406.24	428.32
406.43	379.17
406.62	468.11
406.81	489.17
407.00	383.85
407.20	407.25
407.39	409.59
407.58	388.53
407.77	397.89
407.96	393.21
408.15	416.62
408.34	411.93
408.54	444.70
408.73	400.23
408.92	433.00
409.11	435.34
409.30	451.72
409.49	367.46
409.68	374.49
409.87	416.62
410.07	437.68
410.26	416.62
410.45	407.25
410.64	379.17
410.83	435.34
411.02	393.21
411.21	351.08
411.40	421.30
411.59	414.27
411.78	421.30
411.98	393.21
412.17	440.02
412.36	346.40
412.55	339.38
412.74	404.91
412.93	428.32
413.12	381.51
413.31	433.00
413.50	414.27
413.69	381.51
413.88	437.68
414.07	348.74
414.26	489.17
414.45	423.64
414.64	322.99
414.83	374.49
415.02	444.70
415.22	433.00
415.41	454.06
415.60	351.08
415.79	416.62
415.98	390.87
416.17	395.55
416.36	404.91
416.55	407.25
416.74	374.49
416.93	486.83
417.12	411.93
417.31	421.30
417.50	285.55
417.69	435.34
417.88	355.76
418.07	400.23
418.26	433.00
418.45	390.87
418.64	430.66
418.83	479.81
419.02	416.62
419.21	428.32
419.39	383.85
419.58	407.25
419.77	404.91
419.96	402.57
420.15	425.98
420.34	465.77
420.53	433.00
420.72	379.17
420.91	383.85
421.10	365.12
421.29	390.87
421.48	454.06
421.67	461.09
421.86	285.55
422.05	416.62
422.24	433.00
422.43	477.47
422.61	407.25
422.80	433.00
422.99	433.00
423.18	444.70
423.37	482.15
423.56	470.45
423.75	393.21
423.94	505.56
424.13	376.83
424.32	374.49
424.50	397.89
424.69	362.78
424.88	430.66
425.07	365.12
425.26	402.57
425.45	433.00
425.64	395.55
425.83	404.91
426.01	463.43
426.20	407.25
426.39	435.34
426.58	402.57
426.77	430.66
426.96	358.10
427.15	386.19
427.33	414.27
427.52	400.23
427.71	365.12
427.90	388.53
428.09	449.38
428.28	416.62
428.46	388.53
428.65	414.27
428.84	433.00
429.03	447.04
429.22	437.68
429.40	381.51
429.59	379.17
429.78	402.57
429.97	390.87
430.16	327.68
430.34	451.72
430.53	433.00
430.72	334.70
430.91	475.13
431.10	374.49
431.28	386.19
431.47	414.27
431.66	374.49
431.85	397.89
432.03	433.00
432.22	503.22
432.41	409.59
432.60	442.36
432.79	411.93
432.97	400.23
433.16	407.25
433.35	411.93
433.54	500.87
433.72	411.93
433.91	451.72
434.10	489.17
434.28	437.68
434.47	430.66
434.66	472.79
434.85	397.89
435.03	423.64
435.22	458.74
435.41	456.40
435.59	437.68
435.78	379.17
435.97	409.59
436.16	414.27
436.34	386.19
436.53	437.68
436.72	440.02
436.90	437.68
437.09	423.64
437.28	416.62
437.46	386.19
437.65	470.45
437.84	428.32
438.02	425.98
438.21	477.47
438.40	369.80
438.58	416.62
438.77	423.64
438.96	365.12
439.14	451.72
439.33	463.43
439.52	395.55
439.70	411.93
439.89	449.38
440.08	402.57
440.26	353.42
440.45	386.19
440.63	407.25
440.82	395.55
441.01	423.64
441.19	395.55
441.38	458.74
441.57	386.19
441.75	421.30
441.94	322.99
442.12	430.66
442.31	442.36
442.50	334.70
442.68	416.62
442.87	423.64
443.05	421.30
443.24	395.55
443.43	503.22
443.61	559.39
443.80	440.02
443.98	414.27
444.17	435.34
444.35	348.74
444.54	425.98
444.73	435.34
444.91	472.79
445.10	418.96
445.28	369.80
445.47	388.53
445.65	393.21
445.84	428.32
446.02	472.79
446.21	367.46
446.39	482.15
446.58	437.68
446.77	393.21
446.95	437.68
447.14	418.96
447.32	472.79
447.51	407.25
447.69	409.59
447.88	411.93
448.06	437.68
448.25	407.25
448.43	440.02
448.62	449.38
448.80	402.57
448.99	386.19
449.17	407.25
449.36	332.36
449.54	407.25
449.73	425.98
449.91	414.27
450.10	447.04
450.28	409.59
450.46	498.53
450.65	414.27
450.83	388.53
451.02	400.23
451.20	386.19
451.39	393.21
451.57	440.02
451.76	421.30
451.94	402.57
452.13	444.70
452.31	440.02
452.49	447.04
452.68	400.23
452.86	461.09
453.05	465.77
453.23	454.06
453.42	315.97
453.60	379.17
453.78	362.78
453.97	423.64
454.15	393.21
454.34	421.30
454.52	440.02
454.70	423.64
454.89	447.04
455.07	421.30
455.26	344.06
455.44	470.45
455.62	374.49
455.81	416.62
455.99	418.96
456.17	451.72
456.36	433.00
456.54	418.96
456.73	327.68
456.91	390.87
457.09	407.25
457.28	479.81
457.46	470.45
457.64	456.40
457.83	379.17
458.01	395.55
458.19	442.36
458.38	456.40
458.56	341.72
458.74	437.68
458.93	477.47
459.11	440.02
459.29	449.38
459.48	418.96
459.66	514.92
459.84	344.06
460.03	533.64
460.21	491.51
460.39	388.53
460.57	468.11
460.76	393.21
460.94	362.78
461.12	463.43
461.31	465.77
461.49	372.15
461.67	400.23
461.85	433.00
462.04	390.87
462.22	814.51
462.40	407.25
462.59	414.27
462.77	433.00
462.95	409.59
463.13	369.80
463.32	388.53
463.50	425.98
463.68	440.02
463.86	437.68
464.05	397.89
464.23	433.00
464.41	496.19
464.59	355.76
464.78	386.19
464.96	437.68
465.14	423.64
465.32	418.96
465.50	409.59
465.69	430.66
465.87	470.45
466.05	397.89
466.23	383.85
466.41	383.85
466.60	402.57
466.78	430.66
466.96	451.72
467.14	411.93
467.32	435.34
467.51	463.43
467.69	409.59
467.87	447.04
468.05	414.27
468.23	477.47
468.41	454.06
468.60	383.85
468.78	421.30
468.96	519.60
469.14	425.98
469.32	402.57
469.50	430.66
469.69	440.02
469.87	416.62
470.05	430.66
470.23	433.00
470.41	376.83
470.59	435.34
470.77	397.89
470.95	362.78
471.14	404.91
471.32	402.57
471.50	451.72
471.68	491.51
471.86	404.91
472.04	423.64
472.22	407.25
472.40	360.44
472.58	425.98
472.77	409.59
472.95	409.59
473.13	440.02
473.31	468.11
473.49	449.38
473.67	435.34
473.85	440.02
474.03	442.36
474.21	418.96
474.39	433.00
474.57	449.38
474.75	440.02
474.93	353.42
475.12	411.93
475.30	430.66
475.48	397.89
475.66	454.06
475.84	425.98
476.02	430.66
476.20	416.62
476.38	351.08
476.56	512.58
476.74	456.40
476.92	379.17
477.10	433.00
477.28	461.09
477.46	402.57
477.64	395.55
477.82	440.02
478.00	482.15
478.18	369.80
478.36	409.59
478.54	430.66
478.72	402.57
478.90	428.32
479.08	381.51
479.26	383.85
479.44	428.32
479.62	442.36
479.80	472.79
479.98	423.64
480.16	465.77
480.34	496.19
480.52	369.80
480.70	355.76
480.88	374.49
481.06	407.25
481.24	470.45
481.41	442.36
481.59	390.87
481.77	416.62
481.95	395.55
482.13	500.87
482.31	393.21
482.49	383.85
482.67	482.15
482.85	454.06
483.03	465.77
483.21	435.34
483.39	475.13
483.57	458.74
483.74	428.32
483.92	423.64
484.10	428.32
484.28	386.19
484.46	470.45
484.64	472.79
484.82	393.21
485.00	386.19
485.18	383.85
485.35	404.91
485.53	414.27
485.71	451.72
485.89	421.30
486.07	386.19
486.25	435.34
486.43	372.15
486.61	442.36
486.78	421.30
486.96	379.17
487.14	435.34
487.32	421.30
487.50	458.74
487.68	397.89
487.85	376.83
488.03	414.27
488.21	468.11
488.39	416.62
488.57	353.42
488.75	451.72
488.92	428.32
489.10	390.87
489.28	498.53
489.46	409.59
489.64	425.98
489.81	409.59
489.99	346.40
490.17	468.11
490.35	402.57
490.53	393.21
490.70	411.93
490.88	388.53
491.06	351.08
491.24	440.02
491.41	475.13
491.59	475.13
491.77	383.85
491.95	362.78
492.13	407.25
492.30	351.08
492.48	386.19
492.66	367.46
492.84	442.36
493.01	458.74
493.19	451.72
493.37	479.81
493.54	411.93
493.72	400.23
493.90	395.55
494.08	388.53
494.25	416.62
494.43	440.02
494.61	351.08
494.79	346.40
494.96	358.10
495.14	353.42
495.32	402.57
495.49	379.17
495.67	435.34
495.85	411.93
496.02	386.19
496.20	379.17
496.38	465.77
496.55	397.89
496.73	360.44
496.91	252.78
497.09	379.17
497.26	400.23
497.44	344.06
497.62	423.64
497.79	390.87
497.97	393.21
498.14	430.66
498.32	442.36
498.50	379.17
498.67	437.68
498.85	435.34
499.03	372.15
499.20	486.83
499.38	348.74
499.56	475.13
499.73	404.91
499.91	416.62
500.08	409.59
500.26	447.04
500.44	470.45
500.61	390.87
500.79	348.74
500.97	376.83
501.14	388.53
501.32	430.66
501.49	383.85
501.67	383.85
501.84	442.36
502.02	440.02
502.20	379.17
502.37	456.40
502.55	421.30
502.72	449.38
502.90	409.59
503.07	437.68
503.25	498.53
503.43	449.38
503.60	379.17
503.78	358.10
503.95	423.64
504.13	411.93
504.30	475.13
504.48	400.23
504.65	472.79
504.83	416.62
505.01	430.66
505.18	388.53
505.36	421.30
505.53	365.12
505.71	409.59
505.88	458.74
506.06	355.76
506.23	390.87
506.41	411.93
506.58	416.62
506.76	383.85
506.93	407.25
507.11	400.23
507.28	479.81
507.46	456.40
507.63	416.62
507.81	372.15
507.98	393.21
508.16	369.80
508.33	498.53
508.50	444.70
508.68	409.59
508.85	461.09
509.03	411.93
509.20	407.25
509.38	402.57
509.55	500.87
509.73	430.66
509.90	447.04
510.08	404.91
510.25	397.89
510.42	430.66
510.60	423.64
510.77	383.85
510.95	367.46
511.12	454.06
511.30	407.25
511.47	449.38
511.64	440.02
511.82	397.89
511.99	411.93
512.17	334.70
512.34	404.91
512.51	407.25
512.69	461.09
512.86	475.13
513.04	475.13
513.21	512.58
513.38	337.04
513.56	454.06
513.73	486.83
513.90	444.70
514.08	442.36
514.25	442.36
514.43	428.32
514.60	393.21
514.77	395.55
514.95	416.62
515.12	362.78
515.29	388.53
515.47	400.23
515.64	393.21
515.81	465.77
515.99	440.02
516.16	510.24
516.33	409.59
516.51	430.66
516.68	404.91
516.85	407.25
517.03	388.53
517.20	414.27
517.37	379.17
517.54	479.81
517.72	442.36
517.89	461.09
518.06	461.09
518.24	465.77
518.41	442.36
518.58	482.15
518.75	433.00
518.93	409.59
519.10	437.68
519.27	372.15
519.45	475.13
519.62	442.36
519.79	400.23
519.96	409.59
520.14	440.02
520.31	454.06
520.48	489.17
520.65	376.83
520.83	358.10
521.00	425.98
521.17	383.85
521.34	400.23
521.52	360.44
521.69	355.76
521.86	362.78
522.03	315.97
522.20	421.30
522.38	440.02
522.55	493.85
522.72	390.87
522.89	484.49
523.07	479.81
523.24	433.00
523.41	395.55
523.58	390.87
523.75	409.59
523.92	470.45
524.10	428.32
524.27	468.11
524.44	416.62
524.61	430.66
524.78	395.55
524.96	447.04
525.13	503.22
525.30	449.38
525.47	360.44
525.64	435.34
525.81	470.45
525.98	393.21
526.16	411.93
526.33	344.06
526.50	442.36
526.67	400.23
526.84	456.40
527.01	393.21
527.18	440.02
527.36	388.53
527.53	454.06
527.70	372.15
527.87	451.72
528.04	440.02
528.21	423.64
528.38	442.36
528.55	477.47
528.72	498.53
528.89	475.13
529.07	433.00
529.24	381.51
529.41	390.87
529.58	397.89
529.75	386.19
529.92	451.72
530.09	390.87
530.26	444.70
530.43	365.12
530.60	367.46
530.77	414.27
530.94	397.89
531.11	458.74
531.28	416.62
531.46	409.59
531.63	430.66
531.80	458.74
531.97	409.59
532.14	407.25
532.31	463.43
532.48	411.93
532.65	482.15
532.82	404.91
532.99	360.44
533.16	428.32
533.33	442.36
533.50	416.62
533.67	421.30
533.84	456.40
534.01	383.85
534.18	381.51
534.35	461.09
534.52	437.68
534.69	456.40
534.86	435.34
535.03	435.34
535.20	381.51
535.37	337.04
535.54	407.25
535.71	407.25
535.88	484.49
536.05	409.59
536.22	393.21
536.38	470.45
536.55	416.62
536.72	416.62
536.89	435.34
537.06	447.04
537.23	360.44
537.40	369.80
537.57	435.34
537.74	414.27
537.91	407.25
538.08	433.00
538.25	369.80
538.42	400.23
538.59	418.96
538.75	383.85
538.92	365.12
539.09	428.32
539.26	479.81
539.43	337.04
539.60	447.04
539.77	379.17
539.94	360.44
540.11	383.85
540.28	435.34
540.44	365.12
540.61	374.49
540.78	437.68
540.95	416.62
541.12	449.38
541.29	409.59
541.46	484.49
541.62	463.43
541.79	404.91
541.96	442.36
542.13	418.96
542.30	388.53
542.47	395.55
542.63	425.98
542.80	486.83
542.97	482.15
543.14	433.00
543.31	383.85
543.48	390.87
543.64	402.57
543.81	498.53
543.98	358.10
544.15	344.06
544.32	381.51
544.48	376.83
544.65	393.21
544.82	358.10
544.99	433.00
545.16	414.27
545.32	404.91
545.49	425.98
545.66	433.00
545.83	327.68
546.00	421.30
546.16	489.17
546.33	444.70
546.50	388.53
546.67	393.21
546.83	479.81
547.00	381.51
547.17	395.55
547.34	381.51
547.50	423.64
547.67	451.72
547.84	425.98
548.00	430.66
548.17	456.40
548.34	404.91
548.51	486.83
548.67	353.42
548.84	383.85
549.01	395.55
549.18	433.00
549.34	418.96
549.51	498.53
549.68	383.85
549.84	444.70
550.01	351.08
550.18	425.98
550.34	428.32
550.51	470.45
550.68	507.90
550.84	411.93
551.01	395.55
551.18	418.96
551.34	402.57
551.51	409.59
551.68	386.19
551.84	468.11
552.01	433.00
552.18	407.25
552.34	475.13
552.51	475.13
552.68	395.55
552.84	348.74
553.01	367.46
553.18	372.15
553.34	400.23
553.51	367.46
553.67	477.47
553.84	397.89
554.01	388.53
554.17	437.68
554.34	461.09
554.51	369.80
554.67	433.00
554.84	479.81
555.00	461.09
555.17	402.57
555.33	470.45
555.50	444.70
555.67	454.06
555.83	374.49
556.00	421.30
556.16	521.94
556.33	421.30
556.50	447.04
556.66	447.04
556.83	409.59
556.99	369.80
557.16	423.64
557.32	418.96
557.49	390.87
557.65	411.93
557.82	348.74
557.98	386.19
558.15	362.78
558.32	388.53
558.48	365.12
558.65	400.23
558.81	430.66
558.98	472.79
559.14	493.85
559.31	416.62
559.47	367.46
559.64	393.21
559.80	437.68
559.97	461.09
560.13	365.12
560.30	402.57
560.46	449.38
560.63	395.55
560.79	407.25
560.96	454.06
561.12	444.70
561.29	414.27
561.45	447.04
561.61	414.27
561.78	496.19
561.94	472.79
562.11	418.96
562.27	395.55
562.44	402.57
562.60	472.79
562.77	388.53
562.93	372.15
563.10	418.96
563.26	423.64
563.42	458.74
563.59	393.21
563.75	372.15
563.92	444.70
564.08	388.53
564.24	365.12
564.41	470.45
564.57	454.06
564.74	435.34
564.90	418.96
565.07	397.89
565.23	367.46
565.39	416.62
565.56	409.59
565.72	440.02
565.88	390.87
566.05	390.87
566.21	393.21
566.38	444.70
566.54	411.93
566.70	444.70
566.87	383.85
567.03	381.51
567.19	386.19
567.36	458.74
567.52	435.34
567.68	463.43
567.85	379.17
568.01	435.34
568.17	390.87
568.34	451.72
568.50	451.72
568.66	414.27
568.83	524.28
568.99	395.55
569.15	512.58
569.32	372.15
569.48	444.70
569.64	454.06
569.81	402.57
569.97	477.47
570.13	409.59
570.30	451.72
570.46	376.83
570.62	416.62
570.78	393.21
570.95	404.91
571.11	458.74
571.27	407.25
571.43	428.32
571.60	454.06
571.76	458.74
571.92	461.09
572.09	454.06
572.25	477.47
572.41	379.17
572.57	418.96
572.74	444.70
572.90	407.25
573.06	437.68
573.22	400.23
573.38	393.21
573.55	428.32
573.71	451.72
573.87	486.83
574.03	404.91
574.20	358.10
574.36	468.11
574.52	428.32
574.68	383.85
574.84	472.79
575.01	479.81
575.17	383.85
575.33	383.85
575.49	402.57
575.65	369.80
575.82	428.32
575.98	411.93
576.14	409.59
576.30	411.93
576.46	444.70
576.62	468.11
576.79	411.93
576.95	475.13
577.11	400.23
577.27	470.45
577.43	430.66
577.59	409.59
577.75	374.49
577.92	440.02
578.08	411.93
578.24	337.04
578.40	430.66
578.56	425.98
578.72	416.62
578.88	390.87
579.04	428.32
579.21	414.27
579.37	411.93
579.53	386.19
579.69	458.74
579.85	388.53
580.01	388.53
580.17	433.00
580.33	423.64
580.49	423.64
580.65	388.53
580.82	393.21
580.98	433.00
581.14	367.46
581.30	409.59
581.46	414.27
581.62	414.27
581.78	395.55
581.94	400.23
582.10	400.23
582.26	395.55
582.42	411.93
582.58	440.02
582.74	381.51
582.90	435.34
583.06	463.43
583.22	416.62
583.38	463.43
583.54	430.66
583.70	421.30
583.86	395.55
584.02	449.38
584.18	390.87
584.34	433.00
584.50	540.66
584.66	447.04
584.82	381.51
584.98	421.30
585.14	311.29
585.30	374.49
585.46	444.70
585.62	430.66
585.78	442.36
585.94	437.68
586.10	475.13
586.26	393.21
586.42	425.98
586.58	320.65
586.74	346.40
586.90	437.68
587.06	433.00
587.22	444.70
587.38	430.66
587.54	486.83
587.70	444.70
587.86	433.00
588.02	442.36
588.18	393.21
588.34	437.68
588.49	414.27
588.65	395.55
588.81	409.59
588.97	442.36
589.13	404.91
589.29	358.10
589.45	416.62
589.61	433.00
589.77	355.76
589.93	428.32
590.08	372.15
590.24	355.76
590.40	397.89
590.56	402.57
590.72	393.21
590.88	348.74
591.04	458.74
591.20	393.21
591.35	418.96
591.51	425.98
591.67	519.60
591.83	388.53
591.99	468.11
592.15	400.23
592.31	484.49
592.46	404.91
592.62	402.57
592.78	430.66
592.94	386.19
593.10	475.13
593.26	409.59
593.41	404.91
593.57	444.70
593.73	407.25
593.89	393.21
594.05	360.44
594.20	435.34
594.36	411.93
594.52	430.66
594.68	337.04
594.84	430.66
594.99	414.27
595.15	465.77
595.31	449.38
595.47	440.02
595.62	440.02
595.78	308.95
595.94	442.36
596.10	458.74
596.25	454.06
596.41	390.87
596.57	379.17
596.73	355.76
596.88	397.89
597.04	379.17
597.20	383.85
597.36	463.43
597.51	458.74
597.67	376.83
597.83	411.93
597.99	418.96
598.14	402.57
598.30	463.43
598.46	428.32
598.61	540.66
598.77	451.72
598.93	458.74
599.09	383.85
599.24	390.87
599.40	374.49
599.56	400.23
599.71	411.93
599.87	407.25
600.03	369.80
600.18	409.59
600.34	477.47
600.50	383.85
600.65	428.32
600.81	390.87
600.97	386.19
601.12	435.34
601.28	486.83
601.44	402.57
601.59	414.27
601.75	423.64
601.91	407.25
602.06	353.42
602.22	390.87
602.37	430.66
602.53	437.68
602.69	409.59
602.84	409.59
603.00	430.66
603.16	454.06
603.31	435.34
603.47	404.91
603.62	369.80
603.78	409.59
603.94	456.40
604.09	496.19
604.25	440.02
604.40	423.64
604.56	404.91
604.71	444.70
604.87	386.19
605.03	440.02
605.18	423.64
605.34	411.93
605.49	344.06
605.65	393.21
605.80	362.78
605.96	425.98
606.12	428.32
606.27	470.45
606.43	414.27
606.58	428.32
606.74	428.32
606.89	458.74
607.05	379.17
607.20	421.30
607.36	425.98
607.51	379.17
607.67	425.98
607.82	414.27
607.98	437.68
608.13	411.93
608.29	400.23
608.44	484.49
608.60	444.70
608.75	379.17
608.91	444.70
609.06	482.15
609.22	435.34
609.37	397.89
609.53	376.83
609.68	332.36
609.84	425.98
609.99	365.12
610.15	388.53
