SpectraSuite Data File
++++++++++++++++++++++++++++++++++++
Date: Fri Oct 25 12:11:46 EDT 2013
User: price-jones
Dark Spectrum Present: No
Reference Spectrum Present: No
Number of Sampled Component Spectra: 1
Spectrometers: USB2+H05261
Integration Time (usec): 100000 (USB2+H05261)
Spectra Averaged: 1 (USB2+H05261)
Boxcar Smoothing: 0 (USB2+H05261)
Correct for Electrical Dark: No (USB2+H05261)
Strobe/Lamp Enabled: No (USB2+H05261)
Correct for Detector Non-linearity: No (USB2+H05261)
Correct for Stray Light: No (USB2+H05261)
Number of Pixels in Processed Spectrum: 2048
>>>>>Begin Processed Spectral Data<<<<<
365.73	372.15
365.92	372.15
366.12	372.15
366.32	348.74
366.52	245.76
366.72	189.58
366.91	203.63
367.11	163.84
367.31	163.84
367.51	224.69
367.70	208.31
367.90	208.31
368.10	220.01
368.30	198.95
368.49	236.39
368.69	276.18
368.89	243.42
369.09	266.82
369.28	255.12
369.48	243.42
369.68	250.44
369.87	334.70
370.07	297.25
370.27	451.72
370.47	273.84
370.66	243.42
370.86	383.85
371.06	353.42
371.25	376.83
371.45	339.38
371.65	360.44
371.84	372.15
372.04	372.15
372.24	383.85
372.44	402.57
372.63	411.93
372.83	479.81
373.03	388.53
373.22	442.36
373.42	409.59
373.62	402.57
373.81	437.68
374.01	409.59
374.21	421.30
374.40	374.49
374.60	503.22
374.79	470.45
374.99	383.85
375.19	397.89
375.38	393.21
375.58	414.27
375.78	451.72
375.97	477.47
376.17	440.02
376.37	369.80
376.56	379.17
376.76	416.62
376.95	421.30
377.15	369.80
377.35	428.32
377.54	362.78
377.74	381.51
377.93	381.51
378.13	395.55
378.33	397.89
378.52	407.25
378.72	402.57
378.91	451.72
379.11	376.83
379.31	430.66
379.50	365.12
379.70	442.36
379.89	407.25
380.09	416.62
380.28	325.33
380.48	423.64
380.68	383.85
380.87	367.46
381.07	374.49
381.26	416.62
381.46	365.12
381.65	383.85
381.85	447.04
382.04	433.00
382.24	440.02
382.43	411.93
382.63	386.19
382.83	451.72
383.02	444.70
383.22	484.49
383.41	367.46
383.61	437.68
383.80	433.00
384.00	456.40
384.19	383.85
384.39	433.00
384.58	379.17
384.78	381.51
384.97	400.23
385.17	449.38
385.36	367.46
385.56	395.55
385.75	355.76
385.95	390.87
386.14	444.70
386.34	365.12
386.53	381.51
386.72	367.46
386.92	425.98
387.11	365.12
387.31	367.46
387.50	344.06
387.70	344.06
387.89	411.93
388.09	404.91
388.28	397.89
388.48	463.43
388.67	379.17
388.86	423.64
389.06	458.74
389.25	421.30
389.45	421.30
389.64	397.89
389.84	477.47
390.03	414.27
390.22	393.21
390.42	383.85
390.61	451.72
390.81	477.47
391.00	379.17
391.19	393.21
391.39	395.55
391.58	421.30
391.78	414.27
391.97	416.62
392.16	423.64
392.36	404.91
392.55	381.51
392.75	437.68
392.94	376.83
393.13	402.57
393.33	414.27
393.52	425.98
393.71	407.25
393.91	386.19
394.10	425.98
394.29	369.80
394.49	421.30
394.68	418.96
394.88	437.68
395.07	440.02
395.26	418.96
395.46	376.83
395.65	430.66
395.84	395.55
396.04	397.89
396.23	393.21
396.42	414.27
396.62	433.00
396.81	411.93
397.00	379.17
397.19	444.70
397.39	362.78
397.58	500.87
397.77	388.53
397.97	355.76
398.16	397.89
398.35	456.40
398.55	451.72
398.74	358.10
398.93	491.51
399.12	491.51
399.32	386.19
399.51	407.25
399.70	381.51
399.90	442.36
400.09	346.40
400.28	379.17
400.47	414.27
400.67	386.19
400.86	414.27
401.05	409.59
401.24	416.62
401.44	334.70
401.63	425.98
401.82	418.96
402.01	447.04
402.21	411.93
402.40	447.04
402.59	425.98
402.78	379.17
402.97	355.76
403.17	421.30
403.36	388.53
403.55	376.83
403.74	458.74
403.93	379.17
404.13	416.62
404.32	411.93
404.51	386.19
404.70	388.53
404.89	381.51
405.09	400.23
405.28	411.93
405.47	353.42
405.66	341.72
405.85	416.62
406.05	351.08
406.24	404.91
406.43	407.25
406.62	479.81
406.81	442.36
407.00	425.98
407.20	440.02
407.39	402.57
407.58	402.57
407.77	468.11
407.96	414.27
408.15	491.51
408.34	418.96
408.54	388.53
408.73	353.42
408.92	383.85
409.11	423.64
409.30	496.19
409.49	414.27
409.68	461.09
409.87	421.30
410.07	397.89
410.26	409.59
410.45	440.02
410.64	465.77
410.83	393.21
411.02	440.02
411.21	388.53
411.40	386.19
411.59	409.59
411.78	372.15
411.98	461.09
412.17	390.87
412.36	423.64
412.55	458.74
412.74	414.27
412.93	428.32
413.12	395.55
413.31	517.26
413.50	428.32
413.69	409.59
413.88	418.96
414.07	388.53
414.26	400.23
414.45	365.12
414.64	440.02
414.83	468.11
415.02	388.53
415.22	416.62
415.41	418.96
415.60	386.19
415.79	374.49
415.98	400.23
416.17	418.96
416.36	381.51
416.55	339.38
416.74	358.10
416.93	463.43
417.12	449.38
417.31	402.57
417.50	402.57
417.69	421.30
417.88	458.74
418.07	390.87
418.26	447.04
418.45	334.70
418.64	454.06
418.83	423.64
419.02	409.59
419.21	365.12
419.39	465.77
419.58	397.89
419.77	442.36
419.96	393.21
420.15	477.47
420.34	362.78
420.53	423.64
420.72	428.32
420.91	430.66
421.10	423.64
421.29	407.25
421.48	411.93
421.67	486.83
421.86	435.34
422.05	332.36
422.24	365.12
422.43	383.85
422.61	444.70
422.80	454.06
422.99	409.59
423.18	372.15
423.37	393.21
423.56	430.66
423.75	433.00
423.94	447.04
424.13	463.43
424.32	407.25
424.50	379.17
424.69	397.89
424.88	484.49
425.07	376.83
425.26	414.27
425.45	414.27
425.64	414.27
425.83	435.34
426.01	383.85
426.20	428.32
426.39	437.68
426.58	388.53
426.77	411.93
426.96	360.44
427.15	383.85
427.33	444.70
427.52	409.59
427.71	379.17
427.90	421.30
428.09	430.66
428.28	482.15
428.46	402.57
428.65	435.34
428.84	404.91
429.03	404.91
429.22	407.25
429.40	379.17
429.59	369.80
429.78	456.40
429.97	416.62
430.16	447.04
430.34	395.55
430.53	400.23
430.72	409.59
430.91	407.25
431.10	388.53
431.28	390.87
431.47	475.13
431.66	416.62
431.85	355.76
432.03	435.34
432.22	397.89
432.41	489.17
432.60	444.70
432.79	486.83
432.97	409.59
433.16	416.62
433.35	440.02
433.54	355.76
433.72	433.00
433.91	425.98
434.10	521.94
434.28	400.23
434.47	416.62
434.66	421.30
434.85	414.27
435.03	433.00
435.22	437.68
435.41	470.45
435.59	425.98
435.78	348.74
435.97	416.62
436.16	416.62
436.34	369.80
436.53	404.91
436.72	472.79
436.90	503.22
437.09	346.40
437.28	388.53
437.46	428.32
437.65	440.02
437.84	468.11
438.02	390.87
438.21	440.02
438.40	376.83
438.58	418.96
438.77	418.96
438.96	414.27
439.14	449.38
439.33	407.25
439.52	393.21
439.70	435.34
439.89	407.25
440.08	423.64
440.26	430.66
440.45	463.43
440.63	449.38
440.82	416.62
441.01	355.76
441.19	456.40
441.38	374.49
441.57	397.89
441.75	411.93
441.94	470.45
442.12	433.00
442.31	447.04
442.50	472.79
442.68	341.72
442.87	404.91
443.05	397.89
443.24	447.04
443.43	355.76
443.61	414.27
443.80	365.12
443.98	414.27
444.17	440.02
444.35	358.10
444.54	339.38
444.73	395.55
444.91	374.49
445.10	421.30
445.28	407.25
445.47	458.74
445.65	332.36
445.84	447.04
446.02	369.80
446.21	376.83
446.39	454.06
446.58	414.27
446.77	383.85
446.95	404.91
447.14	449.38
447.32	428.32
447.51	383.85
447.69	383.85
447.88	341.72
448.06	418.96
448.25	440.02
448.43	414.27
448.62	344.06
448.80	397.89
448.99	416.62
449.17	451.72
449.36	386.19
449.54	435.34
449.73	409.59
449.91	390.87
450.10	447.04
450.28	383.85
450.46	414.27
450.65	468.11
450.83	393.21
451.02	327.68
451.20	407.25
451.39	372.15
451.57	425.98
451.76	428.32
451.94	379.17
452.13	418.96
452.31	433.00
452.49	416.62
452.68	435.34
452.86	402.57
453.05	484.49
453.23	421.30
453.42	411.93
453.60	428.32
453.78	440.02
453.97	423.64
454.15	416.62
454.34	407.25
454.52	348.74
454.70	416.62
454.89	442.36
455.07	374.49
455.26	440.02
455.44	505.56
455.62	465.77
455.81	421.30
455.99	411.93
456.17	414.27
456.36	456.40
456.54	402.57
456.73	397.89
456.91	421.30
457.09	416.62
457.28	435.34
457.46	421.30
457.64	409.59
457.83	411.93
458.01	440.02
458.19	435.34
458.38	379.17
458.56	493.85
458.74	437.68
458.93	372.15
459.11	409.59
459.29	414.27
459.48	400.23
459.66	458.74
459.84	369.80
460.03	514.92
460.21	458.74
460.39	435.34
460.57	421.30
460.76	416.62
460.94	442.36
461.12	430.66
461.31	444.70
461.49	430.66
461.67	365.12
461.85	454.06
462.04	425.98
462.22	706.84
462.40	461.09
462.59	409.59
462.77	416.62
462.95	416.62
463.13	411.93
463.32	414.27
463.50	465.77
463.68	444.70
463.86	386.19
464.05	386.19
464.23	444.70
464.41	416.62
464.59	449.38
464.78	414.27
464.96	351.08
465.14	449.38
465.32	353.42
465.50	451.72
465.69	425.98
465.87	468.11
466.05	425.98
466.23	409.59
466.41	423.64
466.60	369.80
466.78	500.87
466.96	374.49
467.14	418.96
467.32	454.06
467.51	463.43
467.69	442.36
467.87	435.34
468.05	395.55
468.23	409.59
468.41	407.25
468.60	468.11
468.78	411.93
468.96	444.70
469.14	440.02
469.32	472.79
469.50	393.21
469.69	355.76
469.87	425.98
470.05	486.83
470.23	402.57
470.41	428.32
470.59	353.42
470.77	430.66
470.95	465.77
471.14	418.96
471.32	402.57
471.50	454.06
471.68	332.36
471.86	409.59
472.04	390.87
472.22	423.64
472.40	393.21
472.58	418.96
472.77	376.83
472.95	404.91
473.13	503.22
473.31	437.68
473.49	383.85
473.67	397.89
473.85	379.17
474.03	454.06
474.21	463.43
474.39	486.83
474.57	444.70
474.75	414.27
474.93	423.64
475.12	402.57
475.30	351.08
475.48	390.87
475.66	379.17
475.84	407.25
476.02	496.19
476.20	428.32
476.38	496.19
476.56	421.30
476.74	341.72
476.92	400.23
477.10	409.59
477.28	433.00
477.46	397.89
477.64	418.96
477.82	423.64
478.00	381.51
478.18	372.15
478.36	418.96
478.54	386.19
478.72	402.57
478.90	428.32
479.08	430.66
479.26	463.43
479.44	411.93
479.62	397.89
479.80	437.68
479.98	414.27
480.16	458.74
480.34	423.64
480.52	367.46
480.70	407.25
480.88	491.51
481.06	435.34
481.24	449.38
481.41	458.74
481.59	435.34
481.77	379.17
481.95	430.66
482.13	533.64
482.31	414.27
482.49	409.59
482.67	379.17
482.85	433.00
483.03	458.74
483.21	465.77
483.39	454.06
483.57	372.15
483.74	390.87
483.92	402.57
484.10	411.93
484.28	433.00
484.46	414.27
484.64	400.23
484.82	393.21
485.00	360.44
485.18	470.45
485.35	330.02
485.53	386.19
485.71	341.72
485.89	318.31
486.07	395.55
486.25	451.72
486.43	433.00
486.61	463.43
486.78	386.19
486.96	404.91
487.14	409.59
487.32	447.04
487.50	383.85
487.68	355.76
487.85	367.46
488.03	428.32
488.21	430.66
488.39	454.06
488.57	454.06
488.75	451.72
488.92	465.77
489.10	414.27
489.28	437.68
489.46	461.09
489.64	400.23
489.81	442.36
489.99	411.93
490.17	383.85
490.35	465.77
490.53	472.79
490.70	416.62
490.88	470.45
491.06	388.53
491.24	451.72
491.41	479.81
491.59	421.30
491.77	409.59
491.95	393.21
492.13	379.17
492.30	400.23
492.48	400.23
492.66	440.02
492.84	362.78
493.01	358.10
493.19	423.64
493.37	435.34
493.54	463.43
493.72	409.59
493.90	423.64
494.08	390.87
494.25	531.30
494.43	337.04
494.61	346.40
494.79	414.27
494.96	435.34
495.14	458.74
495.32	416.62
495.49	472.79
495.67	437.68
495.85	421.30
496.02	330.02
496.20	428.32
496.38	465.77
496.55	372.15
496.73	482.15
496.91	409.59
497.09	454.06
497.26	421.30
497.44	400.23
497.62	437.68
497.79	456.40
497.97	388.53
498.14	423.64
498.32	430.66
498.50	365.12
498.67	344.06
498.85	355.76
499.03	425.98
499.20	425.98
499.38	435.34
499.56	358.10
499.73	482.15
499.91	425.98
500.08	388.53
500.26	451.72
500.44	430.66
500.61	472.79
500.79	367.46
500.97	498.53
501.14	397.89
501.32	423.64
501.49	451.72
501.67	337.04
501.84	404.91
502.02	454.06
502.20	440.02
502.37	386.19
502.55	418.96
502.72	348.74
502.90	414.27
503.07	367.46
503.25	505.56
503.43	433.00
503.60	360.44
503.78	482.15
503.95	372.15
504.13	390.87
504.30	440.02
504.48	440.02
504.65	472.79
504.83	304.27
505.01	409.59
505.18	514.92
505.36	348.74
505.53	456.40
505.71	383.85
505.88	390.87
506.06	407.25
506.23	407.25
506.41	379.17
506.58	418.96
506.76	404.91
506.93	374.49
507.11	421.30
507.28	435.34
507.46	402.57
507.63	388.53
507.81	379.17
507.98	407.25
508.16	409.59
508.33	421.30
508.50	383.85
508.68	407.25
508.85	409.59
509.03	374.49
509.20	447.04
509.38	411.93
509.55	444.70
509.73	479.81
509.90	440.02
510.08	447.04
510.25	482.15
510.42	362.78
510.60	440.02
510.77	409.59
510.95	428.32
511.12	421.30
511.30	418.96
511.47	411.93
511.64	332.36
511.82	386.19
511.99	404.91
512.17	440.02
512.34	491.51
512.51	409.59
512.69	465.77
512.86	397.89
513.04	465.77
513.21	402.57
513.38	369.80
513.56	430.66
513.73	388.53
513.90	395.55
514.08	414.27
514.25	437.68
514.43	444.70
514.60	454.06
514.77	414.27
514.95	379.17
515.12	367.46
515.29	400.23
515.47	458.74
515.64	388.53
515.81	489.17
515.99	428.32
516.16	409.59
516.33	404.91
516.51	400.23
516.68	369.80
516.85	411.93
517.03	358.10
517.20	400.23
517.37	430.66
517.54	550.03
517.72	472.79
517.89	348.74
518.06	348.74
518.24	416.62
518.41	498.53
518.58	447.04
518.75	489.17
518.93	407.25
519.10	313.63
519.27	449.38
519.45	421.30
519.62	449.38
519.79	430.66
519.96	374.49
520.14	421.30
520.31	423.64
520.48	479.81
520.65	479.81
520.83	433.00
521.00	444.70
521.17	468.11
521.34	418.96
521.52	465.77
521.69	355.76
521.86	365.12
522.03	454.06
522.20	517.26
522.38	454.06
522.55	479.81
522.72	461.09
522.89	496.19
523.07	440.02
523.24	449.38
523.41	362.78
523.58	418.96
523.75	407.25
523.92	346.40
524.10	423.64
524.27	400.23
524.44	442.36
524.61	407.25
524.78	376.83
524.96	425.98
525.13	435.34
525.30	425.98
525.47	440.02
525.64	442.36
525.81	449.38
525.98	428.32
526.16	416.62
526.33	468.11
526.50	414.27
526.67	353.42
526.84	440.02
527.01	423.64
527.18	470.45
527.36	374.49
527.53	390.87
527.70	461.09
527.87	393.21
528.04	500.87
528.21	433.00
528.38	484.49
528.55	428.32
528.72	423.64
528.89	449.38
529.07	447.04
529.24	440.02
529.41	458.74
529.58	372.15
529.75	463.43
529.92	409.59
530.09	414.27
530.26	425.98
530.43	440.02
530.60	477.47
530.77	435.34
530.94	454.06
531.11	465.77
531.28	461.09
531.46	425.98
531.63	458.74
531.80	430.66
531.97	430.66
532.14	404.91
532.31	407.25
532.48	407.25
532.65	407.25
532.82	465.77
532.99	367.46
533.16	407.25
533.33	367.46
533.50	365.12
533.67	374.49
533.84	440.02
534.01	404.91
534.18	486.83
534.35	362.78
534.52	418.96
534.69	369.80
534.86	425.98
535.03	372.15
535.20	414.27
535.37	447.04
535.54	437.68
535.71	496.19
535.88	390.87
536.05	404.91
536.22	395.55
536.38	400.23
536.55	390.87
536.72	463.43
536.89	397.89
537.06	423.64
537.23	395.55
537.40	386.19
537.57	458.74
537.74	517.26
537.91	388.53
538.08	456.40
538.25	423.64
538.42	416.62
538.59	407.25
538.75	400.23
538.92	409.59
539.09	435.34
539.26	390.87
539.43	414.27
539.60	374.49
539.77	374.49
539.94	449.38
540.11	437.68
540.28	440.02
540.44	416.62
540.61	472.79
540.78	454.06
540.95	376.83
541.12	386.19
541.29	451.72
541.46	409.59
541.62	477.47
541.79	367.46
541.96	344.06
542.13	411.93
542.30	416.62
542.47	397.89
542.63	414.27
542.80	407.25
542.97	470.45
543.14	397.89
543.31	348.74
543.48	463.43
543.64	454.06
543.81	383.85
543.98	379.17
544.15	421.30
544.32	421.30
544.48	341.72
544.65	411.93
544.82	374.49
544.99	402.57
545.16	411.93
545.32	400.23
545.49	447.04
545.66	472.79
545.83	388.53
546.00	358.10
546.16	447.04
546.33	381.51
546.50	454.06
546.67	379.17
546.83	484.49
547.00	411.93
547.17	482.15
547.34	411.93
547.50	433.00
547.67	430.66
547.84	449.38
548.00	463.43
548.17	454.06
548.34	449.38
548.51	433.00
548.67	409.59
548.84	447.04
549.01	423.64
549.18	414.27
549.34	397.89
549.51	435.34
549.68	447.04
549.84	461.09
550.01	437.68
550.18	493.85
550.34	402.57
550.51	369.80
550.68	390.87
550.84	337.04
551.01	444.70
551.18	411.93
551.34	397.89
551.51	451.72
551.68	444.70
551.84	442.36
552.01	390.87
552.18	440.02
552.34	421.30
552.51	430.66
552.68	425.98
552.84	423.64
553.01	465.77
553.18	472.79
553.34	465.77
553.51	381.51
553.67	414.27
553.84	390.87
554.01	449.38
554.17	444.70
554.34	348.74
554.51	369.80
554.67	451.72
554.84	423.64
555.00	440.02
555.17	477.47
555.33	437.68
555.50	458.74
555.67	400.23
555.83	393.21
556.00	421.30
556.16	538.32
556.33	383.85
556.50	400.23
556.66	369.80
556.83	393.21
556.99	442.36
557.16	425.98
557.32	397.89
557.49	418.96
557.65	442.36
557.82	451.72
557.98	479.81
558.15	437.68
558.32	397.89
558.48	418.96
558.65	362.78
558.81	456.40
558.98	444.70
559.14	435.34
559.31	395.55
559.47	390.87
559.64	388.53
559.80	437.68
559.97	440.02
560.13	482.15
560.30	397.89
560.46	367.46
560.63	376.83
560.79	416.62
560.96	407.25
561.12	365.12
561.29	409.59
561.45	484.49
561.61	451.72
561.78	489.17
561.94	451.72
562.11	393.21
562.27	421.30
562.44	442.36
562.60	411.93
562.77	397.89
562.93	463.43
563.10	418.96
563.26	444.70
563.42	428.32
563.59	414.27
563.75	395.55
563.92	383.85
564.08	463.43
564.24	458.74
564.41	444.70
564.57	435.34
564.74	376.83
564.90	367.46
565.07	425.98
565.23	418.96
565.39	383.85
565.56	407.25
565.72	437.68
565.88	423.64
566.05	379.17
566.21	407.25
566.38	505.56
566.54	376.83
566.70	423.64
566.87	451.72
567.03	369.80
567.19	425.98
567.36	404.91
567.52	423.64
567.68	404.91
567.85	440.02
568.01	416.62
568.17	458.74
568.34	463.43
568.50	421.30
568.66	421.30
568.83	423.64
568.99	360.44
569.15	444.70
569.32	407.25
569.48	416.62
569.64	388.53
569.81	393.21
569.97	400.23
570.13	411.93
570.30	421.30
570.46	425.98
570.62	409.59
570.78	430.66
570.95	404.91
571.11	465.77
571.27	482.15
571.43	418.96
571.60	430.66
571.76	397.89
571.92	442.36
572.09	365.12
572.25	411.93
572.41	440.02
572.57	444.70
572.74	505.56
572.90	367.46
573.06	416.62
573.22	416.62
573.38	416.62
573.55	418.96
573.71	397.89
573.87	472.79
574.03	369.80
574.20	376.83
574.36	454.06
574.52	454.06
574.68	437.68
574.84	479.81
575.01	425.98
575.17	425.98
575.33	418.96
575.49	477.47
575.65	472.79
575.82	477.47
575.98	393.21
576.14	372.15
576.30	395.55
576.46	402.57
576.62	393.21
576.79	416.62
576.95	409.59
577.11	433.00
577.27	395.55
577.43	428.32
577.59	355.76
577.75	374.49
577.92	325.33
578.08	386.19
578.24	451.72
578.40	451.72
578.56	353.42
578.72	423.64
578.88	360.44
579.04	421.30
579.21	411.93
579.37	374.49
579.53	451.72
579.69	362.78
579.85	423.64
580.01	437.68
580.17	414.27
580.33	451.72
580.49	472.79
580.65	414.27
580.82	418.96
580.98	404.91
581.14	430.66
581.30	430.66
581.46	428.32
581.62	421.30
581.78	423.64
581.94	425.98
582.10	365.12
582.26	402.57
582.42	365.12
582.58	472.79
582.74	437.68
582.90	416.62
583.06	440.02
583.22	393.21
583.38	400.23
583.54	376.83
583.70	404.91
583.86	404.91
584.02	435.34
584.18	418.96
584.34	402.57
584.50	402.57
584.66	386.19
584.82	374.49
584.98	339.38
585.14	381.51
585.30	425.98
585.46	468.11
585.62	390.87
585.78	407.25
585.94	416.62
586.10	402.57
586.26	442.36
586.42	451.72
586.58	437.68
586.74	383.85
586.90	430.66
587.06	416.62
587.22	472.79
587.38	360.44
587.54	407.25
587.70	407.25
587.86	433.00
588.02	486.83
588.18	444.70
588.34	381.51
588.49	367.46
588.65	482.15
588.81	468.11
588.97	451.72
589.13	337.04
589.29	484.49
589.45	500.87
589.61	402.57
589.77	489.17
589.93	404.91
590.08	395.55
590.24	430.66
590.40	418.96
590.56	433.00
590.72	456.40
590.88	369.80
591.04	411.93
591.20	402.57
591.35	510.24
591.51	465.77
591.67	447.04
591.83	414.27
591.99	482.15
592.15	395.55
592.31	458.74
592.46	397.89
592.62	409.59
592.78	407.25
592.94	365.12
593.10	430.66
593.26	365.12
593.41	447.04
593.57	395.55
593.73	435.34
593.89	465.77
594.05	402.57
594.20	383.85
594.36	442.36
594.52	433.00
594.68	447.04
594.84	500.87
594.99	433.00
595.15	477.47
595.31	411.93
595.47	409.59
595.62	430.66
595.78	402.57
595.94	395.55
596.10	416.62
596.25	404.91
596.41	458.74
596.57	397.89
596.73	388.53
596.88	444.70
597.04	468.11
597.20	409.59
597.36	524.28
597.51	407.25
597.67	491.51
597.83	451.72
597.99	421.30
598.14	442.36
598.30	346.40
598.46	416.62
598.61	449.38
598.77	411.93
598.93	409.59
599.09	425.98
599.24	397.89
599.40	402.57
599.56	440.02
599.71	435.34
599.87	451.72
600.03	437.68
600.18	421.30
600.34	479.81
600.50	411.93
600.65	418.96
600.81	449.38
600.97	362.78
601.12	414.27
601.28	402.57
601.44	404.91
601.59	433.00
601.75	479.81
601.91	425.98
602.06	477.47
602.22	477.47
602.37	468.11
602.53	468.11
602.69	440.02
602.84	402.57
603.00	367.46
603.16	425.98
603.31	510.24
603.47	409.59
603.62	353.42
603.78	386.19
603.94	470.45
604.09	416.62
604.25	428.32
604.40	402.57
604.56	435.34
604.71	379.17
604.87	388.53
605.03	367.46
605.18	418.96
605.34	435.34
605.49	498.53
605.65	498.53
605.80	407.25
605.96	358.10
606.12	435.34
606.27	437.68
606.43	475.13
606.58	381.51
606.74	428.32
606.89	440.02
607.05	395.55
607.20	430.66
607.36	388.53
607.51	425.98
607.67	402.57
607.82	418.96
607.98	390.87
608.13	404.91
608.29	447.04
608.44	486.83
608.60	402.57
608.75	430.66
608.91	390.87
609.06	390.87
609.22	475.13
609.37	404.91
609.53	416.62
609.68	388.53
609.84	365.12
609.99	442.36
610.15	423.64
