SpectraSuite Data File
++++++++++++++++++++++++++++++++++++
Date: Fri Oct 25 12:10:46 EDT 2013
User: price-jones
Dark Spectrum Present: No
Reference Spectrum Present: No
Number of Sampled Component Spectra: 1
Spectrometers: USB2+H05261
Integration Time (usec): 100000 (USB2+H05261)
Spectra Averaged: 1 (USB2+H05261)
Boxcar Smoothing: 0 (USB2+H05261)
Correct for Electrical Dark: No (USB2+H05261)
Strobe/Lamp Enabled: No (USB2+H05261)
Correct for Detector Non-linearity: No (USB2+H05261)
Correct for Stray Light: No (USB2+H05261)
Number of Pixels in Processed Spectrum: 2048
>>>>>Begin Processed Spectral Data<<<<<
365.73	290.23
365.92	290.23
366.12	290.23
366.32	255.12
366.52	245.76
366.72	252.78
366.91	287.89
367.11	220.01
367.31	250.44
367.51	217.67
367.70	248.10
367.90	187.24
368.10	266.82
368.30	243.42
368.49	170.86
368.69	234.05
368.89	255.12
369.09	299.59
369.28	259.80
369.48	283.20
369.68	278.52
369.87	250.44
370.07	297.25
370.27	386.19
370.47	290.23
370.66	344.06
370.86	266.82
371.06	358.10
371.25	440.02
371.45	372.15
371.65	425.98
371.84	404.91
372.04	386.19
372.24	421.30
372.44	386.19
372.63	425.98
372.83	404.91
373.03	414.27
373.22	418.96
373.42	339.38
373.62	400.23
373.81	498.53
374.01	404.91
374.21	376.83
374.40	421.30
374.60	416.62
374.79	397.89
374.99	447.04
375.19	451.72
375.38	449.38
375.58	458.74
375.78	388.53
375.97	369.80
376.17	435.34
376.37	353.42
376.56	358.10
376.76	414.27
376.95	404.91
377.15	418.96
377.35	421.30
377.54	433.00
377.74	414.27
377.93	395.55
378.13	393.21
378.33	386.19
378.52	425.98
378.72	388.53
378.91	416.62
379.11	409.59
379.31	407.25
379.50	447.04
379.70	433.00
379.89	416.62
380.09	416.62
380.28	444.70
380.48	435.34
380.68	470.45
380.87	388.53
381.07	437.68
381.26	458.74
381.46	322.99
381.65	451.72
381.85	454.06
382.04	397.89
382.24	367.46
382.43	397.89
382.63	393.21
382.83	348.74
383.02	402.57
383.22	388.53
383.41	379.17
383.61	423.64
383.80	414.27
384.00	383.85
384.19	351.08
384.39	379.17
384.58	418.96
384.78	454.06
384.97	451.72
385.17	472.79
385.36	355.76
385.56	407.25
385.75	351.08
385.95	428.32
386.14	463.43
386.34	411.93
386.53	458.74
386.72	404.91
386.92	425.98
387.11	397.89
387.31	447.04
387.50	376.83
387.70	388.53
387.89	393.21
388.09	433.00
388.28	383.85
388.48	402.57
388.67	388.53
388.86	369.80
389.06	433.00
389.25	423.64
389.45	388.53
389.64	386.19
389.84	386.19
390.03	435.34
390.22	348.74
390.42	428.32
390.61	414.27
390.81	397.89
391.00	416.62
391.19	472.79
391.39	407.25
391.58	428.32
391.78	374.49
391.97	425.98
392.16	299.59
392.36	421.30
392.55	486.83
392.75	381.51
392.94	400.23
393.13	400.23
393.33	411.93
393.52	341.72
393.71	409.59
393.91	461.09
394.10	355.76
394.29	421.30
394.49	430.66
394.68	362.78
394.88	348.74
395.07	433.00
395.26	344.06
395.46	362.78
395.65	423.64
395.84	461.09
396.04	526.62
396.23	416.62
396.42	383.85
396.62	294.91
396.81	395.55
397.00	414.27
397.19	409.59
397.39	456.40
397.58	465.77
397.77	379.17
397.97	395.55
398.16	388.53
398.35	435.34
398.55	397.89
398.74	386.19
398.93	390.87
399.12	411.93
399.32	386.19
399.51	379.17
399.70	442.36
399.90	393.21
400.09	400.23
400.28	365.12
400.47	353.42
400.67	456.40
400.86	416.62
401.05	428.32
401.24	404.91
401.44	442.36
401.63	348.74
401.82	425.98
402.01	358.10
402.21	409.59
402.40	407.25
402.59	337.04
402.78	430.66
402.97	390.87
403.17	444.70
403.36	416.62
403.55	355.76
403.74	388.53
403.93	397.89
404.13	458.74
404.32	435.34
404.51	407.25
404.70	407.25
404.89	461.09
405.09	390.87
405.28	404.91
405.47	449.38
405.66	393.21
405.85	379.17
406.05	423.64
406.24	411.93
406.43	447.04
406.62	362.78
406.81	461.09
407.00	386.19
407.20	402.57
407.39	411.93
407.58	383.85
407.77	416.62
407.96	449.38
408.15	411.93
408.34	442.36
408.54	484.49
408.73	393.21
408.92	470.45
409.11	416.62
409.30	444.70
409.49	407.25
409.68	367.46
409.87	416.62
410.07	463.43
410.26	517.26
410.45	381.51
410.64	327.68
410.83	451.72
411.02	465.77
411.21	353.42
411.40	465.77
411.59	517.26
411.78	400.23
411.98	456.40
412.17	397.89
412.36	433.00
412.55	458.74
412.74	383.85
412.93	418.96
413.12	456.40
413.31	433.00
413.50	332.36
413.69	433.00
413.88	404.91
414.07	437.68
414.26	367.46
414.45	454.06
414.64	379.17
414.83	388.53
415.02	376.83
415.22	425.98
415.41	425.98
415.60	430.66
415.79	489.17
415.98	470.45
416.17	423.64
416.36	372.15
416.55	339.38
416.74	482.15
416.93	475.13
417.12	372.15
417.31	470.45
417.50	367.46
417.69	437.68
417.88	425.98
418.07	409.59
418.26	395.55
418.45	381.51
418.64	428.32
418.83	360.44
419.02	404.91
419.21	341.72
419.39	397.89
419.58	402.57
419.77	369.80
419.96	423.64
420.15	444.70
420.34	463.43
420.53	456.40
420.72	451.72
420.91	444.70
421.10	404.91
421.29	337.04
421.48	383.85
421.67	435.34
421.86	428.32
422.05	337.04
422.24	383.85
422.43	383.85
422.61	477.47
422.80	334.70
422.99	404.91
423.18	411.93
423.37	404.91
423.56	456.40
423.75	430.66
423.94	409.59
424.13	369.80
424.32	393.21
424.50	435.34
424.69	402.57
424.88	407.25
425.07	355.76
425.26	442.36
425.45	477.47
425.64	402.57
425.83	351.08
426.01	425.98
426.20	388.53
426.39	365.12
426.58	411.93
426.77	484.49
426.96	440.02
427.15	425.98
427.33	355.76
427.52	430.66
427.71	372.15
427.90	404.91
428.09	353.42
428.28	346.40
428.46	423.64
428.65	461.09
428.84	465.77
429.03	348.74
429.22	449.38
429.40	374.49
429.59	454.06
429.78	397.89
429.97	388.53
430.16	423.64
430.34	472.79
430.53	318.31
430.72	475.13
430.91	465.77
431.10	369.80
431.28	418.96
431.47	402.57
431.66	477.47
431.85	360.44
432.03	416.62
432.22	524.28
432.41	421.30
432.60	449.38
432.79	367.46
432.97	348.74
433.16	390.87
433.35	393.21
433.54	381.51
433.72	407.25
433.91	411.93
434.10	409.59
434.28	402.57
434.47	325.33
434.66	479.81
434.85	468.11
435.03	437.68
435.22	461.09
435.41	503.22
435.59	358.10
435.78	407.25
435.97	390.87
436.16	458.74
436.34	421.30
436.53	353.42
436.72	440.02
436.90	472.79
437.09	344.06
437.28	393.21
437.46	388.53
437.65	418.96
437.84	372.15
438.02	388.53
438.21	418.96
438.40	418.96
438.58	418.96
438.77	400.23
438.96	390.87
439.14	454.06
439.33	400.23
439.52	435.34
439.70	367.46
439.89	416.62
440.08	449.38
440.26	367.46
440.45	425.98
440.63	458.74
440.82	386.19
441.01	383.85
441.19	421.30
441.38	372.15
441.57	512.58
441.75	451.72
441.94	440.02
442.12	447.04
442.31	393.21
442.50	449.38
442.68	397.89
442.87	482.15
443.05	346.40
443.24	411.93
443.43	442.36
443.61	451.72
443.80	383.85
443.98	374.49
444.17	433.00
444.35	437.68
444.54	381.51
444.73	404.91
444.91	400.23
445.10	421.30
445.28	400.23
445.47	421.30
445.65	400.23
445.84	407.25
446.02	430.66
446.21	447.04
446.39	423.64
446.58	465.77
446.77	421.30
446.95	404.91
447.14	444.70
447.32	416.62
447.51	407.25
447.69	353.42
447.88	444.70
448.06	472.79
448.25	362.78
448.43	367.46
448.62	416.62
448.80	404.91
448.99	376.83
449.17	379.17
449.36	358.10
449.54	416.62
449.73	411.93
449.91	468.11
450.10	423.64
450.28	461.09
450.46	456.40
450.65	404.91
450.83	353.42
451.02	472.79
451.20	372.15
451.39	435.34
451.57	423.64
451.76	379.17
451.94	409.59
452.13	404.91
452.31	451.72
452.49	332.36
452.68	463.43
452.86	365.12
453.05	381.51
453.23	425.98
453.42	402.57
453.60	454.06
453.78	355.76
453.97	397.89
454.15	404.91
454.34	400.23
454.52	397.89
454.70	425.98
454.89	435.34
455.07	332.36
455.26	475.13
455.44	409.59
455.62	484.49
455.81	449.38
455.99	451.72
456.17	365.12
456.36	475.13
456.54	428.32
456.73	428.32
456.91	395.55
457.09	440.02
457.28	421.30
457.46	402.57
457.64	416.62
457.83	440.02
458.01	430.66
458.19	433.00
458.38	390.87
458.56	395.55
458.74	388.53
458.93	454.06
459.11	395.55
459.29	365.12
459.48	458.74
459.66	395.55
459.84	379.17
460.03	498.53
460.21	507.90
460.39	337.04
460.57	404.91
460.76	507.90
460.94	418.96
461.12	465.77
461.31	477.47
461.49	404.91
461.67	402.57
461.85	358.10
462.04	395.55
462.22	706.84
462.40	416.62
462.59	468.11
462.77	372.15
462.95	479.81
463.13	388.53
463.32	395.55
463.50	416.62
463.68	463.43
463.86	421.30
464.05	444.70
464.23	454.06
464.41	456.40
464.59	376.83
464.78	437.68
464.96	458.74
465.14	395.55
465.32	416.62
465.50	435.34
465.69	416.62
465.87	440.02
466.05	397.89
466.23	442.36
466.41	404.91
466.60	365.12
466.78	437.68
466.96	482.15
467.14	458.74
467.32	397.89
467.51	397.89
467.69	395.55
467.87	416.62
468.05	346.40
468.23	475.13
468.41	428.32
468.60	451.72
468.78	402.57
468.96	456.40
469.14	465.77
469.32	418.96
469.50	493.85
469.69	468.11
469.87	486.83
470.05	418.96
470.23	435.34
470.41	381.51
470.59	437.68
470.77	447.04
470.95	411.93
471.14	447.04
471.32	355.76
471.50	346.40
471.68	395.55
471.86	514.92
472.04	475.13
472.22	489.17
472.40	440.02
472.58	407.25
472.77	344.06
472.95	414.27
473.13	374.49
473.31	463.43
473.49	390.87
473.67	433.00
473.85	425.98
474.03	428.32
474.21	351.08
474.39	475.13
474.57	437.68
474.75	409.59
474.93	348.74
475.12	330.02
475.30	351.08
475.48	409.59
475.66	395.55
475.84	444.70
476.02	407.25
476.20	390.87
476.38	423.64
476.56	407.25
476.74	341.72
476.92	388.53
477.10	444.70
477.28	416.62
477.46	388.53
477.64	421.30
477.82	435.34
478.00	428.32
478.18	447.04
478.36	388.53
478.54	461.09
478.72	374.49
478.90	367.46
479.08	416.62
479.26	430.66
479.44	395.55
479.62	491.51
479.80	461.09
479.98	376.83
480.16	416.62
480.34	379.17
480.52	418.96
480.70	395.55
480.88	407.25
481.06	463.43
481.24	433.00
481.41	367.46
481.59	421.30
481.77	411.93
481.95	456.40
482.13	458.74
482.31	418.96
482.49	402.57
482.67	437.68
482.85	425.98
483.03	402.57
483.21	428.32
483.39	437.68
483.57	386.19
483.74	390.87
483.92	425.98
484.10	397.89
484.28	465.77
484.46	491.51
484.64	425.98
484.82	393.21
485.00	400.23
485.18	437.68
485.35	411.93
485.53	414.27
485.71	376.83
485.89	442.36
486.07	390.87
486.25	393.21
486.43	430.66
486.61	449.38
486.78	407.25
486.96	402.57
487.14	409.59
487.32	400.23
487.50	468.11
487.68	395.55
487.85	390.87
488.03	463.43
488.21	414.27
488.39	425.98
488.57	409.59
488.75	425.98
488.92	482.15
489.10	447.04
489.28	400.23
489.46	381.51
489.64	489.17
489.81	442.36
489.99	454.06
490.17	442.36
490.35	435.34
490.53	418.96
490.70	383.85
490.88	475.13
491.06	416.62
491.24	496.19
491.41	404.91
491.59	393.21
491.77	407.25
491.95	463.43
492.13	444.70
492.30	362.78
492.48	449.38
492.66	400.23
492.84	477.47
493.01	400.23
493.19	442.36
493.37	411.93
493.54	409.59
493.72	400.23
493.90	381.51
494.08	437.68
494.25	390.87
494.43	491.51
494.61	454.06
494.79	430.66
494.96	425.98
495.14	418.96
495.32	430.66
495.49	376.83
495.67	423.64
495.85	393.21
496.02	393.21
496.20	442.36
496.38	379.17
496.55	454.06
496.73	379.17
496.91	365.12
497.09	458.74
497.26	362.78
497.44	409.59
497.62	416.62
497.79	433.00
497.97	437.68
498.14	390.87
498.32	369.80
498.50	430.66
498.67	395.55
498.85	400.23
499.03	365.12
499.20	388.53
499.38	376.83
499.56	376.83
499.73	418.96
499.91	440.02
500.08	442.36
500.26	409.59
500.44	390.87
500.61	379.17
500.79	386.19
500.97	351.08
501.14	437.68
501.32	423.64
501.49	433.00
501.67	386.19
501.84	461.09
502.02	407.25
502.20	449.38
502.37	461.09
502.55	428.32
502.72	489.17
502.90	433.00
503.07	493.85
503.25	454.06
503.43	362.78
503.60	461.09
503.78	430.66
503.95	472.79
504.13	381.51
504.30	409.59
504.48	435.34
504.65	477.47
504.83	418.96
505.01	416.62
505.18	437.68
505.36	444.70
505.53	451.72
505.71	507.90
505.88	421.30
506.06	440.02
506.23	390.87
506.41	304.27
506.58	428.32
506.76	315.97
506.93	470.45
507.11	414.27
507.28	447.04
507.46	456.40
507.63	437.68
507.81	372.15
507.98	430.66
508.16	395.55
508.33	383.85
508.50	472.79
508.68	416.62
508.85	400.23
509.03	376.83
509.20	442.36
509.38	444.70
509.55	395.55
509.73	421.30
509.90	411.93
510.08	430.66
510.25	458.74
510.42	430.66
510.60	465.77
510.77	491.51
510.95	528.96
511.12	402.57
511.30	388.53
511.47	414.27
511.64	465.77
511.82	479.81
511.99	430.66
512.17	386.19
512.34	400.23
512.51	397.89
512.69	477.47
512.86	397.89
513.04	435.34
513.21	421.30
513.38	430.66
513.56	454.06
513.73	449.38
513.90	393.21
514.08	416.62
514.25	463.43
514.43	435.34
514.60	388.53
514.77	456.40
514.95	411.93
515.12	416.62
515.29	475.13
515.47	484.49
515.64	351.08
515.81	383.85
515.99	393.21
516.16	463.43
516.33	472.79
516.51	369.80
516.68	374.49
516.85	458.74
517.03	449.38
517.20	402.57
517.37	451.72
517.54	376.83
517.72	395.55
517.89	346.40
518.06	444.70
518.24	379.17
518.41	493.85
518.58	409.59
518.75	409.59
518.93	402.57
519.10	376.83
519.27	393.21
519.45	440.02
519.62	379.17
519.79	404.91
519.96	402.57
520.14	386.19
520.31	440.02
520.48	444.70
520.65	407.25
520.83	428.32
521.00	402.57
521.17	491.51
521.34	425.98
521.52	393.21
521.69	353.42
521.86	397.89
522.03	383.85
522.20	468.11
522.38	447.04
522.55	447.04
522.72	402.57
522.89	388.53
523.07	465.77
523.24	416.62
523.41	470.45
523.58	407.25
523.75	339.38
523.92	435.34
524.10	386.19
524.27	440.02
524.44	400.23
524.61	416.62
524.78	411.93
524.96	416.62
525.13	425.98
525.30	409.59
525.47	411.93
525.64	472.79
525.81	454.06
525.98	346.40
526.16	383.85
526.33	407.25
526.50	416.62
526.67	355.76
526.84	367.46
527.01	407.25
527.18	355.76
527.36	430.66
527.53	362.78
527.70	433.00
527.87	416.62
528.04	437.68
528.21	449.38
528.38	390.87
528.55	528.96
528.72	472.79
528.89	423.64
529.07	367.46
529.24	381.51
529.41	437.68
529.58	444.70
529.75	449.38
529.92	463.43
530.09	475.13
530.26	418.96
530.43	451.72
530.60	416.62
530.77	390.87
530.94	337.04
531.11	355.76
531.28	397.89
531.46	369.80
531.63	433.00
531.80	496.19
531.97	411.93
532.14	468.11
532.31	463.43
532.48	416.62
532.65	400.23
532.82	383.85
532.99	381.51
533.16	407.25
533.33	325.33
533.50	440.02
533.67	337.04
533.84	369.80
534.01	409.59
534.18	374.49
534.35	381.51
534.52	468.11
534.69	304.27
534.86	322.99
535.03	383.85
535.20	435.34
535.37	395.55
535.54	454.06
535.71	374.49
535.88	486.83
536.05	425.98
536.22	447.04
536.38	327.68
536.55	402.57
536.72	393.21
536.89	421.30
537.06	458.74
537.23	397.89
537.40	365.12
537.57	409.59
537.74	454.06
537.91	458.74
538.08	425.98
538.25	362.78
538.42	400.23
538.59	428.32
538.75	493.85
538.92	337.04
539.09	454.06
539.26	409.59
539.43	538.32
539.60	421.30
539.77	430.66
539.94	437.68
540.11	418.96
540.28	404.91
540.44	468.11
540.61	383.85
540.78	393.21
540.95	348.74
541.12	447.04
541.29	355.76
541.46	411.93
541.62	374.49
541.79	395.55
541.96	411.93
542.13	407.25
542.30	440.02
542.47	400.23
542.63	447.04
542.80	418.96
542.97	440.02
543.14	404.91
543.31	437.68
543.48	390.87
543.64	458.74
543.81	383.85
543.98	395.55
544.15	362.78
544.32	449.38
544.48	454.06
544.65	468.11
544.82	400.23
544.99	409.59
545.16	397.89
545.32	402.57
545.49	374.49
545.66	372.15
545.83	447.04
546.00	397.89
546.16	374.49
546.33	400.23
546.50	451.72
546.67	456.40
546.83	477.47
547.00	402.57
547.17	454.06
547.34	458.74
547.50	433.00
547.67	447.04
547.84	393.21
548.00	409.59
548.17	425.98
548.34	372.15
548.51	447.04
548.67	393.21
548.84	425.98
549.01	416.62
549.18	433.00
549.34	461.09
549.51	374.49
549.68	484.49
549.84	416.62
550.01	365.12
550.18	416.62
550.34	465.77
550.51	435.34
550.68	491.51
550.84	425.98
551.01	409.59
551.18	393.21
551.34	461.09
551.51	456.40
551.68	442.36
551.84	456.40
552.01	416.62
552.18	444.70
552.34	421.30
552.51	402.57
552.68	404.91
552.84	425.98
553.01	402.57
553.18	500.87
553.34	425.98
553.51	416.62
553.67	423.64
553.84	475.13
554.01	414.27
554.17	402.57
554.34	383.85
554.51	423.64
554.67	404.91
554.84	395.55
555.00	437.68
555.17	472.79
555.33	517.26
555.50	383.85
555.67	411.93
555.83	320.65
556.00	479.81
556.16	503.22
556.33	505.56
556.50	376.83
556.66	440.02
556.83	447.04
556.99	362.78
557.16	423.64
557.32	423.64
557.49	433.00
557.65	409.59
557.82	376.83
557.98	484.49
558.15	395.55
558.32	440.02
558.48	414.27
558.65	390.87
558.81	362.78
558.98	404.91
559.14	454.06
559.31	449.38
559.47	404.91
559.64	414.27
559.80	442.36
559.97	458.74
560.13	433.00
560.30	393.21
560.46	409.59
560.63	400.23
560.79	477.47
560.96	440.02
561.12	416.62
561.29	468.11
561.45	390.87
561.61	470.45
561.78	512.58
561.94	407.25
562.11	440.02
562.27	379.17
562.44	379.17
562.60	430.66
562.77	383.85
562.93	477.47
563.10	360.44
563.26	461.09
563.42	491.51
563.59	414.27
563.75	425.98
563.92	423.64
564.08	463.43
564.24	479.81
564.41	430.66
564.57	383.85
564.74	465.77
564.90	437.68
565.07	351.08
565.23	433.00
565.39	421.30
565.56	486.83
565.72	402.57
565.88	353.42
566.05	465.77
566.21	402.57
566.38	461.09
566.54	430.66
566.70	367.46
566.87	400.23
567.03	437.68
567.19	435.34
567.36	444.70
567.52	388.53
567.68	472.79
567.85	435.34
568.01	280.86
568.17	461.09
568.34	437.68
568.50	456.40
568.66	418.96
568.83	468.11
568.99	454.06
569.15	475.13
569.32	423.64
569.48	421.30
569.64	400.23
569.81	430.66
569.97	458.74
570.13	421.30
570.30	435.34
570.46	407.25
570.62	458.74
570.78	430.66
570.95	402.57
571.11	512.58
571.27	477.47
571.43	484.49
571.60	423.64
571.76	482.15
571.92	430.66
572.09	397.89
572.25	442.36
572.41	388.53
572.57	400.23
572.74	496.19
572.90	393.21
573.06	449.38
573.22	444.70
573.38	414.27
573.55	458.74
573.71	437.68
573.87	454.06
574.03	458.74
574.20	416.62
574.36	444.70
574.52	402.57
574.68	496.19
574.84	418.96
575.01	472.79
575.17	451.72
575.33	404.91
575.49	465.77
575.65	507.90
575.82	449.38
575.98	468.11
576.14	437.68
576.30	386.19
576.46	397.89
576.62	491.51
576.79	416.62
576.95	435.34
577.11	358.10
577.27	444.70
577.43	423.64
577.59	449.38
577.75	456.40
577.92	447.04
578.08	376.83
578.24	433.00
578.40	468.11
578.56	559.39
578.72	423.64
578.88	477.47
579.04	472.79
579.21	400.23
579.37	463.43
579.53	372.15
579.69	442.36
579.85	409.59
580.01	486.83
580.17	442.36
580.33	444.70
580.49	421.30
580.65	409.59
580.82	451.72
580.98	362.78
581.14	381.51
581.30	489.17
581.46	376.83
581.62	510.24
581.78	475.13
581.94	360.44
582.10	374.49
582.26	383.85
582.42	400.23
582.58	447.04
582.74	437.68
582.90	411.93
583.06	468.11
583.22	400.23
583.38	360.44
583.54	388.53
583.70	451.72
583.86	433.00
584.02	447.04
584.18	470.45
584.34	374.49
584.50	383.85
584.66	454.06
584.82	470.45
584.98	433.00
585.14	428.32
585.30	421.30
585.46	393.21
585.62	421.30
585.78	442.36
585.94	404.91
586.10	484.49
586.26	449.38
586.42	435.34
586.58	365.12
586.74	421.30
586.90	428.32
587.06	379.17
587.22	433.00
587.38	355.76
587.54	397.89
587.70	414.27
587.86	433.00
588.02	395.55
588.18	458.74
588.34	440.02
588.49	435.34
588.65	369.80
588.81	393.21
588.97	381.51
589.13	442.36
589.29	379.17
589.45	479.81
589.61	498.53
589.77	479.81
589.93	418.96
590.08	414.27
590.24	369.80
590.40	381.51
590.56	430.66
590.72	379.17
590.88	437.68
591.04	418.96
591.20	463.43
591.35	390.87
591.51	402.57
591.67	374.49
591.83	454.06
591.99	416.62
592.15	395.55
592.31	351.08
592.46	418.96
592.62	390.87
592.78	411.93
592.94	433.00
593.10	409.59
593.26	416.62
593.41	456.40
593.57	435.34
593.73	442.36
593.89	416.62
594.05	381.51
594.20	447.04
594.36	472.79
594.52	437.68
594.68	435.34
594.84	433.00
594.99	423.64
595.15	376.83
595.31	437.68
595.47	421.30
595.62	313.63
595.78	454.06
595.94	465.77
596.10	447.04
596.25	421.30
596.41	430.66
596.57	461.09
596.73	409.59
596.88	383.85
597.04	428.32
597.20	393.21
597.36	407.25
597.51	500.87
597.67	423.64
597.83	393.21
597.99	489.17
598.14	440.02
598.30	421.30
598.46	428.32
598.61	496.19
598.77	503.22
598.93	503.22
599.09	395.55
599.24	451.72
599.40	397.89
599.56	482.15
599.71	376.83
599.87	395.55
600.03	465.77
600.18	425.98
600.34	470.45
600.50	376.83
600.65	418.96
600.81	444.70
600.97	379.17
601.12	430.66
601.28	435.34
601.44	440.02
601.59	454.06
601.75	411.93
601.91	341.72
602.06	416.62
602.22	435.34
602.37	425.98
602.53	451.72
602.69	493.85
602.84	423.64
603.00	383.85
603.16	444.70
603.31	421.30
603.47	407.25
603.62	407.25
603.78	414.27
603.94	440.02
604.09	451.72
604.25	491.51
604.40	491.51
604.56	353.42
604.71	421.30
604.87	435.34
605.03	407.25
605.18	351.08
605.34	400.23
605.49	402.57
605.65	379.17
605.80	435.34
605.96	409.59
606.12	463.43
606.27	416.62
606.43	397.89
606.58	477.47
606.74	416.62
606.89	430.66
607.05	386.19
607.20	393.21
607.36	479.81
607.51	390.87
607.67	379.17
607.82	475.13
607.98	463.43
608.13	475.13
608.29	379.17
608.44	379.17
608.60	365.12
608.75	348.74
608.91	468.11
609.06	407.25
609.22	393.21
609.37	447.04
609.53	400.23
609.68	388.53
609.84	388.53
609.99	395.55
610.15	486.83
