SpectraSuite Data File
++++++++++++++++++++++++++++++++++++
Date: Fri Oct 25 12:11:30 EDT 2013
User: price-jones
Dark Spectrum Present: No
Reference Spectrum Present: No
Number of Sampled Component Spectra: 1
Spectrometers: USB2+H05261
Integration Time (usec): 100000 (USB2+H05261)
Spectra Averaged: 1 (USB2+H05261)
Boxcar Smoothing: 0 (USB2+H05261)
Correct for Electrical Dark: No (USB2+H05261)
Strobe/Lamp Enabled: No (USB2+H05261)
Correct for Detector Non-linearity: No (USB2+H05261)
Correct for Stray Light: No (USB2+H05261)
Number of Pixels in Processed Spectrum: 2048
>>>>>Begin Processed Spectral Data<<<<<
365.73	320.65
365.92	320.65
366.12	320.65
366.32	220.01
366.52	243.42
366.72	248.10
366.91	301.93
367.11	231.71
367.31	234.05
367.51	217.67
367.70	231.71
367.90	215.33
368.10	262.14
368.30	238.73
368.49	250.44
368.69	264.48
368.89	234.05
369.09	212.99
369.28	304.27
369.48	231.71
369.68	283.20
369.87	327.68
370.07	315.97
370.27	365.12
370.47	313.63
370.66	290.23
370.86	315.97
371.06	344.06
371.25	411.93
371.45	362.78
371.65	381.51
371.84	315.97
372.04	393.21
372.24	430.66
372.44	400.23
372.63	400.23
372.83	442.36
373.03	416.62
373.22	332.36
373.42	411.93
373.62	449.38
373.81	449.38
374.01	486.83
374.21	475.13
374.40	360.44
374.60	430.66
374.79	393.21
374.99	468.11
375.19	421.30
375.38	358.10
375.58	365.12
375.78	416.62
375.97	449.38
376.17	463.43
376.37	437.68
376.56	409.59
376.76	430.66
376.95	362.78
377.15	400.23
377.35	458.74
377.54	397.89
377.74	454.06
377.93	416.62
378.13	463.43
378.33	383.85
378.52	339.38
378.72	421.30
378.91	475.13
379.11	444.70
379.31	468.11
379.50	379.17
379.70	388.53
379.89	379.17
380.09	386.19
380.28	388.53
380.48	423.64
380.68	395.55
380.87	358.10
381.07	376.83
381.26	400.23
381.46	360.44
381.65	416.62
381.85	454.06
382.04	451.72
382.24	362.78
382.43	437.68
382.63	400.23
382.83	367.46
383.02	456.40
383.22	376.83
383.41	351.08
383.61	428.32
383.80	463.43
384.00	416.62
384.19	444.70
384.39	400.23
384.58	428.32
384.78	414.27
384.97	430.66
385.17	404.91
385.36	348.74
385.56	374.49
385.75	470.45
385.95	407.25
386.14	440.02
386.34	395.55
386.53	454.06
386.72	461.09
386.92	386.19
387.11	379.17
387.31	409.59
387.50	374.49
387.70	479.81
387.89	435.34
388.09	414.27
388.28	355.76
388.48	376.83
388.67	418.96
388.86	409.59
389.06	404.91
389.25	383.85
389.45	458.74
389.64	435.34
389.84	456.40
390.03	430.66
390.22	393.21
390.42	341.72
390.61	423.64
390.81	327.68
391.00	493.85
391.19	414.27
391.39	428.32
391.58	428.32
391.78	402.57
391.97	463.43
392.16	386.19
392.36	414.27
392.55	444.70
392.75	430.66
392.94	379.17
393.13	491.51
393.33	348.74
393.52	367.46
393.71	379.17
393.91	409.59
394.10	341.72
394.29	425.98
394.49	367.46
394.68	414.27
394.88	423.64
395.07	379.17
395.26	348.74
395.46	397.89
395.65	388.53
395.84	386.19
396.04	517.26
396.23	496.19
396.42	423.64
396.62	428.32
396.81	477.47
397.00	416.62
397.19	486.83
397.39	411.93
397.58	411.93
397.77	383.85
397.97	437.68
398.16	390.87
398.35	351.08
398.55	400.23
398.74	437.68
398.93	351.08
399.12	372.15
399.32	395.55
399.51	388.53
399.70	447.04
399.90	442.36
400.09	383.85
400.28	435.34
400.47	344.06
400.67	449.38
400.86	468.11
401.05	407.25
401.24	376.83
401.44	423.64
401.63	346.40
401.82	379.17
402.01	435.34
402.21	397.89
402.40	334.70
402.59	449.38
402.78	435.34
402.97	425.98
403.17	437.68
403.36	414.27
403.55	400.23
403.74	425.98
403.93	390.87
404.13	400.23
404.32	435.34
404.51	463.43
404.70	458.74
404.89	365.12
405.09	402.57
405.28	360.44
405.47	409.59
405.66	451.72
405.85	470.45
406.05	390.87
406.24	351.08
406.43	381.51
406.62	477.47
406.81	461.09
407.00	360.44
407.20	386.19
407.39	418.96
407.58	397.89
407.77	395.55
407.96	423.64
408.15	468.11
408.34	435.34
408.54	482.15
408.73	400.23
408.92	402.57
409.11	404.91
409.30	402.57
409.49	395.55
409.68	358.10
409.87	381.51
410.07	367.46
410.26	397.89
410.45	442.36
410.64	386.19
410.83	390.87
411.02	348.74
411.21	407.25
411.40	468.11
411.59	411.93
411.78	318.31
411.98	414.27
412.17	374.49
412.36	355.76
412.55	425.98
412.74	411.93
412.93	465.77
413.12	383.85
413.31	468.11
413.50	358.10
413.69	407.25
413.88	437.68
414.07	376.83
414.26	393.21
414.45	386.19
414.64	400.23
414.83	440.02
415.02	433.00
415.22	472.79
415.41	428.32
415.60	418.96
415.79	421.30
415.98	400.23
416.17	397.89
416.36	374.49
416.55	381.51
416.74	367.46
416.93	442.36
417.12	379.17
417.31	339.38
417.50	463.43
417.69	416.62
417.88	505.56
418.07	358.10
418.26	402.57
418.45	344.06
418.64	465.77
418.83	407.25
419.02	372.15
419.21	381.51
419.39	376.83
419.58	376.83
419.77	437.68
419.96	400.23
420.15	526.62
420.34	376.83
420.53	376.83
420.72	421.30
420.91	369.80
421.10	421.30
421.29	489.17
421.48	437.68
421.67	444.70
421.86	409.59
422.05	435.34
422.24	379.17
422.43	430.66
422.61	325.33
422.80	381.51
422.99	470.45
423.18	355.76
423.37	461.09
423.56	358.10
423.75	423.64
423.94	456.40
424.13	341.72
424.32	442.36
424.50	442.36
424.69	437.68
424.88	386.19
425.07	402.57
425.26	440.02
425.45	444.70
425.64	435.34
425.83	346.40
426.01	458.74
426.20	433.00
426.39	383.85
426.58	348.74
426.77	407.25
426.96	433.00
427.15	447.04
427.33	465.77
427.52	454.06
427.71	433.00
427.90	411.93
428.09	421.30
428.28	411.93
428.46	369.80
428.65	449.38
428.84	402.57
429.03	440.02
429.22	362.78
429.40	346.40
429.59	404.91
429.78	489.17
429.97	386.19
430.16	418.96
430.34	381.51
430.53	390.87
430.72	351.08
430.91	510.24
431.10	407.25
431.28	393.21
431.47	430.66
431.66	402.57
431.85	360.44
432.03	451.72
432.22	479.81
432.41	461.09
432.60	435.34
432.79	423.64
432.97	493.85
433.16	465.77
433.35	395.55
433.54	418.96
433.72	433.00
433.91	425.98
434.10	383.85
434.28	411.93
434.47	386.19
434.66	421.30
434.85	463.43
435.03	461.09
435.22	475.13
435.41	451.72
435.59	491.51
435.78	442.36
435.97	428.32
436.16	435.34
436.34	428.32
436.53	383.85
436.72	395.55
436.90	423.64
437.09	409.59
437.28	435.34
437.46	414.27
437.65	442.36
437.84	386.19
438.02	414.27
438.21	376.83
438.40	465.77
438.58	402.57
438.77	454.06
438.96	421.30
439.14	404.91
439.33	400.23
439.52	416.62
439.70	423.64
439.89	440.02
440.08	423.64
440.26	475.13
440.45	477.47
440.63	369.80
440.82	444.70
441.01	407.25
441.19	435.34
441.38	430.66
441.57	433.00
441.75	454.06
441.94	440.02
442.12	374.49
442.31	486.83
442.50	456.40
442.68	482.15
442.87	404.91
443.05	418.96
443.24	449.38
443.43	339.38
443.61	449.38
443.80	395.55
443.98	365.12
444.17	388.53
444.35	482.15
444.54	435.34
444.73	360.44
444.91	414.27
445.10	409.59
445.28	400.23
445.47	437.68
445.65	379.17
445.84	362.78
446.02	393.21
446.21	351.08
446.39	393.21
446.58	400.23
446.77	444.70
446.95	477.47
447.14	435.34
447.32	514.92
447.51	362.78
447.69	423.64
447.88	402.57
448.06	411.93
448.25	404.91
448.43	372.15
448.62	381.51
448.80	346.40
448.99	418.96
449.17	421.30
449.36	437.68
449.54	397.89
449.73	430.66
449.91	386.19
450.10	465.77
450.28	416.62
450.46	484.49
450.65	418.96
450.83	388.53
451.02	393.21
451.20	379.17
451.39	341.72
451.57	437.68
451.76	435.34
451.94	451.72
452.13	416.62
452.31	456.40
452.49	440.02
452.68	433.00
452.86	414.27
453.05	442.36
453.23	470.45
453.42	496.19
453.60	411.93
453.78	372.15
453.97	472.79
454.15	428.32
454.34	393.21
454.52	351.08
454.70	400.23
454.89	400.23
455.07	409.59
455.26	493.85
455.44	437.68
455.62	390.87
455.81	442.36
455.99	454.06
456.17	435.34
456.36	386.19
456.54	421.30
456.73	477.47
456.91	437.68
457.09	369.80
457.28	463.43
457.46	395.55
457.64	414.27
457.83	397.89
458.01	421.30
458.19	465.77
458.38	402.57
458.56	362.78
458.74	355.76
458.93	360.44
459.11	435.34
459.29	402.57
459.48	301.93
459.66	414.27
459.84	442.36
460.03	526.62
460.21	407.25
460.39	442.36
460.57	447.04
460.76	411.93
460.94	341.72
461.12	456.40
461.31	440.02
461.49	374.49
461.67	355.76
461.85	372.15
462.04	390.87
462.22	732.59
462.40	423.64
462.59	358.10
462.77	421.30
462.95	430.66
463.13	397.89
463.32	414.27
463.50	435.34
463.68	489.17
463.86	423.64
464.05	418.96
464.23	472.79
464.41	355.76
464.59	465.77
464.78	358.10
464.96	435.34
465.14	393.21
465.32	360.44
465.50	449.38
465.69	421.30
465.87	372.15
466.05	379.17
466.23	346.40
466.41	397.89
466.60	315.97
466.78	372.15
466.96	416.62
467.14	493.85
467.32	456.40
467.51	479.81
467.69	491.51
467.87	458.74
468.05	395.55
468.23	416.62
468.41	435.34
468.60	465.77
468.78	414.27
468.96	374.49
469.14	425.98
469.32	393.21
469.50	365.12
469.69	397.89
469.87	470.45
470.05	470.45
470.23	428.32
470.41	372.15
470.59	449.38
470.77	435.34
470.95	433.00
471.14	407.25
471.32	430.66
471.50	365.12
471.68	383.85
471.86	381.51
472.04	397.89
472.22	400.23
472.40	409.59
472.58	447.04
472.77	435.34
472.95	482.15
473.13	468.11
473.31	418.96
473.49	428.32
473.67	393.21
473.85	402.57
474.03	482.15
474.21	407.25
474.39	418.96
474.57	425.98
474.75	442.36
474.93	449.38
475.12	367.46
475.30	416.62
475.48	404.91
475.66	442.36
475.84	470.45
476.02	437.68
476.20	390.87
476.38	379.17
476.56	472.79
476.74	440.02
476.92	444.70
477.10	386.19
477.28	447.04
477.46	423.64
477.64	482.15
477.82	400.23
478.00	465.77
478.18	430.66
478.36	386.19
478.54	383.85
478.72	470.45
478.90	449.38
479.08	372.15
479.26	444.70
479.44	437.68
479.62	442.36
479.80	428.32
479.98	395.55
480.16	440.02
480.34	423.64
480.52	423.64
480.70	458.74
480.88	353.42
481.06	369.80
481.24	409.59
481.41	465.77
481.59	440.02
481.77	468.11
481.95	400.23
482.13	465.77
482.31	393.21
482.49	360.44
482.67	482.15
482.85	498.53
483.03	404.91
483.21	355.76
483.39	351.08
483.57	428.32
483.74	404.91
483.92	454.06
484.10	416.62
484.28	428.32
484.46	470.45
484.64	430.66
484.82	423.64
485.00	390.87
485.18	416.62
485.35	414.27
485.53	395.55
485.71	400.23
485.89	369.80
486.07	409.59
486.25	449.38
486.43	437.68
486.61	411.93
486.78	454.06
486.96	435.34
487.14	400.23
487.32	404.91
487.50	423.64
487.68	386.19
487.85	376.83
488.03	498.53
488.21	407.25
488.39	447.04
488.57	425.98
488.75	383.85
488.92	606.20
489.10	440.02
489.28	484.49
489.46	430.66
489.64	461.09
489.81	454.06
489.99	421.30
490.17	379.17
490.35	482.15
490.53	456.40
490.70	381.51
490.88	374.49
491.06	402.57
491.24	383.85
491.41	468.11
491.59	484.49
491.77	465.77
491.95	418.96
492.13	397.89
492.30	472.79
492.48	397.89
492.66	484.49
492.84	411.93
493.01	414.27
493.19	369.80
493.37	475.13
493.54	440.02
493.72	440.02
493.90	362.78
494.08	442.36
494.25	456.40
494.43	423.64
494.61	411.93
494.79	367.46
494.96	369.80
495.14	409.59
495.32	433.00
495.49	407.25
495.67	477.47
495.85	348.74
496.02	395.55
496.20	444.70
496.38	402.57
496.55	367.46
496.73	428.32
496.91	425.98
497.09	390.87
497.26	400.23
497.44	449.38
497.62	383.85
497.79	390.87
497.97	433.00
498.14	444.70
498.32	339.38
498.50	456.40
498.67	395.55
498.85	362.78
499.03	369.80
499.20	372.15
499.38	428.32
499.56	381.51
499.73	440.02
499.91	493.85
500.08	465.77
500.26	447.04
500.44	447.04
500.61	465.77
500.79	416.62
500.97	360.44
501.14	430.66
501.32	454.06
501.49	440.02
501.67	407.25
501.84	435.34
502.02	447.04
502.20	421.30
502.37	409.59
502.55	447.04
502.72	367.46
502.90	447.04
503.07	451.72
503.25	407.25
503.43	498.53
503.60	447.04
503.78	402.57
503.95	374.49
504.13	433.00
504.30	425.98
504.48	433.00
504.65	451.72
504.83	430.66
505.01	479.81
505.18	437.68
505.36	355.76
505.53	418.96
505.71	383.85
505.88	444.70
506.06	416.62
506.23	479.81
506.41	404.91
506.58	421.30
506.76	409.59
506.93	388.53
507.11	409.59
507.28	447.04
507.46	353.42
507.63	463.43
507.81	451.72
507.98	400.23
508.16	454.06
508.33	348.74
508.50	447.04
508.68	430.66
508.85	451.72
509.03	418.96
509.20	430.66
509.38	397.89
509.55	486.83
509.73	416.62
509.90	418.96
510.08	433.00
510.25	425.98
510.42	395.55
510.60	444.70
510.77	383.85
510.95	465.77
511.12	355.76
511.30	360.44
511.47	430.66
511.64	390.87
511.82	400.23
511.99	425.98
512.17	404.91
512.34	379.17
512.51	449.38
512.69	433.00
512.86	400.23
513.04	351.08
513.21	388.53
513.38	390.87
513.56	390.87
513.73	362.78
513.90	423.64
514.08	334.70
514.25	409.59
514.43	418.96
514.60	475.13
514.77	407.25
514.95	337.04
515.12	372.15
515.29	475.13
515.47	437.68
515.64	395.55
515.81	416.62
515.99	430.66
516.16	418.96
516.33	418.96
516.51	407.25
516.68	388.53
516.85	472.79
517.03	456.40
517.20	442.36
517.37	416.62
517.54	447.04
517.72	407.25
517.89	421.30
518.06	456.40
518.24	404.91
518.41	440.02
518.58	411.93
518.75	430.66
518.93	440.02
519.10	409.59
519.27	428.32
519.45	402.57
519.62	435.34
519.79	388.53
519.96	435.34
520.14	376.83
520.31	395.55
520.48	372.15
520.65	454.06
520.83	479.81
521.00	484.49
521.17	444.70
521.34	430.66
521.52	390.87
521.69	402.57
521.86	440.02
522.03	442.36
522.20	505.56
522.38	442.36
522.55	484.49
522.72	374.49
522.89	444.70
523.07	381.51
523.24	409.59
523.41	472.79
523.58	372.15
523.75	475.13
523.92	400.23
524.10	381.51
524.27	386.19
524.44	451.72
524.61	458.74
524.78	418.96
524.96	414.27
525.13	440.02
525.30	468.11
525.47	433.00
525.64	362.78
525.81	418.96
525.98	400.23
526.16	376.83
526.33	440.02
526.50	454.06
526.67	367.46
526.84	423.64
527.01	454.06
527.18	383.85
527.36	442.36
527.53	442.36
527.70	463.43
527.87	390.87
528.04	458.74
528.21	372.15
528.38	407.25
528.55	444.70
528.72	409.59
528.89	437.68
529.07	404.91
529.24	423.64
529.41	416.62
529.58	383.85
529.75	440.02
529.92	435.34
530.09	372.15
530.26	404.91
530.43	470.45
530.60	458.74
530.77	491.51
530.94	463.43
531.11	407.25
531.28	423.64
531.46	416.62
531.63	374.49
531.80	381.51
531.97	397.89
532.14	493.85
532.31	428.32
532.48	451.72
532.65	388.53
532.82	341.72
532.99	428.32
533.16	379.17
533.33	437.68
533.50	409.59
533.67	395.55
533.84	390.87
534.01	395.55
534.18	463.43
534.35	327.68
534.52	433.00
534.69	418.96
534.86	383.85
535.03	421.30
535.20	428.32
535.37	381.51
535.54	397.89
535.71	433.00
535.88	407.25
536.05	404.91
536.22	468.11
536.38	407.25
536.55	409.59
536.72	409.59
536.89	468.11
537.06	390.87
537.23	390.87
537.40	402.57
537.57	409.59
537.74	379.17
537.91	444.70
538.08	346.40
538.25	491.51
538.42	414.27
538.59	362.78
538.75	400.23
538.92	425.98
539.09	489.17
539.26	383.85
539.43	491.51
539.60	479.81
539.77	402.57
539.94	440.02
540.11	414.27
540.28	472.79
540.44	402.57
540.61	386.19
540.78	430.66
540.95	416.62
541.12	421.30
541.29	423.64
541.46	461.09
541.62	491.51
541.79	437.68
541.96	360.44
542.13	397.89
542.30	482.15
542.47	437.68
542.63	369.80
542.80	468.11
542.97	442.36
543.14	381.51
543.31	465.77
543.48	463.43
543.64	444.70
543.81	414.27
543.98	411.93
544.15	362.78
544.32	372.15
544.48	472.79
544.65	421.30
544.82	423.64
544.99	372.15
545.16	472.79
545.32	365.12
545.49	411.93
545.66	325.33
545.83	374.49
546.00	390.87
546.16	430.66
546.33	465.77
546.50	372.15
546.67	447.04
546.83	416.62
547.00	451.72
547.17	423.64
547.34	421.30
547.50	379.17
547.67	409.59
547.84	465.77
548.00	430.66
548.17	477.47
548.34	383.85
548.51	437.68
548.67	454.06
548.84	362.78
549.01	397.89
549.18	449.38
549.34	433.00
549.51	404.91
549.68	454.06
549.84	435.34
550.01	402.57
550.18	482.15
550.34	440.02
550.51	451.72
550.68	451.72
550.84	433.00
551.01	475.13
551.18	442.36
551.34	465.77
551.51	409.59
551.68	433.00
551.84	379.17
552.01	386.19
552.18	498.53
552.34	409.59
552.51	402.57
552.68	409.59
552.84	395.55
553.01	390.87
553.18	390.87
553.34	402.57
553.51	440.02
553.67	386.19
553.84	498.53
554.01	430.66
554.17	397.89
554.34	404.91
554.51	369.80
554.67	381.51
554.84	451.72
555.00	360.44
555.17	454.06
555.33	374.49
555.50	386.19
555.67	517.26
555.83	372.15
556.00	386.19
556.16	493.85
556.33	449.38
556.50	367.46
556.66	367.46
556.83	444.70
556.99	430.66
557.16	440.02
557.32	402.57
557.49	451.72
557.65	397.89
557.82	351.08
557.98	397.89
558.15	400.23
558.32	402.57
558.48	395.55
558.65	388.53
558.81	463.43
558.98	407.25
559.14	437.68
559.31	477.47
559.47	411.93
559.64	454.06
559.80	421.30
559.97	341.72
560.13	479.81
560.30	498.53
560.46	416.62
560.63	447.04
560.79	402.57
560.96	407.25
561.12	554.71
561.29	400.23
561.45	383.85
561.61	376.83
561.78	493.85
561.94	461.09
562.11	390.87
562.27	423.64
562.44	369.80
562.60	372.15
562.77	395.55
562.93	528.96
563.10	463.43
563.26	393.21
563.42	414.27
563.59	454.06
563.75	444.70
563.92	468.11
564.08	442.36
564.24	360.44
564.41	430.66
564.57	423.64
564.74	421.30
564.90	400.23
565.07	376.83
565.23	414.27
565.39	418.96
565.56	404.91
565.72	376.83
565.88	500.87
566.05	397.89
566.21	379.17
566.38	337.04
566.54	355.76
566.70	395.55
566.87	414.27
567.03	425.98
567.19	407.25
567.36	437.68
567.52	362.78
567.68	454.06
567.85	404.91
568.01	407.25
568.17	346.40
568.34	381.51
568.50	421.30
568.66	362.78
568.83	479.81
568.99	414.27
569.15	470.45
569.32	397.89
569.48	390.87
569.64	428.32
569.81	447.04
569.97	411.93
570.13	390.87
570.30	400.23
570.46	390.87
570.62	351.08
570.78	369.80
570.95	348.74
571.11	463.43
571.27	409.59
571.43	409.59
571.60	440.02
571.76	461.09
571.92	400.23
572.09	449.38
572.25	414.27
572.41	411.93
572.57	472.79
572.74	496.19
572.90	435.34
573.06	470.45
573.22	479.81
573.38	493.85
573.55	451.72
573.71	470.45
573.87	409.59
574.03	386.19
574.20	407.25
574.36	381.51
574.52	447.04
574.68	369.80
574.84	423.64
575.01	423.64
575.17	358.10
575.33	468.11
575.49	440.02
575.65	433.00
575.82	486.83
575.98	507.90
576.14	456.40
576.30	500.87
576.46	383.85
576.62	433.00
576.79	358.10
576.95	409.59
577.11	393.21
577.27	397.89
577.43	414.27
577.59	365.12
577.75	367.46
577.92	395.55
578.08	489.17
578.24	383.85
578.40	428.32
578.56	454.06
578.72	414.27
578.88	456.40
579.04	418.96
579.21	428.32
579.37	447.04
579.53	458.74
579.69	451.72
579.85	318.31
580.01	407.25
580.17	367.46
580.33	458.74
580.49	500.87
580.65	388.53
580.82	411.93
580.98	379.17
581.14	421.30
581.30	423.64
581.46	482.15
581.62	416.62
581.78	479.81
581.94	449.38
582.10	416.62
582.26	472.79
582.42	423.64
582.58	442.36
582.74	435.34
582.90	430.66
583.06	496.19
583.22	381.51
583.38	397.89
583.54	437.68
583.70	449.38
583.86	442.36
584.02	491.51
584.18	440.02
584.34	362.78
584.50	440.02
584.66	437.68
584.82	388.53
584.98	449.38
585.14	404.91
585.30	428.32
585.46	428.32
585.62	418.96
585.78	423.64
585.94	390.87
586.10	433.00
586.26	416.62
586.42	407.25
586.58	414.27
586.74	411.93
586.90	367.46
587.06	395.55
587.22	479.81
587.38	402.57
587.54	386.19
587.70	472.79
587.86	458.74
588.02	414.27
588.18	454.06
588.34	449.38
588.49	416.62
588.65	402.57
588.81	437.68
588.97	383.85
589.13	353.42
589.29	430.66
589.45	444.70
589.61	491.51
589.77	425.98
589.93	447.04
590.08	386.19
590.24	416.62
590.40	404.91
590.56	491.51
590.72	444.70
590.88	418.96
591.04	325.33
591.20	486.83
591.35	442.36
591.51	353.42
591.67	393.21
591.83	346.40
591.99	400.23
592.15	454.06
592.31	447.04
592.46	451.72
592.62	447.04
592.78	437.68
592.94	383.85
593.10	393.21
593.26	440.02
593.41	386.19
593.57	444.70
593.73	393.21
593.89	430.66
594.05	404.91
594.20	418.96
594.36	418.96
594.52	449.38
594.68	468.11
594.84	470.45
594.99	454.06
595.15	411.93
595.31	404.91
595.47	440.02
595.62	454.06
595.78	425.98
595.94	402.57
596.10	421.30
596.25	423.64
596.41	482.15
596.57	433.00
596.73	493.85
596.88	390.87
597.04	367.46
597.20	505.56
597.36	346.40
597.51	447.04
597.67	423.64
597.83	390.87
597.99	423.64
598.14	421.30
598.30	500.87
598.46	327.68
598.61	519.60
598.77	400.23
598.93	493.85
599.09	430.66
599.24	404.91
599.40	421.30
599.56	383.85
599.71	397.89
599.87	390.87
600.03	376.83
600.18	433.00
600.34	369.80
600.50	397.89
600.65	393.21
600.81	451.72
600.97	425.98
601.12	430.66
601.28	484.49
601.44	463.43
601.59	437.68
601.75	468.11
601.91	381.51
602.06	451.72
602.22	428.32
602.37	358.10
602.53	416.62
602.69	411.93
602.84	437.68
603.00	416.62
603.16	433.00
603.31	369.80
603.47	418.96
603.62	407.25
603.78	454.06
603.94	484.49
604.09	416.62
604.25	425.98
604.40	425.98
604.56	425.98
604.71	468.11
604.87	414.27
605.03	369.80
605.18	365.12
605.34	437.68
605.49	451.72
605.65	395.55
605.80	365.12
605.96	416.62
606.12	395.55
606.27	404.91
606.43	397.89
606.58	461.09
606.74	430.66
606.89	437.68
607.05	365.12
607.20	470.45
607.36	433.00
607.51	449.38
607.67	437.68
607.82	447.04
607.98	374.49
608.13	440.02
608.29	379.17
608.44	461.09
608.60	425.98
608.75	477.47
608.91	407.25
609.06	421.30
609.22	388.53
609.37	383.85
609.53	383.85
609.68	414.27
609.84	341.72
609.99	395.55
610.15	404.91
