SpectraSuite Data File
++++++++++++++++++++++++++++++++++++
Date: Fri Oct 25 12:10:15 EDT 2013
User: price-jones
Dark Spectrum Present: No
Reference Spectrum Present: No
Number of Sampled Component Spectra: 1
Spectrometers: USB2+H05261
Integration Time (usec): 100000 (USB2+H05261)
Spectra Averaged: 1 (USB2+H05261)
Boxcar Smoothing: 0 (USB2+H05261)
Correct for Electrical Dark: No (USB2+H05261)
Strobe/Lamp Enabled: No (USB2+H05261)
Correct for Detector Non-linearity: No (USB2+H05261)
Correct for Stray Light: No (USB2+H05261)
Number of Pixels in Processed Spectrum: 2048
>>>>>Begin Processed Spectral Data<<<<<
365.73	322.99
365.92	322.99
366.12	322.99
366.32	238.73
366.52	224.69
366.72	358.10
366.91	173.20
367.11	248.10
367.31	196.60
367.51	205.97
367.70	255.12
367.90	306.61
368.10	210.65
368.30	236.39
368.49	175.54
368.69	212.99
368.89	248.10
369.09	236.39
369.28	217.67
369.48	278.52
369.68	297.25
369.87	308.95
370.07	220.01
370.27	348.74
370.47	332.36
370.66	334.70
370.86	339.38
371.06	299.59
371.25	381.51
371.45	353.42
371.65	365.12
371.84	341.72
372.04	397.89
372.24	423.64
372.44	334.70
372.63	374.49
372.83	418.96
373.03	416.62
373.22	449.38
373.42	395.55
373.62	451.72
373.81	395.55
374.01	428.32
374.21	423.64
374.40	468.11
374.60	465.77
374.79	458.74
374.99	365.12
375.19	425.98
375.38	407.25
375.58	435.34
375.78	416.62
375.97	449.38
376.17	491.51
376.37	468.11
376.56	435.34
376.76	451.72
376.95	407.25
377.15	362.78
377.35	433.00
377.54	496.19
377.74	456.40
377.93	379.17
378.13	388.53
378.33	486.83
378.52	479.81
378.72	395.55
378.91	437.68
379.11	404.91
379.31	430.66
379.50	346.40
379.70	395.55
379.89	411.93
380.09	447.04
380.28	379.17
380.48	440.02
380.68	428.32
380.87	402.57
381.07	379.17
381.26	477.47
381.46	430.66
381.65	461.09
381.85	430.66
382.04	372.15
382.24	430.66
382.43	458.74
382.63	423.64
382.83	367.46
383.02	421.30
383.22	423.64
383.41	444.70
383.61	463.43
383.80	365.12
384.00	484.49
384.19	367.46
384.39	444.70
384.58	374.49
384.78	393.21
384.97	411.93
385.17	386.19
385.36	414.27
385.56	362.78
385.75	416.62
385.95	400.23
386.14	447.04
386.34	367.46
386.53	414.27
386.72	322.99
386.92	393.21
387.11	411.93
387.31	381.51
387.50	381.51
387.70	355.76
387.89	369.80
388.09	454.06
388.28	367.46
388.48	397.89
388.67	437.68
388.86	369.80
389.06	440.02
389.25	468.11
389.45	444.70
389.64	425.98
389.84	484.49
390.03	442.36
390.22	414.27
390.42	395.55
390.61	447.04
390.81	327.68
391.00	430.66
391.19	386.19
391.39	393.21
391.58	414.27
391.78	355.76
391.97	397.89
392.16	449.38
392.36	505.56
392.55	433.00
392.75	447.04
392.94	451.72
393.13	430.66
393.33	365.12
393.52	346.40
393.71	400.23
393.91	372.15
394.10	362.78
394.29	381.51
394.49	421.30
394.68	393.21
394.88	421.30
395.07	447.04
395.26	407.25
395.46	475.13
395.65	423.64
395.84	416.62
396.04	425.98
396.23	421.30
396.42	433.00
396.62	458.74
396.81	414.27
397.00	409.59
397.19	395.55
397.39	383.85
397.58	428.32
397.77	395.55
397.97	383.85
398.16	468.11
398.35	442.36
398.55	353.42
398.74	388.53
398.93	404.91
399.12	416.62
399.32	376.83
399.51	444.70
399.70	433.00
399.90	372.15
400.09	388.53
400.28	423.64
400.47	411.93
400.67	442.36
400.86	418.96
401.05	475.13
401.24	418.96
401.44	425.98
401.63	372.15
401.82	381.51
402.01	451.72
402.21	430.66
402.40	425.98
402.59	421.30
402.78	397.89
402.97	388.53
403.17	428.32
403.36	400.23
403.55	421.30
403.74	374.49
403.93	381.51
404.13	381.51
404.32	409.59
404.51	383.85
404.70	409.59
404.89	423.64
405.09	484.49
405.28	362.78
405.47	409.59
405.66	411.93
405.85	435.34
406.05	390.87
406.24	374.49
406.43	393.21
406.62	425.98
406.81	433.00
407.00	411.93
407.20	404.91
407.39	407.25
407.58	404.91
407.77	451.72
407.96	358.10
408.15	379.17
408.34	383.85
408.54	374.49
408.73	367.46
408.92	341.72
409.11	418.96
409.30	463.43
409.49	325.33
409.68	393.21
409.87	390.87
410.07	428.32
410.26	393.21
410.45	411.93
410.64	386.19
410.83	379.17
411.02	400.23
411.21	435.34
411.40	433.00
411.59	407.25
411.78	484.49
411.98	416.62
412.17	407.25
412.36	372.15
412.55	416.62
412.74	409.59
412.93	493.85
413.12	395.55
413.31	397.89
413.50	376.83
413.69	423.64
413.88	447.04
414.07	505.56
414.26	430.66
414.45	367.46
414.64	390.87
414.83	423.64
415.02	379.17
415.22	421.30
415.41	486.83
415.60	416.62
415.79	421.30
415.98	407.25
416.17	360.44
416.36	400.23
416.55	425.98
416.74	355.76
416.93	423.64
417.12	386.19
417.31	365.12
417.50	367.46
417.69	421.30
417.88	390.87
418.07	414.27
418.26	458.74
418.45	367.46
418.64	433.00
418.83	428.32
419.02	468.11
419.21	393.21
419.39	456.40
419.58	358.10
419.77	470.45
419.96	449.38
420.15	447.04
420.34	433.00
420.53	365.12
420.72	425.98
420.91	479.81
421.10	376.83
421.29	411.93
421.48	393.21
421.67	435.34
421.86	341.72
422.05	353.42
422.24	351.08
422.43	461.09
422.61	416.62
422.80	507.90
422.99	360.44
423.18	395.55
423.37	468.11
423.56	447.04
423.75	407.25
423.94	358.10
424.13	472.79
424.32	353.42
424.50	367.46
424.69	372.15
424.88	433.00
425.07	416.62
425.26	428.32
425.45	463.43
425.64	414.27
425.83	330.02
426.01	425.98
426.20	486.83
426.39	468.11
426.58	428.32
426.77	346.40
426.96	404.91
427.15	407.25
427.33	428.32
427.52	433.00
427.71	369.80
427.90	447.04
428.09	395.55
428.28	428.32
428.46	430.66
428.65	327.68
428.84	402.57
429.03	484.49
429.22	386.19
429.40	353.42
429.59	411.93
429.78	456.40
429.97	379.17
430.16	409.59
430.34	400.23
430.53	393.21
430.72	447.04
430.91	425.98
431.10	425.98
431.28	411.93
431.47	395.55
431.66	442.36
431.85	416.62
432.03	346.40
432.22	404.91
432.41	418.96
432.60	470.45
432.79	433.00
432.97	454.06
433.16	458.74
433.35	397.89
433.54	351.08
433.72	390.87
433.91	442.36
434.10	409.59
434.28	402.57
434.47	344.06
434.66	461.09
434.85	397.89
435.03	390.87
435.22	402.57
435.41	500.87
435.59	395.55
435.78	451.72
435.97	402.57
436.16	435.34
436.34	421.30
436.53	463.43
436.72	465.77
436.90	430.66
437.09	355.76
437.28	454.06
437.46	465.77
437.65	437.68
437.84	479.81
438.02	456.40
438.21	360.44
438.40	322.99
438.58	414.27
438.77	409.59
438.96	372.15
439.14	442.36
439.33	397.89
439.52	400.23
439.70	454.06
439.89	416.62
440.08	395.55
440.26	369.80
440.45	472.79
440.63	477.47
440.82	386.19
441.01	435.34
441.19	442.36
441.38	421.30
441.57	383.85
441.75	437.68
441.94	421.30
442.12	425.98
442.31	411.93
442.50	402.57
442.68	407.25
442.87	421.30
443.05	351.08
443.24	395.55
443.43	344.06
443.61	358.10
443.80	433.00
443.98	465.77
444.17	477.47
444.35	416.62
444.54	395.55
444.73	444.70
444.91	402.57
445.10	449.38
445.28	428.32
445.47	390.87
445.65	400.23
445.84	334.70
446.02	332.36
446.21	411.93
446.39	397.89
446.58	454.06
446.77	425.98
446.95	407.25
447.14	409.59
447.32	451.72
447.51	397.89
447.69	369.80
447.88	379.17
448.06	456.40
448.25	442.36
448.43	409.59
448.62	449.38
448.80	428.32
448.99	407.25
449.17	421.30
449.36	416.62
449.54	440.02
449.73	390.87
449.91	416.62
450.10	397.89
450.28	463.43
450.46	461.09
450.65	489.17
450.83	397.89
451.02	444.70
451.20	379.17
451.39	447.04
451.57	503.22
451.76	402.57
451.94	404.91
452.13	414.27
452.31	416.62
452.49	437.68
452.68	365.12
452.86	395.55
453.05	461.09
453.23	414.27
453.42	388.53
453.60	409.59
453.78	411.93
453.97	353.42
454.15	393.21
454.34	442.36
454.52	395.55
454.70	416.62
454.89	390.87
455.07	346.40
455.26	397.89
455.44	416.62
455.62	386.19
455.81	353.42
455.99	458.74
456.17	475.13
456.36	386.19
456.54	409.59
456.73	437.68
456.91	383.85
457.09	409.59
457.28	404.91
457.46	416.62
457.64	433.00
457.83	390.87
458.01	376.83
458.19	369.80
458.38	402.57
458.56	482.15
458.74	379.17
458.93	369.80
459.11	390.87
459.29	358.10
459.48	482.15
459.66	449.38
459.84	400.23
460.03	435.34
460.21	430.66
460.39	454.06
460.57	489.17
460.76	468.11
460.94	442.36
461.12	409.59
461.31	447.04
461.49	393.21
461.67	381.51
461.85	421.30
462.04	379.17
462.22	828.55
462.40	390.87
462.59	456.40
462.77	411.93
462.95	458.74
463.13	425.98
463.32	337.04
463.50	421.30
463.68	421.30
463.86	367.46
464.05	351.08
464.23	449.38
464.41	411.93
464.59	372.15
464.78	423.64
464.96	365.12
465.14	425.98
465.32	386.19
465.50	423.64
465.69	468.11
465.87	372.15
466.05	421.30
466.23	425.98
466.41	348.74
466.60	407.25
466.78	386.19
466.96	418.96
467.14	407.25
467.32	421.30
467.51	416.62
467.69	423.64
467.87	409.59
468.05	369.80
468.23	444.70
468.41	404.91
468.60	379.17
468.78	454.06
468.96	486.83
469.14	505.56
469.32	402.57
469.50	447.04
469.69	369.80
469.87	458.74
470.05	451.72
470.23	449.38
470.41	449.38
470.59	407.25
470.77	379.17
470.95	458.74
471.14	425.98
471.32	493.85
471.50	388.53
471.68	360.44
471.86	461.09
472.04	440.02
472.22	470.45
472.40	430.66
472.58	372.15
472.77	376.83
472.95	383.85
473.13	500.87
473.31	479.81
473.49	400.23
473.67	390.87
473.85	362.78
474.03	449.38
474.21	430.66
474.39	472.79
474.57	465.77
474.75	308.95
474.93	355.76
475.12	465.77
475.30	313.63
475.48	390.87
475.66	379.17
475.84	458.74
476.02	383.85
476.20	393.21
476.38	407.25
476.56	416.62
476.74	423.64
476.92	308.95
477.10	475.13
477.28	442.36
477.46	383.85
477.64	451.72
477.82	404.91
478.00	395.55
478.18	409.59
478.36	407.25
478.54	379.17
478.72	325.33
478.90	395.55
479.08	486.83
479.26	360.44
479.44	461.09
479.62	425.98
479.80	418.96
479.98	397.89
480.16	407.25
480.34	393.21
480.52	372.15
480.70	482.15
480.88	433.00
481.06	433.00
481.24	379.17
481.41	402.57
481.59	458.74
481.77	447.04
481.95	425.98
482.13	418.96
482.31	421.30
482.49	428.32
482.67	390.87
482.85	447.04
483.03	414.27
483.21	423.64
483.39	327.68
483.57	404.91
483.74	390.87
483.92	437.68
484.10	435.34
484.28	489.17
484.46	465.77
484.64	416.62
484.82	496.19
485.00	435.34
485.18	444.70
485.35	468.11
485.53	395.55
485.71	503.22
485.89	449.38
486.07	355.76
486.25	454.06
486.43	421.30
486.61	402.57
486.78	404.91
486.96	369.80
487.14	393.21
487.32	447.04
487.50	486.83
487.68	461.09
487.85	430.66
488.03	414.27
488.21	362.78
488.39	400.23
488.57	451.72
488.75	521.94
488.92	493.85
489.10	411.93
489.28	425.98
489.46	458.74
489.64	447.04
489.81	376.83
489.99	416.62
490.17	463.43
490.35	428.32
490.53	428.32
490.70	407.25
490.88	355.76
491.06	369.80
491.24	404.91
491.41	493.85
491.59	477.47
491.77	374.49
491.95	404.91
492.13	332.36
492.30	425.98
492.48	355.76
492.66	440.02
492.84	339.38
493.01	461.09
493.19	407.25
493.37	475.13
493.54	479.81
493.72	404.91
493.90	348.74
494.08	395.55
494.25	435.34
494.43	400.23
494.61	397.89
494.79	395.55
494.96	421.30
495.14	444.70
495.32	477.47
495.49	404.91
495.67	428.32
495.85	428.32
496.02	393.21
496.20	472.79
496.38	433.00
496.55	470.45
496.73	400.23
496.91	379.17
497.09	344.06
497.26	411.93
497.44	402.57
497.62	430.66
497.79	435.34
497.97	440.02
498.14	407.25
498.32	344.06
498.50	437.68
498.67	416.62
498.85	379.17
499.03	430.66
499.20	376.83
499.38	454.06
499.56	414.27
499.73	468.11
499.91	486.83
500.08	411.93
500.26	390.87
500.44	404.91
500.61	400.23
500.79	442.36
500.97	454.06
501.14	411.93
501.32	395.55
501.49	477.47
501.67	444.70
501.84	465.77
502.02	367.46
502.20	458.74
502.37	402.57
502.55	407.25
502.72	383.85
502.90	444.70
503.07	421.30
503.25	381.51
503.43	388.53
503.60	430.66
503.78	421.30
503.95	461.09
504.13	416.62
504.30	388.53
504.48	425.98
504.65	393.21
504.83	449.38
505.01	440.02
505.18	449.38
505.36	376.83
505.53	381.51
505.71	388.53
505.88	379.17
506.06	379.17
506.23	388.53
506.41	395.55
506.58	379.17
506.76	409.59
506.93	444.70
507.11	468.11
507.28	404.91
507.46	395.55
507.63	442.36
507.81	404.91
507.98	430.66
508.16	397.89
508.33	395.55
508.50	411.93
508.68	376.83
508.85	435.34
509.03	416.62
509.20	388.53
509.38	449.38
509.55	393.21
509.73	425.98
509.90	428.32
510.08	383.85
510.25	458.74
510.42	507.90
510.60	449.38
510.77	442.36
510.95	400.23
511.12	360.44
511.30	458.74
511.47	393.21
511.64	444.70
511.82	440.02
511.99	395.55
512.17	430.66
512.34	421.30
512.51	456.40
512.69	407.25
512.86	416.62
513.04	390.87
513.21	489.17
513.38	388.53
513.56	390.87
513.73	388.53
513.90	461.09
514.08	400.23
514.25	433.00
514.43	395.55
514.60	393.21
514.77	337.04
514.95	428.32
515.12	395.55
515.29	404.91
515.47	442.36
515.64	514.92
515.81	376.83
515.99	421.30
516.16	397.89
516.33	547.69
516.51	451.72
516.68	404.91
516.85	365.12
517.03	395.55
517.20	430.66
517.37	421.30
517.54	409.59
517.72	372.15
517.89	416.62
518.06	470.45
518.24	444.70
518.41	479.81
518.58	423.64
518.75	376.83
518.93	437.68
519.10	418.96
519.27	454.06
519.45	447.04
519.62	383.85
519.79	407.25
519.96	409.59
520.14	477.47
520.31	461.09
520.48	416.62
520.65	332.36
520.83	442.36
521.00	458.74
521.17	386.19
521.34	376.83
521.52	400.23
521.69	402.57
521.86	430.66
522.03	433.00
522.20	468.11
522.38	393.21
522.55	409.59
522.72	402.57
522.89	482.15
523.07	468.11
523.24	397.89
523.41	418.96
523.58	444.70
523.75	381.51
523.92	463.43
524.10	353.42
524.27	430.66
524.44	463.43
524.61	489.17
524.78	416.62
524.96	482.15
525.13	442.36
525.30	468.11
525.47	402.57
525.64	421.30
525.81	407.25
525.98	407.25
526.16	402.57
526.33	407.25
526.50	423.64
526.67	477.47
526.84	416.62
527.01	346.40
527.18	397.89
527.36	440.02
527.53	416.62
527.70	489.17
527.87	369.80
528.04	414.27
528.21	430.66
528.38	402.57
528.55	437.68
528.72	451.72
528.89	418.96
529.07	365.12
529.24	484.49
529.41	397.89
529.58	454.06
529.75	409.59
529.92	414.27
530.09	402.57
530.26	416.62
530.43	440.02
530.60	425.98
530.77	437.68
530.94	402.57
531.11	454.06
531.28	365.12
531.46	337.04
531.63	414.27
531.80	425.98
531.97	411.93
532.14	411.93
532.31	475.13
532.48	470.45
532.65	461.09
532.82	423.64
532.99	348.74
533.16	383.85
533.33	454.06
533.50	351.08
533.67	505.56
533.84	390.87
534.01	491.51
534.18	447.04
534.35	358.10
534.52	402.57
534.69	367.46
534.86	372.15
535.03	421.30
535.20	418.96
535.37	425.98
535.54	428.32
535.71	416.62
535.88	379.17
536.05	344.06
536.22	381.51
536.38	404.91
536.55	381.51
536.72	395.55
536.89	400.23
537.06	444.70
537.23	421.30
537.40	339.38
537.57	388.53
537.74	468.11
537.91	367.46
538.08	444.70
538.25	330.02
538.42	379.17
538.59	428.32
538.75	493.85
538.92	386.19
539.09	447.04
539.26	400.23
539.43	437.68
539.60	479.81
539.77	465.77
539.94	409.59
540.11	430.66
540.28	428.32
540.44	477.47
540.61	428.32
540.78	409.59
540.95	383.85
541.12	465.77
541.29	425.98
541.46	433.00
541.62	362.78
541.79	407.25
541.96	437.68
542.13	418.96
542.30	369.80
542.47	386.19
542.63	489.17
542.80	440.02
542.97	430.66
543.14	418.96
543.31	379.17
543.48	386.19
543.64	463.43
543.81	395.55
543.98	395.55
544.15	418.96
544.32	318.31
544.48	435.34
544.65	337.04
544.82	381.51
544.99	414.27
545.16	440.02
545.32	465.77
545.49	386.19
545.66	472.79
545.83	409.59
546.00	404.91
546.16	400.23
546.33	477.47
546.50	479.81
546.67	491.51
546.83	416.62
547.00	393.21
547.17	383.85
547.34	376.83
547.50	470.45
547.67	383.85
547.84	433.00
548.00	435.34
548.17	447.04
548.34	400.23
548.51	367.46
548.67	369.80
548.84	320.65
549.01	397.89
549.18	463.43
549.34	430.66
549.51	376.83
549.68	465.77
549.84	444.70
550.01	404.91
550.18	489.17
550.34	489.17
550.51	428.32
550.68	402.57
550.84	433.00
551.01	433.00
551.18	400.23
551.34	442.36
551.51	444.70
551.68	447.04
551.84	411.93
552.01	397.89
552.18	418.96
552.34	374.49
552.51	414.27
552.68	442.36
552.84	395.55
553.01	433.00
553.18	411.93
553.34	393.21
553.51	397.89
553.67	433.00
553.84	470.45
554.01	433.00
554.17	353.42
554.34	472.79
554.51	355.76
554.67	472.79
554.84	400.23
555.00	433.00
555.17	393.21
555.33	418.96
555.50	418.96
555.67	402.57
555.83	362.78
556.00	447.04
556.16	519.60
556.33	433.00
556.50	447.04
556.66	381.51
556.83	388.53
556.99	411.93
557.16	402.57
557.32	435.34
557.49	390.87
557.65	442.36
557.82	374.49
557.98	482.15
558.15	362.78
558.32	365.12
558.48	411.93
558.65	383.85
558.81	400.23
558.98	383.85
559.14	440.02
559.31	395.55
559.47	430.66
559.64	411.93
559.80	355.76
559.97	400.23
560.13	355.76
560.30	402.57
560.46	423.64
560.63	407.25
560.79	397.89
560.96	428.32
561.12	397.89
561.29	379.17
561.45	482.15
561.61	454.06
561.78	449.38
561.94	386.19
562.11	409.59
562.27	365.12
562.44	444.70
562.60	409.59
562.77	437.68
562.93	484.49
563.10	461.09
563.26	414.27
563.42	477.47
563.59	451.72
563.75	374.49
563.92	461.09
564.08	461.09
564.24	414.27
564.41	442.36
564.57	388.53
564.74	421.30
564.90	428.32
565.07	461.09
565.23	449.38
565.39	390.87
565.56	479.81
565.72	449.38
565.88	402.57
566.05	411.93
566.21	475.13
566.38	447.04
566.54	425.98
566.70	404.91
566.87	395.55
567.03	393.21
567.19	477.47
567.36	400.23
567.52	433.00
567.68	428.32
567.85	400.23
568.01	411.93
568.17	365.12
568.34	435.34
568.50	383.85
568.66	402.57
568.83	582.79
568.99	355.76
569.15	449.38
569.32	397.89
569.48	409.59
569.64	390.87
569.81	416.62
569.97	437.68
570.13	444.70
570.30	374.49
570.46	339.38
570.62	421.30
570.78	468.11
570.95	456.40
571.11	428.32
571.27	425.98
571.43	440.02
571.60	355.76
571.76	430.66
571.92	421.30
572.09	447.04
572.25	414.27
572.41	395.55
572.57	458.74
572.74	461.09
572.90	402.57
573.06	362.78
573.22	388.53
573.38	409.59
573.55	369.80
573.71	395.55
573.87	456.40
574.03	428.32
574.20	362.78
574.36	393.21
574.52	433.00
574.68	365.12
574.84	486.83
575.01	411.93
575.17	428.32
575.33	386.19
575.49	433.00
575.65	461.09
575.82	409.59
575.98	479.81
576.14	423.64
576.30	376.83
576.46	444.70
576.62	418.96
576.79	456.40
576.95	397.89
577.11	416.62
577.27	390.87
577.43	393.21
577.59	418.96
577.75	397.89
577.92	411.93
578.08	386.19
578.24	414.27
578.40	440.02
578.56	472.79
578.72	395.55
578.88	477.47
579.04	402.57
579.21	433.00
579.37	388.53
579.53	348.74
579.69	451.72
579.85	346.40
580.01	433.00
580.17	346.40
580.33	468.11
580.49	465.77
580.65	456.40
580.82	421.30
580.98	458.74
581.14	393.21
581.30	521.94
581.46	409.59
581.62	346.40
581.78	341.72
581.94	374.49
582.10	365.12
582.26	320.65
582.42	440.02
582.58	458.74
582.74	472.79
582.90	397.89
583.06	444.70
583.22	404.91
583.38	411.93
583.54	458.74
583.70	458.74
583.86	433.00
584.02	379.17
584.18	465.77
584.34	402.57
584.50	449.38
584.66	456.40
584.82	379.17
584.98	435.34
585.14	454.06
585.30	449.38
585.46	425.98
585.62	442.36
585.78	360.44
585.94	365.12
586.10	421.30
586.26	458.74
586.42	428.32
586.58	442.36
586.74	393.21
586.90	423.64
587.06	386.19
587.22	407.25
587.38	418.96
587.54	404.91
587.70	472.79
587.86	475.13
588.02	430.66
588.18	365.12
588.34	451.72
588.49	386.19
588.65	404.91
588.81	327.68
588.97	346.40
589.13	367.46
589.29	374.49
589.45	470.45
589.61	421.30
589.77	444.70
589.93	521.94
590.08	407.25
590.24	381.51
590.40	390.87
590.56	440.02
590.72	386.19
590.88	421.30
591.04	472.79
591.20	437.68
591.35	433.00
591.51	421.30
591.67	447.04
591.83	489.17
591.99	425.98
592.15	435.34
592.31	362.78
592.46	437.68
592.62	437.68
592.78	437.68
592.94	444.70
593.10	435.34
593.26	423.64
593.41	409.59
593.57	468.11
593.73	358.10
593.89	456.40
594.05	402.57
594.20	400.23
594.36	498.53
594.52	367.46
594.68	369.80
594.84	416.62
594.99	437.68
595.15	444.70
595.31	465.77
595.47	437.68
595.62	409.59
595.78	414.27
595.94	463.43
596.10	421.30
596.25	362.78
596.41	407.25
596.57	414.27
596.73	404.91
596.88	390.87
597.04	341.72
597.20	393.21
597.36	442.36
597.51	393.21
597.67	418.96
597.83	367.46
597.99	437.68
598.14	348.74
598.30	414.27
598.46	383.85
598.61	458.74
598.77	433.00
598.93	362.78
599.09	397.89
599.24	383.85
599.40	486.83
599.56	437.68
599.71	428.32
599.87	402.57
600.03	416.62
600.18	388.53
600.34	447.04
600.50	393.21
600.65	440.02
600.81	440.02
600.97	430.66
601.12	414.27
601.28	379.17
601.44	461.09
601.59	421.30
601.75	435.34
601.91	418.96
602.06	404.91
602.22	433.00
602.37	440.02
602.53	397.89
602.69	400.23
602.84	468.11
603.00	404.91
603.16	454.06
603.31	425.98
603.47	390.87
603.62	447.04
603.78	393.21
603.94	447.04
604.09	379.17
604.25	475.13
604.40	404.91
604.56	393.21
604.71	433.00
604.87	430.66
605.03	416.62
605.18	425.98
605.34	416.62
605.49	379.17
605.65	425.98
605.80	409.59
605.96	472.79
606.12	418.96
606.27	409.59
606.43	355.76
606.58	442.36
606.74	381.51
606.89	451.72
607.05	381.51
607.20	425.98
607.36	404.91
607.51	407.25
607.67	496.19
607.82	418.96
607.98	454.06
608.13	430.66
608.29	376.83
608.44	461.09
608.60	409.59
608.75	365.12
608.91	479.81
609.06	421.30
609.22	395.55
609.37	390.87
609.53	404.91
609.68	430.66
609.84	444.70
609.99	367.46
610.15	423.64
