SpectraSuite Data File
++++++++++++++++++++++++++++++++++++
Date: Fri Oct 25 12:10:24 EDT 2013
User: price-jones
Dark Spectrum Present: No
Reference Spectrum Present: No
Number of Sampled Component Spectra: 1
Spectrometers: USB2+H05261
Integration Time (usec): 100000 (USB2+H05261)
Spectra Averaged: 1 (USB2+H05261)
Boxcar Smoothing: 0 (USB2+H05261)
Correct for Electrical Dark: No (USB2+H05261)
Strobe/Lamp Enabled: No (USB2+H05261)
Correct for Detector Non-linearity: No (USB2+H05261)
Correct for Stray Light: No (USB2+H05261)
Number of Pixels in Processed Spectrum: 2048
>>>>>Begin Processed Spectral Data<<<<<
365.73	259.80
365.92	259.80
366.12	259.80
366.32	227.03
366.52	241.08
366.72	236.39
366.91	222.35
367.11	252.78
367.31	278.52
367.51	306.61
367.70	215.33
367.90	189.58
368.10	205.97
368.30	262.14
368.49	269.16
368.69	248.10
368.89	241.08
369.09	234.05
369.28	264.48
369.48	227.03
369.68	262.14
369.87	311.29
370.07	353.42
370.27	241.08
370.47	313.63
370.66	294.91
370.86	344.06
371.06	386.19
371.25	395.55
371.45	332.36
371.65	355.76
371.84	362.78
372.04	348.74
372.24	404.91
372.44	393.21
372.63	337.04
372.83	337.04
373.03	372.15
373.22	395.55
373.42	374.49
373.62	365.12
373.81	414.27
374.01	430.66
374.21	404.91
374.40	407.25
374.60	447.04
374.79	454.06
374.99	400.23
375.19	437.68
375.38	383.85
375.58	404.91
375.78	470.45
375.97	458.74
376.17	472.79
376.37	458.74
376.56	437.68
376.76	386.19
376.95	397.89
377.15	344.06
377.35	465.77
377.54	449.38
377.74	454.06
377.93	390.87
378.13	418.96
378.33	411.93
378.52	425.98
378.72	400.23
378.91	447.04
379.11	395.55
379.31	381.51
379.50	416.62
379.70	358.10
379.89	409.59
380.09	444.70
380.28	428.32
380.48	376.83
380.68	409.59
380.87	414.27
381.07	376.83
381.26	395.55
381.46	367.46
381.65	346.40
381.85	365.12
382.04	351.08
382.24	444.70
382.43	320.65
382.63	372.15
382.83	383.85
383.02	358.10
383.22	437.68
383.41	397.89
383.61	470.45
383.80	411.93
384.00	390.87
384.19	418.96
384.39	416.62
384.58	407.25
384.78	421.30
384.97	458.74
385.17	402.57
385.36	421.30
385.56	358.10
385.75	313.63
385.95	423.64
386.14	458.74
386.34	423.64
386.53	421.30
386.72	402.57
386.92	372.15
387.11	362.78
387.31	369.80
387.50	442.36
387.70	411.93
387.89	435.34
388.09	318.31
388.28	372.15
388.48	320.65
388.67	367.46
388.86	477.47
389.06	383.85
389.25	362.78
389.45	379.17
389.64	400.23
389.84	322.99
390.03	402.57
390.22	402.57
390.42	414.27
390.61	435.34
390.81	393.21
391.00	451.72
391.19	353.42
391.39	428.32
391.58	428.32
391.78	393.21
391.97	428.32
392.16	362.78
392.36	465.77
392.55	461.09
392.75	365.12
392.94	404.91
393.13	430.66
393.33	402.57
393.52	411.93
393.71	440.02
393.91	437.68
394.10	278.52
394.29	418.96
394.49	348.74
394.68	390.87
394.88	409.59
395.07	374.49
395.26	344.06
395.46	372.15
395.65	360.44
395.84	376.83
396.04	468.11
396.23	498.53
396.42	428.32
396.62	451.72
396.81	395.55
397.00	440.02
397.19	400.23
397.39	355.76
397.58	376.83
397.77	425.98
397.97	402.57
398.16	425.98
398.35	456.40
398.55	367.46
398.74	362.78
398.93	468.11
399.12	339.38
399.32	393.21
399.51	433.00
399.70	404.91
399.90	383.85
400.09	442.36
400.28	435.34
400.47	320.65
400.67	447.04
400.86	442.36
401.05	353.42
401.24	496.19
401.44	386.19
401.63	423.64
401.82	386.19
402.01	442.36
402.21	395.55
402.40	414.27
402.59	358.10
402.78	393.21
402.97	421.30
403.17	449.38
403.36	409.59
403.55	421.30
403.74	369.80
403.93	388.53
404.13	383.85
404.32	437.68
404.51	433.00
404.70	381.51
404.89	421.30
405.09	428.32
405.28	454.06
405.47	409.59
405.66	428.32
405.85	528.96
406.05	369.80
406.24	390.87
406.43	379.17
406.62	423.64
406.81	395.55
407.00	444.70
407.20	437.68
407.39	362.78
407.58	461.09
407.77	388.53
407.96	409.59
408.15	346.40
408.34	388.53
408.54	414.27
408.73	409.59
408.92	447.04
409.11	390.87
409.30	437.68
409.49	472.79
409.68	395.55
409.87	418.96
410.07	411.93
410.26	425.98
410.45	348.74
410.64	395.55
410.83	409.59
411.02	376.83
411.21	423.64
411.40	409.59
411.59	416.62
411.78	393.21
411.98	425.98
412.17	372.15
412.36	390.87
412.55	421.30
412.74	402.57
412.93	461.09
413.12	440.02
413.31	440.02
413.50	411.93
413.69	449.38
413.88	444.70
414.07	468.11
414.26	458.74
414.45	386.19
414.64	355.76
414.83	337.04
415.02	390.87
415.22	372.15
415.41	402.57
415.60	400.23
415.79	348.74
415.98	451.72
416.17	397.89
416.36	465.77
416.55	433.00
416.74	407.25
416.93	425.98
417.12	369.80
417.31	374.49
417.50	393.21
417.69	451.72
417.88	397.89
418.07	355.76
418.26	418.96
418.45	388.53
418.64	444.70
418.83	374.49
419.02	372.15
419.21	496.19
419.39	374.49
419.58	440.02
419.77	402.57
419.96	465.77
420.15	421.30
420.34	411.93
420.53	393.21
420.72	468.11
420.91	423.64
421.10	322.99
421.29	423.64
421.48	407.25
421.67	442.36
421.86	428.32
422.05	362.78
422.24	442.36
422.43	390.87
422.61	383.85
422.80	477.47
422.99	430.66
423.18	374.49
423.37	407.25
423.56	510.24
423.75	416.62
423.94	313.63
424.13	421.30
424.32	428.32
424.50	372.15
424.69	470.45
424.88	435.34
425.07	411.93
425.26	430.66
425.45	416.62
425.64	339.38
425.83	470.45
426.01	414.27
426.20	374.49
426.39	362.78
426.58	437.68
426.77	341.72
426.96	390.87
427.15	416.62
427.33	407.25
427.52	369.80
427.71	475.13
427.90	423.64
428.09	351.08
428.28	379.17
428.46	400.23
428.65	491.51
428.84	411.93
429.03	386.19
429.22	449.38
429.40	365.12
429.59	395.55
429.78	374.49
429.97	411.93
430.16	400.23
430.34	414.27
430.53	358.10
430.72	411.93
430.91	465.77
431.10	330.02
431.28	411.93
431.47	442.36
431.66	404.91
431.85	341.72
432.03	428.32
432.22	526.62
432.41	437.68
432.60	458.74
432.79	372.15
432.97	400.23
433.16	395.55
433.35	414.27
433.54	346.40
433.72	491.51
433.91	423.64
434.10	332.36
434.28	393.21
434.47	442.36
434.66	421.30
434.85	308.95
435.03	404.91
435.22	376.83
435.41	365.12
435.59	454.06
435.78	442.36
435.97	376.83
436.16	454.06
436.34	486.83
436.53	386.19
436.72	428.32
436.90	416.62
437.09	435.34
437.28	435.34
437.46	376.83
437.65	411.93
437.84	428.32
438.02	437.68
438.21	440.02
438.40	358.10
438.58	421.30
438.77	414.27
438.96	404.91
439.14	395.55
439.33	365.12
439.52	482.15
439.70	348.74
439.89	393.21
440.08	372.15
440.26	376.83
440.45	379.17
440.63	444.70
440.82	447.04
441.01	433.00
441.19	383.85
441.38	407.25
441.57	437.68
441.75	421.30
441.94	386.19
442.12	411.93
442.31	449.38
442.50	322.99
442.68	360.44
442.87	355.76
443.05	433.00
443.24	402.57
443.43	472.79
443.61	409.59
443.80	414.27
443.98	416.62
444.17	374.49
444.35	397.89
444.54	461.09
444.73	388.53
444.91	372.15
445.10	404.91
445.28	372.15
445.47	358.10
445.65	430.66
445.84	365.12
446.02	400.23
446.21	411.93
446.39	372.15
446.58	416.62
446.77	435.34
446.95	435.34
447.14	414.27
447.32	386.19
447.51	425.98
447.69	437.68
447.88	458.74
448.06	421.30
448.25	451.72
448.43	400.23
448.62	360.44
448.80	358.10
448.99	393.21
449.17	456.40
449.36	404.91
449.54	386.19
449.73	407.25
449.91	407.25
450.10	498.53
450.28	397.89
450.46	430.66
450.65	407.25
450.83	442.36
451.02	388.53
451.20	430.66
451.39	407.25
451.57	397.89
451.76	430.66
451.94	465.77
452.13	440.02
452.31	416.62
452.49	442.36
452.68	369.80
452.86	362.78
453.05	468.11
453.23	442.36
453.42	442.36
453.60	423.64
453.78	428.32
453.97	390.87
454.15	353.42
454.34	421.30
454.52	411.93
454.70	442.36
454.89	442.36
455.07	409.59
455.26	376.83
455.44	362.78
455.62	421.30
455.81	418.96
455.99	465.77
456.17	407.25
456.36	388.53
456.54	416.62
456.73	400.23
456.91	442.36
457.09	414.27
457.28	372.15
457.46	379.17
457.64	442.36
457.83	430.66
458.01	428.32
458.19	444.70
458.38	404.91
458.56	388.53
458.74	423.64
458.93	411.93
459.11	402.57
459.29	397.89
459.48	386.19
459.66	397.89
459.84	416.62
460.03	414.27
460.21	435.34
460.39	451.72
460.57	423.64
460.76	411.93
460.94	369.80
461.12	442.36
461.31	430.66
461.49	400.23
461.67	402.57
461.85	440.02
462.04	367.46
462.22	620.24
462.40	418.96
462.59	507.90
462.77	404.91
462.95	463.43
463.13	344.06
463.32	381.51
463.50	388.53
463.68	390.87
463.86	456.40
464.05	435.34
464.23	379.17
464.41	435.34
464.59	388.53
464.78	397.89
464.96	404.91
465.14	393.21
465.32	383.85
465.50	428.32
465.69	433.00
465.87	376.83
466.05	440.02
466.23	397.89
466.41	320.65
466.60	423.64
466.78	435.34
466.96	454.06
467.14	395.55
467.32	428.32
467.51	407.25
467.69	416.62
467.87	407.25
468.05	390.87
468.23	444.70
468.41	402.57
468.60	383.85
468.78	367.46
468.96	383.85
469.14	404.91
469.32	402.57
469.50	386.19
469.69	421.30
469.87	383.85
470.05	407.25
470.23	447.04
470.41	411.93
470.59	369.80
470.77	435.34
470.95	395.55
471.14	379.17
471.32	404.91
471.50	461.09
471.68	411.93
471.86	400.23
472.04	440.02
472.22	397.89
472.40	433.00
472.58	402.57
472.77	428.32
472.95	442.36
473.13	491.51
473.31	404.91
473.49	322.99
473.67	416.62
473.85	409.59
474.03	425.98
474.21	470.45
474.39	449.38
474.57	461.09
474.75	360.44
474.93	346.40
475.12	311.29
475.30	409.59
475.48	433.00
475.66	379.17
475.84	404.91
476.02	505.56
476.20	400.23
476.38	407.25
476.56	418.96
476.74	409.59
476.92	421.30
477.10	395.55
477.28	397.89
477.46	423.64
477.64	454.06
477.82	442.36
478.00	468.11
478.18	468.11
478.36	362.78
478.54	369.80
478.72	386.19
478.90	477.47
479.08	423.64
479.26	330.02
479.44	418.96
479.62	409.59
479.80	402.57
479.98	409.59
480.16	381.51
480.34	461.09
480.52	430.66
480.70	440.02
480.88	428.32
481.06	477.47
481.24	423.64
481.41	461.09
481.59	507.90
481.77	435.34
481.95	461.09
482.13	383.85
482.31	381.51
482.49	458.74
482.67	407.25
482.85	407.25
483.03	482.15
483.21	486.83
483.39	365.12
483.57	416.62
483.74	468.11
483.92	447.04
484.10	390.87
484.28	414.27
484.46	451.72
484.64	365.12
484.82	423.64
485.00	444.70
485.18	442.36
485.35	435.34
485.53	451.72
485.71	395.55
485.89	423.64
486.07	374.49
486.25	451.72
486.43	444.70
486.61	482.15
486.78	440.02
486.96	411.93
487.14	404.91
487.32	369.80
487.50	454.06
487.68	423.64
487.85	418.96
488.03	404.91
488.21	470.45
488.39	379.17
488.57	440.02
488.75	416.62
488.92	470.45
489.10	414.27
489.28	461.09
489.46	397.89
489.64	390.87
489.81	458.74
489.99	411.93
490.17	454.06
490.35	400.23
490.53	430.66
490.70	451.72
490.88	393.21
491.06	386.19
491.24	360.44
491.41	386.19
491.59	442.36
491.77	449.38
491.95	423.64
492.13	416.62
492.30	465.77
492.48	425.98
492.66	444.70
492.84	404.91
493.01	414.27
493.19	383.85
493.37	444.70
493.54	486.83
493.72	414.27
493.90	362.78
494.08	386.19
494.25	285.55
494.43	383.85
494.61	444.70
494.79	358.10
494.96	374.49
495.14	444.70
495.32	404.91
495.49	430.66
495.67	411.93
495.85	418.96
496.02	407.25
496.20	390.87
496.38	348.74
496.55	447.04
496.73	372.15
496.91	411.93
497.09	381.51
497.26	395.55
497.44	440.02
497.62	444.70
497.79	404.91
497.97	444.70
498.14	444.70
498.32	367.46
498.50	409.59
498.67	421.30
498.85	411.93
499.03	383.85
499.20	444.70
499.38	447.04
499.56	400.23
499.73	404.91
499.91	383.85
500.08	407.25
500.26	418.96
500.44	444.70
500.61	390.87
500.79	425.98
500.97	449.38
501.14	411.93
501.32	388.53
501.49	458.74
501.67	428.32
501.84	400.23
502.02	362.78
502.20	454.06
502.37	397.89
502.55	435.34
502.72	358.10
502.90	421.30
503.07	360.44
503.25	463.43
503.43	374.49
503.60	461.09
503.78	407.25
503.95	414.27
504.13	428.32
504.30	456.40
504.48	416.62
504.65	379.17
504.83	500.87
505.01	400.23
505.18	477.47
505.36	428.32
505.53	425.98
505.71	409.59
505.88	477.47
506.06	418.96
506.23	334.70
506.41	400.23
506.58	435.34
506.76	430.66
506.93	395.55
507.11	456.40
507.28	376.83
507.46	402.57
507.63	486.83
507.81	435.34
507.98	409.59
508.16	355.76
508.33	372.15
508.50	325.33
508.68	447.04
508.85	301.93
509.03	400.23
509.20	421.30
509.38	456.40
509.55	404.91
509.73	433.00
509.90	456.40
510.08	428.32
510.25	379.17
510.42	337.04
510.60	475.13
510.77	500.87
510.95	437.68
511.12	367.46
511.30	416.62
511.47	425.98
511.64	407.25
511.82	395.55
511.99	400.23
512.17	423.64
512.34	379.17
512.51	353.42
512.69	355.76
512.86	414.27
513.04	428.32
513.21	461.09
513.38	465.77
513.56	440.02
513.73	411.93
513.90	395.55
514.08	409.59
514.25	362.78
514.43	390.87
514.60	423.64
514.77	423.64
514.95	285.55
515.12	397.89
515.29	524.28
515.47	376.83
515.64	421.30
515.81	374.49
515.99	362.78
516.16	393.21
516.33	437.68
516.51	400.23
516.68	442.36
516.85	395.55
517.03	376.83
517.20	400.23
517.37	407.25
517.54	388.53
517.72	454.06
517.89	358.10
518.06	372.15
518.24	423.64
518.41	475.13
518.58	386.19
518.75	404.91
518.93	418.96
519.10	383.85
519.27	404.91
519.45	428.32
519.62	393.21
519.79	421.30
519.96	447.04
520.14	390.87
520.31	404.91
520.48	325.33
520.65	407.25
520.83	456.40
521.00	428.32
521.17	449.38
521.34	435.34
521.52	341.72
521.69	381.51
521.86	407.25
522.03	437.68
522.20	430.66
522.38	437.68
522.55	423.64
522.72	442.36
522.89	402.57
523.07	524.28
523.24	367.46
523.41	402.57
523.58	416.62
523.75	428.32
523.92	463.43
524.10	407.25
524.27	407.25
524.44	411.93
524.61	479.81
524.78	437.68
524.96	400.23
525.13	442.36
525.30	475.13
525.47	388.53
525.64	416.62
525.81	374.49
525.98	458.74
526.16	477.47
526.33	482.15
526.50	423.64
526.67	437.68
526.84	358.10
527.01	390.87
527.18	454.06
527.36	416.62
527.53	402.57
527.70	418.96
527.87	433.00
528.04	414.27
528.21	451.72
528.38	472.79
528.55	449.38
528.72	365.12
528.89	505.56
529.07	365.12
529.24	360.44
529.41	425.98
529.58	433.00
529.75	423.64
529.92	379.17
530.09	433.00
530.26	451.72
530.43	430.66
530.60	351.08
530.77	461.09
530.94	437.68
531.11	386.19
531.28	365.12
531.46	442.36
531.63	416.62
531.80	440.02
531.97	411.93
532.14	442.36
532.31	428.32
532.48	470.45
532.65	418.96
532.82	447.04
532.99	397.89
533.16	369.80
533.33	381.51
533.50	365.12
533.67	353.42
533.84	451.72
534.01	430.66
534.18	468.11
534.35	402.57
534.52	440.02
534.69	477.47
534.86	362.78
535.03	376.83
535.20	362.78
535.37	470.45
535.54	388.53
535.71	416.62
535.88	390.87
536.05	404.91
536.22	458.74
536.38	355.76
536.55	435.34
536.72	442.36
536.89	456.40
537.06	402.57
537.23	386.19
537.40	418.96
537.57	444.70
537.74	440.02
537.91	376.83
538.08	330.02
538.25	402.57
538.42	402.57
538.59	433.00
538.75	393.21
538.92	365.12
539.09	454.06
539.26	414.27
539.43	425.98
539.60	430.66
539.77	428.32
539.94	409.59
540.11	393.21
540.28	395.55
540.44	456.40
540.61	454.06
540.78	386.19
540.95	374.49
541.12	402.57
541.29	440.02
541.46	479.81
541.62	423.64
541.79	482.15
541.96	374.49
542.13	468.11
542.30	435.34
542.47	411.93
542.63	423.64
542.80	411.93
542.97	442.36
543.14	447.04
543.31	465.77
543.48	348.74
543.64	435.34
543.81	423.64
543.98	416.62
544.15	358.10
544.32	428.32
544.48	393.21
544.65	386.19
544.82	433.00
544.99	425.98
545.16	409.59
545.32	416.62
545.49	437.68
545.66	383.85
545.83	402.57
546.00	367.46
546.16	353.42
546.33	421.30
546.50	444.70
546.67	409.59
546.83	454.06
547.00	395.55
547.17	440.02
547.34	383.85
547.50	435.34
547.67	407.25
547.84	447.04
548.00	425.98
548.17	435.34
548.34	416.62
548.51	348.74
548.67	358.10
548.84	388.53
549.01	409.59
549.18	416.62
549.34	383.85
549.51	416.62
549.68	435.34
549.84	400.23
550.01	461.09
550.18	428.32
550.34	477.47
550.51	451.72
550.68	505.56
550.84	449.38
551.01	454.06
551.18	416.62
551.34	393.21
551.51	393.21
551.68	437.68
551.84	407.25
552.01	500.87
552.18	402.57
552.34	475.13
552.51	386.19
552.68	402.57
552.84	376.83
553.01	442.36
553.18	451.72
553.34	461.09
553.51	425.98
553.67	423.64
553.84	442.36
554.01	390.87
554.17	447.04
554.34	456.40
554.51	444.70
554.67	440.02
554.84	423.64
555.00	376.83
555.17	397.89
555.33	430.66
555.50	383.85
555.67	444.70
555.83	451.72
556.00	425.98
556.16	512.58
556.33	470.45
556.50	435.34
556.66	393.21
556.83	353.42
556.99	430.66
557.16	458.74
557.32	397.89
557.49	404.91
557.65	407.25
557.82	444.70
557.98	442.36
558.15	425.98
558.32	388.53
558.48	444.70
558.65	437.68
558.81	510.24
558.98	372.15
559.14	397.89
559.31	402.57
559.47	458.74
559.64	344.06
559.80	416.62
559.97	339.38
560.13	400.23
560.30	376.83
560.46	393.21
560.63	414.27
560.79	435.34
560.96	435.34
561.12	428.32
561.29	451.72
561.45	454.06
561.61	407.25
561.78	475.13
561.94	477.47
562.11	407.25
562.27	383.85
562.44	425.98
562.60	454.06
562.77	344.06
562.93	491.51
563.10	393.21
563.26	409.59
563.42	397.89
563.59	407.25
563.75	400.23
563.92	479.81
564.08	421.30
564.24	395.55
564.41	428.32
564.57	425.98
564.74	404.91
564.90	397.89
565.07	477.47
565.23	416.62
565.39	407.25
565.56	468.11
565.72	440.02
565.88	440.02
566.05	404.91
566.21	383.85
566.38	468.11
566.54	477.47
566.70	402.57
566.87	423.64
567.03	433.00
567.19	402.57
567.36	355.76
567.52	479.81
567.68	442.36
567.85	430.66
568.01	451.72
568.17	388.53
568.34	409.59
568.50	400.23
568.66	442.36
568.83	517.26
568.99	451.72
569.15	416.62
569.32	440.02
569.48	416.62
569.64	381.51
569.81	442.36
569.97	437.68
570.13	491.51
570.30	409.59
570.46	472.79
570.62	390.87
570.78	393.21
570.95	388.53
571.11	489.17
571.27	465.77
571.43	346.40
571.60	416.62
571.76	409.59
571.92	489.17
572.09	397.89
572.25	435.34
572.41	407.25
572.57	423.64
572.74	479.81
572.90	440.02
573.06	423.64
573.22	339.38
573.38	458.74
573.55	444.70
573.71	407.25
573.87	381.51
574.03	442.36
574.20	435.34
574.36	423.64
574.52	433.00
574.68	414.27
574.84	463.43
575.01	433.00
575.17	407.25
575.33	395.55
575.49	393.21
575.65	456.40
575.82	472.79
575.98	421.30
576.14	475.13
576.30	498.53
576.46	395.55
576.62	376.83
576.79	418.96
576.95	440.02
577.11	435.34
577.27	369.80
577.43	395.55
577.59	437.68
577.75	386.19
577.92	400.23
578.08	355.76
578.24	369.80
578.40	458.74
578.56	435.34
578.72	425.98
578.88	418.96
579.04	470.45
579.21	397.89
579.37	493.85
579.53	353.42
579.69	393.21
579.85	397.89
580.01	430.66
580.17	423.64
580.33	423.64
580.49	339.38
580.65	423.64
580.82	423.64
580.98	386.19
581.14	416.62
581.30	477.47
581.46	299.59
581.62	388.53
581.78	444.70
581.94	440.02
582.10	327.68
582.26	411.93
582.42	383.85
582.58	393.21
582.74	372.15
582.90	437.68
583.06	414.27
583.22	454.06
583.38	376.83
583.54	390.87
583.70	425.98
583.86	393.21
584.02	390.87
584.18	407.25
584.34	346.40
584.50	400.23
584.66	407.25
584.82	491.51
584.98	360.44
585.14	362.78
585.30	418.96
585.46	379.17
585.62	388.53
585.78	400.23
585.94	472.79
586.10	458.74
586.26	383.85
586.42	416.62
586.58	437.68
586.74	430.66
586.90	437.68
587.06	472.79
587.22	348.74
587.38	456.40
587.54	468.11
587.70	376.83
587.86	447.04
588.02	344.06
588.18	411.93
588.34	376.83
588.49	440.02
588.65	463.43
588.81	383.85
588.97	458.74
589.13	386.19
589.29	376.83
589.45	440.02
589.61	372.15
589.77	411.93
589.93	463.43
590.08	404.91
590.24	397.89
590.40	409.59
590.56	475.13
590.72	472.79
590.88	374.49
591.04	409.59
591.20	444.70
591.35	517.26
591.51	451.72
591.67	447.04
591.83	386.19
591.99	425.98
592.15	486.83
592.31	425.98
592.46	379.17
592.62	425.98
592.78	425.98
592.94	416.62
593.10	379.17
593.26	416.62
593.41	390.87
593.57	407.25
593.73	458.74
593.89	402.57
594.05	388.53
594.20	383.85
594.36	430.66
594.52	395.55
594.68	407.25
594.84	421.30
594.99	407.25
595.15	428.32
595.31	418.96
595.47	430.66
595.62	423.64
595.78	435.34
595.94	397.89
596.10	456.40
596.25	421.30
596.41	402.57
596.57	400.23
596.73	402.57
596.88	383.85
597.04	374.49
597.20	454.06
597.36	393.21
597.51	362.78
597.67	449.38
597.83	402.57
597.99	404.91
598.14	400.23
598.30	374.49
598.46	388.53
598.61	409.59
598.77	393.21
598.93	369.80
599.09	369.80
599.24	423.64
599.40	454.06
599.56	365.12
599.71	390.87
599.87	397.89
600.03	437.68
600.18	411.93
600.34	456.40
600.50	418.96
600.65	376.83
600.81	437.68
600.97	428.32
601.12	444.70
601.28	351.08
601.44	458.74
601.59	463.43
601.75	402.57
601.91	421.30
602.06	372.15
602.22	477.47
602.37	374.49
602.53	362.78
602.69	425.98
602.84	381.51
603.00	437.68
603.16	418.96
603.31	437.68
603.47	379.17
603.62	440.02
603.78	433.00
603.94	365.12
604.09	423.64
604.25	442.36
604.40	407.25
604.56	383.85
604.71	407.25
604.87	435.34
605.03	430.66
605.18	468.11
605.34	461.09
605.49	395.55
605.65	435.34
605.80	376.83
605.96	393.21
606.12	362.78
606.27	475.13
606.43	440.02
606.58	435.34
606.74	402.57
606.89	458.74
607.05	414.27
607.20	414.27
607.36	454.06
607.51	444.70
607.67	388.53
607.82	381.51
607.98	400.23
608.13	407.25
608.29	454.06
608.44	397.89
608.60	353.42
608.75	395.55
608.91	470.45
609.06	416.62
609.22	425.98
609.37	440.02
609.53	393.21
609.68	463.43
609.84	379.17
609.99	376.83
610.15	468.11
