SpectraSuite Data File
++++++++++++++++++++++++++++++++++++
Date: Fri Oct 25 12:10:33 EDT 2013
User: price-jones
Dark Spectrum Present: No
Reference Spectrum Present: No
Number of Sampled Component Spectra: 1
Spectrometers: USB2+H05261
Integration Time (usec): 100000 (USB2+H05261)
Spectra Averaged: 1 (USB2+H05261)
Boxcar Smoothing: 0 (USB2+H05261)
Correct for Electrical Dark: No (USB2+H05261)
Strobe/Lamp Enabled: No (USB2+H05261)
Correct for Detector Non-linearity: No (USB2+H05261)
Correct for Stray Light: No (USB2+H05261)
Number of Pixels in Processed Spectrum: 2048
>>>>>Begin Processed Spectral Data<<<<<
365.73	362.78
365.92	362.78
366.12	362.78
366.32	245.76
366.52	238.73
366.72	299.59
366.91	187.24
367.11	257.46
367.31	191.92
367.51	210.65
367.70	238.73
367.90	238.73
368.10	220.01
368.30	191.92
368.49	149.79
368.69	290.23
368.89	243.42
369.09	311.29
369.28	292.57
369.48	285.55
369.68	248.10
369.87	264.48
370.07	376.83
370.27	365.12
370.47	311.29
370.66	315.97
370.86	355.76
371.06	433.00
371.25	418.96
371.45	383.85
371.65	334.70
371.84	407.25
372.04	374.49
372.24	407.25
372.44	379.17
372.63	369.80
372.83	369.80
373.03	407.25
373.22	430.66
373.42	416.62
373.62	407.25
373.81	402.57
374.01	500.87
374.21	404.91
374.40	393.21
374.60	381.51
374.79	461.09
374.99	423.64
375.19	447.04
375.38	456.40
375.58	411.93
375.78	407.25
375.97	491.51
376.17	484.49
376.37	451.72
376.56	388.53
376.76	430.66
376.95	393.21
377.15	388.53
377.35	470.45
377.54	411.93
377.74	369.80
377.93	409.59
378.13	409.59
378.33	414.27
378.52	369.80
378.72	442.36
378.91	440.02
379.11	383.85
379.31	404.91
379.50	339.38
379.70	458.74
379.89	395.55
380.09	355.76
380.28	341.72
380.48	402.57
380.68	425.98
380.87	461.09
381.07	433.00
381.26	423.64
381.46	334.70
381.65	374.49
381.85	425.98
382.04	390.87
382.24	407.25
382.43	493.85
382.63	414.27
382.83	454.06
383.02	458.74
383.22	411.93
383.41	400.23
383.61	435.34
383.80	428.32
384.00	409.59
384.19	435.34
384.39	433.00
384.58	421.30
384.78	430.66
384.97	484.49
385.17	437.68
385.36	409.59
385.56	358.10
385.75	379.17
385.95	444.70
386.14	493.85
386.34	379.17
386.53	430.66
386.72	355.76
386.92	451.72
387.11	353.42
387.31	395.55
387.50	360.44
387.70	388.53
387.89	425.98
388.09	358.10
388.28	407.25
388.48	390.87
388.67	461.09
388.86	456.40
389.06	381.51
389.25	468.11
389.45	369.80
389.64	407.25
389.84	454.06
390.03	425.98
390.22	390.87
390.42	407.25
390.61	404.91
390.81	447.04
391.00	414.27
391.19	369.80
391.39	341.72
391.58	421.30
391.78	454.06
391.97	353.42
392.16	358.10
392.36	458.74
392.55	360.44
392.75	379.17
392.94	376.83
393.13	402.57
393.33	397.89
393.52	421.30
393.71	416.62
393.91	411.93
394.10	320.65
394.29	395.55
394.49	414.27
394.68	451.72
394.88	425.98
395.07	353.42
395.26	411.93
395.46	358.10
395.65	435.34
395.84	416.62
396.04	512.58
396.23	496.19
396.42	451.72
396.62	437.68
396.81	379.17
397.00	458.74
397.19	425.98
397.39	411.93
397.58	414.27
397.77	379.17
397.97	358.10
398.16	433.00
398.35	402.57
398.55	355.76
398.74	388.53
398.93	451.72
399.12	330.02
399.32	388.53
399.51	418.96
399.70	393.21
399.90	400.23
400.09	374.49
400.28	428.32
400.47	348.74
400.67	383.85
400.86	411.93
401.05	369.80
401.24	379.17
401.44	367.46
401.63	376.83
401.82	411.93
402.01	388.53
402.21	458.74
402.40	376.83
402.59	411.93
402.78	397.89
402.97	395.55
403.17	430.66
403.36	461.09
403.55	383.85
403.74	383.85
403.93	374.49
404.13	475.13
404.32	433.00
404.51	411.93
404.70	479.81
404.89	383.85
405.09	454.06
405.28	376.83
405.47	395.55
405.66	479.81
405.85	404.91
406.05	414.27
406.24	444.70
406.43	393.21
406.62	418.96
406.81	456.40
407.00	449.38
407.20	425.98
407.39	386.19
407.58	407.25
407.77	386.19
407.96	393.21
408.15	423.64
408.34	404.91
408.54	393.21
408.73	388.53
408.92	423.64
409.11	416.62
409.30	461.09
409.49	423.64
409.68	458.74
409.87	418.96
410.07	369.80
410.26	388.53
410.45	397.89
410.64	404.91
410.83	360.44
411.02	395.55
411.21	365.12
411.40	409.59
411.59	447.04
411.78	376.83
411.98	418.96
412.17	440.02
412.36	376.83
412.55	411.93
412.74	402.57
412.93	510.24
413.12	407.25
413.31	430.66
413.50	409.59
413.69	456.40
413.88	367.46
414.07	400.23
414.26	435.34
414.45	397.89
414.64	374.49
414.83	477.47
415.02	425.98
415.22	400.23
415.41	458.74
415.60	414.27
415.79	372.15
415.98	395.55
416.17	442.36
416.36	383.85
416.55	341.72
416.74	454.06
416.93	430.66
417.12	341.72
417.31	407.25
417.50	393.21
417.69	484.49
417.88	386.19
418.07	353.42
418.26	433.00
418.45	339.38
418.64	505.56
418.83	409.59
419.02	409.59
419.21	393.21
419.39	367.46
419.58	397.89
419.77	376.83
419.96	416.62
420.15	421.30
420.34	404.91
420.53	369.80
420.72	386.19
420.91	409.59
421.10	369.80
421.29	407.25
421.48	451.72
421.67	379.17
421.86	414.27
422.05	383.85
422.24	388.53
422.43	444.70
422.61	465.77
422.80	388.53
422.99	461.09
423.18	430.66
423.37	440.02
423.56	435.34
423.75	393.21
423.94	418.96
424.13	458.74
424.32	372.15
424.50	468.11
424.69	393.21
424.88	369.80
425.07	430.66
425.26	454.06
425.45	404.91
425.64	395.55
425.83	407.25
426.01	447.04
426.20	407.25
426.39	414.27
426.58	351.08
426.77	425.98
426.96	449.38
427.15	423.64
427.33	348.74
427.52	362.78
427.71	379.17
427.90	409.59
428.09	477.47
428.28	400.23
428.46	409.59
428.65	416.62
428.84	409.59
429.03	395.55
429.22	440.02
429.40	365.12
429.59	388.53
429.78	409.59
429.97	404.91
430.16	383.85
430.34	388.53
430.53	489.17
430.72	449.38
430.91	510.24
431.10	365.12
431.28	468.11
431.47	461.09
431.66	482.15
431.85	374.49
432.03	447.04
432.22	372.15
432.41	416.62
432.60	423.64
432.79	376.83
432.97	404.91
433.16	358.10
433.35	447.04
433.54	421.30
433.72	421.30
433.91	444.70
434.10	365.12
434.28	376.83
434.47	393.21
434.66	463.43
434.85	367.46
435.03	348.74
435.22	447.04
435.41	475.13
435.59	404.91
435.78	379.17
435.97	421.30
436.16	442.36
436.34	355.76
436.53	512.58
436.72	421.30
436.90	456.40
437.09	374.49
437.28	444.70
437.46	423.64
437.65	463.43
437.84	421.30
438.02	393.21
438.21	369.80
438.40	407.25
438.58	367.46
438.77	414.27
438.96	404.91
439.14	418.96
439.33	463.43
439.52	430.66
439.70	451.72
439.89	395.55
440.08	383.85
440.26	400.23
440.45	376.83
440.63	428.32
440.82	397.89
441.01	351.08
441.19	451.72
441.38	393.21
441.57	421.30
441.75	376.83
441.94	388.53
442.12	400.23
442.31	440.02
442.50	390.87
442.68	351.08
442.87	383.85
443.05	411.93
443.24	344.06
443.43	470.45
443.61	409.59
443.80	498.53
443.98	379.17
444.17	367.46
444.35	416.62
444.54	390.87
444.73	421.30
444.91	395.55
445.10	355.76
445.28	325.33
445.47	409.59
445.65	449.38
445.84	372.15
446.02	449.38
446.21	374.49
446.39	409.59
446.58	456.40
446.77	386.19
446.95	414.27
447.14	386.19
447.32	400.23
447.51	353.42
447.69	468.11
447.88	402.57
448.06	393.21
448.25	449.38
448.43	344.06
448.62	379.17
448.80	447.04
448.99	433.00
449.17	447.04
449.36	451.72
449.54	425.98
449.73	374.49
449.91	411.93
450.10	365.12
450.28	428.32
450.46	414.27
450.65	414.27
450.83	416.62
451.02	376.83
451.20	365.12
451.39	416.62
451.57	358.10
451.76	421.30
451.94	395.55
452.13	435.34
452.31	416.62
452.49	470.45
452.68	409.59
452.86	388.53
453.05	449.38
453.23	458.74
453.42	379.17
453.60	379.17
453.78	369.80
453.97	407.25
454.15	397.89
454.34	379.17
454.52	395.55
454.70	411.93
454.89	458.74
455.07	383.85
455.26	416.62
455.44	397.89
455.62	414.27
455.81	372.15
455.99	486.83
456.17	409.59
456.36	451.72
456.54	430.66
456.73	369.80
456.91	353.42
457.09	383.85
457.28	440.02
457.46	411.93
457.64	421.30
457.83	402.57
458.01	411.93
458.19	386.19
458.38	479.81
458.56	376.83
458.74	428.32
458.93	388.53
459.11	355.76
459.29	425.98
459.48	379.17
459.66	519.60
459.84	430.66
460.03	479.81
460.21	454.06
460.39	423.64
460.57	444.70
460.76	402.57
460.94	437.68
461.12	433.00
461.31	430.66
461.49	451.72
461.67	472.79
461.85	409.59
462.04	409.59
462.22	723.23
462.40	493.85
462.59	416.62
462.77	390.87
462.95	430.66
463.13	447.04
463.32	423.64
463.50	383.85
463.68	383.85
463.86	418.96
464.05	414.27
464.23	388.53
464.41	409.59
464.59	388.53
464.78	444.70
464.96	376.83
465.14	381.51
465.32	351.08
465.50	409.59
465.69	461.09
465.87	430.66
466.05	416.62
466.23	409.59
466.41	430.66
466.60	393.21
466.78	430.66
466.96	484.49
467.14	388.53
467.32	416.62
467.51	397.89
467.69	411.93
467.87	468.11
468.05	430.66
468.23	423.64
468.41	468.11
468.60	395.55
468.78	379.17
468.96	416.62
469.14	386.19
469.32	360.44
469.50	411.93
469.69	369.80
469.87	470.45
470.05	390.87
470.23	442.36
470.41	418.96
470.59	339.38
470.77	409.59
470.95	454.06
471.14	521.94
471.32	400.23
471.50	449.38
471.68	386.19
471.86	418.96
472.04	414.27
472.22	458.74
472.40	395.55
472.58	470.45
472.77	393.21
472.95	397.89
473.13	477.47
473.31	500.87
473.49	418.96
473.67	365.12
473.85	442.36
474.03	505.56
474.21	528.96
474.39	458.74
474.57	493.85
474.75	430.66
474.93	395.55
475.12	470.45
475.30	358.10
475.48	360.44
475.66	383.85
475.84	386.19
476.02	381.51
476.20	320.65
476.38	465.77
476.56	421.30
476.74	454.06
476.92	407.25
477.10	442.36
477.28	369.80
477.46	400.23
477.64	447.04
477.82	362.78
478.00	411.93
478.18	465.77
478.36	451.72
478.54	409.59
478.72	425.98
478.90	423.64
479.08	465.77
479.26	386.19
479.44	411.93
479.62	407.25
479.80	365.12
479.98	365.12
480.16	397.89
480.34	395.55
480.52	386.19
480.70	404.91
480.88	383.85
481.06	386.19
481.24	447.04
481.41	395.55
481.59	442.36
481.77	477.47
481.95	395.55
482.13	376.83
482.31	397.89
482.49	416.62
482.67	390.87
482.85	386.19
483.03	402.57
483.21	456.40
483.39	517.26
483.57	411.93
483.74	418.96
483.92	435.34
484.10	339.38
484.28	449.38
484.46	461.09
484.64	416.62
484.82	442.36
485.00	379.17
485.18	444.70
485.35	332.36
485.53	365.12
485.71	496.19
485.89	388.53
486.07	381.51
486.25	421.30
486.43	346.40
486.61	423.64
486.78	423.64
486.96	458.74
487.14	407.25
487.32	372.15
487.50	383.85
487.68	369.80
487.85	404.91
488.03	461.09
488.21	447.04
488.39	369.80
488.57	430.66
488.75	470.45
488.92	503.22
489.10	496.19
489.28	461.09
489.46	376.83
489.64	393.21
489.81	414.27
489.99	414.27
490.17	423.64
490.35	533.64
490.53	435.34
490.70	404.91
490.88	428.32
491.06	423.64
491.24	409.59
491.41	463.43
491.59	383.85
491.77	362.78
491.95	376.83
492.13	374.49
492.30	458.74
492.48	351.08
492.66	390.87
492.84	376.83
493.01	482.15
493.19	447.04
493.37	409.59
493.54	442.36
493.72	400.23
493.90	456.40
494.08	400.23
494.25	531.30
494.43	444.70
494.61	458.74
494.79	381.51
494.96	442.36
495.14	451.72
495.32	397.89
495.49	433.00
495.67	418.96
495.85	383.85
496.02	360.44
496.20	381.51
496.38	386.19
496.55	353.42
496.73	404.91
496.91	421.30
497.09	393.21
497.26	390.87
497.44	400.23
497.62	437.68
497.79	421.30
497.97	409.59
498.14	451.72
498.32	393.21
498.50	369.80
498.67	395.55
498.85	414.27
499.03	425.98
499.20	386.19
499.38	395.55
499.56	433.00
499.73	425.98
499.91	393.21
500.08	416.62
500.26	416.62
500.44	428.32
500.61	454.06
500.79	388.53
500.97	390.87
501.14	409.59
501.32	348.74
501.49	365.12
501.67	376.83
501.84	435.34
502.02	465.77
502.20	416.62
502.37	402.57
502.55	393.21
502.72	400.23
502.90	423.64
503.07	369.80
503.25	400.23
503.43	400.23
503.60	463.43
503.78	423.64
503.95	374.49
504.13	442.36
504.30	458.74
504.48	454.06
504.65	416.62
504.83	425.98
505.01	390.87
505.18	456.40
505.36	325.33
505.53	402.57
505.71	437.68
505.88	454.06
506.06	416.62
506.23	355.76
506.41	423.64
506.58	458.74
506.76	449.38
506.93	423.64
507.11	369.80
507.28	409.59
507.46	418.96
507.63	416.62
507.81	381.51
507.98	411.93
508.16	407.25
508.33	411.93
508.50	435.34
508.68	451.72
508.85	442.36
509.03	381.51
509.20	425.98
509.38	428.32
509.55	402.57
509.73	465.77
509.90	451.72
510.08	428.32
510.25	355.76
510.42	344.06
510.60	402.57
510.77	493.85
510.95	454.06
511.12	407.25
511.30	397.89
511.47	458.74
511.64	451.72
511.82	393.21
511.99	397.89
512.17	463.43
512.34	407.25
512.51	402.57
512.69	484.49
512.86	461.09
513.04	423.64
513.21	411.93
513.38	444.70
513.56	395.55
513.73	477.47
513.90	353.42
514.08	435.34
514.25	456.40
514.43	543.00
514.60	362.78
514.77	435.34
514.95	440.02
515.12	353.42
515.29	440.02
515.47	433.00
515.64	425.98
515.81	521.94
515.99	428.32
516.16	418.96
516.33	423.64
516.51	369.80
516.68	390.87
516.85	433.00
517.03	397.89
517.20	365.12
517.37	447.04
517.54	423.64
517.72	404.91
517.89	402.57
518.06	351.08
518.24	489.17
518.41	444.70
518.58	421.30
518.75	437.68
518.93	388.53
519.10	458.74
519.27	388.53
519.45	493.85
519.62	402.57
519.79	365.12
519.96	360.44
520.14	442.36
520.31	404.91
520.48	449.38
520.65	358.10
520.83	407.25
521.00	451.72
521.17	470.45
521.34	510.24
521.52	388.53
521.69	407.25
521.86	374.49
522.03	440.02
522.20	435.34
522.38	409.59
522.55	451.72
522.72	409.59
522.89	444.70
523.07	451.72
523.24	468.11
523.41	425.98
523.58	409.59
523.75	433.00
523.92	414.27
524.10	425.98
524.27	435.34
524.44	386.19
524.61	423.64
524.78	440.02
524.96	404.91
525.13	346.40
525.30	416.62
525.47	428.32
525.64	416.62
525.81	390.87
525.98	425.98
526.16	404.91
526.33	339.38
526.50	409.59
526.67	435.34
526.84	409.59
527.01	421.30
527.18	423.64
527.36	484.49
527.53	388.53
527.70	433.00
527.87	407.25
528.04	442.36
528.21	360.44
528.38	437.68
528.55	440.02
528.72	437.68
528.89	451.72
529.07	411.93
529.24	425.98
529.41	447.04
529.58	437.68
529.75	376.83
529.92	390.87
530.09	397.89
530.26	461.09
530.43	447.04
530.60	360.44
530.77	454.06
530.94	407.25
531.11	428.32
531.28	449.38
531.46	339.38
531.63	346.40
531.80	362.78
531.97	379.17
532.14	374.49
532.31	393.21
532.48	423.64
532.65	337.04
532.82	374.49
532.99	409.59
533.16	465.77
533.33	411.93
533.50	416.62
533.67	393.21
533.84	435.34
534.01	407.25
534.18	472.79
534.35	447.04
534.52	449.38
534.69	451.72
534.86	451.72
535.03	416.62
535.20	425.98
535.37	458.74
535.54	425.98
535.71	386.19
535.88	507.90
536.05	404.91
536.22	437.68
536.38	409.59
536.55	440.02
536.72	461.09
536.89	369.80
537.06	489.17
537.23	454.06
537.40	346.40
537.57	447.04
537.74	442.36
537.91	451.72
538.08	430.66
538.25	442.36
538.42	477.47
538.59	395.55
538.75	395.55
538.92	404.91
539.09	374.49
539.26	475.13
539.43	416.62
539.60	416.62
539.77	491.51
539.94	418.96
540.11	418.96
540.28	430.66
540.44	421.30
540.61	437.68
540.78	479.81
540.95	376.83
541.12	461.09
541.29	444.70
541.46	411.93
541.62	444.70
541.79	407.25
541.96	400.23
542.13	386.19
542.30	383.85
542.47	418.96
542.63	374.49
542.80	404.91
542.97	390.87
543.14	390.87
543.31	430.66
543.48	435.34
543.64	402.57
543.81	322.99
543.98	400.23
544.15	416.62
544.32	362.78
544.48	421.30
544.65	461.09
544.82	519.60
544.99	376.83
545.16	402.57
545.32	395.55
545.49	393.21
545.66	430.66
545.83	423.64
546.00	383.85
546.16	362.78
546.33	393.21
546.50	472.79
546.67	447.04
546.83	423.64
547.00	479.81
547.17	418.96
547.34	407.25
547.50	411.93
547.67	444.70
547.84	423.64
548.00	409.59
548.17	322.99
548.34	395.55
548.51	491.51
548.67	381.51
548.84	447.04
549.01	425.98
549.18	428.32
549.34	388.53
549.51	416.62
549.68	423.64
549.84	369.80
550.01	449.38
550.18	507.90
550.34	397.89
550.51	404.91
550.68	458.74
550.84	472.79
551.01	428.32
551.18	390.87
551.34	409.59
551.51	538.32
551.68	472.79
551.84	456.40
552.01	444.70
552.18	416.62
552.34	428.32
552.51	393.21
552.68	451.72
552.84	414.27
553.01	428.32
553.18	416.62
553.34	444.70
553.51	397.89
553.67	526.62
553.84	468.11
554.01	358.10
554.17	440.02
554.34	404.91
554.51	428.32
554.67	463.43
554.84	395.55
555.00	369.80
555.17	390.87
555.33	367.46
555.50	409.59
555.67	376.83
555.83	440.02
556.00	395.55
556.16	528.96
556.33	472.79
556.50	409.59
556.66	472.79
556.83	440.02
556.99	465.77
557.16	402.57
557.32	362.78
557.49	339.38
557.65	374.49
557.82	339.38
557.98	397.89
558.15	390.87
558.32	454.06
558.48	503.22
558.65	421.30
558.81	395.55
558.98	388.53
559.14	411.93
559.31	397.89
559.47	454.06
559.64	425.98
559.80	374.49
559.97	409.59
560.13	407.25
560.30	414.27
560.46	435.34
560.63	393.21
560.79	362.78
560.96	451.72
561.12	397.89
561.29	486.83
561.45	397.89
561.61	440.02
561.78	440.02
561.94	386.19
562.11	362.78
562.27	435.34
562.44	418.96
562.60	442.36
562.77	372.15
562.93	390.87
563.10	414.27
563.26	372.15
563.42	416.62
563.59	461.09
563.75	418.96
563.92	418.96
564.08	388.53
564.24	423.64
564.41	447.04
564.57	411.93
564.74	379.17
564.90	425.98
565.07	428.32
565.23	433.00
565.39	355.76
565.56	433.00
565.72	458.74
565.88	386.19
566.05	447.04
566.21	418.96
566.38	414.27
566.54	477.47
566.70	341.72
566.87	402.57
567.03	381.51
567.19	435.34
567.36	470.45
567.52	402.57
567.68	404.91
567.85	407.25
568.01	383.85
568.17	414.27
568.34	390.87
568.50	456.40
568.66	393.21
568.83	517.26
568.99	367.46
569.15	535.98
569.32	461.09
569.48	404.91
569.64	341.72
569.81	468.11
569.97	418.96
570.13	493.85
570.30	407.25
570.46	425.98
570.62	437.68
570.78	341.72
570.95	367.46
571.11	416.62
571.27	435.34
571.43	367.46
571.60	449.38
571.76	407.25
571.92	442.36
572.09	479.81
572.25	397.89
572.41	435.34
572.57	386.19
572.74	421.30
572.90	430.66
573.06	397.89
573.22	383.85
573.38	461.09
573.55	514.92
573.71	477.47
573.87	425.98
574.03	423.64
574.20	411.93
574.36	440.02
574.52	407.25
574.68	379.17
574.84	390.87
575.01	447.04
575.17	358.10
575.33	479.81
575.49	435.34
575.65	418.96
575.82	381.51
575.98	355.76
576.14	348.74
576.30	435.34
576.46	437.68
576.62	397.89
576.79	491.51
576.95	433.00
577.11	395.55
577.27	374.49
577.43	362.78
577.59	479.81
577.75	430.66
577.92	402.57
578.08	407.25
578.24	372.15
578.40	395.55
578.56	346.40
578.72	470.45
578.88	372.15
579.04	404.91
579.21	407.25
579.37	451.72
579.53	383.85
579.69	444.70
579.85	421.30
580.01	477.47
580.17	454.06
580.33	444.70
580.49	451.72
580.65	470.45
580.82	451.72
580.98	461.09
581.14	407.25
581.30	407.25
581.46	430.66
581.62	458.74
581.78	517.26
581.94	395.55
582.10	433.00
582.26	365.12
582.42	475.13
582.58	409.59
582.74	454.06
582.90	409.59
583.06	524.28
583.22	409.59
583.38	362.78
583.54	383.85
583.70	479.81
583.86	484.49
584.02	374.49
584.18	465.77
584.34	435.34
584.50	414.27
584.66	484.49
584.82	414.27
584.98	402.57
585.14	407.25
585.30	428.32
585.46	414.27
585.62	351.08
585.78	418.96
585.94	428.32
586.10	470.45
586.26	395.55
586.42	425.98
586.58	348.74
586.74	414.27
586.90	411.93
587.06	475.13
587.22	414.27
587.38	374.49
587.54	416.62
587.70	362.78
587.86	444.70
588.02	386.19
588.18	390.87
588.34	493.85
588.49	402.57
588.65	458.74
588.81	376.83
588.97	341.72
589.13	355.76
589.29	374.49
589.45	437.68
589.61	461.09
589.77	440.02
589.93	397.89
590.08	425.98
590.24	418.96
590.40	456.40
590.56	381.51
590.72	372.15
590.88	407.25
591.04	454.06
591.20	315.97
591.35	535.98
591.51	454.06
591.67	465.77
591.83	397.89
591.99	395.55
592.15	484.49
592.31	433.00
592.46	404.91
592.62	407.25
592.78	418.96
592.94	369.80
593.10	477.47
593.26	348.74
593.41	475.13
593.57	458.74
593.73	407.25
593.89	386.19
594.05	447.04
594.20	447.04
594.36	437.68
594.52	458.74
594.68	383.85
594.84	496.19
594.99	383.85
595.15	461.09
595.31	472.79
595.47	500.87
595.62	442.36
595.78	353.42
595.94	390.87
596.10	414.27
596.25	411.93
596.41	475.13
596.57	360.44
596.73	383.85
596.88	383.85
597.04	468.11
597.20	418.96
597.36	381.51
597.51	437.68
597.67	404.91
597.83	418.96
597.99	397.89
598.14	400.23
598.30	484.49
598.46	369.80
598.61	472.79
598.77	308.95
598.93	430.66
599.09	395.55
599.24	468.11
599.40	493.85
599.56	418.96
599.71	418.96
599.87	465.77
600.03	376.83
600.18	400.23
600.34	362.78
600.50	327.68
600.65	425.98
600.81	440.02
600.97	454.06
601.12	447.04
601.28	393.21
601.44	400.23
601.59	383.85
601.75	451.72
601.91	395.55
602.06	435.34
602.22	451.72
602.37	379.17
602.53	397.89
602.69	433.00
602.84	425.98
603.00	388.53
603.16	367.46
603.31	444.70
603.47	430.66
603.62	423.64
603.78	360.44
603.94	400.23
604.09	404.91
604.25	400.23
604.40	465.77
604.56	423.64
604.71	365.12
604.87	433.00
605.03	407.25
605.18	395.55
605.34	433.00
605.49	425.98
605.65	442.36
605.80	456.40
605.96	393.21
606.12	433.00
606.27	404.91
606.43	454.06
606.58	456.40
606.74	449.38
606.89	430.66
607.05	416.62
607.20	411.93
607.36	402.57
607.51	402.57
607.67	407.25
607.82	468.11
607.98	447.04
608.13	400.23
608.29	440.02
608.44	411.93
608.60	409.59
608.75	397.89
608.91	416.62
609.06	433.00
609.22	416.62
609.37	416.62
609.53	390.87
609.68	468.11
609.84	388.53
609.99	411.93
610.15	404.91
