SpectraSuite Data File
++++++++++++++++++++++++++++++++++++
Date: Fri Oct 25 12:10:57 EDT 2013
User: price-jones
Dark Spectrum Present: No
Reference Spectrum Present: No
Number of Sampled Component Spectra: 1
Spectrometers: USB2+H05261
Integration Time (usec): 100000 (USB2+H05261)
Spectra Averaged: 1 (USB2+H05261)
Boxcar Smoothing: 0 (USB2+H05261)
Correct for Electrical Dark: No (USB2+H05261)
Strobe/Lamp Enabled: No (USB2+H05261)
Correct for Detector Non-linearity: No (USB2+H05261)
Correct for Stray Light: No (USB2+H05261)
Number of Pixels in Processed Spectrum: 2048
>>>>>Begin Processed Spectral Data<<<<<
365.73	393.21
365.92	393.21
366.12	393.21
366.32	227.03
366.52	220.01
366.72	245.76
366.91	217.67
367.11	287.89
367.31	161.50
367.51	198.95
367.70	196.60
367.90	283.20
368.10	201.29
368.30	159.16
368.49	222.35
368.69	201.29
368.89	299.59
369.09	220.01
369.28	243.42
369.48	222.35
369.68	320.65
369.87	311.29
370.07	285.55
370.27	367.46
370.47	308.95
370.66	308.95
370.86	344.06
371.06	348.74
371.25	374.49
371.45	376.83
371.65	404.91
371.84	327.68
372.04	376.83
372.24	341.72
372.44	425.98
372.63	423.64
372.83	425.98
373.03	395.55
373.22	468.11
373.42	442.36
373.62	428.32
373.81	451.72
374.01	454.06
374.21	463.43
374.40	393.21
374.60	416.62
374.79	484.49
374.99	407.25
375.19	351.08
375.38	369.80
375.58	393.21
375.78	407.25
375.97	456.40
376.17	440.02
376.37	372.15
376.56	397.89
376.76	344.06
376.95	440.02
377.15	402.57
377.35	369.80
377.54	465.77
377.74	428.32
377.93	404.91
378.13	416.62
378.33	393.21
378.52	416.62
378.72	430.66
378.91	449.38
379.11	397.89
379.31	351.08
379.50	367.46
379.70	381.51
379.89	376.83
380.09	379.17
380.28	456.40
380.48	369.80
380.68	425.98
380.87	416.62
381.07	416.62
381.26	407.25
381.46	339.38
381.65	360.44
381.85	402.57
382.04	397.89
382.24	400.23
382.43	395.55
382.63	344.06
382.83	379.17
383.02	365.12
383.22	433.00
383.41	451.72
383.61	435.34
383.80	444.70
384.00	369.80
384.19	351.08
384.39	428.32
384.58	402.57
384.78	376.83
384.97	425.98
385.17	409.59
385.36	337.04
385.56	327.68
385.75	397.89
385.95	365.12
386.14	430.66
386.34	393.21
386.53	433.00
386.72	402.57
386.92	458.74
387.11	414.27
387.31	411.93
387.50	416.62
387.70	416.62
387.89	428.32
388.09	435.34
388.28	421.30
388.48	447.04
388.67	381.51
388.86	353.42
389.06	400.23
389.25	379.17
389.45	468.11
389.64	421.30
389.84	425.98
390.03	423.64
390.22	390.87
390.42	416.62
390.61	491.51
390.81	449.38
391.00	390.87
391.19	425.98
391.39	362.78
391.58	386.19
391.78	428.32
391.97	407.25
392.16	339.38
392.36	465.77
392.55	418.96
392.75	411.93
392.94	332.36
393.13	404.91
393.33	409.59
393.52	320.65
393.71	444.70
393.91	411.93
394.10	344.06
394.29	514.92
394.49	461.09
394.68	463.43
394.88	486.83
395.07	367.46
395.26	503.22
395.46	418.96
395.65	437.68
395.84	425.98
396.04	491.51
396.23	414.27
396.42	423.64
396.62	383.85
396.81	475.13
397.00	402.57
397.19	414.27
397.39	379.17
397.58	430.66
397.77	346.40
397.97	463.43
398.16	451.72
398.35	369.80
398.55	411.93
398.74	383.85
398.93	425.98
399.12	475.13
399.32	379.17
399.51	444.70
399.70	437.68
399.90	468.11
400.09	435.34
400.28	355.76
400.47	397.89
400.67	458.74
400.86	393.21
401.05	493.85
401.24	388.53
401.44	465.77
401.63	376.83
401.82	414.27
402.01	362.78
402.21	444.70
402.40	353.42
402.59	365.12
402.78	395.55
402.97	379.17
403.17	369.80
403.36	444.70
403.55	437.68
403.74	414.27
403.93	369.80
404.13	430.66
404.32	435.34
404.51	390.87
404.70	337.04
404.89	381.51
405.09	334.70
405.28	397.89
405.47	355.76
405.66	367.46
405.85	365.12
406.05	355.76
406.24	451.72
406.43	409.59
406.62	437.68
406.81	428.32
407.00	414.27
407.20	454.06
407.39	362.78
407.58	362.78
407.77	433.00
407.96	397.89
408.15	404.91
408.34	367.46
408.54	444.70
408.73	386.19
408.92	395.55
409.11	454.06
409.30	442.36
409.49	402.57
409.68	423.64
409.87	407.25
410.07	411.93
410.26	442.36
410.45	433.00
410.64	397.89
410.83	418.96
411.02	428.32
411.21	390.87
411.40	435.34
411.59	376.83
411.78	386.19
411.98	437.68
412.17	414.27
412.36	365.12
412.55	381.51
412.74	411.93
412.93	454.06
413.12	433.00
413.31	400.23
413.50	423.64
413.69	444.70
413.88	479.81
414.07	386.19
414.26	376.83
414.45	393.21
414.64	390.87
414.83	454.06
415.02	362.78
415.22	400.23
415.41	381.51
415.60	416.62
415.79	458.74
415.98	463.43
416.17	449.38
416.36	402.57
416.55	414.27
416.74	489.17
416.93	447.04
417.12	444.70
417.31	456.40
417.50	344.06
417.69	437.68
417.88	365.12
418.07	390.87
418.26	351.08
418.45	379.17
418.64	416.62
418.83	381.51
419.02	355.76
419.21	414.27
419.39	372.15
419.58	379.17
419.77	435.34
419.96	404.91
420.15	491.51
420.34	437.68
420.53	358.10
420.72	472.79
420.91	493.85
421.10	393.21
421.29	381.51
421.48	449.38
421.67	372.15
421.86	414.27
422.05	421.30
422.24	372.15
422.43	365.12
422.61	372.15
422.80	353.42
422.99	369.80
423.18	418.96
423.37	344.06
423.56	470.45
423.75	411.93
423.94	369.80
424.13	428.32
424.32	339.38
424.50	402.57
424.69	484.49
424.88	409.59
425.07	379.17
425.26	390.87
425.45	414.27
425.64	376.83
425.83	437.68
426.01	407.25
426.20	477.47
426.39	411.93
426.58	421.30
426.77	418.96
426.96	372.15
427.15	468.11
427.33	416.62
427.52	414.27
427.71	369.80
427.90	397.89
428.09	351.08
428.28	430.66
428.46	416.62
428.65	425.98
428.84	404.91
429.03	421.30
429.22	365.12
429.40	416.62
429.59	433.00
429.78	423.64
429.97	458.74
430.16	421.30
430.34	447.04
430.53	376.83
430.72	379.17
430.91	421.30
431.10	409.59
431.28	313.63
431.47	404.91
431.66	402.57
431.85	365.12
432.03	374.49
432.22	442.36
432.41	390.87
432.60	400.23
432.79	425.98
432.97	365.12
433.16	456.40
433.35	414.27
433.54	369.80
433.72	418.96
433.91	447.04
434.10	472.79
434.28	411.93
434.47	414.27
434.66	397.89
434.85	400.23
435.03	414.27
435.22	407.25
435.41	458.74
435.59	435.34
435.78	393.21
435.97	383.85
436.16	447.04
436.34	428.32
436.53	444.70
436.72	456.40
436.90	383.85
437.09	423.64
437.28	416.62
437.46	341.72
437.65	437.68
437.84	355.76
438.02	404.91
438.21	400.23
438.40	454.06
438.58	404.91
438.77	397.89
438.96	374.49
439.14	374.49
439.33	400.23
439.52	505.56
439.70	409.59
439.89	404.91
440.08	470.45
440.26	372.15
440.45	425.98
440.63	402.57
440.82	428.32
441.01	397.89
441.19	348.74
441.38	400.23
441.57	365.12
441.75	425.98
441.94	362.78
442.12	458.74
442.31	407.25
442.50	381.51
442.68	421.30
442.87	411.93
443.05	383.85
443.24	348.74
443.43	435.34
443.61	470.45
443.80	358.10
443.98	367.46
444.17	414.27
444.35	437.68
444.54	444.70
444.73	451.72
444.91	416.62
445.10	374.49
445.28	372.15
445.47	416.62
445.65	400.23
445.84	458.74
446.02	423.64
446.21	339.38
446.39	505.56
446.58	444.70
446.77	442.36
446.95	437.68
447.14	423.64
447.32	428.32
447.51	395.55
447.69	458.74
447.88	376.83
448.06	484.49
448.25	390.87
448.43	353.42
448.62	388.53
448.80	409.59
448.99	395.55
449.17	360.44
449.36	397.89
449.54	517.26
449.73	404.91
449.91	376.83
450.10	425.98
450.28	449.38
450.46	425.98
450.65	498.53
450.83	400.23
451.02	365.12
451.20	463.43
451.39	437.68
451.57	411.93
451.76	430.66
451.94	374.49
452.13	472.79
452.31	451.72
452.49	423.64
452.68	372.15
452.86	397.89
453.05	505.56
453.23	428.32
453.42	390.87
453.60	409.59
453.78	425.98
453.97	428.32
454.15	447.04
454.34	386.19
454.52	315.97
454.70	383.85
454.89	435.34
455.07	337.04
455.26	423.64
455.44	402.57
455.62	411.93
455.81	484.49
455.99	489.17
456.17	386.19
456.36	461.09
456.54	402.57
456.73	358.10
456.91	320.65
457.09	409.59
457.28	369.80
457.46	409.59
457.64	409.59
457.83	425.98
458.01	430.66
458.19	409.59
458.38	379.17
458.56	449.38
458.74	440.02
458.93	435.34
459.11	369.80
459.29	397.89
459.48	456.40
459.66	425.98
459.84	428.32
460.03	489.17
460.21	437.68
460.39	402.57
460.57	423.64
460.76	435.34
460.94	521.94
461.12	444.70
461.31	433.00
461.49	395.55
461.67	447.04
461.85	451.72
462.04	428.32
462.22	755.99
462.40	407.25
462.59	409.59
462.77	423.64
462.95	423.64
463.13	437.68
463.32	465.77
463.50	447.04
463.68	383.85
463.86	454.06
464.05	423.64
464.23	493.85
464.41	444.70
464.59	425.98
464.78	416.62
464.96	395.55
465.14	442.36
465.32	425.98
465.50	428.32
465.69	440.02
465.87	414.27
466.05	491.51
466.23	374.49
466.41	458.74
466.60	416.62
466.78	498.53
466.96	454.06
467.14	404.91
467.32	435.34
467.51	388.53
467.69	454.06
467.87	409.59
468.05	470.45
468.23	433.00
468.41	367.46
468.60	465.77
468.78	505.56
468.96	470.45
469.14	395.55
469.32	367.46
469.50	458.74
469.69	458.74
469.87	383.85
470.05	421.30
470.23	411.93
470.41	440.02
470.59	390.87
470.77	437.68
470.95	383.85
471.14	477.47
471.32	409.59
471.50	404.91
471.68	437.68
471.86	379.17
472.04	374.49
472.22	400.23
472.40	400.23
472.58	428.32
472.77	388.53
472.95	369.80
473.13	437.68
473.31	444.70
473.49	444.70
473.67	437.68
473.85	386.19
474.03	456.40
474.21	355.76
474.39	421.30
474.57	433.00
474.75	395.55
474.93	390.87
475.12	416.62
475.30	454.06
475.48	430.66
475.66	440.02
475.84	381.51
476.02	404.91
476.20	463.43
476.38	381.51
476.56	479.81
476.74	390.87
476.92	425.98
477.10	414.27
477.28	407.25
477.46	411.93
477.64	430.66
477.82	435.34
478.00	409.59
478.18	418.96
478.36	376.83
478.54	397.89
478.72	374.49
478.90	430.66
479.08	400.23
479.26	451.72
479.44	414.27
479.62	428.32
479.80	425.98
479.98	379.17
480.16	339.38
480.34	430.66
480.52	430.66
480.70	411.93
480.88	355.76
481.06	465.77
481.24	414.27
481.41	425.98
481.59	489.17
481.77	372.15
481.95	425.98
482.13	428.32
482.31	421.30
482.49	414.27
482.67	444.70
482.85	437.68
483.03	456.40
483.21	381.51
483.39	451.72
483.57	442.36
483.74	374.49
483.92	411.93
484.10	353.42
484.28	425.98
484.46	442.36
484.64	428.32
484.82	341.72
485.00	395.55
485.18	421.30
485.35	425.98
485.53	400.23
485.71	433.00
485.89	386.19
486.07	428.32
486.25	454.06
486.43	421.30
486.61	451.72
486.78	409.59
486.96	428.32
487.14	386.19
487.32	458.74
487.50	437.68
487.68	444.70
487.85	390.87
488.03	461.09
488.21	409.59
488.39	402.57
488.57	367.46
488.75	393.21
488.92	477.47
489.10	365.12
489.28	423.64
489.46	407.25
489.64	454.06
489.81	503.22
489.99	435.34
490.17	386.19
490.35	435.34
490.53	372.15
490.70	388.53
490.88	449.38
491.06	379.17
491.24	444.70
491.41	461.09
491.59	430.66
491.77	430.66
491.95	395.55
492.13	430.66
492.30	407.25
492.48	404.91
492.66	465.77
492.84	430.66
493.01	437.68
493.19	425.98
493.37	472.79
493.54	449.38
493.72	442.36
493.90	362.78
494.08	428.32
494.25	437.68
494.43	430.66
494.61	397.89
494.79	386.19
494.96	353.42
495.14	475.13
495.32	337.04
495.49	449.38
495.67	425.98
495.85	386.19
496.02	477.47
496.20	334.70
496.38	447.04
496.55	430.66
496.73	402.57
496.91	442.36
497.09	407.25
497.26	411.93
497.44	358.10
497.62	395.55
497.79	456.40
497.97	388.53
498.14	484.49
498.32	416.62
498.50	397.89
498.67	409.59
498.85	390.87
499.03	355.76
499.20	332.36
499.38	444.70
499.56	409.59
499.73	402.57
499.91	425.98
500.08	407.25
500.26	393.21
500.44	414.27
500.61	472.79
500.79	456.40
500.97	414.27
501.14	442.36
501.32	416.62
501.49	386.19
501.67	411.93
501.84	344.06
502.02	327.68
502.20	456.40
502.37	486.83
502.55	388.53
502.72	376.83
502.90	430.66
503.07	447.04
503.25	351.08
503.43	449.38
503.60	440.02
503.78	428.32
503.95	444.70
504.13	360.44
504.30	416.62
504.48	442.36
504.65	414.27
504.83	428.32
505.01	428.32
505.18	393.21
505.36	374.49
505.53	355.76
505.71	423.64
505.88	421.30
506.06	360.44
506.23	484.49
506.41	358.10
506.58	362.78
506.76	416.62
506.93	372.15
507.11	388.53
507.28	318.31
507.46	367.46
507.63	400.23
507.81	451.72
507.98	358.10
508.16	409.59
508.33	383.85
508.50	367.46
508.68	428.32
508.85	386.19
509.03	397.89
509.20	397.89
509.38	393.21
509.55	498.53
509.73	411.93
509.90	475.13
510.08	416.62
510.25	428.32
510.42	397.89
510.60	416.62
510.77	433.00
510.95	521.94
511.12	456.40
511.30	409.59
511.47	465.77
511.64	444.70
511.82	468.11
511.99	397.89
512.17	423.64
512.34	423.64
512.51	390.87
512.69	393.21
512.86	409.59
513.04	404.91
513.21	456.40
513.38	407.25
513.56	395.55
513.73	402.57
513.90	395.55
514.08	440.02
514.25	411.93
514.43	402.57
514.60	456.40
514.77	496.19
514.95	400.23
515.12	306.61
515.29	358.10
515.47	416.62
515.64	393.21
515.81	407.25
515.99	442.36
516.16	411.93
516.33	409.59
516.51	337.04
516.68	416.62
516.85	454.06
517.03	435.34
517.20	433.00
517.37	421.30
517.54	383.85
517.72	482.15
517.89	390.87
518.06	447.04
518.24	493.85
518.41	376.83
518.58	358.10
518.75	416.62
518.93	404.91
519.10	416.62
519.27	374.49
519.45	411.93
519.62	428.32
519.79	430.66
519.96	348.74
520.14	390.87
520.31	379.17
520.48	315.97
520.65	435.34
520.83	425.98
521.00	491.51
521.17	484.49
521.34	395.55
521.52	339.38
521.69	362.78
521.86	334.70
522.03	383.85
522.20	379.17
522.38	386.19
522.55	390.87
522.72	409.59
522.89	454.06
523.07	454.06
523.24	449.38
523.41	430.66
523.58	330.02
523.75	365.12
523.92	447.04
524.10	433.00
524.27	407.25
524.44	379.17
524.61	407.25
524.78	386.19
524.96	386.19
525.13	418.96
525.30	372.15
525.47	437.68
525.64	409.59
525.81	414.27
525.98	433.00
526.16	355.76
526.33	339.38
526.50	374.49
526.67	404.91
526.84	423.64
527.01	430.66
527.18	400.23
527.36	411.93
527.53	430.66
527.70	465.77
527.87	447.04
528.04	444.70
528.21	458.74
528.38	400.23
528.55	383.85
528.72	425.98
528.89	468.11
529.07	334.70
529.24	386.19
529.41	484.49
529.58	367.46
529.75	351.08
529.92	374.49
530.09	414.27
530.26	442.36
530.43	430.66
530.60	388.53
530.77	409.59
530.94	379.17
531.11	409.59
531.28	369.80
531.46	376.83
531.63	390.87
531.80	442.36
531.97	423.64
532.14	320.65
532.31	470.45
532.48	437.68
532.65	423.64
532.82	376.83
532.99	425.98
533.16	374.49
533.33	421.30
533.50	404.91
533.67	442.36
533.84	393.21
534.01	407.25
534.18	423.64
534.35	407.25
534.52	376.83
534.69	465.77
534.86	472.79
535.03	407.25
535.20	430.66
535.37	367.46
535.54	451.72
535.71	397.89
535.88	456.40
536.05	442.36
536.22	451.72
536.38	395.55
536.55	411.93
536.72	425.98
536.89	383.85
537.06	388.53
537.23	376.83
537.40	409.59
537.57	379.17
537.74	449.38
537.91	411.93
538.08	500.87
538.25	442.36
538.42	421.30
538.59	421.30
538.75	381.51
538.92	393.21
539.09	346.40
539.26	381.51
539.43	400.23
539.60	447.04
539.77	444.70
539.94	491.51
540.11	437.68
540.28	444.70
540.44	468.11
540.61	458.74
540.78	449.38
540.95	358.10
541.12	507.90
541.29	449.38
541.46	383.85
541.62	437.68
541.79	404.91
541.96	477.47
542.13	435.34
542.30	388.53
542.47	376.83
542.63	407.25
542.80	468.11
542.97	416.62
543.14	360.44
543.31	397.89
543.48	404.91
543.64	390.87
543.81	482.15
543.98	411.93
544.15	386.19
544.32	404.91
544.48	463.43
544.65	447.04
544.82	414.27
544.99	437.68
545.16	372.15
545.32	404.91
545.49	400.23
545.66	421.30
545.83	418.96
546.00	383.85
546.16	407.25
546.33	337.04
546.50	470.45
546.67	468.11
546.83	337.04
547.00	468.11
547.17	400.23
547.34	341.72
547.50	400.23
547.67	470.45
547.84	388.53
548.00	449.38
548.17	365.12
548.34	402.57
548.51	379.17
548.67	407.25
548.84	456.40
549.01	416.62
549.18	379.17
549.34	451.72
549.51	390.87
549.68	388.53
549.84	449.38
550.01	456.40
550.18	465.77
550.34	402.57
550.51	449.38
550.68	407.25
550.84	430.66
551.01	344.06
551.18	447.04
551.34	416.62
551.51	421.30
551.68	400.23
551.84	435.34
552.01	425.98
552.18	400.23
552.34	386.19
552.51	402.57
552.68	463.43
552.84	407.25
553.01	372.15
553.18	496.19
553.34	421.30
553.51	397.89
553.67	386.19
553.84	440.02
554.01	461.09
554.17	440.02
554.34	365.12
554.51	425.98
554.67	493.85
554.84	482.15
555.00	440.02
555.17	397.89
555.33	393.21
555.50	524.28
555.67	440.02
555.83	430.66
556.00	418.96
556.16	503.22
556.33	442.36
556.50	395.55
556.66	425.98
556.83	374.49
556.99	409.59
557.16	404.91
557.32	428.32
557.49	430.66
557.65	374.49
557.82	393.21
557.98	451.72
558.15	379.17
558.32	416.62
558.48	358.10
558.65	369.80
558.81	376.83
558.98	402.57
559.14	451.72
559.31	484.49
559.47	430.66
559.64	397.89
559.80	449.38
559.97	372.15
560.13	393.21
560.30	440.02
560.46	411.93
560.63	374.49
560.79	395.55
560.96	491.51
561.12	322.99
561.29	372.15
561.45	407.25
561.61	372.15
561.78	498.53
561.94	409.59
562.11	388.53
562.27	367.46
562.44	463.43
562.60	456.40
562.77	430.66
562.93	484.49
563.10	386.19
563.26	528.96
563.42	461.09
563.59	435.34
563.75	491.51
563.92	484.49
564.08	470.45
564.24	461.09
564.41	470.45
564.57	362.78
564.74	514.92
564.90	482.15
565.07	458.74
565.23	486.83
565.39	386.19
565.56	395.55
565.72	393.21
565.88	437.68
566.05	390.87
566.21	442.36
566.38	435.34
566.54	372.15
566.70	404.91
566.87	367.46
567.03	344.06
567.19	435.34
567.36	477.47
567.52	409.59
567.68	475.13
567.85	362.78
568.01	379.17
568.17	425.98
568.34	440.02
568.50	411.93
568.66	444.70
568.83	470.45
568.99	393.21
569.15	451.72
569.32	402.57
569.48	468.11
569.64	362.78
569.81	430.66
569.97	393.21
570.13	468.11
570.30	395.55
570.46	423.64
570.62	367.46
570.78	458.74
570.95	365.12
571.11	517.26
571.27	547.69
571.43	416.62
571.60	437.68
571.76	404.91
571.92	376.83
572.09	402.57
572.25	390.87
572.41	376.83
572.57	344.06
572.74	449.38
572.90	440.02
573.06	367.46
573.22	435.34
573.38	475.13
573.55	437.68
573.71	430.66
573.87	430.66
574.03	372.15
574.20	402.57
574.36	454.06
574.52	423.64
574.68	428.32
574.84	383.85
575.01	395.55
575.17	388.53
575.33	388.53
575.49	327.68
575.65	435.34
575.82	341.72
575.98	461.09
576.14	433.00
576.30	409.59
576.46	395.55
576.62	496.19
576.79	468.11
576.95	500.87
577.11	463.43
577.27	404.91
577.43	407.25
577.59	454.06
577.75	437.68
577.92	449.38
578.08	388.53
578.24	397.89
578.40	369.80
578.56	503.22
578.72	376.83
578.88	416.62
579.04	423.64
579.21	489.17
579.37	383.85
579.53	416.62
579.69	353.42
579.85	451.72
580.01	456.40
580.17	334.70
580.33	402.57
580.49	355.76
580.65	374.49
580.82	397.89
580.98	414.27
581.14	390.87
581.30	449.38
581.46	411.93
581.62	484.49
581.78	465.77
581.94	475.13
582.10	404.91
582.26	327.68
582.42	437.68
582.58	404.91
582.74	341.72
582.90	376.83
583.06	425.98
583.22	479.81
583.38	430.66
583.54	386.19
583.70	386.19
583.86	400.23
584.02	428.32
584.18	447.04
584.34	404.91
584.50	440.02
584.66	372.15
584.82	355.76
584.98	409.59
585.14	395.55
585.30	400.23
585.46	362.78
585.62	358.10
585.78	360.44
585.94	430.66
586.10	470.45
586.26	433.00
586.42	430.66
586.58	416.62
586.74	395.55
586.90	423.64
587.06	418.96
587.22	414.27
587.38	395.55
587.54	388.53
587.70	482.15
587.86	418.96
588.02	454.06
588.18	404.91
588.34	451.72
588.49	351.08
588.65	414.27
588.81	418.96
588.97	404.91
589.13	404.91
589.29	402.57
589.45	461.09
589.61	414.27
589.77	463.43
589.93	395.55
590.08	376.83
590.24	414.27
590.40	376.83
590.56	449.38
590.72	447.04
590.88	379.17
591.04	442.36
591.20	376.83
591.35	407.25
591.51	418.96
591.67	379.17
591.83	400.23
591.99	451.72
592.15	404.91
592.31	433.00
592.46	397.89
592.62	461.09
592.78	486.83
592.94	372.15
593.10	440.02
593.26	425.98
593.41	510.24
593.57	468.11
593.73	365.12
593.89	393.21
594.05	409.59
594.20	423.64
594.36	444.70
594.52	404.91
594.68	484.49
594.84	418.96
594.99	493.85
595.15	440.02
595.31	337.04
595.47	442.36
595.62	386.19
595.78	407.25
595.94	374.49
596.10	409.59
596.25	421.30
596.41	479.81
596.57	475.13
596.73	325.33
596.88	447.04
597.04	400.23
597.20	381.51
597.36	454.06
597.51	418.96
597.67	428.32
597.83	437.68
597.99	442.36
598.14	409.59
598.30	407.25
598.46	465.77
598.61	421.30
598.77	435.34
598.93	425.98
599.09	428.32
599.24	402.57
599.40	376.83
599.56	402.57
599.71	409.59
599.87	344.06
600.03	367.46
600.18	395.55
600.34	442.36
600.50	437.68
600.65	402.57
600.81	444.70
600.97	402.57
601.12	491.51
601.28	456.40
601.44	383.85
601.59	416.62
601.75	381.51
601.91	386.19
602.06	465.77
602.22	414.27
602.37	425.98
602.53	442.36
602.69	395.55
602.84	440.02
603.00	372.15
603.16	531.30
603.31	416.62
603.47	430.66
603.62	362.78
603.78	386.19
603.94	454.06
604.09	409.59
604.25	407.25
604.40	456.40
604.56	425.98
604.71	390.87
604.87	395.55
605.03	437.68
605.18	475.13
605.34	418.96
605.49	425.98
605.65	418.96
605.80	425.98
605.96	418.96
606.12	430.66
606.27	454.06
606.43	430.66
606.58	430.66
606.74	402.57
606.89	416.62
607.05	451.72
607.20	400.23
607.36	451.72
607.51	430.66
607.67	421.30
607.82	437.68
607.98	470.45
608.13	402.57
608.29	433.00
608.44	433.00
608.60	430.66
608.75	477.47
608.91	402.57
609.06	425.98
609.22	470.45
609.37	393.21
609.53	425.98
609.68	379.17
609.84	440.02
609.99	372.15
610.15	428.32
