SpectraSuite Data File
++++++++++++++++++++++++++++++++++++
Date: Fri Oct 25 12:11:00 EDT 2013
User: price-jones
Dark Spectrum Present: No
Reference Spectrum Present: No
Number of Sampled Component Spectra: 1
Spectrometers: USB2+H05261
Integration Time (usec): 100000 (USB2+H05261)
Spectra Averaged: 1 (USB2+H05261)
Boxcar Smoothing: 0 (USB2+H05261)
Correct for Electrical Dark: No (USB2+H05261)
Strobe/Lamp Enabled: No (USB2+H05261)
Correct for Detector Non-linearity: No (USB2+H05261)
Correct for Stray Light: No (USB2+H05261)
Number of Pixels in Processed Spectrum: 2048
>>>>>Begin Processed Spectral Data<<<<<
365.73	304.27
365.92	304.27
366.12	304.27
366.32	238.73
366.52	278.52
366.72	238.73
366.91	198.95
367.11	243.42
367.31	208.31
367.51	285.55
367.70	243.42
367.90	198.95
368.10	273.84
368.30	194.26
368.49	217.67
368.69	341.72
368.89	271.50
369.09	264.48
369.28	348.74
369.48	224.69
369.68	252.78
369.87	278.52
370.07	280.86
370.27	330.02
370.47	334.70
370.66	355.76
370.86	283.20
371.06	304.27
371.25	341.72
371.45	311.29
371.65	346.40
371.84	402.57
372.04	451.72
372.24	381.51
372.44	393.21
372.63	465.77
372.83	388.53
373.03	365.12
373.22	400.23
373.42	482.15
373.62	353.42
373.81	374.49
374.01	440.02
374.21	482.15
374.40	430.66
374.60	449.38
374.79	440.02
374.99	334.70
375.19	451.72
375.38	390.87
375.58	376.83
375.78	400.23
375.97	423.64
376.17	484.49
376.37	470.45
376.56	414.27
376.76	404.91
376.95	397.89
377.15	409.59
377.35	395.55
377.54	423.64
377.74	425.98
377.93	409.59
378.13	390.87
378.33	409.59
378.52	435.34
378.72	430.66
378.91	393.21
379.11	365.12
379.31	379.17
379.50	430.66
379.70	442.36
379.89	390.87
380.09	325.33
380.28	414.27
380.48	414.27
380.68	341.72
380.87	402.57
381.07	365.12
381.26	454.06
381.46	428.32
381.65	423.64
381.85	376.83
382.04	411.93
382.24	425.98
382.43	351.08
382.63	409.59
382.83	409.59
383.02	355.76
383.22	423.64
383.41	383.85
383.61	491.51
383.80	390.87
384.00	365.12
384.19	388.53
384.39	334.70
384.58	435.34
384.78	418.96
384.97	388.53
385.17	315.97
385.36	353.42
385.56	423.64
385.75	397.89
385.95	390.87
386.14	393.21
386.34	365.12
386.53	440.02
386.72	444.70
386.92	484.49
387.11	442.36
387.31	451.72
387.50	437.68
387.70	395.55
387.89	393.21
388.09	381.51
388.28	437.68
388.48	346.40
388.67	376.83
388.86	365.12
389.06	393.21
389.25	362.78
389.45	416.62
389.64	414.27
389.84	449.38
390.03	423.64
390.22	381.51
390.42	402.57
390.61	351.08
390.81	421.30
391.00	414.27
391.19	395.55
391.39	414.27
391.58	393.21
391.78	402.57
391.97	402.57
392.16	402.57
392.36	475.13
392.55	470.45
392.75	411.93
392.94	397.89
393.13	407.25
393.33	449.38
393.52	390.87
393.71	437.68
393.91	468.11
394.10	397.89
394.29	407.25
394.49	372.15
394.68	430.66
394.88	477.47
395.07	451.72
395.26	386.19
395.46	414.27
395.65	477.47
395.84	411.93
396.04	514.92
396.23	351.08
396.42	372.15
396.62	369.80
396.81	418.96
397.00	418.96
397.19	465.77
397.39	440.02
397.58	402.57
397.77	388.53
397.97	393.21
398.16	367.46
398.35	306.61
398.55	482.15
398.74	484.49
398.93	369.80
399.12	400.23
399.32	437.68
399.51	390.87
399.70	388.53
399.90	397.89
400.09	381.51
400.28	430.66
400.47	362.78
400.67	400.23
400.86	404.91
401.05	444.70
401.24	461.09
401.44	428.32
401.63	451.72
401.82	444.70
402.01	421.30
402.21	451.72
402.40	430.66
402.59	292.57
402.78	388.53
402.97	390.87
403.17	411.93
403.36	428.32
403.55	423.64
403.74	346.40
403.93	400.23
404.13	425.98
404.32	325.33
404.51	414.27
404.70	444.70
404.89	454.06
405.09	503.22
405.28	390.87
405.47	435.34
405.66	369.80
405.85	475.13
406.05	421.30
406.24	395.55
406.43	430.66
406.62	372.15
406.81	465.77
407.00	376.83
407.20	430.66
407.39	498.53
407.58	322.99
407.77	440.02
407.96	449.38
408.15	369.80
408.34	472.79
408.54	416.62
408.73	411.93
408.92	437.68
409.11	376.83
409.30	400.23
409.49	449.38
409.68	423.64
409.87	444.70
410.07	365.12
410.26	442.36
410.45	374.49
410.64	400.23
410.83	456.40
411.02	470.45
411.21	435.34
411.40	425.98
411.59	461.09
411.78	386.19
411.98	456.40
412.17	374.49
412.36	418.96
412.55	428.32
412.74	430.66
412.93	489.17
413.12	376.83
413.31	430.66
413.50	337.04
413.69	486.83
413.88	358.10
414.07	409.59
414.26	416.62
414.45	374.49
414.64	435.34
414.83	428.32
415.02	397.89
415.22	407.25
415.41	393.21
415.60	346.40
415.79	425.98
415.98	456.40
416.17	423.64
416.36	390.87
416.55	421.30
416.74	402.57
416.93	456.40
417.12	395.55
417.31	479.81
417.50	418.96
417.69	463.43
417.88	365.12
418.07	416.62
418.26	409.59
418.45	390.87
418.64	388.53
418.83	376.83
419.02	400.23
419.21	425.98
419.39	379.17
419.58	372.15
419.77	339.38
419.96	409.59
420.15	421.30
420.34	402.57
420.53	348.74
420.72	397.89
420.91	365.12
421.10	416.62
421.29	423.64
421.48	397.89
421.67	402.57
421.86	407.25
422.05	461.09
422.24	395.55
422.43	465.77
422.61	386.19
422.80	414.27
422.99	484.49
423.18	374.49
423.37	397.89
423.56	404.91
423.75	411.93
423.94	421.30
424.13	430.66
424.32	383.85
424.50	388.53
424.69	435.34
424.88	395.55
425.07	416.62
425.26	362.78
425.45	418.96
425.64	437.68
425.83	397.89
426.01	433.00
426.20	456.40
426.39	369.80
426.58	418.96
426.77	437.68
426.96	411.93
427.15	433.00
427.33	416.62
427.52	379.17
427.71	372.15
427.90	414.27
428.09	397.89
428.28	376.83
428.46	442.36
428.65	416.62
428.84	430.66
429.03	468.11
429.22	376.83
429.40	463.43
429.59	421.30
429.78	388.53
429.97	367.46
430.16	337.04
430.34	414.27
430.53	411.93
430.72	404.91
430.91	383.85
431.10	411.93
431.28	456.40
431.47	397.89
431.66	421.30
431.85	451.72
432.03	395.55
432.22	404.91
432.41	437.68
432.60	484.49
432.79	440.02
432.97	383.85
433.16	435.34
433.35	414.27
433.54	468.11
433.72	409.59
433.91	435.34
434.10	360.44
434.28	409.59
434.47	461.09
434.66	430.66
434.85	381.51
435.03	367.46
435.22	400.23
435.41	440.02
435.59	463.43
435.78	390.87
435.97	390.87
436.16	433.00
436.34	416.62
436.53	400.23
436.72	482.15
436.90	437.68
437.09	393.21
437.28	369.80
437.46	407.25
437.65	397.89
437.84	437.68
438.02	383.85
438.21	440.02
438.40	407.25
438.58	308.95
438.77	484.49
438.96	447.04
439.14	365.12
439.33	393.21
439.52	418.96
439.70	458.74
439.89	409.59
440.08	353.42
440.26	440.02
440.45	447.04
440.63	418.96
440.82	465.77
441.01	383.85
441.19	477.47
441.38	367.46
441.57	351.08
441.75	440.02
441.94	418.96
442.12	416.62
442.31	402.57
442.50	409.59
442.68	376.83
442.87	463.43
443.05	383.85
443.24	372.15
443.43	344.06
443.61	411.93
443.80	383.85
443.98	395.55
444.17	369.80
444.35	369.80
444.54	421.30
444.73	355.76
444.91	390.87
445.10	416.62
445.28	388.53
445.47	442.36
445.65	388.53
445.84	367.46
446.02	435.34
446.21	383.85
446.39	416.62
446.58	447.04
446.77	346.40
446.95	386.19
447.14	379.17
447.32	411.93
447.51	416.62
447.69	388.53
447.88	461.09
448.06	465.77
448.25	397.89
448.43	407.25
448.62	440.02
448.80	451.72
448.99	425.98
449.17	381.51
449.36	440.02
449.54	444.70
449.73	404.91
449.91	435.34
450.10	379.17
450.28	475.13
450.46	379.17
450.65	470.45
450.83	421.30
451.02	442.36
451.20	388.53
451.39	433.00
451.57	393.21
451.76	393.21
451.94	437.68
452.13	414.27
452.31	437.68
452.49	435.34
452.68	472.79
452.86	388.53
453.05	409.59
453.23	341.72
453.42	346.40
453.60	477.47
453.78	437.68
453.97	407.25
454.15	411.93
454.34	447.04
454.52	372.15
454.70	402.57
454.89	423.64
455.07	447.04
455.26	458.74
455.44	367.46
455.62	407.25
455.81	437.68
455.99	393.21
456.17	461.09
456.36	475.13
456.54	482.15
456.73	477.47
456.91	383.85
457.09	491.51
457.28	411.93
457.46	369.80
457.64	433.00
457.83	418.96
458.01	411.93
458.19	411.93
458.38	330.02
458.56	400.23
458.74	388.53
458.93	451.72
459.11	386.19
459.29	397.89
459.48	395.55
459.66	442.36
459.84	430.66
460.03	433.00
460.21	376.83
460.39	444.70
460.57	554.71
460.76	437.68
460.94	430.66
461.12	430.66
461.31	430.66
461.49	433.00
461.67	454.06
461.85	440.02
462.04	397.89
462.22	550.03
462.40	372.15
462.59	395.55
462.77	418.96
462.95	437.68
463.13	442.36
463.32	416.62
463.50	421.30
463.68	397.89
463.86	418.96
464.05	337.04
464.23	365.12
464.41	388.53
464.59	404.91
464.78	409.59
464.96	449.38
465.14	414.27
465.32	400.23
465.50	365.12
465.69	468.11
465.87	440.02
466.05	353.42
466.23	376.83
466.41	430.66
466.60	428.32
466.78	479.81
466.96	461.09
467.14	411.93
467.32	390.87
467.51	355.76
467.69	355.76
467.87	470.45
468.05	416.62
468.23	491.51
468.41	491.51
468.60	458.74
468.78	402.57
468.96	444.70
469.14	421.30
469.32	402.57
469.50	428.32
469.69	463.43
469.87	444.70
470.05	376.83
470.23	379.17
470.41	444.70
470.59	388.53
470.77	440.02
470.95	468.11
471.14	374.49
471.32	388.53
471.50	397.89
471.68	463.43
471.86	402.57
472.04	414.27
472.22	383.85
472.40	381.51
472.58	393.21
472.77	425.98
472.95	372.15
473.13	475.13
473.31	447.04
473.49	449.38
473.67	430.66
473.85	540.66
474.03	404.91
474.21	407.25
474.39	397.89
474.57	451.72
474.75	411.93
474.93	388.53
475.12	362.78
475.30	369.80
475.48	397.89
475.66	390.87
475.84	423.64
476.02	433.00
476.20	365.12
476.38	440.02
476.56	491.51
476.74	386.19
476.92	383.85
477.10	423.64
477.28	402.57
477.46	334.70
477.64	421.30
477.82	365.12
478.00	468.11
478.18	458.74
478.36	351.08
478.54	379.17
478.72	421.30
478.90	369.80
479.08	435.34
479.26	407.25
479.44	458.74
479.62	442.36
479.80	374.49
479.98	404.91
480.16	372.15
480.34	428.32
480.52	416.62
480.70	421.30
480.88	414.27
481.06	372.15
481.24	407.25
481.41	430.66
481.59	456.40
481.77	381.51
481.95	418.96
482.13	454.06
482.31	428.32
482.49	416.62
482.67	503.22
482.85	397.89
483.03	397.89
483.21	428.32
483.39	376.83
483.57	456.40
483.74	435.34
483.92	440.02
484.10	470.45
484.28	491.51
484.46	484.49
484.64	407.25
484.82	397.89
485.00	376.83
485.18	383.85
485.35	411.93
485.53	330.02
485.71	409.59
485.89	402.57
486.07	437.68
486.25	524.28
486.43	390.87
486.61	437.68
486.78	416.62
486.96	374.49
487.14	442.36
487.32	372.15
487.50	397.89
487.68	376.83
487.85	379.17
488.03	435.34
488.21	435.34
488.39	386.19
488.57	407.25
488.75	421.30
488.92	477.47
489.10	428.32
489.28	411.93
489.46	393.21
489.64	430.66
489.81	402.57
489.99	414.27
490.17	472.79
490.35	388.53
490.53	458.74
490.70	425.98
490.88	376.83
491.06	444.70
491.24	407.25
491.41	428.32
491.59	428.32
491.77	397.89
491.95	400.23
492.13	421.30
492.30	414.27
492.48	374.49
492.66	454.06
492.84	379.17
493.01	430.66
493.19	421.30
493.37	484.49
493.54	451.72
493.72	374.49
493.90	393.21
494.08	383.85
494.25	411.93
494.43	433.00
494.61	402.57
494.79	407.25
494.96	362.78
495.14	496.19
495.32	430.66
495.49	383.85
495.67	409.59
495.85	360.44
496.02	418.96
496.20	456.40
496.38	395.55
496.55	374.49
496.73	421.30
496.91	407.25
497.09	379.17
497.26	430.66
497.44	444.70
497.62	393.21
497.79	444.70
497.97	404.91
498.14	360.44
498.32	397.89
498.50	437.68
498.67	440.02
498.85	503.22
499.03	418.96
499.20	505.56
499.38	425.98
499.56	339.38
499.73	510.24
499.91	423.64
500.08	411.93
500.26	486.83
500.44	397.89
500.61	414.27
500.79	402.57
500.97	505.56
501.14	463.43
501.32	358.10
501.49	362.78
501.67	409.59
501.84	442.36
502.02	327.68
502.20	409.59
502.37	442.36
502.55	383.85
502.72	430.66
502.90	449.38
503.07	409.59
503.25	447.04
503.43	351.08
503.60	421.30
503.78	346.40
503.95	379.17
504.13	395.55
504.30	423.64
504.48	425.98
504.65	454.06
504.83	418.96
505.01	379.17
505.18	367.46
505.36	383.85
505.53	369.80
505.71	435.34
505.88	409.59
506.06	390.87
506.23	393.21
506.41	402.57
506.58	330.02
506.76	386.19
506.93	433.00
507.11	355.76
507.28	381.51
507.46	388.53
507.63	440.02
507.81	444.70
507.98	383.85
508.16	383.85
508.33	421.30
508.50	379.17
508.68	409.59
508.85	388.53
509.03	430.66
509.20	421.30
509.38	411.93
509.55	393.21
509.73	428.32
509.90	409.59
510.08	379.17
510.25	435.34
510.42	318.31
510.60	447.04
510.77	430.66
510.95	423.64
511.12	407.25
511.30	400.23
511.47	428.32
511.64	449.38
511.82	386.19
511.99	390.87
512.17	348.74
512.34	330.02
512.51	400.23
512.69	456.40
512.86	447.04
513.04	433.00
513.21	430.66
513.38	348.74
513.56	388.53
513.73	421.30
513.90	411.93
514.08	315.97
514.25	433.00
514.43	465.77
514.60	400.23
514.77	423.64
514.95	447.04
515.12	433.00
515.29	416.62
515.47	402.57
515.64	400.23
515.81	411.93
515.99	435.34
516.16	416.62
516.33	461.09
516.51	416.62
516.68	409.59
516.85	454.06
517.03	381.51
517.20	358.10
517.37	463.43
517.54	435.34
517.72	425.98
517.89	402.57
518.06	355.76
518.24	507.90
518.41	393.21
518.58	404.91
518.75	416.62
518.93	407.25
519.10	433.00
519.27	461.09
519.45	433.00
519.62	470.45
519.79	393.21
519.96	379.17
520.14	428.32
520.31	440.02
520.48	416.62
520.65	397.89
520.83	458.74
521.00	383.85
521.17	447.04
521.34	358.10
521.52	365.12
521.69	390.87
521.86	414.27
522.03	379.17
522.20	463.43
522.38	388.53
522.55	315.97
522.72	402.57
522.89	451.72
523.07	477.47
523.24	393.21
523.41	365.12
523.58	437.68
523.75	386.19
523.92	374.49
524.10	456.40
524.27	372.15
524.44	395.55
524.61	411.93
524.78	388.53
524.96	444.70
525.13	299.59
525.30	407.25
525.47	449.38
525.64	454.06
525.81	367.46
525.98	465.77
526.16	395.55
526.33	440.02
526.50	449.38
526.67	421.30
526.84	397.89
527.01	428.32
527.18	393.21
527.36	414.27
527.53	428.32
527.70	430.66
527.87	414.27
528.04	425.98
528.21	362.78
528.38	421.30
528.55	486.83
528.72	496.19
528.89	489.17
529.07	437.68
529.24	414.27
529.41	465.77
529.58	470.45
529.75	416.62
529.92	421.30
530.09	423.64
530.26	407.25
530.43	397.89
530.60	433.00
530.77	433.00
530.94	470.45
531.11	442.36
531.28	425.98
531.46	358.10
531.63	458.74
531.80	376.83
531.97	369.80
532.14	395.55
532.31	454.06
532.48	421.30
532.65	400.23
532.82	409.59
532.99	393.21
533.16	411.93
533.33	416.62
533.50	376.83
533.67	367.46
533.84	461.09
534.01	433.00
534.18	428.32
534.35	444.70
534.52	449.38
534.69	444.70
534.86	428.32
535.03	447.04
535.20	428.32
535.37	402.57
535.54	414.27
535.71	454.06
535.88	486.83
536.05	376.83
536.22	433.00
536.38	433.00
536.55	404.91
536.72	477.47
536.89	379.17
537.06	348.74
537.23	308.95
537.40	379.17
537.57	433.00
537.74	475.13
537.91	496.19
538.08	372.15
538.25	374.49
538.42	379.17
538.59	386.19
538.75	395.55
538.92	374.49
539.09	477.47
539.26	376.83
539.43	479.81
539.60	428.32
539.77	463.43
539.94	414.27
540.11	435.34
540.28	505.56
540.44	505.56
540.61	409.59
540.78	407.25
540.95	454.06
541.12	442.36
541.29	418.96
541.46	409.59
541.62	421.30
541.79	379.17
541.96	416.62
542.13	393.21
542.30	353.42
542.47	386.19
542.63	477.47
542.80	442.36
542.97	400.23
543.14	393.21
543.31	404.91
543.48	461.09
543.64	421.30
543.81	489.17
543.98	444.70
544.15	376.83
544.32	395.55
544.48	433.00
544.65	381.51
544.82	477.47
544.99	400.23
545.16	383.85
545.32	402.57
545.49	423.64
545.66	376.83
545.83	388.53
546.00	344.06
546.16	327.68
546.33	351.08
546.50	418.96
546.67	510.24
546.83	449.38
547.00	344.06
547.17	351.08
547.34	428.32
547.50	421.30
547.67	437.68
547.84	393.21
548.00	470.45
548.17	451.72
548.34	447.04
548.51	421.30
548.67	456.40
548.84	449.38
549.01	442.36
549.18	397.89
549.34	498.53
549.51	440.02
549.68	505.56
549.84	491.51
550.01	411.93
550.18	468.11
550.34	456.40
550.51	421.30
550.68	418.96
550.84	430.66
551.01	367.46
551.18	390.87
551.34	402.57
551.51	395.55
551.68	449.38
551.84	437.68
552.01	400.23
552.18	447.04
552.34	411.93
552.51	407.25
552.68	440.02
552.84	407.25
553.01	395.55
553.18	395.55
553.34	456.40
553.51	447.04
553.67	437.68
553.84	468.11
554.01	414.27
554.17	442.36
554.34	430.66
554.51	386.19
554.67	437.68
554.84	447.04
555.00	454.06
555.17	395.55
555.33	381.51
555.50	414.27
555.67	468.11
555.83	407.25
556.00	414.27
556.16	503.22
556.33	440.02
556.50	428.32
556.66	416.62
556.83	388.53
556.99	425.98
557.16	383.85
557.32	353.42
557.49	468.11
557.65	407.25
557.82	372.15
557.98	440.02
558.15	416.62
558.32	428.32
558.48	393.21
558.65	334.70
558.81	404.91
558.98	383.85
559.14	425.98
559.31	437.68
559.47	358.10
559.64	418.96
559.80	458.74
559.97	402.57
560.13	393.21
560.30	383.85
560.46	447.04
560.63	437.68
560.79	407.25
560.96	318.31
561.12	365.12
561.29	423.64
561.45	393.21
561.61	491.51
561.78	519.60
561.94	381.51
562.11	489.17
562.27	395.55
562.44	379.17
562.60	416.62
562.77	425.98
562.93	535.98
563.10	435.34
563.26	442.36
563.42	407.25
563.59	435.34
563.75	407.25
563.92	526.62
564.08	400.23
564.24	449.38
564.41	472.79
564.57	440.02
564.74	390.87
564.90	468.11
565.07	444.70
565.23	421.30
565.39	435.34
565.56	461.09
565.72	425.98
565.88	404.91
566.05	416.62
566.21	482.15
566.38	416.62
566.54	418.96
566.70	421.30
566.87	330.02
567.03	449.38
567.19	376.83
567.36	376.83
567.52	390.87
567.68	451.72
567.85	404.91
568.01	430.66
568.17	433.00
568.34	433.00
568.50	423.64
568.66	414.27
568.83	528.96
568.99	367.46
569.15	414.27
569.32	414.27
569.48	397.89
569.64	409.59
569.81	454.06
569.97	496.19
570.13	468.11
570.30	435.34
570.46	425.98
570.62	395.55
570.78	421.30
570.95	447.04
571.11	465.77
571.27	440.02
571.43	482.15
571.60	491.51
571.76	416.62
571.92	463.43
572.09	440.02
572.25	451.72
572.41	425.98
572.57	425.98
572.74	510.24
572.90	430.66
573.06	449.38
573.22	435.34
573.38	402.57
573.55	437.68
573.71	397.89
573.87	451.72
574.03	379.17
574.20	411.93
574.36	388.53
574.52	355.76
574.68	421.30
574.84	390.87
575.01	430.66
575.17	383.85
575.33	456.40
575.49	465.77
575.65	402.57
575.82	496.19
575.98	383.85
576.14	404.91
576.30	447.04
576.46	444.70
576.62	472.79
576.79	435.34
576.95	472.79
577.11	320.65
577.27	402.57
577.43	393.21
577.59	400.23
577.75	414.27
577.92	390.87
578.08	407.25
578.24	416.62
578.40	404.91
578.56	468.11
578.72	458.74
578.88	390.87
579.04	372.15
579.21	440.02
579.37	449.38
579.53	435.34
579.69	472.79
579.85	433.00
580.01	440.02
580.17	411.93
580.33	386.19
580.49	376.83
580.65	435.34
580.82	428.32
580.98	433.00
581.14	407.25
581.30	517.26
581.46	416.62
581.62	369.80
581.78	442.36
581.94	479.81
582.10	425.98
582.26	425.98
582.42	344.06
582.58	423.64
582.74	437.68
582.90	369.80
583.06	449.38
583.22	491.51
583.38	383.85
583.54	402.57
583.70	369.80
583.86	379.17
584.02	433.00
584.18	409.59
584.34	390.87
584.50	428.32
584.66	430.66
584.82	435.34
584.98	402.57
585.14	428.32
585.30	404.91
585.46	397.89
585.62	402.57
585.78	454.06
585.94	484.49
586.10	386.19
586.26	454.06
586.42	435.34
586.58	423.64
586.74	337.04
586.90	468.11
587.06	524.28
587.22	346.40
587.38	386.19
587.54	358.10
587.70	470.45
587.86	435.34
588.02	411.93
588.18	332.36
588.34	440.02
588.49	374.49
588.65	433.00
588.81	489.17
588.97	395.55
589.13	458.74
589.29	376.83
589.45	386.19
589.61	428.32
589.77	425.98
589.93	397.89
590.08	360.44
590.24	475.13
590.40	383.85
590.56	421.30
590.72	402.57
590.88	425.98
591.04	421.30
591.20	449.38
591.35	468.11
591.51	362.78
591.67	477.47
591.83	458.74
591.99	418.96
592.15	463.43
592.31	454.06
592.46	454.06
592.62	428.32
592.78	416.62
592.94	402.57
593.10	421.30
593.26	381.51
593.41	498.53
593.57	440.02
593.73	425.98
593.89	491.51
594.05	411.93
594.20	430.66
594.36	430.66
594.52	440.02
594.68	458.74
594.84	428.32
594.99	484.49
595.15	383.85
595.31	437.68
595.47	482.15
595.62	400.23
595.78	433.00
595.94	383.85
596.10	433.00
596.25	423.64
596.41	454.06
596.57	454.06
596.73	379.17
596.88	369.80
597.04	383.85
597.20	456.40
597.36	428.32
597.51	397.89
597.67	390.87
597.83	454.06
597.99	404.91
598.14	388.53
598.30	475.13
598.46	404.91
598.61	428.32
598.77	444.70
598.93	390.87
599.09	390.87
599.24	411.93
599.40	440.02
599.56	465.77
599.71	388.53
599.87	465.77
600.03	454.06
600.18	433.00
600.34	489.17
600.50	428.32
600.65	463.43
600.81	454.06
600.97	369.80
601.12	379.17
601.28	437.68
601.44	402.57
601.59	409.59
601.75	484.49
601.91	358.10
602.06	470.45
602.22	425.98
602.37	421.30
602.53	365.12
602.69	374.49
602.84	362.78
603.00	369.80
603.16	414.27
603.31	381.51
603.47	416.62
603.62	383.85
603.78	428.32
603.94	447.04
604.09	402.57
604.25	400.23
604.40	454.06
604.56	463.43
604.71	454.06
604.87	425.98
605.03	407.25
605.18	376.83
605.34	451.72
605.49	418.96
605.65	449.38
605.80	428.32
605.96	348.74
606.12	409.59
606.27	433.00
606.43	433.00
606.58	390.87
606.74	376.83
606.89	444.70
607.05	358.10
607.20	456.40
607.36	437.68
607.51	444.70
607.67	437.68
607.82	393.21
607.98	414.27
608.13	381.51
608.29	376.83
608.44	505.56
608.60	418.96
608.75	423.64
608.91	379.17
609.06	437.68
609.22	472.79
609.37	479.81
609.53	397.89
609.68	454.06
609.84	442.36
609.99	414.27
610.15	437.68
