SpectraSuite Data File
++++++++++++++++++++++++++++++++++++
Date: Fri Oct 25 12:11:14 EDT 2013
User: price-jones
Dark Spectrum Present: No
Reference Spectrum Present: No
Number of Sampled Component Spectra: 1
Spectrometers: USB2+H05261
Integration Time (usec): 100000 (USB2+H05261)
Spectra Averaged: 1 (USB2+H05261)
Boxcar Smoothing: 0 (USB2+H05261)
Correct for Electrical Dark: No (USB2+H05261)
Strobe/Lamp Enabled: No (USB2+H05261)
Correct for Detector Non-linearity: No (USB2+H05261)
Correct for Stray Light: No (USB2+H05261)
Number of Pixels in Processed Spectrum: 2048
>>>>>Begin Processed Spectral Data<<<<<
365.73	355.76
365.92	355.76
366.12	355.76
366.32	201.29
366.52	217.67
366.72	257.46
366.91	259.80
367.11	182.56
367.31	224.69
367.51	269.16
367.70	236.39
367.90	180.22
368.10	325.33
368.30	224.69
368.49	276.18
368.69	248.10
368.89	269.16
369.09	290.23
369.28	278.52
369.48	262.14
369.68	313.63
369.87	327.68
370.07	259.80
370.27	400.23
370.47	362.78
370.66	337.04
370.86	383.85
371.06	311.29
371.25	414.27
371.45	430.66
371.65	367.46
371.84	416.62
372.04	313.63
372.24	437.68
372.44	374.49
372.63	379.17
372.83	381.51
373.03	344.06
373.22	409.59
373.42	393.21
373.62	414.27
373.81	381.51
374.01	397.89
374.21	491.51
374.40	458.74
374.60	395.55
374.79	414.27
374.99	393.21
375.19	334.70
375.38	437.68
375.58	400.23
375.78	468.11
375.97	332.36
376.17	489.17
376.37	395.55
376.56	386.19
376.76	379.17
376.95	425.98
377.15	416.62
377.35	395.55
377.54	395.55
377.74	475.13
377.93	397.89
378.13	430.66
378.33	437.68
378.52	418.96
378.72	449.38
378.91	353.42
379.11	451.72
379.31	425.98
379.50	374.49
379.70	393.21
379.89	477.47
380.09	341.72
380.28	404.91
380.48	440.02
380.68	414.27
380.87	409.59
381.07	472.79
381.26	440.02
381.46	402.57
381.65	449.38
381.85	393.21
382.04	393.21
382.24	423.64
382.43	454.06
382.63	444.70
382.83	360.44
383.02	491.51
383.22	437.68
383.41	381.51
383.61	442.36
383.80	337.04
384.00	440.02
384.19	337.04
384.39	421.30
384.58	390.87
384.78	365.12
384.97	430.66
385.17	383.85
385.36	414.27
385.56	367.46
385.75	348.74
385.95	479.81
386.14	425.98
386.34	435.34
386.53	369.80
386.72	386.19
386.92	386.19
387.11	468.11
387.31	458.74
387.50	393.21
387.70	456.40
387.89	348.74
388.09	360.44
388.28	404.91
388.48	383.85
388.67	402.57
388.86	365.12
389.06	409.59
389.25	407.25
389.45	379.17
389.64	411.93
389.84	470.45
390.03	414.27
390.22	421.30
390.42	465.77
390.61	437.68
390.81	458.74
391.00	381.51
391.19	435.34
391.39	400.23
391.58	416.62
391.78	402.57
391.97	421.30
392.16	414.27
392.36	491.51
392.55	465.77
392.75	411.93
392.94	372.15
393.13	425.98
393.33	447.04
393.52	400.23
393.71	456.40
393.91	304.27
394.10	407.25
394.29	418.96
394.49	381.51
394.68	404.91
394.88	479.81
395.07	393.21
395.26	362.78
395.46	421.30
395.65	344.06
395.84	447.04
396.04	451.72
396.23	428.32
396.42	400.23
396.62	411.93
396.81	437.68
397.00	393.21
397.19	395.55
397.39	374.49
397.58	416.62
397.77	386.19
397.97	372.15
398.16	393.21
398.35	351.08
398.55	400.23
398.74	461.09
398.93	465.77
399.12	437.68
399.32	451.72
399.51	358.10
399.70	407.25
399.90	430.66
400.09	411.93
400.28	386.19
400.47	425.98
400.67	407.25
400.86	379.17
401.05	421.30
401.24	393.21
401.44	395.55
401.63	421.30
401.82	430.66
402.01	397.89
402.21	433.00
402.40	418.96
402.59	372.15
402.78	351.08
402.97	425.98
403.17	465.77
403.36	435.34
403.55	395.55
403.74	383.85
403.93	433.00
404.13	416.62
404.32	425.98
404.51	376.83
404.70	430.66
404.89	400.23
405.09	444.70
405.28	386.19
405.47	425.98
405.66	451.72
405.85	367.46
406.05	365.12
406.24	379.17
406.43	395.55
406.62	430.66
406.81	491.51
407.00	468.11
407.20	430.66
407.39	442.36
407.58	397.89
407.77	484.49
407.96	416.62
408.15	379.17
408.34	430.66
408.54	339.38
408.73	430.66
408.92	372.15
409.11	414.27
409.30	393.21
409.49	409.59
409.68	348.74
409.87	400.23
410.07	423.64
410.26	397.89
410.45	421.30
410.64	437.68
410.83	428.32
411.02	444.70
411.21	447.04
411.40	390.87
411.59	414.27
411.78	390.87
411.98	379.17
412.17	407.25
412.36	393.21
412.55	386.19
412.74	414.27
412.93	461.09
413.12	435.34
413.31	397.89
413.50	388.53
413.69	379.17
413.88	414.27
414.07	390.87
414.26	372.15
414.45	416.62
414.64	397.89
414.83	463.43
415.02	484.49
415.22	435.34
415.41	437.68
415.60	458.74
415.79	397.89
415.98	395.55
416.17	433.00
416.36	388.53
416.55	449.38
416.74	477.47
416.93	416.62
417.12	327.68
417.31	383.85
417.50	433.00
417.69	510.24
417.88	388.53
418.07	395.55
418.26	411.93
418.45	407.25
418.64	510.24
418.83	433.00
419.02	407.25
419.21	404.91
419.39	444.70
419.58	454.06
419.77	397.89
419.96	425.98
420.15	383.85
420.34	372.15
420.53	421.30
420.72	463.43
420.91	442.36
421.10	465.77
421.29	381.51
421.48	449.38
421.67	409.59
421.86	367.46
422.05	355.76
422.24	472.79
422.43	379.17
422.61	454.06
422.80	400.23
422.99	400.23
423.18	355.76
423.37	418.96
423.56	381.51
423.75	433.00
423.94	355.76
424.13	433.00
424.32	414.27
424.50	418.96
424.69	421.30
424.88	416.62
425.07	465.77
425.26	433.00
425.45	411.93
425.64	402.57
425.83	369.80
426.01	475.13
426.20	358.10
426.39	458.74
426.58	393.21
426.77	407.25
426.96	397.89
427.15	383.85
427.33	428.32
427.52	404.91
427.71	404.91
427.90	388.53
428.09	339.38
428.28	437.68
428.46	430.66
428.65	341.72
428.84	458.74
429.03	465.77
429.22	416.62
429.40	388.53
429.59	418.96
429.78	447.04
429.97	411.93
430.16	404.91
430.34	440.02
430.53	461.09
430.72	444.70
430.91	447.04
431.10	395.55
431.28	409.59
431.47	414.27
431.66	430.66
431.85	362.78
432.03	479.81
432.22	463.43
432.41	334.70
432.60	407.25
432.79	379.17
432.97	407.25
433.16	440.02
433.35	409.59
433.54	463.43
433.72	376.83
433.91	456.40
434.10	416.62
434.28	433.00
434.47	416.62
434.66	440.02
434.85	468.11
435.03	379.17
435.22	498.53
435.41	360.44
435.59	325.33
435.78	402.57
435.97	435.34
436.16	407.25
436.34	433.00
436.53	458.74
436.72	428.32
436.90	395.55
437.09	486.83
437.28	465.77
437.46	442.36
437.65	461.09
437.84	397.89
438.02	472.79
438.21	440.02
438.40	435.34
438.58	425.98
438.77	355.76
438.96	435.34
439.14	353.42
439.33	409.59
439.52	376.83
439.70	470.45
439.89	423.64
440.08	447.04
440.26	433.00
440.45	437.68
440.63	470.45
440.82	381.51
441.01	346.40
441.19	388.53
441.38	407.25
441.57	463.43
441.75	449.38
441.94	411.93
442.12	393.21
442.31	425.98
442.50	451.72
442.68	430.66
442.87	463.43
443.05	463.43
443.24	418.96
443.43	369.80
443.61	418.96
443.80	367.46
443.98	407.25
444.17	383.85
444.35	381.51
444.54	411.93
444.73	372.15
444.91	435.34
445.10	447.04
445.28	425.98
445.47	372.15
445.65	472.79
445.84	411.93
446.02	423.64
446.21	430.66
446.39	341.72
446.58	437.68
446.77	397.89
446.95	402.57
447.14	402.57
447.32	498.53
447.51	395.55
447.69	400.23
447.88	491.51
448.06	440.02
448.25	423.64
448.43	404.91
448.62	353.42
448.80	447.04
448.99	423.64
449.17	388.53
449.36	407.25
449.54	341.72
449.73	414.27
449.91	465.77
450.10	433.00
450.28	491.51
450.46	414.27
450.65	400.23
450.83	334.70
451.02	393.21
451.20	458.74
451.39	402.57
451.57	362.78
451.76	482.15
451.94	447.04
452.13	414.27
452.31	461.09
452.49	409.59
452.68	400.23
452.86	414.27
453.05	430.66
453.23	395.55
453.42	425.98
453.60	383.85
453.78	437.68
453.97	360.44
454.15	444.70
454.34	447.04
454.52	393.21
454.70	435.34
454.89	454.06
455.07	395.55
455.26	454.06
455.44	414.27
455.62	416.62
455.81	458.74
455.99	433.00
456.17	433.00
456.36	388.53
456.54	430.66
456.73	346.40
456.91	470.45
457.09	397.89
457.28	449.38
457.46	458.74
457.64	472.79
457.83	411.93
458.01	437.68
458.19	454.06
458.38	393.21
458.56	447.04
458.74	358.10
458.93	397.89
459.11	437.68
459.29	386.19
459.48	418.96
459.66	449.38
459.84	400.23
460.03	517.26
460.21	449.38
460.39	374.49
460.57	418.96
460.76	374.49
460.94	397.89
461.12	489.17
461.31	440.02
461.49	409.59
461.67	407.25
461.85	404.91
462.04	397.89
462.22	730.25
462.40	372.15
462.59	423.64
462.77	367.46
462.95	451.72
463.13	348.74
463.32	435.34
463.50	402.57
463.68	402.57
463.86	414.27
464.05	435.34
464.23	435.34
464.41	456.40
464.59	421.30
464.78	407.25
464.96	461.09
465.14	430.66
465.32	393.21
465.50	374.49
465.69	407.25
465.87	374.49
466.05	388.53
466.23	393.21
466.41	395.55
466.60	383.85
466.78	458.74
466.96	447.04
467.14	479.81
467.32	458.74
467.51	470.45
467.69	404.91
467.87	489.17
468.05	397.89
468.23	458.74
468.41	414.27
468.60	411.93
468.78	393.21
468.96	477.47
469.14	355.76
469.32	400.23
469.50	482.15
469.69	463.43
469.87	416.62
470.05	451.72
470.23	416.62
470.41	393.21
470.59	433.00
470.77	486.83
470.95	344.06
471.14	388.53
471.32	397.89
471.50	468.11
471.68	425.98
471.86	414.27
472.04	416.62
472.22	388.53
472.40	414.27
472.58	407.25
472.77	451.72
472.95	444.70
473.13	477.47
473.31	465.77
473.49	381.51
473.67	360.44
473.85	393.21
474.03	461.09
474.21	428.32
474.39	386.19
474.57	484.49
474.75	461.09
474.93	355.76
475.12	397.89
475.30	454.06
475.48	337.04
475.66	407.25
475.84	423.64
476.02	369.80
476.20	479.81
476.38	390.87
476.56	447.04
476.74	442.36
476.92	367.46
477.10	402.57
477.28	383.85
477.46	425.98
477.64	451.72
477.82	447.04
478.00	437.68
478.18	442.36
478.36	472.79
478.54	362.78
478.72	463.43
478.90	433.00
479.08	458.74
479.26	451.72
479.44	383.85
479.62	369.80
479.80	416.62
479.98	421.30
480.16	397.89
480.34	409.59
480.52	372.15
480.70	440.02
480.88	435.34
481.06	461.09
481.24	423.64
481.41	414.27
481.59	479.81
481.77	376.83
481.95	470.45
482.13	449.38
482.31	423.64
482.49	376.83
482.67	407.25
482.85	472.79
483.03	421.30
483.21	451.72
483.39	407.25
483.57	411.93
483.74	440.02
483.92	411.93
484.10	465.77
484.28	489.17
484.46	498.53
484.64	433.00
484.82	430.66
485.00	372.15
485.18	416.62
485.35	425.98
485.53	442.36
485.71	395.55
485.89	362.78
486.07	428.32
486.25	428.32
486.43	390.87
486.61	442.36
486.78	409.59
486.96	409.59
487.14	437.68
487.32	383.85
487.50	400.23
487.68	479.81
487.85	376.83
488.03	414.27
488.21	414.27
488.39	425.98
488.57	444.70
488.75	447.04
488.92	552.37
489.10	400.23
489.28	428.32
489.46	388.53
489.64	477.47
489.81	402.57
489.99	449.38
490.17	416.62
490.35	416.62
490.53	486.83
490.70	404.91
490.88	468.11
491.06	442.36
491.24	475.13
491.41	433.00
491.59	418.96
491.77	440.02
491.95	376.83
492.13	449.38
492.30	374.49
492.48	444.70
492.66	362.78
492.84	393.21
493.01	442.36
493.19	409.59
493.37	388.53
493.54	442.36
493.72	454.06
493.90	425.98
494.08	327.68
494.25	393.21
494.43	524.28
494.61	351.08
494.79	386.19
494.96	325.33
495.14	407.25
495.32	437.68
495.49	393.21
495.67	477.47
495.85	463.43
496.02	388.53
496.20	433.00
496.38	397.89
496.55	407.25
496.73	395.55
496.91	418.96
497.09	428.32
497.26	472.79
497.44	437.68
497.62	416.62
497.79	402.57
497.97	414.27
498.14	315.97
498.32	416.62
498.50	428.32
498.67	318.31
498.85	449.38
499.03	449.38
499.20	397.89
499.38	475.13
499.56	449.38
499.73	404.91
499.91	428.32
500.08	440.02
500.26	369.80
500.44	395.55
500.61	500.87
500.79	395.55
500.97	444.70
501.14	468.11
501.32	428.32
501.49	521.94
501.67	465.77
501.84	360.44
502.02	386.19
502.20	341.72
502.37	393.21
502.55	374.49
502.72	449.38
502.90	404.91
503.07	332.36
503.25	393.21
503.43	428.32
503.60	402.57
503.78	407.25
503.95	395.55
504.13	376.83
504.30	395.55
504.48	397.89
504.65	468.11
504.83	477.47
505.01	402.57
505.18	425.98
505.36	456.40
505.53	393.21
505.71	454.06
505.88	500.87
506.06	322.99
506.23	348.74
506.41	430.66
506.58	404.91
506.76	416.62
506.93	451.72
507.11	351.08
507.28	423.64
507.46	425.98
507.63	418.96
507.81	430.66
507.98	369.80
508.16	421.30
508.33	402.57
508.50	447.04
508.68	435.34
508.85	393.21
509.03	395.55
509.20	423.64
509.38	456.40
509.55	447.04
509.73	468.11
509.90	425.98
510.08	390.87
510.25	456.40
510.42	425.98
510.60	379.17
510.77	346.40
510.95	395.55
511.12	465.77
511.30	435.34
511.47	395.55
511.64	409.59
511.82	463.43
511.99	430.66
512.17	423.64
512.34	360.44
512.51	454.06
512.69	461.09
512.86	414.27
513.04	428.32
513.21	337.04
513.38	379.17
513.56	379.17
513.73	425.98
513.90	407.25
514.08	407.25
514.25	409.59
514.43	376.83
514.60	437.68
514.77	442.36
514.95	400.23
515.12	423.64
515.29	404.91
515.47	383.85
515.64	360.44
515.81	456.40
515.99	411.93
516.16	440.02
516.33	498.53
516.51	425.98
516.68	390.87
516.85	395.55
517.03	458.74
517.20	400.23
517.37	407.25
517.54	372.15
517.72	416.62
517.89	423.64
518.06	397.89
518.24	428.32
518.41	449.38
518.58	491.51
518.75	447.04
518.93	395.55
519.10	348.74
519.27	383.85
519.45	465.77
519.62	400.23
519.79	402.57
519.96	440.02
520.14	451.72
520.31	386.19
520.48	440.02
520.65	440.02
520.83	383.85
521.00	456.40
521.17	423.64
521.34	428.32
521.52	414.27
521.69	463.43
521.86	472.79
522.03	449.38
522.20	507.90
522.38	372.15
522.55	365.12
522.72	355.76
522.89	468.11
523.07	383.85
523.24	402.57
523.41	414.27
523.58	421.30
523.75	416.62
523.92	402.57
524.10	449.38
524.27	397.89
524.44	463.43
524.61	440.02
524.78	379.17
524.96	447.04
525.13	365.12
525.30	437.68
525.47	411.93
525.64	411.93
525.81	390.87
525.98	425.98
526.16	430.66
526.33	435.34
526.50	362.78
526.67	348.74
526.84	397.89
527.01	472.79
527.18	416.62
527.36	362.78
527.53	393.21
527.70	418.96
527.87	390.87
528.04	407.25
528.21	416.62
528.38	397.89
528.55	423.64
528.72	500.87
528.89	430.66
529.07	407.25
529.24	421.30
529.41	383.85
529.58	388.53
529.75	421.30
529.92	362.78
530.09	421.30
530.26	458.74
530.43	472.79
530.60	449.38
530.77	470.45
530.94	447.04
531.11	393.21
531.28	395.55
531.46	458.74
531.63	430.66
531.80	449.38
531.97	442.36
532.14	383.85
532.31	395.55
532.48	442.36
532.65	414.27
532.82	421.30
532.99	421.30
533.16	416.62
533.33	414.27
533.50	393.21
533.67	400.23
533.84	433.00
534.01	477.47
534.18	442.36
534.35	374.49
534.52	411.93
534.69	360.44
534.86	433.00
535.03	451.72
535.20	435.34
535.37	503.22
535.54	383.85
535.71	341.72
535.88	491.51
536.05	428.32
536.22	447.04
536.38	390.87
536.55	461.09
536.72	465.77
536.89	372.15
537.06	461.09
537.23	400.23
537.40	416.62
537.57	390.87
537.74	416.62
537.91	423.64
538.08	447.04
538.25	362.78
538.42	440.02
538.59	475.13
538.75	428.32
538.92	433.00
539.09	449.38
539.26	409.59
539.43	376.83
539.60	425.98
539.77	404.91
539.94	430.66
540.11	421.30
540.28	395.55
540.44	409.59
540.61	388.53
540.78	442.36
540.95	416.62
541.12	454.06
541.29	390.87
541.46	451.72
541.62	440.02
541.79	425.98
541.96	423.64
542.13	381.51
542.30	383.85
542.47	374.49
542.63	365.12
542.80	442.36
542.97	374.49
543.14	451.72
543.31	414.27
543.48	437.68
543.64	435.34
543.81	461.09
543.98	477.47
544.15	440.02
544.32	444.70
544.48	337.04
544.65	477.47
544.82	379.17
544.99	367.46
545.16	379.17
545.32	374.49
545.49	362.78
545.66	360.44
545.83	372.15
546.00	381.51
546.16	463.43
546.33	411.93
546.50	479.81
546.67	456.40
546.83	451.72
547.00	423.64
547.17	395.55
547.34	465.77
547.50	458.74
547.67	444.70
547.84	479.81
548.00	435.34
548.17	388.53
548.34	414.27
548.51	425.98
548.67	414.27
548.84	411.93
549.01	393.21
549.18	428.32
549.34	444.70
549.51	369.80
549.68	381.51
549.84	428.32
550.01	372.15
550.18	479.81
550.34	468.11
550.51	395.55
550.68	433.00
550.84	435.34
551.01	496.19
551.18	428.32
551.34	456.40
551.51	440.02
551.68	421.30
551.84	442.36
552.01	430.66
552.18	449.38
552.34	386.19
552.51	369.80
552.68	454.06
552.84	409.59
553.01	425.98
553.18	465.77
553.34	414.27
553.51	346.40
553.67	416.62
553.84	404.91
554.01	477.47
554.17	465.77
554.34	355.76
554.51	465.77
554.67	472.79
554.84	461.09
555.00	414.27
555.17	430.66
555.33	451.72
555.50	437.68
555.67	423.64
555.83	411.93
556.00	435.34
556.16	479.81
556.33	425.98
556.50	414.27
556.66	447.04
556.83	449.38
556.99	400.23
557.16	374.49
557.32	526.62
557.49	379.17
557.65	379.17
557.82	334.70
557.98	451.72
558.15	456.40
558.32	433.00
558.48	411.93
558.65	353.42
558.81	425.98
558.98	433.00
559.14	468.11
559.31	381.51
559.47	409.59
559.64	376.83
559.80	341.72
559.97	393.21
560.13	390.87
560.30	388.53
560.46	411.93
560.63	414.27
560.79	374.49
560.96	425.98
561.12	449.38
561.29	390.87
561.45	454.06
561.61	409.59
561.78	456.40
561.94	379.17
562.11	433.00
562.27	479.81
562.44	383.85
562.60	379.17
562.77	421.30
562.93	479.81
563.10	428.32
563.26	418.96
563.42	433.00
563.59	447.04
563.75	402.57
563.92	489.17
564.08	411.93
564.24	386.19
564.41	491.51
564.57	430.66
564.74	430.66
564.90	395.55
565.07	496.19
565.23	433.00
565.39	444.70
565.56	393.21
565.72	337.04
565.88	447.04
566.05	449.38
566.21	435.34
566.38	437.68
566.54	421.30
566.70	418.96
566.87	411.93
567.03	395.55
567.19	369.80
567.36	418.96
567.52	416.62
567.68	435.34
567.85	395.55
568.01	435.34
568.17	393.21
568.34	423.64
568.50	430.66
568.66	447.04
568.83	468.11
568.99	390.87
569.15	435.34
569.32	374.49
569.48	388.53
569.64	437.68
569.81	397.89
569.97	458.74
570.13	414.27
570.30	437.68
570.46	393.21
570.62	421.30
570.78	390.87
570.95	418.96
571.11	535.98
571.27	400.23
571.43	400.23
571.60	334.70
571.76	416.62
571.92	388.53
572.09	411.93
572.25	444.70
572.41	390.87
572.57	433.00
572.74	451.72
572.90	456.40
573.06	435.34
573.22	409.59
573.38	402.57
573.55	444.70
573.71	404.91
573.87	351.08
574.03	468.11
574.20	383.85
574.36	512.58
574.52	337.04
574.68	393.21
574.84	402.57
575.01	348.74
575.17	425.98
575.33	449.38
575.49	433.00
575.65	376.83
575.82	386.19
575.98	479.81
576.14	451.72
576.30	456.40
576.46	402.57
576.62	395.55
576.79	465.77
576.95	479.81
577.11	414.27
577.27	372.15
577.43	421.30
577.59	362.78
577.75	486.83
577.92	372.15
578.08	355.76
578.24	458.74
578.40	379.17
578.56	442.36
578.72	416.62
578.88	449.38
579.04	416.62
579.21	362.78
579.37	428.32
579.53	456.40
579.69	507.90
579.85	360.44
580.01	463.43
580.17	428.32
580.33	344.06
580.49	421.30
580.65	407.25
580.82	444.70
580.98	372.15
581.14	411.93
581.30	482.15
581.46	440.02
581.62	428.32
581.78	344.06
581.94	433.00
582.10	337.04
582.26	461.09
582.42	430.66
582.58	407.25
582.74	437.68
582.90	304.27
583.06	472.79
583.22	376.83
583.38	344.06
583.54	390.87
583.70	484.49
583.86	461.09
584.02	458.74
584.18	468.11
584.34	383.85
584.50	454.06
584.66	468.11
584.82	437.68
584.98	433.00
585.14	320.65
585.30	430.66
585.46	435.34
585.62	454.06
585.78	491.51
585.94	430.66
586.10	386.19
586.26	442.36
586.42	512.58
586.58	484.49
586.74	411.93
586.90	407.25
587.06	395.55
587.22	425.98
587.38	383.85
587.54	416.62
587.70	376.83
587.86	491.51
588.02	344.06
588.18	435.34
588.34	421.30
588.49	381.51
588.65	386.19
588.81	409.59
588.97	411.93
589.13	454.06
589.29	372.15
589.45	444.70
589.61	447.04
589.77	395.55
589.93	400.23
590.08	479.81
590.24	395.55
590.40	390.87
590.56	395.55
590.72	477.47
590.88	407.25
591.04	418.96
591.20	395.55
591.35	414.27
591.51	414.27
591.67	393.21
591.83	414.27
591.99	440.02
592.15	351.08
592.31	430.66
592.46	358.10
592.62	442.36
592.78	416.62
592.94	388.53
593.10	374.49
593.26	404.91
593.41	407.25
593.57	440.02
593.73	421.30
593.89	376.83
594.05	428.32
594.20	386.19
594.36	461.09
594.52	454.06
594.68	430.66
594.84	447.04
594.99	475.13
595.15	400.23
595.31	409.59
595.47	470.45
595.62	414.27
595.78	465.77
595.94	442.36
596.10	369.80
596.25	491.51
596.41	411.93
596.57	435.34
596.73	409.59
596.88	404.91
597.04	526.62
597.20	402.57
597.36	411.93
597.51	397.89
597.67	383.85
597.83	407.25
597.99	421.30
598.14	425.98
598.30	477.47
598.46	444.70
598.61	374.49
598.77	397.89
598.93	470.45
599.09	430.66
599.24	456.40
599.40	433.00
599.56	365.12
599.71	437.68
599.87	444.70
600.03	388.53
600.18	381.51
600.34	416.62
600.50	423.64
600.65	421.30
600.81	477.47
600.97	465.77
601.12	397.89
601.28	423.64
601.44	369.80
601.59	369.80
601.75	430.66
601.91	428.32
602.06	425.98
602.22	486.83
602.37	383.85
602.53	437.68
602.69	437.68
602.84	407.25
603.00	423.64
603.16	489.17
603.31	400.23
603.47	416.62
603.62	360.44
603.78	397.89
603.94	425.98
604.09	442.36
604.25	456.40
604.40	470.45
604.56	433.00
604.71	367.46
604.87	440.02
605.03	418.96
605.18	395.55
605.34	435.34
605.49	404.91
605.65	409.59
605.80	376.83
605.96	390.87
606.12	465.77
606.27	470.45
606.43	379.17
606.58	433.00
606.74	461.09
606.89	489.17
607.05	461.09
607.20	393.21
607.36	372.15
607.51	383.85
607.67	348.74
607.82	395.55
607.98	482.15
608.13	461.09
608.29	442.36
608.44	458.74
608.60	425.98
608.75	435.34
608.91	442.36
609.06	512.58
609.22	397.89
609.37	416.62
609.53	447.04
609.68	365.12
609.84	393.21
609.99	435.34
610.15	447.04
