SpectraSuite Data File
++++++++++++++++++++++++++++++++++++
Date: Fri Oct 25 12:10:32 EDT 2013
User: price-jones
Dark Spectrum Present: No
Reference Spectrum Present: No
Number of Sampled Component Spectra: 1
Spectrometers: USB2+H05261
Integration Time (usec): 100000 (USB2+H05261)
Spectra Averaged: 1 (USB2+H05261)
Boxcar Smoothing: 0 (USB2+H05261)
Correct for Electrical Dark: No (USB2+H05261)
Strobe/Lamp Enabled: No (USB2+H05261)
Correct for Detector Non-linearity: No (USB2+H05261)
Correct for Stray Light: No (USB2+H05261)
Number of Pixels in Processed Spectrum: 2048
>>>>>Begin Processed Spectral Data<<<<<
365.73	332.36
365.92	332.36
366.12	332.36
366.32	292.57
366.52	191.92
366.72	299.59
366.91	252.78
367.11	205.97
367.31	215.33
367.51	229.37
367.70	210.65
367.90	276.18
368.10	278.52
368.30	227.03
368.49	229.37
368.69	294.91
368.89	198.95
369.09	278.52
369.28	266.82
369.48	306.61
369.68	276.18
369.87	322.99
370.07	287.89
370.27	400.23
370.47	287.89
370.66	341.72
370.86	325.33
371.06	330.02
371.25	404.91
371.45	376.83
371.65	379.17
371.84	332.36
372.04	369.80
372.24	390.87
372.44	386.19
372.63	423.64
372.83	400.23
373.03	409.59
373.22	362.78
373.42	421.30
373.62	465.77
373.81	505.56
374.01	451.72
374.21	404.91
374.40	418.96
374.60	447.04
374.79	418.96
374.99	454.06
375.19	411.93
375.38	400.23
375.58	449.38
375.78	458.74
375.97	400.23
376.17	451.72
376.37	395.55
376.56	425.98
376.76	390.87
376.95	367.46
377.15	477.47
377.35	433.00
377.54	437.68
377.74	390.87
377.93	379.17
378.13	402.57
378.33	437.68
378.52	325.33
378.72	440.02
378.91	390.87
379.11	404.91
379.31	334.70
379.50	334.70
379.70	442.36
379.89	416.62
380.09	461.09
380.28	341.72
380.48	372.15
380.68	442.36
380.87	327.68
381.07	430.66
381.26	409.59
381.46	390.87
381.65	472.79
381.85	369.80
382.04	322.99
382.24	400.23
382.43	456.40
382.63	374.49
382.83	367.46
383.02	463.43
383.22	374.49
383.41	344.06
383.61	430.66
383.80	470.45
384.00	386.19
384.19	369.80
384.39	353.42
384.58	315.97
384.78	416.62
384.97	369.80
385.17	411.93
385.36	358.10
385.56	416.62
385.75	416.62
385.95	409.59
386.14	367.46
386.34	421.30
386.53	479.81
386.72	313.63
386.92	418.96
387.11	458.74
387.31	353.42
387.50	372.15
387.70	355.76
387.89	339.38
388.09	425.98
388.28	390.87
388.48	369.80
388.67	374.49
388.86	395.55
389.06	379.17
389.25	437.68
389.45	435.34
389.64	369.80
389.84	376.83
390.03	447.04
390.22	411.93
390.42	470.45
390.61	418.96
390.81	351.08
391.00	409.59
391.19	440.02
391.39	383.85
391.58	505.56
391.78	421.30
391.97	407.25
392.16	397.89
392.36	409.59
392.55	416.62
392.75	383.85
392.94	397.89
393.13	383.85
393.33	402.57
393.52	414.27
393.71	374.49
393.91	423.64
394.10	416.62
394.29	414.27
394.49	367.46
394.68	463.43
394.88	437.68
395.07	512.58
395.26	433.00
395.46	418.96
395.65	430.66
395.84	404.91
396.04	472.79
396.23	437.68
396.42	402.57
396.62	461.09
396.81	358.10
397.00	496.19
397.19	393.21
397.39	421.30
397.58	416.62
397.77	423.64
397.97	386.19
398.16	510.24
398.35	442.36
398.55	409.59
398.74	414.27
398.93	428.32
399.12	355.76
399.32	409.59
399.51	456.40
399.70	428.32
399.90	367.46
400.09	400.23
400.28	486.83
400.47	346.40
400.67	433.00
400.86	388.53
401.05	397.89
401.24	435.34
401.44	414.27
401.63	437.68
401.82	400.23
402.01	351.08
402.21	456.40
402.40	430.66
402.59	390.87
402.78	365.12
402.97	360.44
403.17	416.62
403.36	402.57
403.55	367.46
403.74	383.85
403.93	397.89
404.13	456.40
404.32	444.70
404.51	442.36
404.70	416.62
404.89	348.74
405.09	454.06
405.28	407.25
405.47	418.96
405.66	353.42
405.85	409.59
406.05	491.51
406.24	386.19
406.43	383.85
406.62	437.68
406.81	500.87
407.00	418.96
407.20	423.64
407.39	355.76
407.58	397.89
407.77	395.55
407.96	428.32
408.15	519.60
408.34	397.89
408.54	346.40
408.73	388.53
408.92	334.70
409.11	484.49
409.30	400.23
409.49	325.33
409.68	374.49
409.87	409.59
410.07	411.93
410.26	362.78
410.45	404.91
410.64	372.15
410.83	388.53
411.02	334.70
411.21	393.21
411.40	390.87
411.59	383.85
411.78	461.09
411.98	421.30
412.17	437.68
412.36	374.49
412.55	374.49
412.74	475.13
412.93	369.80
413.12	395.55
413.31	376.83
413.50	461.09
413.69	409.59
413.88	440.02
414.07	372.15
414.26	416.62
414.45	454.06
414.64	372.15
414.83	449.38
415.02	407.25
415.22	472.79
415.41	440.02
415.60	433.00
415.79	507.90
415.98	447.04
416.17	433.00
416.36	423.64
416.55	393.21
416.74	493.85
416.93	458.74
417.12	397.89
417.31	425.98
417.50	388.53
417.69	451.72
417.88	444.70
418.07	447.04
418.26	444.70
418.45	369.80
418.64	428.32
418.83	437.68
419.02	428.32
419.21	451.72
419.39	346.40
419.58	416.62
419.77	440.02
419.96	372.15
420.15	444.70
420.34	393.21
420.53	395.55
420.72	416.62
420.91	428.32
421.10	346.40
421.29	362.78
421.48	402.57
421.67	433.00
421.86	362.78
422.05	435.34
422.24	449.38
422.43	390.87
422.61	418.96
422.80	369.80
422.99	369.80
423.18	397.89
423.37	440.02
423.56	449.38
423.75	402.57
423.94	374.49
424.13	386.19
424.32	468.11
424.50	500.87
424.69	390.87
424.88	383.85
425.07	386.19
425.26	355.76
425.45	423.64
425.64	397.89
425.83	362.78
426.01	355.76
426.20	456.40
426.39	454.06
426.58	454.06
426.77	404.91
426.96	400.23
427.15	449.38
427.33	454.06
427.52	376.83
427.71	379.17
427.90	383.85
428.09	440.02
428.28	421.30
428.46	414.27
428.65	397.89
428.84	407.25
429.03	458.74
429.22	369.80
429.40	433.00
429.59	395.55
429.78	421.30
429.97	440.02
430.16	379.17
430.34	388.53
430.53	381.51
430.72	395.55
430.91	423.64
431.10	383.85
431.28	397.89
431.47	440.02
431.66	435.34
431.85	376.83
432.03	355.76
432.22	489.17
432.41	423.64
432.60	386.19
432.79	395.55
432.97	433.00
433.16	369.80
433.35	381.51
433.54	325.33
433.72	428.32
433.91	374.49
434.10	395.55
434.28	414.27
434.47	409.59
434.66	388.53
434.85	360.44
435.03	433.00
435.22	435.34
435.41	402.57
435.59	442.36
435.78	430.66
435.97	411.93
436.16	383.85
436.34	402.57
436.53	348.74
436.72	447.04
436.90	442.36
437.09	437.68
437.28	444.70
437.46	461.09
437.65	397.89
437.84	435.34
438.02	440.02
438.21	400.23
438.40	390.87
438.58	416.62
438.77	447.04
438.96	498.53
439.14	397.89
439.33	376.83
439.52	456.40
439.70	337.04
439.89	341.72
440.08	393.21
440.26	461.09
440.45	383.85
440.63	388.53
440.82	395.55
441.01	411.93
441.19	510.24
441.38	470.45
441.57	430.66
441.75	437.68
441.94	435.34
442.12	461.09
442.31	409.59
442.50	454.06
442.68	353.42
442.87	379.17
443.05	376.83
443.24	397.89
443.43	388.53
443.61	379.17
443.80	409.59
443.98	435.34
444.17	465.77
444.35	475.13
444.54	386.19
444.73	395.55
444.91	423.64
445.10	437.68
445.28	341.72
445.47	421.30
445.65	393.21
445.84	416.62
446.02	388.53
446.21	458.74
446.39	472.79
446.58	451.72
446.77	311.29
446.95	463.43
447.14	418.96
447.32	482.15
447.51	386.19
447.69	442.36
447.88	393.21
448.06	440.02
448.25	379.17
448.43	341.72
448.62	393.21
448.80	418.96
448.99	372.15
449.17	433.00
449.36	440.02
449.54	400.23
449.73	393.21
449.91	353.42
450.10	381.51
450.28	456.40
450.46	428.32
450.65	454.06
450.83	493.85
451.02	435.34
451.20	411.93
451.39	400.23
451.57	423.64
451.76	393.21
451.94	388.53
452.13	393.21
452.31	388.53
452.49	418.96
452.68	418.96
452.86	458.74
453.05	461.09
453.23	388.53
453.42	367.46
453.60	376.83
453.78	442.36
453.97	428.32
454.15	477.47
454.34	400.23
454.52	344.06
454.70	414.27
454.89	437.68
455.07	381.51
455.26	449.38
455.44	421.30
455.62	379.17
455.81	397.89
455.99	461.09
456.17	381.51
456.36	458.74
456.54	435.34
456.73	451.72
456.91	372.15
457.09	414.27
457.28	362.78
457.46	444.70
457.64	456.40
457.83	376.83
458.01	397.89
458.19	433.00
458.38	395.55
458.56	386.19
458.74	404.91
458.93	409.59
459.11	362.78
459.29	411.93
459.48	447.04
459.66	470.45
459.84	428.32
460.03	393.21
460.21	528.96
460.39	360.44
460.57	468.11
460.76	414.27
460.94	437.68
461.12	416.62
461.31	500.87
461.49	402.57
461.67	428.32
461.85	388.53
462.04	440.02
462.22	727.91
462.40	423.64
462.59	425.98
462.77	444.70
462.95	365.12
463.13	411.93
463.32	447.04
463.50	402.57
463.68	418.96
463.86	411.93
464.05	423.64
464.23	414.27
464.41	440.02
464.59	393.21
464.78	339.38
464.96	458.74
465.14	393.21
465.32	376.83
465.50	447.04
465.69	425.98
465.87	337.04
466.05	449.38
466.23	430.66
466.41	358.10
466.60	372.15
466.78	470.45
466.96	325.33
467.14	369.80
467.32	444.70
467.51	397.89
467.69	416.62
467.87	421.30
468.05	386.19
468.23	437.68
468.41	416.62
468.60	367.46
468.78	428.32
468.96	421.30
469.14	421.30
469.32	362.78
469.50	393.21
469.69	440.02
469.87	386.19
470.05	449.38
470.23	447.04
470.41	437.68
470.59	386.19
470.77	444.70
470.95	416.62
471.14	435.34
471.32	407.25
471.50	353.42
471.68	416.62
471.86	355.76
472.04	430.66
472.22	428.32
472.40	425.98
472.58	404.91
472.77	369.80
472.95	393.21
473.13	479.81
473.31	411.93
473.49	379.17
473.67	418.96
473.85	510.24
474.03	447.04
474.21	388.53
474.39	425.98
474.57	418.96
474.75	358.10
474.93	360.44
475.12	358.10
475.30	411.93
475.48	421.30
475.66	360.44
475.84	365.12
476.02	379.17
476.20	447.04
476.38	458.74
476.56	428.32
476.74	454.06
476.92	379.17
477.10	386.19
477.28	454.06
477.46	402.57
477.64	435.34
477.82	465.77
478.00	393.21
478.18	454.06
478.36	421.30
478.54	395.55
478.72	400.23
478.90	376.83
479.08	428.32
479.26	372.15
479.44	416.62
479.62	409.59
479.80	346.40
479.98	386.19
480.16	451.72
480.34	503.22
480.52	397.89
480.70	472.79
480.88	461.09
481.06	416.62
481.24	381.51
481.41	393.21
481.59	444.70
481.77	437.68
481.95	433.00
482.13	397.89
482.31	428.32
482.49	411.93
482.67	430.66
482.85	456.40
483.03	458.74
483.21	470.45
483.39	386.19
483.57	332.36
483.74	440.02
483.92	414.27
484.10	416.62
484.28	409.59
484.46	475.13
484.64	407.25
484.82	475.13
485.00	423.64
485.18	372.15
485.35	440.02
485.53	409.59
485.71	449.38
485.89	416.62
486.07	397.89
486.25	381.51
486.43	360.44
486.61	430.66
486.78	416.62
486.96	369.80
487.14	465.77
487.32	414.27
487.50	458.74
487.68	358.10
487.85	447.04
488.03	390.87
488.21	397.89
488.39	400.23
488.57	458.74
488.75	416.62
488.92	414.27
489.10	393.21
489.28	454.06
489.46	416.62
489.64	428.32
489.81	421.30
489.99	383.85
490.17	444.70
490.35	477.47
490.53	444.70
490.70	437.68
490.88	433.00
491.06	393.21
491.24	500.87
491.41	470.45
491.59	456.40
491.77	444.70
491.95	414.27
492.13	416.62
492.30	425.98
492.48	374.49
492.66	367.46
492.84	397.89
493.01	348.74
493.19	374.49
493.37	346.40
493.54	472.79
493.72	395.55
493.90	428.32
494.08	374.49
494.25	423.64
494.43	402.57
494.61	386.19
494.79	400.23
494.96	320.65
495.14	341.72
495.32	372.15
495.49	407.25
495.67	442.36
495.85	458.74
496.02	395.55
496.20	451.72
496.38	437.68
496.55	374.49
496.73	409.59
496.91	414.27
497.09	395.55
497.26	383.85
497.44	386.19
497.62	447.04
497.79	472.79
497.97	383.85
498.14	395.55
498.32	355.76
498.50	409.59
498.67	425.98
498.85	458.74
499.03	402.57
499.20	418.96
499.38	416.62
499.56	454.06
499.73	437.68
499.91	404.91
500.08	433.00
500.26	468.11
500.44	388.53
500.61	430.66
500.79	444.70
500.97	376.83
501.14	447.04
501.32	498.53
501.49	454.06
501.67	493.85
501.84	383.85
502.02	381.51
502.20	367.46
502.37	498.53
502.55	407.25
502.72	386.19
502.90	411.93
503.07	402.57
503.25	496.19
503.43	369.80
503.60	456.40
503.78	416.62
503.95	390.87
504.13	407.25
504.30	451.72
504.48	411.93
504.65	418.96
504.83	400.23
505.01	320.65
505.18	430.66
505.36	416.62
505.53	395.55
505.71	451.72
505.88	440.02
506.06	421.30
506.23	383.85
506.41	465.77
506.58	454.06
506.76	404.91
506.93	360.44
507.11	423.64
507.28	440.02
507.46	388.53
507.63	379.17
507.81	409.59
507.98	440.02
508.16	404.91
508.33	360.44
508.50	454.06
508.68	414.27
508.85	390.87
509.03	456.40
509.20	376.83
509.38	381.51
509.55	365.12
509.73	428.32
509.90	423.64
510.08	418.96
510.25	400.23
510.42	407.25
510.60	449.38
510.77	444.70
510.95	367.46
511.12	428.32
511.30	458.74
511.47	421.30
511.64	390.87
511.82	353.42
511.99	372.15
512.17	423.64
512.34	379.17
512.51	416.62
512.69	332.36
512.86	430.66
513.04	355.76
513.21	397.89
513.38	367.46
513.56	418.96
513.73	435.34
513.90	402.57
514.08	397.89
514.25	372.15
514.43	379.17
514.60	425.98
514.77	433.00
514.95	440.02
515.12	327.68
515.29	430.66
515.47	433.00
515.64	421.30
515.81	381.51
515.99	393.21
516.16	477.47
516.33	505.56
516.51	454.06
516.68	400.23
516.85	416.62
517.03	423.64
517.20	423.64
517.37	428.32
517.54	411.93
517.72	414.27
517.89	376.83
518.06	456.40
518.24	433.00
518.41	440.02
518.58	437.68
518.75	465.77
518.93	428.32
519.10	449.38
519.27	482.15
519.45	339.38
519.62	315.97
519.79	428.32
519.96	320.65
520.14	421.30
520.31	447.04
520.48	395.55
520.65	414.27
520.83	435.34
521.00	348.74
521.17	461.09
521.34	423.64
521.52	332.36
521.69	411.93
521.86	294.91
522.03	388.53
522.20	435.34
522.38	447.04
522.55	477.47
522.72	386.19
522.89	463.43
523.07	421.30
523.24	423.64
523.41	341.72
523.58	421.30
523.75	379.17
523.92	425.98
524.10	416.62
524.27	430.66
524.44	400.23
524.61	482.15
524.78	372.15
524.96	369.80
525.13	463.43
525.30	358.10
525.47	388.53
525.64	395.55
525.81	463.43
525.98	440.02
526.16	393.21
526.33	348.74
526.50	395.55
526.67	465.77
526.84	425.98
527.01	414.27
527.18	372.15
527.36	372.15
527.53	451.72
527.70	407.25
527.87	330.02
528.04	425.98
528.21	418.96
528.38	418.96
528.55	346.40
528.72	390.87
528.89	418.96
529.07	433.00
529.24	479.81
529.41	458.74
529.58	353.42
529.75	386.19
529.92	428.32
530.09	383.85
530.26	437.68
530.43	369.80
530.60	416.62
530.77	322.99
530.94	425.98
531.11	456.40
531.28	447.04
531.46	444.70
531.63	430.66
531.80	386.19
531.97	372.15
532.14	475.13
532.31	416.62
532.48	400.23
532.65	437.68
532.82	360.44
532.99	437.68
533.16	433.00
533.33	402.57
533.50	430.66
533.67	362.78
533.84	454.06
534.01	486.83
534.18	388.53
534.35	442.36
534.52	454.06
534.69	411.93
534.86	414.27
535.03	416.62
535.20	437.68
535.37	421.30
535.54	433.00
535.71	414.27
535.88	489.17
536.05	369.80
536.22	435.34
536.38	395.55
536.55	463.43
536.72	458.74
536.89	360.44
537.06	388.53
537.23	411.93
537.40	404.91
537.57	435.34
537.74	505.56
537.91	461.09
538.08	407.25
538.25	395.55
538.42	358.10
538.59	383.85
538.75	374.49
538.92	369.80
539.09	414.27
539.26	397.89
539.43	442.36
539.60	388.53
539.77	400.23
539.94	395.55
540.11	479.81
540.28	472.79
540.44	461.09
540.61	425.98
540.78	425.98
540.95	348.74
541.12	388.53
541.29	372.15
541.46	379.17
541.62	416.62
541.79	409.59
541.96	402.57
542.13	414.27
542.30	407.25
542.47	374.49
542.63	390.87
542.80	397.89
542.97	418.96
543.14	428.32
543.31	416.62
543.48	383.85
543.64	433.00
543.81	358.10
543.98	444.70
544.15	376.83
544.32	416.62
544.48	367.46
544.65	409.59
544.82	423.64
544.99	308.95
545.16	449.38
545.32	463.43
545.49	498.53
545.66	418.96
545.83	425.98
546.00	409.59
546.16	351.08
546.33	400.23
546.50	414.27
546.67	451.72
546.83	433.00
547.00	470.45
547.17	383.85
547.34	365.12
547.50	395.55
547.67	388.53
547.84	320.65
548.00	447.04
548.17	435.34
548.34	418.96
548.51	379.17
548.67	451.72
548.84	367.46
549.01	456.40
549.18	423.64
549.34	421.30
549.51	433.00
549.68	372.15
549.84	496.19
550.01	372.15
550.18	458.74
550.34	454.06
550.51	402.57
550.68	390.87
550.84	388.53
551.01	416.62
551.18	456.40
551.34	411.93
551.51	428.32
551.68	334.70
551.84	407.25
552.01	418.96
552.18	477.47
552.34	433.00
552.51	400.23
552.68	400.23
552.84	383.85
553.01	447.04
553.18	465.77
553.34	521.94
553.51	358.10
553.67	468.11
553.84	447.04
554.01	468.11
554.17	360.44
554.34	383.85
554.51	400.23
554.67	423.64
554.84	479.81
555.00	458.74
555.17	444.70
555.33	498.53
555.50	411.93
555.67	456.40
555.83	444.70
556.00	454.06
556.16	543.00
556.33	470.45
556.50	402.57
556.66	423.64
556.83	425.98
556.99	404.91
557.16	416.62
557.32	430.66
557.49	400.23
557.65	444.70
557.82	386.19
557.98	362.78
558.15	414.27
558.32	400.23
558.48	400.23
558.65	472.79
558.81	383.85
558.98	416.62
559.14	435.34
559.31	421.30
559.47	458.74
559.64	428.32
559.80	430.66
559.97	435.34
560.13	395.55
560.30	395.55
560.46	402.57
560.63	381.51
560.79	451.72
560.96	402.57
561.12	400.23
561.29	407.25
561.45	454.06
561.61	493.85
561.78	475.13
561.94	390.87
562.11	479.81
562.27	400.23
562.44	423.64
562.60	505.56
562.77	470.45
562.93	440.02
563.10	355.76
563.26	362.78
563.42	416.62
563.59	435.34
563.75	458.74
563.92	425.98
564.08	414.27
564.24	465.77
564.41	470.45
564.57	379.17
564.74	418.96
564.90	409.59
565.07	435.34
565.23	465.77
565.39	330.02
565.56	425.98
565.72	428.32
565.88	402.57
566.05	367.46
566.21	369.80
566.38	367.46
566.54	484.49
566.70	367.46
566.87	500.87
567.03	449.38
567.19	433.00
567.36	463.43
567.52	451.72
567.68	433.00
567.85	397.89
568.01	463.43
568.17	402.57
568.34	414.27
568.50	416.62
568.66	416.62
568.83	465.77
568.99	334.70
569.15	477.47
569.32	407.25
569.48	472.79
569.64	414.27
569.81	454.06
569.97	433.00
570.13	505.56
570.30	365.12
570.46	369.80
570.62	468.11
570.78	442.36
570.95	407.25
571.11	416.62
571.27	491.51
571.43	411.93
571.60	440.02
571.76	517.26
571.92	418.96
572.09	388.53
572.25	437.68
572.41	442.36
572.57	421.30
572.74	393.21
572.90	454.06
573.06	442.36
573.22	475.13
573.38	411.93
573.55	440.02
573.71	440.02
573.87	447.04
574.03	416.62
574.20	404.91
574.36	449.38
574.52	402.57
574.68	421.30
574.84	435.34
575.01	416.62
575.17	407.25
575.33	376.83
575.49	402.57
575.65	447.04
575.82	393.21
575.98	376.83
576.14	386.19
576.30	433.00
576.46	402.57
576.62	365.12
576.79	390.87
576.95	472.79
577.11	383.85
577.27	402.57
577.43	409.59
577.59	414.27
577.75	355.76
577.92	414.27
578.08	425.98
578.24	409.59
578.40	411.93
578.56	444.70
578.72	461.09
578.88	409.59
579.04	411.93
579.21	472.79
579.37	404.91
579.53	433.00
579.69	407.25
579.85	461.09
580.01	458.74
580.17	458.74
580.33	425.98
580.49	379.17
580.65	437.68
580.82	418.96
580.98	315.97
581.14	376.83
581.30	430.66
581.46	306.61
581.62	418.96
581.78	362.78
581.94	447.04
582.10	341.72
582.26	416.62
582.42	414.27
582.58	383.85
582.74	423.64
582.90	388.53
583.06	451.72
583.22	381.51
583.38	393.21
583.54	374.49
583.70	414.27
583.86	409.59
584.02	409.59
584.18	383.85
584.34	383.85
584.50	404.91
584.66	414.27
584.82	355.76
584.98	407.25
585.14	440.02
585.30	421.30
585.46	416.62
585.62	454.06
585.78	395.55
585.94	374.49
586.10	470.45
586.26	397.89
586.42	386.19
586.58	449.38
586.74	414.27
586.90	416.62
587.06	447.04
587.22	362.78
587.38	379.17
587.54	454.06
587.70	411.93
587.86	390.87
588.02	416.62
588.18	411.93
588.34	512.58
588.49	379.17
588.65	372.15
588.81	353.42
588.97	418.96
589.13	397.89
589.29	440.02
589.45	386.19
589.61	458.74
589.77	411.93
589.93	425.98
590.08	407.25
590.24	409.59
590.40	416.62
590.56	454.06
590.72	435.34
590.88	444.70
591.04	433.00
591.20	416.62
591.35	447.04
591.51	376.83
591.67	402.57
591.83	320.65
591.99	451.72
592.15	416.62
592.31	461.09
592.46	407.25
592.62	418.96
592.78	416.62
592.94	407.25
593.10	344.06
593.26	360.44
593.41	332.36
593.57	444.70
593.73	400.23
593.89	360.44
594.05	409.59
594.20	416.62
594.36	440.02
594.52	484.49
594.68	386.19
594.84	376.83
594.99	498.53
595.15	409.59
595.31	484.49
595.47	400.23
595.62	470.45
595.78	421.30
595.94	365.12
596.10	397.89
596.25	433.00
596.41	451.72
596.57	374.49
596.73	386.19
596.88	386.19
597.04	482.15
597.20	379.17
597.36	430.66
597.51	390.87
597.67	423.64
597.83	435.34
597.99	418.96
598.14	423.64
598.30	430.66
598.46	372.15
598.61	402.57
598.77	458.74
598.93	388.53
599.09	376.83
599.24	454.06
599.40	402.57
599.56	447.04
599.71	428.32
599.87	348.74
600.03	330.02
600.18	367.46
600.34	351.08
600.50	341.72
600.65	486.83
600.81	404.91
600.97	402.57
601.12	421.30
601.28	484.49
601.44	402.57
601.59	351.08
601.75	449.38
601.91	372.15
602.06	428.32
602.22	456.40
602.37	435.34
602.53	430.66
602.69	402.57
602.84	334.70
603.00	444.70
603.16	468.11
603.31	369.80
603.47	437.68
603.62	428.32
603.78	416.62
603.94	442.36
604.09	437.68
604.25	362.78
604.40	449.38
604.56	395.55
604.71	318.31
604.87	414.27
605.03	386.19
605.18	383.85
605.34	472.79
605.49	414.27
605.65	393.21
605.80	458.74
605.96	397.89
606.12	402.57
606.27	425.98
606.43	416.62
606.58	416.62
606.74	360.44
606.89	395.55
607.05	421.30
607.20	381.51
607.36	421.30
607.51	404.91
607.67	428.32
607.82	388.53
607.98	425.98
608.13	351.08
608.29	449.38
608.44	430.66
608.60	475.13
608.75	425.98
608.91	416.62
609.06	390.87
609.22	503.22
609.37	397.89
609.53	421.30
609.68	386.19
609.84	327.68
609.99	416.62
610.15	411.93
