SpectraSuite Data File
++++++++++++++++++++++++++++++++++++
Date: Fri Oct 25 12:11:31 EDT 2013
User: price-jones
Dark Spectrum Present: No
Reference Spectrum Present: No
Number of Sampled Component Spectra: 1
Spectrometers: USB2+H05261
Integration Time (usec): 100000 (USB2+H05261)
Spectra Averaged: 1 (USB2+H05261)
Boxcar Smoothing: 0 (USB2+H05261)
Correct for Electrical Dark: No (USB2+H05261)
Strobe/Lamp Enabled: No (USB2+H05261)
Correct for Detector Non-linearity: No (USB2+H05261)
Correct for Stray Light: No (USB2+H05261)
Number of Pixels in Processed Spectrum: 2048
>>>>>Begin Processed Spectral Data<<<<<
365.73	418.96
365.92	418.96
366.12	418.96
366.32	231.71
366.52	198.95
366.72	191.92
366.91	224.69
367.11	252.78
367.31	259.80
367.51	292.57
367.70	220.01
367.90	266.82
368.10	224.69
368.30	259.80
368.49	262.14
368.69	287.89
368.89	255.12
369.09	278.52
369.28	299.59
369.48	266.82
369.68	283.20
369.87	322.99
370.07	330.02
370.27	360.44
370.47	271.50
370.66	332.36
370.86	315.97
371.06	372.15
371.25	404.91
371.45	374.49
371.65	367.46
371.84	304.27
372.04	395.55
372.24	393.21
372.44	369.80
372.63	463.43
372.83	416.62
373.03	372.15
373.22	397.89
373.42	362.78
373.62	423.64
373.81	458.74
374.01	444.70
374.21	390.87
374.40	440.02
374.60	461.09
374.79	428.32
374.99	416.62
375.19	484.49
375.38	468.11
375.58	461.09
375.78	447.04
375.97	447.04
376.17	491.51
376.37	425.98
376.56	355.76
376.76	334.70
376.95	325.33
377.15	425.98
377.35	404.91
377.54	428.32
377.74	372.15
377.93	442.36
378.13	395.55
378.33	430.66
378.52	327.68
378.72	376.83
378.91	388.53
379.11	400.23
379.31	440.02
379.50	390.87
379.70	379.17
379.89	433.00
380.09	330.02
380.28	421.30
380.48	409.59
380.68	355.76
380.87	414.27
381.07	381.51
381.26	479.81
381.46	454.06
381.65	379.17
381.85	393.21
382.04	379.17
382.24	386.19
382.43	397.89
382.63	390.87
382.83	372.15
383.02	393.21
383.22	393.21
383.41	339.38
383.61	365.12
383.80	341.72
384.00	404.91
384.19	376.83
384.39	433.00
384.58	423.64
384.78	409.59
384.97	507.90
385.17	369.80
385.36	322.99
385.56	442.36
385.75	372.15
385.95	344.06
386.14	482.15
386.34	458.74
386.53	449.38
386.72	449.38
386.92	514.92
387.11	444.70
387.31	418.96
387.50	465.77
387.70	430.66
387.89	400.23
388.09	390.87
388.28	306.61
388.48	430.66
388.67	409.59
388.86	482.15
389.06	386.19
389.25	369.80
389.45	372.15
389.64	411.93
389.84	444.70
390.03	440.02
390.22	379.17
390.42	404.91
390.61	407.25
390.81	393.21
391.00	397.89
391.19	386.19
391.39	393.21
391.58	315.97
391.78	482.15
391.97	444.70
392.16	442.36
392.36	423.64
392.55	416.62
392.75	430.66
392.94	381.51
393.13	528.96
393.33	444.70
393.52	449.38
393.71	376.83
393.91	416.62
394.10	454.06
394.29	479.81
394.49	456.40
394.68	360.44
394.88	411.93
395.07	400.23
395.26	423.64
395.46	390.87
395.65	386.19
395.84	442.36
396.04	479.81
396.23	376.83
396.42	372.15
396.62	381.51
396.81	337.04
397.00	442.36
397.19	395.55
397.39	425.98
397.58	456.40
397.77	358.10
397.97	379.17
398.16	414.27
398.35	409.59
398.55	393.21
398.74	444.70
398.93	435.34
399.12	440.02
399.32	493.85
399.51	395.55
399.70	418.96
399.90	397.89
400.09	372.15
400.28	395.55
400.47	390.87
400.67	341.72
400.86	468.11
401.05	395.55
401.24	407.25
401.44	355.76
401.63	327.68
401.82	348.74
402.01	416.62
402.21	379.17
402.40	425.98
402.59	416.62
402.78	456.40
402.97	372.15
403.17	479.81
403.36	383.85
403.55	437.68
403.74	372.15
403.93	395.55
404.13	374.49
404.32	390.87
404.51	430.66
404.70	376.83
404.89	351.08
405.09	379.17
405.28	400.23
405.47	376.83
405.66	477.47
405.85	435.34
406.05	372.15
406.24	437.68
406.43	414.27
406.62	381.51
406.81	379.17
407.00	430.66
407.20	374.49
407.39	440.02
407.58	409.59
407.77	440.02
407.96	416.62
408.15	416.62
408.34	402.57
408.54	430.66
408.73	451.72
408.92	437.68
409.11	416.62
409.30	383.85
409.49	381.51
409.68	397.89
409.87	442.36
410.07	402.57
410.26	414.27
410.45	376.83
410.64	425.98
410.83	374.49
411.02	393.21
411.21	479.81
411.40	381.51
411.59	344.06
411.78	425.98
411.98	404.91
412.17	334.70
412.36	433.00
412.55	430.66
412.74	402.57
412.93	425.98
413.12	367.46
413.31	383.85
413.50	407.25
413.69	475.13
413.88	425.98
414.07	456.40
414.26	423.64
414.45	423.64
414.64	351.08
414.83	428.32
415.02	383.85
415.22	498.53
415.41	395.55
415.60	320.65
415.79	379.17
415.98	402.57
416.17	386.19
416.36	411.93
416.55	344.06
416.74	461.09
416.93	433.00
417.12	393.21
417.31	414.27
417.50	376.83
417.69	461.09
417.88	423.64
418.07	395.55
418.26	477.47
418.45	430.66
418.64	540.66
418.83	418.96
419.02	383.85
419.21	409.59
419.39	447.04
419.58	421.30
419.77	369.80
419.96	447.04
420.15	458.74
420.34	465.77
420.53	414.27
420.72	477.47
420.91	503.22
421.10	381.51
421.29	402.57
421.48	440.02
421.67	372.15
421.86	423.64
422.05	388.53
422.24	390.87
422.43	449.38
422.61	393.21
422.80	468.11
422.99	430.66
423.18	402.57
423.37	458.74
423.56	365.12
423.75	414.27
423.94	416.62
424.13	428.32
424.32	472.79
424.50	372.15
424.69	400.23
424.88	451.72
425.07	449.38
425.26	400.23
425.45	351.08
425.64	393.21
425.83	421.30
426.01	444.70
426.20	402.57
426.39	411.93
426.58	418.96
426.77	416.62
426.96	409.59
427.15	440.02
427.33	407.25
427.52	383.85
427.71	444.70
427.90	367.46
428.09	442.36
428.28	374.49
428.46	447.04
428.65	477.47
428.84	358.10
429.03	437.68
429.22	395.55
429.40	440.02
429.59	344.06
429.78	388.53
429.97	397.89
430.16	421.30
430.34	393.21
430.53	423.64
430.72	397.89
430.91	454.06
431.10	325.33
431.28	442.36
431.47	407.25
431.66	451.72
431.85	407.25
432.03	421.30
432.22	503.22
432.41	430.66
432.60	409.59
432.79	430.66
432.97	428.32
433.16	440.02
433.35	407.25
433.54	355.76
433.72	475.13
433.91	383.85
434.10	428.32
434.28	449.38
434.47	407.25
434.66	442.36
434.85	386.19
435.03	451.72
435.22	484.49
435.41	447.04
435.59	404.91
435.78	435.34
435.97	407.25
436.16	461.09
436.34	404.91
436.53	458.74
436.72	496.19
436.90	449.38
437.09	395.55
437.28	430.66
437.46	421.30
437.65	411.93
437.84	407.25
438.02	379.17
438.21	386.19
438.40	451.72
438.58	409.59
438.77	447.04
438.96	351.08
439.14	425.98
439.33	407.25
439.52	341.72
439.70	430.66
439.89	491.51
440.08	447.04
440.26	411.93
440.45	477.47
440.63	395.55
440.82	355.76
441.01	475.13
441.19	400.23
441.38	416.62
441.57	404.91
441.75	437.68
441.94	348.74
442.12	484.49
442.31	404.91
442.50	425.98
442.68	414.27
442.87	416.62
443.05	358.10
443.24	447.04
443.43	430.66
443.61	482.15
443.80	428.32
443.98	425.98
444.17	425.98
444.35	526.62
444.54	374.49
444.73	447.04
444.91	521.94
445.10	503.22
445.28	484.49
445.47	444.70
445.65	442.36
445.84	381.51
446.02	454.06
446.21	416.62
446.39	444.70
446.58	416.62
446.77	437.68
446.95	418.96
447.14	472.79
447.32	428.32
447.51	428.32
447.69	493.85
447.88	435.34
448.06	451.72
448.25	447.04
448.43	449.38
448.62	409.59
448.80	393.21
448.99	397.89
449.17	475.13
449.36	411.93
449.54	437.68
449.73	379.17
449.91	407.25
450.10	355.76
450.28	493.85
450.46	510.24
450.65	454.06
450.83	397.89
451.02	451.72
451.20	442.36
451.39	468.11
451.57	407.25
451.76	451.72
451.94	409.59
452.13	383.85
452.31	402.57
452.49	451.72
452.68	402.57
452.86	418.96
453.05	489.17
453.23	449.38
453.42	477.47
453.60	407.25
453.78	306.61
453.97	472.79
454.15	383.85
454.34	381.51
454.52	372.15
454.70	425.98
454.89	414.27
455.07	400.23
455.26	425.98
455.44	435.34
455.62	376.83
455.81	458.74
455.99	404.91
456.17	470.45
456.36	430.66
456.54	416.62
456.73	402.57
456.91	458.74
457.09	407.25
457.28	463.43
457.46	418.96
457.64	383.85
457.83	402.57
458.01	409.59
458.19	386.19
458.38	418.96
458.56	468.11
458.74	367.46
458.93	367.46
459.11	433.00
459.29	414.27
459.48	442.36
459.66	454.06
459.84	447.04
460.03	503.22
460.21	435.34
460.39	411.93
460.57	440.02
460.76	440.02
460.94	397.89
461.12	491.51
461.31	514.92
461.49	461.09
461.67	433.00
461.85	449.38
462.04	456.40
462.22	781.74
462.40	411.93
462.59	503.22
462.77	407.25
462.95	407.25
463.13	456.40
463.32	414.27
463.50	437.68
463.68	472.79
463.86	423.64
464.05	367.46
464.23	407.25
464.41	442.36
464.59	449.38
464.78	407.25
464.96	374.49
465.14	428.32
465.32	411.93
465.50	444.70
465.69	456.40
465.87	400.23
466.05	475.13
466.23	383.85
466.41	367.46
466.60	428.32
466.78	440.02
466.96	435.34
467.14	416.62
467.32	491.51
467.51	449.38
467.69	418.96
467.87	423.64
468.05	379.17
468.23	451.72
468.41	360.44
468.60	346.40
468.78	423.64
468.96	430.66
469.14	388.53
469.32	400.23
469.50	463.43
469.69	421.30
469.87	395.55
470.05	440.02
470.23	498.53
470.41	440.02
470.59	454.06
470.77	386.19
470.95	458.74
471.14	451.72
471.32	379.17
471.50	421.30
471.68	428.32
471.86	461.09
472.04	397.89
472.22	400.23
472.40	397.89
472.58	404.91
472.77	418.96
472.95	447.04
473.13	425.98
473.31	461.09
473.49	468.11
473.67	334.70
473.85	437.68
474.03	454.06
474.21	344.06
474.39	477.47
474.57	433.00
474.75	428.32
474.93	411.93
475.12	440.02
475.30	407.25
475.48	440.02
475.66	454.06
475.84	454.06
476.02	423.64
476.20	479.81
476.38	383.85
476.56	437.68
476.74	437.68
476.92	374.49
477.10	334.70
477.28	435.34
477.46	390.87
477.64	477.47
477.82	484.49
478.00	489.17
478.18	416.62
478.36	400.23
478.54	454.06
478.72	365.12
478.90	425.98
479.08	484.49
479.26	496.19
479.44	440.02
479.62	468.11
479.80	425.98
479.98	393.21
480.16	416.62
480.34	411.93
480.52	409.59
480.70	381.51
480.88	428.32
481.06	383.85
481.24	397.89
481.41	437.68
481.59	407.25
481.77	477.47
481.95	458.74
482.13	386.19
482.31	407.25
482.49	435.34
482.67	407.25
482.85	390.87
483.03	414.27
483.21	414.27
483.39	365.12
483.57	442.36
483.74	486.83
483.92	369.80
484.10	388.53
484.28	421.30
484.46	428.32
484.64	451.72
484.82	433.00
485.00	433.00
485.18	339.38
485.35	456.40
485.53	393.21
485.71	430.66
485.89	360.44
486.07	484.49
486.25	433.00
486.43	477.47
486.61	514.92
486.78	440.02
486.96	411.93
487.14	374.49
487.32	428.32
487.50	442.36
487.68	369.80
487.85	428.32
488.03	388.53
488.21	456.40
488.39	407.25
488.57	444.70
488.75	461.09
488.92	540.66
489.10	416.62
489.28	433.00
489.46	475.13
489.64	407.25
489.81	369.80
489.99	451.72
490.17	404.91
490.35	440.02
490.53	447.04
490.70	376.83
490.88	365.12
491.06	315.97
491.24	400.23
491.41	421.30
491.59	353.42
491.77	369.80
491.95	365.12
492.13	386.19
492.30	440.02
492.48	400.23
492.66	400.23
492.84	374.49
493.01	470.45
493.19	444.70
493.37	498.53
493.54	358.10
493.72	428.32
493.90	367.46
494.08	358.10
494.25	418.96
494.43	404.91
494.61	402.57
494.79	337.04
494.96	353.42
495.14	395.55
495.32	383.85
495.49	447.04
495.67	386.19
495.85	475.13
496.02	367.46
496.20	472.79
496.38	421.30
496.55	393.21
496.73	437.68
496.91	379.17
497.09	437.68
497.26	365.12
497.44	360.44
497.62	486.83
497.79	351.08
497.97	477.47
498.14	365.12
498.32	360.44
498.50	449.38
498.67	388.53
498.85	440.02
499.03	442.36
499.20	365.12
499.38	423.64
499.56	402.57
499.73	444.70
499.91	468.11
500.08	379.17
500.26	390.87
500.44	360.44
500.61	456.40
500.79	418.96
500.97	440.02
501.14	442.36
501.32	449.38
501.49	444.70
501.67	418.96
501.84	423.64
502.02	390.87
502.20	411.93
502.37	315.97
502.55	372.15
502.72	414.27
502.90	423.64
503.07	374.49
503.25	400.23
503.43	435.34
503.60	435.34
503.78	379.17
503.95	444.70
504.13	456.40
504.30	409.59
504.48	433.00
504.65	444.70
504.83	393.21
505.01	421.30
505.18	390.87
505.36	465.77
505.53	442.36
505.71	409.59
505.88	416.62
506.06	400.23
506.23	416.62
506.41	397.89
506.58	390.87
506.76	423.64
506.93	416.62
507.11	416.62
507.28	353.42
507.46	456.40
507.63	386.19
507.81	346.40
507.98	400.23
508.16	390.87
508.33	397.89
508.50	381.51
508.68	444.70
508.85	444.70
509.03	365.12
509.20	461.09
509.38	365.12
509.55	423.64
509.73	430.66
509.90	472.79
510.08	372.15
510.25	416.62
510.42	386.19
510.60	404.91
510.77	407.25
510.95	397.89
511.12	418.96
511.30	358.10
511.47	435.34
511.64	454.06
511.82	428.32
511.99	404.91
512.17	360.44
512.34	374.49
512.51	381.51
512.69	400.23
512.86	454.06
513.04	425.98
513.21	430.66
513.38	458.74
513.56	376.83
513.73	435.34
513.90	404.91
514.08	444.70
514.25	430.66
514.43	449.38
514.60	369.80
514.77	320.65
514.95	358.10
515.12	430.66
515.29	423.64
515.47	418.96
515.64	395.55
515.81	423.64
515.99	367.46
516.16	468.11
516.33	484.49
516.51	376.83
516.68	369.80
516.85	374.49
517.03	390.87
517.20	416.62
517.37	353.42
517.54	383.85
517.72	442.36
517.89	442.36
518.06	458.74
518.24	444.70
518.41	409.59
518.58	425.98
518.75	435.34
518.93	416.62
519.10	395.55
519.27	430.66
519.45	440.02
519.62	404.91
519.79	435.34
519.96	411.93
520.14	386.19
520.31	390.87
520.48	437.68
520.65	404.91
520.83	503.22
521.00	470.45
521.17	442.36
521.34	411.93
521.52	407.25
521.69	442.36
521.86	470.45
522.03	463.43
522.20	425.98
522.38	456.40
522.55	355.76
522.72	393.21
522.89	465.77
523.07	465.77
523.24	397.89
523.41	386.19
523.58	386.19
523.75	423.64
523.92	390.87
524.10	451.72
524.27	320.65
524.44	423.64
524.61	428.32
524.78	402.57
524.96	393.21
525.13	425.98
525.30	374.49
525.47	425.98
525.64	416.62
525.81	482.15
525.98	449.38
526.16	407.25
526.33	444.70
526.50	397.89
526.67	430.66
526.84	400.23
527.01	388.53
527.18	468.11
527.36	491.51
527.53	444.70
527.70	458.74
527.87	465.77
528.04	456.40
528.21	421.30
528.38	444.70
528.55	437.68
528.72	477.47
528.89	440.02
529.07	393.21
529.24	416.62
529.41	479.81
529.58	374.49
529.75	372.15
529.92	428.32
530.09	379.17
530.26	362.78
530.43	390.87
530.60	395.55
530.77	482.15
530.94	404.91
531.11	400.23
531.28	379.17
531.46	388.53
531.63	447.04
531.80	400.23
531.97	461.09
532.14	423.64
532.31	433.00
532.48	355.76
532.65	437.68
532.82	442.36
532.99	463.43
533.16	418.96
533.33	484.49
533.50	367.46
533.67	353.42
533.84	381.51
534.01	414.27
534.18	397.89
534.35	440.02
534.52	421.30
534.69	472.79
534.86	428.32
535.03	386.19
535.20	444.70
535.37	451.72
535.54	425.98
535.71	390.87
535.88	463.43
536.05	348.74
536.22	484.49
536.38	411.93
536.55	449.38
536.72	461.09
536.89	418.96
537.06	393.21
537.23	379.17
537.40	400.23
537.57	414.27
537.74	454.06
537.91	486.83
538.08	308.95
538.25	486.83
538.42	390.87
538.59	433.00
538.75	425.98
538.92	388.53
539.09	444.70
539.26	449.38
539.43	456.40
539.60	414.27
539.77	416.62
539.94	433.00
540.11	407.25
540.28	507.90
540.44	418.96
540.61	503.22
540.78	456.40
540.95	407.25
541.12	386.19
541.29	463.43
541.46	409.59
541.62	411.93
541.79	348.74
541.96	388.53
542.13	362.78
542.30	386.19
542.47	435.34
542.63	437.68
542.80	395.55
542.97	430.66
543.14	414.27
543.31	369.80
543.48	407.25
543.64	440.02
543.81	489.17
543.98	414.27
544.15	472.79
544.32	381.51
544.48	440.02
544.65	379.17
544.82	421.30
544.99	404.91
545.16	461.09
545.32	386.19
545.49	393.21
545.66	369.80
545.83	416.62
546.00	442.36
546.16	390.87
546.33	425.98
546.50	390.87
546.67	430.66
546.83	416.62
547.00	404.91
547.17	414.27
547.34	496.19
547.50	414.27
547.67	393.21
547.84	433.00
548.00	388.53
548.17	407.25
548.34	463.43
548.51	458.74
548.67	505.56
548.84	447.04
549.01	449.38
549.18	451.72
549.34	395.55
549.51	421.30
549.68	458.74
549.84	393.21
550.01	402.57
550.18	442.36
550.34	451.72
550.51	414.27
550.68	458.74
550.84	425.98
551.01	430.66
551.18	397.89
551.34	444.70
551.51	395.55
551.68	421.30
551.84	416.62
552.01	421.30
552.18	423.64
552.34	428.32
552.51	489.17
552.68	433.00
552.84	503.22
553.01	484.49
553.18	393.21
553.34	482.15
553.51	376.83
553.67	367.46
553.84	437.68
554.01	365.12
554.17	447.04
554.34	376.83
554.51	454.06
554.67	393.21
554.84	440.02
555.00	433.00
555.17	423.64
555.33	456.40
555.50	372.15
555.67	449.38
555.83	388.53
556.00	425.98
556.16	543.00
556.33	430.66
556.50	440.02
556.66	449.38
556.83	433.00
556.99	428.32
557.16	409.59
557.32	325.33
557.49	369.80
557.65	395.55
557.82	449.38
557.98	437.68
558.15	397.89
558.32	407.25
558.48	411.93
558.65	414.27
558.81	383.85
558.98	369.80
559.14	444.70
559.31	402.57
559.47	425.98
559.64	416.62
559.80	470.45
559.97	407.25
560.13	456.40
560.30	433.00
560.46	409.59
560.63	395.55
560.79	374.49
560.96	444.70
561.12	390.87
561.29	404.91
561.45	409.59
561.61	418.96
561.78	451.72
561.94	348.74
562.11	421.30
562.27	400.23
562.44	435.34
562.60	322.99
562.77	465.77
562.93	477.47
563.10	461.09
563.26	416.62
563.42	433.00
563.59	358.10
563.75	500.87
563.92	425.98
564.08	416.62
564.24	444.70
564.41	475.13
564.57	376.83
564.74	447.04
564.90	463.43
565.07	440.02
565.23	421.30
565.39	430.66
565.56	493.85
565.72	454.06
565.88	374.49
566.05	351.08
566.21	447.04
566.38	465.77
566.54	423.64
566.70	388.53
566.87	409.59
567.03	416.62
567.19	437.68
567.36	416.62
567.52	402.57
567.68	517.26
567.85	442.36
568.01	414.27
568.17	416.62
568.34	461.09
568.50	430.66
568.66	346.40
568.83	458.74
568.99	404.91
569.15	358.10
569.32	409.59
569.48	332.36
569.64	421.30
569.81	379.17
569.97	402.57
570.13	402.57
570.30	425.98
570.46	428.32
570.62	416.62
570.78	479.81
570.95	351.08
571.11	486.83
571.27	475.13
571.43	414.27
571.60	362.78
571.76	421.30
571.92	442.36
572.09	411.93
572.25	428.32
572.41	442.36
572.57	374.49
572.74	489.17
572.90	449.38
573.06	440.02
573.22	386.19
573.38	454.06
573.55	383.85
573.71	491.51
573.87	355.76
574.03	430.66
574.20	433.00
574.36	400.23
574.52	430.66
574.68	437.68
574.84	404.91
575.01	369.80
575.17	418.96
575.33	444.70
575.49	402.57
575.65	440.02
575.82	491.51
575.98	416.62
576.14	475.13
576.30	400.23
576.46	456.40
576.62	423.64
576.79	449.38
576.95	479.81
577.11	379.17
577.27	390.87
577.43	451.72
577.59	407.25
577.75	414.27
577.92	395.55
578.08	416.62
578.24	386.19
578.40	575.77
578.56	510.24
578.72	395.55
578.88	430.66
579.04	463.43
579.21	458.74
579.37	428.32
579.53	472.79
579.69	400.23
579.85	423.64
580.01	437.68
580.17	395.55
580.33	451.72
580.49	461.09
580.65	407.25
580.82	442.36
580.98	379.17
581.14	397.89
581.30	463.43
581.46	425.98
581.62	442.36
581.78	433.00
581.94	360.44
582.10	430.66
582.26	388.53
582.42	379.17
582.58	407.25
582.74	409.59
582.90	454.06
583.06	449.38
583.22	512.58
583.38	416.62
583.54	407.25
583.70	423.64
583.86	470.45
584.02	454.06
584.18	465.77
584.34	475.13
584.50	458.74
584.66	395.55
584.82	414.27
584.98	437.68
585.14	404.91
585.30	360.44
585.46	418.96
585.62	418.96
585.78	402.57
585.94	463.43
586.10	423.64
586.26	358.10
586.42	428.32
586.58	418.96
586.74	433.00
586.90	442.36
587.06	454.06
587.22	404.91
587.38	411.93
587.54	362.78
587.70	407.25
587.86	423.64
588.02	428.32
588.18	503.22
588.34	458.74
588.49	428.32
588.65	372.15
588.81	395.55
588.97	397.89
589.13	433.00
589.29	409.59
589.45	425.98
589.61	416.62
589.77	454.06
589.93	397.89
590.08	409.59
590.24	395.55
590.40	386.19
590.56	407.25
590.72	365.12
590.88	334.70
591.04	409.59
591.20	458.74
591.35	477.47
591.51	433.00
591.67	414.27
591.83	379.17
591.99	444.70
592.15	411.93
592.31	381.51
592.46	397.89
592.62	383.85
592.78	386.19
592.94	386.19
593.10	388.53
593.26	383.85
593.41	493.85
593.57	428.32
593.73	400.23
593.89	430.66
594.05	409.59
594.20	421.30
594.36	390.87
594.52	353.42
594.68	451.72
594.84	456.40
594.99	454.06
595.15	447.04
595.31	514.92
595.47	477.47
595.62	421.30
595.78	381.51
595.94	418.96
596.10	355.76
596.25	430.66
596.41	440.02
596.57	407.25
596.73	393.21
596.88	404.91
597.04	428.32
597.20	383.85
597.36	454.06
597.51	442.36
597.67	395.55
597.83	400.23
597.99	425.98
598.14	428.32
598.30	409.59
598.46	442.36
598.61	472.79
598.77	421.30
598.93	383.85
599.09	372.15
599.24	414.27
599.40	433.00
599.56	393.21
599.71	447.04
599.87	397.89
600.03	414.27
600.18	402.57
600.34	402.57
600.50	341.72
600.65	409.59
600.81	404.91
600.97	397.89
601.12	407.25
601.28	463.43
601.44	402.57
601.59	447.04
601.75	423.64
601.91	433.00
602.06	418.96
602.22	430.66
602.37	404.91
602.53	449.38
602.69	477.47
602.84	416.62
603.00	421.30
603.16	383.85
603.31	428.32
603.47	442.36
603.62	393.21
603.78	463.43
603.94	397.89
604.09	402.57
604.25	365.12
604.40	430.66
604.56	425.98
604.71	437.68
604.87	355.76
605.03	486.83
605.18	456.40
605.34	482.15
605.49	407.25
605.65	442.36
605.80	395.55
605.96	369.80
606.12	416.62
606.27	418.96
606.43	433.00
606.58	409.59
606.74	447.04
606.89	463.43
607.05	383.85
607.20	449.38
607.36	472.79
607.51	386.19
607.67	386.19
607.82	444.70
607.98	458.74
608.13	435.34
608.29	491.51
608.44	414.27
608.60	400.23
608.75	383.85
608.91	388.53
609.06	454.06
609.22	461.09
609.37	411.93
609.53	400.23
609.68	390.87
609.84	414.27
609.99	454.06
610.15	484.49
