SpectraSuite Data File
++++++++++++++++++++++++++++++++++++
Date: Fri Oct 25 12:10:34 EDT 2013
User: price-jones
Dark Spectrum Present: No
Reference Spectrum Present: No
Number of Sampled Component Spectra: 1
Spectrometers: USB2+H05261
Integration Time (usec): 100000 (USB2+H05261)
Spectra Averaged: 1 (USB2+H05261)
Boxcar Smoothing: 0 (USB2+H05261)
Correct for Electrical Dark: No (USB2+H05261)
Strobe/Lamp Enabled: No (USB2+H05261)
Correct for Detector Non-linearity: No (USB2+H05261)
Correct for Stray Light: No (USB2+H05261)
Number of Pixels in Processed Spectrum: 2048
>>>>>Begin Processed Spectral Data<<<<<
365.73	306.61
365.92	306.61
366.12	306.61
366.32	332.36
366.52	224.69
366.72	264.48
366.91	184.90
367.11	257.46
367.31	285.55
367.51	180.22
367.70	236.39
367.90	269.16
368.10	252.78
368.30	238.73
368.49	191.92
368.69	283.20
368.89	194.26
369.09	234.05
369.28	297.25
369.48	229.37
369.68	308.95
369.87	276.18
370.07	360.44
370.27	320.65
370.47	320.65
370.66	351.08
370.86	365.12
371.06	367.46
371.25	409.59
371.45	332.36
371.65	332.36
371.84	379.17
372.04	341.72
372.24	423.64
372.44	388.53
372.63	365.12
372.83	409.59
373.03	355.76
373.22	374.49
373.42	393.21
373.62	386.19
373.81	435.34
374.01	472.79
374.21	489.17
374.40	395.55
374.60	470.45
374.79	369.80
374.99	428.32
375.19	372.15
375.38	383.85
375.58	423.64
375.78	477.47
375.97	447.04
376.17	498.53
376.37	376.83
376.56	468.11
376.76	416.62
376.95	407.25
377.15	390.87
377.35	468.11
377.54	397.89
377.74	416.62
377.93	351.08
378.13	395.55
378.33	407.25
378.52	416.62
378.72	491.51
378.91	409.59
379.11	383.85
379.31	327.68
379.50	472.79
379.70	390.87
379.89	437.68
380.09	348.74
380.28	451.72
380.48	425.98
380.68	404.91
380.87	395.55
381.07	383.85
381.26	463.43
381.46	390.87
381.65	353.42
381.85	411.93
382.04	365.12
382.24	386.19
382.43	386.19
382.63	465.77
382.83	454.06
383.02	360.44
383.22	491.51
383.41	388.53
383.61	383.85
383.80	386.19
384.00	358.10
384.19	461.09
384.39	358.10
384.58	381.51
384.78	435.34
384.97	437.68
385.17	430.66
385.36	402.57
385.56	433.00
385.75	383.85
385.95	423.64
386.14	449.38
386.34	376.83
386.53	376.83
386.72	400.23
386.92	447.04
387.11	430.66
387.31	369.80
387.50	365.12
387.70	332.36
387.89	479.81
388.09	411.93
388.28	409.59
388.48	397.89
388.67	402.57
388.86	414.27
389.06	362.78
389.25	416.62
389.45	383.85
389.64	414.27
389.84	447.04
390.03	465.77
390.22	362.78
390.42	433.00
390.61	407.25
390.81	421.30
391.00	407.25
391.19	475.13
391.39	409.59
391.58	362.78
391.78	409.59
391.97	449.38
392.16	390.87
392.36	365.12
392.55	454.06
392.75	360.44
392.94	390.87
393.13	379.17
393.33	355.76
393.52	425.98
393.71	355.76
393.91	416.62
394.10	369.80
394.29	390.87
394.49	400.23
394.68	376.83
394.88	388.53
395.07	369.80
395.26	397.89
395.46	418.96
395.65	442.36
395.84	418.96
396.04	479.81
396.23	386.19
396.42	423.64
396.62	411.93
396.81	440.02
397.00	425.98
397.19	390.87
397.39	418.96
397.58	433.00
397.77	388.53
397.97	374.49
398.16	360.44
398.35	433.00
398.55	454.06
398.74	393.21
398.93	416.62
399.12	365.12
399.32	414.27
399.51	428.32
399.70	437.68
399.90	444.70
400.09	397.89
400.28	379.17
400.47	379.17
400.67	390.87
400.86	390.87
401.05	337.04
401.24	416.62
401.44	437.68
401.63	433.00
401.82	430.66
402.01	337.04
402.21	367.46
402.40	435.34
402.59	447.04
402.78	360.44
402.97	440.02
403.17	381.51
403.36	388.53
403.55	372.15
403.74	430.66
403.93	444.70
404.13	435.34
404.32	376.83
404.51	404.91
404.70	381.51
404.89	414.27
405.09	428.32
405.28	437.68
405.47	414.27
405.66	372.15
405.85	428.32
406.05	414.27
406.24	449.38
406.43	468.11
406.62	489.17
406.81	470.45
407.00	428.32
407.20	444.70
407.39	369.80
407.58	388.53
407.77	386.19
407.96	468.11
408.15	409.59
408.34	437.68
408.54	416.62
408.73	402.57
408.92	442.36
409.11	388.53
409.30	411.93
409.49	365.12
409.68	360.44
409.87	437.68
410.07	374.49
410.26	381.51
410.45	379.17
410.64	407.25
410.83	400.23
411.02	437.68
411.21	404.91
411.40	447.04
411.59	397.89
411.78	358.10
411.98	383.85
412.17	418.96
412.36	360.44
412.55	348.74
412.74	418.96
412.93	519.60
413.12	327.68
413.31	463.43
413.50	400.23
413.69	395.55
413.88	430.66
414.07	365.12
414.26	367.46
414.45	315.97
414.64	341.72
414.83	362.78
415.02	393.21
415.22	425.98
415.41	425.98
415.60	456.40
415.79	367.46
415.98	433.00
416.17	397.89
416.36	372.15
416.55	393.21
416.74	442.36
416.93	411.93
417.12	353.42
417.31	376.83
417.50	402.57
417.69	433.00
417.88	348.74
418.07	334.70
418.26	346.40
418.45	404.91
418.64	540.66
418.83	411.93
419.02	397.89
419.21	440.02
419.39	409.59
419.58	421.30
419.77	416.62
419.96	416.62
420.15	510.24
420.34	395.55
420.53	421.30
420.72	437.68
420.91	465.77
421.10	388.53
421.29	458.74
421.48	360.44
421.67	372.15
421.86	369.80
422.05	404.91
422.24	437.68
422.43	496.19
422.61	435.34
422.80	381.51
422.99	458.74
423.18	430.66
423.37	468.11
423.56	435.34
423.75	407.25
423.94	395.55
424.13	416.62
424.32	397.89
424.50	468.11
424.69	379.17
424.88	456.40
425.07	456.40
425.26	444.70
425.45	376.83
425.64	407.25
425.83	383.85
426.01	461.09
426.20	418.96
426.39	430.66
426.58	381.51
426.77	465.77
426.96	421.30
427.15	456.40
427.33	425.98
427.52	465.77
427.71	454.06
427.90	374.49
428.09	433.00
428.28	421.30
428.46	390.87
428.65	477.47
428.84	411.93
429.03	449.38
429.22	430.66
429.40	444.70
429.59	409.59
429.78	482.15
429.97	416.62
430.16	421.30
430.34	402.57
430.53	400.23
430.72	447.04
430.91	372.15
431.10	444.70
431.28	428.32
431.47	477.47
431.66	421.30
431.85	397.89
432.03	440.02
432.22	409.59
432.41	407.25
432.60	430.66
432.79	414.27
432.97	330.02
433.16	388.53
433.35	475.13
433.54	425.98
433.72	416.62
433.91	376.83
434.10	341.72
434.28	433.00
434.47	402.57
434.66	341.72
434.85	451.72
435.03	447.04
435.22	395.55
435.41	437.68
435.59	470.45
435.78	425.98
435.97	421.30
436.16	421.30
436.34	390.87
436.53	418.96
436.72	435.34
436.90	477.47
437.09	402.57
437.28	400.23
437.46	475.13
437.65	437.68
437.84	461.09
438.02	400.23
438.21	372.15
438.40	465.77
438.58	458.74
438.77	451.72
438.96	477.47
439.14	404.91
439.33	404.91
439.52	440.02
439.70	369.80
439.89	383.85
440.08	400.23
440.26	372.15
440.45	425.98
440.63	423.64
440.82	416.62
441.01	395.55
441.19	381.51
441.38	393.21
441.57	393.21
441.75	407.25
441.94	397.89
442.12	470.45
442.31	381.51
442.50	400.23
442.68	402.57
442.87	358.10
443.05	362.78
443.24	376.83
443.43	442.36
443.61	451.72
443.80	402.57
443.98	482.15
444.17	383.85
444.35	425.98
444.54	458.74
444.73	327.68
444.91	430.66
445.10	437.68
445.28	388.53
445.47	369.80
445.65	315.97
445.84	442.36
446.02	358.10
446.21	379.17
446.39	433.00
446.58	414.27
446.77	327.68
446.95	461.09
447.14	416.62
447.32	477.47
447.51	451.72
447.69	421.30
447.88	477.47
448.06	458.74
448.25	376.83
448.43	416.62
448.62	362.78
448.80	353.42
448.99	348.74
449.17	440.02
449.36	421.30
449.54	383.85
449.73	402.57
449.91	425.98
450.10	411.93
450.28	451.72
450.46	456.40
450.65	447.04
450.83	393.21
451.02	416.62
451.20	383.85
451.39	414.27
451.57	337.04
451.76	458.74
451.94	390.87
452.13	407.25
452.31	409.59
452.49	463.43
452.68	402.57
452.86	395.55
453.05	411.93
453.23	393.21
453.42	369.80
453.60	425.98
453.78	444.70
453.97	397.89
454.15	395.55
454.34	414.27
454.52	348.74
454.70	461.09
454.89	381.51
455.07	430.66
455.26	447.04
455.44	425.98
455.62	423.64
455.81	367.46
455.99	374.49
456.17	416.62
456.36	341.72
456.54	337.04
456.73	425.98
456.91	416.62
457.09	468.11
457.28	461.09
457.46	423.64
457.64	395.55
457.83	386.19
458.01	327.68
458.19	437.68
458.38	404.91
458.56	458.74
458.74	369.80
458.93	447.04
459.11	379.17
459.29	355.76
459.48	402.57
459.66	461.09
459.84	346.40
460.03	505.56
460.21	433.00
460.39	489.17
460.57	430.66
460.76	393.21
460.94	449.38
461.12	491.51
461.31	463.43
461.49	395.55
461.67	447.04
461.85	395.55
462.04	383.85
462.22	781.74
462.40	456.40
462.59	402.57
462.77	447.04
462.95	376.83
463.13	367.46
463.32	397.89
463.50	444.70
463.68	503.22
463.86	433.00
464.05	456.40
464.23	339.38
464.41	423.64
464.59	440.02
464.78	386.19
464.96	346.40
465.14	351.08
465.32	402.57
465.50	379.17
465.69	411.93
465.87	404.91
466.05	437.68
466.23	491.51
466.41	482.15
466.60	407.25
466.78	402.57
466.96	395.55
467.14	374.49
467.32	402.57
467.51	437.68
467.69	411.93
467.87	470.45
468.05	395.55
468.23	395.55
468.41	365.12
468.60	386.19
468.78	360.44
468.96	369.80
469.14	437.68
469.32	461.09
469.50	381.51
469.69	393.21
469.87	437.68
470.05	428.32
470.23	369.80
470.41	416.62
470.59	337.04
470.77	411.93
470.95	383.85
471.14	433.00
471.32	411.93
471.50	355.76
471.68	353.42
471.86	404.91
472.04	386.19
472.22	435.34
472.40	337.04
472.58	393.21
472.77	425.98
472.95	409.59
473.13	477.47
473.31	393.21
473.49	463.43
473.67	475.13
473.85	461.09
474.03	449.38
474.21	404.91
474.39	454.06
474.57	468.11
474.75	486.83
474.93	423.64
475.12	404.91
475.30	383.85
475.48	430.66
475.66	407.25
475.84	435.34
476.02	430.66
476.20	388.53
476.38	423.64
476.56	505.56
476.74	461.09
476.92	414.27
477.10	383.85
477.28	433.00
477.46	437.68
477.64	496.19
477.82	409.59
478.00	407.25
478.18	421.30
478.36	315.97
478.54	402.57
478.72	374.49
478.90	449.38
479.08	325.33
479.26	402.57
479.44	390.87
479.62	442.36
479.80	383.85
479.98	425.98
480.16	397.89
480.34	393.21
480.52	348.74
480.70	418.96
480.88	360.44
481.06	395.55
481.24	442.36
481.41	461.09
481.59	409.59
481.77	423.64
481.95	430.66
482.13	395.55
482.31	355.76
482.49	397.89
482.67	383.85
482.85	367.46
483.03	397.89
483.21	325.33
483.39	390.87
483.57	348.74
483.74	484.49
483.92	447.04
484.10	416.62
484.28	458.74
484.46	461.09
484.64	400.23
484.82	423.64
485.00	430.66
485.18	423.64
485.35	402.57
485.53	339.38
485.71	440.02
485.89	351.08
486.07	435.34
486.25	444.70
486.43	428.32
486.61	435.34
486.78	440.02
486.96	393.21
487.14	341.72
487.32	433.00
487.50	346.40
487.68	409.59
487.85	344.06
488.03	489.17
488.21	491.51
488.39	444.70
488.57	425.98
488.75	479.81
488.92	482.15
489.10	409.59
489.28	449.38
489.46	416.62
489.64	430.66
489.81	379.17
489.99	416.62
490.17	404.91
490.35	465.77
490.53	433.00
490.70	372.15
490.88	493.85
491.06	400.23
491.24	437.68
491.41	435.34
491.59	430.66
491.77	358.10
491.95	381.51
492.13	430.66
492.30	379.17
492.48	421.30
492.66	411.93
492.84	388.53
493.01	423.64
493.19	440.02
493.37	428.32
493.54	395.55
493.72	421.30
493.90	360.44
494.08	437.68
494.25	376.83
494.43	416.62
494.61	388.53
494.79	449.38
494.96	365.12
495.14	397.89
495.32	393.21
495.49	425.98
495.67	456.40
495.85	341.72
496.02	402.57
496.20	461.09
496.38	416.62
496.55	365.12
496.73	383.85
496.91	430.66
497.09	339.38
497.26	435.34
497.44	472.79
497.62	365.12
497.79	334.70
497.97	449.38
498.14	468.11
498.32	416.62
498.50	407.25
498.67	416.62
498.85	433.00
499.03	404.91
499.20	437.68
499.38	367.46
499.56	409.59
499.73	435.34
499.91	386.19
500.08	404.91
500.26	461.09
500.44	379.17
500.61	369.80
500.79	437.68
500.97	510.24
501.14	449.38
501.32	440.02
501.49	393.21
501.67	337.04
501.84	386.19
502.02	402.57
502.20	447.04
502.37	418.96
502.55	423.64
502.72	425.98
502.90	477.47
503.07	465.77
503.25	390.87
503.43	386.19
503.60	447.04
503.78	503.22
503.95	433.00
504.13	421.30
504.30	374.49
504.48	409.59
504.65	409.59
504.83	475.13
505.01	348.74
505.18	381.51
505.36	374.49
505.53	367.46
505.71	400.23
505.88	484.49
506.06	386.19
506.23	451.72
506.41	433.00
506.58	451.72
506.76	395.55
506.93	395.55
507.11	409.59
507.28	365.12
507.46	348.74
507.63	397.89
507.81	472.79
507.98	416.62
508.16	475.13
508.33	463.43
508.50	451.72
508.68	374.49
508.85	393.21
509.03	437.68
509.20	386.19
509.38	414.27
509.55	437.68
509.73	463.43
509.90	430.66
510.08	475.13
510.25	447.04
510.42	435.34
510.60	409.59
510.77	411.93
510.95	390.87
511.12	353.42
511.30	454.06
511.47	383.85
511.64	442.36
511.82	428.32
511.99	383.85
512.17	433.00
512.34	418.96
512.51	348.74
512.69	395.55
512.86	416.62
513.04	409.59
513.21	402.57
513.38	365.12
513.56	358.10
513.73	379.17
513.90	386.19
514.08	367.46
514.25	514.92
514.43	418.96
514.60	386.19
514.77	369.80
514.95	362.78
515.12	416.62
515.29	418.96
515.47	400.23
515.64	447.04
515.81	447.04
515.99	409.59
516.16	433.00
516.33	418.96
516.51	447.04
516.68	407.25
516.85	344.06
517.03	428.32
517.20	379.17
517.37	383.85
517.54	395.55
517.72	381.51
517.89	346.40
518.06	465.77
518.24	447.04
518.41	465.77
518.58	493.85
518.75	362.78
518.93	388.53
519.10	461.09
519.27	433.00
519.45	397.89
519.62	428.32
519.79	383.85
519.96	430.66
520.14	411.93
520.31	463.43
520.48	397.89
520.65	362.78
520.83	388.53
521.00	456.40
521.17	390.87
521.34	423.64
521.52	416.62
521.69	461.09
521.86	451.72
522.03	433.00
522.20	496.19
522.38	475.13
522.55	454.06
522.72	397.89
522.89	433.00
523.07	461.09
523.24	475.13
523.41	458.74
523.58	404.91
523.75	402.57
523.92	458.74
524.10	372.15
524.27	447.04
524.44	456.40
524.61	395.55
524.78	395.55
524.96	376.83
525.13	430.66
525.30	498.53
525.47	503.22
525.64	423.64
525.81	388.53
525.98	463.43
526.16	414.27
526.33	372.15
526.50	393.21
526.67	379.17
526.84	388.53
527.01	388.53
527.18	404.91
527.36	449.38
527.53	418.96
527.70	374.49
527.87	395.55
528.04	430.66
528.21	435.34
528.38	442.36
528.55	411.93
528.72	428.32
528.89	479.81
529.07	306.61
529.24	376.83
529.41	449.38
529.58	440.02
529.75	386.19
529.92	477.47
530.09	430.66
530.26	372.15
530.43	397.89
530.60	428.32
530.77	409.59
530.94	395.55
531.11	365.12
531.28	444.70
531.46	425.98
531.63	435.34
531.80	433.00
531.97	433.00
532.14	433.00
532.31	376.83
532.48	402.57
532.65	440.02
532.82	400.23
532.99	318.31
533.16	376.83
533.33	409.59
533.50	456.40
533.67	390.87
533.84	421.30
534.01	421.30
534.18	423.64
534.35	433.00
534.52	414.27
534.69	383.85
534.86	374.49
535.03	418.96
535.20	386.19
535.37	479.81
535.54	465.77
535.71	435.34
535.88	451.72
536.05	372.15
536.22	433.00
536.38	353.42
536.55	374.49
536.72	407.25
536.89	344.06
537.06	440.02
537.23	491.51
537.40	447.04
537.57	451.72
537.74	404.91
537.91	388.53
538.08	397.89
538.25	404.91
538.42	383.85
538.59	451.72
538.75	395.55
538.92	444.70
539.09	421.30
539.26	425.98
539.43	442.36
539.60	447.04
539.77	374.49
539.94	425.98
540.11	402.57
540.28	393.21
540.44	465.77
540.61	418.96
540.78	449.38
540.95	383.85
541.12	402.57
541.29	491.51
541.46	386.19
541.62	397.89
541.79	395.55
541.96	386.19
542.13	454.06
542.30	491.51
542.47	435.34
542.63	442.36
542.80	423.64
542.97	367.46
543.14	404.91
543.31	383.85
543.48	496.19
543.64	416.62
543.81	437.68
543.98	386.19
544.15	390.87
544.32	400.23
544.48	390.87
544.65	440.02
544.82	395.55
544.99	423.64
545.16	416.62
545.32	418.96
545.49	430.66
545.66	425.98
545.83	383.85
546.00	411.93
546.16	418.96
546.33	381.51
546.50	428.32
546.67	493.85
546.83	362.78
547.00	514.92
547.17	374.49
547.34	416.62
547.50	397.89
547.67	348.74
547.84	400.23
548.00	421.30
548.17	379.17
548.34	348.74
548.51	416.62
548.67	416.62
548.84	421.30
549.01	461.09
549.18	461.09
549.34	428.32
549.51	386.19
549.68	510.24
549.84	388.53
550.01	400.23
550.18	496.19
550.34	505.56
550.51	430.66
550.68	416.62
550.84	428.32
551.01	404.91
551.18	337.04
551.34	334.70
551.51	444.70
551.68	458.74
551.84	423.64
552.01	374.49
552.18	386.19
552.34	411.93
552.51	428.32
552.68	454.06
552.84	386.19
553.01	470.45
553.18	468.11
553.34	430.66
553.51	423.64
553.67	461.09
553.84	475.13
554.01	430.66
554.17	355.76
554.34	407.25
554.51	423.64
554.67	390.87
554.84	360.44
555.00	442.36
555.17	484.49
555.33	379.17
555.50	447.04
555.67	477.47
555.83	461.09
556.00	393.21
556.16	512.58
556.33	400.23
556.50	484.49
556.66	390.87
556.83	418.96
556.99	418.96
557.16	421.30
557.32	468.11
557.49	440.02
557.65	416.62
557.82	430.66
557.98	425.98
558.15	423.64
558.32	442.36
558.48	341.72
558.65	458.74
558.81	472.79
558.98	397.89
559.14	491.51
559.31	358.10
559.47	416.62
559.64	402.57
559.80	440.02
559.97	393.21
560.13	407.25
560.30	414.27
560.46	416.62
560.63	386.19
560.79	411.93
560.96	425.98
561.12	383.85
561.29	416.62
561.45	402.57
561.61	442.36
561.78	470.45
561.94	444.70
562.11	423.64
562.27	411.93
562.44	388.53
562.60	322.99
562.77	353.42
562.93	444.70
563.10	393.21
563.26	409.59
563.42	430.66
563.59	447.04
563.75	440.02
563.92	383.85
564.08	418.96
564.24	381.51
564.41	433.00
564.57	388.53
564.74	395.55
564.90	451.72
565.07	491.51
565.23	454.06
565.39	442.36
565.56	425.98
565.72	463.43
565.88	411.93
566.05	428.32
566.21	407.25
566.38	456.40
566.54	472.79
566.70	365.12
566.87	428.32
567.03	381.51
567.19	418.96
567.36	437.68
567.52	411.93
567.68	514.92
567.85	411.93
568.01	475.13
568.17	355.76
568.34	418.96
568.50	517.26
568.66	428.32
568.83	500.87
568.99	374.49
569.15	395.55
569.32	390.87
569.48	416.62
569.64	367.46
569.81	386.19
569.97	404.91
570.13	454.06
570.30	386.19
570.46	381.51
570.62	442.36
570.78	461.09
570.95	348.74
571.11	411.93
571.27	444.70
571.43	461.09
571.60	454.06
571.76	423.64
571.92	397.89
572.09	421.30
572.25	407.25
572.41	416.62
572.57	409.59
572.74	477.47
572.90	407.25
573.06	425.98
573.22	440.02
573.38	397.89
573.55	435.34
573.71	454.06
573.87	388.53
574.03	393.21
574.20	430.66
574.36	379.17
574.52	379.17
574.68	428.32
574.84	379.17
575.01	416.62
575.17	437.68
575.33	454.06
575.49	461.09
575.65	433.00
575.82	437.68
575.98	425.98
576.14	381.51
576.30	475.13
576.46	369.80
576.62	409.59
576.79	468.11
576.95	407.25
577.11	430.66
577.27	346.40
577.43	458.74
577.59	430.66
577.75	461.09
577.92	435.34
578.08	383.85
578.24	386.19
578.40	383.85
578.56	437.68
578.72	414.27
578.88	421.30
579.04	400.23
579.21	334.70
579.37	416.62
579.53	381.51
579.69	428.32
579.85	348.74
580.01	456.40
580.17	393.21
580.33	470.45
580.49	407.25
580.65	318.31
580.82	421.30
580.98	383.85
581.14	383.85
581.30	449.38
581.46	390.87
581.62	409.59
581.78	390.87
581.94	437.68
582.10	374.49
582.26	484.49
582.42	440.02
582.58	454.06
582.74	472.79
582.90	505.56
583.06	362.78
583.22	337.04
583.38	402.57
583.54	365.12
583.70	414.27
583.86	397.89
584.02	468.11
584.18	428.32
584.34	428.32
584.50	454.06
584.66	442.36
584.82	404.91
584.98	444.70
585.14	379.17
585.30	451.72
585.46	400.23
585.62	503.22
585.78	451.72
585.94	484.49
586.10	465.77
586.26	418.96
586.42	388.53
586.58	444.70
586.74	407.25
586.90	418.96
587.06	386.19
587.22	458.74
587.38	421.30
587.54	465.77
587.70	360.44
587.86	510.24
588.02	388.53
588.18	416.62
588.34	404.91
588.49	416.62
588.65	472.79
588.81	423.64
588.97	327.68
589.13	430.66
589.29	421.30
589.45	440.02
589.61	435.34
589.77	421.30
589.93	425.98
590.08	430.66
590.24	395.55
590.40	404.91
590.56	430.66
590.72	472.79
590.88	423.64
591.04	404.91
591.20	407.25
591.35	507.90
591.51	379.17
591.67	390.87
591.83	383.85
591.99	409.59
592.15	400.23
592.31	404.91
592.46	367.46
592.62	451.72
592.78	404.91
592.94	397.89
593.10	444.70
593.26	416.62
593.41	430.66
593.57	416.62
593.73	400.23
593.89	458.74
594.05	430.66
594.20	430.66
594.36	514.92
594.52	404.91
594.68	346.40
594.84	407.25
594.99	374.49
595.15	428.32
595.31	440.02
595.47	437.68
595.62	381.51
595.78	442.36
595.94	397.89
596.10	407.25
596.25	386.19
596.41	475.13
596.57	421.30
596.73	402.57
596.88	472.79
597.04	430.66
597.20	397.89
597.36	407.25
597.51	418.96
597.67	463.43
597.83	435.34
597.99	477.47
598.14	390.87
598.30	411.93
598.46	402.57
598.61	456.40
598.77	428.32
598.93	437.68
599.09	386.19
599.24	388.53
599.40	416.62
599.56	444.70
599.71	444.70
599.87	451.72
600.03	486.83
600.18	423.64
600.34	362.78
600.50	402.57
600.65	400.23
600.81	421.30
600.97	379.17
601.12	386.19
601.28	395.55
601.44	351.08
601.59	435.34
601.75	418.96
601.91	409.59
602.06	470.45
602.22	505.56
602.37	444.70
602.53	430.66
602.69	477.47
602.84	381.51
603.00	379.17
603.16	503.22
603.31	407.25
603.47	437.68
603.62	425.98
603.78	444.70
603.94	489.17
604.09	449.38
604.25	472.79
604.40	440.02
604.56	355.76
604.71	463.43
604.87	365.12
605.03	390.87
605.18	493.85
605.34	442.36
605.49	397.89
605.65	425.98
605.80	447.04
605.96	400.23
606.12	451.72
606.27	472.79
606.43	437.68
606.58	339.38
606.74	379.17
606.89	458.74
607.05	402.57
607.20	411.93
607.36	411.93
607.51	437.68
607.67	435.34
607.82	496.19
607.98	461.09
608.13	493.85
608.29	416.62
608.44	475.13
608.60	454.06
608.75	442.36
608.91	437.68
609.06	404.91
609.22	397.89
609.37	437.68
609.53	416.62
609.68	479.81
609.84	414.27
609.99	390.87
610.15	444.70
