SpectraSuite Data File
++++++++++++++++++++++++++++++++++++
Date: Fri Oct 25 12:11:12 EDT 2013
User: price-jones
Dark Spectrum Present: No
Reference Spectrum Present: No
Number of Sampled Component Spectra: 1
Spectrometers: USB2+H05261
Integration Time (usec): 100000 (USB2+H05261)
Spectra Averaged: 1 (USB2+H05261)
Boxcar Smoothing: 0 (USB2+H05261)
Correct for Electrical Dark: No (USB2+H05261)
Strobe/Lamp Enabled: No (USB2+H05261)
Correct for Detector Non-linearity: No (USB2+H05261)
Correct for Stray Light: No (USB2+H05261)
Number of Pixels in Processed Spectrum: 2048
>>>>>Begin Processed Spectral Data<<<<<
365.73	299.59
365.92	299.59
366.12	299.59
366.32	255.12
366.52	180.22
366.72	217.67
366.91	264.48
367.11	210.65
367.31	231.71
367.51	299.59
367.70	259.80
367.90	264.48
368.10	322.99
368.30	229.37
368.49	266.82
368.69	229.37
368.89	262.14
369.09	224.69
369.28	313.63
369.48	269.16
369.68	255.12
369.87	299.59
370.07	271.50
370.27	348.74
370.47	252.78
370.66	346.40
370.86	344.06
371.06	465.77
371.25	416.62
371.45	318.31
371.65	334.70
371.84	390.87
372.04	341.72
372.24	339.38
372.44	315.97
372.63	355.76
372.83	423.64
373.03	402.57
373.22	409.59
373.42	400.23
373.62	409.59
373.81	458.74
374.01	423.64
374.21	442.36
374.40	339.38
374.60	433.00
374.79	444.70
374.99	437.68
375.19	404.91
375.38	465.77
375.58	404.91
375.78	411.93
375.97	416.62
376.17	435.34
376.37	390.87
376.56	400.23
376.76	404.91
376.95	435.34
377.15	404.91
377.35	411.93
377.54	404.91
377.74	355.76
377.93	393.21
378.13	409.59
378.33	442.36
378.52	365.12
378.72	400.23
378.91	374.49
379.11	404.91
379.31	444.70
379.50	311.29
379.70	418.96
379.89	397.89
380.09	425.98
380.28	447.04
380.48	409.59
380.68	348.74
380.87	402.57
381.07	411.93
381.26	430.66
381.46	404.91
381.65	383.85
381.85	374.49
382.04	428.32
382.24	348.74
382.43	395.55
382.63	400.23
382.83	376.83
383.02	437.68
383.22	407.25
383.41	362.78
383.61	428.32
383.80	449.38
384.00	409.59
384.19	306.61
384.39	341.72
384.58	430.66
384.78	421.30
384.97	372.15
385.17	379.17
385.36	397.89
385.56	344.06
385.75	435.34
385.95	458.74
386.14	430.66
386.34	355.76
386.53	468.11
386.72	358.10
386.92	503.22
387.11	397.89
387.31	435.34
387.50	355.76
387.70	362.78
387.89	416.62
388.09	404.91
388.28	433.00
388.48	402.57
388.67	468.11
388.86	332.36
389.06	461.09
389.25	425.98
389.45	423.64
389.64	376.83
389.84	367.46
390.03	425.98
390.22	428.32
390.42	416.62
390.61	353.42
390.81	416.62
391.00	440.02
391.19	407.25
391.39	416.62
391.58	397.89
391.78	397.89
391.97	374.49
392.16	376.83
392.36	463.43
392.55	409.59
392.75	367.46
392.94	472.79
393.13	390.87
393.33	344.06
393.52	348.74
393.71	416.62
393.91	428.32
394.10	360.44
394.29	416.62
394.49	416.62
394.68	337.04
394.88	411.93
395.07	486.83
395.26	409.59
395.46	400.23
395.65	461.09
395.84	376.83
396.04	489.17
396.23	477.47
396.42	409.59
396.62	379.17
396.81	409.59
397.00	393.21
397.19	395.55
397.39	498.53
397.58	484.49
397.77	400.23
397.97	433.00
398.16	388.53
398.35	383.85
398.55	372.15
398.74	402.57
398.93	449.38
399.12	465.77
399.32	407.25
399.51	390.87
399.70	447.04
399.90	407.25
400.09	397.89
400.28	482.15
400.47	365.12
400.67	402.57
400.86	411.93
401.05	346.40
401.24	423.64
401.44	395.55
401.63	454.06
401.82	400.23
402.01	463.43
402.21	428.32
402.40	428.32
402.59	407.25
402.78	425.98
402.97	442.36
403.17	484.49
403.36	393.21
403.55	365.12
403.74	390.87
403.93	411.93
404.13	388.53
404.32	341.72
404.51	341.72
404.70	393.21
404.89	423.64
405.09	468.11
405.28	367.46
405.47	341.72
405.66	435.34
405.85	407.25
406.05	355.76
406.24	360.44
406.43	365.12
406.62	465.77
406.81	409.59
407.00	430.66
407.20	395.55
407.39	416.62
407.58	379.17
407.77	421.30
407.96	526.62
408.15	409.59
408.34	409.59
408.54	388.53
408.73	414.27
408.92	433.00
409.11	451.72
409.30	433.00
409.49	355.76
409.68	383.85
409.87	374.49
410.07	390.87
410.26	383.85
410.45	442.36
410.64	348.74
410.83	486.83
411.02	383.85
411.21	428.32
411.40	433.00
411.59	332.36
411.78	334.70
411.98	430.66
412.17	423.64
412.36	376.83
412.55	472.79
412.74	358.10
412.93	442.36
413.12	376.83
413.31	418.96
413.50	447.04
413.69	449.38
413.88	400.23
414.07	404.91
414.26	400.23
414.45	388.53
414.64	454.06
414.83	423.64
415.02	461.09
415.22	355.76
415.41	456.40
415.60	381.51
415.79	372.15
415.98	458.74
416.17	451.72
416.36	425.98
416.55	325.33
416.74	512.58
416.93	374.49
417.12	379.17
417.31	425.98
417.50	400.23
417.69	376.83
417.88	444.70
418.07	358.10
418.26	409.59
418.45	330.02
418.64	514.92
418.83	367.46
419.02	383.85
419.21	418.96
419.39	421.30
419.58	468.11
419.77	395.55
419.96	390.87
420.15	425.98
420.34	381.51
420.53	376.83
420.72	484.49
420.91	421.30
421.10	435.34
421.29	416.62
421.48	449.38
421.67	435.34
421.86	421.30
422.05	344.06
422.24	409.59
422.43	386.19
422.61	411.93
422.80	428.32
422.99	463.43
423.18	341.72
423.37	407.25
423.56	411.93
423.75	318.31
423.94	421.30
424.13	390.87
424.32	404.91
424.50	421.30
424.69	372.15
424.88	414.27
425.07	482.15
425.26	456.40
425.45	379.17
425.64	433.00
425.83	383.85
426.01	472.79
426.20	416.62
426.39	395.55
426.58	400.23
426.77	440.02
426.96	390.87
427.15	421.30
427.33	425.98
427.52	421.30
427.71	463.43
427.90	358.10
428.09	465.77
428.28	365.12
428.46	440.02
428.65	409.59
428.84	442.36
429.03	428.32
429.22	376.83
429.40	395.55
429.59	407.25
429.78	442.36
429.97	362.78
430.16	418.96
430.34	372.15
430.53	372.15
430.72	388.53
430.91	376.83
431.10	374.49
431.28	423.64
431.47	447.04
431.66	369.80
431.85	381.51
432.03	407.25
432.22	421.30
432.41	407.25
432.60	404.91
432.79	388.53
432.97	437.68
433.16	409.59
433.35	344.06
433.54	404.91
433.72	369.80
433.91	358.10
434.10	341.72
434.28	339.38
434.47	440.02
434.66	437.68
434.85	402.57
435.03	353.42
435.22	475.13
435.41	486.83
435.59	433.00
435.78	411.93
435.97	414.27
436.16	444.70
436.34	402.57
436.53	451.72
436.72	346.40
436.90	395.55
437.09	348.74
437.28	355.76
437.46	407.25
437.65	388.53
437.84	379.17
438.02	435.34
438.21	421.30
438.40	461.09
438.58	430.66
438.77	402.57
438.96	421.30
439.14	341.72
439.33	470.45
439.52	339.38
439.70	409.59
439.89	433.00
440.08	393.21
440.26	414.27
440.45	414.27
440.63	421.30
440.82	355.76
441.01	430.66
441.19	393.21
441.38	374.49
441.57	386.19
441.75	451.72
441.94	395.55
442.12	381.51
442.31	400.23
442.50	437.68
442.68	365.12
442.87	442.36
443.05	362.78
443.24	437.68
443.43	428.32
443.61	400.23
443.80	400.23
443.98	402.57
444.17	344.06
444.35	360.44
444.54	423.64
444.73	353.42
444.91	514.92
445.10	344.06
445.28	470.45
445.47	451.72
445.65	390.87
445.84	383.85
446.02	404.91
446.21	416.62
446.39	416.62
446.58	395.55
446.77	374.49
446.95	407.25
447.14	348.74
447.32	402.57
447.51	355.76
447.69	390.87
447.88	409.59
448.06	500.87
448.25	468.11
448.43	435.34
448.62	411.93
448.80	472.79
448.99	440.02
449.17	407.25
449.36	404.91
449.54	381.51
449.73	425.98
449.91	402.57
450.10	416.62
450.28	456.40
450.46	463.43
450.65	458.74
450.83	369.80
451.02	454.06
451.20	425.98
451.39	477.47
451.57	414.27
451.76	308.95
451.94	388.53
452.13	421.30
452.31	409.59
452.49	477.47
452.68	449.38
452.86	461.09
453.05	435.34
453.23	397.89
453.42	381.51
453.60	407.25
453.78	421.30
453.97	411.93
454.15	423.64
454.34	365.12
454.52	423.64
454.70	503.22
454.89	437.68
455.07	435.34
455.26	423.64
455.44	454.06
455.62	393.21
455.81	442.36
455.99	397.89
456.17	491.51
456.36	393.21
456.54	381.51
456.73	404.91
456.91	402.57
457.09	505.56
457.28	402.57
457.46	390.87
457.64	449.38
457.83	425.98
458.01	433.00
458.19	376.83
458.38	397.89
458.56	489.17
458.74	393.21
458.93	358.10
459.11	337.04
459.29	435.34
459.48	503.22
459.66	416.62
459.84	414.27
460.03	538.32
460.21	395.55
460.39	346.40
460.57	444.70
460.76	423.64
460.94	416.62
461.12	489.17
461.31	402.57
461.49	397.89
461.67	400.23
461.85	360.44
462.04	442.36
462.22	814.51
462.40	425.98
462.59	430.66
462.77	341.72
462.95	383.85
463.13	390.87
463.32	397.89
463.50	454.06
463.68	379.17
463.86	435.34
464.05	402.57
464.23	423.64
464.41	407.25
464.59	454.06
464.78	507.90
464.96	472.79
465.14	353.42
465.32	379.17
465.50	458.74
465.69	365.12
465.87	444.70
466.05	454.06
466.23	330.02
466.41	376.83
466.60	423.64
466.78	341.72
466.96	416.62
467.14	402.57
467.32	451.72
467.51	507.90
467.69	470.45
467.87	458.74
468.05	374.49
468.23	437.68
468.41	435.34
468.60	507.90
468.78	369.80
468.96	454.06
469.14	353.42
469.32	383.85
469.50	479.81
469.69	465.77
469.87	425.98
470.05	393.21
470.23	409.59
470.41	393.21
470.59	376.83
470.77	407.25
470.95	381.51
471.14	435.34
471.32	416.62
471.50	496.19
471.68	461.09
471.86	404.91
472.04	402.57
472.22	489.17
472.40	386.19
472.58	351.08
472.77	447.04
472.95	397.89
473.13	442.36
473.31	470.45
473.49	435.34
473.67	418.96
473.85	437.68
474.03	458.74
474.21	372.15
474.39	411.93
474.57	409.59
474.75	407.25
474.93	395.55
475.12	365.12
475.30	390.87
475.48	390.87
475.66	397.89
475.84	388.53
476.02	395.55
476.20	491.51
476.38	414.27
476.56	433.00
476.74	425.98
476.92	444.70
477.10	383.85
477.28	390.87
477.46	416.62
477.64	386.19
477.82	388.53
478.00	409.59
478.18	451.72
478.36	444.70
478.54	376.83
478.72	418.96
478.90	325.33
479.08	351.08
479.26	454.06
479.44	463.43
479.62	430.66
479.80	461.09
479.98	407.25
480.16	372.15
480.34	433.00
480.52	402.57
480.70	395.55
480.88	407.25
481.06	393.21
481.24	404.91
481.41	395.55
481.59	416.62
481.77	440.02
481.95	433.00
482.13	400.23
482.31	381.51
482.49	346.40
482.67	456.40
482.85	418.96
483.03	369.80
483.21	416.62
483.39	411.93
483.57	376.83
483.74	423.64
483.92	444.70
484.10	400.23
484.28	449.38
484.46	440.02
484.64	435.34
484.82	421.30
485.00	390.87
485.18	362.78
485.35	374.49
485.53	409.59
485.71	430.66
485.89	428.32
486.07	447.04
486.25	475.13
486.43	454.06
486.61	418.96
486.78	444.70
486.96	395.55
487.14	409.59
487.32	386.19
487.50	383.85
487.68	393.21
487.85	409.59
488.03	358.10
488.21	416.62
488.39	411.93
488.57	404.91
488.75	433.00
488.92	500.87
489.10	428.32
489.28	447.04
489.46	351.08
489.64	332.36
489.81	437.68
489.99	465.77
490.17	456.40
490.35	463.43
490.53	423.64
490.70	379.17
490.88	390.87
491.06	381.51
491.24	395.55
491.41	442.36
491.59	463.43
491.77	421.30
491.95	418.96
492.13	418.96
492.30	390.87
492.48	390.87
492.66	404.91
492.84	386.19
493.01	435.34
493.19	425.98
493.37	456.40
493.54	430.66
493.72	346.40
493.90	348.74
494.08	374.49
494.25	451.72
494.43	435.34
494.61	447.04
494.79	358.10
494.96	376.83
495.14	421.30
495.32	454.06
495.49	465.77
495.67	512.58
495.85	308.95
496.02	430.66
496.20	458.74
496.38	400.23
496.55	477.47
496.73	390.87
496.91	472.79
497.09	428.32
497.26	418.96
497.44	435.34
497.62	402.57
497.79	404.91
497.97	362.78
498.14	374.49
498.32	423.64
498.50	367.46
498.67	383.85
498.85	404.91
499.03	489.17
499.20	428.32
499.38	379.17
499.56	433.00
499.73	449.38
499.91	397.89
500.08	437.68
500.26	346.40
500.44	318.31
500.61	395.55
500.79	402.57
500.97	362.78
501.14	402.57
501.32	430.66
501.49	472.79
501.67	517.26
501.84	404.91
502.02	435.34
502.20	510.24
502.37	461.09
502.55	449.38
502.72	409.59
502.90	472.79
503.07	440.02
503.25	430.66
503.43	322.99
503.60	351.08
503.78	435.34
503.95	440.02
504.13	407.25
504.30	421.30
504.48	425.98
504.65	447.04
504.83	425.98
505.01	456.40
505.18	407.25
505.36	430.66
505.53	456.40
505.71	404.91
505.88	418.96
506.06	517.26
506.23	454.06
506.41	381.51
506.58	472.79
506.76	369.80
506.93	491.51
507.11	430.66
507.28	395.55
507.46	395.55
507.63	381.51
507.81	409.59
507.98	379.17
508.16	482.15
508.33	468.11
508.50	390.87
508.68	390.87
508.85	486.83
509.03	393.21
509.20	327.68
509.38	425.98
509.55	442.36
509.73	421.30
509.90	437.68
510.08	437.68
510.25	479.81
510.42	374.49
510.60	379.17
510.77	411.93
510.95	351.08
511.12	407.25
511.30	418.96
511.47	465.77
511.64	491.51
511.82	374.49
511.99	390.87
512.17	514.92
512.34	383.85
512.51	416.62
512.69	369.80
512.86	463.43
513.04	421.30
513.21	386.19
513.38	393.21
513.56	456.40
513.73	449.38
513.90	402.57
514.08	407.25
514.25	454.06
514.43	451.72
514.60	463.43
514.77	388.53
514.95	423.64
515.12	402.57
515.29	397.89
515.47	414.27
515.64	468.11
515.81	449.38
515.99	430.66
516.16	402.57
516.33	500.87
516.51	461.09
516.68	425.98
516.85	458.74
517.03	409.59
517.20	379.17
517.37	444.70
517.54	440.02
517.72	416.62
517.89	400.23
518.06	435.34
518.24	383.85
518.41	425.98
518.58	376.83
518.75	414.27
518.93	409.59
519.10	320.65
519.27	435.34
519.45	360.44
519.62	369.80
519.79	402.57
519.96	402.57
520.14	332.36
520.31	468.11
520.48	454.06
520.65	362.78
520.83	383.85
521.00	433.00
521.17	400.23
521.34	320.65
521.52	390.87
521.69	390.87
521.86	421.30
522.03	404.91
522.20	400.23
522.38	348.74
522.55	437.68
522.72	369.80
522.89	383.85
523.07	493.85
523.24	435.34
523.41	376.83
523.58	386.19
523.75	447.04
523.92	416.62
524.10	409.59
524.27	447.04
524.44	416.62
524.61	456.40
524.78	400.23
524.96	451.72
525.13	393.21
525.30	430.66
525.47	388.53
525.64	463.43
525.81	423.64
525.98	409.59
526.16	395.55
526.33	416.62
526.50	390.87
526.67	444.70
526.84	397.89
527.01	411.93
527.18	425.98
527.36	435.34
527.53	339.38
527.70	449.38
527.87	395.55
528.04	430.66
528.21	444.70
528.38	414.27
528.55	395.55
528.72	493.85
528.89	447.04
529.07	397.89
529.24	308.95
529.41	397.89
529.58	423.64
529.75	418.96
529.92	374.49
530.09	423.64
530.26	461.09
530.43	435.34
530.60	433.00
530.77	390.87
530.94	423.64
531.11	435.34
531.28	451.72
531.46	430.66
531.63	454.06
531.80	376.83
531.97	376.83
532.14	430.66
532.31	433.00
532.48	416.62
532.65	409.59
532.82	351.08
532.99	437.68
533.16	440.02
533.33	449.38
533.50	440.02
533.67	374.49
533.84	447.04
534.01	379.17
534.18	407.25
534.35	374.49
534.52	407.25
534.69	479.81
534.86	435.34
535.03	430.66
535.20	404.91
535.37	440.02
535.54	395.55
535.71	416.62
535.88	458.74
536.05	472.79
536.22	334.70
536.38	440.02
536.55	493.85
536.72	463.43
536.89	454.06
537.06	430.66
537.23	351.08
537.40	418.96
537.57	482.15
537.74	486.83
537.91	404.91
538.08	374.49
538.25	440.02
538.42	414.27
538.59	402.57
538.75	435.34
538.92	379.17
539.09	472.79
539.26	334.70
539.43	444.70
539.60	479.81
539.77	435.34
539.94	463.43
540.11	414.27
540.28	393.21
540.44	451.72
540.61	479.81
540.78	383.85
540.95	423.64
541.12	423.64
541.29	388.53
541.46	435.34
541.62	470.45
541.79	421.30
541.96	425.98
542.13	393.21
542.30	367.46
542.47	409.59
542.63	414.27
542.80	430.66
542.97	517.26
543.14	411.93
543.31	421.30
543.48	477.47
543.64	435.34
543.81	404.91
543.98	517.26
544.15	425.98
544.32	327.68
544.48	416.62
544.65	447.04
544.82	393.21
544.99	393.21
545.16	468.11
545.32	402.57
545.49	430.66
545.66	465.77
545.83	365.12
546.00	418.96
546.16	425.98
546.33	421.30
546.50	444.70
546.67	447.04
546.83	411.93
547.00	411.93
547.17	458.74
547.34	388.53
547.50	379.17
547.67	411.93
547.84	461.09
548.00	454.06
548.17	367.46
548.34	355.76
548.51	374.49
548.67	489.17
548.84	451.72
549.01	348.74
549.18	470.45
549.34	416.62
549.51	449.38
549.68	456.40
549.84	475.13
550.01	430.66
550.18	512.58
550.34	416.62
550.51	425.98
550.68	369.80
550.84	360.44
551.01	454.06
551.18	428.32
551.34	428.32
551.51	472.79
551.68	402.57
551.84	369.80
552.01	428.32
552.18	449.38
552.34	465.77
552.51	456.40
552.68	407.25
552.84	418.96
553.01	351.08
553.18	491.51
553.34	416.62
553.51	376.83
553.67	440.02
553.84	461.09
554.01	442.36
554.17	484.49
554.34	395.55
554.51	463.43
554.67	407.25
554.84	379.17
555.00	341.72
555.17	463.43
555.33	372.15
555.50	386.19
555.67	465.77
555.83	444.70
556.00	416.62
556.16	496.19
556.33	411.93
556.50	407.25
556.66	393.21
556.83	461.09
556.99	393.21
557.16	379.17
557.32	351.08
557.49	358.10
557.65	362.78
557.82	458.74
557.98	440.02
558.15	388.53
558.32	397.89
558.48	421.30
558.65	404.91
558.81	498.53
558.98	498.53
559.14	503.22
559.31	414.27
559.47	425.98
559.64	454.06
559.80	447.04
559.97	402.57
560.13	470.45
560.30	379.17
560.46	383.85
560.63	383.85
560.79	400.23
560.96	423.64
561.12	402.57
561.29	477.47
561.45	388.53
561.61	411.93
561.78	442.36
561.94	414.27
562.11	425.98
562.27	449.38
562.44	428.32
562.60	444.70
562.77	449.38
562.93	517.26
563.10	395.55
563.26	444.70
563.42	440.02
563.59	386.19
563.75	339.38
563.92	428.32
564.08	433.00
564.24	496.19
564.41	528.96
564.57	386.19
564.74	388.53
564.90	395.55
565.07	479.81
565.23	484.49
565.39	374.49
565.56	456.40
565.72	369.80
565.88	365.12
566.05	425.98
566.21	442.36
566.38	428.32
566.54	416.62
566.70	386.19
566.87	397.89
567.03	390.87
567.19	461.09
567.36	395.55
567.52	386.19
567.68	397.89
567.85	435.34
568.01	416.62
568.17	379.17
568.34	472.79
568.50	463.43
568.66	395.55
568.83	489.17
568.99	425.98
569.15	437.68
569.32	367.46
569.48	440.02
569.64	414.27
569.81	423.64
569.97	409.59
570.13	395.55
570.30	425.98
570.46	475.13
570.62	442.36
570.78	461.09
570.95	358.10
571.11	435.34
571.27	461.09
571.43	421.30
571.60	407.25
571.76	517.26
571.92	337.04
572.09	325.33
572.25	425.98
572.41	428.32
572.57	390.87
572.74	470.45
572.90	447.04
573.06	425.98
573.22	437.68
573.38	383.85
573.55	411.93
573.71	397.89
573.87	379.17
574.03	365.12
574.20	344.06
574.36	404.91
574.52	407.25
574.68	411.93
574.84	449.38
575.01	512.58
575.17	393.21
575.33	451.72
575.49	463.43
575.65	437.68
575.82	397.89
575.98	425.98
576.14	414.27
576.30	465.77
576.46	435.34
576.62	472.79
576.79	435.34
576.95	369.80
577.11	444.70
577.27	437.68
577.43	416.62
577.59	421.30
577.75	449.38
577.92	472.79
578.08	404.91
578.24	407.25
578.40	505.56
578.56	306.61
578.72	411.93
578.88	435.34
579.04	365.12
579.21	519.60
579.37	416.62
579.53	393.21
579.69	461.09
579.85	330.02
580.01	402.57
580.17	421.30
580.33	346.40
580.49	358.10
580.65	388.53
580.82	440.02
580.98	454.06
581.14	374.49
581.30	421.30
581.46	430.66
581.62	397.89
581.78	491.51
581.94	386.19
582.10	360.44
582.26	416.62
582.42	376.83
582.58	383.85
582.74	418.96
582.90	440.02
583.06	430.66
583.22	390.87
583.38	367.46
583.54	442.36
583.70	458.74
583.86	500.87
584.02	386.19
584.18	447.04
584.34	496.19
584.50	386.19
584.66	449.38
584.82	442.36
584.98	444.70
585.14	407.25
585.30	418.96
585.46	486.83
585.62	379.17
585.78	421.30
585.94	430.66
586.10	440.02
586.26	404.91
586.42	484.49
586.58	388.53
586.74	442.36
586.90	369.80
587.06	428.32
587.22	339.38
587.38	404.91
587.54	388.53
587.70	411.93
587.86	404.91
588.02	383.85
588.18	379.17
588.34	435.34
588.49	365.12
588.65	390.87
588.81	425.98
588.97	484.49
589.13	411.93
589.29	421.30
589.45	397.89
589.61	454.06
589.77	416.62
589.93	418.96
590.08	449.38
590.24	442.36
590.40	397.89
590.56	468.11
590.72	397.89
590.88	351.08
591.04	390.87
591.20	416.62
591.35	482.15
591.51	416.62
591.67	290.23
591.83	433.00
591.99	418.96
592.15	465.77
592.31	416.62
592.46	395.55
592.62	390.87
592.78	372.15
592.94	407.25
593.10	379.17
593.26	458.74
593.41	372.15
593.57	458.74
593.73	411.93
593.89	421.30
594.05	388.53
594.20	400.23
594.36	451.72
594.52	440.02
594.68	414.27
594.84	409.59
594.99	461.09
595.15	388.53
595.31	414.27
595.47	416.62
595.62	423.64
595.78	402.57
595.94	425.98
596.10	414.27
596.25	437.68
596.41	404.91
596.57	386.19
596.73	414.27
596.88	358.10
597.04	418.96
597.20	421.30
597.36	449.38
597.51	463.43
597.67	374.49
597.83	482.15
597.99	404.91
598.14	468.11
598.30	456.40
598.46	383.85
598.61	449.38
598.77	423.64
598.93	372.15
599.09	332.36
599.24	376.83
599.40	454.06
599.56	374.49
599.71	381.51
599.87	463.43
600.03	402.57
600.18	393.21
600.34	421.30
600.50	425.98
600.65	451.72
600.81	449.38
600.97	442.36
601.12	435.34
601.28	512.58
601.44	430.66
601.59	489.17
601.75	456.40
601.91	386.19
602.06	414.27
602.22	477.47
602.37	383.85
602.53	409.59
602.69	425.98
602.84	318.31
603.00	423.64
603.16	437.68
603.31	447.04
603.47	421.30
603.62	381.51
603.78	414.27
603.94	456.40
604.09	362.78
604.25	442.36
604.40	433.00
604.56	430.66
604.71	430.66
604.87	348.74
605.03	358.10
605.18	404.91
605.34	430.66
605.49	447.04
605.65	472.79
605.80	386.19
605.96	402.57
606.12	409.59
606.27	414.27
606.43	407.25
606.58	437.68
606.74	416.62
606.89	397.89
607.05	559.39
607.20	397.89
607.36	440.02
607.51	411.93
607.67	379.17
607.82	411.93
607.98	468.11
608.13	390.87
608.29	433.00
608.44	468.11
608.60	425.98
608.75	381.51
608.91	355.76
609.06	341.72
609.22	458.74
609.37	341.72
609.53	414.27
609.68	393.21
609.84	379.17
609.99	409.59
610.15	444.70
