SpectraSuite Data File
++++++++++++++++++++++++++++++++++++
Date: Fri Oct 25 12:10:19 EDT 2013
User: price-jones
Dark Spectrum Present: No
Reference Spectrum Present: No
Number of Sampled Component Spectra: 1
Spectrometers: USB2+H05261
Integration Time (usec): 100000 (USB2+H05261)
Spectra Averaged: 1 (USB2+H05261)
Boxcar Smoothing: 0 (USB2+H05261)
Correct for Electrical Dark: No (USB2+H05261)
Strobe/Lamp Enabled: No (USB2+H05261)
Correct for Detector Non-linearity: No (USB2+H05261)
Correct for Stray Light: No (USB2+H05261)
Number of Pixels in Processed Spectrum: 2048
>>>>>Begin Processed Spectral Data<<<<<
365.73	320.65
365.92	320.65
366.12	320.65
366.32	292.57
366.52	243.42
366.72	220.01
366.91	262.14
367.11	238.73
367.31	227.03
367.51	306.61
367.70	220.01
367.90	262.14
368.10	252.78
368.30	248.10
368.49	278.52
368.69	290.23
368.89	236.39
369.09	294.91
369.28	241.08
369.48	220.01
369.68	285.55
369.87	292.57
370.07	297.25
370.27	390.87
370.47	327.68
370.66	395.55
370.86	341.72
371.06	404.91
371.25	339.38
371.45	346.40
371.65	372.15
371.84	383.85
372.04	372.15
372.24	362.78
372.44	388.53
372.63	400.23
372.83	374.49
373.03	367.46
373.22	383.85
373.42	456.40
373.62	386.19
373.81	409.59
374.01	411.93
374.21	418.96
374.40	477.47
374.60	390.87
374.79	355.76
374.99	423.64
375.19	458.74
375.38	421.30
375.58	388.53
375.78	477.47
375.97	383.85
376.17	470.45
376.37	397.89
376.56	440.02
376.76	430.66
376.95	383.85
377.15	414.27
377.35	402.57
377.54	348.74
377.74	388.53
377.93	435.34
378.13	388.53
378.33	491.51
378.52	397.89
378.72	407.25
378.91	386.19
379.11	322.99
379.31	435.34
379.50	397.89
379.70	470.45
379.89	489.17
380.09	381.51
380.28	369.80
380.48	416.62
380.68	425.98
380.87	437.68
381.07	461.09
381.26	355.76
381.46	442.36
381.65	416.62
381.85	440.02
382.04	484.49
382.24	428.32
382.43	365.12
382.63	388.53
382.83	395.55
383.02	442.36
383.22	461.09
383.41	428.32
383.61	423.64
383.80	482.15
384.00	388.53
384.19	383.85
384.39	454.06
384.58	418.96
384.78	407.25
384.97	421.30
385.17	430.66
385.36	423.64
385.56	456.40
385.75	505.56
385.95	484.49
386.14	470.45
386.34	404.91
386.53	402.57
386.72	376.83
386.92	463.43
387.11	360.44
387.31	404.91
387.50	416.62
387.70	353.42
387.89	353.42
388.09	393.21
388.28	381.51
388.48	374.49
388.67	404.91
388.86	404.91
389.06	418.96
389.25	428.32
389.45	430.66
389.64	433.00
389.84	430.66
390.03	437.68
390.22	390.87
390.42	411.93
390.61	393.21
390.81	388.53
391.00	337.04
391.19	402.57
391.39	395.55
391.58	416.62
391.78	353.42
391.97	362.78
392.16	435.34
392.36	418.96
392.55	395.55
392.75	440.02
392.94	400.23
393.13	435.34
393.33	402.57
393.52	433.00
393.71	421.30
393.91	411.93
394.10	423.64
394.29	397.89
394.49	374.49
394.68	355.76
394.88	454.06
395.07	437.68
395.26	369.80
395.46	465.77
395.65	411.93
395.84	409.59
396.04	451.72
396.23	435.34
396.42	358.10
396.62	402.57
396.81	367.46
397.00	404.91
397.19	372.15
397.39	433.00
397.58	351.08
397.77	374.49
397.97	337.04
398.16	400.23
398.35	451.72
398.55	367.46
398.74	407.25
398.93	376.83
399.12	404.91
399.32	430.66
399.51	393.21
399.70	411.93
399.90	407.25
400.09	395.55
400.28	416.62
400.47	376.83
400.67	411.93
400.86	369.80
401.05	425.98
401.24	435.34
401.44	369.80
401.63	402.57
401.82	355.76
402.01	348.74
402.21	421.30
402.40	381.51
402.59	454.06
402.78	428.32
402.97	465.77
403.17	395.55
403.36	463.43
403.55	437.68
403.74	435.34
403.93	344.06
404.13	409.59
404.32	395.55
404.51	334.70
404.70	435.34
404.89	430.66
405.09	454.06
405.28	397.89
405.47	397.89
405.66	362.78
405.85	486.83
406.05	386.19
406.24	447.04
406.43	411.93
406.62	428.32
406.81	444.70
407.00	437.68
407.20	416.62
407.39	430.66
407.58	315.97
407.77	425.98
407.96	444.70
408.15	407.25
408.34	402.57
408.54	386.19
408.73	430.66
408.92	339.38
409.11	414.27
409.30	493.85
409.49	402.57
409.68	353.42
409.87	339.38
410.07	444.70
410.26	430.66
410.45	416.62
410.64	358.10
410.83	418.96
411.02	404.91
411.21	416.62
411.40	435.34
411.59	381.51
411.78	397.89
411.98	451.72
412.17	402.57
412.36	409.59
412.55	468.11
412.74	365.12
412.93	461.09
413.12	376.83
413.31	454.06
413.50	379.17
413.69	479.81
413.88	416.62
414.07	470.45
414.26	407.25
414.45	306.61
414.64	425.98
414.83	418.96
415.02	308.95
415.22	358.10
415.41	498.53
415.60	465.77
415.79	388.53
415.98	491.51
416.17	353.42
416.36	344.06
416.55	388.53
416.74	407.25
416.93	341.72
417.12	355.76
417.31	379.17
417.50	404.91
417.69	430.66
417.88	379.17
418.07	386.19
418.26	421.30
418.45	376.83
418.64	447.04
418.83	407.25
419.02	374.49
419.21	395.55
419.39	461.09
419.58	404.91
419.77	402.57
419.96	437.68
420.15	383.85
420.34	451.72
420.53	437.68
420.72	458.74
420.91	433.00
421.10	409.59
421.29	416.62
421.48	456.40
421.67	423.64
421.86	435.34
422.05	400.23
422.24	430.66
422.43	341.72
422.61	411.93
422.80	381.51
422.99	411.93
423.18	355.76
423.37	437.68
423.56	397.89
423.75	409.59
423.94	386.19
424.13	374.49
424.32	456.40
424.50	376.83
424.69	393.21
424.88	367.46
425.07	421.30
425.26	386.19
425.45	400.23
425.64	425.98
425.83	386.19
426.01	430.66
426.20	407.25
426.39	482.15
426.58	407.25
426.77	365.12
426.96	372.15
427.15	395.55
427.33	395.55
427.52	388.53
427.71	390.87
427.90	400.23
428.09	416.62
428.28	416.62
428.46	411.93
428.65	416.62
428.84	400.23
429.03	449.38
429.22	414.27
429.40	404.91
429.59	433.00
429.78	404.91
429.97	404.91
430.16	346.40
430.34	444.70
430.53	468.11
430.72	383.85
430.91	409.59
431.10	402.57
431.28	418.96
431.47	344.06
431.66	444.70
431.85	397.89
432.03	414.27
432.22	535.98
432.41	416.62
432.60	425.98
432.79	386.19
432.97	376.83
433.16	428.32
433.35	437.68
433.54	493.85
433.72	470.45
433.91	451.72
434.10	365.12
434.28	437.68
434.47	458.74
434.66	400.23
434.85	376.83
435.03	386.19
435.22	390.87
435.41	379.17
435.59	451.72
435.78	416.62
435.97	365.12
436.16	404.91
436.34	451.72
436.53	402.57
436.72	425.98
436.90	447.04
437.09	451.72
437.28	465.77
437.46	376.83
437.65	322.99
437.84	390.87
438.02	463.43
438.21	463.43
438.40	449.38
438.58	374.49
438.77	433.00
438.96	437.68
439.14	423.64
439.33	374.49
439.52	435.34
439.70	404.91
439.89	430.66
440.08	374.49
440.26	381.51
440.45	414.27
440.63	435.34
440.82	397.89
441.01	386.19
441.19	423.64
441.38	411.93
441.57	437.68
441.75	393.21
441.94	440.02
442.12	355.76
442.31	477.47
442.50	285.55
442.68	454.06
442.87	353.42
443.05	383.85
443.24	442.36
443.43	484.49
443.61	428.32
443.80	381.51
443.98	365.12
444.17	454.06
444.35	456.40
444.54	379.17
444.73	388.53
444.91	372.15
445.10	430.66
445.28	442.36
445.47	418.96
445.65	437.68
445.84	416.62
446.02	425.98
446.21	365.12
446.39	409.59
446.58	409.59
446.77	428.32
446.95	416.62
447.14	475.13
447.32	442.36
447.51	397.89
447.69	433.00
447.88	400.23
448.06	400.23
448.25	475.13
448.43	435.34
448.62	346.40
448.80	475.13
448.99	428.32
449.17	332.36
449.36	397.89
449.54	430.66
449.73	372.15
449.91	475.13
450.10	397.89
450.28	528.96
450.46	540.66
450.65	400.23
450.83	416.62
451.02	447.04
451.20	425.98
451.39	344.06
451.57	376.83
451.76	449.38
451.94	388.53
452.13	397.89
452.31	411.93
452.49	383.85
452.68	414.27
452.86	407.25
453.05	458.74
453.23	407.25
453.42	372.15
453.60	404.91
453.78	367.46
453.97	425.98
454.15	402.57
454.34	355.76
454.52	351.08
454.70	482.15
454.89	479.81
455.07	437.68
455.26	369.80
455.44	369.80
455.62	425.98
455.81	454.06
455.99	456.40
456.17	423.64
456.36	402.57
456.54	379.17
456.73	407.25
456.91	456.40
457.09	395.55
457.28	489.17
457.46	360.44
457.64	444.70
457.83	437.68
458.01	325.33
458.19	416.62
458.38	465.77
458.56	411.93
458.74	437.68
458.93	423.64
459.11	376.83
459.29	390.87
459.48	430.66
459.66	425.98
459.84	339.38
460.03	461.09
460.21	330.02
460.39	353.42
460.57	444.70
460.76	437.68
460.94	395.55
461.12	456.40
461.31	418.96
461.49	383.85
461.67	463.43
461.85	418.96
462.04	365.12
462.22	819.19
462.40	416.62
462.59	489.17
462.77	442.36
462.95	533.64
463.13	418.96
463.32	461.09
463.50	414.27
463.68	353.42
463.86	440.02
464.05	440.02
464.23	493.85
464.41	451.72
464.59	458.74
464.78	411.93
464.96	381.51
465.14	449.38
465.32	472.79
465.50	402.57
465.69	465.77
465.87	430.66
466.05	404.91
466.23	376.83
466.41	386.19
466.60	433.00
466.78	327.68
466.96	458.74
467.14	433.00
467.32	440.02
467.51	425.98
467.69	449.38
467.87	442.36
468.05	404.91
468.23	414.27
468.41	451.72
468.60	451.72
468.78	428.32
468.96	456.40
469.14	404.91
469.32	409.59
469.50	341.72
469.69	409.59
469.87	409.59
470.05	365.12
470.23	421.30
470.41	425.98
470.59	440.02
470.77	341.72
470.95	407.25
471.14	437.68
471.32	395.55
471.50	423.64
471.68	348.74
471.86	416.62
472.04	414.27
472.22	388.53
472.40	409.59
472.58	393.21
472.77	388.53
472.95	388.53
473.13	493.85
473.31	416.62
473.49	437.68
473.67	390.87
473.85	437.68
474.03	442.36
474.21	397.89
474.39	418.96
474.57	442.36
474.75	386.19
474.93	376.83
475.12	358.10
475.30	491.51
475.48	409.59
475.66	423.64
475.84	428.32
476.02	435.34
476.20	346.40
476.38	393.21
476.56	472.79
476.74	428.32
476.92	416.62
477.10	461.09
477.28	465.77
477.46	367.46
477.64	416.62
477.82	404.91
478.00	428.32
478.18	447.04
478.36	341.72
478.54	339.38
478.72	421.30
478.90	404.91
479.08	440.02
479.26	454.06
479.44	397.89
479.62	402.57
479.80	404.91
479.98	390.87
480.16	409.59
480.34	416.62
480.52	353.42
480.70	400.23
480.88	376.83
481.06	416.62
481.24	423.64
481.41	416.62
481.59	367.46
481.77	442.36
481.95	402.57
482.13	425.98
482.31	374.49
482.49	308.95
482.67	388.53
482.85	402.57
483.03	372.15
483.21	400.23
483.39	393.21
483.57	372.15
483.74	456.40
483.92	381.51
484.10	348.74
484.28	430.66
484.46	416.62
484.64	341.72
484.82	454.06
485.00	461.09
485.18	402.57
485.35	447.04
485.53	440.02
485.71	461.09
485.89	493.85
486.07	500.87
486.25	435.34
486.43	435.34
486.61	386.19
486.78	433.00
486.96	442.36
487.14	362.78
487.32	351.08
487.50	430.66
487.68	425.98
487.85	386.19
488.03	414.27
488.21	428.32
488.39	437.68
488.57	444.70
488.75	477.47
488.92	404.91
489.10	402.57
489.28	449.38
489.46	409.59
489.64	418.96
489.81	407.25
489.99	433.00
490.17	442.36
490.35	430.66
490.53	433.00
490.70	372.15
490.88	404.91
491.06	341.72
491.24	435.34
491.41	468.11
491.59	468.11
491.77	409.59
491.95	400.23
492.13	418.96
492.30	491.51
492.48	388.53
492.66	416.62
492.84	411.93
493.01	407.25
493.19	404.91
493.37	463.43
493.54	344.06
493.72	402.57
493.90	381.51
494.08	407.25
494.25	451.72
494.43	425.98
494.61	383.85
494.79	458.74
494.96	421.30
495.14	458.74
495.32	334.70
495.49	451.72
495.67	362.78
495.85	397.89
496.02	355.76
496.20	435.34
496.38	381.51
496.55	433.00
496.73	425.98
496.91	404.91
497.09	355.76
497.26	428.32
497.44	430.66
497.62	414.27
497.79	407.25
497.97	379.17
498.14	489.17
498.32	400.23
498.50	425.98
498.67	435.34
498.85	351.08
499.03	374.49
499.20	404.91
499.38	423.64
499.56	428.32
499.73	421.30
499.91	365.12
500.08	402.57
500.26	421.30
500.44	437.68
500.61	451.72
500.79	428.32
500.97	423.64
501.14	437.68
501.32	470.45
501.49	383.85
501.67	367.46
501.84	461.09
502.02	440.02
502.20	477.47
502.37	461.09
502.55	379.17
502.72	388.53
502.90	362.78
503.07	500.87
503.25	433.00
503.43	358.10
503.60	390.87
503.78	388.53
503.95	376.83
504.13	372.15
504.30	440.02
504.48	482.15
504.65	463.43
504.83	383.85
505.01	411.93
505.18	376.83
505.36	351.08
505.53	475.13
505.71	468.11
505.88	491.51
506.06	451.72
506.23	400.23
506.41	393.21
506.58	393.21
506.76	393.21
506.93	449.38
507.11	390.87
507.28	418.96
507.46	416.62
507.63	423.64
507.81	404.91
507.98	404.91
508.16	444.70
508.33	486.83
508.50	374.49
508.68	425.98
508.85	400.23
509.03	465.77
509.20	388.53
509.38	454.06
509.55	449.38
509.73	386.19
509.90	411.93
510.08	458.74
510.25	376.83
510.42	397.89
510.60	421.30
510.77	397.89
510.95	442.36
511.12	461.09
511.30	425.98
511.47	404.91
511.64	411.93
511.82	472.79
511.99	402.57
512.17	379.17
512.34	397.89
512.51	447.04
512.69	444.70
512.86	409.59
513.04	404.91
513.21	390.87
513.38	465.77
513.56	414.27
513.73	442.36
513.90	407.25
514.08	423.64
514.25	369.80
514.43	440.02
514.60	430.66
514.77	421.30
514.95	409.59
515.12	440.02
515.29	367.46
515.47	423.64
515.64	454.06
515.81	376.83
515.99	418.96
516.16	353.42
516.33	372.15
516.51	383.85
516.68	367.46
516.85	400.23
517.03	423.64
517.20	458.74
517.37	449.38
517.54	337.04
517.72	372.15
517.89	402.57
518.06	433.00
518.24	477.47
518.41	390.87
518.58	430.66
518.75	351.08
518.93	454.06
519.10	416.62
519.27	407.25
519.45	362.78
519.62	397.89
519.79	416.62
519.96	451.72
520.14	397.89
520.31	386.19
520.48	477.47
520.65	402.57
520.83	444.70
521.00	449.38
521.17	358.10
521.34	400.23
521.52	444.70
521.69	388.53
521.86	353.42
522.03	425.98
522.20	510.24
522.38	334.70
522.55	444.70
522.72	468.11
522.89	402.57
523.07	458.74
523.24	381.51
523.41	388.53
523.58	395.55
523.75	393.21
523.92	360.44
524.10	353.42
524.27	418.96
524.44	440.02
524.61	404.91
524.78	442.36
524.96	332.36
525.13	372.15
525.30	468.11
525.47	430.66
525.64	435.34
525.81	444.70
525.98	479.81
526.16	344.06
526.33	472.79
526.50	479.81
526.67	386.19
526.84	395.55
527.01	458.74
527.18	367.46
527.36	428.32
527.53	386.19
527.70	421.30
527.87	435.34
528.04	475.13
528.21	395.55
528.38	423.64
528.55	397.89
528.72	437.68
528.89	507.90
529.07	440.02
529.24	397.89
529.41	421.30
529.58	402.57
529.75	374.49
529.92	430.66
530.09	433.00
530.26	379.17
530.43	470.45
530.60	433.00
530.77	397.89
530.94	390.87
531.11	421.30
531.28	388.53
531.46	353.42
531.63	381.51
531.80	397.89
531.97	465.77
532.14	388.53
532.31	404.91
532.48	423.64
532.65	397.89
532.82	372.15
532.99	397.89
533.16	383.85
533.33	330.02
533.50	418.96
533.67	386.19
533.84	390.87
534.01	400.23
534.18	362.78
534.35	400.23
534.52	449.38
534.69	400.23
534.86	479.81
535.03	400.23
535.20	395.55
535.37	407.25
535.54	468.11
535.71	433.00
535.88	470.45
536.05	414.27
536.22	425.98
536.38	425.98
536.55	397.89
536.72	400.23
536.89	465.77
537.06	454.06
537.23	355.76
537.40	418.96
537.57	390.87
537.74	461.09
537.91	437.68
538.08	318.31
538.25	411.93
538.42	425.98
538.59	440.02
538.75	423.64
538.92	365.12
539.09	418.96
539.26	306.61
539.43	447.04
539.60	428.32
539.77	477.47
539.94	442.36
540.11	454.06
540.28	388.53
540.44	404.91
540.61	437.68
540.78	353.42
540.95	383.85
541.12	447.04
541.29	440.02
541.46	468.11
541.62	484.49
541.79	447.04
541.96	421.30
542.13	355.76
542.30	402.57
542.47	433.00
542.63	351.08
542.80	489.17
542.97	447.04
543.14	449.38
543.31	388.53
543.48	416.62
543.64	411.93
543.81	388.53
543.98	383.85
544.15	416.62
544.32	404.91
544.48	393.21
544.65	470.45
544.82	393.21
544.99	334.70
545.16	351.08
545.32	400.23
545.49	393.21
545.66	437.68
545.83	421.30
546.00	425.98
546.16	407.25
546.33	407.25
546.50	409.59
546.67	423.64
546.83	456.40
547.00	365.12
547.17	404.91
547.34	430.66
547.50	400.23
547.67	383.85
547.84	369.80
548.00	449.38
548.17	395.55
548.34	423.64
548.51	477.47
548.67	425.98
548.84	383.85
549.01	362.78
549.18	435.34
549.34	470.45
549.51	381.51
549.68	369.80
549.84	379.17
550.01	386.19
550.18	423.64
550.34	402.57
550.51	421.30
550.68	484.49
550.84	395.55
551.01	503.22
551.18	482.15
551.34	435.34
551.51	365.12
551.68	456.40
551.84	397.89
552.01	388.53
552.18	444.70
552.34	402.57
552.51	376.83
552.68	454.06
552.84	388.53
553.01	346.40
553.18	435.34
553.34	423.64
553.51	463.43
553.67	435.34
553.84	503.22
554.01	397.89
554.17	461.09
554.34	353.42
554.51	442.36
554.67	369.80
554.84	435.34
555.00	425.98
555.17	421.30
555.33	383.85
555.50	472.79
555.67	456.40
555.83	393.21
556.00	372.15
556.16	484.49
556.33	472.79
556.50	348.74
556.66	435.34
556.83	423.64
556.99	447.04
557.16	449.38
557.32	444.70
557.49	477.47
557.65	423.64
557.82	374.49
557.98	409.59
558.15	421.30
558.32	388.53
558.48	421.30
558.65	358.10
558.81	437.68
558.98	362.78
559.14	428.32
559.31	393.21
559.47	479.81
559.64	409.59
559.80	400.23
559.97	451.72
560.13	421.30
560.30	379.17
560.46	428.32
560.63	468.11
560.79	395.55
560.96	423.64
561.12	346.40
561.29	444.70
561.45	447.04
561.61	404.91
561.78	465.77
561.94	430.66
562.11	418.96
562.27	421.30
562.44	411.93
562.60	416.62
562.77	423.64
562.93	411.93
563.10	456.40
563.26	421.30
563.42	430.66
563.59	416.62
563.75	468.11
563.92	482.15
564.08	451.72
564.24	425.98
564.41	395.55
564.57	435.34
564.74	386.19
564.90	472.79
565.07	372.15
565.23	440.02
565.39	454.06
565.56	484.49
565.72	351.08
565.88	407.25
566.05	423.64
566.21	395.55
566.38	433.00
566.54	444.70
566.70	395.55
566.87	339.38
567.03	376.83
567.19	428.32
567.36	423.64
567.52	332.36
567.68	447.04
567.85	411.93
568.01	381.51
568.17	407.25
568.34	507.90
568.50	479.81
568.66	435.34
568.83	482.15
568.99	496.19
569.15	423.64
569.32	372.15
569.48	416.62
569.64	367.46
569.81	461.09
569.97	388.53
570.13	404.91
570.30	472.79
570.46	376.83
570.62	379.17
570.78	409.59
570.95	395.55
571.11	418.96
571.27	397.89
571.43	449.38
571.60	404.91
571.76	374.49
571.92	447.04
572.09	409.59
572.25	442.36
572.41	465.77
572.57	400.23
572.74	433.00
572.90	477.47
573.06	454.06
573.22	402.57
573.38	376.83
573.55	360.44
573.71	395.55
573.87	433.00
574.03	393.21
574.20	400.23
574.36	477.47
574.52	433.00
574.68	437.68
574.84	351.08
575.01	463.43
575.17	386.19
575.33	449.38
575.49	456.40
575.65	470.45
575.82	397.89
575.98	425.98
576.14	344.06
576.30	416.62
576.46	353.42
576.62	484.49
576.79	360.44
576.95	390.87
577.11	322.99
577.27	379.17
577.43	456.40
577.59	482.15
577.75	416.62
577.92	407.25
578.08	433.00
578.24	444.70
578.40	472.79
578.56	402.57
578.72	414.27
578.88	444.70
579.04	484.49
579.21	411.93
579.37	395.55
579.53	421.30
579.69	411.93
579.85	444.70
580.01	386.19
580.17	430.66
580.33	339.38
580.49	430.66
580.65	423.64
580.82	411.93
580.98	383.85
581.14	402.57
581.30	458.74
581.46	533.64
581.62	465.77
581.78	428.32
581.94	425.98
582.10	451.72
582.26	442.36
582.42	411.93
582.58	421.30
582.74	433.00
582.90	393.21
583.06	393.21
583.22	447.04
583.38	463.43
583.54	411.93
583.70	425.98
583.86	374.49
584.02	444.70
584.18	444.70
584.34	421.30
584.50	411.93
584.66	395.55
584.82	358.10
584.98	489.17
585.14	461.09
585.30	449.38
585.46	425.98
585.62	400.23
585.78	404.91
585.94	428.32
586.10	393.21
586.26	346.40
586.42	390.87
586.58	444.70
586.74	355.76
586.90	386.19
587.06	421.30
587.22	372.15
587.38	362.78
587.54	411.93
587.70	458.74
587.86	414.27
588.02	416.62
588.18	479.81
588.34	423.64
588.49	416.62
588.65	496.19
588.81	479.81
588.97	393.21
589.13	440.02
589.29	430.66
589.45	393.21
589.61	428.32
589.77	428.32
589.93	425.98
590.08	374.49
590.24	334.70
590.40	400.23
590.56	400.23
590.72	365.12
590.88	404.91
591.04	376.83
591.20	433.00
591.35	409.59
591.51	425.98
591.67	416.62
591.83	381.51
591.99	533.64
592.15	416.62
592.31	414.27
592.46	407.25
592.62	383.85
592.78	421.30
592.94	407.25
593.10	451.72
593.26	395.55
593.41	425.98
593.57	491.51
593.73	402.57
593.89	435.34
594.05	444.70
594.20	428.32
594.36	423.64
594.52	381.51
594.68	358.10
594.84	388.53
594.99	456.40
595.15	404.91
595.31	425.98
595.47	458.74
595.62	468.11
595.78	451.72
595.94	404.91
596.10	372.15
596.25	411.93
596.41	397.89
596.57	360.44
596.73	395.55
596.88	397.89
597.04	365.12
597.20	421.30
597.36	444.70
597.51	451.72
597.67	395.55
597.83	400.23
597.99	381.51
598.14	440.02
598.30	470.45
598.46	397.89
598.61	475.13
598.77	435.34
598.93	383.85
599.09	454.06
599.24	397.89
599.40	411.93
599.56	411.93
599.71	330.02
599.87	456.40
600.03	397.89
600.18	337.04
600.34	388.53
600.50	444.70
600.65	294.91
600.81	407.25
600.97	421.30
601.12	407.25
601.28	463.43
601.44	376.83
601.59	423.64
601.75	404.91
601.91	414.27
602.06	416.62
602.22	472.79
602.37	444.70
602.53	461.09
602.69	381.51
602.84	402.57
603.00	458.74
603.16	402.57
603.31	404.91
603.47	433.00
603.62	306.61
603.78	334.70
603.94	435.34
604.09	411.93
604.25	414.27
604.40	430.66
604.56	400.23
604.71	425.98
604.87	475.13
605.03	409.59
605.18	351.08
605.34	456.40
605.49	472.79
605.65	409.59
605.80	416.62
605.96	486.83
606.12	435.34
606.27	400.23
606.43	416.62
606.58	458.74
606.74	463.43
606.89	440.02
607.05	428.32
607.20	428.32
607.36	416.62
607.51	461.09
607.67	425.98
607.82	404.91
607.98	456.40
608.13	386.19
608.29	376.83
608.44	510.24
608.60	444.70
608.75	397.89
608.91	440.02
609.06	423.64
609.22	395.55
609.37	365.12
609.53	402.57
609.68	404.91
609.84	360.44
609.99	344.06
610.15	423.64
