SpectraSuite Data File
++++++++++++++++++++++++++++++++++++
Date: Fri Oct 25 12:10:15 EDT 2013
User: price-jones
Dark Spectrum Present: No
Reference Spectrum Present: No
Number of Sampled Component Spectra: 1
Spectrometers: USB2+H05261
Integration Time (usec): 100000 (USB2+H05261)
Spectra Averaged: 1 (USB2+H05261)
Boxcar Smoothing: 0 (USB2+H05261)
Correct for Electrical Dark: No (USB2+H05261)
Strobe/Lamp Enabled: No (USB2+H05261)
Correct for Detector Non-linearity: No (USB2+H05261)
Correct for Stray Light: No (USB2+H05261)
Number of Pixels in Processed Spectrum: 2048
>>>>>Begin Processed Spectral Data<<<<<
365.73	332.36
365.92	332.36
366.12	332.36
366.32	262.14
366.52	224.69
366.72	259.80
366.91	245.76
367.11	278.52
367.31	215.33
367.51	241.08
367.70	222.35
367.90	255.12
368.10	276.18
368.30	217.67
368.49	196.60
368.69	294.91
368.89	217.67
369.09	299.59
369.28	292.57
369.48	257.46
369.68	313.63
369.87	318.31
370.07	285.55
370.27	409.59
370.47	315.97
370.66	379.17
370.86	348.74
371.06	362.78
371.25	421.30
371.45	376.83
371.65	395.55
371.84	409.59
372.04	383.85
372.24	411.93
372.44	351.08
372.63	337.04
372.83	360.44
373.03	442.36
373.22	376.83
373.42	397.89
373.62	407.25
373.81	421.30
374.01	404.91
374.21	395.55
374.40	416.62
374.60	400.23
374.79	440.02
374.99	404.91
375.19	428.32
375.38	456.40
375.58	435.34
375.78	414.27
375.97	454.06
376.17	367.46
376.37	376.83
376.56	477.47
376.76	404.91
376.95	376.83
377.15	374.49
377.35	428.32
377.54	437.68
377.74	376.83
377.93	418.96
378.13	402.57
378.33	479.81
378.52	390.87
378.72	386.19
378.91	402.57
379.11	367.46
379.31	440.02
379.50	433.00
379.70	414.27
379.89	423.64
380.09	437.68
380.28	390.87
380.48	358.10
380.68	379.17
380.87	428.32
381.07	355.76
381.26	512.58
381.46	372.15
381.65	414.27
381.85	367.46
382.04	400.23
382.24	461.09
382.43	369.80
382.63	388.53
382.83	461.09
383.02	435.34
383.22	339.38
383.41	456.40
383.61	388.53
383.80	468.11
384.00	339.38
384.19	421.30
384.39	428.32
384.58	414.27
384.78	369.80
384.97	440.02
385.17	404.91
385.36	351.08
385.56	435.34
385.75	383.85
385.95	393.21
386.14	447.04
386.34	461.09
386.53	447.04
386.72	496.19
386.92	395.55
387.11	425.98
387.31	402.57
387.50	374.49
387.70	383.85
387.89	425.98
388.09	390.87
388.28	374.49
388.48	379.17
388.67	463.43
388.86	430.66
389.06	376.83
389.25	397.89
389.45	409.59
389.64	402.57
389.84	339.38
390.03	430.66
390.22	353.42
390.42	402.57
390.61	393.21
390.81	276.18
391.00	451.72
391.19	421.30
391.39	442.36
391.58	402.57
391.78	437.68
391.97	447.04
392.16	355.76
392.36	409.59
392.55	418.96
392.75	414.27
392.94	365.12
393.13	376.83
393.33	383.85
393.52	376.83
393.71	470.45
393.91	449.38
394.10	362.78
394.29	393.21
394.49	433.00
394.68	374.49
394.88	369.80
395.07	379.17
395.26	409.59
395.46	425.98
395.65	479.81
395.84	402.57
396.04	442.36
396.23	395.55
396.42	362.78
396.62	475.13
396.81	400.23
397.00	393.21
397.19	456.40
397.39	425.98
397.58	456.40
397.77	386.19
397.97	395.55
398.16	311.29
398.35	325.33
398.55	344.06
398.74	421.30
398.93	418.96
399.12	390.87
399.32	447.04
399.51	440.02
399.70	407.25
399.90	514.92
400.09	449.38
400.28	404.91
400.47	379.17
400.67	437.68
400.86	433.00
401.05	468.11
401.24	372.15
401.44	449.38
401.63	360.44
401.82	390.87
402.01	407.25
402.21	416.62
402.40	369.80
402.59	372.15
402.78	444.70
402.97	379.17
403.17	383.85
403.36	397.89
403.55	376.83
403.74	409.59
403.93	433.00
404.13	414.27
404.32	386.19
404.51	451.72
404.70	400.23
404.89	435.34
405.09	477.47
405.28	388.53
405.47	435.34
405.66	358.10
405.85	409.59
406.05	376.83
406.24	325.33
406.43	409.59
406.62	404.91
406.81	440.02
407.00	421.30
407.20	447.04
407.39	390.87
407.58	435.34
407.77	404.91
407.96	454.06
408.15	423.64
408.34	414.27
408.54	414.27
408.73	514.92
408.92	456.40
409.11	442.36
409.30	355.76
409.49	386.19
409.68	447.04
409.87	388.53
410.07	440.02
410.26	344.06
410.45	425.98
410.64	393.21
410.83	346.40
411.02	400.23
411.21	348.74
411.40	381.51
411.59	496.19
411.78	421.30
411.98	461.09
412.17	418.96
412.36	486.83
412.55	416.62
412.74	444.70
412.93	433.00
413.12	393.21
413.31	402.57
413.50	416.62
413.69	416.62
413.88	393.21
414.07	404.91
414.26	318.31
414.45	372.15
414.64	428.32
414.83	351.08
415.02	388.53
415.22	414.27
415.41	402.57
415.60	374.49
415.79	472.79
415.98	451.72
416.17	355.76
416.36	355.76
416.55	367.46
416.74	411.93
416.93	390.87
417.12	334.70
417.31	421.30
417.50	435.34
417.69	425.98
417.88	393.21
418.07	344.06
418.26	437.68
418.45	482.15
418.64	435.34
418.83	425.98
419.02	451.72
419.21	407.25
419.39	442.36
419.58	400.23
419.77	482.15
419.96	465.77
420.15	421.30
420.34	358.10
420.53	454.06
420.72	386.19
420.91	444.70
421.10	411.93
421.29	381.51
421.48	479.81
421.67	444.70
421.86	369.80
422.05	447.04
422.24	348.74
422.43	327.68
422.61	388.53
422.80	418.96
422.99	470.45
423.18	421.30
423.37	402.57
423.56	360.44
423.75	447.04
423.94	386.19
424.13	400.23
424.32	447.04
424.50	402.57
424.69	390.87
424.88	400.23
425.07	397.89
425.26	496.19
425.45	463.43
425.64	416.62
425.83	421.30
426.01	435.34
426.20	456.40
426.39	390.87
426.58	397.89
426.77	411.93
426.96	409.59
427.15	430.66
427.33	447.04
427.52	430.66
427.71	358.10
427.90	465.77
428.09	330.02
428.28	360.44
428.46	402.57
428.65	407.25
428.84	376.83
429.03	390.87
429.22	411.93
429.40	381.51
429.59	421.30
429.78	454.06
429.97	383.85
430.16	355.76
430.34	332.36
430.53	421.30
430.72	346.40
430.91	411.93
431.10	400.23
431.28	433.00
431.47	409.59
431.66	454.06
431.85	475.13
432.03	362.78
432.22	416.62
432.41	440.02
432.60	404.91
432.79	360.44
432.97	381.51
433.16	437.68
433.35	402.57
433.54	472.79
433.72	489.17
433.91	451.72
434.10	423.64
434.28	388.53
434.47	404.91
434.66	489.17
434.85	407.25
435.03	388.53
435.22	416.62
435.41	423.64
435.59	379.17
435.78	393.21
435.97	428.32
436.16	425.98
436.34	449.38
436.53	404.91
436.72	397.89
436.90	402.57
437.09	465.77
437.28	463.43
437.46	491.51
437.65	461.09
437.84	430.66
438.02	489.17
438.21	390.87
438.40	355.76
438.58	379.17
438.77	409.59
438.96	423.64
439.14	393.21
439.33	400.23
439.52	423.64
439.70	447.04
439.89	458.74
440.08	444.70
440.26	393.21
440.45	458.74
440.63	442.36
440.82	393.21
441.01	433.00
441.19	393.21
441.38	390.87
441.57	463.43
441.75	437.68
441.94	500.87
442.12	402.57
442.31	454.06
442.50	451.72
442.68	468.11
442.87	411.93
443.05	376.83
443.24	386.19
443.43	400.23
443.61	372.15
443.80	428.32
443.98	411.93
444.17	395.55
444.35	414.27
444.54	461.09
444.73	407.25
444.91	454.06
445.10	386.19
445.28	468.11
445.47	339.38
445.65	430.66
445.84	400.23
446.02	440.02
446.21	407.25
446.39	339.38
446.58	456.40
446.77	409.59
446.95	404.91
447.14	437.68
447.32	409.59
447.51	381.51
447.69	360.44
447.88	444.70
448.06	414.27
448.25	414.27
448.43	346.40
448.62	451.72
448.80	423.64
448.99	510.24
449.17	430.66
449.36	461.09
449.54	425.98
449.73	458.74
449.91	372.15
450.10	411.93
450.28	383.85
450.46	470.45
450.65	498.53
450.83	376.83
451.02	440.02
451.20	393.21
451.39	451.72
451.57	430.66
451.76	449.38
451.94	386.19
452.13	433.00
452.31	409.59
452.49	421.30
452.68	353.42
452.86	489.17
453.05	461.09
453.23	395.55
453.42	411.93
453.60	468.11
453.78	416.62
453.97	339.38
454.15	409.59
454.34	376.83
454.52	341.72
454.70	482.15
454.89	376.83
455.07	369.80
455.26	386.19
455.44	414.27
455.62	411.93
455.81	491.51
455.99	433.00
456.17	437.68
456.36	402.57
456.54	344.06
456.73	409.59
456.91	489.17
457.09	407.25
457.28	383.85
457.46	381.51
457.64	437.68
457.83	472.79
458.01	451.72
458.19	388.53
458.38	409.59
458.56	369.80
458.74	374.49
458.93	327.68
459.11	428.32
459.29	430.66
459.48	372.15
459.66	482.15
459.84	430.66
460.03	465.77
460.21	390.87
460.39	353.42
460.57	440.02
460.76	414.27
460.94	463.43
461.12	479.81
461.31	402.57
461.49	444.70
461.67	449.38
461.85	489.17
462.04	416.62
462.22	786.42
462.40	416.62
462.59	496.19
462.77	402.57
462.95	433.00
463.13	393.21
463.32	416.62
463.50	444.70
463.68	411.93
463.86	388.53
464.05	451.72
464.23	461.09
464.41	390.87
464.59	411.93
464.78	411.93
464.96	404.91
465.14	411.93
465.32	428.32
465.50	388.53
465.69	397.89
465.87	395.55
466.05	355.76
466.23	454.06
466.41	395.55
466.60	444.70
466.78	400.23
466.96	451.72
467.14	468.11
467.32	449.38
467.51	458.74
467.69	454.06
467.87	416.62
468.05	421.30
468.23	411.93
468.41	447.04
468.60	428.32
468.78	500.87
468.96	362.78
469.14	386.19
469.32	358.10
469.50	383.85
469.69	423.64
469.87	358.10
470.05	447.04
470.23	458.74
470.41	454.06
470.59	423.64
470.77	458.74
470.95	416.62
471.14	404.91
471.32	379.17
471.50	402.57
471.68	362.78
471.86	411.93
472.04	337.04
472.22	433.00
472.40	409.59
472.58	404.91
472.77	430.66
472.95	414.27
473.13	470.45
473.31	407.25
473.49	430.66
473.67	353.42
473.85	454.06
474.03	425.98
474.21	397.89
474.39	397.89
474.57	400.23
474.75	500.87
474.93	411.93
475.12	416.62
475.30	479.81
475.48	433.00
475.66	491.51
475.84	437.68
476.02	365.12
476.20	372.15
476.38	433.00
476.56	461.09
476.74	320.65
476.92	395.55
477.10	421.30
477.28	468.11
477.46	456.40
477.64	437.68
477.82	470.45
478.00	390.87
478.18	376.83
478.36	402.57
478.54	435.34
478.72	367.46
478.90	425.98
479.08	428.32
479.26	418.96
479.44	404.91
479.62	376.83
479.80	479.81
479.98	397.89
480.16	444.70
480.34	430.66
480.52	440.02
480.70	428.32
480.88	414.27
481.06	355.76
481.24	409.59
481.41	465.77
481.59	421.30
481.77	447.04
481.95	379.17
482.13	440.02
482.31	472.79
482.49	397.89
482.67	379.17
482.85	528.96
483.03	383.85
483.21	435.34
483.39	374.49
483.57	348.74
483.74	475.13
483.92	407.25
484.10	369.80
484.28	348.74
484.46	409.59
484.64	372.15
484.82	414.27
485.00	383.85
485.18	346.40
485.35	442.36
485.53	449.38
485.71	454.06
485.89	372.15
486.07	393.21
486.25	423.64
486.43	411.93
486.61	423.64
486.78	400.23
486.96	374.49
487.14	512.58
487.32	538.32
487.50	393.21
487.68	346.40
487.85	407.25
488.03	440.02
488.21	444.70
488.39	454.06
488.57	444.70
488.75	423.64
488.92	472.79
489.10	397.89
489.28	486.83
489.46	355.76
489.64	416.62
489.81	486.83
489.99	449.38
490.17	409.59
490.35	421.30
490.53	442.36
490.70	341.72
490.88	449.38
491.06	407.25
491.24	411.93
491.41	479.81
491.59	477.47
491.77	346.40
491.95	437.68
492.13	397.89
492.30	376.83
492.48	388.53
492.66	458.74
492.84	374.49
493.01	334.70
493.19	414.27
493.37	381.51
493.54	463.43
493.72	440.02
493.90	449.38
494.08	433.00
494.25	430.66
494.43	393.21
494.61	393.21
494.79	383.85
494.96	400.23
495.14	325.33
495.32	414.27
495.49	510.24
495.67	381.51
495.85	404.91
496.02	386.19
496.20	435.34
496.38	458.74
496.55	454.06
496.73	418.96
496.91	435.34
497.09	435.34
497.26	388.53
497.44	381.51
497.62	330.02
497.79	397.89
497.97	367.46
498.14	395.55
498.32	397.89
498.50	411.93
498.67	423.64
498.85	400.23
499.03	416.62
499.20	435.34
499.38	425.98
499.56	437.68
499.73	512.58
499.91	458.74
500.08	376.83
500.26	404.91
500.44	418.96
500.61	402.57
500.79	416.62
500.97	374.49
501.14	435.34
501.32	472.79
501.49	423.64
501.67	425.98
501.84	358.10
502.02	311.29
502.20	489.17
502.37	383.85
502.55	418.96
502.72	402.57
502.90	397.89
503.07	388.53
503.25	435.34
503.43	442.36
503.60	416.62
503.78	402.57
503.95	416.62
504.13	369.80
504.30	353.42
504.48	409.59
504.65	484.49
504.83	468.11
505.01	390.87
505.18	442.36
505.36	325.33
505.53	388.53
505.71	348.74
505.88	421.30
506.06	386.19
506.23	344.06
506.41	372.15
506.58	411.93
506.76	355.76
506.93	435.34
507.11	444.70
507.28	411.93
507.46	376.83
507.63	402.57
507.81	390.87
507.98	416.62
508.16	381.51
508.33	411.93
508.50	397.89
508.68	381.51
508.85	372.15
509.03	365.12
509.20	395.55
509.38	425.98
509.55	416.62
509.73	468.11
509.90	433.00
510.08	414.27
510.25	376.83
510.42	409.59
510.60	470.45
510.77	472.79
510.95	465.77
511.12	472.79
511.30	397.89
511.47	449.38
511.64	482.15
511.82	367.46
511.99	362.78
512.17	339.38
512.34	383.85
512.51	411.93
512.69	430.66
512.86	451.72
513.04	379.17
513.21	404.91
513.38	383.85
513.56	477.47
513.73	421.30
513.90	418.96
514.08	444.70
514.25	327.68
514.43	423.64
514.60	397.89
514.77	440.02
514.95	451.72
515.12	351.08
515.29	447.04
515.47	400.23
515.64	435.34
515.81	400.23
515.99	437.68
516.16	344.06
516.33	428.32
516.51	353.42
516.68	409.59
516.85	440.02
517.03	390.87
517.20	454.06
517.37	416.62
517.54	451.72
517.72	369.80
517.89	421.30
518.06	407.25
518.24	393.21
518.41	421.30
518.58	463.43
518.75	374.49
518.93	423.64
519.10	433.00
519.27	383.85
519.45	449.38
519.62	425.98
519.79	404.91
519.96	440.02
520.14	447.04
520.31	454.06
520.48	407.25
520.65	402.57
520.83	414.27
521.00	393.21
521.17	430.66
521.34	468.11
521.52	458.74
521.69	447.04
521.86	383.85
522.03	444.70
522.20	400.23
522.38	444.70
522.55	409.59
522.72	395.55
522.89	402.57
523.07	418.96
523.24	416.62
523.41	437.68
523.58	428.32
523.75	472.79
523.92	447.04
524.10	456.40
524.27	430.66
524.44	383.85
524.61	374.49
524.78	449.38
524.96	414.27
525.13	388.53
525.30	461.09
525.47	400.23
525.64	411.93
525.81	465.77
525.98	416.62
526.16	327.68
526.33	358.10
526.50	400.23
526.67	428.32
526.84	507.90
527.01	440.02
527.18	393.21
527.36	341.72
527.53	475.13
527.70	409.59
527.87	423.64
528.04	423.64
528.21	404.91
528.38	440.02
528.55	440.02
528.72	416.62
528.89	468.11
529.07	472.79
529.24	421.30
529.41	449.38
529.58	393.21
529.75	433.00
529.92	425.98
530.09	407.25
530.26	423.64
530.43	362.78
530.60	407.25
530.77	351.08
530.94	402.57
531.11	433.00
531.28	430.66
531.46	390.87
531.63	344.06
531.80	393.21
531.97	294.91
532.14	379.17
532.31	393.21
532.48	397.89
532.65	407.25
532.82	421.30
532.99	395.55
533.16	458.74
533.33	421.30
533.50	369.80
533.67	423.64
533.84	369.80
534.01	437.68
534.18	425.98
534.35	369.80
534.52	404.91
534.69	393.21
534.86	372.15
535.03	386.19
535.20	379.17
535.37	402.57
535.54	374.49
535.71	414.27
535.88	435.34
536.05	351.08
536.22	374.49
536.38	376.83
536.55	358.10
536.72	423.64
536.89	409.59
537.06	472.79
537.23	416.62
537.40	411.93
537.57	376.83
537.74	425.98
537.91	458.74
538.08	454.06
538.25	423.64
538.42	411.93
538.59	425.98
538.75	423.64
538.92	397.89
539.09	390.87
539.26	479.81
539.43	465.77
539.60	451.72
539.77	433.00
539.94	444.70
540.11	369.80
540.28	528.96
540.44	442.36
540.61	390.87
540.78	381.51
540.95	383.85
541.12	383.85
541.29	395.55
541.46	486.83
541.62	498.53
541.79	369.80
541.96	383.85
542.13	433.00
542.30	421.30
542.47	414.27
542.63	416.62
542.80	386.19
542.97	447.04
543.14	386.19
543.31	421.30
543.48	397.89
543.64	449.38
543.81	402.57
543.98	444.70
544.15	418.96
544.32	418.96
544.48	397.89
544.65	390.87
544.82	402.57
544.99	423.64
545.16	393.21
545.32	421.30
545.49	423.64
545.66	456.40
545.83	449.38
546.00	491.51
546.16	402.57
546.33	404.91
546.50	454.06
546.67	552.37
546.83	477.47
547.00	442.36
547.17	423.64
547.34	390.87
547.50	383.85
547.67	409.59
547.84	461.09
548.00	395.55
548.17	449.38
548.34	390.87
548.51	472.79
548.67	418.96
548.84	442.36
549.01	402.57
549.18	440.02
549.34	461.09
549.51	404.91
549.68	395.55
549.84	407.25
550.01	362.78
550.18	395.55
550.34	514.92
550.51	425.98
550.68	437.68
550.84	433.00
551.01	418.96
551.18	435.34
551.34	428.32
551.51	400.23
551.68	395.55
551.84	416.62
552.01	430.66
552.18	435.34
552.34	365.12
552.51	381.51
552.68	414.27
552.84	386.19
553.01	388.53
553.18	454.06
553.34	463.43
553.51	414.27
553.67	463.43
553.84	484.49
554.01	430.66
554.17	447.04
554.34	308.95
554.51	388.53
554.67	470.45
554.84	437.68
555.00	414.27
555.17	416.62
555.33	468.11
555.50	397.89
555.67	433.00
555.83	418.96
556.00	463.43
556.16	559.39
556.33	444.70
556.50	332.36
556.66	454.06
556.83	395.55
556.99	379.17
557.16	447.04
557.32	393.21
557.49	414.27
557.65	442.36
557.82	433.00
557.98	365.12
558.15	346.40
558.32	423.64
558.48	379.17
558.65	390.87
558.81	475.13
558.98	430.66
559.14	470.45
559.31	470.45
559.47	407.25
559.64	376.83
559.80	456.40
559.97	444.70
560.13	447.04
560.30	416.62
560.46	421.30
560.63	407.25
560.79	416.62
560.96	423.64
561.12	418.96
561.29	337.04
561.45	486.83
561.61	454.06
561.78	470.45
561.94	351.08
562.11	423.64
562.27	414.27
562.44	449.38
562.60	425.98
562.77	437.68
562.93	365.12
563.10	404.91
563.26	437.68
563.42	482.15
563.59	496.19
563.75	390.87
563.92	428.32
564.08	430.66
564.24	458.74
564.41	454.06
564.57	404.91
564.74	442.36
564.90	414.27
565.07	393.21
565.23	421.30
565.39	414.27
565.56	486.83
565.72	447.04
565.88	470.45
566.05	411.93
566.21	411.93
566.38	383.85
566.54	428.32
566.70	425.98
566.87	444.70
567.03	414.27
567.19	458.74
567.36	440.02
567.52	404.91
567.68	362.78
567.85	437.68
568.01	425.98
568.17	433.00
568.34	423.64
568.50	463.43
568.66	360.44
568.83	428.32
568.99	390.87
569.15	440.02
569.32	416.62
569.48	411.93
569.64	418.96
569.81	425.98
569.97	393.21
570.13	449.38
570.30	386.19
570.46	477.47
570.62	390.87
570.78	418.96
570.95	407.25
571.11	437.68
571.27	440.02
571.43	428.32
571.60	388.53
571.76	423.64
571.92	388.53
572.09	425.98
572.25	477.47
572.41	425.98
572.57	428.32
572.74	472.79
572.90	472.79
573.06	390.87
573.22	463.43
573.38	447.04
573.55	400.23
573.71	465.77
573.87	423.64
574.03	411.93
574.20	407.25
574.36	402.57
574.52	367.46
574.68	414.27
574.84	341.72
575.01	404.91
575.17	458.74
575.33	430.66
575.49	430.66
575.65	411.93
575.82	428.32
575.98	397.89
576.14	355.76
576.30	484.49
576.46	463.43
576.62	362.78
576.79	407.25
576.95	433.00
577.11	397.89
577.27	416.62
577.43	414.27
577.59	423.64
577.75	470.45
577.92	482.15
578.08	451.72
578.24	393.21
578.40	442.36
578.56	393.21
578.72	449.38
578.88	423.64
579.04	404.91
579.21	407.25
579.37	358.10
579.53	365.12
579.69	362.78
579.85	404.91
580.01	435.34
580.17	411.93
580.33	411.93
580.49	376.83
580.65	451.72
580.82	496.19
580.98	411.93
581.14	437.68
581.30	491.51
581.46	447.04
581.62	407.25
581.78	430.66
581.94	442.36
582.10	428.32
582.26	454.06
582.42	372.15
582.58	411.93
582.74	444.70
582.90	475.13
583.06	465.77
583.22	421.30
583.38	393.21
583.54	367.46
583.70	475.13
583.86	386.19
584.02	414.27
584.18	416.62
584.34	414.27
584.50	423.64
584.66	404.91
584.82	374.49
584.98	447.04
585.14	435.34
585.30	503.22
585.46	397.89
585.62	395.55
585.78	477.47
585.94	468.11
586.10	472.79
586.26	365.12
586.42	416.62
586.58	465.77
586.74	425.98
586.90	428.32
587.06	454.06
587.22	376.83
587.38	346.40
587.54	376.83
587.70	437.68
587.86	428.32
588.02	400.23
588.18	393.21
588.34	416.62
588.49	461.09
588.65	468.11
588.81	341.72
588.97	407.25
589.13	397.89
589.29	393.21
589.45	449.38
589.61	475.13
589.77	475.13
589.93	358.10
590.08	369.80
590.24	425.98
590.40	341.72
590.56	465.77
590.72	407.25
590.88	458.74
591.04	402.57
591.20	393.21
591.35	524.28
591.51	451.72
591.67	435.34
591.83	430.66
591.99	369.80
592.15	440.02
592.31	437.68
592.46	404.91
592.62	465.77
592.78	440.02
592.94	374.49
593.10	360.44
593.26	383.85
593.41	430.66
593.57	465.77
593.73	449.38
593.89	423.64
594.05	388.53
594.20	404.91
594.36	440.02
594.52	430.66
594.68	337.04
594.84	458.74
594.99	404.91
595.15	472.79
595.31	449.38
595.47	498.53
595.62	477.47
595.78	440.02
595.94	475.13
596.10	449.38
596.25	416.62
596.41	437.68
596.57	374.49
596.73	395.55
596.88	425.98
597.04	428.32
597.20	428.32
597.36	386.19
597.51	458.74
597.67	430.66
597.83	423.64
597.99	411.93
598.14	468.11
598.30	411.93
598.46	388.53
598.61	465.77
598.77	390.87
598.93	351.08
599.09	447.04
599.24	433.00
599.40	472.79
599.56	416.62
599.71	407.25
599.87	433.00
600.03	376.83
600.18	423.64
600.34	482.15
600.50	451.72
600.65	447.04
600.81	374.49
600.97	400.23
601.12	456.40
601.28	411.93
601.44	411.93
601.59	367.46
601.75	397.89
601.91	444.70
602.06	393.21
602.22	496.19
602.37	472.79
602.53	423.64
602.69	414.27
602.84	430.66
603.00	437.68
603.16	440.02
603.31	358.10
603.47	468.11
603.62	449.38
603.78	372.15
603.94	346.40
604.09	395.55
604.25	468.11
604.40	458.74
604.56	435.34
604.71	428.32
604.87	407.25
605.03	388.53
605.18	386.19
605.34	411.93
605.49	346.40
605.65	414.27
605.80	395.55
605.96	353.42
606.12	400.23
606.27	421.30
606.43	351.08
606.58	456.40
606.74	451.72
606.89	423.64
607.05	379.17
607.20	440.02
607.36	379.17
607.51	376.83
607.67	496.19
607.82	416.62
607.98	397.89
608.13	409.59
608.29	458.74
608.44	404.91
608.60	484.49
608.75	437.68
608.91	407.25
609.06	458.74
609.22	397.89
609.37	414.27
609.53	383.85
609.68	402.57
609.84	383.85
609.99	461.09
610.15	397.89
