SpectraSuite Data File
++++++++++++++++++++++++++++++++++++
Date: Fri Oct 25 12:11:19 EDT 2013
User: price-jones
Dark Spectrum Present: No
Reference Spectrum Present: No
Number of Sampled Component Spectra: 1
Spectrometers: USB2+H05261
Integration Time (usec): 100000 (USB2+H05261)
Spectra Averaged: 1 (USB2+H05261)
Boxcar Smoothing: 0 (USB2+H05261)
Correct for Electrical Dark: No (USB2+H05261)
Strobe/Lamp Enabled: No (USB2+H05261)
Correct for Detector Non-linearity: No (USB2+H05261)
Correct for Stray Light: No (USB2+H05261)
Number of Pixels in Processed Spectrum: 2048
>>>>>Begin Processed Spectral Data<<<<<
365.73	325.33
365.92	325.33
366.12	325.33
366.32	306.61
366.52	229.37
366.72	252.78
366.91	227.03
367.11	269.16
367.31	220.01
367.51	210.65
367.70	175.54
367.90	283.20
368.10	210.65
368.30	269.16
368.49	224.69
368.69	257.46
368.89	248.10
369.09	262.14
369.28	290.23
369.48	257.46
369.68	337.04
369.87	294.91
370.07	346.40
370.27	315.97
370.47	262.14
370.66	374.49
370.86	369.80
371.06	355.76
371.25	397.89
371.45	379.17
371.65	407.25
371.84	276.18
372.04	337.04
372.24	397.89
372.44	374.49
372.63	400.23
372.83	369.80
373.03	472.79
373.22	383.85
373.42	346.40
373.62	400.23
373.81	444.70
374.01	423.64
374.21	379.17
374.40	402.57
374.60	393.21
374.79	369.80
374.99	425.98
375.19	369.80
375.38	404.91
375.58	395.55
375.78	437.68
375.97	428.32
376.17	449.38
376.37	395.55
376.56	332.36
376.76	386.19
376.95	337.04
377.15	411.93
377.35	416.62
377.54	360.44
377.74	505.56
377.93	423.64
378.13	397.89
378.33	437.68
378.52	454.06
378.72	449.38
378.91	491.51
379.11	400.23
379.31	425.98
379.50	423.64
379.70	407.25
379.89	374.49
380.09	404.91
380.28	428.32
380.48	454.06
380.68	341.72
380.87	479.81
381.07	507.90
381.26	510.24
381.46	388.53
381.65	339.38
381.85	346.40
382.04	383.85
382.24	423.64
382.43	498.53
382.63	365.12
382.83	437.68
383.02	414.27
383.22	454.06
383.41	416.62
383.61	447.04
383.80	435.34
384.00	362.78
384.19	379.17
384.39	348.74
384.58	337.04
384.78	444.70
384.97	454.06
385.17	409.59
385.36	358.10
385.56	372.15
385.75	442.36
385.95	475.13
386.14	390.87
386.34	372.15
386.53	442.36
386.72	383.85
386.92	456.40
387.11	418.96
387.31	372.15
387.50	351.08
387.70	358.10
387.89	381.51
388.09	430.66
388.28	418.96
388.48	435.34
388.67	407.25
388.86	337.04
389.06	369.80
389.25	442.36
389.45	360.44
389.64	404.91
389.84	348.74
390.03	433.00
390.22	346.40
390.42	386.19
390.61	458.74
390.81	395.55
391.00	346.40
391.19	430.66
391.39	484.49
391.58	442.36
391.78	416.62
391.97	425.98
392.16	402.57
392.36	475.13
392.55	454.06
392.75	365.12
392.94	454.06
393.13	451.72
393.33	407.25
393.52	376.83
393.71	425.98
393.91	430.66
394.10	393.21
394.29	409.59
394.49	393.21
394.68	383.85
394.88	416.62
395.07	440.02
395.26	390.87
395.46	393.21
395.65	489.17
395.84	409.59
396.04	386.19
396.23	407.25
396.42	372.15
396.62	374.49
396.81	367.46
397.00	365.12
397.19	390.87
397.39	402.57
397.58	491.51
397.77	421.30
397.97	435.34
398.16	402.57
398.35	433.00
398.55	390.87
398.74	383.85
398.93	414.27
399.12	322.99
399.32	395.55
399.51	416.62
399.70	456.40
399.90	322.99
400.09	444.70
400.28	418.96
400.47	407.25
400.67	386.19
400.86	407.25
401.05	440.02
401.24	383.85
401.44	468.11
401.63	374.49
401.82	414.27
402.01	440.02
402.21	337.04
402.40	320.65
402.59	456.40
402.78	414.27
402.97	461.09
403.17	433.00
403.36	411.93
403.55	390.87
403.74	376.83
403.93	407.25
404.13	334.70
404.32	362.78
404.51	411.93
404.70	510.24
404.89	468.11
405.09	470.45
405.28	386.19
405.47	411.93
405.66	458.74
405.85	440.02
406.05	386.19
406.24	472.79
406.43	369.80
406.62	390.87
406.81	486.83
407.00	386.19
407.20	444.70
407.39	376.83
407.58	440.02
407.77	461.09
407.96	421.30
408.15	451.72
408.34	458.74
408.54	386.19
408.73	425.98
408.92	388.53
409.11	423.64
409.30	430.66
409.49	369.80
409.68	449.38
409.87	400.23
410.07	407.25
410.26	411.93
410.45	407.25
410.64	433.00
410.83	435.34
411.02	437.68
411.21	461.09
411.40	355.76
411.59	355.76
411.78	416.62
411.98	444.70
412.17	348.74
412.36	433.00
412.55	367.46
412.74	351.08
412.93	472.79
413.12	447.04
413.31	484.49
413.50	444.70
413.69	428.32
413.88	442.36
414.07	400.23
414.26	416.62
414.45	383.85
414.64	486.83
414.83	379.17
415.02	451.72
415.22	386.19
415.41	418.96
415.60	379.17
415.79	393.21
415.98	390.87
416.17	395.55
416.36	383.85
416.55	451.72
416.74	409.59
416.93	500.87
417.12	372.15
417.31	388.53
417.50	402.57
417.69	517.26
417.88	376.83
418.07	475.13
418.26	388.53
418.45	414.27
418.64	449.38
418.83	393.21
419.02	430.66
419.21	411.93
419.39	409.59
419.58	437.68
419.77	425.98
419.96	440.02
420.15	449.38
420.34	433.00
420.53	435.34
420.72	449.38
420.91	388.53
421.10	388.53
421.29	447.04
421.48	411.93
421.67	433.00
421.86	400.23
422.05	442.36
422.24	442.36
422.43	414.27
422.61	397.89
422.80	365.12
422.99	376.83
423.18	407.25
423.37	383.85
423.56	505.56
423.75	475.13
423.94	458.74
424.13	423.64
424.32	435.34
424.50	386.19
424.69	358.10
424.88	381.51
425.07	404.91
425.26	425.98
425.45	397.89
425.64	416.62
425.83	468.11
426.01	430.66
426.20	465.77
426.39	411.93
426.58	407.25
426.77	428.32
426.96	458.74
427.15	454.06
427.33	421.30
427.52	454.06
427.71	393.21
427.90	451.72
428.09	418.96
428.28	355.76
428.46	409.59
428.65	346.40
428.84	449.38
429.03	458.74
429.22	393.21
429.40	423.64
429.59	435.34
429.78	369.80
429.97	442.36
430.16	397.89
430.34	400.23
430.53	390.87
430.72	433.00
430.91	397.89
431.10	463.43
431.28	447.04
431.47	430.66
431.66	397.89
431.85	355.76
432.03	465.77
432.22	376.83
432.41	393.21
432.60	383.85
432.79	355.76
432.97	472.79
433.16	332.36
433.35	397.89
433.54	390.87
433.72	407.25
433.91	540.66
434.10	416.62
434.28	397.89
434.47	393.21
434.66	458.74
434.85	386.19
435.03	444.70
435.22	463.43
435.41	381.51
435.59	449.38
435.78	437.68
435.97	442.36
436.16	407.25
436.34	376.83
436.53	447.04
436.72	461.09
436.90	461.09
437.09	437.68
437.28	442.36
437.46	421.30
437.65	449.38
437.84	402.57
438.02	381.51
438.21	400.23
438.40	437.68
438.58	442.36
438.77	369.80
438.96	414.27
439.14	407.25
439.33	447.04
439.52	404.91
439.70	388.53
439.89	395.55
440.08	521.94
440.26	421.30
440.45	440.02
440.63	402.57
440.82	376.83
441.01	372.15
441.19	404.91
441.38	456.40
441.57	442.36
441.75	421.30
441.94	470.45
442.12	486.83
442.31	362.78
442.50	390.87
442.68	421.30
442.87	390.87
443.05	353.42
443.24	362.78
443.43	421.30
443.61	418.96
443.80	402.57
443.98	348.74
444.17	430.66
444.35	430.66
444.54	379.17
444.73	381.51
444.91	440.02
445.10	407.25
445.28	414.27
445.47	369.80
445.65	433.00
445.84	400.23
446.02	367.46
446.21	418.96
446.39	449.38
446.58	390.87
446.77	428.32
446.95	369.80
447.14	411.93
447.32	442.36
447.51	379.17
447.69	383.85
447.88	344.06
448.06	449.38
448.25	358.10
448.43	341.72
448.62	430.66
448.80	430.66
448.99	407.25
449.17	407.25
449.36	430.66
449.54	451.72
449.73	409.59
449.91	444.70
450.10	465.77
450.28	475.13
450.46	386.19
450.65	500.87
450.83	444.70
451.02	444.70
451.20	376.83
451.39	365.12
451.57	404.91
451.76	353.42
451.94	358.10
452.13	451.72
452.31	322.99
452.49	397.89
452.68	341.72
452.86	397.89
453.05	407.25
453.23	397.89
453.42	414.27
453.60	367.46
453.78	337.04
453.97	390.87
454.15	433.00
454.34	437.68
454.52	400.23
454.70	362.78
454.89	456.40
455.07	409.59
455.26	454.06
455.44	407.25
455.62	454.06
455.81	388.53
455.99	411.93
456.17	425.98
456.36	454.06
456.54	379.17
456.73	397.89
456.91	404.91
457.09	430.66
457.28	362.78
457.46	355.76
457.64	444.70
457.83	449.38
458.01	454.06
458.19	414.27
458.38	423.64
458.56	416.62
458.74	428.32
458.93	435.34
459.11	397.89
459.29	414.27
459.48	428.32
459.66	482.15
459.84	449.38
460.03	451.72
460.21	475.13
460.39	409.59
460.57	433.00
460.76	472.79
460.94	330.02
461.12	397.89
461.31	472.79
461.49	346.40
461.67	369.80
461.85	416.62
462.04	360.44
462.22	755.99
462.40	451.72
462.59	388.53
462.77	379.17
462.95	414.27
463.13	498.53
463.32	449.38
463.50	468.11
463.68	421.30
463.86	484.49
464.05	449.38
464.23	421.30
464.41	444.70
464.59	379.17
464.78	425.98
464.96	339.38
465.14	425.98
465.32	400.23
465.50	461.09
465.69	454.06
465.87	477.47
466.05	400.23
466.23	421.30
466.41	521.94
466.60	402.57
466.78	423.64
466.96	475.13
467.14	428.32
467.32	425.98
467.51	423.64
467.69	388.53
467.87	475.13
468.05	435.34
468.23	416.62
468.41	486.83
468.60	407.25
468.78	393.21
468.96	411.93
469.14	458.74
469.32	381.51
469.50	402.57
469.69	376.83
469.87	348.74
470.05	482.15
470.23	376.83
470.41	376.83
470.59	444.70
470.77	404.91
470.95	428.32
471.14	458.74
471.32	327.68
471.50	517.26
471.68	472.79
471.86	400.23
472.04	344.06
472.22	344.06
472.40	430.66
472.58	388.53
472.77	416.62
472.95	360.44
473.13	444.70
473.31	463.43
473.49	414.27
473.67	416.62
473.85	440.02
474.03	393.21
474.21	414.27
474.39	470.45
474.57	381.51
474.75	444.70
474.93	400.23
475.12	381.51
475.30	404.91
475.48	416.62
475.66	376.83
475.84	381.51
476.02	369.80
476.20	381.51
476.38	388.53
476.56	458.74
476.74	390.87
476.92	402.57
477.10	397.89
477.28	411.93
477.46	442.36
477.64	414.27
477.82	442.36
478.00	440.02
478.18	430.66
478.36	407.25
478.54	489.17
478.72	433.00
478.90	390.87
479.08	353.42
479.26	418.96
479.44	416.62
479.62	423.64
479.80	381.51
479.98	395.55
480.16	449.38
480.34	461.09
480.52	376.83
480.70	435.34
480.88	386.19
481.06	397.89
481.24	379.17
481.41	440.02
481.59	411.93
481.77	374.49
481.95	430.66
482.13	402.57
482.31	360.44
482.49	421.30
482.67	423.64
482.85	433.00
483.03	444.70
483.21	379.17
483.39	404.91
483.57	447.04
483.74	456.40
483.92	376.83
484.10	416.62
484.28	411.93
484.46	454.06
484.64	456.40
484.82	437.68
485.00	423.64
485.18	383.85
485.35	442.36
485.53	367.46
485.71	461.09
485.89	400.23
486.07	418.96
486.25	491.51
486.43	430.66
486.61	409.59
486.78	414.27
486.96	472.79
487.14	386.19
487.32	360.44
487.50	433.00
487.68	428.32
487.85	334.70
488.03	425.98
488.21	386.19
488.39	358.10
488.57	451.72
488.75	327.68
488.92	458.74
489.10	428.32
489.28	381.51
489.46	409.59
489.64	430.66
489.81	393.21
489.99	365.12
490.17	341.72
490.35	388.53
490.53	421.30
490.70	414.27
490.88	404.91
491.06	411.93
491.24	430.66
491.41	425.98
491.59	468.11
491.77	423.64
491.95	489.17
492.13	360.44
492.30	440.02
492.48	440.02
492.66	390.87
492.84	355.76
493.01	414.27
493.19	463.43
493.37	472.79
493.54	444.70
493.72	393.21
493.90	470.45
494.08	475.13
494.25	379.17
494.43	418.96
494.61	381.51
494.79	409.59
494.96	507.90
495.14	486.83
495.32	409.59
495.49	411.93
495.67	409.59
495.85	479.81
496.02	423.64
496.20	430.66
496.38	442.36
496.55	346.40
496.73	423.64
496.91	400.23
497.09	454.06
497.26	402.57
497.44	418.96
497.62	447.04
497.79	461.09
497.97	355.76
498.14	379.17
498.32	482.15
498.50	411.93
498.67	421.30
498.85	463.43
499.03	411.93
499.20	409.59
499.38	428.32
499.56	404.91
499.73	414.27
499.91	404.91
500.08	486.83
500.26	437.68
500.44	418.96
500.61	383.85
500.79	477.47
500.97	447.04
501.14	440.02
501.32	468.11
501.49	442.36
501.67	468.11
501.84	435.34
502.02	383.85
502.20	449.38
502.37	416.62
502.55	379.17
502.72	421.30
502.90	510.24
503.07	416.62
503.25	379.17
503.43	416.62
503.60	397.89
503.78	442.36
503.95	407.25
504.13	411.93
504.30	358.10
504.48	454.06
504.65	479.81
504.83	470.45
505.01	383.85
505.18	500.87
505.36	440.02
505.53	397.89
505.71	498.53
505.88	440.02
506.06	409.59
506.23	418.96
506.41	390.87
506.58	407.25
506.76	395.55
506.93	430.66
507.11	346.40
507.28	367.46
507.46	397.89
507.63	397.89
507.81	365.12
507.98	433.00
508.16	390.87
508.33	383.85
508.50	444.70
508.68	437.68
508.85	367.46
509.03	409.59
509.20	414.27
509.38	433.00
509.55	444.70
509.73	397.89
509.90	404.91
510.08	397.89
510.25	407.25
510.42	435.34
510.60	437.68
510.77	458.74
510.95	409.59
511.12	400.23
511.30	484.49
511.47	442.36
511.64	423.64
511.82	325.33
511.99	430.66
512.17	397.89
512.34	430.66
512.51	402.57
512.69	407.25
512.86	435.34
513.04	449.38
513.21	468.11
513.38	444.70
513.56	334.70
513.73	369.80
513.90	404.91
514.08	365.12
514.25	447.04
514.43	451.72
514.60	454.06
514.77	374.49
514.95	470.45
515.12	440.02
515.29	425.98
515.47	430.66
515.64	430.66
515.81	449.38
515.99	440.02
516.16	379.17
516.33	390.87
516.51	437.68
516.68	400.23
516.85	409.59
517.03	418.96
517.20	414.27
517.37	430.66
517.54	411.93
517.72	444.70
517.89	409.59
518.06	440.02
518.24	461.09
518.41	444.70
518.58	388.53
518.75	463.43
518.93	381.51
519.10	367.46
519.27	351.08
519.45	505.56
519.62	444.70
519.79	437.68
519.96	423.64
520.14	456.40
520.31	533.64
520.48	447.04
520.65	423.64
520.83	435.34
521.00	418.96
521.17	395.55
521.34	369.80
521.52	379.17
521.69	477.47
521.86	402.57
522.03	486.83
522.20	486.83
522.38	414.27
522.55	421.30
522.72	414.27
522.89	486.83
523.07	456.40
523.24	400.23
523.41	437.68
523.58	416.62
523.75	456.40
523.92	442.36
524.10	433.00
524.27	402.57
524.44	451.72
524.61	442.36
524.78	400.23
524.96	463.43
525.13	416.62
525.30	472.79
525.47	451.72
525.64	447.04
525.81	470.45
525.98	390.87
526.16	444.70
526.33	433.00
526.50	449.38
526.67	393.21
526.84	416.62
527.01	386.19
527.18	449.38
527.36	397.89
527.53	430.66
527.70	470.45
527.87	484.49
528.04	482.15
528.21	379.17
528.38	472.79
528.55	383.85
528.72	404.91
528.89	362.78
529.07	423.64
529.24	505.56
529.41	418.96
529.58	383.85
529.75	421.30
529.92	449.38
530.09	369.80
530.26	425.98
530.43	472.79
530.60	451.72
530.77	351.08
530.94	425.98
531.11	407.25
531.28	456.40
531.46	458.74
531.63	437.68
531.80	461.09
531.97	414.27
532.14	447.04
532.31	444.70
532.48	479.81
532.65	435.34
532.82	362.78
532.99	500.87
533.16	416.62
533.33	383.85
533.50	379.17
533.67	451.72
533.84	430.66
534.01	418.96
534.18	379.17
534.35	400.23
534.52	430.66
534.69	369.80
534.86	404.91
535.03	362.78
535.20	430.66
535.37	379.17
535.54	409.59
535.71	489.17
535.88	437.68
536.05	414.27
536.22	400.23
536.38	395.55
536.55	393.21
536.72	433.00
536.89	456.40
537.06	447.04
537.23	472.79
537.40	440.02
537.57	388.53
537.74	531.30
537.91	376.83
538.08	449.38
538.25	447.04
538.42	421.30
538.59	397.89
538.75	486.83
538.92	395.55
539.09	456.40
539.26	447.04
539.43	470.45
539.60	423.64
539.77	402.57
539.94	376.83
540.11	437.68
540.28	449.38
540.44	390.87
540.61	416.62
540.78	390.87
540.95	409.59
541.12	395.55
541.29	454.06
541.46	500.87
541.62	372.15
541.79	402.57
541.96	402.57
542.13	404.91
542.30	437.68
542.47	423.64
542.63	472.79
542.80	379.17
542.97	454.06
543.14	379.17
543.31	395.55
543.48	477.47
543.64	388.53
543.81	454.06
543.98	379.17
544.15	402.57
544.32	458.74
544.48	442.36
544.65	390.87
544.82	430.66
544.99	447.04
545.16	425.98
545.32	475.13
545.49	416.62
545.66	365.12
545.83	388.53
546.00	430.66
546.16	358.10
546.33	411.93
546.50	409.59
546.67	369.80
546.83	418.96
547.00	435.34
547.17	444.70
547.34	458.74
547.50	430.66
547.67	468.11
547.84	400.23
548.00	374.49
548.17	362.78
548.34	390.87
548.51	435.34
548.67	390.87
548.84	400.23
549.01	461.09
549.18	404.91
549.34	407.25
549.51	463.43
549.68	505.56
549.84	397.89
550.01	367.46
550.18	444.70
550.34	470.45
550.51	430.66
550.68	528.96
550.84	395.55
551.01	449.38
551.18	503.22
551.34	425.98
551.51	444.70
551.68	425.98
551.84	428.32
552.01	367.46
552.18	435.34
552.34	435.34
552.51	479.81
552.68	418.96
552.84	421.30
553.01	489.17
553.18	440.02
553.34	386.19
553.51	381.51
553.67	414.27
553.84	456.40
554.01	463.43
554.17	458.74
554.34	437.68
554.51	367.46
554.67	388.53
554.84	407.25
555.00	447.04
555.17	374.49
555.33	421.30
555.50	463.43
555.67	383.85
555.83	428.32
556.00	496.19
556.16	477.47
556.33	437.68
556.50	430.66
556.66	418.96
556.83	411.93
556.99	383.85
557.16	341.72
557.32	393.21
557.49	421.30
557.65	360.44
557.82	390.87
557.98	425.98
558.15	353.42
558.32	458.74
558.48	414.27
558.65	374.49
558.81	409.59
558.98	409.59
559.14	339.38
559.31	456.40
559.47	411.93
559.64	463.43
559.80	444.70
559.97	454.06
560.13	404.91
560.30	374.49
560.46	444.70
560.63	390.87
560.79	435.34
560.96	409.59
561.12	435.34
561.29	510.24
561.45	444.70
561.61	421.30
561.78	484.49
561.94	383.85
562.11	425.98
562.27	339.38
562.44	372.15
562.60	425.98
562.77	383.85
562.93	500.87
563.10	449.38
563.26	411.93
563.42	435.34
563.59	428.32
563.75	376.83
563.92	442.36
564.08	447.04
564.24	388.53
564.41	503.22
564.57	468.11
564.74	428.32
564.90	463.43
565.07	411.93
565.23	381.51
565.39	341.72
565.56	461.09
565.72	440.02
565.88	402.57
566.05	449.38
566.21	351.08
566.38	442.36
566.54	397.89
566.70	379.17
566.87	393.21
567.03	489.17
567.19	409.59
567.36	433.00
567.52	353.42
567.68	397.89
567.85	463.43
568.01	479.81
568.17	514.92
568.34	447.04
568.50	409.59
568.66	421.30
568.83	468.11
568.99	337.04
569.15	479.81
569.32	355.76
569.48	376.83
569.64	395.55
569.81	444.70
569.97	416.62
570.13	442.36
570.30	428.32
570.46	442.36
570.62	465.77
570.78	454.06
570.95	425.98
571.11	409.59
571.27	456.40
571.43	430.66
571.60	386.19
571.76	402.57
571.92	409.59
572.09	400.23
572.25	407.25
572.41	386.19
572.57	414.27
572.74	465.77
572.90	470.45
573.06	454.06
573.22	372.15
573.38	468.11
573.55	416.62
573.71	428.32
573.87	484.49
574.03	409.59
574.20	461.09
574.36	369.80
574.52	433.00
574.68	454.06
574.84	400.23
575.01	496.19
575.17	447.04
575.33	451.72
575.49	463.43
575.65	447.04
575.82	430.66
575.98	461.09
576.14	414.27
576.30	395.55
576.46	437.68
576.62	477.47
576.79	414.27
576.95	411.93
577.11	425.98
577.27	449.38
577.43	386.19
577.59	409.59
577.75	463.43
577.92	430.66
578.08	449.38
578.24	510.24
578.40	433.00
578.56	489.17
578.72	454.06
578.88	503.22
579.04	383.85
579.21	435.34
579.37	472.79
579.53	353.42
579.69	393.21
579.85	365.12
580.01	472.79
580.17	435.34
580.33	365.12
580.49	428.32
580.65	404.91
580.82	379.17
580.98	437.68
581.14	496.19
581.30	388.53
581.46	365.12
581.62	503.22
581.78	428.32
581.94	449.38
582.10	418.96
582.26	430.66
582.42	358.10
582.58	524.28
582.74	339.38
582.90	379.17
583.06	348.74
583.22	425.98
583.38	409.59
583.54	447.04
583.70	383.85
583.86	416.62
584.02	383.85
584.18	463.43
584.34	402.57
584.50	400.23
584.66	407.25
584.82	428.32
584.98	414.27
585.14	388.53
585.30	397.89
585.46	390.87
585.62	407.25
585.78	449.38
585.94	395.55
586.10	418.96
586.26	348.74
586.42	444.70
586.58	390.87
586.74	393.21
586.90	381.51
587.06	425.98
587.22	454.06
587.38	414.27
587.54	397.89
587.70	442.36
587.86	503.22
588.02	346.40
588.18	433.00
588.34	367.46
588.49	400.23
588.65	390.87
588.81	414.27
588.97	381.51
589.13	449.38
589.29	430.66
589.45	393.21
589.61	414.27
589.77	404.91
589.93	416.62
590.08	390.87
590.24	362.78
590.40	444.70
590.56	447.04
590.72	449.38
590.88	418.96
591.04	409.59
591.20	416.62
591.35	414.27
591.51	400.23
591.67	435.34
591.83	355.76
591.99	444.70
592.15	411.93
592.31	437.68
592.46	451.72
592.62	416.62
592.78	339.38
592.94	390.87
593.10	388.53
593.26	421.30
593.41	425.98
593.57	425.98
593.73	362.78
593.89	320.65
594.05	440.02
594.20	437.68
594.36	393.21
594.52	407.25
594.68	367.46
594.84	397.89
594.99	400.23
595.15	433.00
595.31	524.28
595.47	437.68
595.62	362.78
595.78	381.51
595.94	423.64
596.10	379.17
596.25	486.83
596.41	444.70
596.57	484.49
596.73	369.80
596.88	400.23
597.04	348.74
597.20	477.47
597.36	423.64
597.51	454.06
597.67	433.00
597.83	397.89
597.99	472.79
598.14	458.74
598.30	461.09
598.46	425.98
598.61	461.09
598.77	505.56
598.93	390.87
599.09	393.21
599.24	397.89
599.40	454.06
599.56	400.23
599.71	341.72
599.87	414.27
600.03	447.04
600.18	433.00
600.34	360.44
600.50	418.96
600.65	404.91
600.81	437.68
600.97	449.38
601.12	369.80
601.28	463.43
601.44	442.36
601.59	416.62
601.75	407.25
601.91	355.76
602.06	444.70
602.22	482.15
602.37	400.23
602.53	395.55
602.69	409.59
602.84	409.59
603.00	421.30
603.16	409.59
603.31	491.51
603.47	517.26
603.62	407.25
603.78	425.98
603.94	414.27
604.09	437.68
604.25	447.04
604.40	456.40
604.56	428.32
604.71	418.96
604.87	397.89
605.03	498.53
605.18	390.87
605.34	491.51
605.49	374.49
605.65	423.64
605.80	390.87
605.96	433.00
606.12	393.21
606.27	383.85
606.43	433.00
606.58	435.34
606.74	386.19
606.89	414.27
607.05	407.25
607.20	456.40
607.36	383.85
607.51	442.36
607.67	411.93
607.82	416.62
607.98	430.66
608.13	346.40
608.29	456.40
608.44	442.36
608.60	475.13
608.75	430.66
608.91	433.00
609.06	472.79
609.22	454.06
609.37	402.57
609.53	430.66
609.68	430.66
609.84	514.92
609.99	433.00
610.15	475.13
