SpectraSuite Data File
++++++++++++++++++++++++++++++++++++
Date: Fri Oct 25 12:10:59 EDT 2013
User: price-jones
Dark Spectrum Present: No
Reference Spectrum Present: No
Number of Sampled Component Spectra: 1
Spectrometers: USB2+H05261
Integration Time (usec): 100000 (USB2+H05261)
Spectra Averaged: 1 (USB2+H05261)
Boxcar Smoothing: 0 (USB2+H05261)
Correct for Electrical Dark: No (USB2+H05261)
Strobe/Lamp Enabled: No (USB2+H05261)
Correct for Detector Non-linearity: No (USB2+H05261)
Correct for Stray Light: No (USB2+H05261)
Number of Pixels in Processed Spectrum: 2048
>>>>>Begin Processed Spectral Data<<<<<
365.73	287.89
365.92	287.89
366.12	287.89
366.32	238.73
366.52	255.12
366.72	269.16
366.91	198.95
367.11	311.29
367.31	180.22
367.51	222.35
367.70	234.05
367.90	194.26
368.10	224.69
368.30	285.55
368.49	241.08
368.69	294.91
368.89	231.71
369.09	322.99
369.28	271.50
369.48	269.16
369.68	285.55
369.87	313.63
370.07	273.84
370.27	308.95
370.47	299.59
370.66	294.91
370.86	276.18
371.06	383.85
371.25	395.55
371.45	313.63
371.65	344.06
371.84	372.15
372.04	388.53
372.24	435.34
372.44	397.89
372.63	369.80
372.83	365.12
373.03	489.17
373.22	341.72
373.42	355.76
373.62	447.04
373.81	409.59
374.01	404.91
374.21	451.72
374.40	395.55
374.60	498.53
374.79	456.40
374.99	479.81
375.19	425.98
375.38	358.10
375.58	475.13
375.78	444.70
375.97	421.30
376.17	411.93
376.37	322.99
376.56	372.15
376.76	393.21
376.95	421.30
377.15	451.72
377.35	395.55
377.54	465.77
377.74	435.34
377.93	369.80
378.13	421.30
378.33	421.30
378.52	388.53
378.72	416.62
378.91	402.57
379.11	437.68
379.31	362.78
379.50	442.36
379.70	327.68
379.89	425.98
380.09	388.53
380.28	463.43
380.48	374.49
380.68	397.89
380.87	355.76
381.07	428.32
381.26	418.96
381.46	327.68
381.65	423.64
381.85	386.19
382.04	360.44
382.24	362.78
382.43	465.77
382.63	332.36
382.83	376.83
383.02	418.96
383.22	397.89
383.41	395.55
383.61	404.91
383.80	339.38
384.00	379.17
384.19	404.91
384.39	435.34
384.58	409.59
384.78	433.00
384.97	414.27
385.17	372.15
385.36	409.59
385.56	444.70
385.75	379.17
385.95	365.12
386.14	386.19
386.34	468.11
386.53	430.66
386.72	414.27
386.92	414.27
387.11	444.70
387.31	414.27
387.50	386.19
387.70	451.72
387.89	423.64
388.09	353.42
388.28	465.77
388.48	402.57
388.67	479.81
388.86	386.19
389.06	383.85
389.25	374.49
389.45	369.80
389.64	386.19
389.84	348.74
390.03	402.57
390.22	381.51
390.42	388.53
390.61	409.59
390.81	365.12
391.00	390.87
391.19	421.30
391.39	393.21
391.58	493.85
391.78	414.27
391.97	388.53
392.16	393.21
392.36	444.70
392.55	414.27
392.75	428.32
392.94	447.04
393.13	402.57
393.33	346.40
393.52	362.78
393.71	411.93
393.91	374.49
394.10	355.76
394.29	456.40
394.49	407.25
394.68	386.19
394.88	390.87
395.07	463.43
395.26	386.19
395.46	418.96
395.65	456.40
395.84	402.57
396.04	423.64
396.23	379.17
396.42	369.80
396.62	327.68
396.81	383.85
397.00	360.44
397.19	421.30
397.39	351.08
397.58	517.26
397.77	414.27
397.97	388.53
398.16	472.79
398.35	407.25
398.55	397.89
398.74	484.49
398.93	411.93
399.12	440.02
399.32	367.46
399.51	430.66
399.70	397.89
399.90	409.59
400.09	374.49
400.28	386.19
400.47	365.12
400.67	402.57
400.86	414.27
401.05	322.99
401.24	360.44
401.44	411.93
401.63	447.04
401.82	428.32
402.01	383.85
402.21	383.85
402.40	379.17
402.59	388.53
402.78	402.57
402.97	435.34
403.17	411.93
403.36	416.62
403.55	430.66
403.74	456.40
403.93	390.87
404.13	475.13
404.32	393.21
404.51	395.55
404.70	297.25
404.89	425.98
405.09	484.49
405.28	409.59
405.47	372.15
405.66	447.04
405.85	440.02
406.05	444.70
406.24	381.51
406.43	397.89
406.62	404.91
406.81	486.83
407.00	416.62
407.20	344.06
407.39	388.53
407.58	400.23
407.77	416.62
407.96	409.59
408.15	442.36
408.34	418.96
408.54	407.25
408.73	374.49
408.92	390.87
409.11	402.57
409.30	397.89
409.49	395.55
409.68	379.17
409.87	433.00
410.07	440.02
410.26	388.53
410.45	409.59
410.64	414.27
410.83	344.06
411.02	447.04
411.21	393.21
411.40	425.98
411.59	404.91
411.78	390.87
411.98	358.10
412.17	435.34
412.36	358.10
412.55	369.80
412.74	461.09
412.93	496.19
413.12	428.32
413.31	484.49
413.50	421.30
413.69	482.15
413.88	486.83
414.07	376.83
414.26	334.70
414.45	433.00
414.64	404.91
414.83	477.47
415.02	421.30
415.22	416.62
415.41	451.72
415.60	421.30
415.79	442.36
415.98	416.62
416.17	374.49
416.36	430.66
416.55	402.57
416.74	451.72
416.93	442.36
417.12	388.53
417.31	437.68
417.50	379.17
417.69	435.34
417.88	449.38
418.07	383.85
418.26	449.38
418.45	376.83
418.64	379.17
418.83	430.66
419.02	416.62
419.21	397.89
419.39	395.55
419.58	402.57
419.77	411.93
419.96	456.40
420.15	416.62
420.34	425.98
420.53	414.27
420.72	491.51
420.91	428.32
421.10	407.25
421.29	435.34
421.48	397.89
421.67	414.27
421.86	409.59
422.05	442.36
422.24	418.96
422.43	404.91
422.61	397.89
422.80	404.91
422.99	353.42
423.18	409.59
423.37	393.21
423.56	402.57
423.75	409.59
423.94	433.00
424.13	407.25
424.32	461.09
424.50	353.42
424.69	435.34
424.88	486.83
425.07	416.62
425.26	381.51
425.45	418.96
425.64	381.51
425.83	402.57
426.01	428.32
426.20	367.46
426.39	334.70
426.58	395.55
426.77	416.62
426.96	409.59
427.15	451.72
427.33	463.43
427.52	437.68
427.71	383.85
427.90	451.72
428.09	423.64
428.28	421.30
428.46	365.12
428.65	353.42
428.84	425.98
429.03	423.64
429.22	423.64
429.40	374.49
429.59	400.23
429.78	425.98
429.97	433.00
430.16	428.32
430.34	409.59
430.53	421.30
430.72	421.30
430.91	433.00
431.10	344.06
431.28	383.85
431.47	472.79
431.66	395.55
431.85	390.87
432.03	376.83
432.22	395.55
432.41	430.66
432.60	451.72
432.79	379.17
432.97	407.25
433.16	465.77
433.35	355.76
433.54	444.70
433.72	468.11
433.91	447.04
434.10	367.46
434.28	435.34
434.47	449.38
434.66	528.96
434.85	409.59
435.03	369.80
435.22	411.93
435.41	433.00
435.59	423.64
435.78	444.70
435.97	390.87
436.16	463.43
436.34	362.78
436.53	365.12
436.72	386.19
436.90	416.62
437.09	414.27
437.28	332.36
437.46	437.68
437.65	461.09
437.84	395.55
438.02	400.23
438.21	463.43
438.40	360.44
438.58	425.98
438.77	400.23
438.96	418.96
439.14	468.11
439.33	421.30
439.52	433.00
439.70	416.62
439.89	425.98
440.08	393.21
440.26	400.23
440.45	411.93
440.63	402.57
440.82	463.43
441.01	428.32
441.19	397.89
441.38	397.89
441.57	435.34
441.75	365.12
441.94	411.93
442.12	351.08
442.31	395.55
442.50	362.78
442.68	404.91
442.87	379.17
443.05	447.04
443.24	421.30
443.43	395.55
443.61	477.47
443.80	348.74
443.98	421.30
444.17	461.09
444.35	472.79
444.54	390.87
444.73	423.64
444.91	374.49
445.10	351.08
445.28	437.68
445.47	416.62
445.65	390.87
445.84	475.13
446.02	479.81
446.21	444.70
446.39	409.59
446.58	435.34
446.77	437.68
446.95	409.59
447.14	381.51
447.32	418.96
447.51	376.83
447.69	404.91
447.88	421.30
448.06	402.57
448.25	447.04
448.43	362.78
448.62	372.15
448.80	360.44
448.99	458.74
449.17	458.74
449.36	372.15
449.54	447.04
449.73	409.59
449.91	400.23
450.10	400.23
450.28	421.30
450.46	376.83
450.65	369.80
450.83	379.17
451.02	369.80
451.20	407.25
451.39	355.76
451.57	428.32
451.76	409.59
451.94	451.72
452.13	402.57
452.31	484.49
452.49	369.80
452.68	346.40
452.86	421.30
453.05	465.77
453.23	442.36
453.42	428.32
453.60	386.19
453.78	386.19
453.97	428.32
454.15	418.96
454.34	318.31
454.52	425.98
454.70	421.30
454.89	423.64
455.07	440.02
455.26	482.15
455.44	470.45
455.62	337.04
455.81	425.98
455.99	435.34
456.17	383.85
456.36	435.34
456.54	472.79
456.73	379.17
456.91	433.00
457.09	425.98
457.28	397.89
457.46	421.30
457.64	411.93
457.83	404.91
458.01	355.76
458.19	435.34
458.38	444.70
458.56	421.30
458.74	390.87
458.93	332.36
459.11	402.57
459.29	383.85
459.48	402.57
459.66	484.49
459.84	475.13
460.03	496.19
460.21	421.30
460.39	416.62
460.57	360.44
460.76	479.81
460.94	407.25
461.12	409.59
461.31	456.40
461.49	376.83
461.67	400.23
461.85	376.83
462.04	437.68
462.22	538.32
462.40	372.15
462.59	411.93
462.77	365.12
462.95	411.93
463.13	376.83
463.32	468.11
463.50	353.42
463.68	416.62
463.86	407.25
464.05	369.80
464.23	374.49
464.41	421.30
464.59	402.57
464.78	365.12
464.96	379.17
465.14	386.19
465.32	393.21
465.50	421.30
465.69	449.38
465.87	437.68
466.05	447.04
466.23	395.55
466.41	353.42
466.60	437.68
466.78	395.55
466.96	416.62
467.14	418.96
467.32	400.23
467.51	381.51
467.69	451.72
467.87	435.34
468.05	400.23
468.23	482.15
468.41	411.93
468.60	458.74
468.78	393.21
468.96	414.27
469.14	404.91
469.32	318.31
469.50	386.19
469.69	447.04
469.87	416.62
470.05	416.62
470.23	454.06
470.41	435.34
470.59	379.17
470.77	463.43
470.95	447.04
471.14	411.93
471.32	390.87
471.50	339.38
471.68	402.57
471.86	404.91
472.04	339.38
472.22	409.59
472.40	416.62
472.58	379.17
472.77	400.23
472.95	414.27
473.13	423.64
473.31	423.64
473.49	379.17
473.67	393.21
473.85	418.96
474.03	468.11
474.21	353.42
474.39	461.09
474.57	407.25
474.75	414.27
474.93	379.17
475.12	369.80
475.30	318.31
475.48	365.12
475.66	430.66
475.84	423.64
476.02	447.04
476.20	477.47
476.38	407.25
476.56	503.22
476.74	489.17
476.92	449.38
477.10	404.91
477.28	442.36
477.46	369.80
477.64	470.45
477.82	360.44
478.00	400.23
478.18	372.15
478.36	444.70
478.54	360.44
478.72	447.04
478.90	465.77
479.08	379.17
479.26	390.87
479.44	421.30
479.62	407.25
479.80	423.64
479.98	402.57
480.16	433.00
480.34	400.23
480.52	390.87
480.70	437.68
480.88	423.64
481.06	362.78
481.24	458.74
481.41	390.87
481.59	435.34
481.77	442.36
481.95	458.74
482.13	458.74
482.31	374.49
482.49	407.25
482.67	468.11
482.85	435.34
483.03	386.19
483.21	430.66
483.39	355.76
483.57	383.85
483.74	344.06
483.92	407.25
484.10	397.89
484.28	456.40
484.46	458.74
484.64	383.85
484.82	433.00
485.00	393.21
485.18	425.98
485.35	440.02
485.53	418.96
485.71	514.92
485.89	381.51
486.07	428.32
486.25	393.21
486.43	449.38
486.61	425.98
486.78	374.49
486.96	404.91
487.14	409.59
487.32	395.55
487.50	372.15
487.68	395.55
487.85	322.99
488.03	416.62
488.21	397.89
488.39	425.98
488.57	451.72
488.75	395.55
488.92	519.60
489.10	421.30
489.28	425.98
489.46	416.62
489.64	393.21
489.81	423.64
489.99	395.55
490.17	383.85
490.35	496.19
490.53	447.04
490.70	407.25
490.88	470.45
491.06	400.23
491.24	400.23
491.41	449.38
491.59	421.30
491.77	421.30
491.95	411.93
492.13	479.81
492.30	442.36
492.48	393.21
492.66	400.23
492.84	437.68
493.01	369.80
493.19	397.89
493.37	418.96
493.54	430.66
493.72	442.36
493.90	411.93
494.08	400.23
494.25	365.12
494.43	489.17
494.61	393.21
494.79	411.93
494.96	421.30
495.14	486.83
495.32	339.38
495.49	447.04
495.67	390.87
495.85	421.30
496.02	360.44
496.20	447.04
496.38	402.57
496.55	447.04
496.73	472.79
496.91	416.62
497.09	423.64
497.26	442.36
497.44	388.53
497.62	402.57
497.79	440.02
497.97	383.85
498.14	430.66
498.32	411.93
498.50	418.96
498.67	369.80
498.85	407.25
499.03	449.38
499.20	470.45
499.38	353.42
499.56	435.34
499.73	416.62
499.91	505.56
500.08	397.89
500.26	454.06
500.44	409.59
500.61	465.77
500.79	390.87
500.97	465.77
501.14	468.11
501.32	421.30
501.49	428.32
501.67	374.49
501.84	379.17
502.02	400.23
502.20	383.85
502.37	449.38
502.55	407.25
502.72	423.64
502.90	447.04
503.07	449.38
503.25	425.98
503.43	407.25
503.60	425.98
503.78	454.06
503.95	376.83
504.13	447.04
504.30	400.23
504.48	486.83
504.65	397.89
504.83	437.68
505.01	386.19
505.18	423.64
505.36	423.64
505.53	402.57
505.71	395.55
505.88	451.72
506.06	430.66
506.23	444.70
506.41	416.62
506.58	442.36
506.76	402.57
506.93	418.96
507.11	458.74
507.28	397.89
507.46	496.19
507.63	355.76
507.81	444.70
507.98	444.70
508.16	355.76
508.33	351.08
508.50	442.36
508.68	376.83
508.85	304.27
509.03	507.90
509.20	346.40
509.38	477.47
509.55	465.77
509.73	442.36
509.90	454.06
510.08	414.27
510.25	440.02
510.42	425.98
510.60	416.62
510.77	454.06
510.95	411.93
511.12	393.21
511.30	444.70
511.47	409.59
511.64	440.02
511.82	388.53
511.99	379.17
512.17	390.87
512.34	381.51
512.51	418.96
512.69	395.55
512.86	451.72
513.04	440.02
513.21	381.51
513.38	390.87
513.56	330.02
513.73	388.53
513.90	440.02
514.08	461.09
514.25	449.38
514.43	447.04
514.60	440.02
514.77	414.27
514.95	400.23
515.12	395.55
515.29	376.83
515.47	447.04
515.64	425.98
515.81	423.64
515.99	447.04
516.16	507.90
516.33	449.38
516.51	358.10
516.68	337.04
516.85	313.63
517.03	360.44
517.20	393.21
517.37	374.49
517.54	479.81
517.72	416.62
517.89	430.66
518.06	393.21
518.24	493.85
518.41	433.00
518.58	407.25
518.75	428.32
518.93	360.44
519.10	397.89
519.27	470.45
519.45	414.27
519.62	456.40
519.79	393.21
519.96	360.44
520.14	402.57
520.31	440.02
520.48	351.08
520.65	465.77
520.83	435.34
521.00	472.79
521.17	440.02
521.34	395.55
521.52	386.19
521.69	428.32
521.86	388.53
522.03	472.79
522.20	447.04
522.38	400.23
522.55	390.87
522.72	393.21
522.89	465.77
523.07	575.77
523.24	414.27
523.41	397.89
523.58	374.49
523.75	440.02
523.92	360.44
524.10	397.89
524.27	358.10
524.44	458.74
524.61	491.51
524.78	383.85
524.96	379.17
525.13	393.21
525.30	418.96
525.47	433.00
525.64	461.09
525.81	409.59
525.98	451.72
526.16	404.91
526.33	454.06
526.50	437.68
526.67	407.25
526.84	458.74
527.01	442.36
527.18	454.06
527.36	414.27
527.53	409.59
527.70	493.85
527.87	449.38
528.04	379.17
528.21	433.00
528.38	393.21
528.55	451.72
528.72	484.49
528.89	315.97
529.07	423.64
529.24	444.70
529.41	411.93
529.58	400.23
529.75	489.17
529.92	435.34
530.09	383.85
530.26	390.87
530.43	411.93
530.60	472.79
530.77	447.04
530.94	423.64
531.11	402.57
531.28	421.30
531.46	369.80
531.63	341.72
531.80	372.15
531.97	461.09
532.14	465.77
532.31	411.93
532.48	428.32
532.65	458.74
532.82	404.91
532.99	365.12
533.16	365.12
533.33	465.77
533.50	411.93
533.67	402.57
533.84	451.72
534.01	428.32
534.18	421.30
534.35	423.64
534.52	437.68
534.69	404.91
534.86	418.96
535.03	365.12
535.20	339.38
535.37	402.57
535.54	444.70
535.71	393.21
535.88	395.55
536.05	451.72
536.22	416.62
536.38	444.70
536.55	463.43
536.72	411.93
536.89	423.64
537.06	379.17
537.23	451.72
537.40	425.98
537.57	402.57
537.74	428.32
537.91	379.17
538.08	355.76
538.25	458.74
538.42	418.96
538.59	379.17
538.75	400.23
538.92	388.53
539.09	458.74
539.26	383.85
539.43	374.49
539.60	416.62
539.77	442.36
539.94	430.66
540.11	428.32
540.28	409.59
540.44	440.02
540.61	444.70
540.78	365.12
540.95	409.59
541.12	472.79
541.29	369.80
541.46	435.34
541.62	428.32
541.79	355.76
541.96	367.46
542.13	444.70
542.30	386.19
542.47	416.62
542.63	381.51
542.80	416.62
542.97	447.04
543.14	423.64
543.31	461.09
543.48	362.78
543.64	407.25
543.81	402.57
543.98	423.64
544.15	433.00
544.32	367.46
544.48	444.70
544.65	411.93
544.82	383.85
544.99	421.30
545.16	458.74
545.32	416.62
545.49	430.66
545.66	400.23
545.83	404.91
546.00	407.25
546.16	411.93
546.33	440.02
546.50	463.43
546.67	404.91
546.83	472.79
547.00	344.06
547.17	358.10
547.34	418.96
547.50	451.72
547.67	454.06
547.84	409.59
548.00	402.57
548.17	353.42
548.34	444.70
548.51	491.51
548.67	409.59
548.84	447.04
549.01	423.64
549.18	442.36
549.34	404.91
549.51	486.83
549.68	428.32
549.84	458.74
550.01	416.62
550.18	496.19
550.34	500.87
550.51	447.04
550.68	482.15
550.84	402.57
551.01	449.38
551.18	479.81
551.34	468.11
551.51	348.74
551.68	393.21
551.84	458.74
552.01	458.74
552.18	381.51
552.34	475.13
552.51	390.87
552.68	435.34
552.84	367.46
553.01	411.93
553.18	486.83
553.34	461.09
553.51	397.89
553.67	322.99
553.84	489.17
554.01	428.32
554.17	470.45
554.34	374.49
554.51	360.44
554.67	458.74
554.84	390.87
555.00	472.79
555.17	454.06
555.33	470.45
555.50	489.17
555.67	458.74
555.83	369.80
556.00	423.64
556.16	503.22
556.33	430.66
556.50	433.00
556.66	435.34
556.83	362.78
556.99	400.23
557.16	423.64
557.32	393.21
557.49	386.19
557.65	386.19
557.82	437.68
557.98	358.10
558.15	372.15
558.32	433.00
558.48	397.89
558.65	421.30
558.81	421.30
558.98	472.79
559.14	447.04
559.31	393.21
559.47	376.83
559.64	393.21
559.80	409.59
559.97	411.93
560.13	482.15
560.30	400.23
560.46	397.89
560.63	465.77
560.79	479.81
560.96	472.79
561.12	482.15
561.29	388.53
561.45	390.87
561.61	442.36
561.78	543.00
561.94	475.13
562.11	381.51
562.27	421.30
562.44	402.57
562.60	414.27
562.77	409.59
562.93	528.96
563.10	416.62
563.26	395.55
563.42	447.04
563.59	477.47
563.75	418.96
563.92	456.40
564.08	374.49
564.24	348.74
564.41	409.59
564.57	388.53
564.74	407.25
564.90	472.79
565.07	397.89
565.23	430.66
565.39	400.23
565.56	444.70
565.72	346.40
565.88	376.83
566.05	507.90
566.21	369.80
566.38	353.42
566.54	461.09
566.70	411.93
566.87	397.89
567.03	355.76
567.19	463.43
567.36	423.64
567.52	440.02
567.68	442.36
567.85	458.74
568.01	397.89
568.17	383.85
568.34	423.64
568.50	437.68
568.66	512.58
568.83	456.40
568.99	411.93
569.15	435.34
569.32	367.46
569.48	461.09
569.64	390.87
569.81	437.68
569.97	362.78
570.13	425.98
570.30	374.49
570.46	423.64
570.62	430.66
570.78	322.99
570.95	407.25
571.11	404.91
571.27	383.85
571.43	421.30
571.60	428.32
571.76	376.83
571.92	430.66
572.09	346.40
572.25	411.93
572.41	528.96
572.57	397.89
572.74	454.06
572.90	372.15
573.06	381.51
573.22	470.45
573.38	461.09
573.55	440.02
573.71	388.53
573.87	393.21
574.03	404.91
574.20	411.93
574.36	458.74
574.52	456.40
574.68	379.17
574.84	416.62
575.01	400.23
575.17	447.04
575.33	447.04
575.49	475.13
575.65	486.83
575.82	437.68
575.98	430.66
576.14	477.47
576.30	449.38
576.46	493.85
576.62	418.96
576.79	372.15
576.95	421.30
577.11	418.96
577.27	395.55
577.43	484.49
577.59	440.02
577.75	470.45
577.92	461.09
578.08	428.32
578.24	442.36
578.40	468.11
578.56	444.70
578.72	414.27
578.88	435.34
579.04	407.25
579.21	353.42
579.37	454.06
579.53	313.63
579.69	397.89
579.85	383.85
580.01	470.45
580.17	400.23
580.33	449.38
580.49	433.00
580.65	395.55
580.82	381.51
580.98	425.98
581.14	400.23
581.30	421.30
581.46	365.12
581.62	402.57
581.78	390.87
581.94	423.64
582.10	332.36
582.26	444.70
582.42	397.89
582.58	414.27
582.74	423.64
582.90	430.66
583.06	451.72
583.22	362.78
583.38	402.57
583.54	374.49
583.70	425.98
583.86	442.36
584.02	456.40
584.18	440.02
584.34	451.72
584.50	465.77
584.66	365.12
584.82	360.44
584.98	421.30
585.14	433.00
585.30	437.68
585.46	425.98
585.62	430.66
585.78	402.57
585.94	423.64
586.10	404.91
586.26	433.00
586.42	451.72
586.58	430.66
586.74	449.38
586.90	344.06
587.06	393.21
587.22	376.83
587.38	428.32
587.54	388.53
587.70	454.06
587.86	404.91
588.02	397.89
588.18	409.59
588.34	449.38
588.49	330.02
588.65	425.98
588.81	306.61
588.97	409.59
589.13	435.34
589.29	423.64
589.45	400.23
589.61	409.59
589.77	421.30
589.93	388.53
590.08	402.57
590.24	468.11
590.40	395.55
590.56	421.30
590.72	433.00
590.88	376.83
591.04	456.40
591.20	397.89
591.35	444.70
591.51	437.68
591.67	402.57
591.83	386.19
591.99	440.02
592.15	416.62
592.31	402.57
592.46	423.64
592.62	416.62
592.78	351.08
592.94	411.93
593.10	376.83
593.26	435.34
593.41	437.68
593.57	447.04
593.73	416.62
593.89	381.51
594.05	393.21
594.20	430.66
594.36	381.51
594.52	397.89
594.68	479.81
594.84	482.15
594.99	505.56
595.15	383.85
595.31	449.38
595.47	381.51
595.62	418.96
595.78	435.34
595.94	344.06
596.10	355.76
596.25	470.45
596.41	442.36
596.57	386.19
596.73	379.17
596.88	425.98
597.04	383.85
597.20	374.49
597.36	409.59
597.51	442.36
597.67	407.25
597.83	388.53
597.99	383.85
598.14	428.32
598.30	489.17
598.46	465.77
598.61	411.93
598.77	423.64
598.93	407.25
599.09	337.04
599.24	454.06
599.40	418.96
599.56	470.45
599.71	437.68
599.87	383.85
600.03	411.93
600.18	379.17
600.34	447.04
600.50	430.66
600.65	435.34
600.81	372.15
600.97	402.57
601.12	402.57
601.28	428.32
601.44	491.51
601.59	454.06
601.75	489.17
601.91	414.27
602.06	397.89
602.22	512.58
602.37	411.93
602.53	433.00
602.69	425.98
602.84	383.85
603.00	339.38
603.16	435.34
603.31	475.13
603.47	414.27
603.62	416.62
603.78	369.80
603.94	379.17
604.09	428.32
604.25	435.34
604.40	353.42
604.56	414.27
604.71	433.00
604.87	411.93
605.03	447.04
605.18	440.02
605.34	428.32
605.49	423.64
605.65	442.36
605.80	374.49
605.96	409.59
606.12	372.15
606.27	393.21
606.43	400.23
606.58	428.32
606.74	402.57
606.89	367.46
607.05	456.40
607.20	365.12
607.36	486.83
607.51	369.80
607.67	433.00
607.82	482.15
607.98	437.68
608.13	461.09
608.29	390.87
608.44	477.47
608.60	444.70
608.75	402.57
608.91	397.89
609.06	461.09
609.22	388.53
609.37	402.57
609.53	386.19
609.68	367.46
609.84	374.49
609.99	381.51
610.15	411.93
