SpectraSuite Data File
++++++++++++++++++++++++++++++++++++
Date: Fri Oct 25 12:10:46 EDT 2013
User: price-jones
Dark Spectrum Present: No
Reference Spectrum Present: No
Number of Sampled Component Spectra: 1
Spectrometers: USB2+H05261
Integration Time (usec): 100000 (USB2+H05261)
Spectra Averaged: 1 (USB2+H05261)
Boxcar Smoothing: 0 (USB2+H05261)
Correct for Electrical Dark: No (USB2+H05261)
Strobe/Lamp Enabled: No (USB2+H05261)
Correct for Detector Non-linearity: No (USB2+H05261)
Correct for Stray Light: No (USB2+H05261)
Number of Pixels in Processed Spectrum: 2048
>>>>>Begin Processed Spectral Data<<<<<
365.73	344.06
365.92	344.06
366.12	344.06
366.32	273.84
366.52	215.33
366.72	292.57
366.91	278.52
367.11	210.65
367.31	245.76
367.51	177.88
367.70	196.60
367.90	283.20
368.10	220.01
368.30	231.71
368.49	243.42
368.69	243.42
368.89	271.50
369.09	250.44
369.28	222.35
369.48	208.31
369.68	278.52
369.87	269.16
370.07	327.68
370.27	320.65
370.47	285.55
370.66	327.68
370.86	339.38
371.06	414.27
371.25	395.55
371.45	353.42
371.65	355.76
371.84	355.76
372.04	320.65
372.24	397.89
372.44	393.21
372.63	411.93
372.83	390.87
373.03	428.32
373.22	376.83
373.42	404.91
373.62	430.66
373.81	390.87
374.01	493.85
374.21	437.68
374.40	332.36
374.60	461.09
374.79	421.30
374.99	416.62
375.19	447.04
375.38	416.62
375.58	407.25
375.78	470.45
375.97	428.32
376.17	489.17
376.37	381.51
376.56	496.19
376.76	353.42
376.95	430.66
377.15	414.27
377.35	433.00
377.54	449.38
377.74	379.17
377.93	374.49
378.13	367.46
378.33	465.77
378.52	430.66
378.72	430.66
378.91	411.93
379.11	360.44
379.31	379.17
379.50	376.83
379.70	435.34
379.89	376.83
380.09	332.36
380.28	379.17
380.48	414.27
380.68	463.43
380.87	414.27
381.07	360.44
381.26	437.68
381.46	402.57
381.65	388.53
381.85	376.83
382.04	435.34
382.24	386.19
382.43	390.87
382.63	400.23
382.83	388.53
383.02	374.49
383.22	372.15
383.41	456.40
383.61	451.72
383.80	418.96
384.00	393.21
384.19	402.57
384.39	369.80
384.58	425.98
384.78	353.42
384.97	442.36
385.17	456.40
385.36	411.93
385.56	409.59
385.75	414.27
385.95	442.36
386.14	500.87
386.34	458.74
386.53	390.87
386.72	393.21
386.92	440.02
387.11	470.45
387.31	362.78
387.50	400.23
387.70	365.12
387.89	510.24
388.09	397.89
388.28	376.83
388.48	411.93
388.67	468.11
388.86	435.34
389.06	447.04
389.25	344.06
389.45	381.51
389.64	397.89
389.84	395.55
390.03	465.77
390.22	360.44
390.42	395.55
390.61	372.15
390.81	400.23
391.00	395.55
391.19	379.17
391.39	327.68
391.58	388.53
391.78	367.46
391.97	388.53
392.16	411.93
392.36	437.68
392.55	287.89
392.75	421.30
392.94	397.89
393.13	437.68
393.33	423.64
393.52	402.57
393.71	430.66
393.91	433.00
394.10	395.55
394.29	400.23
394.49	411.93
394.68	355.76
394.88	421.30
395.07	330.02
395.26	362.78
395.46	386.19
395.65	423.64
395.84	421.30
396.04	383.85
396.23	454.06
396.42	414.27
396.62	360.44
396.81	425.98
397.00	402.57
397.19	416.62
397.39	367.46
397.58	440.02
397.77	411.93
397.97	402.57
398.16	411.93
398.35	416.62
398.55	393.21
398.74	451.72
398.93	451.72
399.12	369.80
399.32	468.11
399.51	341.72
399.70	372.15
399.90	341.72
400.09	374.49
400.28	423.64
400.47	479.81
400.67	418.96
400.86	454.06
401.05	407.25
401.24	365.12
401.44	372.15
401.63	334.70
401.82	421.30
402.01	351.08
402.21	365.12
402.40	283.20
402.59	456.40
402.78	390.87
402.97	402.57
403.17	390.87
403.36	404.91
403.55	355.76
403.74	449.38
403.93	435.34
404.13	409.59
404.32	407.25
404.51	372.15
404.70	472.79
404.89	407.25
405.09	437.68
405.28	442.36
405.47	348.74
405.66	440.02
405.85	397.89
406.05	416.62
406.24	379.17
406.43	402.57
406.62	397.89
406.81	470.45
407.00	428.32
407.20	402.57
407.39	390.87
407.58	454.06
407.77	416.62
407.96	489.17
408.15	395.55
408.34	402.57
408.54	414.27
408.73	461.09
408.92	435.34
409.11	369.80
409.30	463.43
409.49	381.51
409.68	411.93
409.87	348.74
410.07	404.91
410.26	367.46
410.45	397.89
410.64	379.17
410.83	393.21
411.02	402.57
411.21	456.40
411.40	414.27
411.59	330.02
411.78	386.19
411.98	409.59
412.17	351.08
412.36	461.09
412.55	390.87
412.74	451.72
412.93	435.34
413.12	400.23
413.31	514.92
413.50	465.77
413.69	348.74
413.88	491.51
414.07	369.80
414.26	376.83
414.45	409.59
414.64	397.89
414.83	351.08
415.02	421.30
415.22	404.91
415.41	503.22
415.60	416.62
415.79	374.49
415.98	437.68
416.17	442.36
416.36	451.72
416.55	447.04
416.74	360.44
416.93	472.79
417.12	388.53
417.31	428.32
417.50	437.68
417.69	489.17
417.88	367.46
418.07	386.19
418.26	397.89
418.45	388.53
418.64	423.64
418.83	512.58
419.02	374.49
419.21	388.53
419.39	430.66
419.58	404.91
419.77	393.21
419.96	440.02
420.15	465.77
420.34	428.32
420.53	477.47
420.72	390.87
420.91	374.49
421.10	376.83
421.29	346.40
421.48	355.76
421.67	416.62
421.86	372.15
422.05	395.55
422.24	395.55
422.43	416.62
422.61	402.57
422.80	411.93
422.99	454.06
423.18	390.87
423.37	433.00
423.56	442.36
423.75	425.98
423.94	344.06
424.13	465.77
424.32	442.36
424.50	437.68
424.69	428.32
424.88	393.21
425.07	402.57
425.26	433.00
425.45	449.38
425.64	447.04
425.83	435.34
426.01	425.98
426.20	381.51
426.39	367.46
426.58	444.70
426.77	447.04
426.96	447.04
427.15	395.55
427.33	386.19
427.52	379.17
427.71	470.45
427.90	421.30
428.09	411.93
428.28	435.34
428.46	430.66
428.65	458.74
428.84	449.38
429.03	468.11
429.22	435.34
429.40	423.64
429.59	416.62
429.78	430.66
429.97	461.09
430.16	402.57
430.34	355.76
430.53	409.59
430.72	416.62
430.91	461.09
431.10	440.02
431.28	416.62
431.47	400.23
431.66	421.30
431.85	440.02
432.03	461.09
432.22	470.45
432.41	418.96
432.60	367.46
432.79	376.83
432.97	425.98
433.16	386.19
433.35	409.59
433.54	379.17
433.72	390.87
433.91	404.91
434.10	442.36
434.28	449.38
434.47	395.55
434.66	372.15
434.85	327.68
435.03	465.77
435.22	442.36
435.41	407.25
435.59	468.11
435.78	411.93
435.97	397.89
436.16	409.59
436.34	353.42
436.53	447.04
436.72	395.55
436.90	454.06
437.09	465.77
437.28	369.80
437.46	348.74
437.65	409.59
437.84	416.62
438.02	465.77
438.21	404.91
438.40	400.23
438.58	383.85
438.77	360.44
438.96	458.74
439.14	315.97
439.33	362.78
439.52	407.25
439.70	451.72
439.89	442.36
440.08	430.66
440.26	458.74
440.45	395.55
440.63	437.68
440.82	430.66
441.01	372.15
441.19	435.34
441.38	456.40
441.57	416.62
441.75	313.63
441.94	386.19
442.12	409.59
442.31	416.62
442.50	353.42
442.68	355.76
442.87	400.23
443.05	395.55
443.24	484.49
443.43	437.68
443.61	454.06
443.80	320.65
443.98	433.00
444.17	449.38
444.35	416.62
444.54	409.59
444.73	388.53
444.91	437.68
445.10	374.49
445.28	358.10
445.47	423.64
445.65	369.80
445.84	374.49
446.02	404.91
446.21	348.74
446.39	451.72
446.58	437.68
446.77	409.59
446.95	407.25
447.14	400.23
447.32	421.30
447.51	451.72
447.69	404.91
447.88	425.98
448.06	440.02
448.25	418.96
448.43	358.10
448.62	416.62
448.80	428.32
448.99	395.55
449.17	386.19
449.36	348.74
449.54	479.81
449.73	454.06
449.91	409.59
450.10	395.55
450.28	505.56
450.46	444.70
450.65	421.30
450.83	421.30
451.02	395.55
451.20	421.30
451.39	407.25
451.57	400.23
451.76	430.66
451.94	418.96
452.13	449.38
452.31	454.06
452.49	411.93
452.68	433.00
452.86	423.64
453.05	409.59
453.23	404.91
453.42	402.57
453.60	353.42
453.78	442.36
453.97	393.21
454.15	423.64
454.34	407.25
454.52	388.53
454.70	465.77
454.89	454.06
455.07	437.68
455.26	510.24
455.44	388.53
455.62	404.91
455.81	414.27
455.99	430.66
456.17	440.02
456.36	360.44
456.54	353.42
456.73	386.19
456.91	376.83
457.09	353.42
457.28	470.45
457.46	440.02
457.64	477.47
457.83	411.93
458.01	442.36
458.19	400.23
458.38	416.62
458.56	395.55
458.74	409.59
458.93	423.64
459.11	355.76
459.29	390.87
459.48	435.34
459.66	395.55
459.84	479.81
460.03	470.45
460.21	365.12
460.39	414.27
460.57	393.21
460.76	400.23
460.94	475.13
461.12	442.36
461.31	449.38
461.49	454.06
461.67	423.64
461.85	454.06
462.04	435.34
462.22	814.51
462.40	442.36
462.59	397.89
462.77	437.68
462.95	411.93
463.13	404.91
463.32	365.12
463.50	414.27
463.68	409.59
463.86	449.38
464.05	334.70
464.23	437.68
464.41	376.83
464.59	418.96
464.78	383.85
464.96	322.99
465.14	430.66
465.32	407.25
465.50	430.66
465.69	451.72
465.87	362.78
466.05	451.72
466.23	416.62
466.41	365.12
466.60	444.70
466.78	458.74
466.96	381.51
467.14	470.45
467.32	444.70
467.51	437.68
467.69	374.49
467.87	409.59
468.05	395.55
468.23	381.51
468.41	407.25
468.60	411.93
468.78	444.70
468.96	393.21
469.14	421.30
469.32	416.62
469.50	404.91
469.69	465.77
469.87	388.53
470.05	451.72
470.23	463.43
470.41	409.59
470.59	383.85
470.77	402.57
470.95	404.91
471.14	458.74
471.32	397.89
471.50	440.02
471.68	447.04
471.86	418.96
472.04	433.00
472.22	442.36
472.40	411.93
472.58	388.53
472.77	442.36
472.95	397.89
473.13	402.57
473.31	477.47
473.49	341.72
473.67	351.08
473.85	454.06
474.03	404.91
474.21	358.10
474.39	449.38
474.57	425.98
474.75	449.38
474.93	383.85
475.12	334.70
475.30	395.55
475.48	421.30
475.66	411.93
475.84	421.30
476.02	379.17
476.20	433.00
476.38	339.38
476.56	496.19
476.74	372.15
476.92	435.34
477.10	437.68
477.28	423.64
477.46	521.94
477.64	458.74
477.82	407.25
478.00	423.64
478.18	433.00
478.36	433.00
478.54	437.68
478.72	451.72
478.90	348.74
479.08	395.55
479.26	440.02
479.44	404.91
479.62	437.68
479.80	437.68
479.98	402.57
480.16	428.32
480.34	393.21
480.52	383.85
480.70	402.57
480.88	367.46
481.06	404.91
481.24	402.57
481.41	454.06
481.59	409.59
481.77	437.68
481.95	479.81
482.13	388.53
482.31	402.57
482.49	433.00
482.67	395.55
482.85	482.15
483.03	414.27
483.21	463.43
483.39	404.91
483.57	451.72
483.74	456.40
483.92	437.68
484.10	365.12
484.28	433.00
484.46	470.45
484.64	332.36
484.82	451.72
485.00	440.02
485.18	477.47
485.35	386.19
485.53	388.53
485.71	425.98
485.89	409.59
486.07	383.85
486.25	404.91
486.43	369.80
486.61	386.19
486.78	397.89
486.96	388.53
487.14	383.85
487.32	390.87
487.50	463.43
487.68	477.47
487.85	423.64
488.03	463.43
488.21	447.04
488.39	395.55
488.57	390.87
488.75	362.78
488.92	550.03
489.10	414.27
489.28	451.72
489.46	334.70
489.64	421.30
489.81	425.98
489.99	416.62
490.17	379.17
490.35	449.38
490.53	475.13
490.70	360.44
490.88	383.85
491.06	430.66
491.24	395.55
491.41	479.81
491.59	433.00
491.77	320.65
491.95	414.27
492.13	376.83
492.30	411.93
492.48	365.12
492.66	369.80
492.84	351.08
493.01	489.17
493.19	454.06
493.37	465.77
493.54	395.55
493.72	486.83
493.90	440.02
494.08	425.98
494.25	423.64
494.43	374.49
494.61	423.64
494.79	374.49
494.96	442.36
495.14	383.85
495.32	425.98
495.49	411.93
495.67	428.32
495.85	463.43
496.02	355.76
496.20	423.64
496.38	409.59
496.55	372.15
496.73	451.72
496.91	423.64
497.09	402.57
497.26	388.53
497.44	428.32
497.62	416.62
497.79	411.93
497.97	428.32
498.14	423.64
498.32	390.87
498.50	416.62
498.67	369.80
498.85	428.32
499.03	388.53
499.20	482.15
499.38	449.38
499.56	402.57
499.73	404.91
499.91	400.23
500.08	482.15
500.26	362.78
500.44	400.23
500.61	372.15
500.79	374.49
500.97	400.23
501.14	451.72
501.32	416.62
501.49	393.21
501.67	433.00
501.84	386.19
502.02	379.17
502.20	428.32
502.37	470.45
502.55	397.89
502.72	383.85
502.90	493.85
503.07	379.17
503.25	435.34
503.43	400.23
503.60	404.91
503.78	447.04
503.95	379.17
504.13	407.25
504.30	498.53
504.48	397.89
504.65	463.43
504.83	437.68
505.01	416.62
505.18	390.87
505.36	358.10
505.53	418.96
505.71	390.87
505.88	423.64
506.06	379.17
506.23	430.66
506.41	351.08
506.58	461.09
506.76	374.49
506.93	383.85
507.11	414.27
507.28	456.40
507.46	430.66
507.63	440.02
507.81	428.32
507.98	454.06
508.16	367.46
508.33	435.34
508.50	414.27
508.68	444.70
508.85	409.59
509.03	388.53
509.20	442.36
509.38	397.89
509.55	535.98
509.73	369.80
509.90	414.27
510.08	437.68
510.25	425.98
510.42	395.55
510.60	430.66
510.77	442.36
510.95	458.74
511.12	418.96
511.30	428.32
511.47	442.36
511.64	397.89
511.82	386.19
511.99	475.13
512.17	351.08
512.34	390.87
512.51	362.78
512.69	411.93
512.86	395.55
513.04	358.10
513.21	454.06
513.38	479.81
513.56	383.85
513.73	386.19
513.90	402.57
514.08	409.59
514.25	374.49
514.43	421.30
514.60	388.53
514.77	428.32
514.95	379.17
515.12	418.96
515.29	409.59
515.47	320.65
515.64	404.91
515.81	390.87
515.99	489.17
516.16	395.55
516.33	472.79
516.51	332.36
516.68	325.33
516.85	379.17
517.03	351.08
517.20	353.42
517.37	411.93
517.54	433.00
517.72	442.36
517.89	470.45
518.06	416.62
518.24	503.22
518.41	451.72
518.58	400.23
518.75	435.34
518.93	425.98
519.10	390.87
519.27	365.12
519.45	449.38
519.62	339.38
519.79	395.55
519.96	456.40
520.14	430.66
520.31	402.57
520.48	383.85
520.65	390.87
520.83	400.23
521.00	423.64
521.17	430.66
521.34	463.43
521.52	379.17
521.69	379.17
521.86	449.38
522.03	411.93
522.20	418.96
522.38	421.30
522.55	358.10
522.72	397.89
522.89	433.00
523.07	493.85
523.24	372.15
523.41	505.56
523.58	468.11
523.75	407.25
523.92	376.83
524.10	379.17
524.27	365.12
524.44	440.02
524.61	470.45
524.78	351.08
524.96	423.64
525.13	435.34
525.30	421.30
525.47	482.15
525.64	425.98
525.81	449.38
525.98	411.93
526.16	414.27
526.33	454.06
526.50	367.46
526.67	458.74
526.84	416.62
527.01	411.93
527.18	475.13
527.36	407.25
527.53	367.46
527.70	381.51
527.87	470.45
528.04	510.24
528.21	442.36
528.38	416.62
528.55	444.70
528.72	411.93
528.89	365.12
529.07	461.09
529.24	493.85
529.41	297.25
529.58	407.25
529.75	409.59
529.92	407.25
530.09	381.51
530.26	433.00
530.43	454.06
530.60	428.32
530.77	440.02
530.94	496.19
531.11	423.64
531.28	433.00
531.46	444.70
531.63	440.02
531.80	402.57
531.97	470.45
532.14	456.40
532.31	404.91
532.48	468.11
532.65	400.23
532.82	393.21
532.99	386.19
533.16	402.57
533.33	411.93
533.50	372.15
533.67	418.96
533.84	482.15
534.01	353.42
534.18	400.23
534.35	425.98
534.52	418.96
534.69	479.81
534.86	372.15
535.03	400.23
535.20	433.00
535.37	386.19
535.54	416.62
535.71	355.76
535.88	433.00
536.05	390.87
536.22	386.19
536.38	444.70
536.55	451.72
536.72	395.55
536.89	416.62
537.06	395.55
537.23	395.55
537.40	411.93
537.57	395.55
537.74	416.62
537.91	486.83
538.08	416.62
538.25	414.27
538.42	496.19
538.59	465.77
538.75	386.19
538.92	388.53
539.09	463.43
539.26	400.23
539.43	358.10
539.60	421.30
539.77	409.59
539.94	421.30
540.11	449.38
540.28	461.09
540.44	416.62
540.61	383.85
540.78	397.89
540.95	372.15
541.12	437.68
541.29	372.15
541.46	472.79
541.62	433.00
541.79	362.78
541.96	353.42
542.13	416.62
542.30	477.47
542.47	346.40
542.63	388.53
542.80	402.57
542.97	428.32
543.14	468.11
543.31	514.92
543.48	397.89
543.64	489.17
543.81	421.30
543.98	423.64
544.15	416.62
544.32	383.85
544.48	376.83
544.65	433.00
544.82	344.06
544.99	430.66
545.16	433.00
545.32	367.46
545.49	461.09
545.66	407.25
545.83	442.36
546.00	440.02
546.16	421.30
546.33	430.66
546.50	435.34
546.67	433.00
546.83	463.43
547.00	348.74
547.17	393.21
547.34	362.78
547.50	430.66
547.67	456.40
547.84	402.57
548.00	463.43
548.17	456.40
548.34	486.83
548.51	372.15
548.67	458.74
548.84	449.38
549.01	482.15
549.18	472.79
549.34	423.64
549.51	409.59
549.68	397.89
549.84	428.32
550.01	411.93
550.18	519.60
550.34	437.68
550.51	437.68
550.68	470.45
550.84	411.93
551.01	409.59
551.18	407.25
551.34	482.15
551.51	332.36
551.68	393.21
551.84	454.06
552.01	454.06
552.18	372.15
552.34	381.51
552.51	362.78
552.68	451.72
552.84	372.15
553.01	447.04
553.18	402.57
553.34	435.34
553.51	407.25
553.67	437.68
553.84	454.06
554.01	416.62
554.17	472.79
554.34	409.59
554.51	367.46
554.67	470.45
554.84	451.72
555.00	337.04
555.17	409.59
555.33	381.51
555.50	358.10
555.67	421.30
555.83	393.21
556.00	472.79
556.16	489.17
556.33	416.62
556.50	418.96
556.66	404.91
556.83	433.00
556.99	442.36
557.16	414.27
557.32	397.89
557.49	442.36
557.65	416.62
557.82	381.51
557.98	463.43
558.15	362.78
558.32	433.00
558.48	390.87
558.65	409.59
558.81	411.93
558.98	435.34
559.14	486.83
559.31	421.30
559.47	470.45
559.64	395.55
559.80	353.42
559.97	376.83
560.13	524.28
560.30	376.83
560.46	442.36
560.63	451.72
560.79	414.27
560.96	435.34
561.12	386.19
561.29	433.00
561.45	465.77
561.61	402.57
561.78	524.28
561.94	421.30
562.11	404.91
562.27	437.68
562.44	425.98
562.60	421.30
562.77	440.02
562.93	416.62
563.10	428.32
563.26	397.89
563.42	407.25
563.59	372.15
563.75	414.27
563.92	500.87
564.08	402.57
564.24	442.36
564.41	407.25
564.57	376.83
564.74	388.53
564.90	472.79
565.07	421.30
565.23	386.19
565.39	407.25
565.56	430.66
565.72	500.87
565.88	442.36
566.05	397.89
566.21	451.72
566.38	386.19
566.54	468.11
566.70	498.53
566.87	425.98
567.03	346.40
567.19	440.02
567.36	409.59
567.52	472.79
567.68	435.34
567.85	451.72
568.01	458.74
568.17	374.49
568.34	512.58
568.50	458.74
568.66	386.19
568.83	482.15
568.99	383.85
569.15	449.38
569.32	428.32
569.48	379.17
569.64	440.02
569.81	372.15
569.97	418.96
570.13	421.30
570.30	416.62
570.46	435.34
570.62	386.19
570.78	409.59
570.95	411.93
571.11	454.06
571.27	402.57
571.43	423.64
571.60	393.21
571.76	435.34
571.92	355.76
572.09	411.93
572.25	348.74
572.41	395.55
572.57	437.68
572.74	482.15
572.90	362.78
573.06	369.80
573.22	468.11
573.38	400.23
573.55	425.98
573.71	358.10
573.87	376.83
574.03	360.44
574.20	355.76
574.36	430.66
574.52	411.93
574.68	418.96
574.84	393.21
575.01	440.02
575.17	397.89
575.33	430.66
575.49	404.91
575.65	425.98
575.82	381.51
575.98	383.85
576.14	454.06
576.30	454.06
576.46	383.85
576.62	461.09
576.79	404.91
576.95	461.09
577.11	393.21
577.27	339.38
577.43	444.70
577.59	440.02
577.75	404.91
577.92	395.55
578.08	386.19
578.24	468.11
578.40	416.62
578.56	433.00
578.72	461.09
578.88	393.21
579.04	367.46
579.21	421.30
579.37	404.91
579.53	297.25
579.69	402.57
579.85	362.78
580.01	465.77
580.17	484.49
580.33	456.40
580.49	400.23
580.65	383.85
580.82	498.53
580.98	433.00
581.14	353.42
581.30	383.85
581.46	421.30
581.62	362.78
581.78	414.27
581.94	451.72
582.10	367.46
582.26	421.30
582.42	421.30
582.58	442.36
582.74	400.23
582.90	418.96
583.06	465.77
583.22	379.17
583.38	440.02
583.54	458.74
583.70	435.34
583.86	470.45
584.02	276.18
584.18	444.70
584.34	358.10
584.50	425.98
584.66	428.32
584.82	451.72
584.98	512.58
585.14	505.56
585.30	507.90
585.46	393.21
585.62	390.87
585.78	390.87
585.94	451.72
586.10	440.02
586.26	362.78
586.42	461.09
586.58	411.93
586.74	416.62
586.90	402.57
587.06	388.53
587.22	425.98
587.38	451.72
587.54	395.55
587.70	463.43
587.86	517.26
588.02	461.09
588.18	418.96
588.34	411.93
588.49	402.57
588.65	454.06
588.81	435.34
588.97	414.27
589.13	369.80
589.29	404.91
589.45	411.93
589.61	461.09
589.77	435.34
589.93	409.59
590.08	353.42
590.24	402.57
590.40	414.27
590.56	444.70
590.72	465.77
590.88	423.64
591.04	484.49
591.20	461.09
591.35	397.89
591.51	388.53
591.67	397.89
591.83	461.09
591.99	428.32
592.15	386.19
592.31	468.11
592.46	496.19
592.62	428.32
592.78	440.02
592.94	498.53
593.10	381.51
593.26	404.91
593.41	458.74
593.57	393.21
593.73	388.53
593.89	433.00
594.05	397.89
594.20	404.91
594.36	376.83
594.52	409.59
594.68	388.53
594.84	393.21
594.99	393.21
595.15	449.38
595.31	414.27
595.47	451.72
595.62	390.87
595.78	442.36
595.94	313.63
596.10	383.85
596.25	449.38
596.41	477.47
596.57	435.34
596.73	372.15
596.88	353.42
597.04	409.59
597.20	318.31
597.36	425.98
597.51	404.91
597.67	416.62
597.83	430.66
597.99	404.91
598.14	330.02
598.30	425.98
598.46	388.53
598.61	433.00
598.77	397.89
598.93	442.36
599.09	500.87
599.24	367.46
599.40	484.49
599.56	425.98
599.71	416.62
599.87	381.51
600.03	409.59
600.18	465.77
600.34	407.25
600.50	407.25
600.65	407.25
600.81	425.98
600.97	435.34
601.12	400.23
601.28	383.85
601.44	411.93
601.59	447.04
601.75	386.19
601.91	423.64
602.06	407.25
602.22	444.70
602.37	489.17
602.53	404.91
602.69	351.08
602.84	437.68
603.00	411.93
603.16	468.11
603.31	437.68
603.47	381.51
603.62	383.85
603.78	416.62
603.94	435.34
604.09	442.36
604.25	414.27
604.40	447.04
604.56	414.27
604.71	421.30
604.87	423.64
605.03	409.59
605.18	386.19
605.34	489.17
605.49	456.40
605.65	409.59
605.80	402.57
605.96	433.00
606.12	397.89
606.27	421.30
606.43	418.96
606.58	472.79
606.74	430.66
606.89	475.13
607.05	435.34
607.20	465.77
607.36	421.30
607.51	449.38
607.67	475.13
607.82	376.83
607.98	425.98
608.13	365.12
608.29	372.15
608.44	397.89
608.60	400.23
608.75	414.27
608.91	444.70
609.06	500.87
609.22	376.83
609.37	449.38
609.53	463.43
609.68	433.00
609.84	369.80
609.99	458.74
610.15	407.25
