SpectraSuite Data File
++++++++++++++++++++++++++++++++++++
Date: Fri Oct 25 12:11:40 EDT 2013
User: price-jones
Dark Spectrum Present: No
Reference Spectrum Present: No
Number of Sampled Component Spectra: 1
Spectrometers: USB2+H05261
Integration Time (usec): 100000 (USB2+H05261)
Spectra Averaged: 1 (USB2+H05261)
Boxcar Smoothing: 0 (USB2+H05261)
Correct for Electrical Dark: No (USB2+H05261)
Strobe/Lamp Enabled: No (USB2+H05261)
Correct for Detector Non-linearity: No (USB2+H05261)
Correct for Stray Light: No (USB2+H05261)
Number of Pixels in Processed Spectrum: 2048
>>>>>Begin Processed Spectral Data<<<<<
365.73	341.72
365.92	341.72
366.12	341.72
366.32	252.78
366.52	222.35
366.72	271.50
366.91	264.48
367.11	257.46
367.31	212.99
367.51	245.76
367.70	276.18
367.90	236.39
368.10	149.79
368.30	241.08
368.49	290.23
368.69	266.82
368.89	318.31
369.09	231.71
369.28	264.48
369.48	257.46
369.68	292.57
369.87	360.44
370.07	320.65
370.27	414.27
370.47	351.08
370.66	344.06
370.86	271.50
371.06	376.83
371.25	315.97
371.45	360.44
371.65	416.62
371.84	381.51
372.04	327.68
372.24	395.55
372.44	451.72
372.63	397.89
372.83	383.85
373.03	390.87
373.22	355.76
373.42	407.25
373.62	430.66
373.81	442.36
374.01	388.53
374.21	461.09
374.40	411.93
374.60	486.83
374.79	402.57
374.99	397.89
375.19	468.11
375.38	458.74
375.58	362.78
375.78	383.85
375.97	397.89
376.17	414.27
376.37	411.93
376.56	451.72
376.76	437.68
376.95	369.80
377.15	414.27
377.35	372.15
377.54	365.12
377.74	383.85
377.93	351.08
378.13	435.34
378.33	500.87
378.52	447.04
378.72	402.57
378.91	442.36
379.11	353.42
379.31	379.17
379.50	388.53
379.70	484.49
379.89	407.25
380.09	411.93
380.28	383.85
380.48	381.51
380.68	400.23
380.87	425.98
381.07	416.62
381.26	475.13
381.46	491.51
381.65	409.59
381.85	433.00
382.04	367.46
382.24	433.00
382.43	411.93
382.63	433.00
382.83	355.76
383.02	468.11
383.22	409.59
383.41	409.59
383.61	449.38
383.80	449.38
384.00	358.10
384.19	346.40
384.39	390.87
384.58	425.98
384.78	421.30
384.97	407.25
385.17	400.23
385.36	393.21
385.56	451.72
385.75	430.66
385.95	407.25
386.14	463.43
386.34	332.36
386.53	397.89
386.72	369.80
386.92	411.93
387.11	337.04
387.31	383.85
387.50	421.30
387.70	372.15
387.89	390.87
388.09	367.46
388.28	367.46
388.48	393.21
388.67	437.68
388.86	411.93
389.06	341.72
389.25	475.13
389.45	461.09
389.64	386.19
389.84	334.70
390.03	418.96
390.22	346.40
390.42	414.27
390.61	447.04
390.81	369.80
391.00	351.08
391.19	423.64
391.39	425.98
391.58	409.59
391.78	388.53
391.97	388.53
392.16	330.02
392.36	395.55
392.55	454.06
392.75	437.68
392.94	416.62
393.13	407.25
393.33	430.66
393.52	444.70
393.71	456.40
393.91	421.30
394.10	472.79
394.29	444.70
394.49	437.68
394.68	393.21
394.88	456.40
395.07	465.77
395.26	374.49
395.46	411.93
395.65	433.00
395.84	362.78
396.04	477.47
396.23	437.68
396.42	414.27
396.62	388.53
396.81	454.06
397.00	388.53
397.19	461.09
397.39	428.32
397.58	498.53
397.77	444.70
397.97	395.55
398.16	381.51
398.35	440.02
398.55	421.30
398.74	404.91
398.93	362.78
399.12	409.59
399.32	440.02
399.51	386.19
399.70	428.32
399.90	400.23
400.09	444.70
400.28	418.96
400.47	430.66
400.67	397.89
400.86	402.57
401.05	402.57
401.24	388.53
401.44	421.30
401.63	402.57
401.82	428.32
402.01	428.32
402.21	358.10
402.40	337.04
402.59	411.93
402.78	400.23
402.97	421.30
403.17	463.43
403.36	440.02
403.55	409.59
403.74	362.78
403.93	395.55
404.13	397.89
404.32	390.87
404.51	365.12
404.70	456.40
404.89	414.27
405.09	458.74
405.28	351.08
405.47	430.66
405.66	367.46
405.85	449.38
406.05	444.70
406.24	418.96
406.43	428.32
406.62	397.89
406.81	477.47
407.00	327.68
407.20	425.98
407.39	395.55
407.58	435.34
407.77	428.32
407.96	418.96
408.15	404.91
408.34	468.11
408.54	341.72
408.73	346.40
408.92	425.98
409.11	374.49
409.30	383.85
409.49	367.46
409.68	404.91
409.87	456.40
410.07	402.57
410.26	404.91
410.45	461.09
410.64	353.42
410.83	358.10
411.02	388.53
411.21	386.19
411.40	418.96
411.59	379.17
411.78	414.27
411.98	404.91
412.17	393.21
412.36	400.23
412.55	414.27
412.74	404.91
412.93	430.66
413.12	463.43
413.31	454.06
413.50	397.89
413.69	365.12
413.88	449.38
414.07	393.21
414.26	395.55
414.45	433.00
414.64	465.77
414.83	351.08
415.02	397.89
415.22	447.04
415.41	393.21
415.60	433.00
415.79	390.87
415.98	437.68
416.17	451.72
416.36	351.08
416.55	383.85
416.74	374.49
416.93	454.06
417.12	374.49
417.31	416.62
417.50	444.70
417.69	397.89
417.88	421.30
418.07	421.30
418.26	425.98
418.45	407.25
418.64	463.43
418.83	463.43
419.02	428.32
419.21	337.04
419.39	388.53
419.58	348.74
419.77	348.74
419.96	442.36
420.15	430.66
420.34	440.02
420.53	416.62
420.72	383.85
420.91	414.27
421.10	449.38
421.29	388.53
421.48	442.36
421.67	374.49
421.86	379.17
422.05	418.96
422.24	454.06
422.43	365.12
422.61	320.65
422.80	374.49
422.99	425.98
423.18	423.64
423.37	421.30
423.56	442.36
423.75	433.00
423.94	409.59
424.13	447.04
424.32	318.31
424.50	379.17
424.69	418.96
424.88	428.32
425.07	430.66
425.26	407.25
425.45	411.93
425.64	400.23
425.83	386.19
426.01	388.53
426.20	374.49
426.39	407.25
426.58	451.72
426.77	437.68
426.96	470.45
427.15	416.62
427.33	433.00
427.52	472.79
427.71	407.25
427.90	454.06
428.09	409.59
428.28	355.76
428.46	348.74
428.65	388.53
428.84	383.85
429.03	449.38
429.22	374.49
429.40	397.89
429.59	390.87
429.78	454.06
429.97	461.09
430.16	493.85
430.34	402.57
430.53	449.38
430.72	440.02
430.91	456.40
431.10	409.59
431.28	372.15
431.47	414.27
431.66	346.40
431.85	353.42
432.03	402.57
432.22	461.09
432.41	454.06
432.60	440.02
432.79	379.17
432.97	449.38
433.16	477.47
433.35	418.96
433.54	393.21
433.72	475.13
433.91	475.13
434.10	409.59
434.28	404.91
434.47	402.57
434.66	379.17
434.85	465.77
435.03	463.43
435.22	409.59
435.41	440.02
435.59	440.02
435.78	418.96
435.97	437.68
436.16	437.68
436.34	365.12
436.53	409.59
436.72	440.02
436.90	407.25
437.09	440.02
437.28	365.12
437.46	430.66
437.65	477.47
437.84	400.23
438.02	409.59
438.21	470.45
438.40	447.04
438.58	390.87
438.77	418.96
438.96	468.11
439.14	390.87
439.33	444.70
439.52	451.72
439.70	444.70
439.89	395.55
440.08	423.64
440.26	472.79
440.45	369.80
440.63	437.68
440.82	444.70
441.01	360.44
441.19	454.06
441.38	388.53
441.57	479.81
441.75	416.62
441.94	360.44
442.12	421.30
442.31	379.17
442.50	386.19
442.68	463.43
442.87	430.66
443.05	421.30
443.24	322.99
443.43	365.12
443.61	411.93
443.80	418.96
443.98	411.93
444.17	416.62
444.35	444.70
444.54	390.87
444.73	407.25
444.91	360.44
445.10	353.42
445.28	402.57
445.47	397.89
445.65	454.06
445.84	355.76
446.02	355.76
446.21	397.89
446.39	461.09
446.58	433.00
446.77	383.85
446.95	421.30
447.14	435.34
447.32	463.43
447.51	430.66
447.69	411.93
447.88	393.21
448.06	425.98
448.25	435.34
448.43	379.17
448.62	433.00
448.80	447.04
448.99	444.70
449.17	411.93
449.36	334.70
449.54	463.43
449.73	351.08
449.91	465.77
450.10	365.12
450.28	493.85
450.46	449.38
450.65	468.11
450.83	458.74
451.02	407.25
451.20	442.36
451.39	407.25
451.57	374.49
451.76	416.62
451.94	383.85
452.13	440.02
452.31	435.34
452.49	425.98
452.68	428.32
452.86	444.70
453.05	463.43
453.23	414.27
453.42	435.34
453.60	430.66
453.78	358.10
453.97	411.93
454.15	376.83
454.34	367.46
454.52	376.83
454.70	454.06
454.89	414.27
455.07	376.83
455.26	379.17
455.44	421.30
455.62	449.38
455.81	418.96
455.99	418.96
456.17	430.66
456.36	496.19
456.54	472.79
456.73	402.57
456.91	374.49
457.09	348.74
457.28	447.04
457.46	416.62
457.64	418.96
457.83	505.56
458.01	381.51
458.19	451.72
458.38	376.83
458.56	386.19
458.74	397.89
458.93	463.43
459.11	388.53
459.29	447.04
459.48	393.21
459.66	407.25
459.84	395.55
460.03	479.81
460.21	411.93
460.39	400.23
460.57	369.80
460.76	388.53
460.94	402.57
461.12	416.62
461.31	428.32
461.49	414.27
461.67	435.34
461.85	486.83
462.04	397.89
462.22	716.20
462.40	498.53
462.59	428.32
462.77	409.59
462.95	430.66
463.13	381.51
463.32	379.17
463.50	332.36
463.68	383.85
463.86	397.89
464.05	306.61
464.23	400.23
464.41	360.44
464.59	414.27
464.78	409.59
464.96	407.25
465.14	325.33
465.32	407.25
465.50	449.38
465.69	379.17
465.87	376.83
466.05	400.23
466.23	418.96
466.41	381.51
466.60	447.04
466.78	423.64
466.96	379.17
467.14	402.57
467.32	465.77
467.51	381.51
467.69	463.43
467.87	458.74
468.05	418.96
468.23	484.49
468.41	475.13
468.60	423.64
468.78	423.64
468.96	381.51
469.14	503.22
469.32	407.25
469.50	444.70
469.69	421.30
469.87	407.25
470.05	334.70
470.23	416.62
470.41	407.25
470.59	430.66
470.77	425.98
470.95	430.66
471.14	421.30
471.32	367.46
471.50	386.19
471.68	437.68
471.86	447.04
472.04	411.93
472.22	437.68
472.40	358.10
472.58	386.19
472.77	367.46
472.95	416.62
473.13	425.98
473.31	386.19
473.49	442.36
473.67	449.38
473.85	379.17
474.03	379.17
474.21	365.12
474.39	374.49
474.57	477.47
474.75	444.70
474.93	374.49
475.12	386.19
475.30	444.70
475.48	416.62
475.66	395.55
475.84	425.98
476.02	425.98
476.20	423.64
476.38	440.02
476.56	465.77
476.74	470.45
476.92	484.49
477.10	411.93
477.28	383.85
477.46	468.11
477.64	461.09
477.82	369.80
478.00	339.38
478.18	470.45
478.36	423.64
478.54	369.80
478.72	400.23
478.90	423.64
479.08	414.27
479.26	486.83
479.44	454.06
479.62	418.96
479.80	372.15
479.98	425.98
480.16	404.91
480.34	456.40
480.52	433.00
480.70	411.93
480.88	430.66
481.06	383.85
481.24	376.83
481.41	395.55
481.59	442.36
481.77	416.62
481.95	418.96
482.13	528.96
482.31	379.17
482.49	423.64
482.67	418.96
482.85	418.96
483.03	379.17
483.21	337.04
483.39	372.15
483.57	461.09
483.74	383.85
483.92	367.46
484.10	360.44
484.28	346.40
484.46	430.66
484.64	383.85
484.82	430.66
485.00	437.68
485.18	402.57
485.35	393.21
485.53	400.23
485.71	503.22
485.89	404.91
486.07	407.25
486.25	507.90
486.43	369.80
486.61	435.34
486.78	411.93
486.96	365.12
487.14	407.25
487.32	395.55
487.50	423.64
487.68	444.70
487.85	493.85
488.03	365.12
488.21	400.23
488.39	379.17
488.57	421.30
488.75	400.23
488.92	468.11
489.10	355.76
489.28	477.47
489.46	388.53
489.64	407.25
489.81	435.34
489.99	463.43
490.17	451.72
490.35	404.91
490.53	421.30
490.70	425.98
490.88	433.00
491.06	414.27
491.24	479.81
491.41	472.79
491.59	353.42
491.77	379.17
491.95	414.27
492.13	435.34
492.30	393.21
492.48	423.64
492.66	425.98
492.84	393.21
493.01	425.98
493.19	390.87
493.37	430.66
493.54	411.93
493.72	416.62
493.90	451.72
494.08	407.25
494.25	430.66
494.43	418.96
494.61	353.42
494.79	449.38
494.96	365.12
495.14	414.27
495.32	393.21
495.49	475.13
495.67	428.32
495.85	423.64
496.02	402.57
496.20	463.43
496.38	440.02
496.55	388.53
496.73	442.36
496.91	397.89
497.09	437.68
497.26	430.66
497.44	428.32
497.62	430.66
497.79	372.15
497.97	451.72
498.14	437.68
498.32	372.15
498.50	423.64
498.67	383.85
498.85	355.76
499.03	414.27
499.20	409.59
499.38	322.99
499.56	477.47
499.73	482.15
499.91	444.70
500.08	386.19
500.26	386.19
500.44	437.68
500.61	423.64
500.79	465.77
500.97	489.17
501.14	367.46
501.32	369.80
501.49	376.83
501.67	376.83
501.84	437.68
502.02	442.36
502.20	463.43
502.37	402.57
502.55	367.46
502.72	365.12
502.90	425.98
503.07	482.15
503.25	395.55
503.43	332.36
503.60	447.04
503.78	421.30
503.95	435.34
504.13	404.91
504.30	449.38
504.48	442.36
504.65	433.00
504.83	421.30
505.01	397.89
505.18	409.59
505.36	416.62
505.53	468.11
505.71	454.06
505.88	454.06
506.06	400.23
506.23	395.55
506.41	449.38
506.58	367.46
506.76	369.80
506.93	402.57
507.11	414.27
507.28	402.57
507.46	367.46
507.63	454.06
507.81	468.11
507.98	400.23
508.16	416.62
508.33	409.59
508.50	418.96
508.68	458.74
508.85	360.44
509.03	458.74
509.20	407.25
509.38	407.25
509.55	395.55
509.73	428.32
509.90	416.62
510.08	479.81
510.25	358.10
510.42	376.83
510.60	400.23
510.77	425.98
510.95	358.10
511.12	414.27
511.30	461.09
511.47	449.38
511.64	461.09
511.82	351.08
511.99	393.21
512.17	402.57
512.34	414.27
512.51	437.68
512.69	395.55
512.86	468.11
513.04	369.80
513.21	414.27
513.38	395.55
513.56	390.87
513.73	425.98
513.90	433.00
514.08	388.53
514.25	437.68
514.43	510.24
514.60	386.19
514.77	433.00
514.95	465.77
515.12	327.68
515.29	475.13
515.47	411.93
515.64	416.62
515.81	484.49
515.99	437.68
516.16	463.43
516.33	456.40
516.51	390.87
516.68	400.23
516.85	402.57
517.03	411.93
517.20	407.25
517.37	425.98
517.54	433.00
517.72	479.81
517.89	383.85
518.06	404.91
518.24	444.70
518.41	463.43
518.58	407.25
518.75	402.57
518.93	402.57
519.10	386.19
519.27	367.46
519.45	449.38
519.62	390.87
519.79	353.42
519.96	463.43
520.14	428.32
520.31	393.21
520.48	514.92
520.65	468.11
520.83	397.89
521.00	454.06
521.17	418.96
521.34	407.25
521.52	470.45
521.69	404.91
521.86	458.74
522.03	395.55
522.20	397.89
522.38	456.40
522.55	440.02
522.72	402.57
522.89	386.19
523.07	491.51
523.24	360.44
523.41	397.89
523.58	447.04
523.75	421.30
523.92	421.30
524.10	381.51
524.27	440.02
524.44	411.93
524.61	418.96
524.78	355.76
524.96	470.45
525.13	433.00
525.30	402.57
525.47	421.30
525.64	411.93
525.81	458.74
525.98	390.87
526.16	428.32
526.33	383.85
526.50	423.64
526.67	433.00
526.84	409.59
527.01	458.74
527.18	418.96
527.36	451.72
527.53	440.02
527.70	433.00
527.87	407.25
528.04	440.02
528.21	369.80
528.38	390.87
528.55	433.00
528.72	456.40
528.89	461.09
529.07	395.55
529.24	400.23
529.41	510.24
529.58	425.98
529.75	414.27
529.92	428.32
530.09	454.06
530.26	444.70
530.43	440.02
530.60	418.96
530.77	454.06
530.94	423.64
531.11	416.62
531.28	418.96
531.46	383.85
531.63	437.68
531.80	353.42
531.97	435.34
532.14	430.66
532.31	409.59
532.48	449.38
532.65	421.30
532.82	440.02
532.99	444.70
533.16	435.34
533.33	468.11
533.50	416.62
533.67	418.96
533.84	367.46
534.01	360.44
534.18	348.74
534.35	374.49
534.52	435.34
534.69	435.34
534.86	358.10
535.03	393.21
535.20	397.89
535.37	418.96
535.54	461.09
535.71	437.68
535.88	458.74
536.05	416.62
536.22	390.87
536.38	416.62
536.55	435.34
536.72	519.60
536.89	451.72
537.06	376.83
537.23	435.34
537.40	484.49
537.57	360.44
537.74	407.25
537.91	374.49
538.08	409.59
538.25	454.06
538.42	421.30
538.59	428.32
538.75	454.06
538.92	449.38
539.09	521.94
539.26	372.15
539.43	479.81
539.60	425.98
539.77	456.40
539.94	374.49
540.11	397.89
540.28	430.66
540.44	416.62
540.61	500.87
540.78	411.93
540.95	437.68
541.12	461.09
541.29	393.21
541.46	414.27
541.62	423.64
541.79	458.74
541.96	400.23
542.13	437.68
542.30	383.85
542.47	379.17
542.63	367.46
542.80	397.89
542.97	475.13
543.14	442.36
543.31	421.30
543.48	482.15
543.64	402.57
543.81	463.43
543.98	458.74
544.15	428.32
544.32	337.04
544.48	440.02
544.65	402.57
544.82	390.87
544.99	409.59
545.16	442.36
545.32	435.34
545.49	437.68
545.66	383.85
545.83	442.36
546.00	421.30
546.16	379.17
546.33	374.49
546.50	475.13
546.67	386.19
546.83	468.11
547.00	447.04
547.17	435.34
547.34	383.85
547.50	479.81
547.67	437.68
547.84	444.70
548.00	423.64
548.17	409.59
548.34	423.64
548.51	414.27
548.67	418.96
548.84	437.68
549.01	383.85
549.18	372.15
549.34	435.34
549.51	472.79
549.68	489.17
549.84	479.81
550.01	428.32
550.18	442.36
550.34	416.62
550.51	425.98
550.68	479.81
550.84	411.93
551.01	442.36
551.18	470.45
551.34	423.64
551.51	435.34
551.68	440.02
551.84	442.36
552.01	360.44
552.18	463.43
552.34	423.64
552.51	430.66
552.68	416.62
552.84	468.11
553.01	498.53
553.18	449.38
553.34	463.43
553.51	379.17
553.67	437.68
553.84	454.06
554.01	435.34
554.17	512.58
554.34	355.76
554.51	390.87
554.67	451.72
554.84	533.64
555.00	418.96
555.17	477.47
555.33	430.66
555.50	360.44
555.67	482.15
555.83	425.98
556.00	374.49
556.16	538.32
556.33	409.59
556.50	355.76
556.66	437.68
556.83	386.19
556.99	374.49
557.16	395.55
557.32	449.38
557.49	351.08
557.65	428.32
557.82	404.91
557.98	475.13
558.15	400.23
558.32	463.43
558.48	402.57
558.65	416.62
558.81	372.15
558.98	414.27
559.14	458.74
559.31	423.64
559.47	407.25
559.64	475.13
559.80	470.45
559.97	400.23
560.13	416.62
560.30	386.19
560.46	381.51
560.63	400.23
560.79	447.04
560.96	428.32
561.12	425.98
561.29	435.34
561.45	393.21
561.61	411.93
561.78	547.69
561.94	421.30
562.11	433.00
562.27	482.15
562.44	433.00
562.60	428.32
562.77	465.77
562.93	440.02
563.10	388.53
563.26	346.40
563.42	383.85
563.59	493.85
563.75	400.23
563.92	482.15
564.08	425.98
564.24	362.78
564.41	379.17
564.57	311.29
564.74	416.62
564.90	440.02
565.07	423.64
565.23	475.13
565.39	458.74
565.56	418.96
565.72	383.85
565.88	444.70
566.05	444.70
566.21	379.17
566.38	362.78
566.54	393.21
566.70	430.66
566.87	362.78
567.03	397.89
567.19	393.21
567.36	456.40
567.52	463.43
567.68	447.04
567.85	369.80
568.01	397.89
568.17	402.57
568.34	407.25
568.50	461.09
568.66	421.30
568.83	468.11
568.99	374.49
569.15	395.55
569.32	409.59
569.48	418.96
569.64	433.00
569.81	402.57
569.97	454.06
570.13	379.17
570.30	388.53
570.46	353.42
570.62	395.55
570.78	400.23
570.95	327.68
571.11	367.46
571.27	421.30
571.43	362.78
571.60	362.78
571.76	407.25
571.92	339.38
572.09	386.19
572.25	374.49
572.41	386.19
572.57	402.57
572.74	430.66
572.90	386.19
573.06	365.12
573.22	388.53
573.38	414.27
573.55	428.32
573.71	458.74
573.87	376.83
574.03	423.64
574.20	470.45
574.36	416.62
574.52	400.23
574.68	365.12
574.84	461.09
575.01	390.87
575.17	397.89
575.33	484.49
575.49	449.38
575.65	374.49
575.82	435.34
575.98	454.06
576.14	428.32
576.30	402.57
576.46	428.32
576.62	416.62
576.79	407.25
576.95	491.51
577.11	447.04
577.27	351.08
577.43	437.68
577.59	458.74
577.75	351.08
577.92	463.43
578.08	416.62
578.24	407.25
578.40	449.38
578.56	388.53
578.72	500.87
578.88	451.72
579.04	479.81
579.21	479.81
579.37	475.13
579.53	416.62
579.69	381.51
579.85	447.04
580.01	526.62
580.17	351.08
580.33	353.42
580.49	411.93
580.65	425.98
580.82	407.25
580.98	421.30
581.14	360.44
581.30	423.64
581.46	327.68
581.62	425.98
581.78	393.21
581.94	433.00
582.10	407.25
582.26	423.64
582.42	435.34
582.58	365.12
582.74	374.49
582.90	461.09
583.06	442.36
583.22	325.33
583.38	374.49
583.54	418.96
583.70	475.13
583.86	451.72
584.02	423.64
584.18	400.23
584.34	444.70
584.50	400.23
584.66	402.57
584.82	402.57
584.98	386.19
585.14	407.25
585.30	512.58
585.46	409.59
585.62	395.55
585.78	383.85
585.94	428.32
586.10	407.25
586.26	493.85
586.42	470.45
586.58	402.57
586.74	374.49
586.90	447.04
587.06	433.00
587.22	470.45
587.38	390.87
587.54	456.40
587.70	433.00
587.86	449.38
588.02	430.66
588.18	414.27
588.34	437.68
588.49	395.55
588.65	414.27
588.81	386.19
588.97	362.78
589.13	372.15
589.29	451.72
589.45	503.22
589.61	421.30
589.77	409.59
589.93	407.25
590.08	435.34
590.24	411.93
590.40	425.98
590.56	489.17
590.72	404.91
590.88	355.76
591.04	477.47
591.20	475.13
591.35	447.04
591.51	470.45
591.67	388.53
591.83	479.81
591.99	435.34
592.15	400.23
592.31	428.32
592.46	407.25
592.62	437.68
592.78	440.02
592.94	376.83
593.10	442.36
593.26	418.96
593.41	376.83
593.57	430.66
593.73	374.49
593.89	433.00
594.05	376.83
594.20	395.55
594.36	442.36
594.52	433.00
594.68	393.21
594.84	435.34
594.99	437.68
595.15	430.66
595.31	447.04
595.47	407.25
595.62	397.89
595.78	468.11
595.94	397.89
596.10	435.34
596.25	447.04
596.41	477.47
596.57	409.59
596.73	402.57
596.88	458.74
597.04	416.62
597.20	535.98
597.36	463.43
597.51	365.12
597.67	404.91
597.83	404.91
597.99	514.92
598.14	447.04
598.30	486.83
598.46	411.93
598.61	444.70
598.77	386.19
598.93	430.66
599.09	397.89
599.24	463.43
599.40	447.04
599.56	395.55
599.71	470.45
599.87	383.85
600.03	449.38
600.18	430.66
600.34	411.93
600.50	414.27
600.65	433.00
600.81	463.43
600.97	435.34
601.12	414.27
601.28	360.44
601.44	430.66
601.59	407.25
601.75	369.80
601.91	386.19
602.06	447.04
602.22	421.30
602.37	421.30
602.53	447.04
602.69	423.64
602.84	447.04
603.00	421.30
603.16	491.51
603.31	465.77
603.47	388.53
603.62	383.85
603.78	381.51
603.94	486.83
604.09	468.11
604.25	479.81
604.40	437.68
604.56	491.51
604.71	407.25
604.87	411.93
605.03	491.51
605.18	421.30
605.34	477.47
605.49	418.96
605.65	397.89
605.80	461.09
605.96	379.17
606.12	458.74
606.27	365.12
606.43	404.91
606.58	428.32
606.74	463.43
606.89	437.68
607.05	348.74
607.20	407.25
607.36	400.23
607.51	418.96
607.67	418.96
607.82	362.78
607.98	430.66
608.13	414.27
608.29	423.64
608.44	433.00
608.60	416.62
608.75	362.78
608.91	447.04
609.06	437.68
609.22	475.13
609.37	362.78
609.53	390.87
609.68	397.89
609.84	411.93
609.99	416.62
610.15	491.51
