SpectraSuite Data File
++++++++++++++++++++++++++++++++++++
Date: Fri Oct 25 12:10:50 EDT 2013
User: price-jones
Dark Spectrum Present: No
Reference Spectrum Present: No
Number of Sampled Component Spectra: 1
Spectrometers: USB2+H05261
Integration Time (usec): 100000 (USB2+H05261)
Spectra Averaged: 1 (USB2+H05261)
Boxcar Smoothing: 0 (USB2+H05261)
Correct for Electrical Dark: No (USB2+H05261)
Strobe/Lamp Enabled: No (USB2+H05261)
Correct for Detector Non-linearity: No (USB2+H05261)
Correct for Stray Light: No (USB2+H05261)
Number of Pixels in Processed Spectrum: 2048
>>>>>Begin Processed Spectral Data<<<<<
365.73	383.85
365.92	383.85
366.12	383.85
366.32	297.25
366.52	238.73
366.72	290.23
366.91	210.65
367.11	205.97
367.31	297.25
367.51	189.58
367.70	215.33
367.90	325.33
368.10	238.73
368.30	227.03
368.49	280.86
368.69	271.50
368.89	234.05
369.09	313.63
369.28	283.20
369.48	311.29
369.68	306.61
369.87	280.86
370.07	222.35
370.27	386.19
370.47	374.49
370.66	346.40
370.86	344.06
371.06	404.91
371.25	465.77
371.45	407.25
371.65	418.96
371.84	355.76
372.04	437.68
372.24	421.30
372.44	430.66
372.63	386.19
372.83	425.98
373.03	404.91
373.22	409.59
373.42	468.11
373.62	393.21
373.81	358.10
374.01	365.12
374.21	395.55
374.40	334.70
374.60	482.15
374.79	461.09
374.99	374.49
375.19	425.98
375.38	416.62
375.58	360.44
375.78	484.49
375.97	390.87
376.17	425.98
376.37	425.98
376.56	327.68
376.76	411.93
376.95	365.12
377.15	322.99
377.35	435.34
377.54	407.25
377.74	276.18
377.93	409.59
378.13	430.66
378.33	395.55
378.52	355.76
378.72	507.90
378.91	468.11
379.11	360.44
379.31	409.59
379.50	353.42
379.70	437.68
379.89	411.93
380.09	346.40
380.28	451.72
380.48	390.87
380.68	421.30
380.87	311.29
381.07	442.36
381.26	407.25
381.46	409.59
381.65	444.70
381.85	395.55
382.04	395.55
382.24	402.57
382.43	397.89
382.63	393.21
382.83	376.83
383.02	362.78
383.22	414.27
383.41	290.23
383.61	395.55
383.80	489.17
384.00	383.85
384.19	339.38
384.39	402.57
384.58	437.68
384.78	409.59
384.97	393.21
385.17	348.74
385.36	322.99
385.56	369.80
385.75	425.98
385.95	409.59
386.14	461.09
386.34	383.85
386.53	416.62
386.72	346.40
386.92	397.89
387.11	433.00
387.31	386.19
387.50	435.34
387.70	348.74
387.89	416.62
388.09	433.00
388.28	435.34
388.48	435.34
388.67	418.96
388.86	351.08
389.06	430.66
389.25	404.91
389.45	402.57
389.64	353.42
389.84	400.23
390.03	468.11
390.22	381.51
390.42	339.38
390.61	383.85
390.81	421.30
391.00	351.08
391.19	423.64
391.39	388.53
391.58	458.74
391.78	407.25
391.97	388.53
392.16	393.21
392.36	397.89
392.55	402.57
392.75	416.62
392.94	418.96
393.13	433.00
393.33	388.53
393.52	379.17
393.71	393.21
393.91	444.70
394.10	348.74
394.29	430.66
394.49	376.83
394.68	402.57
394.88	400.23
395.07	444.70
395.26	379.17
395.46	411.93
395.65	444.70
395.84	454.06
396.04	447.04
396.23	369.80
396.42	341.72
396.62	430.66
396.81	423.64
397.00	425.98
397.19	437.68
397.39	409.59
397.58	400.23
397.77	409.59
397.97	411.93
398.16	416.62
398.35	486.83
398.55	437.68
398.74	425.98
398.93	418.96
399.12	482.15
399.32	409.59
399.51	440.02
399.70	430.66
399.90	407.25
400.09	360.44
400.28	416.62
400.47	346.40
400.67	421.30
400.86	390.87
401.05	447.04
401.24	379.17
401.44	397.89
401.63	404.91
401.82	458.74
402.01	395.55
402.21	346.40
402.40	369.80
402.59	418.96
402.78	416.62
402.97	374.49
403.17	470.45
403.36	451.72
403.55	325.33
403.74	430.66
403.93	397.89
404.13	367.46
404.32	381.51
404.51	407.25
404.70	454.06
404.89	374.49
405.09	404.91
405.28	386.19
405.47	360.44
405.66	444.70
405.85	404.91
406.05	346.40
406.24	400.23
406.43	404.91
406.62	425.98
406.81	388.53
407.00	442.36
407.20	374.49
407.39	379.17
407.58	334.70
407.77	425.98
407.96	461.09
408.15	470.45
408.34	477.47
408.54	484.49
408.73	395.55
408.92	402.57
409.11	379.17
409.30	409.59
409.49	416.62
409.68	381.51
409.87	461.09
410.07	449.38
410.26	416.62
410.45	421.30
410.64	409.59
410.83	407.25
411.02	423.64
411.21	383.85
411.40	374.49
411.59	416.62
411.78	433.00
411.98	407.25
412.17	454.06
412.36	416.62
412.55	425.98
412.74	369.80
412.93	454.06
413.12	360.44
413.31	435.34
413.50	388.53
413.69	402.57
413.88	430.66
414.07	425.98
414.26	423.64
414.45	374.49
414.64	447.04
414.83	372.15
415.02	421.30
415.22	458.74
415.41	402.57
415.60	393.21
415.79	437.68
415.98	463.43
416.17	468.11
416.36	339.38
416.55	409.59
416.74	428.32
416.93	402.57
417.12	379.17
417.31	404.91
417.50	409.59
417.69	486.83
417.88	393.21
418.07	409.59
418.26	386.19
418.45	411.93
418.64	395.55
418.83	433.00
419.02	414.27
419.21	442.36
419.39	407.25
419.58	423.64
419.77	402.57
419.96	339.38
420.15	411.93
420.34	442.36
420.53	416.62
420.72	433.00
420.91	402.57
421.10	435.34
421.29	421.30
421.48	416.62
421.67	411.93
421.86	458.74
422.05	292.57
422.24	435.34
422.43	423.64
422.61	400.23
422.80	437.68
422.99	498.53
423.18	423.64
423.37	564.07
423.56	435.34
423.75	397.89
423.94	383.85
424.13	367.46
424.32	397.89
424.50	433.00
424.69	489.17
424.88	486.83
425.07	402.57
425.26	437.68
425.45	395.55
425.64	397.89
425.83	393.21
426.01	369.80
426.20	461.09
426.39	423.64
426.58	435.34
426.77	362.78
426.96	425.98
427.15	400.23
427.33	381.51
427.52	430.66
427.71	397.89
427.90	407.25
428.09	404.91
428.28	404.91
428.46	402.57
428.65	442.36
428.84	425.98
429.03	442.36
429.22	418.96
429.40	360.44
429.59	451.72
429.78	433.00
429.97	428.32
430.16	430.66
430.34	348.74
430.53	369.80
430.72	404.91
430.91	444.70
431.10	418.96
431.28	428.32
431.47	325.33
431.66	442.36
431.85	465.77
432.03	388.53
432.22	461.09
432.41	414.27
432.60	402.57
432.79	444.70
432.97	470.45
433.16	402.57
433.35	435.34
433.54	440.02
433.72	390.87
433.91	369.80
434.10	416.62
434.28	435.34
434.47	409.59
434.66	447.04
434.85	409.59
435.03	313.63
435.22	472.79
435.41	440.02
435.59	383.85
435.78	411.93
435.97	468.11
436.16	465.77
436.34	353.42
436.53	428.32
436.72	468.11
436.90	447.04
437.09	442.36
437.28	365.12
437.46	386.19
437.65	433.00
437.84	447.04
438.02	351.08
438.21	339.38
438.40	379.17
438.58	500.87
438.77	416.62
438.96	418.96
439.14	395.55
439.33	407.25
439.52	351.08
439.70	461.09
439.89	463.43
440.08	433.00
440.26	470.45
440.45	444.70
440.63	454.06
440.82	451.72
441.01	379.17
441.19	442.36
441.38	397.89
441.57	411.93
441.75	475.13
441.94	409.59
442.12	449.38
442.31	411.93
442.50	447.04
442.68	454.06
442.87	421.30
443.05	425.98
443.24	365.12
443.43	390.87
443.61	421.30
443.80	395.55
443.98	451.72
444.17	344.06
444.35	425.98
444.54	388.53
444.73	386.19
444.91	423.64
445.10	381.51
445.28	430.66
445.47	404.91
445.65	447.04
445.84	444.70
446.02	372.15
446.21	358.10
446.39	386.19
446.58	440.02
446.77	430.66
446.95	374.49
447.14	463.43
447.32	489.17
447.51	395.55
447.69	484.49
447.88	400.23
448.06	393.21
448.25	444.70
448.43	341.72
448.62	437.68
448.80	421.30
448.99	433.00
449.17	344.06
449.36	369.80
449.54	381.51
449.73	447.04
449.91	484.49
450.10	393.21
450.28	418.96
450.46	388.53
450.65	440.02
450.83	447.04
451.02	383.85
451.20	388.53
451.39	418.96
451.57	442.36
451.76	383.85
451.94	461.09
452.13	463.43
452.31	418.96
452.49	458.74
452.68	463.43
452.86	430.66
453.05	505.56
453.23	447.04
453.42	388.53
453.60	428.32
453.78	365.12
453.97	407.25
454.15	416.62
454.34	449.38
454.52	437.68
454.70	383.85
454.89	395.55
455.07	379.17
455.26	362.78
455.44	362.78
455.62	409.59
455.81	358.10
455.99	465.77
456.17	423.64
456.36	376.83
456.54	379.17
456.73	437.68
456.91	353.42
457.09	411.93
457.28	430.66
457.46	355.76
457.64	493.85
457.83	346.40
458.01	397.89
458.19	425.98
458.38	390.87
458.56	496.19
458.74	463.43
458.93	402.57
459.11	458.74
459.29	325.33
459.48	425.98
459.66	379.17
459.84	372.15
460.03	433.00
460.21	500.87
460.39	411.93
460.57	447.04
460.76	388.53
460.94	437.68
461.12	388.53
461.31	440.02
461.49	456.40
461.67	402.57
461.85	393.21
462.04	369.80
462.22	793.44
462.40	454.06
462.59	421.30
462.77	479.81
462.95	402.57
463.13	416.62
463.32	512.58
463.50	416.62
463.68	444.70
463.86	435.34
464.05	383.85
464.23	355.76
464.41	418.96
464.59	397.89
464.78	400.23
464.96	383.85
465.14	458.74
465.32	428.32
465.50	404.91
465.69	498.53
465.87	402.57
466.05	444.70
466.23	433.00
466.41	395.55
466.60	376.83
466.78	404.91
466.96	376.83
467.14	456.40
467.32	428.32
467.51	418.96
467.69	472.79
467.87	449.38
468.05	372.15
468.23	409.59
468.41	437.68
468.60	383.85
468.78	430.66
468.96	379.17
469.14	381.51
469.32	383.85
469.50	421.30
469.69	479.81
469.87	418.96
470.05	407.25
470.23	437.68
470.41	383.85
470.59	447.04
470.77	475.13
470.95	428.32
471.14	383.85
471.32	379.17
471.50	433.00
471.68	381.51
471.86	449.38
472.04	346.40
472.22	348.74
472.40	386.19
472.58	388.53
472.77	346.40
472.95	456.40
473.13	496.19
473.31	437.68
473.49	390.87
473.67	435.34
473.85	404.91
474.03	444.70
474.21	355.76
474.39	402.57
474.57	409.59
474.75	470.45
474.93	393.21
475.12	407.25
475.30	383.85
475.48	339.38
475.66	416.62
475.84	393.21
476.02	400.23
476.20	397.89
476.38	376.83
476.56	475.13
476.74	383.85
476.92	376.83
477.10	468.11
477.28	374.49
477.46	447.04
477.64	397.89
477.82	437.68
478.00	472.79
478.18	491.51
478.36	369.80
478.54	411.93
478.72	381.51
478.90	489.17
479.08	393.21
479.26	386.19
479.44	400.23
479.62	388.53
479.80	421.30
479.98	330.02
480.16	416.62
480.34	407.25
480.52	423.64
480.70	435.34
480.88	372.15
481.06	402.57
481.24	325.33
481.41	367.46
481.59	360.44
481.77	388.53
481.95	442.36
482.13	437.68
482.31	470.45
482.49	465.77
482.67	411.93
482.85	400.23
483.03	353.42
483.21	407.25
483.39	411.93
483.57	397.89
483.74	451.72
483.92	440.02
484.10	348.74
484.28	416.62
484.46	479.81
484.64	404.91
484.82	440.02
485.00	400.23
485.18	341.72
485.35	468.11
485.53	407.25
485.71	465.77
485.89	390.87
486.07	433.00
486.25	425.98
486.43	411.93
486.61	423.64
486.78	500.87
486.96	402.57
487.14	320.65
487.32	379.17
487.50	411.93
487.68	369.80
487.85	337.04
488.03	402.57
488.21	442.36
488.39	386.19
488.57	444.70
488.75	496.19
488.92	484.49
489.10	486.83
489.28	435.34
489.46	409.59
489.64	358.10
489.81	442.36
489.99	383.85
490.17	341.72
490.35	449.38
490.53	393.21
490.70	449.38
490.88	397.89
491.06	362.78
491.24	447.04
491.41	404.91
491.59	386.19
491.77	372.15
491.95	348.74
492.13	374.49
492.30	360.44
492.48	416.62
492.66	407.25
492.84	440.02
493.01	376.83
493.19	421.30
493.37	463.43
493.54	416.62
493.72	461.09
493.90	360.44
494.08	430.66
494.25	468.11
494.43	400.23
494.61	416.62
494.79	376.83
494.96	428.32
495.14	337.04
495.32	346.40
495.49	376.83
495.67	376.83
495.85	372.15
496.02	409.59
496.20	454.06
496.38	430.66
496.55	409.59
496.73	449.38
496.91	425.98
497.09	409.59
497.26	393.21
497.44	351.08
497.62	421.30
497.79	404.91
497.97	428.32
498.14	468.11
498.32	421.30
498.50	430.66
498.67	428.32
498.85	435.34
499.03	348.74
499.20	437.68
499.38	442.36
499.56	411.93
499.73	437.68
499.91	395.55
500.08	407.25
500.26	423.64
500.44	400.23
500.61	430.66
500.79	465.77
500.97	475.13
501.14	479.81
501.32	454.06
501.49	423.64
501.67	353.42
501.84	397.89
502.02	440.02
502.20	383.85
502.37	425.98
502.55	376.83
502.72	421.30
502.90	421.30
503.07	435.34
503.25	435.34
503.43	442.36
503.60	416.62
503.78	402.57
503.95	400.23
504.13	362.78
504.30	418.96
504.48	456.40
504.65	461.09
504.83	423.64
505.01	332.36
505.18	372.15
505.36	440.02
505.53	400.23
505.71	440.02
505.88	379.17
506.06	372.15
506.23	407.25
506.41	423.64
506.58	407.25
506.76	456.40
506.93	458.74
507.11	475.13
507.28	388.53
507.46	409.59
507.63	442.36
507.81	407.25
507.98	388.53
508.16	444.70
508.33	440.02
508.50	437.68
508.68	409.59
508.85	365.12
509.03	365.12
509.20	435.34
509.38	435.34
509.55	447.04
509.73	383.85
509.90	409.59
510.08	381.51
510.25	498.53
510.42	390.87
510.60	430.66
510.77	454.06
510.95	397.89
511.12	458.74
511.30	404.91
511.47	423.64
511.64	428.32
511.82	351.08
511.99	376.83
512.17	376.83
512.34	374.49
512.51	407.25
512.69	379.17
512.86	468.11
513.04	332.36
513.21	491.51
513.38	475.13
513.56	383.85
513.73	383.85
513.90	337.04
514.08	369.80
514.25	421.30
514.43	330.02
514.60	423.64
514.77	390.87
514.95	383.85
515.12	397.89
515.29	400.23
515.47	383.85
515.64	444.70
515.81	451.72
515.99	491.51
516.16	482.15
516.33	407.25
516.51	379.17
516.68	390.87
516.85	498.53
517.03	479.81
517.20	376.83
517.37	440.02
517.54	433.00
517.72	397.89
517.89	456.40
518.06	414.27
518.24	447.04
518.41	411.93
518.58	449.38
518.75	395.55
518.93	451.72
519.10	409.59
519.27	437.68
519.45	498.53
519.62	421.30
519.79	418.96
519.96	433.00
520.14	486.83
520.31	407.25
520.48	402.57
520.65	447.04
520.83	430.66
521.00	428.32
521.17	402.57
521.34	423.64
521.52	386.19
521.69	395.55
521.86	402.57
522.03	430.66
522.20	444.70
522.38	430.66
522.55	379.17
522.72	362.78
522.89	386.19
523.07	428.32
523.24	425.98
523.41	351.08
523.58	416.62
523.75	376.83
523.92	440.02
524.10	341.72
524.27	421.30
524.44	365.12
524.61	489.17
524.78	383.85
524.96	470.45
525.13	461.09
525.30	414.27
525.47	442.36
525.64	454.06
525.81	435.34
525.98	442.36
526.16	428.32
526.33	365.12
526.50	444.70
526.67	447.04
526.84	395.55
527.01	367.46
527.18	393.21
527.36	418.96
527.53	430.66
527.70	433.00
527.87	348.74
528.04	402.57
528.21	456.40
528.38	482.15
528.55	395.55
528.72	397.89
528.89	437.68
529.07	400.23
529.24	390.87
529.41	451.72
529.58	437.68
529.75	430.66
529.92	383.85
530.09	449.38
530.26	414.27
530.43	437.68
530.60	451.72
530.77	463.43
530.94	461.09
531.11	451.72
531.28	477.47
531.46	374.49
531.63	379.17
531.80	444.70
531.97	400.23
532.14	416.62
532.31	383.85
532.48	440.02
532.65	369.80
532.82	425.98
532.99	383.85
533.16	414.27
533.33	428.32
533.50	407.25
533.67	372.15
533.84	365.12
534.01	463.43
534.18	409.59
534.35	435.34
534.52	472.79
534.69	409.59
534.86	409.59
535.03	430.66
535.20	400.23
535.37	465.77
535.54	493.85
535.71	397.89
535.88	395.55
536.05	449.38
536.22	416.62
536.38	449.38
536.55	421.30
536.72	376.83
536.89	344.06
537.06	416.62
537.23	442.36
537.40	428.32
537.57	437.68
537.74	505.56
537.91	468.11
538.08	428.32
538.25	428.32
538.42	402.57
538.59	442.36
538.75	376.83
538.92	404.91
539.09	428.32
539.26	430.66
539.43	416.62
539.60	484.49
539.77	447.04
539.94	454.06
540.11	430.66
540.28	400.23
540.44	374.49
540.61	334.70
540.78	332.36
540.95	411.93
541.12	470.45
541.29	397.89
541.46	393.21
541.62	423.64
541.79	365.12
541.96	390.87
542.13	374.49
542.30	407.25
542.47	444.70
542.63	440.02
542.80	468.11
542.97	372.15
543.14	428.32
543.31	397.89
543.48	376.83
543.64	402.57
543.81	430.66
543.98	327.68
544.15	365.12
544.32	374.49
544.48	465.77
544.65	435.34
544.82	421.30
544.99	433.00
545.16	414.27
545.32	414.27
545.49	402.57
545.66	360.44
545.83	367.46
546.00	404.91
546.16	463.43
546.33	402.57
546.50	376.83
546.67	393.21
546.83	496.19
547.00	404.91
547.17	440.02
547.34	411.93
547.50	393.21
547.67	381.51
547.84	411.93
548.00	465.77
548.17	416.62
548.34	388.53
548.51	465.77
548.67	447.04
548.84	416.62
549.01	444.70
549.18	383.85
549.34	437.68
549.51	404.91
549.68	379.17
549.84	367.46
550.01	334.70
550.18	421.30
550.34	475.13
550.51	400.23
550.68	451.72
550.84	440.02
551.01	449.38
551.18	468.11
551.34	449.38
551.51	386.19
551.68	442.36
551.84	390.87
552.01	430.66
552.18	418.96
552.34	381.51
552.51	327.68
552.68	491.51
552.84	442.36
553.01	435.34
553.18	472.79
553.34	362.78
553.51	442.36
553.67	423.64
553.84	463.43
554.01	402.57
554.17	430.66
554.34	435.34
554.51	374.49
554.67	348.74
554.84	411.93
555.00	421.30
555.17	418.96
555.33	468.11
555.50	409.59
555.67	397.89
555.83	376.83
556.00	451.72
556.16	557.05
556.33	491.51
556.50	372.15
556.66	369.80
556.83	444.70
556.99	428.32
557.16	461.09
557.32	334.70
557.49	388.53
557.65	477.47
557.82	393.21
557.98	372.15
558.15	390.87
558.32	425.98
558.48	407.25
558.65	402.57
558.81	409.59
558.98	353.42
559.14	458.74
559.31	489.17
559.47	456.40
559.64	463.43
559.80	402.57
559.97	505.56
560.13	444.70
560.30	454.06
560.46	348.74
560.63	475.13
560.79	451.72
560.96	425.98
561.12	416.62
561.29	402.57
561.45	365.12
561.61	409.59
561.78	482.15
561.94	397.89
562.11	451.72
562.27	353.42
562.44	374.49
562.60	411.93
562.77	374.49
562.93	430.66
563.10	395.55
563.26	458.74
563.42	353.42
563.59	482.15
563.75	402.57
563.92	404.91
564.08	489.17
564.24	442.36
564.41	425.98
564.57	423.64
564.74	374.49
564.90	393.21
565.07	365.12
565.23	451.72
565.39	404.91
565.56	304.27
565.72	372.15
565.88	400.23
566.05	367.46
566.21	454.06
566.38	411.93
566.54	346.40
566.70	369.80
566.87	397.89
567.03	372.15
567.19	447.04
567.36	482.15
567.52	433.00
567.68	418.96
567.85	379.17
568.01	442.36
568.17	355.76
568.34	423.64
568.50	479.81
568.66	454.06
568.83	514.92
568.99	358.10
569.15	458.74
569.32	381.51
569.48	414.27
569.64	376.83
569.81	299.59
569.97	372.15
570.13	444.70
570.30	423.64
570.46	414.27
570.62	414.27
570.78	404.91
570.95	395.55
571.11	465.77
571.27	505.56
571.43	400.23
571.60	362.78
571.76	365.12
571.92	433.00
572.09	390.87
572.25	416.62
572.41	449.38
572.57	444.70
572.74	374.49
572.90	491.51
573.06	449.38
573.22	379.17
573.38	428.32
573.55	533.64
573.71	383.85
573.87	442.36
574.03	409.59
574.20	475.13
574.36	484.49
574.52	463.43
574.68	372.15
574.84	486.83
575.01	395.55
575.17	435.34
575.33	423.64
575.49	451.72
575.65	367.46
575.82	425.98
575.98	465.77
576.14	393.21
576.30	386.19
576.46	379.17
576.62	477.47
576.79	437.68
576.95	435.34
577.11	447.04
577.27	442.36
577.43	526.62
577.59	442.36
577.75	421.30
577.92	409.59
578.08	411.93
578.24	374.49
578.40	386.19
578.56	381.51
578.72	379.17
578.88	388.53
579.04	440.02
579.21	402.57
579.37	416.62
579.53	482.15
579.69	519.60
579.85	400.23
580.01	435.34
580.17	409.59
580.33	351.08
580.49	451.72
580.65	428.32
580.82	451.72
580.98	423.64
581.14	411.93
581.30	449.38
581.46	367.46
581.62	430.66
581.78	379.17
581.94	334.70
582.10	421.30
582.26	416.62
582.42	386.19
582.58	493.85
582.74	428.32
582.90	442.36
583.06	482.15
583.22	395.55
583.38	327.68
583.54	447.04
583.70	428.32
583.86	395.55
584.02	433.00
584.18	456.40
584.34	461.09
584.50	440.02
584.66	435.34
584.82	440.02
584.98	451.72
585.14	400.23
585.30	414.27
585.46	437.68
585.62	374.49
585.78	496.19
585.94	433.00
586.10	465.77
586.26	386.19
586.42	407.25
586.58	444.70
586.74	397.89
586.90	444.70
587.06	425.98
587.22	463.43
587.38	411.93
587.54	447.04
587.70	369.80
587.86	451.72
588.02	472.79
588.18	437.68
588.34	461.09
588.49	442.36
588.65	369.80
588.81	390.87
588.97	416.62
589.13	404.91
589.29	393.21
589.45	440.02
589.61	447.04
589.77	454.06
589.93	435.34
590.08	465.77
590.24	416.62
590.40	393.21
590.56	388.53
590.72	418.96
590.88	428.32
591.04	477.47
591.20	379.17
591.35	465.77
591.51	435.34
591.67	404.91
591.83	442.36
591.99	393.21
592.15	444.70
592.31	440.02
592.46	388.53
592.62	428.32
592.78	383.85
592.94	344.06
593.10	381.51
593.26	367.46
593.41	400.23
593.57	400.23
593.73	379.17
593.89	482.15
594.05	388.53
594.20	376.83
594.36	454.06
594.52	379.17
594.68	369.80
594.84	468.11
594.99	416.62
595.15	397.89
595.31	402.57
595.47	400.23
595.62	411.93
595.78	390.87
595.94	393.21
596.10	395.55
596.25	428.32
596.41	454.06
596.57	472.79
596.73	355.76
596.88	362.78
597.04	456.40
597.20	484.49
597.36	440.02
597.51	440.02
597.67	454.06
597.83	400.23
597.99	388.53
598.14	472.79
598.30	442.36
598.46	472.79
598.61	404.91
598.77	442.36
598.93	376.83
599.09	393.21
599.24	386.19
599.40	449.38
599.56	358.10
599.71	360.44
599.87	365.12
600.03	369.80
600.18	442.36
600.34	440.02
600.50	447.04
600.65	390.87
600.81	409.59
600.97	390.87
601.12	435.34
601.28	477.47
601.44	400.23
601.59	416.62
601.75	402.57
601.91	386.19
602.06	407.25
602.22	486.83
602.37	423.64
602.53	365.12
602.69	421.30
602.84	433.00
603.00	414.27
603.16	528.96
603.31	442.36
603.47	440.02
603.62	449.38
603.78	421.30
603.94	477.47
604.09	404.91
604.25	402.57
604.40	437.68
604.56	402.57
604.71	308.95
604.87	393.21
605.03	433.00
605.18	418.96
605.34	393.21
605.49	369.80
605.65	407.25
605.80	456.40
605.96	404.91
606.12	430.66
606.27	407.25
606.43	449.38
606.58	486.83
606.74	374.49
606.89	437.68
607.05	458.74
607.20	395.55
607.36	437.68
607.51	468.11
607.67	435.34
607.82	463.43
607.98	486.83
608.13	400.23
608.29	428.32
608.44	512.58
608.60	381.51
608.75	454.06
608.91	414.27
609.06	442.36
609.22	458.74
609.37	383.85
609.53	451.72
609.68	479.81
609.84	435.34
609.99	433.00
610.15	372.15
