SpectraSuite Data File
++++++++++++++++++++++++++++++++++++
Date: Fri Oct 25 12:11:05 EDT 2013
User: price-jones
Dark Spectrum Present: No
Reference Spectrum Present: No
Number of Sampled Component Spectra: 1
Spectrometers: USB2+H05261
Integration Time (usec): 100000 (USB2+H05261)
Spectra Averaged: 1 (USB2+H05261)
Boxcar Smoothing: 0 (USB2+H05261)
Correct for Electrical Dark: No (USB2+H05261)
Strobe/Lamp Enabled: No (USB2+H05261)
Correct for Detector Non-linearity: No (USB2+H05261)
Correct for Stray Light: No (USB2+H05261)
Number of Pixels in Processed Spectrum: 2048
>>>>>Begin Processed Spectral Data<<<<<
365.73	315.97
365.92	315.97
366.12	315.97
366.32	299.59
366.52	287.89
366.72	271.50
366.91	264.48
367.11	252.78
367.31	189.58
367.51	229.37
367.70	280.86
367.90	283.20
368.10	217.67
368.30	229.37
368.49	194.26
368.69	227.03
368.89	175.54
369.09	285.55
369.28	196.60
369.48	313.63
369.68	285.55
369.87	332.36
370.07	318.31
370.27	320.65
370.47	297.25
370.66	313.63
370.86	383.85
371.06	348.74
371.25	402.57
371.45	411.93
371.65	461.09
371.84	337.04
372.04	365.12
372.24	379.17
372.44	395.55
372.63	383.85
372.83	390.87
373.03	409.59
373.22	351.08
373.42	397.89
373.62	470.45
373.81	388.53
374.01	475.13
374.21	383.85
374.40	414.27
374.60	421.30
374.79	407.25
374.99	458.74
375.19	395.55
375.38	421.30
375.58	374.49
375.78	374.49
375.97	416.62
376.17	451.72
376.37	374.49
376.56	344.06
376.76	383.85
376.95	383.85
377.15	498.53
377.35	407.25
377.54	449.38
377.74	400.23
377.93	390.87
378.13	367.46
378.33	355.76
378.52	418.96
378.72	458.74
378.91	322.99
379.11	397.89
379.31	379.17
379.50	404.91
379.70	397.89
379.89	421.30
380.09	411.93
380.28	407.25
380.48	433.00
380.68	372.15
380.87	400.23
381.07	465.77
381.26	456.40
381.46	379.17
381.65	428.32
381.85	447.04
382.04	416.62
382.24	395.55
382.43	395.55
382.63	440.02
382.83	454.06
383.02	346.40
383.22	449.38
383.41	430.66
383.61	451.72
383.80	461.09
384.00	433.00
384.19	423.64
384.39	402.57
384.58	496.19
384.78	435.34
384.97	400.23
385.17	376.83
385.36	428.32
385.56	404.91
385.75	404.91
385.95	402.57
386.14	421.30
386.34	421.30
386.53	402.57
386.72	440.02
386.92	461.09
387.11	435.34
387.31	447.04
387.50	383.85
387.70	397.89
387.89	388.53
388.09	390.87
388.28	449.38
388.48	386.19
388.67	461.09
388.86	407.25
389.06	346.40
389.25	423.64
389.45	334.70
389.64	334.70
389.84	463.43
390.03	379.17
390.22	395.55
390.42	379.17
390.61	376.83
390.81	397.89
391.00	416.62
391.19	440.02
391.39	395.55
391.58	451.72
391.78	402.57
391.97	369.80
392.16	400.23
392.36	390.87
392.55	498.53
392.75	376.83
392.94	486.83
393.13	418.96
393.33	430.66
393.52	414.27
393.71	397.89
393.91	411.93
394.10	360.44
394.29	435.34
394.49	463.43
394.68	470.45
394.88	353.42
395.07	433.00
395.26	425.98
395.46	435.34
395.65	440.02
395.84	437.68
396.04	402.57
396.23	383.85
396.42	360.44
396.62	416.62
396.81	407.25
397.00	454.06
397.19	421.30
397.39	351.08
397.58	430.66
397.77	449.38
397.97	407.25
398.16	430.66
398.35	458.74
398.55	341.72
398.74	383.85
398.93	374.49
399.12	388.53
399.32	447.04
399.51	477.47
399.70	463.43
399.90	440.02
400.09	369.80
400.28	435.34
400.47	393.21
400.67	360.44
400.86	365.12
401.05	447.04
401.24	404.91
401.44	379.17
401.63	442.36
401.82	430.66
402.01	383.85
402.21	437.68
402.40	465.77
402.59	393.21
402.78	346.40
402.97	414.27
403.17	395.55
403.36	332.36
403.55	348.74
403.74	425.98
403.93	393.21
404.13	493.85
404.32	393.21
404.51	442.36
404.70	425.98
404.89	369.80
405.09	493.85
405.28	425.98
405.47	437.68
405.66	388.53
405.85	390.87
406.05	430.66
406.24	435.34
406.43	472.79
406.62	421.30
406.81	442.36
407.00	479.81
407.20	411.93
407.39	428.32
407.58	386.19
407.77	430.66
407.96	411.93
408.15	369.80
408.34	463.43
408.54	456.40
408.73	379.17
408.92	348.74
409.11	423.64
409.30	411.93
409.49	266.82
409.68	433.00
409.87	353.42
410.07	393.21
410.26	454.06
410.45	409.59
410.64	440.02
410.83	404.91
411.02	393.21
411.21	379.17
411.40	475.13
411.59	444.70
411.78	395.55
411.98	409.59
412.17	482.15
412.36	418.96
412.55	402.57
412.74	383.85
412.93	402.57
413.12	414.27
413.31	477.47
413.50	465.77
413.69	442.36
413.88	489.17
414.07	397.89
414.26	463.43
414.45	451.72
414.64	435.34
414.83	421.30
415.02	416.62
415.22	430.66
415.41	440.02
415.60	404.91
415.79	402.57
415.98	402.57
416.17	372.15
416.36	320.65
416.55	332.36
416.74	390.87
416.93	433.00
417.12	348.74
417.31	358.10
417.50	395.55
417.69	376.83
417.88	285.55
418.07	337.04
418.26	379.17
418.45	395.55
418.64	433.00
418.83	404.91
419.02	358.10
419.21	456.40
419.39	400.23
419.58	407.25
419.77	425.98
419.96	430.66
420.15	416.62
420.34	397.89
420.53	395.55
420.72	416.62
420.91	390.87
421.10	374.49
421.29	388.53
421.48	470.45
421.67	433.00
421.86	390.87
422.05	418.96
422.24	388.53
422.43	437.68
422.61	407.25
422.80	407.25
422.99	358.10
423.18	395.55
423.37	477.47
423.56	421.30
423.75	400.23
423.94	365.12
424.13	404.91
424.32	425.98
424.50	444.70
424.69	409.59
424.88	418.96
425.07	362.78
425.26	463.43
425.45	477.47
425.64	402.57
425.83	386.19
426.01	381.51
426.20	339.38
426.39	411.93
426.58	411.93
426.77	404.91
426.96	437.68
427.15	444.70
427.33	362.78
427.52	358.10
427.71	369.80
427.90	491.51
428.09	341.72
428.28	447.04
428.46	437.68
428.65	400.23
428.84	416.62
429.03	444.70
429.22	418.96
429.40	395.55
429.59	372.15
429.78	418.96
429.97	355.76
430.16	435.34
430.34	397.89
430.53	437.68
430.72	407.25
430.91	449.38
431.10	404.91
431.28	400.23
431.47	461.09
431.66	395.55
431.85	437.68
432.03	369.80
432.22	482.15
432.41	404.91
432.60	491.51
432.79	395.55
432.97	388.53
433.16	449.38
433.35	397.89
433.54	388.53
433.72	425.98
433.91	400.23
434.10	325.33
434.28	372.15
434.47	444.70
434.66	430.66
434.85	482.15
435.03	421.30
435.22	435.34
435.41	454.06
435.59	379.17
435.78	421.30
435.97	458.74
436.16	423.64
436.34	423.64
436.53	477.47
436.72	458.74
436.90	376.83
437.09	411.93
437.28	369.80
437.46	402.57
437.65	386.19
437.84	411.93
438.02	463.43
438.21	409.59
438.40	372.15
438.58	411.93
438.77	376.83
438.96	449.38
439.14	407.25
439.33	388.53
439.52	451.72
439.70	444.70
439.89	365.12
440.08	330.02
440.26	484.49
440.45	496.19
440.63	423.64
440.82	425.98
441.01	456.40
441.19	421.30
441.38	402.57
441.57	470.45
441.75	461.09
441.94	395.55
442.12	447.04
442.31	404.91
442.50	390.87
442.68	351.08
442.87	362.78
443.05	416.62
443.24	388.53
443.43	454.06
443.61	395.55
443.80	374.49
443.98	327.68
444.17	407.25
444.35	362.78
444.54	447.04
444.73	381.51
444.91	479.81
445.10	454.06
445.28	472.79
445.47	423.64
445.65	433.00
445.84	435.34
446.02	404.91
446.21	353.42
446.39	369.80
446.58	402.57
446.77	430.66
446.95	423.64
447.14	468.11
447.32	458.74
447.51	433.00
447.69	491.51
447.88	472.79
448.06	489.17
448.25	430.66
448.43	374.49
448.62	416.62
448.80	418.96
448.99	479.81
449.17	414.27
449.36	397.89
449.54	369.80
449.73	402.57
449.91	418.96
450.10	435.34
450.28	411.93
450.46	418.96
450.65	339.38
450.83	318.31
451.02	362.78
451.20	362.78
451.39	449.38
451.57	449.38
451.76	425.98
451.94	414.27
452.13	442.36
452.31	402.57
452.49	318.31
452.68	330.02
452.86	465.77
453.05	360.44
453.23	381.51
453.42	414.27
453.60	425.98
453.78	376.83
453.97	332.36
454.15	388.53
454.34	395.55
454.52	325.33
454.70	442.36
454.89	482.15
455.07	369.80
455.26	409.59
455.44	381.51
455.62	404.91
455.81	390.87
455.99	369.80
456.17	458.74
456.36	383.85
456.54	388.53
456.73	442.36
456.91	344.06
457.09	440.02
457.28	425.98
457.46	404.91
457.64	425.98
457.83	400.23
458.01	416.62
458.19	437.68
458.38	404.91
458.56	414.27
458.74	416.62
458.93	451.72
459.11	430.66
459.29	416.62
459.48	449.38
459.66	402.57
459.84	449.38
460.03	475.13
460.21	458.74
460.39	418.96
460.57	423.64
460.76	402.57
460.94	395.55
461.12	477.47
461.31	550.03
461.49	369.80
461.67	404.91
461.85	489.17
462.04	500.87
462.22	716.20
462.40	369.80
462.59	348.74
462.77	330.02
462.95	400.23
463.13	433.00
463.32	416.62
463.50	334.70
463.68	400.23
463.86	444.70
464.05	386.19
464.23	430.66
464.41	500.87
464.59	451.72
464.78	402.57
464.96	470.45
465.14	425.98
465.32	341.72
465.50	407.25
465.69	470.45
465.87	493.85
466.05	390.87
466.23	407.25
466.41	390.87
466.60	479.81
466.78	430.66
466.96	381.51
467.14	425.98
467.32	407.25
467.51	461.09
467.69	404.91
467.87	496.19
468.05	411.93
468.23	458.74
468.41	397.89
468.60	411.93
468.78	402.57
468.96	379.17
469.14	390.87
469.32	425.98
469.50	397.89
469.69	451.72
469.87	397.89
470.05	383.85
470.23	458.74
470.41	418.96
470.59	400.23
470.77	407.25
470.95	442.36
471.14	470.45
471.32	447.04
471.50	411.93
471.68	435.34
471.86	461.09
472.04	372.15
472.22	437.68
472.40	395.55
472.58	367.46
472.77	547.69
472.95	418.96
473.13	428.32
473.31	402.57
473.49	365.12
473.67	409.59
473.85	451.72
474.03	381.51
474.21	472.79
474.39	421.30
474.57	456.40
474.75	507.90
474.93	379.17
475.12	376.83
475.30	444.70
475.48	423.64
475.66	397.89
475.84	433.00
476.02	430.66
476.20	437.68
476.38	390.87
476.56	369.80
476.74	423.64
476.92	449.38
477.10	479.81
477.28	418.96
477.46	402.57
477.64	475.13
477.82	482.15
478.00	442.36
478.18	440.02
478.36	402.57
478.54	388.53
478.72	437.68
478.90	332.36
479.08	386.19
479.26	407.25
479.44	409.59
479.62	325.33
479.80	463.43
479.98	374.49
480.16	423.64
480.34	444.70
480.52	475.13
480.70	388.53
480.88	381.51
481.06	318.31
481.24	388.53
481.41	423.64
481.59	491.51
481.77	493.85
481.95	379.17
482.13	383.85
482.31	400.23
482.49	355.76
482.67	360.44
482.85	407.25
483.03	418.96
483.21	411.93
483.39	376.83
483.57	461.09
483.74	435.34
483.92	372.15
484.10	344.06
484.28	456.40
484.46	479.81
484.64	414.27
484.82	341.72
485.00	409.59
485.18	454.06
485.35	435.34
485.53	386.19
485.71	465.77
485.89	388.53
486.07	402.57
486.25	491.51
486.43	423.64
486.61	498.53
486.78	433.00
486.96	407.25
487.14	367.46
487.32	397.89
487.50	397.89
487.68	393.21
487.85	409.59
488.03	449.38
488.21	390.87
488.39	390.87
488.57	463.43
488.75	388.53
488.92	479.81
489.10	353.42
489.28	433.00
489.46	407.25
489.64	440.02
489.81	444.70
489.99	400.23
490.17	458.74
490.35	442.36
490.53	339.38
490.70	411.93
490.88	437.68
491.06	430.66
491.24	475.13
491.41	458.74
491.59	435.34
491.77	369.80
491.95	395.55
492.13	355.76
492.30	442.36
492.48	374.49
492.66	414.27
492.84	379.17
493.01	386.19
493.19	498.53
493.37	383.85
493.54	472.79
493.72	411.93
493.90	442.36
494.08	402.57
494.25	390.87
494.43	367.46
494.61	433.00
494.79	388.53
494.96	428.32
495.14	409.59
495.32	440.02
495.49	423.64
495.67	416.62
495.85	362.78
496.02	423.64
496.20	465.77
496.38	435.34
496.55	449.38
496.73	440.02
496.91	442.36
497.09	496.19
497.26	423.64
497.44	386.19
497.62	372.15
497.79	402.57
497.97	430.66
498.14	444.70
498.32	402.57
498.50	416.62
498.67	500.87
498.85	411.93
499.03	402.57
499.20	388.53
499.38	454.06
499.56	454.06
499.73	526.62
499.91	407.25
500.08	409.59
500.26	428.32
500.44	451.72
500.61	414.27
500.79	416.62
500.97	362.78
501.14	433.00
501.32	409.59
501.49	477.47
501.67	465.77
501.84	435.34
502.02	411.93
502.20	339.38
502.37	423.64
502.55	454.06
502.72	458.74
502.90	409.59
503.07	428.32
503.25	486.83
503.43	367.46
503.60	449.38
503.78	414.27
503.95	463.43
504.13	388.53
504.30	372.15
504.48	449.38
504.65	402.57
504.83	447.04
505.01	461.09
505.18	437.68
505.36	367.46
505.53	374.49
505.71	372.15
505.88	444.70
506.06	379.17
506.23	442.36
506.41	362.78
506.58	416.62
506.76	458.74
506.93	365.12
507.11	423.64
507.28	397.89
507.46	402.57
507.63	407.25
507.81	528.96
507.98	376.83
508.16	423.64
508.33	437.68
508.50	428.32
508.68	444.70
508.85	437.68
509.03	358.10
509.20	404.91
509.38	400.23
509.55	407.25
509.73	451.72
509.90	451.72
510.08	425.98
510.25	386.19
510.42	421.30
510.60	470.45
510.77	423.64
510.95	433.00
511.12	418.96
511.30	433.00
511.47	454.06
511.64	416.62
511.82	416.62
511.99	341.72
512.17	463.43
512.34	381.51
512.51	381.51
512.69	393.21
512.86	407.25
513.04	458.74
513.21	418.96
513.38	404.91
513.56	372.15
513.73	409.59
513.90	444.70
514.08	315.97
514.25	379.17
514.43	430.66
514.60	416.62
514.77	400.23
514.95	414.27
515.12	322.99
515.29	425.98
515.47	402.57
515.64	416.62
515.81	367.46
515.99	449.38
516.16	411.93
516.33	407.25
516.51	360.44
516.68	381.51
516.85	428.32
517.03	423.64
517.20	454.06
517.37	423.64
517.54	498.53
517.72	397.89
517.89	409.59
518.06	421.30
518.24	440.02
518.41	423.64
518.58	428.32
518.75	404.91
518.93	430.66
519.10	425.98
519.27	390.87
519.45	416.62
519.62	430.66
519.79	355.76
519.96	367.46
520.14	440.02
520.31	397.89
520.48	482.15
520.65	351.08
520.83	428.32
521.00	477.47
521.17	472.79
521.34	421.30
521.52	477.47
521.69	388.53
521.86	423.64
522.03	468.11
522.20	482.15
522.38	397.89
522.55	421.30
522.72	383.85
522.89	388.53
523.07	437.68
523.24	365.12
523.41	414.27
523.58	447.04
523.75	407.25
523.92	400.23
524.10	430.66
524.27	437.68
524.44	358.10
524.61	435.34
524.78	430.66
524.96	479.81
525.13	454.06
525.30	421.30
525.47	435.34
525.64	454.06
525.81	367.46
525.98	402.57
526.16	367.46
526.33	376.83
526.50	442.36
526.67	409.59
526.84	440.02
527.01	379.17
527.18	435.34
527.36	423.64
527.53	479.81
527.70	433.00
527.87	381.51
528.04	430.66
528.21	456.40
528.38	411.93
528.55	435.34
528.72	479.81
528.89	468.11
529.07	400.23
529.24	465.77
529.41	477.47
529.58	461.09
529.75	395.55
529.92	365.12
530.09	355.76
530.26	437.68
530.43	447.04
530.60	414.27
530.77	423.64
530.94	348.74
531.11	433.00
531.28	421.30
531.46	390.87
531.63	374.49
531.80	449.38
531.97	456.40
532.14	444.70
532.31	461.09
532.48	379.17
532.65	369.80
532.82	461.09
532.99	440.02
533.16	437.68
533.33	414.27
533.50	435.34
533.67	404.91
533.84	433.00
534.01	402.57
534.18	433.00
534.35	308.95
534.52	372.15
534.69	435.34
534.86	381.51
535.03	425.98
535.20	447.04
535.37	451.72
535.54	400.23
535.71	369.80
535.88	383.85
536.05	416.62
536.22	379.17
536.38	362.78
536.55	477.47
536.72	411.93
536.89	400.23
537.06	418.96
537.23	388.53
537.40	433.00
537.57	395.55
537.74	449.38
537.91	418.96
538.08	496.19
538.25	423.64
538.42	428.32
538.59	451.72
538.75	383.85
538.92	425.98
539.09	430.66
539.26	433.00
539.43	444.70
539.60	407.25
539.77	465.77
539.94	414.27
540.11	458.74
540.28	423.64
540.44	440.02
540.61	493.85
540.78	425.98
540.95	400.23
541.12	402.57
541.29	400.23
541.46	428.32
541.62	418.96
541.79	454.06
541.96	430.66
542.13	376.83
542.30	472.79
542.47	512.58
542.63	341.72
542.80	423.64
542.97	421.30
543.14	433.00
543.31	440.02
543.48	374.49
543.64	372.15
543.81	428.32
543.98	367.46
544.15	461.09
544.32	409.59
544.48	383.85
544.65	421.30
544.82	402.57
544.99	440.02
545.16	435.34
545.32	409.59
545.49	414.27
545.66	379.17
545.83	395.55
546.00	379.17
546.16	306.61
546.33	456.40
546.50	418.96
546.67	444.70
546.83	470.45
547.00	402.57
547.17	404.91
547.34	379.17
547.50	437.68
547.67	447.04
547.84	461.09
548.00	482.15
548.17	386.19
548.34	386.19
548.51	428.32
548.67	374.49
548.84	390.87
549.01	461.09
549.18	407.25
549.34	472.79
549.51	463.43
549.68	468.11
549.84	404.91
550.01	411.93
550.18	451.72
550.34	463.43
550.51	393.21
550.68	409.59
550.84	458.74
551.01	428.32
551.18	472.79
551.34	409.59
551.51	414.27
551.68	395.55
551.84	463.43
552.01	451.72
552.18	484.49
552.34	402.57
552.51	402.57
552.68	416.62
552.84	430.66
553.01	430.66
553.18	407.25
553.34	404.91
553.51	341.72
553.67	430.66
553.84	430.66
554.01	411.93
554.17	388.53
554.34	470.45
554.51	416.62
554.67	451.72
554.84	451.72
555.00	465.77
555.17	456.40
555.33	407.25
555.50	409.59
555.67	451.72
555.83	425.98
556.00	418.96
556.16	557.05
556.33	479.81
556.50	407.25
556.66	409.59
556.83	365.12
556.99	395.55
557.16	423.64
557.32	395.55
557.49	468.11
557.65	407.25
557.82	376.83
557.98	449.38
558.15	365.12
558.32	395.55
558.48	379.17
558.65	498.53
558.81	423.64
558.98	449.38
559.14	409.59
559.31	308.95
559.47	533.64
559.64	449.38
559.80	393.21
559.97	383.85
560.13	390.87
560.30	390.87
560.46	358.10
560.63	496.19
560.79	379.17
560.96	435.34
561.12	479.81
561.29	437.68
561.45	440.02
561.61	409.59
561.78	472.79
561.94	461.09
562.11	458.74
562.27	416.62
562.44	383.85
562.60	386.19
562.77	346.40
562.93	425.98
563.10	372.15
563.26	346.40
563.42	472.79
563.59	442.36
563.75	400.23
563.92	535.98
564.08	341.72
564.24	411.93
564.41	458.74
564.57	442.36
564.74	409.59
564.90	404.91
565.07	437.68
565.23	379.17
565.39	430.66
565.56	451.72
565.72	433.00
565.88	379.17
566.05	442.36
566.21	489.17
566.38	435.34
566.54	425.98
566.70	404.91
566.87	372.15
567.03	416.62
567.19	435.34
567.36	493.85
567.52	386.19
567.68	381.51
567.85	397.89
568.01	470.45
568.17	458.74
568.34	421.30
568.50	423.64
568.66	404.91
568.83	400.23
568.99	379.17
569.15	482.15
569.32	337.04
569.48	402.57
569.64	409.59
569.81	416.62
569.97	425.98
570.13	475.13
570.30	433.00
570.46	433.00
570.62	444.70
570.78	468.11
570.95	442.36
571.11	435.34
571.27	468.11
571.43	409.59
571.60	400.23
571.76	400.23
571.92	409.59
572.09	454.06
572.25	456.40
572.41	362.78
572.57	472.79
572.74	477.47
572.90	477.47
573.06	477.47
573.22	451.72
573.38	393.21
573.55	468.11
573.71	360.44
573.87	484.49
574.03	430.66
574.20	416.62
574.36	409.59
574.52	428.32
574.68	376.83
574.84	503.22
575.01	451.72
575.17	461.09
575.33	414.27
575.49	437.68
575.65	423.64
575.82	440.02
575.98	449.38
576.14	411.93
576.30	416.62
576.46	421.30
576.62	465.77
576.79	411.93
576.95	477.47
577.11	456.40
577.27	397.89
577.43	421.30
577.59	425.98
577.75	416.62
577.92	383.85
578.08	521.94
578.24	428.32
578.40	451.72
578.56	416.62
578.72	435.34
578.88	390.87
579.04	414.27
579.21	428.32
579.37	421.30
579.53	367.46
579.69	463.43
579.85	416.62
580.01	442.36
580.17	409.59
580.33	409.59
580.49	456.40
580.65	379.17
580.82	458.74
580.98	376.83
581.14	337.04
581.30	458.74
581.46	418.96
581.62	397.89
581.78	416.62
581.94	386.19
582.10	397.89
582.26	381.51
582.42	395.55
582.58	437.68
582.74	411.93
582.90	447.04
583.06	463.43
583.22	376.83
583.38	374.49
583.54	402.57
583.70	484.49
583.86	475.13
584.02	367.46
584.18	374.49
584.34	369.80
584.50	454.06
584.66	416.62
584.82	440.02
584.98	358.10
585.14	388.53
585.30	447.04
585.46	358.10
585.62	381.51
585.78	468.11
585.94	379.17
586.10	425.98
586.26	416.62
586.42	433.00
586.58	283.20
586.74	423.64
586.90	425.98
587.06	367.46
587.22	397.89
587.38	444.70
587.54	388.53
587.70	451.72
587.86	379.17
588.02	372.15
588.18	468.11
588.34	339.38
588.49	414.27
588.65	341.72
588.81	538.32
588.97	489.17
589.13	491.51
589.29	390.87
589.45	475.13
589.61	341.72
589.77	423.64
589.93	407.25
590.08	376.83
590.24	367.46
590.40	358.10
590.56	428.32
590.72	416.62
590.88	416.62
591.04	397.89
591.20	435.34
591.35	456.40
591.51	468.11
591.67	365.12
591.83	411.93
591.99	397.89
592.15	468.11
592.31	433.00
592.46	437.68
592.62	456.40
592.78	337.04
592.94	388.53
593.10	348.74
593.26	433.00
593.41	461.09
593.57	435.34
593.73	423.64
593.89	407.25
594.05	407.25
594.20	360.44
594.36	423.64
594.52	376.83
594.68	374.49
594.84	461.09
594.99	489.17
595.15	449.38
595.31	465.77
595.47	472.79
595.62	433.00
595.78	442.36
595.94	409.59
596.10	428.32
596.25	402.57
596.41	444.70
596.57	451.72
596.73	369.80
596.88	416.62
597.04	416.62
597.20	411.93
597.36	390.87
597.51	437.68
597.67	477.47
597.83	418.96
597.99	416.62
598.14	390.87
598.30	454.06
598.46	393.21
598.61	379.17
598.77	451.72
598.93	344.06
599.09	411.93
599.24	425.98
599.40	351.08
599.56	425.98
599.71	390.87
599.87	386.19
600.03	447.04
600.18	407.25
600.34	456.40
600.50	447.04
600.65	416.62
600.81	425.98
600.97	388.53
601.12	470.45
601.28	505.56
601.44	507.90
601.59	437.68
601.75	376.83
601.91	376.83
602.06	449.38
602.22	475.13
602.37	362.78
602.53	388.53
602.69	358.10
602.84	458.74
603.00	433.00
603.16	425.98
603.31	404.91
603.47	456.40
603.62	418.96
603.78	395.55
603.94	479.81
604.09	421.30
604.25	472.79
604.40	444.70
604.56	409.59
604.71	383.85
604.87	430.66
605.03	442.36
605.18	465.77
605.34	458.74
605.49	355.76
605.65	395.55
605.80	365.12
605.96	407.25
606.12	454.06
606.27	425.98
606.43	430.66
606.58	360.44
606.74	397.89
606.89	358.10
607.05	395.55
607.20	440.02
607.36	404.91
607.51	369.80
607.67	416.62
607.82	477.47
607.98	430.66
608.13	346.40
608.29	425.98
608.44	379.17
608.60	383.85
608.75	477.47
608.91	486.83
609.06	423.64
609.22	435.34
609.37	477.47
609.53	440.02
609.68	395.55
609.84	496.19
609.99	451.72
610.15	402.57
