SpectraSuite Data File
++++++++++++++++++++++++++++++++++++
Date: Fri Oct 25 12:11:00 EDT 2013
User: price-jones
Dark Spectrum Present: No
Reference Spectrum Present: No
Number of Sampled Component Spectra: 1
Spectrometers: USB2+H05261
Integration Time (usec): 100000 (USB2+H05261)
Spectra Averaged: 1 (USB2+H05261)
Boxcar Smoothing: 0 (USB2+H05261)
Correct for Electrical Dark: No (USB2+H05261)
Strobe/Lamp Enabled: No (USB2+H05261)
Correct for Detector Non-linearity: No (USB2+H05261)
Correct for Stray Light: No (USB2+H05261)
Number of Pixels in Processed Spectrum: 2048
>>>>>Begin Processed Spectral Data<<<<<
365.73	367.46
365.92	367.46
366.12	367.46
366.32	304.27
366.52	205.97
366.72	273.84
366.91	201.29
367.11	259.80
367.31	241.08
367.51	236.39
367.70	215.33
367.90	280.86
368.10	262.14
368.30	243.42
368.49	280.86
368.69	283.20
368.89	243.42
369.09	234.05
369.28	271.50
369.48	287.89
369.68	278.52
369.87	304.27
370.07	355.76
370.27	358.10
370.47	409.59
370.66	367.46
370.86	395.55
371.06	397.89
371.25	383.85
371.45	362.78
371.65	407.25
371.84	337.04
372.04	353.42
372.24	360.44
372.44	386.19
372.63	369.80
372.83	444.70
373.03	402.57
373.22	402.57
373.42	437.68
373.62	416.62
373.81	404.91
374.01	486.83
374.21	360.44
374.40	369.80
374.60	400.23
374.79	404.91
374.99	365.12
375.19	397.89
375.38	416.62
375.58	430.66
375.78	423.64
375.97	531.30
376.17	423.64
376.37	397.89
376.56	498.53
376.76	428.32
376.95	407.25
377.15	484.49
377.35	444.70
377.54	433.00
377.74	374.49
377.93	386.19
378.13	416.62
378.33	351.08
378.52	386.19
378.72	402.57
378.91	383.85
379.11	468.11
379.31	435.34
379.50	351.08
379.70	425.98
379.89	447.04
380.09	425.98
380.28	386.19
380.48	416.62
380.68	353.42
380.87	353.42
381.07	400.23
381.26	456.40
381.46	393.21
381.65	379.17
381.85	440.02
382.04	463.43
382.24	393.21
382.43	404.91
382.63	433.00
382.83	503.22
383.02	397.89
383.22	430.66
383.41	388.53
383.61	425.98
383.80	433.00
384.00	418.96
384.19	411.93
384.39	447.04
384.58	456.40
384.78	362.78
384.97	411.93
385.17	381.51
385.36	367.46
385.56	402.57
385.75	400.23
385.95	418.96
386.14	456.40
386.34	440.02
386.53	430.66
386.72	472.79
386.92	463.43
387.11	425.98
387.31	433.00
387.50	409.59
387.70	400.23
387.89	411.93
388.09	411.93
388.28	383.85
388.48	330.02
388.67	358.10
388.86	423.64
389.06	404.91
389.25	379.17
389.45	369.80
389.64	458.74
389.84	430.66
390.03	393.21
390.22	358.10
390.42	402.57
390.61	376.83
390.81	353.42
391.00	337.04
391.19	433.00
391.39	437.68
391.58	393.21
391.78	416.62
391.97	428.32
392.16	372.15
392.36	425.98
392.55	425.98
392.75	435.34
392.94	409.59
393.13	475.13
393.33	393.21
393.52	461.09
393.71	425.98
393.91	393.21
394.10	365.12
394.29	395.55
394.49	414.27
394.68	456.40
394.88	395.55
395.07	440.02
395.26	348.74
395.46	348.74
395.65	393.21
395.84	423.64
396.04	449.38
396.23	341.72
396.42	442.36
396.62	433.00
396.81	444.70
397.00	437.68
397.19	414.27
397.39	355.76
397.58	428.32
397.77	381.51
397.97	449.38
398.16	381.51
398.35	442.36
398.55	390.87
398.74	388.53
398.93	463.43
399.12	383.85
399.32	430.66
399.51	447.04
399.70	383.85
399.90	414.27
400.09	411.93
400.28	440.02
400.47	421.30
400.67	437.68
400.86	430.66
401.05	414.27
401.24	390.87
401.44	472.79
401.63	437.68
401.82	463.43
402.01	397.89
402.21	369.80
402.40	341.72
402.59	416.62
402.78	372.15
402.97	362.78
403.17	479.81
403.36	393.21
403.55	393.21
403.74	395.55
403.93	421.30
404.13	489.17
404.32	320.65
404.51	442.36
404.70	346.40
404.89	447.04
405.09	491.51
405.28	383.85
405.47	327.68
405.66	386.19
405.85	444.70
406.05	374.49
406.24	421.30
406.43	383.85
406.62	430.66
406.81	477.47
407.00	472.79
407.20	454.06
407.39	374.49
407.58	358.10
407.77	463.43
407.96	400.23
408.15	435.34
408.34	360.44
408.54	390.87
408.73	395.55
408.92	475.13
409.11	402.57
409.30	447.04
409.49	372.15
409.68	472.79
409.87	498.53
410.07	449.38
410.26	451.72
410.45	447.04
410.64	425.98
410.83	358.10
411.02	358.10
411.21	437.68
411.40	383.85
411.59	395.55
411.78	400.23
411.98	437.68
412.17	440.02
412.36	327.68
412.55	351.08
412.74	381.51
412.93	428.32
413.12	388.53
413.31	360.44
413.50	404.91
413.69	442.36
413.88	416.62
414.07	454.06
414.26	393.21
414.45	365.12
414.64	341.72
414.83	409.59
415.02	496.19
415.22	367.46
415.41	440.02
415.60	416.62
415.79	440.02
415.98	433.00
416.17	390.87
416.36	454.06
416.55	451.72
416.74	428.32
416.93	451.72
417.12	458.74
417.31	407.25
417.50	463.43
417.69	456.40
417.88	425.98
418.07	414.27
418.26	451.72
418.45	416.62
418.64	395.55
418.83	435.34
419.02	397.89
419.21	407.25
419.39	369.80
419.58	278.52
419.77	337.04
419.96	367.46
420.15	418.96
420.34	461.09
420.53	428.32
420.72	383.85
420.91	372.15
421.10	404.91
421.29	428.32
421.48	423.64
421.67	353.42
421.86	334.70
422.05	301.93
422.24	402.57
422.43	451.72
422.61	379.17
422.80	440.02
422.99	437.68
423.18	393.21
423.37	423.64
423.56	423.64
423.75	435.34
423.94	421.30
424.13	388.53
424.32	416.62
424.50	433.00
424.69	334.70
424.88	404.91
425.07	372.15
425.26	383.85
425.45	400.23
425.64	435.34
425.83	395.55
426.01	369.80
426.20	379.17
426.39	454.06
426.58	435.34
426.77	411.93
426.96	407.25
427.15	449.38
427.33	465.77
427.52	355.76
427.71	386.19
427.90	365.12
428.09	425.98
428.28	393.21
428.46	390.87
428.65	423.64
428.84	437.68
429.03	463.43
429.22	402.57
429.40	423.64
429.59	362.78
429.78	400.23
429.97	411.93
430.16	369.80
430.34	386.19
430.53	416.62
430.72	437.68
430.91	409.59
431.10	365.12
431.28	416.62
431.47	440.02
431.66	388.53
431.85	379.17
432.03	414.27
432.22	442.36
432.41	402.57
432.60	400.23
432.79	379.17
432.97	388.53
433.16	344.06
433.35	283.20
433.54	400.23
433.72	442.36
433.91	402.57
434.10	330.02
434.28	407.25
434.47	468.11
434.66	430.66
434.85	402.57
435.03	358.10
435.22	369.80
435.41	430.66
435.59	454.06
435.78	444.70
435.97	393.21
436.16	362.78
436.34	379.17
436.53	498.53
436.72	437.68
436.90	428.32
437.09	393.21
437.28	433.00
437.46	440.02
437.65	479.81
437.84	423.64
438.02	414.27
438.21	388.53
438.40	428.32
438.58	428.32
438.77	397.89
438.96	449.38
439.14	437.68
439.33	451.72
439.52	355.76
439.70	447.04
439.89	353.42
440.08	435.34
440.26	372.15
440.45	407.25
440.63	397.89
440.82	381.51
441.01	393.21
441.19	367.46
441.38	374.49
441.57	430.66
441.75	414.27
441.94	454.06
442.12	423.64
442.31	376.83
442.50	418.96
442.68	428.32
442.87	379.17
443.05	402.57
443.24	386.19
443.43	407.25
443.61	430.66
443.80	393.21
443.98	414.27
444.17	442.36
444.35	433.00
444.54	411.93
444.73	416.62
444.91	425.98
445.10	379.17
445.28	360.44
445.47	379.17
445.65	337.04
445.84	416.62
446.02	395.55
446.21	365.12
446.39	372.15
446.58	393.21
446.77	395.55
446.95	418.96
447.14	386.19
447.32	451.72
447.51	440.02
447.69	393.21
447.88	428.32
448.06	433.00
448.25	423.64
448.43	475.13
448.62	376.83
448.80	358.10
448.99	461.09
449.17	404.91
449.36	465.77
449.54	337.04
449.73	470.45
449.91	379.17
450.10	334.70
450.28	458.74
450.46	386.19
450.65	404.91
450.83	362.78
451.02	367.46
451.20	428.32
451.39	402.57
451.57	337.04
451.76	386.19
451.94	393.21
452.13	442.36
452.31	421.30
452.49	402.57
452.68	397.89
452.86	425.98
453.05	435.34
453.23	447.04
453.42	374.49
453.60	353.42
453.78	449.38
453.97	433.00
454.15	337.04
454.34	351.08
454.52	404.91
454.70	437.68
454.89	463.43
455.07	365.12
455.26	393.21
455.44	447.04
455.62	458.74
455.81	341.72
455.99	374.49
456.17	437.68
456.36	367.46
456.54	505.56
456.73	449.38
456.91	330.02
457.09	411.93
457.28	484.49
457.46	425.98
457.64	393.21
457.83	346.40
458.01	381.51
458.19	404.91
458.38	418.96
458.56	383.85
458.74	418.96
458.93	409.59
459.11	425.98
459.29	395.55
459.48	430.66
459.66	489.17
459.84	418.96
460.03	456.40
460.21	442.36
460.39	437.68
460.57	430.66
460.76	444.70
460.94	386.19
461.12	435.34
461.31	496.19
461.49	437.68
461.67	395.55
461.85	341.72
462.04	402.57
462.22	507.90
462.40	456.40
462.59	402.57
462.77	468.11
462.95	414.27
463.13	404.91
463.32	458.74
463.50	348.74
463.68	447.04
463.86	337.04
464.05	395.55
464.23	461.09
464.41	428.32
464.59	374.49
464.78	388.53
464.96	461.09
465.14	400.23
465.32	400.23
465.50	489.17
465.69	505.56
465.87	339.38
466.05	414.27
466.23	383.85
466.41	463.43
466.60	444.70
466.78	383.85
466.96	348.74
467.14	402.57
467.32	407.25
467.51	477.47
467.69	496.19
467.87	451.72
468.05	428.32
468.23	440.02
468.41	423.64
468.60	402.57
468.78	353.42
468.96	362.78
469.14	393.21
469.32	395.55
469.50	425.98
469.69	423.64
469.87	440.02
470.05	437.68
470.23	409.59
470.41	355.76
470.59	327.68
470.77	456.40
470.95	531.30
471.14	456.40
471.32	360.44
471.50	421.30
471.68	388.53
471.86	393.21
472.04	348.74
472.22	390.87
472.40	365.12
472.58	402.57
472.77	400.23
472.95	418.96
473.13	444.70
473.31	456.40
473.49	425.98
473.67	484.49
473.85	517.26
474.03	388.53
474.21	362.78
474.39	440.02
474.57	435.34
474.75	409.59
474.93	409.59
475.12	437.68
475.30	395.55
475.48	414.27
475.66	360.44
475.84	409.59
476.02	416.62
476.20	454.06
476.38	428.32
476.56	372.15
476.74	433.00
476.92	456.40
477.10	400.23
477.28	430.66
477.46	360.44
477.64	493.85
477.82	332.36
478.00	358.10
478.18	458.74
478.36	379.17
478.54	454.06
478.72	379.17
478.90	351.08
479.08	322.99
479.26	381.51
479.44	475.13
479.62	402.57
479.80	402.57
479.98	393.21
480.16	393.21
480.34	440.02
480.52	442.36
480.70	388.53
480.88	348.74
481.06	381.51
481.24	388.53
481.41	402.57
481.59	463.43
481.77	503.22
481.95	428.32
482.13	463.43
482.31	435.34
482.49	414.27
482.67	423.64
482.85	409.59
483.03	421.30
483.21	430.66
483.39	461.09
483.57	463.43
483.74	437.68
483.92	444.70
484.10	491.51
484.28	360.44
484.46	461.09
484.64	386.19
484.82	411.93
485.00	418.96
485.18	425.98
485.35	433.00
485.53	374.49
485.71	423.64
485.89	430.66
486.07	367.46
486.25	449.38
486.43	416.62
486.61	409.59
486.78	404.91
486.96	491.51
487.14	409.59
487.32	463.43
487.50	463.43
487.68	418.96
487.85	409.59
488.03	400.23
488.21	423.64
488.39	374.49
488.57	437.68
488.75	358.10
488.92	475.13
489.10	475.13
489.28	484.49
489.46	393.21
489.64	451.72
489.81	454.06
489.99	381.51
490.17	388.53
490.35	416.62
490.53	397.89
490.70	411.93
490.88	458.74
491.06	390.87
491.24	463.43
491.41	379.17
491.59	386.19
491.77	451.72
491.95	428.32
492.13	433.00
492.30	379.17
492.48	376.83
492.66	440.02
492.84	414.27
493.01	479.81
493.19	409.59
493.37	470.45
493.54	362.78
493.72	454.06
493.90	444.70
494.08	393.21
494.25	440.02
494.43	418.96
494.61	442.36
494.79	433.00
494.96	407.25
495.14	388.53
495.32	411.93
495.49	486.83
495.67	456.40
495.85	447.04
496.02	404.91
496.20	411.93
496.38	437.68
496.55	400.23
496.73	353.42
496.91	388.53
497.09	475.13
497.26	393.21
497.44	468.11
497.62	423.64
497.79	397.89
497.97	458.74
498.14	351.08
498.32	465.77
498.50	416.62
498.67	463.43
498.85	472.79
499.03	388.53
499.20	379.17
499.38	423.64
499.56	372.15
499.73	435.34
499.91	402.57
500.08	442.36
500.26	360.44
500.44	421.30
500.61	414.27
500.79	435.34
500.97	423.64
501.14	451.72
501.32	376.83
501.49	519.60
501.67	442.36
501.84	386.19
502.02	339.38
502.20	479.81
502.37	358.10
502.55	386.19
502.72	430.66
502.90	369.80
503.07	428.32
503.25	414.27
503.43	430.66
503.60	454.06
503.78	454.06
503.95	414.27
504.13	423.64
504.30	351.08
504.48	444.70
504.65	414.27
504.83	393.21
505.01	407.25
505.18	461.09
505.36	372.15
505.53	404.91
505.71	447.04
505.88	367.46
506.06	374.49
506.23	409.59
506.41	374.49
506.58	496.19
506.76	379.17
506.93	353.42
507.11	416.62
507.28	418.96
507.46	369.80
507.63	425.98
507.81	407.25
507.98	440.02
508.16	407.25
508.33	400.23
508.50	390.87
508.68	454.06
508.85	433.00
509.03	425.98
509.20	437.68
509.38	416.62
509.55	449.38
509.73	430.66
509.90	440.02
510.08	393.21
510.25	367.46
510.42	458.74
510.60	440.02
510.77	463.43
510.95	440.02
511.12	358.10
511.30	402.57
511.47	484.49
511.64	433.00
511.82	468.11
511.99	409.59
512.17	425.98
512.34	395.55
512.51	430.66
512.69	435.34
512.86	444.70
513.04	437.68
513.21	395.55
513.38	440.02
513.56	421.30
513.73	444.70
513.90	367.46
514.08	463.43
514.25	433.00
514.43	435.34
514.60	454.06
514.77	416.62
514.95	418.96
515.12	365.12
515.29	407.25
515.47	454.06
515.64	468.11
515.81	365.12
515.99	400.23
516.16	477.47
516.33	418.96
516.51	451.72
516.68	482.15
516.85	383.85
517.03	409.59
517.20	447.04
517.37	440.02
517.54	414.27
517.72	393.21
517.89	423.64
518.06	468.11
518.24	458.74
518.41	435.34
518.58	482.15
518.75	348.74
518.93	346.40
519.10	491.51
519.27	362.78
519.45	500.87
519.62	386.19
519.79	414.27
519.96	447.04
520.14	442.36
520.31	442.36
520.48	362.78
520.65	461.09
520.83	451.72
521.00	414.27
521.17	430.66
521.34	395.55
521.52	449.38
521.69	376.83
521.86	358.10
522.03	367.46
522.20	444.70
522.38	400.23
522.55	421.30
522.72	409.59
522.89	435.34
523.07	437.68
523.24	397.89
523.41	461.09
523.58	430.66
523.75	374.49
523.92	379.17
524.10	351.08
524.27	393.21
524.44	386.19
524.61	498.53
524.78	337.04
524.96	414.27
525.13	454.06
525.30	468.11
525.47	416.62
525.64	442.36
525.81	451.72
525.98	369.80
526.16	425.98
526.33	435.34
526.50	402.57
526.67	416.62
526.84	344.06
527.01	381.51
527.18	428.32
527.36	451.72
527.53	409.59
527.70	468.11
527.87	442.36
528.04	458.74
528.21	400.23
528.38	449.38
528.55	388.53
528.72	458.74
528.89	463.43
529.07	388.53
529.24	400.23
529.41	519.60
529.58	404.91
529.75	358.10
529.92	402.57
530.09	414.27
530.26	355.76
530.43	411.93
530.60	458.74
530.77	374.49
530.94	423.64
531.11	390.87
531.28	358.10
531.46	414.27
531.63	440.02
531.80	379.17
531.97	430.66
532.14	461.09
532.31	421.30
532.48	465.77
532.65	475.13
532.82	430.66
532.99	411.93
533.16	393.21
533.33	365.12
533.50	388.53
533.67	435.34
533.84	428.32
534.01	393.21
534.18	418.96
534.35	362.78
534.52	465.77
534.69	458.74
534.86	454.06
535.03	407.25
535.20	409.59
535.37	465.77
535.54	397.89
535.71	421.30
535.88	468.11
536.05	440.02
536.22	400.23
536.38	381.51
536.55	421.30
536.72	477.47
536.89	451.72
537.06	472.79
537.23	440.02
537.40	402.57
537.57	369.80
537.74	444.70
537.91	428.32
538.08	498.53
538.25	491.51
538.42	379.17
538.59	451.72
538.75	461.09
538.92	393.21
539.09	381.51
539.26	374.49
539.43	435.34
539.60	463.43
539.77	414.27
539.94	463.43
540.11	489.17
540.28	433.00
540.44	440.02
540.61	454.06
540.78	425.98
540.95	433.00
541.12	404.91
541.29	409.59
541.46	393.21
541.62	362.78
541.79	418.96
541.96	451.72
542.13	449.38
542.30	409.59
542.47	482.15
542.63	348.74
542.80	414.27
542.97	507.90
543.14	421.30
543.31	472.79
543.48	421.30
543.64	435.34
543.81	449.38
543.98	379.17
544.15	416.62
544.32	358.10
544.48	379.17
544.65	428.32
544.82	454.06
544.99	454.06
545.16	491.51
545.32	451.72
545.49	388.53
545.66	365.12
545.83	355.76
546.00	386.19
546.16	388.53
546.33	435.34
546.50	402.57
546.67	491.51
546.83	449.38
547.00	332.36
547.17	418.96
547.34	383.85
547.50	393.21
547.67	360.44
547.84	388.53
548.00	418.96
548.17	423.64
548.34	360.44
548.51	463.43
548.67	421.30
548.84	381.51
549.01	390.87
549.18	428.32
549.34	397.89
549.51	376.83
549.68	414.27
549.84	479.81
550.01	374.49
550.18	444.70
550.34	428.32
550.51	400.23
550.68	393.21
550.84	376.83
551.01	351.08
551.18	425.98
551.34	444.70
551.51	365.12
551.68	458.74
551.84	514.92
552.01	409.59
552.18	411.93
552.34	482.15
552.51	416.62
552.68	479.81
552.84	444.70
553.01	407.25
553.18	411.93
553.34	388.53
553.51	449.38
553.67	418.96
553.84	472.79
554.01	358.10
554.17	362.78
554.34	365.12
554.51	369.80
554.67	423.64
554.84	379.17
555.00	442.36
555.17	468.11
555.33	418.96
555.50	435.34
555.67	404.91
555.83	430.66
556.00	360.44
556.16	564.07
556.33	468.11
556.50	386.19
556.66	425.98
556.83	379.17
556.99	388.53
557.16	444.70
557.32	411.93
557.49	400.23
557.65	440.02
557.82	402.57
557.98	414.27
558.15	395.55
558.32	461.09
558.48	435.34
558.65	451.72
558.81	404.91
558.98	449.38
559.14	393.21
559.31	477.47
559.47	423.64
559.64	402.57
559.80	507.90
559.97	395.55
560.13	421.30
560.30	428.32
560.46	313.63
560.63	390.87
560.79	425.98
560.96	360.44
561.12	388.53
561.29	456.40
561.45	365.12
561.61	407.25
561.78	428.32
561.94	486.83
562.11	414.27
562.27	428.32
562.44	404.91
562.60	425.98
562.77	381.51
562.93	458.74
563.10	423.64
563.26	477.47
563.42	461.09
563.59	369.80
563.75	365.12
563.92	388.53
564.08	411.93
564.24	468.11
564.41	433.00
564.57	418.96
564.74	393.21
564.90	447.04
565.07	435.34
565.23	390.87
565.39	388.53
565.56	381.51
565.72	386.19
565.88	400.23
566.05	468.11
566.21	411.93
566.38	472.79
566.54	409.59
566.70	383.85
566.87	358.10
567.03	386.19
567.19	472.79
567.36	430.66
567.52	435.34
567.68	404.91
567.85	447.04
568.01	454.06
568.17	425.98
568.34	402.57
568.50	458.74
568.66	353.42
568.83	437.68
568.99	369.80
569.15	477.47
569.32	482.15
569.48	400.23
569.64	402.57
569.81	430.66
569.97	449.38
570.13	475.13
570.30	449.38
570.46	433.00
570.62	451.72
570.78	388.53
570.95	397.89
571.11	404.91
571.27	451.72
571.43	498.53
571.60	433.00
571.76	447.04
571.92	414.27
572.09	381.51
572.25	404.91
572.41	360.44
572.57	451.72
572.74	456.40
572.90	418.96
573.06	479.81
573.22	444.70
573.38	461.09
573.55	416.62
573.71	397.89
573.87	418.96
574.03	393.21
574.20	395.55
574.36	496.19
574.52	388.53
574.68	409.59
574.84	393.21
575.01	458.74
575.17	437.68
575.33	433.00
575.49	416.62
575.65	477.47
575.82	463.43
575.98	449.38
576.14	388.53
576.30	449.38
576.46	390.87
576.62	386.19
576.79	379.17
576.95	470.45
577.11	402.57
577.27	376.83
577.43	414.27
577.59	407.25
577.75	393.21
577.92	458.74
578.08	437.68
578.24	458.74
578.40	409.59
578.56	390.87
578.72	428.32
578.88	458.74
579.04	411.93
579.21	386.19
579.37	409.59
579.53	454.06
579.69	400.23
579.85	477.47
580.01	393.21
580.17	418.96
580.33	393.21
580.49	374.49
580.65	425.98
580.82	498.53
580.98	386.19
581.14	367.46
581.30	451.72
581.46	421.30
581.62	418.96
581.78	390.87
581.94	400.23
582.10	355.76
582.26	407.25
582.42	362.78
582.58	383.85
582.74	388.53
582.90	449.38
583.06	435.34
583.22	430.66
583.38	433.00
583.54	353.42
583.70	451.72
583.86	447.04
584.02	369.80
584.18	449.38
584.34	374.49
584.50	442.36
584.66	404.91
584.82	353.42
584.98	374.49
585.14	433.00
585.30	435.34
585.46	423.64
585.62	341.72
585.78	430.66
585.94	442.36
586.10	383.85
586.26	393.21
586.42	479.81
586.58	372.15
586.74	451.72
586.90	484.49
587.06	447.04
587.22	411.93
587.38	456.40
587.54	430.66
587.70	454.06
587.86	444.70
588.02	388.53
588.18	397.89
588.34	418.96
588.49	383.85
588.65	486.83
588.81	437.68
588.97	397.89
589.13	395.55
589.29	374.49
589.45	425.98
589.61	388.53
589.77	454.06
589.93	491.51
590.08	440.02
590.24	465.77
590.40	512.58
590.56	498.53
590.72	428.32
590.88	411.93
591.04	463.43
591.20	437.68
591.35	468.11
591.51	397.89
591.67	327.68
591.83	365.12
591.99	425.98
592.15	379.17
592.31	433.00
592.46	355.76
592.62	442.36
592.78	421.30
592.94	440.02
593.10	367.46
593.26	425.98
593.41	404.91
593.57	470.45
593.73	425.98
593.89	442.36
594.05	395.55
594.20	416.62
594.36	435.34
594.52	386.19
594.68	388.53
594.84	416.62
594.99	468.11
595.15	451.72
595.31	428.32
595.47	479.81
595.62	390.87
595.78	418.96
595.94	374.49
596.10	447.04
596.25	435.34
596.41	468.11
596.57	447.04
596.73	433.00
596.88	440.02
597.04	313.63
597.20	425.98
597.36	477.47
597.51	430.66
597.67	477.47
597.83	416.62
597.99	465.77
598.14	435.34
598.30	433.00
598.46	421.30
598.61	407.25
598.77	362.78
598.93	379.17
599.09	400.23
599.24	463.43
599.40	376.83
599.56	411.93
599.71	386.19
599.87	489.17
600.03	397.89
600.18	423.64
600.34	423.64
600.50	428.32
600.65	451.72
600.81	386.19
600.97	339.38
601.12	414.27
601.28	433.00
601.44	400.23
601.59	404.91
601.75	407.25
601.91	444.70
602.06	409.59
602.22	491.51
602.37	379.17
602.53	435.34
602.69	407.25
602.84	372.15
603.00	379.17
603.16	409.59
603.31	383.85
603.47	423.64
603.62	503.22
603.78	461.09
603.94	451.72
604.09	397.89
604.25	451.72
604.40	472.79
604.56	463.43
604.71	404.91
604.87	435.34
605.03	447.04
605.18	379.17
605.34	430.66
605.49	409.59
605.65	386.19
605.80	482.15
605.96	381.51
606.12	449.38
606.27	486.83
606.43	482.15
606.58	376.83
606.74	390.87
606.89	379.17
607.05	390.87
607.20	447.04
607.36	479.81
607.51	358.10
607.67	433.00
607.82	365.12
607.98	418.96
608.13	447.04
608.29	397.89
608.44	414.27
608.60	517.26
608.75	517.26
608.91	475.13
609.06	428.32
609.22	489.17
609.37	381.51
609.53	409.59
609.68	418.96
609.84	435.34
609.99	409.59
610.15	428.32
