SpectraSuite Data File
++++++++++++++++++++++++++++++++++++
Date: Fri Oct 25 12:10:42 EDT 2013
User: price-jones
Dark Spectrum Present: No
Reference Spectrum Present: No
Number of Sampled Component Spectra: 1
Spectrometers: USB2+H05261
Integration Time (usec): 100000 (USB2+H05261)
Spectra Averaged: 1 (USB2+H05261)
Boxcar Smoothing: 0 (USB2+H05261)
Correct for Electrical Dark: No (USB2+H05261)
Strobe/Lamp Enabled: No (USB2+H05261)
Correct for Detector Non-linearity: No (USB2+H05261)
Correct for Stray Light: No (USB2+H05261)
Number of Pixels in Processed Spectrum: 2048
>>>>>Begin Processed Spectral Data<<<<<
365.73	416.62
365.92	416.62
366.12	416.62
366.32	236.39
366.52	250.44
366.72	259.80
366.91	231.71
367.11	222.35
367.31	210.65
367.51	212.99
367.70	217.67
367.90	252.78
368.10	238.73
368.30	248.10
368.49	227.03
368.69	299.59
368.89	220.01
369.09	241.08
369.28	294.91
369.48	313.63
369.68	264.48
369.87	264.48
370.07	334.70
370.27	315.97
370.47	369.80
370.66	355.76
370.86	318.31
371.06	395.55
371.25	379.17
371.45	313.63
371.65	416.62
371.84	388.53
372.04	353.42
372.24	402.57
372.44	344.06
372.63	362.78
372.83	334.70
373.03	407.25
373.22	358.10
373.42	402.57
373.62	517.26
373.81	421.30
374.01	423.64
374.21	423.64
374.40	341.72
374.60	430.66
374.79	402.57
374.99	435.34
375.19	442.36
375.38	442.36
375.58	407.25
375.78	416.62
375.97	372.15
376.17	482.15
376.37	468.11
376.56	402.57
376.76	465.77
376.95	425.98
377.15	475.13
377.35	407.25
377.54	372.15
377.74	402.57
377.93	447.04
378.13	362.78
378.33	451.72
378.52	407.25
378.72	472.79
378.91	465.77
379.11	425.98
379.31	423.64
379.50	404.91
379.70	397.89
379.89	397.89
380.09	411.93
380.28	402.57
380.48	400.23
380.68	458.74
380.87	372.15
381.07	337.04
381.26	381.51
381.46	386.19
381.65	409.59
381.85	411.93
382.04	372.15
382.24	463.43
382.43	348.74
382.63	369.80
382.83	372.15
383.02	451.72
383.22	451.72
383.41	451.72
383.61	451.72
383.80	397.89
384.00	430.66
384.19	376.83
384.39	308.95
384.58	433.00
384.78	414.27
384.97	458.74
385.17	348.74
385.36	451.72
385.56	400.23
385.75	362.78
385.95	383.85
386.14	397.89
386.34	409.59
386.53	400.23
386.72	383.85
386.92	444.70
387.11	461.09
387.31	433.00
387.50	425.98
387.70	411.93
387.89	423.64
388.09	339.38
388.28	428.32
388.48	423.64
388.67	362.78
388.86	402.57
389.06	372.15
389.25	369.80
389.45	407.25
389.64	390.87
389.84	369.80
390.03	461.09
390.22	428.32
390.42	437.68
390.61	418.96
390.81	390.87
391.00	428.32
391.19	437.68
391.39	407.25
391.58	395.55
391.78	414.27
391.97	451.72
392.16	360.44
392.36	451.72
392.55	402.57
392.75	477.47
392.94	498.53
393.13	365.12
393.33	400.23
393.52	402.57
393.71	395.55
393.91	430.66
394.10	418.96
394.29	365.12
394.49	411.93
394.68	442.36
394.88	381.51
395.07	449.38
395.26	388.53
395.46	362.78
395.65	425.98
395.84	454.06
396.04	477.47
396.23	454.06
396.42	360.44
396.62	486.83
396.81	430.66
397.00	344.06
397.19	447.04
397.39	397.89
397.58	491.51
397.77	430.66
397.97	376.83
398.16	447.04
398.35	454.06
398.55	402.57
398.74	454.06
398.93	414.27
399.12	411.93
399.32	451.72
399.51	397.89
399.70	411.93
399.90	463.43
400.09	355.76
400.28	348.74
400.47	395.55
400.67	463.43
400.86	491.51
401.05	444.70
401.24	479.81
401.44	369.80
401.63	425.98
401.82	440.02
402.01	376.83
402.21	355.76
402.40	390.87
402.59	372.15
402.78	372.15
402.97	416.62
403.17	449.38
403.36	425.98
403.55	379.17
403.74	337.04
403.93	421.30
404.13	451.72
404.32	379.17
404.51	386.19
404.70	430.66
404.89	358.10
405.09	418.96
405.28	468.11
405.47	404.91
405.66	418.96
405.85	376.83
406.05	369.80
406.24	411.93
406.43	407.25
406.62	433.00
406.81	498.53
407.00	435.34
407.20	407.25
407.39	346.40
407.58	376.83
407.77	430.66
407.96	414.27
408.15	332.36
408.34	390.87
408.54	358.10
408.73	510.24
408.92	430.66
409.11	372.15
409.30	421.30
409.49	440.02
409.68	362.78
409.87	330.02
410.07	386.19
410.26	404.91
410.45	397.89
410.64	372.15
410.83	337.04
411.02	383.85
411.21	390.87
411.40	444.70
411.59	430.66
411.78	418.96
411.98	435.34
412.17	393.21
412.36	325.33
412.55	348.74
412.74	393.21
412.93	404.91
413.12	407.25
413.31	414.27
413.50	400.23
413.69	433.00
413.88	486.83
414.07	428.32
414.26	397.89
414.45	337.04
414.64	423.64
414.83	430.66
415.02	451.72
415.22	381.51
415.41	393.21
415.60	388.53
415.79	393.21
415.98	430.66
416.17	409.59
416.36	379.17
416.55	414.27
416.74	416.62
416.93	430.66
417.12	423.64
417.31	463.43
417.50	430.66
417.69	477.47
417.88	318.31
418.07	397.89
418.26	404.91
418.45	421.30
418.64	444.70
418.83	433.00
419.02	435.34
419.21	430.66
419.39	475.13
419.58	421.30
419.77	397.89
419.96	470.45
420.15	475.13
420.34	440.02
420.53	449.38
420.72	409.59
420.91	383.85
421.10	437.68
421.29	369.80
421.48	404.91
421.67	472.79
421.86	358.10
422.05	397.89
422.24	278.52
422.43	395.55
422.61	418.96
422.80	407.25
422.99	505.56
423.18	482.15
423.37	414.27
423.56	444.70
423.75	390.87
423.94	442.36
424.13	395.55
424.32	414.27
424.50	397.89
424.69	411.93
424.88	390.87
425.07	397.89
425.26	376.83
425.45	423.64
425.64	325.33
425.83	383.85
426.01	362.78
426.20	451.72
426.39	430.66
426.58	411.93
426.77	397.89
426.96	421.30
427.15	444.70
427.33	383.85
427.52	402.57
427.71	440.02
427.90	348.74
428.09	428.32
428.28	379.17
428.46	379.17
428.65	416.62
428.84	435.34
429.03	397.89
429.22	507.90
429.40	411.93
429.59	468.11
429.78	449.38
429.97	433.00
430.16	416.62
430.34	482.15
430.53	451.72
430.72	390.87
430.91	433.00
431.10	388.53
431.28	437.68
431.47	395.55
431.66	367.46
431.85	374.49
432.03	451.72
432.22	437.68
432.41	353.42
432.60	435.34
432.79	404.91
432.97	404.91
433.16	400.23
433.35	341.72
433.54	346.40
433.72	395.55
433.91	470.45
434.10	418.96
434.28	458.74
434.47	351.08
434.66	404.91
434.85	440.02
435.03	414.27
435.22	435.34
435.41	440.02
435.59	477.47
435.78	437.68
435.97	390.87
436.16	425.98
436.34	402.57
436.53	430.66
436.72	430.66
436.90	428.32
437.09	395.55
437.28	435.34
437.46	423.64
437.65	414.27
437.84	376.83
438.02	416.62
438.21	430.66
438.40	397.89
438.58	393.21
438.77	386.19
438.96	353.42
439.14	404.91
439.33	433.00
439.52	444.70
439.70	423.64
439.89	367.46
440.08	367.46
440.26	369.80
440.45	360.44
440.63	379.17
440.82	400.23
441.01	381.51
441.19	409.59
441.38	425.98
441.57	404.91
441.75	407.25
441.94	433.00
442.12	477.47
442.31	418.96
442.50	425.98
442.68	449.38
442.87	465.77
443.05	423.64
443.24	423.64
443.43	409.59
443.61	442.36
443.80	390.87
443.98	348.74
444.17	482.15
444.35	423.64
444.54	355.76
444.73	435.34
444.91	447.04
445.10	423.64
445.28	416.62
445.47	390.87
445.65	404.91
445.84	400.23
446.02	470.45
446.21	461.09
446.39	458.74
446.58	407.25
446.77	433.00
446.95	428.32
447.14	379.17
447.32	461.09
447.51	383.85
447.69	435.34
447.88	470.45
448.06	451.72
448.25	440.02
448.43	393.21
448.62	404.91
448.80	472.79
448.99	484.49
449.17	381.51
449.36	404.91
449.54	479.81
449.73	367.46
449.91	418.96
450.10	400.23
450.28	418.96
450.46	430.66
450.65	430.66
450.83	386.19
451.02	397.89
451.20	428.32
451.39	463.43
451.57	430.66
451.76	388.53
451.94	444.70
452.13	404.91
452.31	489.17
452.49	468.11
452.68	393.21
452.86	454.06
453.05	505.56
453.23	407.25
453.42	355.76
453.60	390.87
453.78	372.15
453.97	348.74
454.15	435.34
454.34	409.59
454.52	369.80
454.70	491.51
454.89	456.40
455.07	440.02
455.26	369.80
455.44	433.00
455.62	351.08
455.81	386.19
455.99	423.64
456.17	379.17
456.36	395.55
456.54	376.83
456.73	358.10
456.91	395.55
457.09	400.23
457.28	451.72
457.46	404.91
457.64	442.36
457.83	355.76
458.01	383.85
458.19	414.27
458.38	372.15
458.56	463.43
458.74	365.12
458.93	397.89
459.11	423.64
459.29	440.02
459.48	454.06
459.66	369.80
459.84	435.34
460.03	444.70
460.21	437.68
460.39	407.25
460.57	440.02
460.76	379.17
460.94	404.91
461.12	451.72
461.31	404.91
461.49	430.66
461.67	397.89
461.85	393.21
462.04	411.93
462.22	739.61
462.40	451.72
462.59	376.83
462.77	430.66
462.95	390.87
463.13	400.23
463.32	433.00
463.50	362.78
463.68	430.66
463.86	395.55
464.05	341.72
464.23	339.38
464.41	454.06
464.59	397.89
464.78	388.53
464.96	465.77
465.14	416.62
465.32	477.47
465.50	390.87
465.69	428.32
465.87	365.12
466.05	322.99
466.23	341.72
466.41	425.98
466.60	348.74
466.78	388.53
466.96	348.74
467.14	484.49
467.32	461.09
467.51	360.44
467.69	456.40
467.87	414.27
468.05	454.06
468.23	489.17
468.41	404.91
468.60	362.78
468.78	524.28
468.96	484.49
469.14	400.23
469.32	388.53
469.50	381.51
469.69	430.66
469.87	463.43
470.05	423.64
470.23	348.74
470.41	416.62
470.59	388.53
470.77	416.62
470.95	376.83
471.14	425.98
471.32	435.34
471.50	428.32
471.68	519.60
471.86	409.59
472.04	400.23
472.22	411.93
472.40	386.19
472.58	414.27
472.77	430.66
472.95	367.46
473.13	423.64
473.31	388.53
473.49	425.98
473.67	383.85
473.85	362.78
474.03	447.04
474.21	376.83
474.39	458.74
474.57	458.74
474.75	444.70
474.93	440.02
475.12	411.93
475.30	447.04
475.48	444.70
475.66	414.27
475.84	477.47
476.02	407.25
476.20	463.43
476.38	430.66
476.56	425.98
476.74	369.80
476.92	442.36
477.10	409.59
477.28	404.91
477.46	451.72
477.64	372.15
477.82	440.02
478.00	454.06
478.18	430.66
478.36	337.04
478.54	449.38
478.72	447.04
478.90	463.43
479.08	393.21
479.26	430.66
479.44	372.15
479.62	388.53
479.80	369.80
479.98	397.89
480.16	416.62
480.34	444.70
480.52	372.15
480.70	416.62
480.88	402.57
481.06	454.06
481.24	397.89
481.41	404.91
481.59	372.15
481.77	484.49
481.95	423.64
482.13	433.00
482.31	505.56
482.49	358.10
482.67	430.66
482.85	315.97
483.03	383.85
483.21	400.23
483.39	440.02
483.57	440.02
483.74	458.74
483.92	430.66
484.10	425.98
484.28	397.89
484.46	456.40
484.64	388.53
484.82	346.40
485.00	351.08
485.18	360.44
485.35	397.89
485.53	353.42
485.71	451.72
485.89	348.74
486.07	416.62
486.25	411.93
486.43	386.19
486.61	360.44
486.78	440.02
486.96	397.89
487.14	390.87
487.32	374.49
487.50	416.62
487.68	393.21
487.85	374.49
488.03	430.66
488.21	437.68
488.39	393.21
488.57	381.51
488.75	463.43
488.92	449.38
489.10	358.10
489.28	433.00
489.46	369.80
489.64	423.64
489.81	437.68
489.99	390.87
490.17	337.04
490.35	500.87
490.53	461.09
490.70	367.46
490.88	334.70
491.06	313.63
491.24	393.21
491.41	456.40
491.59	416.62
491.77	409.59
491.95	444.70
492.13	414.27
492.30	390.87
492.48	449.38
492.66	414.27
492.84	402.57
493.01	418.96
493.19	461.09
493.37	470.45
493.54	414.27
493.72	337.04
493.90	521.94
494.08	362.78
494.25	369.80
494.43	409.59
494.61	463.43
494.79	421.30
494.96	388.53
495.14	428.32
495.32	390.87
495.49	395.55
495.67	402.57
495.85	390.87
496.02	456.40
496.20	454.06
496.38	470.45
496.55	388.53
496.73	400.23
496.91	360.44
497.09	421.30
497.26	454.06
497.44	407.25
497.62	416.62
497.79	449.38
497.97	472.79
498.14	430.66
498.32	458.74
498.50	444.70
498.67	395.55
498.85	425.98
499.03	388.53
499.20	430.66
499.38	430.66
499.56	404.91
499.73	470.45
499.91	381.51
500.08	388.53
500.26	414.27
500.44	421.30
500.61	414.27
500.79	423.64
500.97	358.10
501.14	461.09
501.32	407.25
501.49	444.70
501.67	362.78
501.84	449.38
502.02	381.51
502.20	470.45
502.37	400.23
502.55	390.87
502.72	341.72
502.90	468.11
503.07	503.22
503.25	451.72
503.43	421.30
503.60	393.21
503.78	404.91
503.95	393.21
504.13	421.30
504.30	372.15
504.48	493.85
504.65	418.96
504.83	372.15
505.01	299.59
505.18	498.53
505.36	435.34
505.53	437.68
505.71	372.15
505.88	458.74
506.06	397.89
506.23	428.32
506.41	404.91
506.58	428.32
506.76	365.12
506.93	400.23
507.11	447.04
507.28	367.46
507.46	402.57
507.63	397.89
507.81	437.68
507.98	372.15
508.16	428.32
508.33	393.21
508.50	442.36
508.68	468.11
508.85	313.63
509.03	440.02
509.20	372.15
509.38	367.46
509.55	376.83
509.73	414.27
509.90	552.37
510.08	404.91
510.25	465.77
510.42	404.91
510.60	374.49
510.77	465.77
510.95	407.25
511.12	400.23
511.30	461.09
511.47	442.36
511.64	407.25
511.82	390.87
511.99	395.55
512.17	381.51
512.34	330.02
512.51	430.66
512.69	362.78
512.86	425.98
513.04	365.12
513.21	390.87
513.38	404.91
513.56	355.76
513.73	418.96
513.90	418.96
514.08	376.83
514.25	409.59
514.43	393.21
514.60	440.02
514.77	402.57
514.95	390.87
515.12	339.38
515.29	390.87
515.47	428.32
515.64	404.91
515.81	388.53
515.99	493.85
516.16	355.76
516.33	444.70
516.51	430.66
516.68	421.30
516.85	372.15
517.03	395.55
517.20	440.02
517.37	440.02
517.54	390.87
517.72	425.98
517.89	425.98
518.06	425.98
518.24	456.40
518.41	433.00
518.58	383.85
518.75	470.45
518.93	472.79
519.10	423.64
519.27	428.32
519.45	381.51
519.62	383.85
519.79	388.53
519.96	470.45
520.14	390.87
520.31	440.02
520.48	397.89
520.65	425.98
520.83	362.78
521.00	454.06
521.17	372.15
521.34	430.66
521.52	510.24
521.69	388.53
521.86	390.87
522.03	456.40
522.20	484.49
522.38	468.11
522.55	435.34
522.72	344.06
522.89	404.91
523.07	418.96
523.24	332.36
523.41	383.85
523.58	428.32
523.75	421.30
523.92	367.46
524.10	444.70
524.27	449.38
524.44	346.40
524.61	430.66
524.78	416.62
524.96	451.72
525.13	428.32
525.30	430.66
525.47	526.62
525.64	433.00
525.81	404.91
525.98	400.23
526.16	444.70
526.33	402.57
526.50	479.81
526.67	402.57
526.84	425.98
527.01	393.21
527.18	475.13
527.36	395.55
527.53	430.66
527.70	418.96
527.87	440.02
528.04	447.04
528.21	421.30
528.38	447.04
528.55	456.40
528.72	440.02
528.89	435.34
529.07	468.11
529.24	416.62
529.41	407.25
529.58	451.72
529.75	367.46
529.92	390.87
530.09	374.49
530.26	458.74
530.43	435.34
530.60	332.36
530.77	433.00
530.94	390.87
531.11	423.64
531.28	351.08
531.46	447.04
531.63	428.32
531.80	430.66
531.97	423.64
532.14	379.17
532.31	372.15
532.48	409.59
532.65	430.66
532.82	390.87
532.99	381.51
533.16	362.78
533.33	505.56
533.50	458.74
533.67	430.66
533.84	451.72
534.01	414.27
534.18	458.74
534.35	407.25
534.52	458.74
534.69	458.74
534.86	386.19
535.03	425.98
535.20	449.38
535.37	463.43
535.54	322.99
535.71	400.23
535.88	484.49
536.05	465.77
536.22	425.98
536.38	433.00
536.55	472.79
536.72	477.47
536.89	400.23
537.06	341.72
537.23	447.04
537.40	365.12
537.57	376.83
537.74	482.15
537.91	400.23
538.08	423.64
538.25	388.53
538.42	423.64
538.59	451.72
538.75	390.87
538.92	351.08
539.09	374.49
539.26	409.59
539.43	454.06
539.60	482.15
539.77	477.47
539.94	411.93
540.11	451.72
540.28	447.04
540.44	409.59
540.61	383.85
540.78	383.85
540.95	390.87
541.12	409.59
541.29	372.15
541.46	454.06
541.62	463.43
541.79	416.62
541.96	482.15
542.13	397.89
542.30	360.44
542.47	409.59
542.63	433.00
542.80	433.00
542.97	421.30
543.14	458.74
543.31	433.00
543.48	346.40
543.64	376.83
543.81	393.21
543.98	428.32
544.15	477.47
544.32	411.93
544.48	402.57
544.65	383.85
544.82	442.36
544.99	386.19
545.16	402.57
545.32	449.38
545.49	456.40
545.66	472.79
545.83	444.70
546.00	414.27
546.16	421.30
546.33	376.83
546.50	395.55
546.67	449.38
546.83	449.38
547.00	390.87
547.17	383.85
547.34	358.10
547.50	383.85
547.67	390.87
547.84	414.27
548.00	472.79
548.17	437.68
548.34	447.04
548.51	407.25
548.67	386.19
548.84	390.87
549.01	447.04
549.18	367.46
549.34	397.89
549.51	472.79
549.68	402.57
549.84	447.04
550.01	435.34
550.18	470.45
550.34	456.40
550.51	416.62
550.68	472.79
550.84	454.06
551.01	437.68
551.18	374.49
551.34	388.53
551.51	416.62
551.68	400.23
551.84	454.06
552.01	386.19
552.18	365.12
552.34	482.15
552.51	421.30
552.68	484.49
552.84	411.93
553.01	440.02
553.18	374.49
553.34	409.59
553.51	311.29
553.67	397.89
553.84	468.11
554.01	409.59
554.17	430.66
554.34	383.85
554.51	435.34
554.67	507.90
554.84	388.53
555.00	390.87
555.17	440.02
555.33	418.96
555.50	353.42
555.67	390.87
555.83	475.13
556.00	423.64
556.16	489.17
556.33	411.93
556.50	360.44
556.66	451.72
556.83	407.25
556.99	365.12
557.16	437.68
557.32	423.64
557.49	411.93
557.65	421.30
557.82	381.51
557.98	491.51
558.15	325.33
558.32	339.38
558.48	404.91
558.65	362.78
558.81	430.66
558.98	390.87
559.14	404.91
559.31	379.17
559.47	489.17
559.64	456.40
559.80	404.91
559.97	433.00
560.13	423.64
560.30	395.55
560.46	430.66
560.63	395.55
560.79	447.04
560.96	395.55
561.12	395.55
561.29	479.81
561.45	444.70
561.61	500.87
561.78	491.51
561.94	428.32
562.11	435.34
562.27	430.66
562.44	416.62
562.60	430.66
562.77	423.64
562.93	543.00
563.10	433.00
563.26	442.36
563.42	482.15
563.59	376.83
563.75	369.80
563.92	442.36
564.08	372.15
564.24	472.79
564.41	472.79
564.57	381.51
564.74	395.55
564.90	437.68
565.07	383.85
565.23	332.36
565.39	433.00
565.56	414.27
565.72	386.19
565.88	416.62
566.05	482.15
566.21	400.23
566.38	440.02
566.54	461.09
566.70	362.78
566.87	360.44
567.03	430.66
567.19	414.27
567.36	484.49
567.52	449.38
567.68	468.11
567.85	402.57
568.01	433.00
568.17	421.30
568.34	486.83
568.50	418.96
568.66	348.74
568.83	435.34
568.99	386.19
569.15	468.11
569.32	411.93
569.48	369.80
569.64	503.22
569.81	365.12
569.97	461.09
570.13	449.38
570.30	468.11
570.46	365.12
570.62	411.93
570.78	383.85
570.95	416.62
571.11	482.15
571.27	479.81
571.43	463.43
571.60	442.36
571.76	390.87
571.92	435.34
572.09	374.49
572.25	407.25
572.41	379.17
572.57	437.68
572.74	444.70
572.90	468.11
573.06	365.12
573.22	414.27
573.38	409.59
573.55	423.64
573.71	411.93
573.87	444.70
574.03	369.80
574.20	421.30
574.36	395.55
574.52	428.32
574.68	428.32
574.84	435.34
575.01	444.70
575.17	423.64
575.33	379.17
575.49	440.02
575.65	397.89
575.82	409.59
575.98	430.66
576.14	433.00
576.30	341.72
576.46	463.43
576.62	440.02
576.79	367.46
576.95	320.65
577.11	402.57
577.27	411.93
577.43	411.93
577.59	479.81
577.75	418.96
577.92	498.53
578.08	369.80
578.24	423.64
578.40	451.72
578.56	430.66
578.72	465.77
578.88	421.30
579.04	477.47
579.21	395.55
579.37	475.13
579.53	409.59
579.69	461.09
579.85	451.72
580.01	433.00
580.17	407.25
580.33	479.81
580.49	423.64
580.65	437.68
580.82	447.04
580.98	379.17
581.14	470.45
581.30	500.87
581.46	482.15
581.62	454.06
581.78	400.23
581.94	395.55
582.10	374.49
582.26	414.27
582.42	404.91
582.58	404.91
582.74	416.62
582.90	418.96
583.06	479.81
583.22	430.66
583.38	461.09
583.54	414.27
583.70	397.89
583.86	489.17
584.02	393.21
584.18	444.70
584.34	414.27
584.50	421.30
584.66	411.93
584.82	397.89
584.98	416.62
585.14	451.72
585.30	442.36
585.46	472.79
585.62	414.27
585.78	456.40
585.94	440.02
586.10	393.21
586.26	383.85
586.42	435.34
586.58	463.43
586.74	402.57
586.90	498.53
587.06	395.55
587.22	409.59
587.38	332.36
587.54	470.45
587.70	416.62
587.86	442.36
588.02	423.64
588.18	409.59
588.34	383.85
588.49	416.62
588.65	390.87
588.81	430.66
588.97	397.89
589.13	444.70
589.29	463.43
589.45	447.04
589.61	440.02
589.77	416.62
589.93	362.78
590.08	484.49
590.24	447.04
590.40	393.21
590.56	442.36
590.72	367.46
590.88	390.87
591.04	447.04
591.20	498.53
591.35	463.43
591.51	376.83
591.67	381.51
591.83	367.46
591.99	423.64
592.15	456.40
592.31	395.55
592.46	351.08
592.62	421.30
592.78	444.70
592.94	381.51
593.10	372.15
593.26	463.43
593.41	437.68
593.57	407.25
593.73	404.91
593.89	418.96
594.05	348.74
594.20	442.36
594.36	407.25
594.52	463.43
594.68	418.96
594.84	414.27
594.99	479.81
595.15	425.98
595.31	376.83
595.47	423.64
595.62	435.34
595.78	400.23
595.94	428.32
596.10	402.57
596.25	353.42
596.41	444.70
596.57	437.68
596.73	416.62
596.88	472.79
597.04	430.66
597.20	390.87
597.36	423.64
597.51	454.06
597.67	381.51
597.83	344.06
597.99	423.64
598.14	442.36
598.30	430.66
598.46	383.85
598.61	440.02
598.77	369.80
598.93	346.40
599.09	421.30
599.24	414.27
599.40	444.70
599.56	486.83
599.71	376.83
599.87	369.80
600.03	407.25
600.18	372.15
600.34	388.53
600.50	449.38
600.65	395.55
600.81	468.11
600.97	484.49
601.12	435.34
601.28	505.56
601.44	489.17
601.59	486.83
601.75	381.51
601.91	358.10
602.06	379.17
602.22	470.45
602.37	472.79
602.53	433.00
602.69	330.02
602.84	362.78
603.00	440.02
603.16	456.40
603.31	404.91
603.47	475.13
603.62	393.21
603.78	397.89
603.94	369.80
604.09	437.68
604.25	381.51
604.40	440.02
604.56	322.99
604.71	346.40
604.87	365.12
605.03	440.02
605.18	381.51
605.34	423.64
605.49	353.42
605.65	353.42
605.80	315.97
605.96	381.51
606.12	449.38
606.27	416.62
606.43	477.47
606.58	383.85
606.74	372.15
606.89	416.62
607.05	376.83
607.20	372.15
607.36	395.55
607.51	369.80
607.67	433.00
607.82	402.57
607.98	428.32
608.13	407.25
608.29	442.36
608.44	383.85
608.60	416.62
608.75	484.49
608.91	440.02
609.06	395.55
609.22	409.59
609.37	437.68
609.53	402.57
609.68	475.13
609.84	365.12
609.99	360.44
610.15	458.74
