SpectraSuite Data File
++++++++++++++++++++++++++++++++++++
Date: Fri Oct 25 12:11:04 EDT 2013
User: price-jones
Dark Spectrum Present: No
Reference Spectrum Present: No
Number of Sampled Component Spectra: 1
Spectrometers: USB2+H05261
Integration Time (usec): 100000 (USB2+H05261)
Spectra Averaged: 1 (USB2+H05261)
Boxcar Smoothing: 0 (USB2+H05261)
Correct for Electrical Dark: No (USB2+H05261)
Strobe/Lamp Enabled: No (USB2+H05261)
Correct for Detector Non-linearity: No (USB2+H05261)
Correct for Stray Light: No (USB2+H05261)
Number of Pixels in Processed Spectrum: 2048
>>>>>Begin Processed Spectral Data<<<<<
365.73	344.06
365.92	344.06
366.12	344.06
366.32	271.50
366.52	194.26
366.72	266.82
366.91	227.03
367.11	287.89
367.31	273.84
367.51	201.29
367.70	187.24
367.90	257.46
368.10	278.52
368.30	285.55
368.49	241.08
368.69	269.16
368.89	238.73
369.09	299.59
369.28	278.52
369.48	248.10
369.68	236.39
369.87	290.23
370.07	287.89
370.27	376.83
370.47	311.29
370.66	290.23
370.86	348.74
371.06	330.02
371.25	362.78
371.45	346.40
371.65	409.59
371.84	341.72
372.04	344.06
372.24	440.02
372.44	353.42
372.63	447.04
372.83	351.08
373.03	416.62
373.22	388.53
373.42	482.15
373.62	395.55
373.81	418.96
374.01	416.62
374.21	374.49
374.40	393.21
374.60	437.68
374.79	430.66
374.99	369.80
375.19	425.98
375.38	428.32
375.58	411.93
375.78	444.70
375.97	493.85
376.17	402.57
376.37	425.98
376.56	451.72
376.76	416.62
376.95	428.32
377.15	409.59
377.35	416.62
377.54	407.25
377.74	376.83
377.93	397.89
378.13	383.85
378.33	444.70
378.52	318.31
378.72	458.74
378.91	372.15
379.11	393.21
379.31	440.02
379.50	409.59
379.70	451.72
379.89	454.06
380.09	390.87
380.28	379.17
380.48	383.85
380.68	390.87
380.87	402.57
381.07	458.74
381.26	386.19
381.46	341.72
381.65	332.36
381.85	512.58
382.04	388.53
382.24	397.89
382.43	411.93
382.63	423.64
382.83	409.59
383.02	421.30
383.22	423.64
383.41	416.62
383.61	369.80
383.80	404.91
384.00	397.89
384.19	409.59
384.39	369.80
384.58	379.17
384.78	442.36
384.97	355.76
385.17	416.62
385.36	374.49
385.56	404.91
385.75	355.76
385.95	435.34
386.14	390.87
386.34	332.36
386.53	390.87
386.72	369.80
386.92	437.68
387.11	397.89
387.31	437.68
387.50	322.99
387.70	433.00
387.89	409.59
388.09	435.34
388.28	411.93
388.48	397.89
388.67	395.55
388.86	421.30
389.06	402.57
389.25	421.30
389.45	376.83
389.64	411.93
389.84	416.62
390.03	465.77
390.22	383.85
390.42	397.89
390.61	400.23
390.81	346.40
391.00	463.43
391.19	395.55
391.39	451.72
391.58	428.32
391.78	395.55
391.97	386.19
392.16	381.51
392.36	435.34
392.55	458.74
392.75	409.59
392.94	449.38
393.13	397.89
393.33	367.46
393.52	409.59
393.71	409.59
393.91	344.06
394.10	418.96
394.29	458.74
394.49	402.57
394.68	402.57
394.88	461.09
395.07	346.40
395.26	456.40
395.46	386.19
395.65	407.25
395.84	365.12
396.04	351.08
396.23	414.27
396.42	421.30
396.62	395.55
396.81	397.89
397.00	383.85
397.19	344.06
397.39	423.64
397.58	428.32
397.77	425.98
397.97	388.53
398.16	362.78
398.35	437.68
398.55	362.78
398.74	433.00
398.93	430.66
399.12	449.38
399.32	428.32
399.51	379.17
399.70	491.51
399.90	358.10
400.09	337.04
400.28	372.15
400.47	393.21
400.67	454.06
400.86	397.89
401.05	451.72
401.24	468.11
401.44	425.98
401.63	404.91
401.82	374.49
402.01	388.53
402.21	416.62
402.40	463.43
402.59	383.85
402.78	372.15
402.97	411.93
403.17	376.83
403.36	437.68
403.55	362.78
403.74	430.66
403.93	421.30
404.13	351.08
404.32	404.91
404.51	341.72
404.70	425.98
404.89	430.66
405.09	423.64
405.28	381.51
405.47	409.59
405.66	437.68
405.85	447.04
406.05	383.85
406.24	456.40
406.43	514.92
406.62	475.13
406.81	369.80
407.00	430.66
407.20	381.51
407.39	449.38
407.58	437.68
407.77	430.66
407.96	425.98
408.15	425.98
408.34	468.11
408.54	465.77
408.73	355.76
408.92	472.79
409.11	418.96
409.30	414.27
409.49	437.68
409.68	379.17
409.87	407.25
410.07	322.99
410.26	416.62
410.45	376.83
410.64	435.34
410.83	435.34
411.02	374.49
411.21	456.40
411.40	388.53
411.59	423.64
411.78	409.59
411.98	388.53
412.17	383.85
412.36	411.93
412.55	355.76
412.74	402.57
412.93	409.59
413.12	332.36
413.31	407.25
413.50	444.70
413.69	447.04
413.88	451.72
414.07	383.85
414.26	411.93
414.45	409.59
414.64	404.91
414.83	423.64
415.02	437.68
415.22	348.74
415.41	503.22
415.60	425.98
415.79	355.76
415.98	418.96
416.17	407.25
416.36	411.93
416.55	381.51
416.74	355.76
416.93	409.59
417.12	376.83
417.31	416.62
417.50	365.12
417.69	458.74
417.88	369.80
418.07	414.27
418.26	442.36
418.45	381.51
418.64	435.34
418.83	358.10
419.02	428.32
419.21	423.64
419.39	402.57
419.58	388.53
419.77	430.66
419.96	386.19
420.15	435.34
420.34	358.10
420.53	451.72
420.72	440.02
420.91	344.06
421.10	372.15
421.29	388.53
421.48	461.09
421.67	454.06
421.86	444.70
422.05	463.43
422.24	388.53
422.43	379.17
422.61	379.17
422.80	451.72
422.99	435.34
423.18	400.23
423.37	404.91
423.56	442.36
423.75	416.62
423.94	423.64
424.13	470.45
424.32	416.62
424.50	503.22
424.69	461.09
424.88	433.00
425.07	407.25
425.26	393.21
425.45	437.68
425.64	404.91
425.83	379.17
426.01	493.85
426.20	353.42
426.39	290.23
426.58	463.43
426.77	365.12
426.96	470.45
427.15	451.72
427.33	468.11
427.52	447.04
427.71	402.57
427.90	414.27
428.09	397.89
428.28	423.64
428.46	411.93
428.65	428.32
428.84	395.55
429.03	372.15
429.22	411.93
429.40	454.06
429.59	489.17
429.78	395.55
429.97	393.21
430.16	355.76
430.34	376.83
430.53	362.78
430.72	418.96
430.91	393.21
431.10	475.13
431.28	414.27
431.47	395.55
431.66	404.91
431.85	430.66
432.03	425.98
432.22	433.00
432.41	334.70
432.60	507.90
432.79	372.15
432.97	346.40
433.16	388.53
433.35	395.55
433.54	416.62
433.72	416.62
433.91	458.74
434.10	395.55
434.28	390.87
434.47	369.80
434.66	447.04
434.85	477.47
435.03	407.25
435.22	393.21
435.41	425.98
435.59	348.74
435.78	409.59
435.97	355.76
436.16	400.23
436.34	465.77
436.53	463.43
436.72	430.66
436.90	355.76
437.09	475.13
437.28	407.25
437.46	400.23
437.65	428.32
437.84	425.98
438.02	451.72
438.21	402.57
438.40	451.72
438.58	388.53
438.77	468.11
438.96	433.00
439.14	423.64
439.33	418.96
439.52	379.17
439.70	358.10
439.89	404.91
440.08	414.27
440.26	444.70
440.45	442.36
440.63	390.87
440.82	472.79
441.01	395.55
441.19	482.15
441.38	519.60
441.57	447.04
441.75	468.11
441.94	421.30
442.12	463.43
442.31	411.93
442.50	465.77
442.68	360.44
442.87	425.98
443.05	416.62
443.24	435.34
443.43	451.72
443.61	435.34
443.80	418.96
443.98	407.25
444.17	451.72
444.35	444.70
444.54	395.55
444.73	407.25
444.91	430.66
445.10	395.55
445.28	369.80
445.47	440.02
445.65	444.70
445.84	362.78
446.02	447.04
446.21	411.93
446.39	433.00
446.58	435.34
446.77	411.93
446.95	463.43
447.14	414.27
447.32	414.27
447.51	379.17
447.69	397.89
447.88	383.85
448.06	491.51
448.25	433.00
448.43	407.25
448.62	407.25
448.80	465.77
448.99	395.55
449.17	489.17
449.36	402.57
449.54	383.85
449.73	449.38
449.91	404.91
450.10	437.68
450.28	463.43
450.46	503.22
450.65	416.62
450.83	437.68
451.02	409.59
451.20	454.06
451.39	451.72
451.57	404.91
451.76	500.87
451.94	379.17
452.13	454.06
452.31	430.66
452.49	440.02
452.68	440.02
452.86	397.89
453.05	435.34
453.23	423.64
453.42	463.43
453.60	409.59
453.78	423.64
453.97	376.83
454.15	379.17
454.34	425.98
454.52	372.15
454.70	449.38
454.89	435.34
455.07	367.46
455.26	367.46
455.44	449.38
455.62	465.77
455.81	383.85
455.99	407.25
456.17	358.10
456.36	372.15
456.54	496.19
456.73	376.83
456.91	414.27
457.09	421.30
457.28	468.11
457.46	418.96
457.64	461.09
457.83	416.62
458.01	418.96
458.19	430.66
458.38	416.62
458.56	376.83
458.74	381.51
458.93	458.74
459.11	465.77
459.29	416.62
459.48	402.57
459.66	449.38
459.84	397.89
460.03	507.90
460.21	383.85
460.39	447.04
460.57	425.98
460.76	400.23
460.94	386.19
461.12	451.72
461.31	486.83
461.49	423.64
461.67	475.13
461.85	416.62
462.04	397.89
462.22	748.97
462.40	411.93
462.59	397.89
462.77	400.23
462.95	477.47
463.13	362.78
463.32	454.06
463.50	430.66
463.68	355.76
463.86	379.17
464.05	400.23
464.23	418.96
464.41	428.32
464.59	337.04
464.78	407.25
464.96	383.85
465.14	416.62
465.32	416.62
465.50	430.66
465.69	409.59
465.87	351.08
466.05	440.02
466.23	397.89
466.41	451.72
466.60	454.06
466.78	407.25
466.96	369.80
467.14	376.83
467.32	386.19
467.51	418.96
467.69	400.23
467.87	430.66
468.05	440.02
468.23	397.89
468.41	433.00
468.60	414.27
468.78	421.30
468.96	390.87
469.14	393.21
469.32	423.64
469.50	423.64
469.69	379.17
469.87	456.40
470.05	437.68
470.23	416.62
470.41	411.93
470.59	447.04
470.77	435.34
470.95	369.80
471.14	397.89
471.32	318.31
471.50	425.98
471.68	430.66
471.86	402.57
472.04	442.36
472.22	449.38
472.40	353.42
472.58	383.85
472.77	442.36
472.95	402.57
473.13	468.11
473.31	421.30
473.49	393.21
473.67	430.66
473.85	440.02
474.03	442.36
474.21	388.53
474.39	454.06
474.57	477.47
474.75	411.93
474.93	447.04
475.12	430.66
475.30	470.45
475.48	393.21
475.66	341.72
475.84	388.53
476.02	337.04
476.20	334.70
476.38	409.59
476.56	475.13
476.74	421.30
476.92	365.12
477.10	339.38
477.28	402.57
477.46	411.93
477.64	409.59
477.82	393.21
478.00	414.27
478.18	390.87
478.36	428.32
478.54	379.17
478.72	348.74
478.90	425.98
479.08	465.77
479.26	463.43
479.44	456.40
479.62	402.57
479.80	449.38
479.98	409.59
480.16	416.62
480.34	461.09
480.52	390.87
480.70	365.12
480.88	447.04
481.06	404.91
481.24	414.27
481.41	409.59
481.59	489.17
481.77	409.59
481.95	447.04
482.13	402.57
482.31	454.06
482.49	437.68
482.67	411.93
482.85	444.70
483.03	454.06
483.21	397.89
483.39	397.89
483.57	379.17
483.74	470.45
483.92	383.85
484.10	362.78
484.28	423.64
484.46	383.85
484.64	353.42
484.82	407.25
485.00	440.02
485.18	407.25
485.35	327.68
485.53	360.44
485.71	517.26
485.89	346.40
486.07	341.72
486.25	463.43
486.43	465.77
486.61	468.11
486.78	428.32
486.96	341.72
487.14	400.23
487.32	351.08
487.50	409.59
487.68	449.38
487.85	425.98
488.03	421.30
488.21	447.04
488.39	407.25
488.57	425.98
488.75	430.66
488.92	468.11
489.10	423.64
489.28	484.49
489.46	341.72
489.64	400.23
489.81	393.21
489.99	440.02
490.17	397.89
490.35	526.62
490.53	386.19
490.70	397.89
490.88	334.70
491.06	456.40
491.24	451.72
491.41	468.11
491.59	369.80
491.77	330.02
491.95	437.68
492.13	416.62
492.30	379.17
492.48	430.66
492.66	407.25
492.84	388.53
493.01	404.91
493.19	400.23
493.37	416.62
493.54	458.74
493.72	442.36
493.90	397.89
494.08	393.21
494.25	353.42
494.43	369.80
494.61	414.27
494.79	430.66
494.96	381.51
495.14	346.40
495.32	362.78
495.49	409.59
495.67	348.74
495.85	365.12
496.02	484.49
496.20	472.79
496.38	472.79
496.55	404.91
496.73	428.32
496.91	402.57
497.09	393.21
497.26	482.15
497.44	475.13
497.62	449.38
497.79	414.27
497.97	498.53
498.14	461.09
498.32	456.40
498.50	500.87
498.67	393.21
498.85	440.02
499.03	393.21
499.20	437.68
499.38	374.49
499.56	351.08
499.73	451.72
499.91	472.79
500.08	397.89
500.26	456.40
500.44	397.89
500.61	374.49
500.79	381.51
500.97	416.62
501.14	454.06
501.32	428.32
501.49	435.34
501.67	386.19
501.84	416.62
502.02	395.55
502.20	461.09
502.37	402.57
502.55	400.23
502.72	421.30
502.90	449.38
503.07	367.46
503.25	477.47
503.43	400.23
503.60	383.85
503.78	374.49
503.95	411.93
504.13	369.80
504.30	411.93
504.48	458.74
504.65	404.91
504.83	430.66
505.01	472.79
505.18	416.62
505.36	458.74
505.53	437.68
505.71	411.93
505.88	381.51
506.06	407.25
506.23	372.15
506.41	407.25
506.58	414.27
506.76	421.30
506.93	423.64
507.11	428.32
507.28	428.32
507.46	430.66
507.63	463.43
507.81	442.36
507.98	337.04
508.16	475.13
508.33	454.06
508.50	454.06
508.68	444.70
508.85	374.49
509.03	351.08
509.20	393.21
509.38	454.06
509.55	397.89
509.73	451.72
509.90	463.43
510.08	447.04
510.25	395.55
510.42	416.62
510.60	386.19
510.77	449.38
510.95	416.62
511.12	407.25
511.30	475.13
511.47	428.32
511.64	437.68
511.82	447.04
511.99	407.25
512.17	435.34
512.34	449.38
512.51	472.79
512.69	393.21
512.86	414.27
513.04	407.25
513.21	362.78
513.38	397.89
513.56	416.62
513.73	383.85
513.90	369.80
514.08	369.80
514.25	475.13
514.43	379.17
514.60	376.83
514.77	367.46
514.95	411.93
515.12	411.93
515.29	353.42
515.47	444.70
515.64	440.02
515.81	475.13
515.99	346.40
516.16	444.70
516.33	449.38
516.51	393.21
516.68	449.38
516.85	461.09
517.03	435.34
517.20	425.98
517.37	400.23
517.54	423.64
517.72	416.62
517.89	390.87
518.06	423.64
518.24	484.49
518.41	430.66
518.58	489.17
518.75	374.49
518.93	437.68
519.10	355.76
519.27	388.53
519.45	470.45
519.62	390.87
519.79	400.23
519.96	404.91
520.14	383.85
520.31	444.70
520.48	379.17
520.65	397.89
520.83	418.96
521.00	458.74
521.17	411.93
521.34	381.51
521.52	449.38
521.69	416.62
521.86	491.51
522.03	416.62
522.20	433.00
522.38	397.89
522.55	402.57
522.72	433.00
522.89	402.57
523.07	390.87
523.24	404.91
523.41	409.59
523.58	489.17
523.75	407.25
523.92	433.00
524.10	442.36
524.27	402.57
524.44	369.80
524.61	458.74
524.78	418.96
524.96	376.83
525.13	486.83
525.30	407.25
525.47	468.11
525.64	468.11
525.81	315.97
525.98	407.25
526.16	503.22
526.33	400.23
526.50	376.83
526.67	362.78
526.84	381.51
527.01	430.66
527.18	395.55
527.36	374.49
527.53	409.59
527.70	458.74
527.87	472.79
528.04	465.77
528.21	395.55
528.38	369.80
528.55	404.91
528.72	418.96
528.89	418.96
529.07	421.30
529.24	433.00
529.41	381.51
529.58	297.25
529.75	402.57
529.92	423.64
530.09	411.93
530.26	447.04
530.43	449.38
530.60	472.79
530.77	435.34
530.94	397.89
531.11	372.15
531.28	365.12
531.46	456.40
531.63	435.34
531.80	461.09
531.97	409.59
532.14	344.06
532.31	418.96
532.48	484.49
532.65	428.32
532.82	365.12
532.99	425.98
533.16	482.15
533.33	477.47
533.50	425.98
533.67	463.43
533.84	433.00
534.01	468.11
534.18	379.17
534.35	416.62
534.52	468.11
534.69	458.74
534.86	395.55
535.03	379.17
535.20	409.59
535.37	514.92
535.54	404.91
535.71	484.49
535.88	395.55
536.05	477.47
536.22	425.98
536.38	365.12
536.55	411.93
536.72	463.43
536.89	428.32
537.06	479.81
537.23	390.87
537.40	433.00
537.57	402.57
537.74	512.58
537.91	433.00
538.08	428.32
538.25	484.49
538.42	400.23
538.59	447.04
538.75	395.55
538.92	404.91
539.09	376.83
539.26	425.98
539.43	451.72
539.60	440.02
539.77	519.60
539.94	421.30
540.11	442.36
540.28	393.21
540.44	444.70
540.61	337.04
540.78	416.62
540.95	400.23
541.12	454.06
541.29	435.34
541.46	402.57
541.62	440.02
541.79	407.25
541.96	425.98
542.13	442.36
542.30	383.85
542.47	435.34
542.63	393.21
542.80	423.64
542.97	379.17
543.14	397.89
543.31	369.80
543.48	402.57
543.64	465.77
543.81	433.00
543.98	409.59
544.15	348.74
544.32	367.46
544.48	393.21
544.65	437.68
544.82	411.93
544.99	421.30
545.16	461.09
545.32	477.47
545.49	362.78
545.66	416.62
545.83	433.00
546.00	404.91
546.16	390.87
546.33	379.17
546.50	339.38
546.67	416.62
546.83	407.25
547.00	358.10
547.17	407.25
547.34	477.47
547.50	416.62
547.67	372.15
547.84	383.85
548.00	416.62
548.17	381.51
548.34	397.89
548.51	395.55
548.67	397.89
548.84	390.87
549.01	449.38
549.18	402.57
549.34	353.42
549.51	409.59
549.68	379.17
549.84	393.21
550.01	482.15
550.18	484.49
550.34	489.17
550.51	416.62
550.68	456.40
550.84	416.62
551.01	430.66
551.18	418.96
551.34	339.38
551.51	383.85
551.68	472.79
551.84	374.49
552.01	416.62
552.18	358.10
552.34	416.62
552.51	404.91
552.68	397.89
552.84	414.27
553.01	416.62
553.18	414.27
553.34	458.74
553.51	416.62
553.67	451.72
553.84	418.96
554.01	397.89
554.17	451.72
554.34	461.09
554.51	414.27
554.67	404.91
554.84	390.87
555.00	491.51
555.17	498.53
555.33	465.77
555.50	470.45
555.67	397.89
555.83	351.08
556.00	407.25
556.16	575.77
556.33	470.45
556.50	425.98
556.66	308.95
556.83	404.91
556.99	454.06
557.16	442.36
557.32	372.15
557.49	442.36
557.65	404.91
557.82	379.17
557.98	414.27
558.15	402.57
558.32	374.49
558.48	421.30
558.65	479.81
558.81	456.40
558.98	423.64
559.14	447.04
559.31	386.19
559.47	456.40
559.64	376.83
559.80	428.32
559.97	393.21
560.13	423.64
560.30	334.70
560.46	411.93
560.63	437.68
560.79	418.96
560.96	362.78
561.12	411.93
561.29	381.51
561.45	421.30
561.61	397.89
561.78	472.79
561.94	430.66
562.11	341.72
562.27	379.17
562.44	367.46
562.60	435.34
562.77	437.68
562.93	472.79
563.10	428.32
563.26	395.55
563.42	454.06
563.59	454.06
563.75	444.70
563.92	440.02
564.08	503.22
564.24	423.64
564.41	496.19
564.57	425.98
564.74	435.34
564.90	383.85
565.07	402.57
565.23	386.19
565.39	374.49
565.56	444.70
565.72	496.19
565.88	414.27
566.05	423.64
566.21	447.04
566.38	386.19
566.54	435.34
566.70	402.57
566.87	433.00
567.03	468.11
567.19	421.30
567.36	383.85
567.52	444.70
567.68	365.12
567.85	472.79
568.01	407.25
568.17	374.49
568.34	386.19
568.50	458.74
568.66	454.06
568.83	571.09
568.99	425.98
569.15	475.13
569.32	444.70
569.48	440.02
569.64	393.21
569.81	360.44
569.97	409.59
570.13	411.93
570.30	421.30
570.46	510.24
570.62	393.21
570.78	461.09
570.95	411.93
571.11	458.74
571.27	461.09
571.43	465.77
571.60	430.66
571.76	416.62
571.92	423.64
572.09	367.46
572.25	395.55
572.41	344.06
572.57	421.30
572.74	402.57
572.90	433.00
573.06	411.93
573.22	418.96
573.38	449.38
573.55	435.34
573.71	416.62
573.87	496.19
574.03	407.25
574.20	367.46
574.36	425.98
574.52	433.00
574.68	365.12
574.84	414.27
575.01	425.98
575.17	437.68
575.33	386.19
575.49	367.46
575.65	444.70
575.82	489.17
575.98	472.79
576.14	383.85
576.30	437.68
576.46	423.64
576.62	344.06
576.79	447.04
576.95	531.30
577.11	362.78
577.27	386.19
577.43	397.89
577.59	498.53
577.75	386.19
577.92	379.17
578.08	315.97
578.24	388.53
578.40	437.68
578.56	435.34
578.72	454.06
578.88	365.12
579.04	416.62
579.21	400.23
579.37	421.30
579.53	437.68
579.69	369.80
579.85	411.93
580.01	433.00
580.17	465.77
580.33	397.89
580.49	416.62
580.65	449.38
580.82	435.34
580.98	381.51
581.14	449.38
581.30	437.68
581.46	404.91
581.62	447.04
581.78	465.77
581.94	475.13
582.10	437.68
582.26	355.76
582.42	411.93
582.58	372.15
582.74	414.27
582.90	428.32
583.06	440.02
583.22	414.27
583.38	421.30
583.54	454.06
583.70	456.40
583.86	402.57
584.02	411.93
584.18	390.87
584.34	395.55
584.50	437.68
584.66	435.34
584.82	421.30
584.98	400.23
585.14	449.38
585.30	437.68
585.46	435.34
585.62	395.55
585.78	461.09
585.94	421.30
586.10	365.12
586.26	454.06
586.42	491.51
586.58	400.23
586.74	376.83
586.90	367.46
587.06	421.30
587.22	430.66
587.38	358.10
587.54	348.74
587.70	423.64
587.86	411.93
588.02	437.68
588.18	461.09
588.34	475.13
588.49	428.32
588.65	461.09
588.81	400.23
588.97	388.53
589.13	383.85
589.29	458.74
589.45	451.72
589.61	372.15
589.77	400.23
589.93	381.51
590.08	367.46
590.24	435.34
590.40	397.89
590.56	423.64
590.72	465.77
590.88	433.00
591.04	472.79
591.20	407.25
591.35	444.70
591.51	383.85
591.67	402.57
591.83	423.64
591.99	435.34
592.15	425.98
592.31	451.72
592.46	416.62
592.62	447.04
592.78	386.19
592.94	376.83
593.10	496.19
593.26	458.74
593.41	423.64
593.57	468.11
593.73	475.13
593.89	496.19
594.05	458.74
594.20	397.89
594.36	428.32
594.52	409.59
594.68	400.23
594.84	390.87
594.99	437.68
595.15	381.51
595.31	365.12
595.47	472.79
595.62	402.57
595.78	379.17
595.94	409.59
596.10	444.70
596.25	428.32
596.41	475.13
596.57	425.98
596.73	407.25
596.88	444.70
597.04	393.21
597.20	404.91
597.36	381.51
597.51	484.49
597.67	440.02
597.83	409.59
597.99	374.49
598.14	430.66
598.30	456.40
598.46	421.30
598.61	379.17
598.77	346.40
598.93	355.76
599.09	456.40
599.24	365.12
599.40	414.27
599.56	444.70
599.71	428.32
599.87	355.76
600.03	374.49
600.18	397.89
600.34	472.79
600.50	425.98
600.65	414.27
600.81	390.87
600.97	416.62
601.12	418.96
601.28	465.77
601.44	372.15
601.59	397.89
601.75	397.89
601.91	397.89
602.06	442.36
602.22	395.55
602.37	376.83
602.53	514.92
602.69	393.21
602.84	402.57
603.00	428.32
603.16	416.62
603.31	411.93
603.47	428.32
603.62	400.23
603.78	353.42
603.94	440.02
604.09	465.77
604.25	411.93
604.40	386.19
604.56	477.47
604.71	442.36
604.87	404.91
605.03	437.68
605.18	440.02
605.34	416.62
605.49	447.04
605.65	411.93
605.80	393.21
605.96	430.66
606.12	383.85
606.27	454.06
606.43	435.34
606.58	489.17
606.74	395.55
606.89	433.00
607.05	428.32
607.20	365.12
607.36	454.06
607.51	416.62
607.67	440.02
607.82	376.83
607.98	362.78
608.13	344.06
608.29	482.15
608.44	472.79
608.60	442.36
608.75	428.32
608.91	428.32
609.06	430.66
609.22	400.23
609.37	353.42
609.53	449.38
609.68	404.91
609.84	395.55
609.99	447.04
610.15	411.93
