SpectraSuite Data File
++++++++++++++++++++++++++++++++++++
Date: Fri Oct 25 12:11:37 EDT 2013
User: price-jones
Dark Spectrum Present: No
Reference Spectrum Present: No
Number of Sampled Component Spectra: 1
Spectrometers: USB2+H05261
Integration Time (usec): 100000 (USB2+H05261)
Spectra Averaged: 1 (USB2+H05261)
Boxcar Smoothing: 0 (USB2+H05261)
Correct for Electrical Dark: No (USB2+H05261)
Strobe/Lamp Enabled: No (USB2+H05261)
Correct for Detector Non-linearity: No (USB2+H05261)
Correct for Stray Light: No (USB2+H05261)
Number of Pixels in Processed Spectrum: 2048
>>>>>Begin Processed Spectral Data<<<<<
365.73	304.27
365.92	304.27
366.12	304.27
366.32	231.71
366.52	231.71
366.72	252.78
366.91	238.73
367.11	220.01
367.31	262.14
367.51	210.65
367.70	266.82
367.90	259.80
368.10	208.31
368.30	229.37
368.49	252.78
368.69	203.63
368.89	362.78
369.09	306.61
369.28	285.55
369.48	259.80
369.68	273.84
369.87	241.08
370.07	355.76
370.27	400.23
370.47	292.57
370.66	383.85
370.86	379.17
371.06	369.80
371.25	355.76
371.45	348.74
371.65	386.19
371.84	337.04
372.04	416.62
372.24	411.93
372.44	390.87
372.63	437.68
372.83	472.79
373.03	395.55
373.22	367.46
373.42	358.10
373.62	425.98
373.81	332.36
374.01	479.81
374.21	421.30
374.40	409.59
374.60	449.38
374.79	337.04
374.99	425.98
375.19	430.66
375.38	461.09
375.58	404.91
375.78	479.81
375.97	489.17
376.17	463.43
376.37	407.25
376.56	418.96
376.76	355.76
376.95	442.36
377.15	351.08
377.35	465.77
377.54	400.23
377.74	388.53
377.93	402.57
378.13	322.99
378.33	346.40
378.52	428.32
378.72	383.85
378.91	355.76
379.11	421.30
379.31	379.17
379.50	440.02
379.70	376.83
379.89	367.46
380.09	325.33
380.28	341.72
380.48	374.49
380.68	409.59
380.87	367.46
381.07	435.34
381.26	472.79
381.46	383.85
381.65	341.72
381.85	421.30
382.04	393.21
382.24	463.43
382.43	421.30
382.63	440.02
382.83	416.62
383.02	365.12
383.22	348.74
383.41	353.42
383.61	402.57
383.80	465.77
384.00	437.68
384.19	388.53
384.39	360.44
384.58	379.17
384.78	451.72
384.97	411.93
385.17	318.31
385.36	423.64
385.56	442.36
385.75	442.36
385.95	402.57
386.14	402.57
386.34	414.27
386.53	416.62
386.72	421.30
386.92	435.34
387.11	470.45
387.31	449.38
387.50	430.66
387.70	379.17
387.89	430.66
388.09	409.59
388.28	435.34
388.48	444.70
388.67	411.93
388.86	376.83
389.06	479.81
389.25	404.91
389.45	346.40
389.64	369.80
389.84	397.89
390.03	409.59
390.22	381.51
390.42	388.53
390.61	346.40
390.81	367.46
391.00	418.96
391.19	456.40
391.39	461.09
391.58	407.25
391.78	365.12
391.97	437.68
392.16	383.85
392.36	454.06
392.55	442.36
392.75	337.04
392.94	407.25
393.13	442.36
393.33	353.42
393.52	411.93
393.71	442.36
393.91	435.34
394.10	411.93
394.29	362.78
394.49	416.62
394.68	421.30
394.88	397.89
395.07	472.79
395.26	339.38
395.46	386.19
395.65	409.59
395.84	517.26
396.04	454.06
396.23	372.15
396.42	423.64
396.62	430.66
396.81	397.89
397.00	416.62
397.19	407.25
397.39	334.70
397.58	449.38
397.77	442.36
397.97	388.53
398.16	393.21
398.35	400.23
398.55	379.17
398.74	411.93
398.93	365.12
399.12	313.63
399.32	404.91
399.51	411.93
399.70	421.30
399.90	433.00
400.09	425.98
400.28	496.19
400.47	376.83
400.67	456.40
400.86	461.09
401.05	379.17
401.24	440.02
401.44	447.04
401.63	367.46
401.82	435.34
402.01	472.79
402.21	383.85
402.40	381.51
402.59	449.38
402.78	414.27
402.97	461.09
403.17	428.32
403.36	428.32
403.55	468.11
403.74	325.33
403.93	355.76
404.13	465.77
404.32	395.55
404.51	367.46
404.70	397.89
404.89	444.70
405.09	381.51
405.28	402.57
405.47	383.85
405.66	402.57
405.85	430.66
406.05	386.19
406.24	435.34
406.43	444.70
406.62	360.44
406.81	367.46
407.00	381.51
407.20	383.85
407.39	400.23
407.58	407.25
407.77	339.38
407.96	423.64
408.15	451.72
408.34	500.87
408.54	393.21
408.73	404.91
408.92	402.57
409.11	449.38
409.30	489.17
409.49	332.36
409.68	456.40
409.87	425.98
410.07	404.91
410.26	472.79
410.45	449.38
410.64	425.98
410.83	407.25
411.02	379.17
411.21	404.91
411.40	365.12
411.59	386.19
411.78	332.36
411.98	463.43
412.17	418.96
412.36	437.68
412.55	451.72
412.74	400.23
412.93	374.49
413.12	421.30
413.31	456.40
413.50	418.96
413.69	404.91
413.88	416.62
414.07	444.70
414.26	428.32
414.45	418.96
414.64	414.27
414.83	409.59
415.02	397.89
415.22	493.85
415.41	421.30
415.60	365.12
415.79	383.85
415.98	369.80
416.17	402.57
416.36	402.57
416.55	388.53
416.74	348.74
416.93	383.85
417.12	421.30
417.31	334.70
417.50	444.70
417.69	496.19
417.88	475.13
418.07	397.89
418.26	418.96
418.45	395.55
418.64	409.59
418.83	395.55
419.02	435.34
419.21	404.91
419.39	390.87
419.58	475.13
419.77	320.65
419.96	425.98
420.15	404.91
420.34	395.55
420.53	454.06
420.72	428.32
420.91	400.23
421.10	425.98
421.29	430.66
421.48	433.00
421.67	442.36
421.86	362.78
422.05	407.25
422.24	362.78
422.43	393.21
422.61	365.12
422.80	411.93
422.99	390.87
423.18	414.27
423.37	461.09
423.56	390.87
423.75	458.74
423.94	421.30
424.13	454.06
424.32	402.57
424.50	388.53
424.69	411.93
424.88	449.38
425.07	379.17
425.26	395.55
425.45	454.06
425.64	386.19
425.83	407.25
426.01	479.81
426.20	470.45
426.39	393.21
426.58	372.15
426.77	411.93
426.96	468.11
427.15	369.80
427.33	423.64
427.52	449.38
427.71	395.55
427.90	393.21
428.09	390.87
428.28	428.32
428.46	339.38
428.65	411.93
428.84	470.45
429.03	503.22
429.22	442.36
429.40	402.57
429.59	318.31
429.78	409.59
429.97	372.15
430.16	470.45
430.34	337.04
430.53	351.08
430.72	379.17
430.91	461.09
431.10	397.89
431.28	447.04
431.47	458.74
431.66	365.12
431.85	475.13
432.03	458.74
432.22	493.85
432.41	461.09
432.60	442.36
432.79	388.53
432.97	454.06
433.16	411.93
433.35	404.91
433.54	411.93
433.72	482.15
433.91	484.49
434.10	430.66
434.28	407.25
434.47	454.06
434.66	421.30
434.85	454.06
435.03	379.17
435.22	416.62
435.41	463.43
435.59	388.53
435.78	383.85
435.97	423.64
436.16	437.68
436.34	411.93
436.53	402.57
436.72	486.83
436.90	425.98
437.09	475.13
437.28	521.94
437.46	517.26
437.65	510.24
437.84	442.36
438.02	430.66
438.21	418.96
438.40	334.70
438.58	402.57
438.77	442.36
438.96	435.34
439.14	458.74
439.33	425.98
439.52	454.06
439.70	379.17
439.89	418.96
440.08	489.17
440.26	414.27
440.45	397.89
440.63	395.55
440.82	379.17
441.01	383.85
441.19	346.40
441.38	402.57
441.57	430.66
441.75	402.57
441.94	416.62
442.12	372.15
442.31	447.04
442.50	451.72
442.68	496.19
442.87	468.11
443.05	367.46
443.24	388.53
443.43	404.91
443.61	383.85
443.80	414.27
443.98	428.32
444.17	407.25
444.35	458.74
444.54	402.57
444.73	315.97
444.91	458.74
445.10	472.79
445.28	402.57
445.47	414.27
445.65	348.74
445.84	386.19
446.02	411.93
446.21	411.93
446.39	397.89
446.58	409.59
446.77	351.08
446.95	430.66
447.14	528.96
447.32	461.09
447.51	376.83
447.69	416.62
447.88	381.51
448.06	395.55
448.25	465.77
448.43	395.55
448.62	449.38
448.80	433.00
448.99	486.83
449.17	423.64
449.36	437.68
449.54	409.59
449.73	414.27
449.91	421.30
450.10	355.76
450.28	418.96
450.46	454.06
450.65	400.23
450.83	433.00
451.02	327.68
451.20	416.62
451.39	379.17
451.57	444.70
451.76	425.98
451.94	456.40
452.13	449.38
452.31	456.40
452.49	430.66
452.68	421.30
452.86	409.59
453.05	496.19
453.23	428.32
453.42	395.55
453.60	486.83
453.78	463.43
453.97	458.74
454.15	425.98
454.34	393.21
454.52	369.80
454.70	362.78
454.89	386.19
455.07	458.74
455.26	381.51
455.44	407.25
455.62	395.55
455.81	409.59
455.99	489.17
456.17	409.59
456.36	379.17
456.54	402.57
456.73	425.98
456.91	421.30
457.09	397.89
457.28	425.98
457.46	355.76
457.64	393.21
457.83	458.74
458.01	404.91
458.19	442.36
458.38	465.77
458.56	411.93
458.74	365.12
458.93	418.96
459.11	414.27
459.29	449.38
459.48	374.49
459.66	496.19
459.84	395.55
460.03	458.74
460.21	493.85
460.39	402.57
460.57	479.81
460.76	447.04
460.94	425.98
461.12	472.79
461.31	404.91
461.49	484.49
461.67	425.98
461.85	449.38
462.04	404.91
462.22	763.01
462.40	404.91
462.59	423.64
462.77	428.32
462.95	425.98
463.13	477.47
463.32	451.72
463.50	402.57
463.68	454.06
463.86	402.57
464.05	407.25
464.23	402.57
464.41	374.49
464.59	437.68
464.78	437.68
464.96	395.55
465.14	433.00
465.32	465.77
465.50	414.27
465.69	444.70
465.87	411.93
466.05	458.74
466.23	433.00
466.41	456.40
466.60	423.64
466.78	383.85
466.96	435.34
467.14	409.59
467.32	433.00
467.51	414.27
467.69	428.32
467.87	400.23
468.05	500.87
468.23	451.72
468.41	514.92
468.60	461.09
468.78	428.32
468.96	447.04
469.14	409.59
469.32	423.64
469.50	435.34
469.69	440.02
469.87	435.34
470.05	423.64
470.23	454.06
470.41	358.10
470.59	360.44
470.77	428.32
470.95	339.38
471.14	447.04
471.32	397.89
471.50	409.59
471.68	409.59
471.86	433.00
472.04	409.59
472.22	418.96
472.40	390.87
472.58	433.00
472.77	390.87
472.95	397.89
473.13	360.44
473.31	451.72
473.49	360.44
473.67	351.08
473.85	402.57
474.03	444.70
474.21	395.55
474.39	425.98
474.57	482.15
474.75	402.57
474.93	407.25
475.12	418.96
475.30	388.53
475.48	325.33
475.66	409.59
475.84	482.15
476.02	444.70
476.20	507.90
476.38	346.40
476.56	477.47
476.74	447.04
476.92	374.49
477.10	411.93
477.28	496.19
477.46	355.76
477.64	393.21
477.82	447.04
478.00	447.04
478.18	477.47
478.36	423.64
478.54	400.23
478.72	404.91
478.90	411.93
479.08	463.43
479.26	477.47
479.44	475.13
479.62	351.08
479.80	381.51
479.98	421.30
480.16	369.80
480.34	461.09
480.52	449.38
480.70	451.72
480.88	402.57
481.06	416.62
481.24	360.44
481.41	442.36
481.59	393.21
481.77	383.85
481.95	411.93
482.13	447.04
482.31	409.59
482.49	397.89
482.67	374.49
482.85	437.68
483.03	421.30
483.21	447.04
483.39	414.27
483.57	409.59
483.74	479.81
483.92	365.12
484.10	334.70
484.28	414.27
484.46	395.55
484.64	454.06
484.82	437.68
485.00	404.91
485.18	458.74
485.35	414.27
485.53	325.33
485.71	463.43
485.89	414.27
486.07	411.93
486.25	440.02
486.43	454.06
486.61	416.62
486.78	404.91
486.96	386.19
487.14	379.17
487.32	411.93
487.50	418.96
487.68	461.09
487.85	390.87
488.03	437.68
488.21	433.00
488.39	381.51
488.57	421.30
488.75	423.64
488.92	500.87
489.10	414.27
489.28	421.30
489.46	369.80
489.64	421.30
489.81	365.12
489.99	414.27
490.17	428.32
490.35	442.36
490.53	442.36
490.70	418.96
490.88	423.64
491.06	416.62
491.24	365.12
491.41	395.55
491.59	360.44
491.77	411.93
491.95	465.77
492.13	433.00
492.30	433.00
492.48	409.59
492.66	381.51
492.84	367.46
493.01	407.25
493.19	374.49
493.37	395.55
493.54	407.25
493.72	374.49
493.90	367.46
494.08	418.96
494.25	447.04
494.43	407.25
494.61	449.38
494.79	425.98
494.96	456.40
495.14	414.27
495.32	425.98
495.49	479.81
495.67	395.55
495.85	395.55
496.02	433.00
496.20	468.11
496.38	437.68
496.55	468.11
496.73	362.78
496.91	433.00
497.09	437.68
497.26	418.96
497.44	369.80
497.62	489.17
497.79	433.00
497.97	507.90
498.14	428.32
498.32	461.09
498.50	372.15
498.67	407.25
498.85	475.13
499.03	416.62
499.20	386.19
499.38	332.36
499.56	404.91
499.73	451.72
499.91	503.22
500.08	458.74
500.26	416.62
500.44	404.91
500.61	383.85
500.79	386.19
500.97	484.49
501.14	376.83
501.32	414.27
501.49	442.36
501.67	418.96
501.84	437.68
502.02	383.85
502.20	414.27
502.37	404.91
502.55	362.78
502.72	423.64
502.90	442.36
503.07	409.59
503.25	447.04
503.43	430.66
503.60	416.62
503.78	421.30
503.95	458.74
504.13	341.72
504.30	404.91
504.48	418.96
504.65	505.56
504.83	444.70
505.01	418.96
505.18	395.55
505.36	379.17
505.53	395.55
505.71	397.89
505.88	479.81
506.06	435.34
506.23	430.66
506.41	411.93
506.58	449.38
506.76	407.25
506.93	461.09
507.11	433.00
507.28	383.85
507.46	435.34
507.63	437.68
507.81	362.78
507.98	402.57
508.16	351.08
508.33	400.23
508.50	428.32
508.68	449.38
508.85	400.23
509.03	411.93
509.20	416.62
509.38	374.49
509.55	491.51
509.73	421.30
509.90	468.11
510.08	411.93
510.25	407.25
510.42	381.51
510.60	402.57
510.77	440.02
510.95	418.96
511.12	411.93
511.30	430.66
511.47	472.79
511.64	463.43
511.82	456.40
511.99	472.79
512.17	306.61
512.34	437.68
512.51	433.00
512.69	425.98
512.86	400.23
513.04	397.89
513.21	351.08
513.38	376.83
513.56	376.83
513.73	330.02
513.90	353.42
514.08	287.89
514.25	421.30
514.43	447.04
514.60	353.42
514.77	433.00
514.95	444.70
515.12	400.23
515.29	421.30
515.47	430.66
515.64	430.66
515.81	386.19
515.99	416.62
516.16	423.64
516.33	449.38
516.51	440.02
516.68	433.00
516.85	440.02
517.03	470.45
517.20	444.70
517.37	470.45
517.54	409.59
517.72	388.53
517.89	397.89
518.06	423.64
518.24	411.93
518.41	470.45
518.58	433.00
518.75	458.74
518.93	444.70
519.10	360.44
519.27	367.46
519.45	437.68
519.62	409.59
519.79	470.45
519.96	337.04
520.14	505.56
520.31	458.74
520.48	376.83
520.65	362.78
520.83	444.70
521.00	482.15
521.17	400.23
521.34	397.89
521.52	397.89
521.69	442.36
521.86	402.57
522.03	381.51
522.20	383.85
522.38	383.85
522.55	395.55
522.72	451.72
522.89	442.36
523.07	461.09
523.24	418.96
523.41	414.27
523.58	411.93
523.75	430.66
523.92	400.23
524.10	374.49
524.27	400.23
524.44	451.72
524.61	472.79
524.78	430.66
524.96	463.43
525.13	461.09
525.30	423.64
525.47	386.19
525.64	451.72
525.81	510.24
525.98	451.72
526.16	421.30
526.33	393.21
526.50	290.23
526.67	461.09
526.84	440.02
527.01	386.19
527.18	430.66
527.36	512.58
527.53	383.85
527.70	456.40
527.87	404.91
528.04	440.02
528.21	376.83
528.38	414.27
528.55	341.72
528.72	444.70
528.89	498.53
529.07	496.19
529.24	402.57
529.41	468.11
529.58	423.64
529.75	421.30
529.92	397.89
530.09	425.98
530.26	442.36
530.43	388.53
530.60	428.32
530.77	362.78
530.94	489.17
531.11	449.38
531.28	411.93
531.46	353.42
531.63	386.19
531.80	404.91
531.97	383.85
532.14	388.53
532.31	388.53
532.48	407.25
532.65	411.93
532.82	435.34
532.99	447.04
533.16	463.43
533.33	458.74
533.50	451.72
533.67	425.98
533.84	493.85
534.01	421.30
534.18	435.34
534.35	458.74
534.52	404.91
534.69	402.57
534.86	416.62
535.03	423.64
535.20	407.25
535.37	383.85
535.54	369.80
535.71	475.13
535.88	442.36
536.05	486.83
536.22	421.30
536.38	386.19
536.55	372.15
536.72	463.43
536.89	449.38
537.06	418.96
537.23	407.25
537.40	404.91
537.57	428.32
537.74	440.02
537.91	449.38
538.08	482.15
538.25	507.90
538.42	428.32
538.59	395.55
538.75	362.78
538.92	367.46
539.09	376.83
539.26	428.32
539.43	456.40
539.60	374.49
539.77	409.59
539.94	404.91
540.11	505.56
540.28	507.90
540.44	425.98
540.61	451.72
540.78	402.57
540.95	383.85
541.12	447.04
541.29	500.87
541.46	414.27
541.62	428.32
541.79	489.17
541.96	390.87
542.13	374.49
542.30	344.06
542.47	493.85
542.63	395.55
542.80	383.85
542.97	451.72
543.14	400.23
543.31	435.34
543.48	437.68
543.64	400.23
543.81	346.40
543.98	348.74
544.15	355.76
544.32	383.85
544.48	470.45
544.65	407.25
544.82	451.72
544.99	330.02
545.16	479.81
545.32	358.10
545.49	486.83
545.66	435.34
545.83	470.45
546.00	414.27
546.16	409.59
546.33	425.98
546.50	437.68
546.67	430.66
546.83	430.66
547.00	430.66
547.17	379.17
547.34	484.49
547.50	425.98
547.67	397.89
547.84	407.25
548.00	484.49
548.17	402.57
548.34	421.30
548.51	451.72
548.67	411.93
548.84	393.21
549.01	411.93
549.18	397.89
549.34	440.02
549.51	386.19
549.68	425.98
549.84	437.68
550.01	362.78
550.18	489.17
550.34	454.06
550.51	421.30
550.68	470.45
550.84	421.30
551.01	402.57
551.18	430.66
551.34	433.00
551.51	393.21
551.68	402.57
551.84	386.19
552.01	454.06
552.18	383.85
552.34	440.02
552.51	395.55
552.68	409.59
552.84	421.30
553.01	400.23
553.18	442.36
553.34	470.45
553.51	454.06
553.67	400.23
553.84	395.55
554.01	454.06
554.17	444.70
554.34	428.32
554.51	472.79
554.67	416.62
554.84	393.21
555.00	348.74
555.17	411.93
555.33	465.77
555.50	440.02
555.67	428.32
555.83	367.46
556.00	447.04
556.16	533.64
556.33	477.47
556.50	402.57
556.66	404.91
556.83	456.40
556.99	374.49
557.16	393.21
557.32	397.89
557.49	409.59
557.65	435.34
557.82	395.55
557.98	421.30
558.15	397.89
558.32	428.32
558.48	433.00
558.65	395.55
558.81	437.68
558.98	353.42
559.14	402.57
559.31	456.40
559.47	421.30
559.64	468.11
559.80	498.53
559.97	315.97
560.13	484.49
560.30	449.38
560.46	355.76
560.63	351.08
560.79	435.34
560.96	458.74
561.12	442.36
561.29	472.79
561.45	386.19
561.61	414.27
561.78	425.98
561.94	388.53
562.11	428.32
562.27	414.27
562.44	358.10
562.60	393.21
562.77	348.74
562.93	400.23
563.10	435.34
563.26	437.68
563.42	390.87
563.59	327.68
563.75	433.00
563.92	416.62
564.08	402.57
564.24	456.40
564.41	454.06
564.57	440.02
564.74	447.04
564.90	449.38
565.07	386.19
565.23	440.02
565.39	262.14
565.56	433.00
565.72	369.80
565.88	386.19
566.05	400.23
566.21	414.27
566.38	409.59
566.54	447.04
566.70	447.04
566.87	416.62
567.03	390.87
567.19	430.66
567.36	449.38
567.52	348.74
567.68	433.00
567.85	430.66
568.01	404.91
568.17	414.27
568.34	411.93
568.50	447.04
568.66	402.57
568.83	512.58
568.99	416.62
569.15	482.15
569.32	479.81
569.48	418.96
569.64	341.72
569.81	358.10
569.97	428.32
570.13	400.23
570.30	395.55
570.46	425.98
570.62	409.59
570.78	433.00
570.95	425.98
571.11	444.70
571.27	451.72
571.43	423.64
571.60	463.43
571.76	435.34
571.92	435.34
572.09	379.17
572.25	416.62
572.41	414.27
572.57	402.57
572.74	404.91
572.90	414.27
573.06	348.74
573.22	475.13
573.38	397.89
573.55	381.51
573.71	402.57
573.87	496.19
574.03	395.55
574.20	395.55
574.36	400.23
574.52	433.00
574.68	381.51
574.84	430.66
575.01	463.43
575.17	444.70
575.33	423.64
575.49	454.06
575.65	477.47
575.82	484.49
575.98	339.38
576.14	463.43
576.30	440.02
576.46	395.55
576.62	423.64
576.79	430.66
576.95	493.85
577.11	430.66
577.27	449.38
577.43	528.96
577.59	489.17
577.75	402.57
577.92	409.59
578.08	470.45
578.24	414.27
578.40	461.09
578.56	418.96
578.72	505.56
578.88	458.74
579.04	440.02
579.21	376.83
579.37	416.62
579.53	458.74
579.69	402.57
579.85	430.66
580.01	411.93
580.17	376.83
580.33	421.30
580.49	379.17
580.65	395.55
580.82	411.93
580.98	423.64
581.14	425.98
581.30	465.77
581.46	440.02
581.62	425.98
581.78	451.72
581.94	456.40
582.10	440.02
582.26	388.53
582.42	388.53
582.58	437.68
582.74	362.78
582.90	444.70
583.06	421.30
583.22	390.87
583.38	425.98
583.54	418.96
583.70	465.77
583.86	390.87
584.02	411.93
584.18	484.49
584.34	337.04
584.50	362.78
584.66	355.76
584.82	465.77
584.98	425.98
585.14	397.89
585.30	423.64
585.46	449.38
585.62	358.10
585.78	447.04
585.94	477.47
586.10	418.96
586.26	332.36
586.42	442.36
586.58	451.72
586.74	395.55
586.90	456.40
587.06	402.57
587.22	386.19
587.38	355.76
587.54	411.93
587.70	421.30
587.86	477.47
588.02	449.38
588.18	397.89
588.34	440.02
588.49	418.96
588.65	475.13
588.81	376.83
588.97	435.34
589.13	470.45
589.29	449.38
589.45	425.98
589.61	386.19
589.77	386.19
589.93	461.09
590.08	404.91
590.24	456.40
590.40	418.96
590.56	442.36
590.72	397.89
590.88	430.66
591.04	454.06
591.20	418.96
591.35	500.87
591.51	376.83
591.67	463.43
591.83	451.72
591.99	433.00
592.15	416.62
592.31	365.12
592.46	505.56
592.62	433.00
592.78	367.46
592.94	447.04
593.10	470.45
593.26	440.02
593.41	416.62
593.57	411.93
593.73	444.70
593.89	404.91
594.05	407.25
594.20	463.43
594.36	414.27
594.52	491.51
594.68	299.59
594.84	409.59
594.99	470.45
595.15	472.79
595.31	381.51
595.47	393.21
595.62	381.51
595.78	491.51
595.94	327.68
596.10	428.32
596.25	421.30
596.41	395.55
596.57	416.62
596.73	458.74
596.88	423.64
597.04	440.02
597.20	447.04
597.36	416.62
597.51	470.45
597.67	411.93
597.83	428.32
597.99	404.91
598.14	486.83
598.30	528.96
598.46	388.53
598.61	449.38
598.77	397.89
598.93	367.46
599.09	430.66
599.24	362.78
599.40	472.79
599.56	372.15
599.71	386.19
599.87	402.57
600.03	418.96
600.18	435.34
600.34	451.72
600.50	402.57
600.65	407.25
600.81	463.43
600.97	416.62
601.12	430.66
601.28	400.23
601.44	390.87
601.59	386.19
601.75	465.77
601.91	397.89
602.06	411.93
602.22	425.98
602.37	379.17
602.53	369.80
602.69	388.53
602.84	351.08
603.00	393.21
603.16	409.59
603.31	444.70
603.47	458.74
603.62	428.32
603.78	437.68
603.94	400.23
604.09	428.32
604.25	383.85
604.40	440.02
604.56	423.64
604.71	500.87
604.87	425.98
605.03	477.47
605.18	404.91
605.34	390.87
605.49	444.70
605.65	414.27
605.80	393.21
605.96	400.23
606.12	437.68
606.27	477.47
606.43	454.06
606.58	449.38
606.74	425.98
606.89	393.21
607.05	428.32
607.20	428.32
607.36	437.68
607.51	369.80
607.67	421.30
607.82	376.83
607.98	484.49
608.13	430.66
608.29	484.49
608.44	435.34
608.60	440.02
608.75	430.66
608.91	386.19
609.06	437.68
609.22	407.25
609.37	379.17
609.53	400.23
609.68	397.89
609.84	458.74
609.99	362.78
610.15	388.53
