SpectraSuite Data File
++++++++++++++++++++++++++++++++++++
Date: Fri Oct 25 12:10:17 EDT 2013
User: price-jones
Dark Spectrum Present: No
Reference Spectrum Present: No
Number of Sampled Component Spectra: 1
Spectrometers: USB2+H05261
Integration Time (usec): 100000 (USB2+H05261)
Spectra Averaged: 1 (USB2+H05261)
Boxcar Smoothing: 0 (USB2+H05261)
Correct for Electrical Dark: No (USB2+H05261)
Strobe/Lamp Enabled: No (USB2+H05261)
Correct for Detector Non-linearity: No (USB2+H05261)
Correct for Stray Light: No (USB2+H05261)
Number of Pixels in Processed Spectrum: 2048
>>>>>Begin Processed Spectral Data<<<<<
365.73	330.02
365.92	330.02
366.12	330.02
366.32	280.86
366.52	276.18
366.72	212.99
366.91	217.67
367.11	220.01
367.31	191.92
367.51	224.69
367.70	191.92
367.90	255.12
368.10	220.01
368.30	308.95
368.49	212.99
368.69	311.29
368.89	191.92
369.09	220.01
369.28	212.99
369.48	273.84
369.68	243.42
369.87	379.17
370.07	327.68
370.27	339.38
370.47	341.72
370.66	273.84
370.86	341.72
371.06	337.04
371.25	411.93
371.45	374.49
371.65	402.57
371.84	402.57
372.04	315.97
372.24	327.68
372.44	386.19
372.63	358.10
372.83	409.59
373.03	400.23
373.22	416.62
373.42	388.53
373.62	374.49
373.81	414.27
374.01	421.30
374.21	344.06
374.40	479.81
374.60	400.23
374.79	425.98
374.99	437.68
375.19	423.64
375.38	433.00
375.58	433.00
375.78	411.93
375.97	442.36
376.17	440.02
376.37	428.32
376.56	353.42
376.76	404.91
376.95	414.27
377.15	425.98
377.35	353.42
377.54	381.51
377.74	327.68
377.93	390.87
378.13	397.89
378.33	404.91
378.52	379.17
378.72	458.74
378.91	433.00
379.11	332.36
379.31	428.32
379.50	421.30
379.70	433.00
379.89	381.51
380.09	351.08
380.28	433.00
380.48	437.68
380.68	332.36
380.87	397.89
381.07	468.11
381.26	449.38
381.46	388.53
381.65	409.59
381.85	414.27
382.04	418.96
382.24	397.89
382.43	430.66
382.63	344.06
382.83	458.74
383.02	395.55
383.22	400.23
383.41	315.97
383.61	397.89
383.80	404.91
384.00	442.36
384.19	395.55
384.39	369.80
384.58	376.83
384.78	400.23
384.97	425.98
385.17	390.87
385.36	337.04
385.56	393.21
385.75	374.49
385.95	383.85
386.14	437.68
386.34	383.85
386.53	472.79
386.72	449.38
386.92	423.64
387.11	369.80
387.31	416.62
387.50	318.31
387.70	372.15
387.89	475.13
388.09	325.33
388.28	360.44
388.48	353.42
388.67	423.64
388.86	374.49
389.06	456.40
389.25	360.44
389.45	437.68
389.64	430.66
389.84	433.00
390.03	404.91
390.22	381.51
390.42	379.17
390.61	430.66
390.81	355.76
391.00	388.53
391.19	397.89
391.39	418.96
391.58	355.76
391.78	458.74
391.97	362.78
392.16	348.74
392.36	376.83
392.55	425.98
392.75	341.72
392.94	447.04
393.13	395.55
393.33	411.93
393.52	423.64
393.71	449.38
393.91	470.45
394.10	355.76
394.29	407.25
394.49	381.51
394.68	407.25
394.88	395.55
395.07	407.25
395.26	442.36
395.46	444.70
395.65	402.57
395.84	407.25
396.04	454.06
396.23	435.34
396.42	397.89
396.62	461.09
396.81	477.47
397.00	374.49
397.19	477.47
397.39	475.13
397.58	470.45
397.77	440.02
397.97	423.64
398.16	383.85
398.35	383.85
398.55	416.62
398.74	428.32
398.93	411.93
399.12	381.51
399.32	425.98
399.51	447.04
399.70	346.40
399.90	458.74
400.09	435.34
400.28	440.02
400.47	447.04
400.67	416.62
400.86	379.17
401.05	411.93
401.24	475.13
401.44	397.89
401.63	470.45
401.82	407.25
402.01	383.85
402.21	407.25
402.40	428.32
402.59	332.36
402.78	376.83
402.97	390.87
403.17	430.66
403.36	395.55
403.55	351.08
403.74	386.19
403.93	444.70
404.13	435.34
404.32	381.51
404.51	407.25
404.70	362.78
404.89	447.04
405.09	454.06
405.28	442.36
405.47	327.68
405.66	407.25
405.85	477.47
406.05	447.04
406.24	379.17
406.43	400.23
406.62	400.23
406.81	383.85
407.00	369.80
407.20	409.59
407.39	440.02
407.58	416.62
407.77	404.91
407.96	475.13
408.15	407.25
408.34	411.93
408.54	381.51
408.73	440.02
408.92	369.80
409.11	421.30
409.30	458.74
409.49	428.32
409.68	418.96
409.87	421.30
410.07	358.10
410.26	416.62
410.45	353.42
410.64	390.87
410.83	461.09
411.02	404.91
411.21	374.49
411.40	416.62
411.59	414.27
411.78	423.64
411.98	369.80
412.17	404.91
412.36	365.12
412.55	395.55
412.74	402.57
412.93	468.11
413.12	358.10
413.31	360.44
413.50	430.66
413.69	440.02
413.88	407.25
414.07	423.64
414.26	376.83
414.45	402.57
414.64	297.25
414.83	390.87
415.02	383.85
415.22	442.36
415.41	477.47
415.60	334.70
415.79	470.45
415.98	433.00
416.17	402.57
416.36	374.49
416.55	360.44
416.74	393.21
416.93	423.64
417.12	463.43
417.31	407.25
417.50	442.36
417.69	444.70
417.88	421.30
418.07	369.80
418.26	318.31
418.45	465.77
418.64	369.80
418.83	388.53
419.02	400.23
419.21	311.29
419.39	353.42
419.58	386.19
419.77	433.00
419.96	510.24
420.15	372.15
420.34	330.02
420.53	442.36
420.72	395.55
420.91	425.98
421.10	383.85
421.29	416.62
421.48	379.17
421.67	414.27
421.86	440.02
422.05	397.89
422.24	404.91
422.43	397.89
422.61	376.83
422.80	393.21
422.99	341.72
423.18	360.44
423.37	458.74
423.56	451.72
423.75	376.83
423.94	386.19
424.13	435.34
424.32	379.17
424.50	411.93
424.69	411.93
424.88	346.40
425.07	379.17
425.26	348.74
425.45	414.27
425.64	414.27
425.83	400.23
426.01	430.66
426.20	360.44
426.39	397.89
426.58	358.10
426.77	395.55
426.96	353.42
427.15	425.98
427.33	421.30
427.52	407.25
427.71	393.21
427.90	376.83
428.09	402.57
428.28	458.74
428.46	386.19
428.65	395.55
428.84	379.17
429.03	468.11
429.22	351.08
429.40	493.85
429.59	393.21
429.78	430.66
429.97	390.87
430.16	489.17
430.34	402.57
430.53	395.55
430.72	475.13
430.91	374.49
431.10	397.89
431.28	376.83
431.47	454.06
431.66	451.72
431.85	423.64
432.03	423.64
432.22	514.92
432.41	442.36
432.60	409.59
432.79	425.98
432.97	334.70
433.16	447.04
433.35	369.80
433.54	383.85
433.72	477.47
433.91	390.87
434.10	423.64
434.28	440.02
434.47	451.72
434.66	372.15
434.85	440.02
435.03	390.87
435.22	461.09
435.41	477.47
435.59	444.70
435.78	472.79
435.97	477.47
436.16	435.34
436.34	397.89
436.53	425.98
436.72	411.93
436.90	407.25
437.09	372.15
437.28	414.27
437.46	414.27
437.65	386.19
437.84	402.57
438.02	416.62
438.21	472.79
438.40	355.76
438.58	400.23
438.77	407.25
438.96	393.21
439.14	456.40
439.33	437.68
439.52	313.63
439.70	414.27
439.89	430.66
440.08	358.10
440.26	383.85
440.45	386.19
440.63	390.87
440.82	451.72
441.01	461.09
441.19	404.91
441.38	372.15
441.57	374.49
441.75	423.64
441.94	383.85
442.12	365.12
442.31	372.15
442.50	395.55
442.68	416.62
442.87	411.93
443.05	397.89
443.24	376.83
443.43	388.53
443.61	517.26
443.80	437.68
443.98	344.06
444.17	402.57
444.35	404.91
444.54	421.30
444.73	414.27
444.91	440.02
445.10	430.66
445.28	383.85
445.47	395.55
445.65	360.44
445.84	369.80
446.02	330.02
446.21	355.76
446.39	423.64
446.58	341.72
446.77	404.91
446.95	353.42
447.14	456.40
447.32	461.09
447.51	416.62
447.69	374.49
447.88	397.89
448.06	433.00
448.25	414.27
448.43	388.53
448.62	339.38
448.80	433.00
448.99	367.46
449.17	433.00
449.36	477.47
449.54	477.47
449.73	383.85
449.91	437.68
450.10	376.83
450.28	400.23
450.46	402.57
450.65	472.79
450.83	428.32
451.02	440.02
451.20	346.40
451.39	437.68
451.57	418.96
451.76	500.87
451.94	395.55
452.13	440.02
452.31	369.80
452.49	437.68
452.68	411.93
452.86	465.77
453.05	482.15
453.23	425.98
453.42	379.17
453.60	475.13
453.78	435.34
453.97	402.57
454.15	465.77
454.34	395.55
454.52	416.62
454.70	524.28
454.89	346.40
455.07	416.62
455.26	376.83
455.44	409.59
455.62	351.08
455.81	407.25
455.99	360.44
456.17	468.11
456.36	374.49
456.54	421.30
456.73	477.47
456.91	409.59
457.09	447.04
457.28	440.02
457.46	414.27
457.64	475.13
457.83	402.57
458.01	351.08
458.19	374.49
458.38	447.04
458.56	428.32
458.74	374.49
458.93	491.51
459.11	416.62
459.29	470.45
459.48	404.91
459.66	472.79
459.84	421.30
460.03	454.06
460.21	425.98
460.39	418.96
460.57	440.02
460.76	397.89
460.94	433.00
461.12	447.04
461.31	383.85
461.49	414.27
461.67	358.10
461.85	442.36
462.04	470.45
462.22	723.23
462.40	442.36
462.59	435.34
462.77	390.87
462.95	404.91
463.13	409.59
463.32	437.68
463.50	315.97
463.68	383.85
463.86	341.72
464.05	374.49
464.23	423.64
464.41	346.40
464.59	411.93
464.78	449.38
464.96	358.10
465.14	292.57
465.32	402.57
465.50	397.89
465.69	444.70
465.87	421.30
466.05	433.00
466.23	351.08
466.41	367.46
466.60	341.72
466.78	456.40
466.96	416.62
467.14	440.02
467.32	425.98
467.51	418.96
467.69	454.06
467.87	435.34
468.05	388.53
468.23	414.27
468.41	484.49
468.60	425.98
468.78	444.70
468.96	470.45
469.14	365.12
469.32	367.46
469.50	330.02
469.69	341.72
469.87	449.38
470.05	421.30
470.23	381.51
470.41	360.44
470.59	444.70
470.77	346.40
470.95	327.68
471.14	407.25
471.32	472.79
471.50	447.04
471.68	416.62
471.86	414.27
472.04	411.93
472.22	437.68
472.40	402.57
472.58	395.55
472.77	491.51
472.95	458.74
473.13	447.04
473.31	435.34
473.49	433.00
473.67	498.53
473.85	421.30
474.03	465.77
474.21	484.49
474.39	465.77
474.57	425.98
474.75	393.21
474.93	400.23
475.12	376.83
475.30	383.85
475.48	416.62
475.66	416.62
475.84	440.02
476.02	397.89
476.20	369.80
476.38	397.89
476.56	433.00
476.74	437.68
476.92	376.83
477.10	390.87
477.28	411.93
477.46	390.87
477.64	402.57
477.82	374.49
478.00	428.32
478.18	395.55
478.36	393.21
478.54	376.83
478.72	397.89
478.90	465.77
479.08	332.36
479.26	421.30
479.44	346.40
479.62	376.83
479.80	440.02
479.98	430.66
480.16	337.04
480.34	407.25
480.52	409.59
480.70	447.04
480.88	386.19
481.06	400.23
481.24	402.57
481.41	435.34
481.59	463.43
481.77	362.78
481.95	332.36
482.13	477.47
482.31	402.57
482.49	365.12
482.67	386.19
482.85	372.15
483.03	449.38
483.21	400.23
483.39	440.02
483.57	447.04
483.74	451.72
483.92	395.55
484.10	280.86
484.28	407.25
484.46	418.96
484.64	395.55
484.82	444.70
485.00	416.62
485.18	416.62
485.35	397.89
485.53	379.17
485.71	505.56
485.89	411.93
486.07	341.72
486.25	428.32
486.43	475.13
486.61	390.87
486.78	388.53
486.96	358.10
487.14	407.25
487.32	425.98
487.50	376.83
487.68	496.19
487.85	365.12
488.03	444.70
488.21	475.13
488.39	402.57
488.57	440.02
488.75	440.02
488.92	365.12
489.10	383.85
489.28	505.56
489.46	409.59
489.64	435.34
489.81	390.87
489.99	442.36
490.17	442.36
490.35	451.72
490.53	430.66
490.70	404.91
490.88	454.06
491.06	386.19
491.24	418.96
491.41	421.30
491.59	376.83
491.77	339.38
491.95	334.70
492.13	390.87
492.30	407.25
492.48	400.23
492.66	442.36
492.84	388.53
493.01	374.49
493.19	430.66
493.37	517.26
493.54	470.45
493.72	379.17
493.90	479.81
494.08	468.11
494.25	376.83
494.43	386.19
494.61	374.49
494.79	440.02
494.96	341.72
495.14	449.38
495.32	388.53
495.49	425.98
495.67	454.06
495.85	411.93
496.02	341.72
496.20	456.40
496.38	456.40
496.55	418.96
496.73	428.32
496.91	341.72
497.09	451.72
497.26	395.55
497.44	433.00
497.62	425.98
497.79	440.02
497.97	414.27
498.14	449.38
498.32	489.17
498.50	461.09
498.67	447.04
498.85	442.36
499.03	456.40
499.20	442.36
499.38	449.38
499.56	449.38
499.73	454.06
499.91	444.70
500.08	358.10
500.26	393.21
500.44	379.17
500.61	451.72
500.79	411.93
500.97	463.43
501.14	423.64
501.32	365.12
501.49	440.02
501.67	437.68
501.84	418.96
502.02	451.72
502.20	428.32
502.37	421.30
502.55	454.06
502.72	353.42
502.90	402.57
503.07	395.55
503.25	423.64
503.43	409.59
503.60	376.83
503.78	395.55
503.95	447.04
504.13	346.40
504.30	433.00
504.48	505.56
504.65	388.53
504.83	486.83
505.01	395.55
505.18	447.04
505.36	414.27
505.53	409.59
505.71	442.36
505.88	430.66
506.06	442.36
506.23	411.93
506.41	358.10
506.58	418.96
506.76	444.70
506.93	376.83
507.11	395.55
507.28	414.27
507.46	437.68
507.63	395.55
507.81	454.06
507.98	428.32
508.16	423.64
508.33	402.57
508.50	414.27
508.68	425.98
508.85	365.12
509.03	418.96
509.20	411.93
509.38	435.34
509.55	423.64
509.73	444.70
509.90	416.62
510.08	456.40
510.25	372.15
510.42	421.30
510.60	447.04
510.77	383.85
510.95	444.70
511.12	428.32
511.30	425.98
511.47	421.30
511.64	397.89
511.82	449.38
511.99	411.93
512.17	386.19
512.34	418.96
512.51	369.80
512.69	388.53
512.86	428.32
513.04	397.89
513.21	425.98
513.38	383.85
513.56	390.87
513.73	358.10
513.90	397.89
514.08	409.59
514.25	433.00
514.43	353.42
514.60	468.11
514.77	454.06
514.95	404.91
515.12	390.87
515.29	454.06
515.47	414.27
515.64	456.40
515.81	458.74
515.99	428.32
516.16	409.59
516.33	365.12
516.51	397.89
516.68	379.17
516.85	433.00
517.03	404.91
517.20	411.93
517.37	402.57
517.54	454.06
517.72	437.68
517.89	344.06
518.06	437.68
518.24	484.49
518.41	461.09
518.58	400.23
518.75	411.93
518.93	404.91
519.10	376.83
519.27	411.93
519.45	470.45
519.62	372.15
519.79	526.62
519.96	369.80
520.14	463.43
520.31	428.32
520.48	440.02
520.65	423.64
520.83	355.76
521.00	393.21
521.17	418.96
521.34	472.79
521.52	428.32
521.69	444.70
521.86	421.30
522.03	393.21
522.20	409.59
522.38	372.15
522.55	383.85
522.72	425.98
522.89	477.47
523.07	418.96
523.24	409.59
523.41	397.89
523.58	444.70
523.75	416.62
523.92	404.91
524.10	435.34
524.27	362.78
524.44	360.44
524.61	428.32
524.78	447.04
524.96	414.27
525.13	355.76
525.30	454.06
525.47	482.15
525.64	381.51
525.81	423.64
525.98	369.80
526.16	400.23
526.33	430.66
526.50	397.89
526.67	442.36
526.84	390.87
527.01	360.44
527.18	292.57
527.36	404.91
527.53	442.36
527.70	468.11
527.87	486.83
528.04	397.89
528.21	376.83
528.38	477.47
528.55	393.21
528.72	461.09
528.89	435.34
529.07	440.02
529.24	395.55
529.41	369.80
529.58	379.17
529.75	430.66
529.92	470.45
530.09	461.09
530.26	423.64
530.43	414.27
530.60	418.96
530.77	393.21
530.94	425.98
531.11	416.62
531.28	447.04
531.46	428.32
531.63	428.32
531.80	461.09
531.97	463.43
532.14	421.30
532.31	383.85
532.48	414.27
532.65	470.45
532.82	409.59
532.99	393.21
533.16	472.79
533.33	456.40
533.50	402.57
533.67	390.87
533.84	400.23
534.01	397.89
534.18	435.34
534.35	365.12
534.52	428.32
534.69	540.66
534.86	407.25
535.03	337.04
535.20	374.49
535.37	395.55
535.54	409.59
535.71	409.59
535.88	475.13
536.05	290.23
536.22	461.09
536.38	346.40
536.55	341.72
536.72	409.59
536.89	327.68
537.06	381.51
537.23	390.87
537.40	372.15
537.57	416.62
537.74	496.19
537.91	425.98
538.08	374.49
538.25	477.47
538.42	407.25
538.59	423.64
538.75	358.10
538.92	435.34
539.09	395.55
539.26	369.80
539.43	348.74
539.60	484.49
539.77	418.96
539.94	381.51
540.11	465.77
540.28	433.00
540.44	437.68
540.61	372.15
540.78	388.53
540.95	550.03
541.12	365.12
541.29	372.15
541.46	409.59
541.62	496.19
541.79	390.87
541.96	409.59
542.13	327.68
542.30	344.06
542.47	409.59
542.63	423.64
542.80	451.72
542.97	409.59
543.14	407.25
543.31	402.57
543.48	407.25
543.64	435.34
543.81	425.98
543.98	465.77
544.15	423.64
544.32	402.57
544.48	407.25
544.65	423.64
544.82	320.65
544.99	369.80
545.16	390.87
545.32	411.93
545.49	383.85
545.66	491.51
545.83	400.23
546.00	414.27
546.16	449.38
546.33	430.66
546.50	358.10
546.67	454.06
546.83	428.32
547.00	458.74
547.17	365.12
547.34	411.93
547.50	421.30
547.67	348.74
547.84	416.62
548.00	444.70
548.17	416.62
548.34	451.72
548.51	463.43
548.67	475.13
548.84	351.08
549.01	407.25
549.18	458.74
549.34	451.72
549.51	362.78
549.68	447.04
549.84	465.77
550.01	442.36
550.18	505.56
550.34	461.09
550.51	402.57
550.68	430.66
550.84	362.78
551.01	428.32
551.18	456.40
551.34	428.32
551.51	365.12
551.68	418.96
551.84	477.47
552.01	433.00
552.18	407.25
552.34	423.64
552.51	395.55
552.68	430.66
552.84	425.98
553.01	372.15
553.18	435.34
553.34	351.08
553.51	440.02
553.67	374.49
553.84	428.32
554.01	442.36
554.17	313.63
554.34	376.83
554.51	407.25
554.67	440.02
554.84	493.85
555.00	416.62
555.17	472.79
555.33	463.43
555.50	442.36
555.67	365.12
555.83	379.17
556.00	402.57
556.16	514.92
556.33	404.91
556.50	433.00
556.66	404.91
556.83	393.21
556.99	437.68
557.16	433.00
557.32	416.62
557.49	407.25
557.65	456.40
557.82	418.96
557.98	390.87
558.15	437.68
558.32	428.32
558.48	379.17
558.65	362.78
558.81	449.38
558.98	369.80
559.14	437.68
559.31	449.38
559.47	388.53
559.64	355.76
559.80	428.32
559.97	355.76
560.13	423.64
560.30	440.02
560.46	400.23
560.63	418.96
560.79	477.47
560.96	407.25
561.12	423.64
561.29	449.38
561.45	365.12
561.61	440.02
561.78	543.00
561.94	379.17
562.11	379.17
562.27	465.77
562.44	390.87
562.60	395.55
562.77	454.06
562.93	442.36
563.10	454.06
563.26	393.21
563.42	444.70
563.59	456.40
563.75	433.00
563.92	400.23
564.08	458.74
564.24	475.13
564.41	484.49
564.57	433.00
564.74	397.89
564.90	444.70
565.07	435.34
565.23	505.56
565.39	362.78
565.56	442.36
565.72	425.98
565.88	465.77
566.05	421.30
566.21	416.62
566.38	409.59
566.54	411.93
566.70	472.79
566.87	390.87
567.03	353.42
567.19	435.34
567.36	454.06
567.52	458.74
567.68	437.68
567.85	470.45
568.01	456.40
568.17	383.85
568.34	400.23
568.50	395.55
568.66	397.89
568.83	475.13
568.99	372.15
569.15	510.24
569.32	400.23
569.48	395.55
569.64	362.78
569.81	397.89
569.97	428.32
570.13	430.66
570.30	444.70
570.46	493.85
570.62	463.43
570.78	367.46
570.95	374.49
571.11	468.11
571.27	447.04
571.43	381.51
571.60	435.34
571.76	468.11
571.92	386.19
572.09	440.02
572.25	454.06
572.41	449.38
572.57	397.89
572.74	458.74
572.90	407.25
573.06	416.62
573.22	454.06
573.38	411.93
573.55	397.89
573.71	449.38
573.87	435.34
574.03	456.40
574.20	402.57
574.36	440.02
574.52	425.98
574.68	435.34
574.84	407.25
575.01	372.15
575.17	404.91
575.33	486.83
575.49	416.62
575.65	381.51
575.82	475.13
575.98	421.30
576.14	400.23
576.30	421.30
576.46	472.79
576.62	330.02
576.79	475.13
576.95	493.85
577.11	383.85
577.27	414.27
577.43	362.78
577.59	451.72
577.75	447.04
577.92	409.59
578.08	374.49
578.24	393.21
578.40	411.93
578.56	414.27
578.72	423.64
578.88	353.42
579.04	383.85
579.21	409.59
579.37	428.32
579.53	463.43
579.69	379.17
579.85	360.44
580.01	435.34
580.17	409.59
580.33	472.79
580.49	442.36
580.65	388.53
580.82	428.32
580.98	451.72
581.14	411.93
581.30	372.15
581.46	444.70
581.62	421.30
581.78	407.25
581.94	418.96
582.10	430.66
582.26	437.68
582.42	376.83
582.58	400.23
582.74	428.32
582.90	362.78
583.06	400.23
583.22	353.42
583.38	397.89
583.54	374.49
583.70	479.81
583.86	388.53
584.02	458.74
584.18	397.89
584.34	365.12
584.50	463.43
584.66	435.34
584.82	461.09
584.98	449.38
585.14	423.64
585.30	470.45
585.46	407.25
585.62	430.66
585.78	379.17
585.94	425.98
586.10	381.51
586.26	393.21
586.42	477.47
586.58	414.27
586.74	486.83
586.90	425.98
587.06	411.93
587.22	376.83
587.38	353.42
587.54	468.11
587.70	418.96
587.86	425.98
588.02	332.36
588.18	454.06
588.34	367.46
588.49	440.02
588.65	421.30
588.81	383.85
588.97	374.49
589.13	369.80
589.29	395.55
589.45	479.81
589.61	346.40
589.77	489.17
589.93	433.00
590.08	409.59
590.24	383.85
590.40	440.02
590.56	402.57
590.72	475.13
590.88	418.96
591.04	358.10
591.20	301.93
591.35	430.66
591.51	430.66
591.67	351.08
591.83	437.68
591.99	430.66
592.15	423.64
592.31	425.98
592.46	430.66
592.62	440.02
592.78	397.89
592.94	390.87
593.10	489.17
593.26	374.49
593.41	334.70
593.57	395.55
593.73	463.43
593.89	442.36
594.05	418.96
594.20	437.68
594.36	451.72
594.52	407.25
594.68	402.57
594.84	423.64
594.99	435.34
595.15	418.96
595.31	404.91
595.47	461.09
595.62	381.51
595.78	430.66
595.94	374.49
596.10	409.59
596.25	379.17
596.41	353.42
596.57	428.32
596.73	393.21
596.88	400.23
597.04	437.68
597.20	493.85
597.36	430.66
597.51	383.85
597.67	344.06
597.83	437.68
597.99	472.79
598.14	393.21
598.30	458.74
598.46	395.55
598.61	416.62
598.77	425.98
598.93	374.49
599.09	468.11
599.24	444.70
599.40	470.45
599.56	404.91
599.71	463.43
599.87	461.09
600.03	346.40
600.18	435.34
600.34	430.66
600.50	344.06
600.65	433.00
600.81	376.83
600.97	376.83
601.12	369.80
601.28	397.89
601.44	423.64
601.59	430.66
601.75	400.23
601.91	393.21
602.06	423.64
602.22	486.83
602.37	456.40
602.53	433.00
602.69	414.27
602.84	425.98
603.00	442.36
603.16	404.91
603.31	430.66
603.47	402.57
603.62	407.25
603.78	421.30
603.94	454.06
604.09	397.89
604.25	390.87
604.40	390.87
604.56	381.51
604.71	423.64
604.87	353.42
605.03	486.83
605.18	365.12
605.34	358.10
605.49	301.93
605.65	430.66
605.80	435.34
605.96	346.40
606.12	428.32
606.27	409.59
606.43	360.44
606.58	416.62
606.74	407.25
606.89	442.36
607.05	386.19
607.20	397.89
607.36	402.57
607.51	393.21
607.67	463.43
607.82	465.77
607.98	402.57
608.13	395.55
608.29	372.15
608.44	414.27
608.60	416.62
608.75	447.04
608.91	580.45
609.06	409.59
609.22	437.68
609.37	435.34
609.53	444.70
609.68	365.12
609.84	351.08
609.99	421.30
610.15	428.32
