SpectraSuite Data File
++++++++++++++++++++++++++++++++++++
Date: Fri Oct 25 12:10:05 EDT 2013
User: price-jones
Dark Spectrum Present: No
Reference Spectrum Present: No
Number of Sampled Component Spectra: 1
Spectrometers: USB2+H05261
Integration Time (usec): 100000 (USB2+H05261)
Spectra Averaged: 1 (USB2+H05261)
Boxcar Smoothing: 0 (USB2+H05261)
Correct for Electrical Dark: No (USB2+H05261)
Strobe/Lamp Enabled: No (USB2+H05261)
Correct for Detector Non-linearity: No (USB2+H05261)
Correct for Stray Light: No (USB2+H05261)
Number of Pixels in Processed Spectrum: 2048
>>>>>Begin Processed Spectral Data<<<<<
365.73	339.38
365.92	339.38
366.12	339.38
366.32	297.25
366.52	287.89
366.72	311.29
366.91	215.33
367.11	271.50
367.31	241.08
367.51	259.80
367.70	283.20
367.90	280.86
368.10	147.45
368.30	269.16
368.49	212.99
368.69	271.50
368.89	231.71
369.09	224.69
369.28	231.71
369.48	290.23
369.68	332.36
369.87	395.55
370.07	294.91
370.27	332.36
370.47	360.44
370.66	374.49
370.86	423.64
371.06	395.55
371.25	400.23
371.45	341.72
371.65	318.31
371.84	423.64
372.04	351.08
372.24	404.91
372.44	411.93
372.63	365.12
372.83	407.25
373.03	428.32
373.22	472.79
373.42	383.85
373.62	367.46
373.81	423.64
374.01	365.12
374.21	449.38
374.40	367.46
374.60	475.13
374.79	451.72
374.99	330.02
375.19	334.70
375.38	344.06
375.58	388.53
375.78	444.70
375.97	468.11
376.17	400.23
376.37	381.51
376.56	418.96
376.76	411.93
376.95	454.06
377.15	388.53
377.35	451.72
377.54	465.77
377.74	355.76
377.93	374.49
378.13	414.27
378.33	428.32
378.52	425.98
378.72	409.59
378.91	355.76
379.11	421.30
379.31	341.72
379.50	372.15
379.70	367.46
379.89	414.27
380.09	482.15
380.28	409.59
380.48	451.72
380.68	367.46
380.87	414.27
381.07	421.30
381.26	386.19
381.46	400.23
381.65	510.24
381.85	440.02
382.04	397.89
382.24	421.30
382.43	346.40
382.63	440.02
382.83	337.04
383.02	416.62
383.22	374.49
383.41	428.32
383.61	451.72
383.80	402.57
384.00	409.59
384.19	374.49
384.39	372.15
384.58	383.85
384.78	353.42
384.97	418.96
385.17	386.19
385.36	411.93
385.56	425.98
385.75	360.44
385.95	430.66
386.14	449.38
386.34	449.38
386.53	411.93
386.72	388.53
386.92	433.00
387.11	437.68
387.31	379.17
387.50	351.08
387.70	400.23
387.89	416.62
388.09	390.87
388.28	451.72
388.48	390.87
388.67	416.62
388.86	365.12
389.06	374.49
389.25	372.15
389.45	433.00
389.64	395.55
389.84	440.02
390.03	411.93
390.22	393.21
390.42	416.62
390.61	430.66
390.81	402.57
391.00	402.57
391.19	435.34
391.39	428.32
391.58	416.62
391.78	416.62
391.97	430.66
392.16	440.02
392.36	447.04
392.55	407.25
392.75	372.15
392.94	360.44
393.13	407.25
393.33	374.49
393.52	414.27
393.71	444.70
393.91	369.80
394.10	369.80
394.29	346.40
394.49	449.38
394.68	388.53
394.88	402.57
395.07	418.96
395.26	383.85
395.46	416.62
395.65	449.38
395.84	416.62
396.04	442.36
396.23	456.40
396.42	355.76
396.62	393.21
396.81	407.25
397.00	407.25
397.19	339.38
397.39	374.49
397.58	388.53
397.77	402.57
397.97	456.40
398.16	400.23
398.35	402.57
398.55	393.21
398.74	407.25
398.93	381.51
399.12	334.70
399.32	421.30
399.51	428.32
399.70	435.34
399.90	491.51
400.09	409.59
400.28	397.89
400.47	348.74
400.67	402.57
400.86	362.78
401.05	442.36
401.24	381.51
401.44	409.59
401.63	404.91
401.82	430.66
402.01	339.38
402.21	461.09
402.40	383.85
402.59	383.85
402.78	433.00
402.97	355.76
403.17	402.57
403.36	456.40
403.55	498.53
403.74	374.49
403.93	414.27
404.13	423.64
404.32	428.32
404.51	407.25
404.70	437.68
404.89	409.59
405.09	498.53
405.28	388.53
405.47	362.78
405.66	425.98
405.85	472.79
406.05	379.17
406.24	458.74
406.43	486.83
406.62	461.09
406.81	449.38
407.00	421.30
407.20	397.89
407.39	390.87
407.58	414.27
407.77	341.72
407.96	407.25
408.15	388.53
408.34	416.62
408.54	411.93
408.73	416.62
408.92	379.17
409.11	430.66
409.30	444.70
409.49	458.74
409.68	458.74
409.87	409.59
410.07	362.78
410.26	381.51
410.45	414.27
410.64	428.32
410.83	381.51
411.02	355.76
411.21	440.02
411.40	435.34
411.59	362.78
411.78	386.19
411.98	470.45
412.17	358.10
412.36	411.93
412.55	409.59
412.74	435.34
412.93	395.55
413.12	442.36
413.31	393.21
413.50	322.99
413.69	442.36
413.88	475.13
414.07	416.62
414.26	409.59
414.45	367.46
414.64	395.55
414.83	383.85
415.02	372.15
415.22	395.55
415.41	435.34
415.60	407.25
415.79	418.96
415.98	379.17
416.17	421.30
416.36	360.44
416.55	409.59
416.74	433.00
416.93	454.06
417.12	421.30
417.31	437.68
417.50	447.04
417.69	400.23
417.88	465.77
418.07	416.62
418.26	421.30
418.45	503.22
418.64	463.43
418.83	404.91
419.02	348.74
419.21	409.59
419.39	404.91
419.58	372.15
419.77	440.02
419.96	409.59
420.15	416.62
420.34	503.22
420.53	390.87
420.72	449.38
420.91	395.55
421.10	418.96
421.29	330.02
421.48	379.17
421.67	395.55
421.86	393.21
422.05	383.85
422.24	346.40
422.43	430.66
422.61	418.96
422.80	379.17
422.99	421.30
423.18	437.68
423.37	451.72
423.56	402.57
423.75	414.27
423.94	365.12
424.13	418.96
424.32	433.00
424.50	402.57
424.69	355.76
424.88	421.30
425.07	418.96
425.26	402.57
425.45	423.64
425.64	400.23
425.83	390.87
426.01	491.51
426.20	393.21
426.39	423.64
426.58	414.27
426.77	395.55
426.96	390.87
427.15	442.36
427.33	360.44
427.52	393.21
427.71	411.93
427.90	383.85
428.09	376.83
428.28	430.66
428.46	430.66
428.65	447.04
428.84	444.70
429.03	388.53
429.22	421.30
429.40	355.76
429.59	402.57
429.78	395.55
429.97	330.02
430.16	447.04
430.34	397.89
430.53	442.36
430.72	346.40
430.91	430.66
431.10	383.85
431.28	428.32
431.47	447.04
431.66	404.91
431.85	337.04
432.03	416.62
432.22	491.51
432.41	374.49
432.60	423.64
432.79	442.36
432.97	482.15
433.16	390.87
433.35	386.19
433.54	362.78
433.72	418.96
433.91	402.57
434.10	379.17
434.28	414.27
434.47	374.49
434.66	440.02
434.85	444.70
435.03	454.06
435.22	458.74
435.41	482.15
435.59	437.68
435.78	451.72
435.97	388.53
436.16	444.70
436.34	407.25
436.53	397.89
436.72	447.04
436.90	449.38
437.09	418.96
437.28	404.91
437.46	372.15
437.65	362.78
437.84	486.83
438.02	372.15
438.21	465.77
438.40	383.85
438.58	409.59
438.77	407.25
438.96	425.98
439.14	449.38
439.33	383.85
439.52	402.57
439.70	418.96
439.89	440.02
440.08	484.49
440.26	402.57
440.45	409.59
440.63	451.72
440.82	451.72
441.01	449.38
441.19	390.87
441.38	409.59
441.57	418.96
441.75	437.68
441.94	388.53
442.12	425.98
442.31	301.93
442.50	430.66
442.68	376.83
442.87	397.89
443.05	491.51
443.24	358.10
443.43	381.51
443.61	454.06
443.80	463.43
443.98	383.85
444.17	425.98
444.35	440.02
444.54	353.42
444.73	395.55
444.91	425.98
445.10	491.51
445.28	381.51
445.47	418.96
445.65	449.38
445.84	433.00
446.02	414.27
446.21	358.10
446.39	435.34
446.58	507.90
446.77	348.74
446.95	409.59
447.14	397.89
447.32	428.32
447.51	346.40
447.69	409.59
447.88	388.53
448.06	475.13
448.25	458.74
448.43	428.32
448.62	416.62
448.80	421.30
448.99	435.34
449.17	409.59
449.36	397.89
449.54	454.06
449.73	393.21
449.91	421.30
450.10	425.98
450.28	465.77
450.46	400.23
450.65	475.13
450.83	395.55
451.02	425.98
451.20	374.49
451.39	447.04
451.57	372.15
451.76	355.76
451.94	458.74
452.13	418.96
452.31	348.74
452.49	404.91
452.68	376.83
452.86	369.80
453.05	442.36
453.23	362.78
453.42	346.40
453.60	447.04
453.78	400.23
453.97	386.19
454.15	397.89
454.34	430.66
454.52	423.64
454.70	447.04
454.89	388.53
455.07	404.91
455.26	381.51
455.44	416.62
455.62	409.59
455.81	395.55
455.99	437.68
456.17	498.53
456.36	430.66
456.54	381.51
456.73	395.55
456.91	383.85
457.09	390.87
457.28	437.68
457.46	510.24
457.64	383.85
457.83	421.30
458.01	365.12
458.19	379.17
458.38	461.09
458.56	425.98
458.74	388.53
458.93	435.34
459.11	400.23
459.29	437.68
459.48	440.02
459.66	365.12
459.84	409.59
460.03	484.49
460.21	475.13
460.39	442.36
460.57	433.00
460.76	444.70
460.94	390.87
461.12	411.93
461.31	435.34
461.49	383.85
461.67	461.09
461.85	440.02
462.04	397.89
462.22	858.98
462.40	475.13
462.59	416.62
462.77	376.83
462.95	346.40
463.13	395.55
463.32	414.27
463.50	397.89
463.68	451.72
463.86	400.23
464.05	379.17
464.23	468.11
464.41	449.38
464.59	400.23
464.78	484.49
464.96	407.25
465.14	402.57
465.32	379.17
465.50	496.19
465.69	454.06
465.87	416.62
466.05	428.32
466.23	397.89
466.41	430.66
466.60	454.06
466.78	395.55
466.96	418.96
467.14	369.80
467.32	367.46
467.51	428.32
467.69	437.68
467.87	414.27
468.05	461.09
468.23	454.06
468.41	383.85
468.60	454.06
468.78	421.30
468.96	477.47
469.14	423.64
469.32	388.53
469.50	393.21
469.69	409.59
469.87	418.96
470.05	416.62
470.23	440.02
470.41	395.55
470.59	397.89
470.77	379.17
470.95	381.51
471.14	409.59
471.32	381.51
471.50	454.06
471.68	425.98
471.86	430.66
472.04	360.44
472.22	423.64
472.40	402.57
472.58	397.89
472.77	421.30
472.95	362.78
473.13	423.64
473.31	414.27
473.49	388.53
473.67	402.57
473.85	416.62
474.03	393.21
474.21	400.23
474.39	470.45
474.57	435.34
474.75	386.19
474.93	430.66
475.12	346.40
475.30	367.46
475.48	362.78
475.66	400.23
475.84	369.80
476.02	372.15
476.20	465.77
476.38	322.99
476.56	458.74
476.74	421.30
476.92	386.19
477.10	482.15
477.28	395.55
477.46	395.55
477.64	444.70
477.82	444.70
478.00	414.27
478.18	472.79
478.36	416.62
478.54	369.80
478.72	437.68
478.90	386.19
479.08	435.34
479.26	388.53
479.44	397.89
479.62	372.15
479.80	386.19
479.98	444.70
480.16	411.93
480.34	430.66
480.52	351.08
480.70	430.66
480.88	425.98
481.06	388.53
481.24	395.55
481.41	379.17
481.59	400.23
481.77	407.25
481.95	362.78
482.13	475.13
482.31	393.21
482.49	404.91
482.67	433.00
482.85	440.02
483.03	477.47
483.21	393.21
483.39	437.68
483.57	461.09
483.74	442.36
483.92	390.87
484.10	397.89
484.28	433.00
484.46	435.34
484.64	421.30
484.82	379.17
485.00	390.87
485.18	472.79
485.35	458.74
485.53	407.25
485.71	458.74
485.89	306.61
486.07	388.53
486.25	423.64
486.43	449.38
486.61	411.93
486.78	369.80
486.96	351.08
487.14	425.98
487.32	367.46
487.50	379.17
487.68	365.12
487.85	423.64
488.03	418.96
488.21	507.90
488.39	381.51
488.57	468.11
488.75	442.36
488.92	423.64
489.10	390.87
489.28	404.91
489.46	362.78
489.64	428.32
489.81	444.70
489.99	440.02
490.17	449.38
490.35	409.59
490.53	428.32
490.70	524.28
490.88	372.15
491.06	475.13
491.24	409.59
491.41	404.91
491.59	416.62
491.77	416.62
491.95	397.89
492.13	428.32
492.30	447.04
492.48	472.79
492.66	411.93
492.84	395.55
493.01	440.02
493.19	407.25
493.37	463.43
493.54	388.53
493.72	442.36
493.90	433.00
494.08	353.42
494.25	400.23
494.43	484.49
494.61	428.32
494.79	433.00
494.96	395.55
495.14	465.77
495.32	388.53
495.49	526.62
495.67	414.27
495.85	430.66
496.02	353.42
496.20	421.30
496.38	411.93
496.55	423.64
496.73	458.74
496.91	386.19
497.09	414.27
497.26	428.32
497.44	414.27
497.62	421.30
497.79	425.98
497.97	447.04
498.14	421.30
498.32	400.23
498.50	423.64
498.67	381.51
498.85	397.89
499.03	351.08
499.20	344.06
499.38	365.12
499.56	383.85
499.73	414.27
499.91	367.46
500.08	468.11
500.26	397.89
500.44	348.74
500.61	400.23
500.79	395.55
500.97	433.00
501.14	388.53
501.32	465.77
501.49	447.04
501.67	393.21
501.84	468.11
502.02	400.23
502.20	465.77
502.37	458.74
502.55	397.89
502.72	332.36
502.90	400.23
503.07	390.87
503.25	435.34
503.43	393.21
503.60	381.51
503.78	421.30
503.95	374.49
504.13	418.96
504.30	395.55
504.48	451.72
504.65	402.57
504.83	500.87
505.01	374.49
505.18	421.30
505.36	390.87
505.53	372.15
505.71	404.91
505.88	430.66
506.06	421.30
506.23	423.64
506.41	397.89
506.58	475.13
506.76	472.79
506.93	418.96
507.11	442.36
507.28	435.34
507.46	444.70
507.63	402.57
507.81	444.70
507.98	376.83
508.16	428.32
508.33	428.32
508.50	435.34
508.68	414.27
508.85	442.36
509.03	472.79
509.20	444.70
509.38	376.83
509.55	521.94
509.73	444.70
509.90	418.96
510.08	465.77
510.25	456.40
510.42	454.06
510.60	362.78
510.77	407.25
510.95	447.04
511.12	442.36
511.30	365.12
511.47	468.11
511.64	421.30
511.82	411.93
511.99	428.32
512.17	395.55
512.34	365.12
512.51	468.11
512.69	451.72
512.86	454.06
513.04	440.02
513.21	421.30
513.38	381.51
513.56	444.70
513.73	442.36
513.90	372.15
514.08	332.36
514.25	454.06
514.43	404.91
514.60	374.49
514.77	376.83
514.95	400.23
515.12	409.59
515.29	402.57
515.47	454.06
515.64	470.45
515.81	442.36
515.99	500.87
516.16	411.93
516.33	430.66
516.51	393.21
516.68	360.44
516.85	428.32
517.03	383.85
517.20	374.49
517.37	440.02
517.54	477.47
517.72	360.44
517.89	430.66
518.06	402.57
518.24	437.68
518.41	514.92
518.58	423.64
518.75	433.00
518.93	358.10
519.10	383.85
519.27	404.91
519.45	437.68
519.62	351.08
519.79	433.00
519.96	447.04
520.14	423.64
520.31	353.42
520.48	468.11
520.65	383.85
520.83	442.36
521.00	414.27
521.17	376.83
521.34	465.77
521.52	423.64
521.69	465.77
521.86	341.72
522.03	425.98
522.20	421.30
522.38	376.83
522.55	386.19
522.72	400.23
522.89	477.47
523.07	414.27
523.24	346.40
523.41	435.34
523.58	435.34
523.75	330.02
523.92	425.98
524.10	416.62
524.27	397.89
524.44	425.98
524.61	442.36
524.78	409.59
524.96	407.25
525.13	491.51
525.30	454.06
525.47	390.87
525.64	344.06
525.81	475.13
525.98	425.98
526.16	435.34
526.33	493.85
526.50	418.96
526.67	433.00
526.84	393.21
527.01	360.44
527.18	440.02
527.36	339.38
527.53	381.51
527.70	437.68
527.87	435.34
528.04	470.45
528.21	430.66
528.38	386.19
528.55	447.04
528.72	463.43
528.89	491.51
529.07	416.62
529.24	421.30
529.41	465.77
529.58	440.02
529.75	435.34
529.92	395.55
530.09	425.98
530.26	421.30
530.43	397.89
530.60	409.59
530.77	407.25
530.94	390.87
531.11	411.93
531.28	416.62
531.46	444.70
531.63	447.04
531.80	425.98
531.97	381.51
532.14	454.06
532.31	425.98
532.48	440.02
532.65	386.19
532.82	362.78
532.99	449.38
533.16	411.93
533.33	379.17
533.50	435.34
533.67	414.27
533.84	407.25
534.01	386.19
534.18	397.89
534.35	393.21
534.52	423.64
534.69	428.32
534.86	339.38
535.03	372.15
535.20	351.08
535.37	397.89
535.54	444.70
535.71	414.27
535.88	444.70
536.05	390.87
536.22	341.72
536.38	402.57
536.55	442.36
536.72	470.45
536.89	416.62
537.06	425.98
537.23	365.12
537.40	428.32
537.57	322.99
537.74	470.45
537.91	461.09
538.08	381.51
538.25	458.74
538.42	379.17
538.59	428.32
538.75	414.27
538.92	475.13
539.09	376.83
539.26	344.06
539.43	395.55
539.60	390.87
539.77	440.02
539.94	425.98
540.11	423.64
540.28	428.32
540.44	437.68
540.61	397.89
540.78	414.27
540.95	381.51
541.12	470.45
541.29	463.43
541.46	465.77
541.62	440.02
541.79	437.68
541.96	365.12
542.13	376.83
542.30	454.06
542.47	409.59
542.63	390.87
542.80	444.70
542.97	447.04
543.14	409.59
543.31	440.02
543.48	430.66
543.64	409.59
543.81	421.30
543.98	386.19
544.15	414.27
544.32	430.66
544.48	477.47
544.65	482.15
544.82	451.72
544.99	397.89
545.16	386.19
545.32	468.11
545.49	456.40
545.66	484.49
545.83	315.97
546.00	332.36
546.16	416.62
546.33	414.27
546.50	393.21
546.67	482.15
546.83	449.38
547.00	369.80
547.17	430.66
547.34	433.00
547.50	428.32
547.67	402.57
547.84	379.17
548.00	402.57
548.17	397.89
548.34	442.36
548.51	458.74
548.67	428.32
548.84	416.62
549.01	358.10
549.18	351.08
549.34	411.93
549.51	362.78
549.68	393.21
549.84	456.40
550.01	397.89
550.18	449.38
550.34	512.58
550.51	393.21
550.68	444.70
550.84	423.64
551.01	400.23
551.18	397.89
551.34	444.70
551.51	374.49
551.68	409.59
551.84	421.30
552.01	386.19
552.18	414.27
552.34	388.53
552.51	416.62
552.68	444.70
552.84	440.02
553.01	423.64
553.18	390.87
553.34	454.06
553.51	418.96
553.67	435.34
553.84	475.13
554.01	381.51
554.17	397.89
554.34	365.12
554.51	428.32
554.67	421.30
554.84	433.00
555.00	381.51
555.17	461.09
555.33	486.83
555.50	409.59
555.67	416.62
555.83	381.51
556.00	404.91
556.16	571.09
556.33	533.64
556.50	400.23
556.66	414.27
556.83	388.53
556.99	390.87
557.16	479.81
557.32	402.57
557.49	402.57
557.65	454.06
557.82	372.15
557.98	425.98
558.15	418.96
558.32	468.11
558.48	447.04
558.65	430.66
558.81	440.02
558.98	423.64
559.14	468.11
559.31	383.85
559.47	423.64
559.64	456.40
559.80	416.62
559.97	433.00
560.13	442.36
560.30	351.08
560.46	421.30
560.63	442.36
560.79	425.98
560.96	475.13
561.12	461.09
561.29	404.91
561.45	395.55
561.61	433.00
561.78	461.09
561.94	360.44
562.11	346.40
562.27	423.64
562.44	355.76
562.60	390.87
562.77	404.91
562.93	482.15
563.10	393.21
563.26	383.85
563.42	390.87
563.59	425.98
563.75	437.68
563.92	442.36
564.08	430.66
564.24	433.00
564.41	451.72
564.57	425.98
564.74	383.85
564.90	404.91
565.07	362.78
565.23	411.93
565.39	411.93
565.56	444.70
565.72	418.96
565.88	379.17
566.05	440.02
566.21	402.57
566.38	372.15
566.54	428.32
566.70	433.00
566.87	395.55
567.03	292.57
567.19	388.53
567.36	447.04
567.52	425.98
567.68	355.76
567.85	475.13
568.01	484.49
568.17	428.32
568.34	362.78
568.50	395.55
568.66	418.96
568.83	444.70
568.99	404.91
569.15	440.02
569.32	437.68
569.48	404.91
569.64	341.72
569.81	444.70
569.97	451.72
570.13	421.30
570.30	320.65
570.46	409.59
570.62	397.89
570.78	416.62
570.95	390.87
571.11	409.59
571.27	440.02
571.43	397.89
571.60	423.64
571.76	360.44
571.92	491.51
572.09	411.93
572.25	369.80
572.41	397.89
572.57	411.93
572.74	451.72
572.90	451.72
573.06	423.64
573.22	433.00
573.38	486.83
573.55	409.59
573.71	425.98
573.87	423.64
574.03	395.55
574.20	402.57
574.36	498.53
574.52	463.43
574.68	440.02
574.84	416.62
575.01	461.09
575.17	472.79
575.33	402.57
575.49	428.32
575.65	484.49
575.82	468.11
575.98	461.09
576.14	376.83
576.30	386.19
576.46	428.32
576.62	390.87
576.79	397.89
576.95	425.98
577.11	456.40
577.27	430.66
577.43	482.15
577.59	437.68
577.75	421.30
577.92	430.66
578.08	397.89
578.24	472.79
578.40	477.47
578.56	425.98
578.72	440.02
578.88	421.30
579.04	435.34
579.21	404.91
579.37	414.27
579.53	456.40
579.69	458.74
579.85	472.79
580.01	444.70
580.17	400.23
580.33	390.87
580.49	423.64
580.65	454.06
580.82	451.72
580.98	395.55
581.14	421.30
581.30	402.57
581.46	383.85
581.62	402.57
581.78	435.34
581.94	454.06
582.10	395.55
582.26	346.40
582.42	433.00
582.58	484.49
582.74	397.89
582.90	381.51
583.06	463.43
583.22	444.70
583.38	388.53
583.54	365.12
583.70	393.21
583.86	435.34
584.02	409.59
584.18	442.36
584.34	479.81
584.50	418.96
584.66	362.78
584.82	430.66
584.98	425.98
585.14	440.02
585.30	423.64
585.46	444.70
585.62	411.93
585.78	400.23
585.94	411.93
586.10	486.83
586.26	458.74
586.42	482.15
586.58	458.74
586.74	465.77
586.90	418.96
587.06	379.17
587.22	367.46
587.38	440.02
587.54	379.17
587.70	435.34
587.86	449.38
588.02	320.65
588.18	463.43
588.34	355.76
588.49	442.36
588.65	444.70
588.81	409.59
588.97	489.17
589.13	449.38
589.29	489.17
589.45	456.40
589.61	514.92
589.77	421.30
589.93	489.17
590.08	332.36
590.24	482.15
590.40	430.66
590.56	472.79
590.72	365.12
590.88	470.45
591.04	404.91
591.20	379.17
591.35	479.81
591.51	395.55
591.67	346.40
591.83	372.15
591.99	416.62
592.15	388.53
592.31	418.96
592.46	383.85
592.62	475.13
592.78	451.72
592.94	372.15
593.10	327.68
593.26	332.36
593.41	372.15
593.57	451.72
593.73	409.59
593.89	386.19
594.05	390.87
594.20	402.57
594.36	470.45
594.52	435.34
594.68	395.55
594.84	390.87
594.99	425.98
595.15	433.00
595.31	404.91
595.47	458.74
595.62	353.42
595.78	386.19
595.94	365.12
596.10	344.06
596.25	407.25
596.41	454.06
596.57	425.98
596.73	395.55
596.88	430.66
597.04	400.23
597.20	449.38
597.36	428.32
597.51	470.45
597.67	365.12
597.83	351.08
597.99	367.46
598.14	414.27
598.30	468.11
598.46	465.77
598.61	425.98
598.77	360.44
598.93	442.36
599.09	437.68
599.24	437.68
599.40	479.81
599.56	425.98
599.71	404.91
599.87	337.04
600.03	461.09
600.18	367.46
600.34	407.25
600.50	411.93
600.65	435.34
600.81	358.10
600.97	411.93
601.12	470.45
601.28	414.27
601.44	409.59
601.59	409.59
601.75	416.62
601.91	358.10
602.06	442.36
602.22	493.85
602.37	468.11
602.53	383.85
602.69	416.62
602.84	367.46
603.00	376.83
603.16	463.43
603.31	463.43
603.47	470.45
603.62	379.17
603.78	374.49
603.94	409.59
604.09	348.74
604.25	388.53
604.40	433.00
604.56	409.59
604.71	430.66
604.87	423.64
605.03	484.49
605.18	461.09
605.34	416.62
605.49	458.74
605.65	379.17
605.80	421.30
605.96	430.66
606.12	435.34
606.27	411.93
606.43	348.74
606.58	442.36
606.74	407.25
606.89	376.83
607.05	428.32
607.20	388.53
607.36	383.85
607.51	393.21
607.67	442.36
607.82	386.19
607.98	447.04
608.13	442.36
608.29	440.02
608.44	451.72
608.60	360.44
608.75	435.34
608.91	374.49
609.06	465.77
609.22	475.13
609.37	461.09
609.53	407.25
609.68	425.98
609.84	402.57
609.99	496.19
610.15	503.22
