SpectraSuite Data File
++++++++++++++++++++++++++++++++++++
Date: Fri Oct 25 12:10:26 EDT 2013
User: price-jones
Dark Spectrum Present: No
Reference Spectrum Present: No
Number of Sampled Component Spectra: 1
Spectrometers: USB2+H05261
Integration Time (usec): 100000 (USB2+H05261)
Spectra Averaged: 1 (USB2+H05261)
Boxcar Smoothing: 0 (USB2+H05261)
Correct for Electrical Dark: No (USB2+H05261)
Strobe/Lamp Enabled: No (USB2+H05261)
Correct for Detector Non-linearity: No (USB2+H05261)
Correct for Stray Light: No (USB2+H05261)
Number of Pixels in Processed Spectrum: 2048
>>>>>Begin Processed Spectral Data<<<<<
365.73	271.50
365.92	271.50
366.12	271.50
366.32	297.25
366.52	229.37
366.72	252.78
366.91	250.44
367.11	201.29
367.31	140.43
367.51	271.50
367.70	194.26
367.90	292.57
368.10	194.26
368.30	198.95
368.49	266.82
368.69	252.78
368.89	276.18
369.09	278.52
369.28	269.16
369.48	292.57
369.68	250.44
369.87	313.63
370.07	243.42
370.27	337.04
370.47	355.76
370.66	372.15
370.86	381.51
371.06	339.38
371.25	337.04
371.45	376.83
371.65	393.21
371.84	358.10
372.04	461.09
372.24	369.80
372.44	339.38
372.63	430.66
372.83	418.96
373.03	421.30
373.22	397.89
373.42	440.02
373.62	416.62
373.81	423.64
374.01	498.53
374.21	379.17
374.40	423.64
374.60	421.30
374.79	421.30
374.99	416.62
375.19	463.43
375.38	337.04
375.58	374.49
375.78	437.68
375.97	390.87
376.17	425.98
376.37	322.99
376.56	444.70
376.76	318.31
376.95	376.83
377.15	411.93
377.35	374.49
377.54	372.15
377.74	374.49
377.93	299.59
378.13	444.70
378.33	479.81
378.52	346.40
378.72	461.09
378.91	414.27
379.11	416.62
379.31	479.81
379.50	376.83
379.70	362.78
379.89	411.93
380.09	374.49
380.28	369.80
380.48	411.93
380.68	334.70
380.87	374.49
381.07	390.87
381.26	493.85
381.46	372.15
381.65	400.23
381.85	320.65
382.04	402.57
382.24	416.62
382.43	346.40
382.63	346.40
382.83	437.68
383.02	442.36
383.22	409.59
383.41	458.74
383.61	482.15
383.80	496.19
384.00	414.27
384.19	393.21
384.39	332.36
384.58	353.42
384.78	456.40
384.97	442.36
385.17	393.21
385.36	404.91
385.56	414.27
385.75	322.99
385.95	351.08
386.14	348.74
386.34	404.91
386.53	393.21
386.72	379.17
386.92	421.30
387.11	435.34
387.31	397.89
387.50	355.76
387.70	409.59
387.89	461.09
388.09	344.06
388.28	411.93
388.48	386.19
388.67	449.38
388.86	463.43
389.06	416.62
389.25	418.96
389.45	411.93
389.64	451.72
389.84	477.47
390.03	374.49
390.22	465.77
390.42	383.85
390.61	411.93
390.81	376.83
391.00	372.15
391.19	444.70
391.39	358.10
391.58	388.53
391.78	369.80
391.97	428.32
392.16	386.19
392.36	425.98
392.55	430.66
392.75	463.43
392.94	360.44
393.13	379.17
393.33	442.36
393.52	423.64
393.71	379.17
393.91	407.25
394.10	437.68
394.29	449.38
394.49	461.09
394.68	388.53
394.88	395.55
395.07	379.17
395.26	465.77
395.46	447.04
395.65	428.32
395.84	409.59
396.04	538.32
396.23	402.57
396.42	393.21
396.62	400.23
396.81	358.10
397.00	379.17
397.19	351.08
397.39	351.08
397.58	402.57
397.77	430.66
397.97	458.74
398.16	390.87
398.35	386.19
398.55	414.27
398.74	388.53
398.93	454.06
399.12	423.64
399.32	409.59
399.51	393.21
399.70	414.27
399.90	425.98
400.09	381.51
400.28	454.06
400.47	393.21
400.67	397.89
400.86	390.87
401.05	369.80
401.24	423.64
401.44	395.55
401.63	381.51
401.82	414.27
402.01	404.91
402.21	376.83
402.40	442.36
402.59	379.17
402.78	393.21
402.97	425.98
403.17	360.44
403.36	383.85
403.55	433.00
403.74	411.93
403.93	433.00
404.13	437.68
404.32	339.38
404.51	390.87
404.70	360.44
404.89	414.27
405.09	440.02
405.28	407.25
405.47	416.62
405.66	461.09
405.85	404.91
406.05	355.76
406.24	418.96
406.43	376.83
406.62	325.33
406.81	447.04
407.00	489.17
407.20	402.57
407.39	358.10
407.58	358.10
407.77	425.98
407.96	491.51
408.15	393.21
408.34	400.23
408.54	411.93
408.73	409.59
408.92	372.15
409.11	435.34
409.30	379.17
409.49	454.06
409.68	386.19
409.87	418.96
410.07	465.77
410.26	388.53
410.45	369.80
410.64	468.11
410.83	379.17
411.02	472.79
411.21	348.74
411.40	430.66
411.59	409.59
411.78	416.62
411.98	425.98
412.17	409.59
412.36	416.62
412.55	397.89
412.74	447.04
412.93	442.36
413.12	390.87
413.31	430.66
413.50	428.32
413.69	421.30
413.88	411.93
414.07	433.00
414.26	369.80
414.45	393.21
414.64	386.19
414.83	383.85
415.02	381.51
415.22	397.89
415.41	454.06
415.60	430.66
415.79	355.76
415.98	414.27
416.17	440.02
416.36	383.85
416.55	393.21
416.74	402.57
416.93	393.21
417.12	400.23
417.31	374.49
417.50	393.21
417.69	355.76
417.88	433.00
418.07	374.49
418.26	365.12
418.45	339.38
418.64	463.43
418.83	388.53
419.02	390.87
419.21	379.17
419.39	327.68
419.58	397.89
419.77	491.51
419.96	367.46
420.15	444.70
420.34	369.80
420.53	400.23
420.72	407.25
420.91	325.33
421.10	440.02
421.29	418.96
421.48	402.57
421.67	435.34
421.86	418.96
422.05	393.21
422.24	369.80
422.43	409.59
422.61	449.38
422.80	404.91
422.99	381.51
423.18	416.62
423.37	447.04
423.56	440.02
423.75	433.00
423.94	402.57
424.13	346.40
424.32	348.74
424.50	484.49
424.69	451.72
424.88	433.00
425.07	351.08
425.26	414.27
425.45	449.38
425.64	404.91
425.83	404.91
426.01	402.57
426.20	369.80
426.39	369.80
426.58	442.36
426.77	395.55
426.96	435.34
427.15	470.45
427.33	435.34
427.52	386.19
427.71	454.06
427.90	381.51
428.09	416.62
428.28	409.59
428.46	463.43
428.65	409.59
428.84	416.62
429.03	479.81
429.22	339.38
429.40	372.15
429.59	369.80
429.78	449.38
429.97	451.72
430.16	372.15
430.34	519.60
430.53	402.57
430.72	414.27
430.91	442.36
431.10	365.12
431.28	341.72
431.47	383.85
431.66	430.66
431.85	409.59
432.03	437.68
432.22	521.94
432.41	358.10
432.60	477.47
432.79	435.34
432.97	454.06
433.16	383.85
433.35	428.32
433.54	348.74
433.72	496.19
433.91	327.68
434.10	435.34
434.28	381.51
434.47	306.61
434.66	358.10
434.85	374.49
435.03	390.87
435.22	423.64
435.41	465.77
435.59	402.57
435.78	409.59
435.97	390.87
436.16	444.70
436.34	423.64
436.53	482.15
436.72	465.77
436.90	346.40
437.09	447.04
437.28	407.25
437.46	454.06
437.65	407.25
437.84	402.57
438.02	400.23
438.21	463.43
438.40	325.33
438.58	381.51
438.77	425.98
438.96	397.89
439.14	395.55
439.33	409.59
439.52	430.66
439.70	458.74
439.89	379.17
440.08	390.87
440.26	341.72
440.45	440.02
440.63	381.51
440.82	477.47
441.01	447.04
441.19	369.80
441.38	337.04
441.57	428.32
441.75	411.93
441.94	421.30
442.12	411.93
442.31	407.25
442.50	449.38
442.68	390.87
442.87	390.87
443.05	393.21
443.24	397.89
443.43	454.06
443.61	383.85
443.80	440.02
443.98	383.85
444.17	447.04
444.35	423.64
444.54	409.59
444.73	416.62
444.91	393.21
445.10	416.62
445.28	404.91
445.47	428.32
445.65	437.68
445.84	421.30
446.02	330.02
446.21	451.72
446.39	461.09
446.58	416.62
446.77	379.17
446.95	440.02
447.14	447.04
447.32	437.68
447.51	418.96
447.69	444.70
447.88	372.15
448.06	395.55
448.25	411.93
448.43	411.93
448.62	414.27
448.80	411.93
448.99	379.17
449.17	332.36
449.36	400.23
449.54	437.68
449.73	423.64
449.91	484.49
450.10	383.85
450.28	404.91
450.46	397.89
450.65	423.64
450.83	383.85
451.02	465.77
451.20	388.53
451.39	451.72
451.57	339.38
451.76	400.23
451.94	414.27
452.13	402.57
452.31	407.25
452.49	444.70
452.68	393.21
452.86	388.53
453.05	430.66
453.23	409.59
453.42	381.51
453.60	367.46
453.78	365.12
453.97	365.12
454.15	369.80
454.34	362.78
454.52	397.89
454.70	372.15
454.89	451.72
455.07	397.89
455.26	465.77
455.44	463.43
455.62	416.62
455.81	346.40
455.99	395.55
456.17	440.02
456.36	421.30
456.54	409.59
456.73	451.72
456.91	477.47
457.09	372.15
457.28	442.36
457.46	465.77
457.64	409.59
457.83	337.04
458.01	330.02
458.19	425.98
458.38	447.04
458.56	456.40
458.74	367.46
458.93	416.62
459.11	421.30
459.29	433.00
459.48	400.23
459.66	390.87
459.84	320.65
460.03	512.58
460.21	463.43
460.39	472.79
460.57	440.02
460.76	428.32
460.94	421.30
461.12	458.74
461.31	465.77
461.49	465.77
461.67	456.40
461.85	374.49
462.04	386.19
462.22	741.95
462.40	425.98
462.59	353.42
462.77	451.72
462.95	404.91
463.13	435.34
463.32	449.38
463.50	397.89
463.68	414.27
463.86	444.70
464.05	372.15
464.23	411.93
464.41	425.98
464.59	447.04
464.78	397.89
464.96	374.49
465.14	418.96
465.32	407.25
465.50	454.06
465.69	407.25
465.87	386.19
466.05	397.89
466.23	346.40
466.41	423.64
466.60	344.06
466.78	372.15
466.96	435.34
467.14	367.46
467.32	425.98
467.51	404.91
467.69	486.83
467.87	454.06
468.05	435.34
468.23	491.51
468.41	437.68
468.60	416.62
468.78	472.79
468.96	353.42
469.14	390.87
469.32	379.17
469.50	418.96
469.69	437.68
469.87	386.19
470.05	365.12
470.23	458.74
470.41	442.36
470.59	430.66
470.77	414.27
470.95	365.12
471.14	390.87
471.32	491.51
471.50	433.00
471.68	425.98
471.86	397.89
472.04	332.36
472.22	369.80
472.40	381.51
472.58	388.53
472.77	454.06
472.95	360.44
473.13	482.15
473.31	461.09
473.49	418.96
473.67	430.66
473.85	433.00
474.03	414.27
474.21	423.64
474.39	407.25
474.57	451.72
474.75	351.08
474.93	390.87
475.12	404.91
475.30	451.72
475.48	402.57
475.66	390.87
475.84	423.64
476.02	397.89
476.20	491.51
476.38	386.19
476.56	496.19
476.74	376.83
476.92	484.49
477.10	463.43
477.28	423.64
477.46	313.63
477.64	388.53
477.82	376.83
478.00	454.06
478.18	449.38
478.36	322.99
478.54	416.62
478.72	418.96
478.90	393.21
479.08	411.93
479.26	344.06
479.44	400.23
479.62	458.74
479.80	346.40
479.98	449.38
480.16	409.59
480.34	423.64
480.52	437.68
480.70	433.00
480.88	440.02
481.06	435.34
481.24	388.53
481.41	390.87
481.59	402.57
481.77	390.87
481.95	393.21
482.13	430.66
482.31	402.57
482.49	425.98
482.67	395.55
482.85	454.06
483.03	430.66
483.21	433.00
483.39	379.17
483.57	395.55
483.74	489.17
483.92	416.62
484.10	411.93
484.28	500.87
484.46	444.70
484.64	346.40
484.82	463.43
485.00	407.25
485.18	449.38
485.35	475.13
485.53	381.51
485.71	489.17
485.89	416.62
486.07	425.98
486.25	433.00
486.43	400.23
486.61	390.87
486.78	402.57
486.96	301.93
487.14	376.83
487.32	390.87
487.50	376.83
487.68	428.32
487.85	414.27
488.03	355.76
488.21	454.06
488.39	428.32
488.57	423.64
488.75	456.40
488.92	489.17
489.10	393.21
489.28	479.81
489.46	397.89
489.64	435.34
489.81	447.04
489.99	433.00
490.17	397.89
490.35	468.11
490.53	418.96
490.70	379.17
490.88	414.27
491.06	365.12
491.24	444.70
491.41	477.47
491.59	428.32
491.77	355.76
491.95	383.85
492.13	311.29
492.30	374.49
492.48	358.10
492.66	362.78
492.84	400.23
493.01	414.27
493.19	475.13
493.37	353.42
493.54	397.89
493.72	449.38
493.90	395.55
494.08	461.09
494.25	334.70
494.43	393.21
494.61	376.83
494.79	472.79
494.96	421.30
495.14	451.72
495.32	440.02
495.49	458.74
495.67	383.85
495.85	437.68
496.02	369.80
496.20	470.45
496.38	479.81
496.55	414.27
496.73	451.72
496.91	304.27
497.09	440.02
497.26	430.66
497.44	414.27
497.62	414.27
497.79	367.46
497.97	430.66
498.14	379.17
498.32	440.02
498.50	468.11
498.67	411.93
498.85	454.06
499.03	341.72
499.20	414.27
499.38	386.19
499.56	421.30
499.73	411.93
499.91	390.87
500.08	390.87
500.26	423.64
500.44	395.55
500.61	463.43
500.79	435.34
500.97	348.74
501.14	440.02
501.32	425.98
501.49	397.89
501.67	423.64
501.84	402.57
502.02	397.89
502.20	526.62
502.37	465.77
502.55	437.68
502.72	451.72
502.90	381.51
503.07	409.59
503.25	418.96
503.43	449.38
503.60	402.57
503.78	407.25
503.95	418.96
504.13	407.25
504.30	390.87
504.48	390.87
504.65	402.57
504.83	348.74
505.01	461.09
505.18	428.32
505.36	400.23
505.53	395.55
505.71	362.78
505.88	440.02
506.06	423.64
506.23	437.68
506.41	407.25
506.58	409.59
506.76	418.96
506.93	437.68
507.11	411.93
507.28	381.51
507.46	374.49
507.63	353.42
507.81	482.15
507.98	397.89
508.16	402.57
508.33	416.62
508.50	421.30
508.68	376.83
508.85	456.40
509.03	437.68
509.20	402.57
509.38	449.38
509.55	451.72
509.73	444.70
509.90	447.04
510.08	353.42
510.25	430.66
510.42	372.15
510.60	421.30
510.77	416.62
510.95	379.17
511.12	386.19
511.30	458.74
511.47	433.00
511.64	374.49
511.82	421.30
511.99	433.00
512.17	390.87
512.34	414.27
512.51	348.74
512.69	355.76
512.86	374.49
513.04	418.96
513.21	421.30
513.38	451.72
513.56	456.40
513.73	390.87
513.90	402.57
514.08	390.87
514.25	421.30
514.43	393.21
514.60	365.12
514.77	369.80
514.95	414.27
515.12	440.02
515.29	411.93
515.47	388.53
515.64	383.85
515.81	304.27
515.99	416.62
516.16	444.70
516.33	383.85
516.51	414.27
516.68	372.15
516.85	456.40
517.03	395.55
517.20	435.34
517.37	437.68
517.54	470.45
517.72	493.85
517.89	395.55
518.06	390.87
518.24	456.40
518.41	510.24
518.58	414.27
518.75	404.91
518.93	358.10
519.10	400.23
519.27	456.40
519.45	430.66
519.62	318.31
519.79	414.27
519.96	425.98
520.14	423.64
520.31	437.68
520.48	456.40
520.65	416.62
520.83	367.46
521.00	468.11
521.17	369.80
521.34	386.19
521.52	404.91
521.69	376.83
521.86	390.87
522.03	491.51
522.20	454.06
522.38	479.81
522.55	423.64
522.72	465.77
522.89	416.62
523.07	461.09
523.24	395.55
523.41	482.15
523.58	362.78
523.75	388.53
523.92	390.87
524.10	313.63
524.27	428.32
524.44	425.98
524.61	372.15
524.78	437.68
524.96	402.57
525.13	358.10
525.30	414.27
525.47	425.98
525.64	383.85
525.81	423.64
525.98	299.59
526.16	393.21
526.33	461.09
526.50	395.55
526.67	418.96
526.84	423.64
527.01	362.78
527.18	388.53
527.36	365.12
527.53	393.21
527.70	421.30
527.87	442.36
528.04	428.32
528.21	470.45
528.38	444.70
528.55	437.68
528.72	440.02
528.89	491.51
529.07	414.27
529.24	440.02
529.41	444.70
529.58	428.32
529.75	411.93
529.92	393.21
530.09	376.83
530.26	407.25
530.43	451.72
530.60	468.11
530.77	397.89
530.94	416.62
531.11	346.40
531.28	479.81
531.46	447.04
531.63	425.98
531.80	442.36
531.97	409.59
532.14	395.55
532.31	390.87
532.48	388.53
532.65	475.13
532.82	379.17
532.99	325.33
533.16	416.62
533.33	440.02
533.50	444.70
533.67	330.02
533.84	374.49
534.01	447.04
534.18	486.83
534.35	428.32
534.52	400.23
534.69	472.79
534.86	395.55
535.03	451.72
535.20	411.93
535.37	393.21
535.54	435.34
535.71	365.12
535.88	325.33
536.05	421.30
536.22	416.62
536.38	433.00
536.55	414.27
536.72	435.34
536.89	353.42
537.06	454.06
537.23	411.93
537.40	402.57
537.57	409.59
537.74	482.15
537.91	433.00
538.08	435.34
538.25	440.02
538.42	351.08
538.59	409.59
538.75	372.15
538.92	440.02
539.09	388.53
539.26	437.68
539.43	395.55
539.60	454.06
539.77	437.68
539.94	374.49
540.11	428.32
540.28	440.02
540.44	505.56
540.61	421.30
540.78	430.66
540.95	454.06
541.12	503.22
541.29	402.57
541.46	447.04
541.62	402.57
541.79	400.23
541.96	369.80
542.13	472.79
542.30	430.66
542.47	409.59
542.63	437.68
542.80	428.32
542.97	407.25
543.14	351.08
543.31	454.06
543.48	444.70
543.64	447.04
543.81	407.25
543.98	400.23
544.15	433.00
544.32	484.49
544.48	456.40
544.65	437.68
544.82	414.27
544.99	327.68
545.16	395.55
545.32	421.30
545.49	423.64
545.66	458.74
545.83	423.64
546.00	430.66
546.16	374.49
546.33	425.98
546.50	404.91
546.67	433.00
546.83	440.02
547.00	395.55
547.17	388.53
547.34	404.91
547.50	435.34
547.67	411.93
547.84	365.12
548.00	388.53
548.17	416.62
548.34	475.13
548.51	475.13
548.67	404.91
548.84	390.87
549.01	395.55
549.18	411.93
549.34	437.68
549.51	411.93
549.68	447.04
549.84	339.38
550.01	353.42
550.18	423.64
550.34	493.85
550.51	372.15
550.68	428.32
550.84	376.83
551.01	402.57
551.18	475.13
551.34	332.36
551.51	449.38
551.68	341.72
551.84	447.04
552.01	376.83
552.18	362.78
552.34	440.02
552.51	421.30
552.68	397.89
552.84	472.79
553.01	442.36
553.18	503.22
553.34	437.68
553.51	437.68
553.67	440.02
553.84	482.15
554.01	451.72
554.17	409.59
554.34	386.19
554.51	362.78
554.67	437.68
554.84	425.98
555.00	409.59
555.17	421.30
555.33	421.30
555.50	433.00
555.67	379.17
555.83	332.36
556.00	414.27
556.16	538.32
556.33	437.68
556.50	409.59
556.66	430.66
556.83	421.30
556.99	418.96
557.16	435.34
557.32	447.04
557.49	386.19
557.65	390.87
557.82	390.87
557.98	334.70
558.15	430.66
558.32	456.40
558.48	503.22
558.65	367.46
558.81	458.74
558.98	475.13
559.14	414.27
559.31	416.62
559.47	411.93
559.64	407.25
559.80	372.15
559.97	416.62
560.13	369.80
560.30	372.15
560.46	374.49
560.63	379.17
560.79	404.91
560.96	402.57
561.12	479.81
561.29	454.06
561.45	482.15
561.61	376.83
561.78	489.17
561.94	421.30
562.11	388.53
562.27	449.38
562.44	421.30
562.60	397.89
562.77	395.55
562.93	468.11
563.10	449.38
563.26	479.81
563.42	376.83
563.59	463.43
563.75	425.98
563.92	465.77
564.08	400.23
564.24	365.12
564.41	461.09
564.57	407.25
564.74	407.25
564.90	430.66
565.07	414.27
565.23	388.53
565.39	465.77
565.56	472.79
565.72	407.25
565.88	444.70
566.05	379.17
566.21	334.70
566.38	407.25
566.54	416.62
566.70	393.21
566.87	397.89
567.03	376.83
567.19	400.23
567.36	425.98
567.52	451.72
567.68	470.45
567.85	334.70
568.01	330.02
568.17	414.27
568.34	418.96
568.50	409.59
568.66	381.51
568.83	500.87
568.99	435.34
569.15	404.91
569.32	390.87
569.48	447.04
569.64	367.46
569.81	440.02
569.97	393.21
570.13	451.72
570.30	430.66
570.46	381.51
570.62	414.27
570.78	482.15
570.95	414.27
571.11	449.38
571.27	442.36
571.43	425.98
571.60	465.77
571.76	411.93
571.92	353.42
572.09	369.80
572.25	414.27
572.41	440.02
572.57	528.96
572.74	524.28
572.90	526.62
573.06	423.64
573.22	414.27
573.38	472.79
573.55	440.02
573.71	430.66
573.87	442.36
574.03	365.12
574.20	433.00
574.36	430.66
574.52	423.64
574.68	400.23
574.84	437.68
575.01	463.43
575.17	400.23
575.33	369.80
575.49	430.66
575.65	418.96
575.82	397.89
575.98	423.64
576.14	463.43
576.30	470.45
576.46	402.57
576.62	456.40
576.79	374.49
576.95	463.43
577.11	414.27
577.27	395.55
577.43	418.96
577.59	360.44
577.75	456.40
577.92	400.23
578.08	500.87
578.24	409.59
578.40	423.64
578.56	465.77
578.72	479.81
578.88	458.74
579.04	390.87
579.21	362.78
579.37	402.57
579.53	355.76
579.69	456.40
579.85	491.51
580.01	358.10
580.17	374.49
580.33	444.70
580.49	437.68
580.65	390.87
580.82	402.57
580.98	404.91
581.14	339.38
581.30	421.30
581.46	507.90
581.62	498.53
581.78	404.91
581.94	461.09
582.10	379.17
582.26	367.46
582.42	402.57
582.58	416.62
582.74	447.04
582.90	397.89
583.06	407.25
583.22	388.53
583.38	393.21
583.54	416.62
583.70	383.85
583.86	374.49
584.02	409.59
584.18	416.62
584.34	465.77
584.50	409.59
584.66	482.15
584.82	489.17
584.98	486.83
585.14	442.36
585.30	447.04
585.46	442.36
585.62	468.11
585.78	390.87
585.94	463.43
586.10	407.25
586.26	397.89
586.42	397.89
586.58	435.34
586.74	383.85
586.90	465.77
587.06	428.32
587.22	414.27
587.38	407.25
587.54	367.46
587.70	383.85
587.86	421.30
588.02	433.00
588.18	435.34
588.34	428.32
588.49	425.98
588.65	397.89
588.81	489.17
588.97	397.89
589.13	430.66
589.29	468.11
589.45	397.89
589.61	470.45
589.77	507.90
589.93	447.04
590.08	390.87
590.24	421.30
590.40	454.06
590.56	353.42
590.72	444.70
590.88	472.79
591.04	442.36
591.20	325.33
591.35	383.85
591.51	428.32
591.67	444.70
591.83	449.38
591.99	388.53
592.15	463.43
592.31	435.34
592.46	383.85
592.62	425.98
592.78	400.23
592.94	402.57
593.10	468.11
593.26	376.83
593.41	360.44
593.57	407.25
593.73	463.43
593.89	451.72
594.05	381.51
594.20	369.80
594.36	381.51
594.52	393.21
594.68	430.66
594.84	423.64
594.99	498.53
595.15	367.46
595.31	449.38
595.47	433.00
595.62	421.30
595.78	428.32
595.94	386.19
596.10	454.06
596.25	388.53
596.41	489.17
596.57	416.62
596.73	400.23
596.88	390.87
597.04	437.68
597.20	440.02
597.36	421.30
597.51	404.91
597.67	416.62
597.83	337.04
597.99	468.11
598.14	454.06
598.30	479.81
598.46	334.70
598.61	454.06
598.77	407.25
598.93	395.55
599.09	458.74
599.24	435.34
599.40	484.49
599.56	353.42
599.71	411.93
599.87	386.19
600.03	440.02
600.18	402.57
600.34	479.81
600.50	381.51
600.65	414.27
600.81	435.34
600.97	355.76
601.12	444.70
601.28	442.36
601.44	402.57
601.59	430.66
601.75	449.38
601.91	365.12
602.06	425.98
602.22	500.87
602.37	449.38
602.53	486.83
602.69	407.25
602.84	430.66
603.00	393.21
603.16	440.02
603.31	451.72
603.47	437.68
603.62	402.57
603.78	376.83
603.94	411.93
604.09	454.06
604.25	449.38
604.40	397.89
604.56	376.83
604.71	404.91
604.87	386.19
605.03	458.74
605.18	468.11
605.34	404.91
605.49	407.25
605.65	409.59
605.80	337.04
605.96	456.40
606.12	393.21
606.27	360.44
606.43	514.92
606.58	416.62
606.74	381.51
606.89	414.27
607.05	397.89
607.20	369.80
607.36	440.02
607.51	404.91
607.67	428.32
607.82	344.06
607.98	493.85
608.13	418.96
608.29	425.98
608.44	423.64
608.60	437.68
608.75	458.74
608.91	447.04
609.06	425.98
609.22	416.62
609.37	353.42
609.53	463.43
609.68	397.89
609.84	365.12
609.99	433.00
610.15	372.15
