SpectraSuite Data File
++++++++++++++++++++++++++++++++++++
Date: Fri Oct 25 12:10:56 EDT 2013
User: price-jones
Dark Spectrum Present: No
Reference Spectrum Present: No
Number of Sampled Component Spectra: 1
Spectrometers: USB2+H05261
Integration Time (usec): 100000 (USB2+H05261)
Spectra Averaged: 1 (USB2+H05261)
Boxcar Smoothing: 0 (USB2+H05261)
Correct for Electrical Dark: No (USB2+H05261)
Strobe/Lamp Enabled: No (USB2+H05261)
Correct for Detector Non-linearity: No (USB2+H05261)
Correct for Stray Light: No (USB2+H05261)
Number of Pixels in Processed Spectrum: 2048
>>>>>Begin Processed Spectral Data<<<<<
365.73	318.31
365.92	318.31
366.12	318.31
366.32	248.10
366.52	231.71
366.72	292.57
366.91	220.01
367.11	252.78
367.31	201.29
367.51	220.01
367.70	238.73
367.90	231.71
368.10	241.08
368.30	227.03
368.49	189.58
368.69	245.76
368.89	217.67
369.09	278.52
369.28	308.95
369.48	212.99
369.68	292.57
369.87	306.61
370.07	330.02
370.27	374.49
370.47	334.70
370.66	330.02
370.86	304.27
371.06	423.64
371.25	454.06
371.45	372.15
371.65	402.57
371.84	372.15
372.04	353.42
372.24	386.19
372.44	397.89
372.63	374.49
372.83	442.36
373.03	418.96
373.22	416.62
373.42	372.15
373.62	351.08
373.81	409.59
374.01	416.62
374.21	465.77
374.40	454.06
374.60	440.02
374.79	374.49
374.99	461.09
375.19	451.72
375.38	388.53
375.58	325.33
375.78	411.93
375.97	418.96
376.17	418.96
376.37	416.62
376.56	369.80
376.76	465.77
376.95	416.62
377.15	442.36
377.35	437.68
377.54	465.77
377.74	379.17
377.93	372.15
378.13	430.66
378.33	374.49
378.52	414.27
378.72	407.25
378.91	320.65
379.11	374.49
379.31	416.62
379.50	381.51
379.70	463.43
379.89	411.93
380.09	367.46
380.28	351.08
380.48	381.51
380.68	386.19
380.87	418.96
381.07	444.70
381.26	416.62
381.46	348.74
381.65	435.34
381.85	423.64
382.04	402.57
382.24	388.53
382.43	425.98
382.63	367.46
382.83	294.91
383.02	390.87
383.22	433.00
383.41	311.29
383.61	337.04
383.80	421.30
384.00	409.59
384.19	416.62
384.39	447.04
384.58	386.19
384.78	430.66
384.97	397.89
385.17	411.93
385.36	395.55
385.56	435.34
385.75	433.00
385.95	433.00
386.14	395.55
386.34	353.42
386.53	369.80
386.72	444.70
386.92	411.93
387.11	381.51
387.31	430.66
387.50	402.57
387.70	365.12
387.89	376.83
388.09	379.17
388.28	421.30
388.48	348.74
388.67	388.53
388.86	447.04
389.06	449.38
389.25	496.19
389.45	400.23
389.64	428.32
389.84	428.32
390.03	379.17
390.22	421.30
390.42	414.27
390.61	367.46
390.81	360.44
391.00	395.55
391.19	407.25
391.39	397.89
391.58	376.83
391.78	388.53
391.97	451.72
392.16	367.46
392.36	374.49
392.55	386.19
392.75	428.32
392.94	355.76
393.13	479.81
393.33	348.74
393.52	383.85
393.71	404.91
393.91	423.64
394.10	400.23
394.29	407.25
394.49	388.53
394.68	409.59
394.88	418.96
395.07	425.98
395.26	418.96
395.46	404.91
395.65	442.36
395.84	393.21
396.04	470.45
396.23	451.72
396.42	383.85
396.62	418.96
396.81	376.83
397.00	433.00
397.19	369.80
397.39	325.33
397.58	442.36
397.77	348.74
397.97	433.00
398.16	400.23
398.35	428.32
398.55	421.30
398.74	388.53
398.93	404.91
399.12	425.98
399.32	411.93
399.51	421.30
399.70	339.38
399.90	322.99
400.09	358.10
400.28	430.66
400.47	362.78
400.67	425.98
400.86	393.21
401.05	435.34
401.24	442.36
401.44	440.02
401.63	458.74
401.82	353.42
402.01	428.32
402.21	397.89
402.40	440.02
402.59	395.55
402.78	341.72
402.97	386.19
403.17	433.00
403.36	421.30
403.55	486.83
403.74	383.85
403.93	465.77
404.13	456.40
404.32	379.17
404.51	428.32
404.70	418.96
404.89	451.72
405.09	397.89
405.28	379.17
405.47	421.30
405.66	404.91
405.85	402.57
406.05	395.55
406.24	404.91
406.43	400.23
406.62	472.79
406.81	433.00
407.00	372.15
407.20	425.98
407.39	381.51
407.58	402.57
407.77	421.30
407.96	425.98
408.15	414.27
408.34	433.00
408.54	409.59
408.73	416.62
408.92	381.51
409.11	404.91
409.30	430.66
409.49	348.74
409.68	381.51
409.87	407.25
410.07	407.25
410.26	411.93
410.45	351.08
410.64	437.68
410.83	386.19
411.02	365.12
411.21	400.23
411.40	374.49
411.59	388.53
411.78	372.15
411.98	395.55
412.17	358.10
412.36	327.68
412.55	447.04
412.74	425.98
412.93	404.91
413.12	407.25
413.31	376.83
413.50	447.04
413.69	397.89
413.88	418.96
414.07	360.44
414.26	447.04
414.45	409.59
414.64	465.77
414.83	456.40
415.02	397.89
415.22	418.96
415.41	447.04
415.60	444.70
415.79	318.31
415.98	470.45
416.17	430.66
416.36	355.76
416.55	449.38
416.74	435.34
416.93	351.08
417.12	430.66
417.31	451.72
417.50	421.30
417.69	414.27
417.88	355.76
418.07	334.70
418.26	365.12
418.45	465.77
418.64	461.09
418.83	402.57
419.02	388.53
419.21	461.09
419.39	402.57
419.58	386.19
419.77	421.30
419.96	456.40
420.15	498.53
420.34	393.21
420.53	407.25
420.72	463.43
420.91	367.46
421.10	411.93
421.29	393.21
421.48	397.89
421.67	376.83
421.86	407.25
422.05	369.80
422.24	311.29
422.43	381.51
422.61	421.30
422.80	381.51
422.99	393.21
423.18	407.25
423.37	428.32
423.56	388.53
423.75	454.06
423.94	447.04
424.13	465.77
424.32	400.23
424.50	402.57
424.69	383.85
424.88	390.87
425.07	414.27
425.26	449.38
425.45	461.09
425.64	374.49
425.83	430.66
426.01	404.91
426.20	433.00
426.39	444.70
426.58	465.77
426.77	372.15
426.96	433.00
427.15	330.02
427.33	418.96
427.52	463.43
427.71	433.00
427.90	400.23
428.09	393.21
428.28	374.49
428.46	395.55
428.65	297.25
428.84	369.80
429.03	393.21
429.22	365.12
429.40	423.64
429.59	372.15
429.78	372.15
429.97	496.19
430.16	355.76
430.34	489.17
430.53	428.32
430.72	437.68
430.91	386.19
431.10	390.87
431.28	372.15
431.47	407.25
431.66	472.79
431.85	440.02
432.03	468.11
432.22	451.72
432.41	416.62
432.60	407.25
432.79	449.38
432.97	381.51
433.16	395.55
433.35	376.83
433.54	337.04
433.72	367.46
433.91	461.09
434.10	388.53
434.28	411.93
434.47	383.85
434.66	416.62
434.85	376.83
435.03	440.02
435.22	374.49
435.41	437.68
435.59	442.36
435.78	365.12
435.97	379.17
436.16	461.09
436.34	454.06
436.53	407.25
436.72	507.90
436.90	458.74
437.09	425.98
437.28	376.83
437.46	430.66
437.65	456.40
437.84	468.11
438.02	437.68
438.21	461.09
438.40	433.00
438.58	418.96
438.77	414.27
438.96	449.38
439.14	465.77
439.33	381.51
439.52	465.77
439.70	388.53
439.89	454.06
440.08	388.53
440.26	437.68
440.45	397.89
440.63	449.38
440.82	423.64
441.01	386.19
441.19	414.27
441.38	358.10
441.57	407.25
441.75	407.25
441.94	472.79
442.12	393.21
442.31	423.64
442.50	433.00
442.68	418.96
442.87	449.38
443.05	388.53
443.24	362.78
443.43	425.98
443.61	440.02
443.80	409.59
443.98	407.25
444.17	407.25
444.35	388.53
444.54	404.91
444.73	313.63
444.91	425.98
445.10	390.87
445.28	360.44
445.47	393.21
445.65	404.91
445.84	383.85
446.02	400.23
446.21	416.62
446.39	339.38
446.58	407.25
446.77	395.55
446.95	416.62
447.14	409.59
447.32	465.77
447.51	372.15
447.69	423.64
447.88	421.30
448.06	482.15
448.25	388.53
448.43	430.66
448.62	423.64
448.80	442.36
448.99	365.12
449.17	402.57
449.36	365.12
449.54	372.15
449.73	430.66
449.91	402.57
450.10	423.64
450.28	409.59
450.46	475.13
450.65	449.38
450.83	362.78
451.02	386.19
451.20	416.62
451.39	346.40
451.57	421.30
451.76	407.25
451.94	346.40
452.13	447.04
452.31	430.66
452.49	444.70
452.68	472.79
452.86	393.21
453.05	449.38
453.23	411.93
453.42	435.34
453.60	395.55
453.78	470.45
453.97	421.30
454.15	367.46
454.34	388.53
454.52	444.70
454.70	517.26
454.89	355.76
455.07	402.57
455.26	451.72
455.44	404.91
455.62	454.06
455.81	414.27
455.99	416.62
456.17	386.19
456.36	451.72
456.54	451.72
456.73	393.21
456.91	454.06
457.09	428.32
457.28	470.45
457.46	498.53
457.64	430.66
457.83	416.62
458.01	430.66
458.19	472.79
458.38	404.91
458.56	435.34
458.74	400.23
458.93	381.51
459.11	447.04
459.29	383.85
459.48	344.06
459.66	456.40
459.84	433.00
460.03	411.93
460.21	472.79
460.39	428.32
460.57	477.47
460.76	402.57
460.94	411.93
461.12	402.57
461.31	390.87
461.49	390.87
461.67	444.70
461.85	416.62
462.04	367.46
462.22	802.80
462.40	468.11
462.59	444.70
462.77	402.57
462.95	421.30
463.13	365.12
463.32	367.46
463.50	435.34
463.68	421.30
463.86	465.77
464.05	409.59
464.23	458.74
464.41	418.96
464.59	407.25
464.78	440.02
464.96	397.89
465.14	383.85
465.32	430.66
465.50	447.04
465.69	395.55
465.87	423.64
466.05	414.27
466.23	463.43
466.41	425.98
466.60	362.78
466.78	423.64
466.96	360.44
467.14	470.45
467.32	369.80
467.51	379.17
467.69	470.45
467.87	454.06
468.05	337.04
468.23	414.27
468.41	454.06
468.60	484.49
468.78	388.53
468.96	463.43
469.14	327.68
469.32	344.06
469.50	355.76
469.69	430.66
469.87	442.36
470.05	418.96
470.23	435.34
470.41	416.62
470.59	425.98
470.77	388.53
470.95	388.53
471.14	402.57
471.32	425.98
471.50	409.59
471.68	395.55
471.86	498.53
472.04	447.04
472.22	451.72
472.40	454.06
472.58	402.57
472.77	437.68
472.95	409.59
473.13	437.68
473.31	498.53
473.49	344.06
473.67	409.59
473.85	379.17
474.03	535.98
474.21	449.38
474.39	393.21
474.57	425.98
474.75	440.02
474.93	360.44
475.12	400.23
475.30	393.21
475.48	376.83
475.66	402.57
475.84	400.23
476.02	449.38
476.20	395.55
476.38	351.08
476.56	451.72
476.74	404.91
476.92	425.98
477.10	435.34
477.28	430.66
477.46	383.85
477.64	416.62
477.82	454.06
478.00	449.38
478.18	418.96
478.36	369.80
478.54	334.70
478.72	393.21
478.90	360.44
479.08	442.36
479.26	379.17
479.44	503.22
479.62	472.79
479.80	416.62
479.98	409.59
480.16	423.64
480.34	400.23
480.52	409.59
480.70	442.36
480.88	367.46
481.06	351.08
481.24	421.30
481.41	390.87
481.59	428.32
481.77	428.32
481.95	381.51
482.13	423.64
482.31	318.31
482.49	444.70
482.67	418.96
482.85	468.11
483.03	365.12
483.21	442.36
483.39	479.81
483.57	390.87
483.74	381.51
483.92	390.87
484.10	435.34
484.28	404.91
484.46	447.04
484.64	411.93
484.82	400.23
485.00	421.30
485.18	334.70
485.35	388.53
485.53	358.10
485.71	484.49
485.89	390.87
486.07	477.47
486.25	521.94
486.43	372.15
486.61	379.17
486.78	447.04
486.96	428.32
487.14	416.62
487.32	416.62
487.50	393.21
487.68	409.59
487.85	411.93
488.03	346.40
488.21	416.62
488.39	437.68
488.57	451.72
488.75	470.45
488.92	482.15
489.10	365.12
489.28	475.13
489.46	395.55
489.64	430.66
489.81	379.17
489.99	409.59
490.17	383.85
490.35	507.90
490.53	383.85
490.70	395.55
490.88	376.83
491.06	386.19
491.24	393.21
491.41	491.51
491.59	404.91
491.77	454.06
491.95	379.17
492.13	381.51
492.30	393.21
492.48	411.93
492.66	447.04
492.84	386.19
493.01	449.38
493.19	383.85
493.37	407.25
493.54	402.57
493.72	430.66
493.90	456.40
494.08	421.30
494.25	451.72
494.43	360.44
494.61	381.51
494.79	372.15
494.96	454.06
495.14	505.56
495.32	379.17
495.49	351.08
495.67	421.30
495.85	414.27
496.02	498.53
496.20	428.32
496.38	475.13
496.55	386.19
496.73	416.62
496.91	369.80
497.09	440.02
497.26	411.93
497.44	440.02
497.62	397.89
497.79	489.17
497.97	465.77
498.14	409.59
498.32	423.64
498.50	463.43
498.67	383.85
498.85	367.46
499.03	341.72
499.20	414.27
499.38	386.19
499.56	400.23
499.73	437.68
499.91	372.15
500.08	386.19
500.26	390.87
500.44	425.98
500.61	381.51
500.79	465.77
500.97	381.51
501.14	414.27
501.32	449.38
501.49	463.43
501.67	465.77
501.84	365.12
502.02	409.59
502.20	465.77
502.37	386.19
502.55	404.91
502.72	428.32
502.90	386.19
503.07	393.21
503.25	451.72
503.43	418.96
503.60	414.27
503.78	458.74
503.95	425.98
504.13	454.06
504.30	475.13
504.48	388.53
504.65	360.44
504.83	423.64
505.01	428.32
505.18	393.21
505.36	393.21
505.53	505.56
505.71	475.13
505.88	414.27
506.06	430.66
506.23	362.78
506.41	400.23
506.58	430.66
506.76	421.30
506.93	355.76
507.11	433.00
507.28	423.64
507.46	369.80
507.63	468.11
507.81	376.83
507.98	365.12
508.16	416.62
508.33	416.62
508.50	430.66
508.68	456.40
508.85	428.32
509.03	367.46
509.20	393.21
509.38	400.23
509.55	444.70
509.73	440.02
509.90	400.23
510.08	456.40
510.25	440.02
510.42	395.55
510.60	433.00
510.77	447.04
510.95	437.68
511.12	449.38
511.30	475.13
511.47	465.77
511.64	449.38
511.82	491.51
511.99	430.66
512.17	409.59
512.34	449.38
512.51	416.62
512.69	397.89
512.86	447.04
513.04	437.68
513.21	376.83
513.38	414.27
513.56	454.06
513.73	344.06
513.90	404.91
514.08	346.40
514.25	400.23
514.43	411.93
514.60	433.00
514.77	337.04
514.95	475.13
515.12	442.36
515.29	440.02
515.47	346.40
515.64	465.77
515.81	362.78
515.99	454.06
516.16	470.45
516.33	458.74
516.51	402.57
516.68	454.06
516.85	404.91
517.03	404.91
517.20	477.47
517.37	430.66
517.54	442.36
517.72	444.70
517.89	376.83
518.06	416.62
518.24	409.59
518.41	437.68
518.58	374.49
518.75	423.64
518.93	416.62
519.10	456.40
519.27	414.27
519.45	472.79
519.62	400.23
519.79	416.62
519.96	362.78
520.14	376.83
520.31	472.79
520.48	379.17
520.65	381.51
520.83	421.30
521.00	454.06
521.17	428.32
521.34	437.68
521.52	404.91
521.69	418.96
521.86	411.93
522.03	468.11
522.20	468.11
522.38	451.72
522.55	388.53
522.72	386.19
522.89	421.30
523.07	418.96
523.24	383.85
523.41	341.72
523.58	470.45
523.75	409.59
523.92	395.55
524.10	418.96
524.27	404.91
524.44	266.82
524.61	437.68
524.78	423.64
524.96	404.91
525.13	423.64
525.30	454.06
525.47	444.70
525.64	418.96
525.81	433.00
525.98	386.19
526.16	400.23
526.33	409.59
526.50	468.11
526.67	414.27
526.84	351.08
527.01	411.93
527.18	369.80
527.36	393.21
527.53	346.40
527.70	425.98
527.87	411.93
528.04	435.34
528.21	374.49
528.38	433.00
528.55	454.06
528.72	437.68
528.89	456.40
529.07	381.51
529.24	449.38
529.41	454.06
529.58	463.43
529.75	447.04
529.92	468.11
530.09	447.04
530.26	353.42
530.43	442.36
530.60	395.55
530.77	395.55
530.94	423.64
531.11	449.38
531.28	472.79
531.46	393.21
531.63	379.17
531.80	411.93
531.97	425.98
532.14	449.38
532.31	402.57
532.48	395.55
532.65	400.23
532.82	425.98
532.99	458.74
533.16	414.27
533.33	409.59
533.50	402.57
533.67	423.64
533.84	407.25
534.01	456.40
534.18	362.78
534.35	456.40
534.52	409.59
534.69	449.38
534.86	442.36
535.03	409.59
535.20	430.66
535.37	414.27
535.54	428.32
535.71	451.72
535.88	491.51
536.05	425.98
536.22	433.00
536.38	400.23
536.55	456.40
536.72	437.68
536.89	341.72
537.06	435.34
537.23	369.80
537.40	400.23
537.57	393.21
537.74	451.72
537.91	374.49
538.08	477.47
538.25	400.23
538.42	447.04
538.59	395.55
538.75	454.06
538.92	404.91
539.09	458.74
539.26	374.49
539.43	390.87
539.60	444.70
539.77	414.27
539.94	395.55
540.11	440.02
540.28	404.91
540.44	395.55
540.61	386.19
540.78	311.29
540.95	390.87
541.12	437.68
541.29	360.44
541.46	456.40
541.62	451.72
541.79	430.66
541.96	461.09
542.13	507.90
542.30	428.32
542.47	383.85
542.63	425.98
542.80	428.32
542.97	454.06
543.14	372.15
543.31	404.91
543.48	374.49
543.64	454.06
543.81	379.17
543.98	372.15
544.15	414.27
544.32	379.17
544.48	440.02
544.65	322.99
544.82	458.74
544.99	524.28
545.16	437.68
545.32	369.80
545.49	437.68
545.66	423.64
545.83	400.23
546.00	458.74
546.16	351.08
546.33	379.17
546.50	393.21
546.67	463.43
546.83	358.10
547.00	454.06
547.17	395.55
547.34	444.70
547.50	332.36
547.67	433.00
547.84	327.68
548.00	470.45
548.17	456.40
548.34	404.91
548.51	491.51
548.67	388.53
548.84	404.91
549.01	482.15
549.18	437.68
549.34	451.72
549.51	496.19
549.68	444.70
549.84	407.25
550.01	428.32
550.18	475.13
550.34	479.81
550.51	435.34
550.68	496.19
550.84	390.87
551.01	423.64
551.18	418.96
551.34	425.98
551.51	409.59
551.68	423.64
551.84	400.23
552.01	449.38
552.18	416.62
552.34	367.46
552.51	503.22
552.68	367.46
552.84	393.21
553.01	465.77
553.18	411.93
553.34	376.83
553.51	421.30
553.67	463.43
553.84	430.66
554.01	482.15
554.17	421.30
554.34	440.02
554.51	461.09
554.67	404.91
554.84	393.21
555.00	433.00
555.17	472.79
555.33	404.91
555.50	447.04
555.67	409.59
555.83	435.34
556.00	503.22
556.16	561.73
556.33	367.46
556.50	379.17
556.66	482.15
556.83	360.44
556.99	444.70
557.16	386.19
557.32	395.55
557.49	433.00
557.65	465.77
557.82	454.06
557.98	351.08
558.15	372.15
558.32	404.91
558.48	388.53
558.65	386.19
558.81	463.43
558.98	465.77
559.14	475.13
559.31	414.27
559.47	472.79
559.64	430.66
559.80	365.12
559.97	407.25
560.13	400.23
560.30	383.85
560.46	327.68
560.63	334.70
560.79	416.62
560.96	449.38
561.12	425.98
561.29	454.06
561.45	416.62
561.61	383.85
561.78	491.51
561.94	390.87
562.11	435.34
562.27	440.02
562.44	444.70
562.60	435.34
562.77	423.64
562.93	402.57
563.10	449.38
563.26	390.87
563.42	425.98
563.59	423.64
563.75	404.91
563.92	465.77
564.08	444.70
564.24	449.38
564.41	503.22
564.57	379.17
564.74	400.23
564.90	461.09
565.07	423.64
565.23	458.74
565.39	372.15
565.56	472.79
565.72	372.15
565.88	374.49
566.05	376.83
566.21	425.98
566.38	444.70
566.54	386.19
566.70	393.21
566.87	376.83
567.03	402.57
567.19	454.06
567.36	430.66
567.52	360.44
567.68	437.68
567.85	381.51
568.01	313.63
568.17	386.19
568.34	449.38
568.50	461.09
568.66	444.70
568.83	444.70
568.99	353.42
569.15	395.55
569.32	451.72
569.48	374.49
569.64	351.08
569.81	369.80
569.97	416.62
570.13	444.70
570.30	383.85
570.46	440.02
570.62	372.15
570.78	507.90
570.95	400.23
571.11	416.62
571.27	435.34
571.43	397.89
571.60	435.34
571.76	430.66
571.92	430.66
572.09	437.68
572.25	404.91
572.41	444.70
572.57	320.65
572.74	477.47
572.90	440.02
573.06	423.64
573.22	430.66
573.38	381.51
573.55	498.53
573.71	468.11
573.87	404.91
574.03	454.06
574.20	353.42
574.36	458.74
574.52	428.32
574.68	327.68
574.84	442.36
575.01	463.43
575.17	484.49
575.33	447.04
575.49	528.96
575.65	454.06
575.82	456.40
575.98	454.06
576.14	430.66
576.30	437.68
576.46	454.06
576.62	351.08
576.79	421.30
576.95	531.30
577.11	425.98
577.27	390.87
577.43	418.96
577.59	386.19
577.75	442.36
577.92	369.80
578.08	390.87
578.24	414.27
578.40	435.34
578.56	484.49
578.72	456.40
578.88	491.51
579.04	458.74
579.21	404.91
579.37	386.19
579.53	379.17
579.69	449.38
579.85	367.46
580.01	449.38
580.17	416.62
580.33	402.57
580.49	397.89
580.65	425.98
580.82	344.06
580.98	435.34
581.14	395.55
581.30	435.34
581.46	444.70
581.62	404.91
581.78	444.70
581.94	423.64
582.10	395.55
582.26	367.46
582.42	411.93
582.58	437.68
582.74	362.78
582.90	437.68
583.06	435.34
583.22	418.96
583.38	404.91
583.54	388.53
583.70	414.27
583.86	379.17
584.02	425.98
584.18	421.30
584.34	376.83
584.50	360.44
584.66	472.79
584.82	400.23
584.98	442.36
585.14	407.25
585.30	334.70
585.46	390.87
585.62	381.51
585.78	407.25
585.94	332.36
586.10	440.02
586.26	379.17
586.42	416.62
586.58	475.13
586.74	383.85
586.90	407.25
587.06	383.85
587.22	416.62
587.38	308.95
587.54	402.57
587.70	425.98
587.86	451.72
588.02	400.23
588.18	416.62
588.34	437.68
588.49	367.46
588.65	402.57
588.81	454.06
588.97	418.96
589.13	482.15
589.29	400.23
589.45	411.93
589.61	423.64
589.77	444.70
589.93	383.85
590.08	425.98
590.24	491.51
590.40	393.21
590.56	418.96
590.72	414.27
590.88	367.46
591.04	400.23
591.20	341.72
591.35	423.64
591.51	404.91
591.67	362.78
591.83	475.13
591.99	489.17
592.15	428.32
592.31	404.91
592.46	334.70
592.62	468.11
592.78	339.38
592.94	379.17
593.10	383.85
593.26	468.11
593.41	404.91
593.57	435.34
593.73	404.91
593.89	397.89
594.05	421.30
594.20	461.09
594.36	425.98
594.52	393.21
594.68	442.36
594.84	468.11
594.99	425.98
595.15	423.64
595.31	456.40
595.47	421.30
595.62	475.13
595.78	433.00
595.94	430.66
596.10	423.64
596.25	376.83
596.41	442.36
596.57	425.98
596.73	388.53
596.88	404.91
597.04	493.85
597.20	379.17
597.36	489.17
597.51	367.46
597.67	416.62
597.83	425.98
597.99	444.70
598.14	400.23
598.30	374.49
598.46	379.17
598.61	404.91
598.77	390.87
598.93	421.30
599.09	404.91
599.24	428.32
599.40	430.66
599.56	477.47
599.71	461.09
599.87	491.51
600.03	409.59
600.18	362.78
600.34	383.85
600.50	404.91
600.65	379.17
600.81	517.26
600.97	386.19
601.12	463.43
601.28	409.59
601.44	360.44
601.59	414.27
601.75	395.55
601.91	414.27
602.06	346.40
602.22	339.38
602.37	458.74
602.53	444.70
602.69	418.96
602.84	383.85
603.00	395.55
603.16	428.32
603.31	454.06
603.47	402.57
603.62	393.21
603.78	360.44
603.94	351.08
604.09	400.23
604.25	440.02
604.40	416.62
604.56	346.40
604.71	444.70
604.87	411.93
605.03	362.78
605.18	395.55
605.34	421.30
605.49	451.72
605.65	360.44
605.80	339.38
605.96	435.34
606.12	407.25
606.27	437.68
606.43	379.17
606.58	428.32
606.74	393.21
606.89	416.62
607.05	451.72
607.20	418.96
607.36	421.30
607.51	414.27
607.67	313.63
607.82	383.85
607.98	369.80
608.13	313.63
608.29	360.44
608.44	435.34
608.60	407.25
608.75	381.51
608.91	433.00
609.06	451.72
609.22	409.59
609.37	463.43
609.53	402.57
609.68	409.59
609.84	407.25
609.99	379.17
610.15	433.00
