SpectraSuite Data File
++++++++++++++++++++++++++++++++++++
Date: Fri Oct 25 12:11:23 EDT 2013
User: price-jones
Dark Spectrum Present: No
Reference Spectrum Present: No
Number of Sampled Component Spectra: 1
Spectrometers: USB2+H05261
Integration Time (usec): 100000 (USB2+H05261)
Spectra Averaged: 1 (USB2+H05261)
Boxcar Smoothing: 0 (USB2+H05261)
Correct for Electrical Dark: No (USB2+H05261)
Strobe/Lamp Enabled: No (USB2+H05261)
Correct for Detector Non-linearity: No (USB2+H05261)
Correct for Stray Light: No (USB2+H05261)
Number of Pixels in Processed Spectrum: 2048
>>>>>Begin Processed Spectral Data<<<<<
365.73	278.52
365.92	278.52
366.12	278.52
366.32	264.48
366.52	290.23
366.72	236.39
366.91	278.52
367.11	259.80
367.31	194.26
367.51	187.24
367.70	236.39
367.90	238.73
368.10	194.26
368.30	210.65
368.49	313.63
368.69	327.68
368.89	220.01
369.09	290.23
369.28	250.44
369.48	243.42
369.68	259.80
369.87	259.80
370.07	355.76
370.27	360.44
370.47	362.78
370.66	367.46
370.86	322.99
371.06	393.21
371.25	351.08
371.45	416.62
371.65	376.83
371.84	339.38
372.04	344.06
372.24	376.83
372.44	379.17
372.63	376.83
372.83	346.40
373.03	379.17
373.22	404.91
373.42	395.55
373.62	379.17
373.81	355.76
374.01	409.59
374.21	470.45
374.40	461.09
374.60	486.83
374.79	414.27
374.99	409.59
375.19	465.77
375.38	390.87
375.58	367.46
375.78	468.11
375.97	414.27
376.17	393.21
376.37	414.27
376.56	489.17
376.76	421.30
376.95	383.85
377.15	430.66
377.35	475.13
377.54	369.80
377.74	388.53
377.93	407.25
378.13	461.09
378.33	393.21
378.52	407.25
378.72	395.55
378.91	372.15
379.11	414.27
379.31	463.43
379.50	325.33
379.70	430.66
379.89	397.89
380.09	397.89
380.28	397.89
380.48	400.23
380.68	386.19
380.87	395.55
381.07	484.49
381.26	538.32
381.46	308.95
381.65	463.43
381.85	482.15
382.04	369.80
382.24	458.74
382.43	442.36
382.63	421.30
382.83	379.17
383.02	437.68
383.22	433.00
383.41	386.19
383.61	454.06
383.80	505.56
384.00	416.62
384.19	402.57
384.39	395.55
384.58	383.85
384.78	442.36
384.97	390.87
385.17	465.77
385.36	374.49
385.56	374.49
385.75	418.96
385.95	437.68
386.14	428.32
386.34	435.34
386.53	433.00
386.72	411.93
386.92	437.68
387.11	482.15
387.31	407.25
387.50	447.04
387.70	404.91
387.89	404.91
388.09	383.85
388.28	407.25
388.48	440.02
388.67	395.55
388.86	374.49
389.06	449.38
389.25	470.45
389.45	334.70
389.64	383.85
389.84	491.51
390.03	381.51
390.22	425.98
390.42	390.87
390.61	348.74
390.81	381.51
391.00	369.80
391.19	451.72
391.39	365.12
391.58	500.87
391.78	444.70
391.97	360.44
392.16	416.62
392.36	496.19
392.55	374.49
392.75	491.51
392.94	423.64
393.13	437.68
393.33	425.98
393.52	435.34
393.71	379.17
393.91	458.74
394.10	428.32
394.29	414.27
394.49	362.78
394.68	386.19
394.88	433.00
395.07	428.32
395.26	500.87
395.46	395.55
395.65	433.00
395.84	414.27
396.04	400.23
396.23	379.17
396.42	360.44
396.62	379.17
396.81	367.46
397.00	383.85
397.19	456.40
397.39	348.74
397.58	435.34
397.77	395.55
397.97	390.87
398.16	421.30
398.35	390.87
398.55	402.57
398.74	428.32
398.93	447.04
399.12	414.27
399.32	346.40
399.51	372.15
399.70	435.34
399.90	353.42
400.09	430.66
400.28	414.27
400.47	334.70
400.67	442.36
400.86	414.27
401.05	458.74
401.24	416.62
401.44	414.27
401.63	421.30
401.82	489.17
402.01	339.38
402.21	404.91
402.40	404.91
402.59	479.81
402.78	404.91
402.97	423.64
403.17	395.55
403.36	360.44
403.55	430.66
403.74	411.93
403.93	379.17
404.13	430.66
404.32	430.66
404.51	482.15
404.70	395.55
404.89	414.27
405.09	369.80
405.28	393.21
405.47	365.12
405.66	456.40
405.85	393.21
406.05	388.53
406.24	433.00
406.43	461.09
406.62	390.87
406.81	475.13
407.00	451.72
407.20	454.06
407.39	348.74
407.58	397.89
407.77	440.02
407.96	435.34
408.15	451.72
408.34	435.34
408.54	379.17
408.73	402.57
408.92	454.06
409.11	327.68
409.30	433.00
409.49	379.17
409.68	435.34
409.87	458.74
410.07	428.32
410.26	465.77
410.45	418.96
410.64	339.38
410.83	423.64
411.02	379.17
411.21	407.25
411.40	435.34
411.59	383.85
411.78	435.34
411.98	456.40
412.17	390.87
412.36	430.66
412.55	388.53
412.74	454.06
412.93	393.21
413.12	400.23
413.31	358.10
413.50	505.56
413.69	421.30
413.88	484.49
414.07	430.66
414.26	355.76
414.45	390.87
414.64	397.89
414.83	414.27
415.02	418.96
415.22	416.62
415.41	472.79
415.60	374.49
415.79	440.02
415.98	430.66
416.17	491.51
416.36	365.12
416.55	463.43
416.74	486.83
416.93	414.27
417.12	451.72
417.31	425.98
417.50	374.49
417.69	447.04
417.88	472.79
418.07	360.44
418.26	430.66
418.45	397.89
418.64	449.38
418.83	440.02
419.02	449.38
419.21	418.96
419.39	351.08
419.58	330.02
419.77	418.96
419.96	423.64
420.15	444.70
420.34	402.57
420.53	479.81
420.72	435.34
420.91	400.23
421.10	407.25
421.29	346.40
421.48	430.66
421.67	449.38
421.86	383.85
422.05	360.44
422.24	379.17
422.43	442.36
422.61	395.55
422.80	421.30
422.99	337.04
423.18	379.17
423.37	416.62
423.56	418.96
423.75	421.30
423.94	390.87
424.13	414.27
424.32	402.57
424.50	440.02
424.69	425.98
424.88	454.06
425.07	463.43
425.26	388.53
425.45	531.30
425.64	383.85
425.83	358.10
426.01	418.96
426.20	416.62
426.39	381.51
426.58	393.21
426.77	479.81
426.96	367.46
427.15	353.42
427.33	440.02
427.52	416.62
427.71	470.45
427.90	409.59
428.09	416.62
428.28	341.72
428.46	414.27
428.65	486.83
428.84	404.91
429.03	451.72
429.22	468.11
429.40	430.66
429.59	400.23
429.78	449.38
429.97	379.17
430.16	430.66
430.34	425.98
430.53	388.53
430.72	360.44
430.91	388.53
431.10	402.57
431.28	404.91
431.47	428.32
431.66	376.83
431.85	437.68
432.03	451.72
432.22	414.27
432.41	425.98
432.60	423.64
432.79	379.17
432.97	437.68
433.16	414.27
433.35	428.32
433.54	428.32
433.72	451.72
433.91	440.02
434.10	418.96
434.28	393.21
434.47	437.68
434.66	433.00
434.85	393.21
435.03	451.72
435.22	437.68
435.41	456.40
435.59	383.85
435.78	444.70
435.97	425.98
436.16	416.62
436.34	440.02
436.53	470.45
436.72	425.98
436.90	449.38
437.09	374.49
437.28	390.87
437.46	470.45
437.65	416.62
437.84	411.93
438.02	465.77
438.21	458.74
438.40	313.63
438.58	362.78
438.77	416.62
438.96	376.83
439.14	421.30
439.33	454.06
439.52	402.57
439.70	449.38
439.89	390.87
440.08	341.72
440.26	402.57
440.45	365.12
440.63	402.57
440.82	470.45
441.01	416.62
441.19	493.85
441.38	369.80
441.57	362.78
441.75	435.34
441.94	430.66
442.12	475.13
442.31	400.23
442.50	360.44
442.68	428.32
442.87	381.51
443.05	458.74
443.24	456.40
443.43	404.91
443.61	416.62
443.80	374.49
443.98	402.57
444.17	318.31
444.35	367.46
444.54	414.27
444.73	409.59
444.91	454.06
445.10	461.09
445.28	435.34
445.47	505.56
445.65	341.72
445.84	449.38
446.02	456.40
446.21	402.57
446.39	395.55
446.58	465.77
446.77	435.34
446.95	435.34
447.14	404.91
447.32	388.53
447.51	430.66
447.69	475.13
447.88	404.91
448.06	428.32
448.25	425.98
448.43	456.40
448.62	409.59
448.80	444.70
448.99	428.32
449.17	447.04
449.36	456.40
449.54	374.49
449.73	414.27
449.91	428.32
450.10	411.93
450.28	421.30
450.46	451.72
450.65	388.53
450.83	458.74
451.02	461.09
451.20	507.90
451.39	454.06
451.57	355.76
451.76	372.15
451.94	411.93
452.13	374.49
452.31	451.72
452.49	465.77
452.68	376.83
452.86	447.04
453.05	489.17
453.23	498.53
453.42	421.30
453.60	395.55
453.78	428.32
453.97	449.38
454.15	484.49
454.34	404.91
454.52	451.72
454.70	397.89
454.89	421.30
455.07	320.65
455.26	461.09
455.44	376.83
455.62	416.62
455.81	444.70
455.99	428.32
456.17	397.89
456.36	411.93
456.54	456.40
456.73	477.47
456.91	414.27
457.09	425.98
457.28	402.57
457.46	337.04
457.64	433.00
457.83	428.32
458.01	475.13
458.19	376.83
458.38	503.22
458.56	491.51
458.74	440.02
458.93	493.85
459.11	400.23
459.29	404.91
459.48	447.04
459.66	482.15
459.84	402.57
460.03	528.96
460.21	479.81
460.39	400.23
460.57	433.00
460.76	435.34
460.94	402.57
461.12	461.09
461.31	521.94
461.49	463.43
461.67	416.62
461.85	376.83
462.04	454.06
462.22	760.67
462.40	421.30
462.59	440.02
462.77	414.27
462.95	414.27
463.13	414.27
463.32	430.66
463.50	425.98
463.68	447.04
463.86	428.32
464.05	400.23
464.23	358.10
464.41	425.98
464.59	479.81
464.78	358.10
464.96	376.83
465.14	418.96
465.32	372.15
465.50	456.40
465.69	346.40
465.87	395.55
466.05	475.13
466.23	416.62
466.41	404.91
466.60	388.53
466.78	351.08
466.96	449.38
467.14	393.21
467.32	430.66
467.51	423.64
467.69	489.17
467.87	442.36
468.05	470.45
468.23	458.74
468.41	461.09
468.60	416.62
468.78	416.62
468.96	411.93
469.14	383.85
469.32	386.19
469.50	379.17
469.69	395.55
469.87	388.53
470.05	447.04
470.23	404.91
470.41	404.91
470.59	404.91
470.77	416.62
470.95	421.30
471.14	463.43
471.32	451.72
471.50	496.19
471.68	510.24
471.86	444.70
472.04	358.10
472.22	397.89
472.40	454.06
472.58	411.93
472.77	414.27
472.95	447.04
473.13	465.77
473.31	365.12
473.49	468.11
473.67	386.19
473.85	409.59
474.03	447.04
474.21	393.21
474.39	526.62
474.57	463.43
474.75	414.27
474.93	404.91
475.12	461.09
475.30	425.98
475.48	386.19
475.66	498.53
475.84	442.36
476.02	393.21
476.20	390.87
476.38	395.55
476.56	491.51
476.74	388.53
476.92	421.30
477.10	376.83
477.28	351.08
477.46	407.25
477.64	386.19
477.82	372.15
478.00	411.93
478.18	433.00
478.36	482.15
478.54	379.17
478.72	414.27
478.90	400.23
479.08	390.87
479.26	435.34
479.44	421.30
479.62	447.04
479.80	449.38
479.98	470.45
480.16	444.70
480.34	451.72
480.52	470.45
480.70	444.70
480.88	435.34
481.06	416.62
481.24	463.43
481.41	435.34
481.59	404.91
481.77	395.55
481.95	341.72
482.13	437.68
482.31	425.98
482.49	381.51
482.67	442.36
482.85	395.55
483.03	425.98
483.21	454.06
483.39	367.46
483.57	484.49
483.74	425.98
483.92	486.83
484.10	348.74
484.28	430.66
484.46	395.55
484.64	447.04
484.82	416.62
485.00	421.30
485.18	470.45
485.35	486.83
485.53	395.55
485.71	477.47
485.89	376.83
486.07	414.27
486.25	465.77
486.43	430.66
486.61	458.74
486.78	425.98
486.96	428.32
487.14	395.55
487.32	362.78
487.50	348.74
487.68	393.21
487.85	418.96
488.03	454.06
488.21	524.28
488.39	416.62
488.57	447.04
488.75	386.19
488.92	496.19
489.10	400.23
489.28	463.43
489.46	418.96
489.64	358.10
489.81	458.74
489.99	449.38
490.17	400.23
490.35	442.36
490.53	400.23
490.70	393.21
490.88	430.66
491.06	390.87
491.24	407.25
491.41	470.45
491.59	447.04
491.77	379.17
491.95	418.96
492.13	407.25
492.30	393.21
492.48	423.64
492.66	332.36
492.84	416.62
493.01	386.19
493.19	444.70
493.37	447.04
493.54	411.93
493.72	423.64
493.90	423.64
494.08	381.51
494.25	386.19
494.43	362.78
494.61	444.70
494.79	418.96
494.96	402.57
495.14	433.00
495.32	416.62
495.49	416.62
495.67	447.04
495.85	425.98
496.02	400.23
496.20	379.17
496.38	468.11
496.55	449.38
496.73	425.98
496.91	409.59
497.09	423.64
497.26	440.02
497.44	444.70
497.62	409.59
497.79	472.79
497.97	447.04
498.14	397.89
498.32	435.34
498.50	421.30
498.67	433.00
498.85	428.32
499.03	433.00
499.20	425.98
499.38	393.21
499.56	468.11
499.73	470.45
499.91	435.34
500.08	430.66
500.26	425.98
500.44	465.77
500.61	400.23
500.79	447.04
500.97	381.51
501.14	458.74
501.32	416.62
501.49	447.04
501.67	393.21
501.84	437.68
502.02	395.55
502.20	421.30
502.37	437.68
502.55	346.40
502.72	404.91
502.90	400.23
503.07	409.59
503.25	360.44
503.43	470.45
503.60	390.87
503.78	449.38
503.95	411.93
504.13	379.17
504.30	477.47
504.48	491.51
504.65	472.79
504.83	465.77
505.01	437.68
505.18	425.98
505.36	386.19
505.53	444.70
505.71	402.57
505.88	486.83
506.06	456.40
506.23	465.77
506.41	440.02
506.58	374.49
506.76	407.25
506.93	365.12
507.11	414.27
507.28	386.19
507.46	383.85
507.63	353.42
507.81	402.57
507.98	449.38
508.16	407.25
508.33	400.23
508.50	425.98
508.68	367.46
508.85	379.17
509.03	409.59
509.20	465.77
509.38	423.64
509.55	451.72
509.73	444.70
509.90	435.34
510.08	449.38
510.25	454.06
510.42	388.53
510.60	355.76
510.77	421.30
510.95	369.80
511.12	365.12
511.30	416.62
511.47	360.44
511.64	404.91
511.82	360.44
511.99	484.49
512.17	437.68
512.34	374.49
512.51	447.04
512.69	425.98
512.86	390.87
513.04	400.23
513.21	402.57
513.38	351.08
513.56	458.74
513.73	416.62
513.90	360.44
514.08	442.36
514.25	404.91
514.43	463.43
514.60	472.79
514.77	428.32
514.95	390.87
515.12	318.31
515.29	444.70
515.47	411.93
515.64	425.98
515.81	365.12
515.99	503.22
516.16	416.62
516.33	397.89
516.51	367.46
516.68	360.44
516.85	423.64
517.03	451.72
517.20	409.59
517.37	393.21
517.54	421.30
517.72	411.93
517.89	379.17
518.06	425.98
518.24	416.62
518.41	503.22
518.58	437.68
518.75	456.40
518.93	454.06
519.10	414.27
519.27	397.89
519.45	442.36
519.62	390.87
519.79	430.66
519.96	362.78
520.14	348.74
520.31	526.62
520.48	465.77
520.65	447.04
520.83	355.76
521.00	374.49
521.17	418.96
521.34	395.55
521.52	381.51
521.69	442.36
521.86	339.38
522.03	411.93
522.20	447.04
522.38	430.66
522.55	402.57
522.72	402.57
522.89	414.27
523.07	442.36
523.24	456.40
523.41	500.87
523.58	400.23
523.75	418.96
523.92	393.21
524.10	435.34
524.27	440.02
524.44	397.89
524.61	433.00
524.78	376.83
524.96	353.42
525.13	428.32
525.30	407.25
525.47	388.53
525.64	423.64
525.81	360.44
525.98	369.80
526.16	435.34
526.33	456.40
526.50	421.30
526.67	393.21
526.84	376.83
527.01	376.83
527.18	353.42
527.36	402.57
527.53	425.98
527.70	454.06
527.87	430.66
528.04	390.87
528.21	428.32
528.38	447.04
528.55	444.70
528.72	538.32
528.89	428.32
529.07	451.72
529.24	348.74
529.41	461.09
529.58	444.70
529.75	465.77
529.92	425.98
530.09	414.27
530.26	458.74
530.43	475.13
530.60	407.25
530.77	416.62
530.94	409.59
531.11	383.85
531.28	390.87
531.46	409.59
531.63	421.30
531.80	433.00
531.97	351.08
532.14	355.76
532.31	437.68
532.48	465.77
532.65	423.64
532.82	477.47
532.99	376.83
533.16	451.72
533.33	442.36
533.50	381.51
533.67	433.00
533.84	418.96
534.01	437.68
534.18	430.66
534.35	409.59
534.52	433.00
534.69	416.62
534.86	430.66
535.03	440.02
535.20	416.62
535.37	402.57
535.54	411.93
535.71	421.30
535.88	447.04
536.05	437.68
536.22	479.81
536.38	428.32
536.55	348.74
536.72	433.00
536.89	442.36
537.06	367.46
537.23	440.02
537.40	362.78
537.57	433.00
537.74	521.94
537.91	437.68
538.08	390.87
538.25	400.23
538.42	407.25
538.59	402.57
538.75	409.59
538.92	390.87
539.09	402.57
539.26	451.72
539.43	433.00
539.60	435.34
539.77	418.96
539.94	458.74
540.11	400.23
540.28	353.42
540.44	503.22
540.61	470.45
540.78	437.68
540.95	376.83
541.12	425.98
541.29	411.93
541.46	496.19
541.62	484.49
541.79	390.87
541.96	444.70
542.13	433.00
542.30	400.23
542.47	407.25
542.63	435.34
542.80	451.72
542.97	493.85
543.14	369.80
543.31	472.79
543.48	433.00
543.64	400.23
543.81	451.72
543.98	390.87
544.15	379.17
544.32	477.47
544.48	435.34
544.65	507.90
544.82	395.55
544.99	430.66
545.16	423.64
545.32	428.32
545.49	444.70
545.66	404.91
545.83	341.72
546.00	407.25
546.16	444.70
546.33	440.02
546.50	435.34
546.67	433.00
546.83	475.13
547.00	447.04
547.17	411.93
547.34	374.49
547.50	376.83
547.67	407.25
547.84	404.91
548.00	386.19
548.17	386.19
548.34	365.12
548.51	409.59
548.67	390.87
548.84	475.13
549.01	416.62
549.18	402.57
549.34	437.68
549.51	428.32
549.68	449.38
549.84	381.51
550.01	458.74
550.18	510.24
550.34	447.04
550.51	428.32
550.68	421.30
550.84	402.57
551.01	393.21
551.18	447.04
551.34	463.43
551.51	435.34
551.68	416.62
551.84	433.00
552.01	376.83
552.18	454.06
552.34	374.49
552.51	440.02
552.68	461.09
552.84	369.80
553.01	418.96
553.18	369.80
553.34	442.36
553.51	355.76
553.67	428.32
553.84	465.77
554.01	386.19
554.17	456.40
554.34	437.68
554.51	416.62
554.67	433.00
554.84	390.87
555.00	376.83
555.17	348.74
555.33	409.59
555.50	407.25
555.67	498.53
555.83	411.93
556.00	444.70
556.16	592.16
556.33	421.30
556.50	454.06
556.66	454.06
556.83	395.55
556.99	351.08
557.16	409.59
557.32	337.04
557.49	430.66
557.65	360.44
557.82	416.62
557.98	444.70
558.15	425.98
558.32	428.32
558.48	404.91
558.65	423.64
558.81	449.38
558.98	407.25
559.14	444.70
559.31	423.64
559.47	444.70
559.64	402.57
559.80	491.51
559.97	337.04
560.13	376.83
560.30	402.57
560.46	470.45
560.63	395.55
560.79	425.98
560.96	416.62
561.12	416.62
561.29	395.55
561.45	463.43
561.61	400.23
561.78	449.38
561.94	400.23
562.11	376.83
562.27	451.72
562.44	390.87
562.60	461.09
562.77	390.87
562.93	444.70
563.10	440.02
563.26	365.12
563.42	484.49
563.59	379.17
563.75	367.46
563.92	472.79
564.08	402.57
564.24	477.47
564.41	437.68
564.57	472.79
564.74	367.46
564.90	433.00
565.07	404.91
565.23	454.06
565.39	400.23
565.56	447.04
565.72	414.27
565.88	381.51
566.05	447.04
566.21	421.30
566.38	451.72
566.54	360.44
566.70	482.15
566.87	358.10
567.03	416.62
567.19	418.96
567.36	484.49
567.52	463.43
567.68	500.87
567.85	477.47
568.01	339.38
568.17	407.25
568.34	440.02
568.50	416.62
568.66	451.72
568.83	458.74
568.99	367.46
569.15	423.64
569.32	444.70
569.48	374.49
569.64	402.57
569.81	390.87
569.97	421.30
570.13	444.70
570.30	388.53
570.46	416.62
570.62	402.57
570.78	444.70
570.95	395.55
571.11	423.64
571.27	367.46
571.43	461.09
571.60	376.83
571.76	435.34
571.92	414.27
572.09	458.74
572.25	386.19
572.41	421.30
572.57	433.00
572.74	444.70
572.90	465.77
573.06	409.59
573.22	355.76
573.38	447.04
573.55	425.98
573.71	470.45
573.87	456.40
574.03	440.02
574.20	449.38
574.36	400.23
574.52	365.12
574.68	386.19
574.84	451.72
575.01	348.74
575.17	421.30
575.33	421.30
575.49	414.27
575.65	454.06
575.82	425.98
575.98	433.00
576.14	337.04
576.30	465.77
576.46	418.96
576.62	437.68
576.79	379.17
576.95	428.32
577.11	444.70
577.27	348.74
577.43	437.68
577.59	491.51
577.75	430.66
577.92	461.09
578.08	496.19
578.24	390.87
578.40	409.59
578.56	421.30
578.72	489.17
578.88	447.04
579.04	416.62
579.21	477.47
579.37	435.34
579.53	395.55
579.69	372.15
579.85	463.43
580.01	334.70
580.17	353.42
580.33	383.85
580.49	337.04
580.65	372.15
580.82	369.80
580.98	358.10
581.14	463.43
581.30	451.72
581.46	386.19
581.62	447.04
581.78	365.12
581.94	379.17
582.10	362.78
582.26	390.87
582.42	351.08
582.58	395.55
582.74	388.53
582.90	423.64
583.06	416.62
583.22	475.13
583.38	430.66
583.54	435.34
583.70	402.57
583.86	404.91
584.02	358.10
584.18	461.09
584.34	507.90
584.50	440.02
584.66	390.87
584.82	365.12
584.98	449.38
585.14	346.40
585.30	339.38
585.46	388.53
585.62	416.62
585.78	369.80
585.94	465.77
586.10	486.83
586.26	465.77
586.42	430.66
586.58	430.66
586.74	425.98
586.90	346.40
587.06	461.09
587.22	454.06
587.38	397.89
587.54	393.21
587.70	472.79
587.86	468.11
588.02	395.55
588.18	454.06
588.34	463.43
588.49	414.27
588.65	414.27
588.81	411.93
588.97	355.76
589.13	475.13
589.29	440.02
589.45	458.74
589.61	449.38
589.77	386.19
589.93	388.53
590.08	411.93
590.24	465.77
590.40	351.08
590.56	447.04
590.72	346.40
590.88	386.19
591.04	456.40
591.20	374.49
591.35	390.87
591.51	454.06
591.67	397.89
591.83	386.19
591.99	416.62
592.15	433.00
592.31	456.40
592.46	397.89
592.62	423.64
592.78	402.57
592.94	411.93
593.10	386.19
593.26	397.89
593.41	344.06
593.57	383.85
593.73	386.19
593.89	444.70
594.05	418.96
594.20	397.89
594.36	430.66
594.52	386.19
594.68	433.00
594.84	451.72
594.99	507.90
595.15	447.04
595.31	458.74
595.47	449.38
595.62	390.87
595.78	435.34
595.94	440.02
596.10	482.15
596.25	425.98
596.41	421.30
596.57	358.10
596.73	390.87
596.88	362.78
597.04	416.62
597.20	425.98
597.36	447.04
597.51	379.17
597.67	365.12
597.83	397.89
597.99	468.11
598.14	360.44
598.30	374.49
598.46	341.72
598.61	428.32
598.77	428.32
598.93	456.40
599.09	383.85
599.24	411.93
599.40	416.62
599.56	437.68
599.71	437.68
599.87	404.91
600.03	414.27
600.18	411.93
600.34	435.34
600.50	367.46
600.65	362.78
600.81	381.51
600.97	468.11
601.12	423.64
601.28	444.70
601.44	430.66
601.59	402.57
601.75	428.32
601.91	383.85
602.06	397.89
602.22	409.59
602.37	409.59
602.53	451.72
602.69	411.93
602.84	376.83
603.00	393.21
603.16	437.68
603.31	444.70
603.47	372.15
603.62	411.93
603.78	465.77
603.94	461.09
604.09	411.93
604.25	428.32
604.40	440.02
604.56	386.19
604.71	414.27
604.87	353.42
605.03	407.25
605.18	440.02
605.34	393.21
605.49	491.51
605.65	465.77
605.80	423.64
605.96	416.62
606.12	404.91
606.27	409.59
606.43	484.49
606.58	477.47
606.74	423.64
606.89	458.74
607.05	435.34
607.20	400.23
607.36	468.11
607.51	416.62
607.67	388.53
607.82	379.17
607.98	449.38
608.13	430.66
608.29	444.70
608.44	475.13
608.60	463.43
608.75	433.00
608.91	447.04
609.06	477.47
609.22	451.72
609.37	407.25
609.53	404.91
609.68	393.21
609.84	489.17
609.99	425.98
610.15	440.02
