SpectraSuite Data File
++++++++++++++++++++++++++++++++++++
Date: Fri Oct 25 12:10:32 EDT 2013
User: price-jones
Dark Spectrum Present: No
Reference Spectrum Present: No
Number of Sampled Component Spectra: 1
Spectrometers: USB2+H05261
Integration Time (usec): 100000 (USB2+H05261)
Spectra Averaged: 1 (USB2+H05261)
Boxcar Smoothing: 0 (USB2+H05261)
Correct for Electrical Dark: No (USB2+H05261)
Strobe/Lamp Enabled: No (USB2+H05261)
Correct for Detector Non-linearity: No (USB2+H05261)
Correct for Stray Light: No (USB2+H05261)
Number of Pixels in Processed Spectrum: 2048
>>>>>Begin Processed Spectral Data<<<<<
365.73	294.91
365.92	294.91
366.12	294.91
366.32	290.23
366.52	229.37
366.72	217.67
366.91	259.80
367.11	180.22
367.31	238.73
367.51	290.23
367.70	292.57
367.90	255.12
368.10	264.48
368.30	271.50
368.49	217.67
368.69	311.29
368.89	290.23
369.09	245.76
369.28	208.31
369.48	299.59
369.68	313.63
369.87	217.67
370.07	325.33
370.27	341.72
370.47	287.89
370.66	322.99
370.86	351.08
371.06	454.06
371.25	435.34
371.45	327.68
371.65	388.53
371.84	374.49
372.04	414.27
372.24	421.30
372.44	468.11
372.63	423.64
372.83	435.34
373.03	374.49
373.22	444.70
373.42	353.42
373.62	461.09
373.81	369.80
374.01	404.91
374.21	477.47
374.40	433.00
374.60	454.06
374.79	383.85
374.99	416.62
375.19	381.51
375.38	390.87
375.58	407.25
375.78	381.51
375.97	362.78
376.17	449.38
376.37	418.96
376.56	435.34
376.76	428.32
376.95	442.36
377.15	465.77
377.35	365.12
377.54	367.46
377.74	423.64
377.93	381.51
378.13	430.66
378.33	414.27
378.52	372.15
378.72	449.38
378.91	500.87
379.11	365.12
379.31	367.46
379.50	409.59
379.70	430.66
379.89	451.72
380.09	440.02
380.28	353.42
380.48	463.43
380.68	407.25
380.87	388.53
381.07	444.70
381.26	404.91
381.46	414.27
381.65	433.00
381.85	416.62
382.04	428.32
382.24	463.43
382.43	362.78
382.63	409.59
382.83	353.42
383.02	430.66
383.22	444.70
383.41	425.98
383.61	444.70
383.80	435.34
384.00	433.00
384.19	423.64
384.39	411.93
384.58	447.04
384.78	456.40
384.97	397.89
385.17	411.93
385.36	433.00
385.56	400.23
385.75	381.51
385.95	388.53
386.14	397.89
386.34	395.55
386.53	308.95
386.72	334.70
386.92	346.40
387.11	428.32
387.31	451.72
387.50	383.85
387.70	365.12
387.89	365.12
388.09	381.51
388.28	374.49
388.48	390.87
388.67	379.17
388.86	362.78
389.06	472.79
389.25	465.77
389.45	388.53
389.64	433.00
389.84	395.55
390.03	425.98
390.22	360.44
390.42	390.87
390.61	320.65
390.81	374.49
391.00	374.49
391.19	447.04
391.39	414.27
391.58	447.04
391.78	311.29
391.97	409.59
392.16	423.64
392.36	435.34
392.55	423.64
392.75	379.17
392.94	369.80
393.13	369.80
393.33	381.51
393.52	470.45
393.71	425.98
393.91	416.62
394.10	372.15
394.29	409.59
394.49	407.25
394.68	400.23
394.88	404.91
395.07	379.17
395.26	447.04
395.46	358.10
395.65	440.02
395.84	386.19
396.04	400.23
396.23	409.59
396.42	414.27
396.62	402.57
396.81	411.93
397.00	402.57
397.19	425.98
397.39	388.53
397.58	393.21
397.77	395.55
397.97	362.78
398.16	463.43
398.35	433.00
398.55	442.36
398.74	465.77
398.93	451.72
399.12	355.76
399.32	463.43
399.51	407.25
399.70	388.53
399.90	376.83
400.09	433.00
400.28	397.89
400.47	468.11
400.67	435.34
400.86	383.85
401.05	435.34
401.24	341.72
401.44	423.64
401.63	393.21
401.82	463.43
402.01	360.44
402.21	386.19
402.40	461.09
402.59	388.53
402.78	423.64
402.97	395.55
403.17	461.09
403.36	376.83
403.55	414.27
403.74	477.47
403.93	390.87
404.13	407.25
404.32	388.53
404.51	372.15
404.70	470.45
404.89	430.66
405.09	437.68
405.28	372.15
405.47	397.89
405.66	454.06
405.85	449.38
406.05	327.68
406.24	400.23
406.43	353.42
406.62	425.98
406.81	428.32
407.00	425.98
407.20	376.83
407.39	447.04
407.58	339.38
407.77	416.62
407.96	416.62
408.15	388.53
408.34	409.59
408.54	393.21
408.73	477.47
408.92	369.80
409.11	393.21
409.30	435.34
409.49	365.12
409.68	411.93
409.87	496.19
410.07	386.19
410.26	383.85
410.45	390.87
410.64	360.44
410.83	395.55
411.02	383.85
411.21	395.55
411.40	425.98
411.59	409.59
411.78	404.91
411.98	402.57
412.17	425.98
412.36	435.34
412.55	400.23
412.74	444.70
412.93	461.09
413.12	404.91
413.31	486.83
413.50	463.43
413.69	383.85
413.88	390.87
414.07	425.98
414.26	402.57
414.45	390.87
414.64	444.70
414.83	451.72
415.02	409.59
415.22	428.32
415.41	418.96
415.60	351.08
415.79	444.70
415.98	355.76
416.17	400.23
416.36	353.42
416.55	299.59
416.74	386.19
416.93	458.74
417.12	348.74
417.31	418.96
417.50	454.06
417.69	463.43
417.88	418.96
418.07	414.27
418.26	411.93
418.45	367.46
418.64	393.21
418.83	409.59
419.02	440.02
419.21	428.32
419.39	423.64
419.58	393.21
419.77	339.38
419.96	468.11
420.15	442.36
420.34	440.02
420.53	444.70
420.72	376.83
420.91	425.98
421.10	362.78
421.29	437.68
421.48	447.04
421.67	411.93
421.86	440.02
422.05	433.00
422.24	404.91
422.43	397.89
422.61	337.04
422.80	334.70
422.99	461.09
423.18	369.80
423.37	468.11
423.56	477.47
423.75	463.43
423.94	428.32
424.13	409.59
424.32	379.17
424.50	404.91
424.69	423.64
424.88	447.04
425.07	435.34
425.26	430.66
425.45	409.59
425.64	447.04
425.83	390.87
426.01	435.34
426.20	447.04
426.39	416.62
426.58	418.96
426.77	421.30
426.96	444.70
427.15	440.02
427.33	386.19
427.52	369.80
427.71	395.55
427.90	376.83
428.09	416.62
428.28	388.53
428.46	414.27
428.65	397.89
428.84	355.76
429.03	400.23
429.22	404.91
429.40	409.59
429.59	374.49
429.78	430.66
429.97	411.93
430.16	463.43
430.34	454.06
430.53	414.27
430.72	433.00
430.91	465.77
431.10	332.36
431.28	430.66
431.47	435.34
431.66	379.17
431.85	390.87
432.03	383.85
432.22	404.91
432.41	482.15
432.60	404.91
432.79	442.36
432.97	409.59
433.16	430.66
433.35	421.30
433.54	416.62
433.72	388.53
433.91	461.09
434.10	447.04
434.28	379.17
434.47	393.21
434.66	407.25
434.85	409.59
435.03	402.57
435.22	468.11
435.41	418.96
435.59	386.19
435.78	472.79
435.97	411.93
436.16	463.43
436.34	337.04
436.53	402.57
436.72	346.40
436.90	390.87
437.09	433.00
437.28	416.62
437.46	402.57
437.65	440.02
437.84	353.42
438.02	404.91
438.21	468.11
438.40	416.62
438.58	344.06
438.77	437.68
438.96	407.25
439.14	374.49
439.33	482.15
439.52	351.08
439.70	468.11
439.89	372.15
440.08	477.47
440.26	442.36
440.45	468.11
440.63	447.04
440.82	402.57
441.01	430.66
441.19	421.30
441.38	407.25
441.57	423.64
441.75	397.89
441.94	475.13
442.12	425.98
442.31	402.57
442.50	360.44
442.68	393.21
442.87	386.19
443.05	449.38
443.24	367.46
443.43	365.12
443.61	402.57
443.80	433.00
443.98	414.27
444.17	411.93
444.35	353.42
444.54	484.49
444.73	404.91
444.91	430.66
445.10	339.38
445.28	365.12
445.47	425.98
445.65	407.25
445.84	344.06
446.02	423.64
446.21	383.85
446.39	409.59
446.58	421.30
446.77	402.57
446.95	374.49
447.14	423.64
447.32	402.57
447.51	400.23
447.69	346.40
447.88	402.57
448.06	465.77
448.25	418.96
448.43	386.19
448.62	475.13
448.80	341.72
448.99	437.68
449.17	484.49
449.36	425.98
449.54	435.34
449.73	449.38
449.91	482.15
450.10	365.12
450.28	404.91
450.46	486.83
450.65	433.00
450.83	393.21
451.02	407.25
451.20	451.72
451.39	425.98
451.57	425.98
451.76	425.98
451.94	404.91
452.13	430.66
452.31	498.53
452.49	414.27
452.68	372.15
452.86	362.78
453.05	407.25
453.23	395.55
453.42	418.96
453.60	456.40
453.78	383.85
453.97	360.44
454.15	393.21
454.34	411.93
454.52	500.87
454.70	454.06
454.89	435.34
455.07	381.51
455.26	458.74
455.44	407.25
455.62	379.17
455.81	414.27
455.99	442.36
456.17	418.96
456.36	411.93
456.54	414.27
456.73	449.38
456.91	433.00
457.09	456.40
457.28	402.57
457.46	395.55
457.64	430.66
457.83	498.53
458.01	435.34
458.19	311.29
458.38	362.78
458.56	393.21
458.74	428.32
458.93	369.80
459.11	472.79
459.29	416.62
459.48	416.62
459.66	397.89
459.84	376.83
460.03	393.21
460.21	475.13
460.39	400.23
460.57	470.45
460.76	369.80
460.94	442.36
461.12	510.24
461.31	444.70
461.49	393.21
461.67	341.72
461.85	435.34
462.04	437.68
462.22	774.72
462.40	365.12
462.59	458.74
462.77	390.87
462.95	393.21
463.13	414.27
463.32	430.66
463.50	433.00
463.68	442.36
463.86	433.00
464.05	395.55
464.23	407.25
464.41	454.06
464.59	353.42
464.78	430.66
464.96	468.11
465.14	416.62
465.32	369.80
465.50	367.46
465.69	442.36
465.87	332.36
466.05	428.32
466.23	428.32
466.41	402.57
466.60	411.93
466.78	461.09
466.96	477.47
467.14	381.51
467.32	442.36
467.51	428.32
467.69	444.70
467.87	454.06
468.05	430.66
468.23	449.38
468.41	367.46
468.60	344.06
468.78	418.96
468.96	416.62
469.14	440.02
469.32	334.70
469.50	351.08
469.69	430.66
469.87	383.85
470.05	463.43
470.23	388.53
470.41	320.65
470.59	479.81
470.77	440.02
470.95	409.59
471.14	404.91
471.32	461.09
471.50	498.53
471.68	454.06
471.86	346.40
472.04	407.25
472.22	386.19
472.40	411.93
472.58	486.83
472.77	393.21
472.95	421.30
473.13	465.77
473.31	428.32
473.49	435.34
473.67	472.79
473.85	479.81
474.03	442.36
474.21	383.85
474.39	430.66
474.57	454.06
474.75	397.89
474.93	367.46
475.12	425.98
475.30	411.93
475.48	402.57
475.66	416.62
475.84	374.49
476.02	395.55
476.20	425.98
476.38	355.76
476.56	418.96
476.74	416.62
476.92	423.64
477.10	313.63
477.28	456.40
477.46	440.02
477.64	416.62
477.82	369.80
478.00	390.87
478.18	402.57
478.36	381.51
478.54	416.62
478.72	339.38
478.90	381.51
479.08	388.53
479.26	458.74
479.44	430.66
479.62	386.19
479.80	425.98
479.98	355.76
480.16	437.68
480.34	367.46
480.52	386.19
480.70	428.32
480.88	440.02
481.06	351.08
481.24	374.49
481.41	416.62
481.59	440.02
481.77	444.70
481.95	386.19
482.13	393.21
482.31	423.64
482.49	451.72
482.67	404.91
482.85	393.21
483.03	472.79
483.21	442.36
483.39	411.93
483.57	423.64
483.74	507.90
483.92	332.36
484.10	428.32
484.28	447.04
484.46	442.36
484.64	484.49
484.82	449.38
485.00	409.59
485.18	489.17
485.35	376.83
485.53	430.66
485.71	374.49
485.89	425.98
486.07	393.21
486.25	447.04
486.43	435.34
486.61	402.57
486.78	430.66
486.96	458.74
487.14	365.12
487.32	360.44
487.50	435.34
487.68	456.40
487.85	421.30
488.03	367.46
488.21	512.58
488.39	353.42
488.57	404.91
488.75	322.99
488.92	519.60
489.10	435.34
489.28	409.59
489.46	456.40
489.64	433.00
489.81	414.27
489.99	428.32
490.17	397.89
490.35	475.13
490.53	362.78
490.70	400.23
490.88	482.15
491.06	491.51
491.24	440.02
491.41	430.66
491.59	409.59
491.77	454.06
491.95	334.70
492.13	458.74
492.30	421.30
492.48	381.51
492.66	475.13
492.84	379.17
493.01	383.85
493.19	402.57
493.37	388.53
493.54	437.68
493.72	395.55
493.90	379.17
494.08	409.59
494.25	393.21
494.43	458.74
494.61	475.13
494.79	372.15
494.96	372.15
495.14	493.85
495.32	440.02
495.49	442.36
495.67	386.19
495.85	421.30
496.02	433.00
496.20	451.72
496.38	397.89
496.55	409.59
496.73	479.81
496.91	397.89
497.09	404.91
497.26	379.17
497.44	381.51
497.62	402.57
497.79	498.53
497.97	397.89
498.14	355.76
498.32	442.36
498.50	465.77
498.67	393.21
498.85	503.22
499.03	376.83
499.20	433.00
499.38	433.00
499.56	454.06
499.73	449.38
499.91	404.91
500.08	430.66
500.26	404.91
500.44	393.21
500.61	334.70
500.79	404.91
500.97	402.57
501.14	435.34
501.32	430.66
501.49	425.98
501.67	395.55
501.84	416.62
502.02	341.72
502.20	458.74
502.37	433.00
502.55	475.13
502.72	386.19
502.90	383.85
503.07	430.66
503.25	411.93
503.43	435.34
503.60	428.32
503.78	433.00
503.95	409.59
504.13	395.55
504.30	402.57
504.48	365.12
504.65	451.72
504.83	484.49
505.01	379.17
505.18	451.72
505.36	341.72
505.53	444.70
505.71	325.33
505.88	477.47
506.06	458.74
506.23	348.74
506.41	362.78
506.58	463.43
506.76	477.47
506.93	407.25
507.11	423.64
507.28	433.00
507.46	386.19
507.63	456.40
507.81	444.70
507.98	367.46
508.16	409.59
508.33	437.68
508.50	440.02
508.68	355.76
508.85	411.93
509.03	451.72
509.20	449.38
509.38	540.66
509.55	449.38
509.73	397.89
509.90	433.00
510.08	411.93
510.25	414.27
510.42	402.57
510.60	407.25
510.77	388.53
510.95	442.36
511.12	470.45
511.30	402.57
511.47	397.89
511.64	500.87
511.82	397.89
511.99	470.45
512.17	388.53
512.34	381.51
512.51	421.30
512.69	449.38
512.86	454.06
513.04	479.81
513.21	486.83
513.38	409.59
513.56	454.06
513.73	353.42
513.90	383.85
514.08	376.83
514.25	435.34
514.43	442.36
514.60	381.51
514.77	339.38
514.95	386.19
515.12	400.23
515.29	477.47
515.47	493.85
515.64	404.91
515.81	433.00
515.99	463.43
516.16	390.87
516.33	447.04
516.51	440.02
516.68	454.06
516.85	334.70
517.03	369.80
517.20	447.04
517.37	444.70
517.54	454.06
517.72	423.64
517.89	393.21
518.06	414.27
518.24	482.15
518.41	430.66
518.58	477.47
518.75	409.59
518.93	430.66
519.10	421.30
519.27	344.06
519.45	423.64
519.62	437.68
519.79	428.32
519.96	404.91
520.14	411.93
520.31	440.02
520.48	442.36
520.65	383.85
520.83	451.72
521.00	442.36
521.17	374.49
521.34	353.42
521.52	423.64
521.69	395.55
521.86	407.25
522.03	423.64
522.20	486.83
522.38	493.85
522.55	383.85
522.72	383.85
522.89	454.06
523.07	514.92
523.24	416.62
523.41	447.04
523.58	451.72
523.75	383.85
523.92	388.53
524.10	386.19
524.27	404.91
524.44	386.19
524.61	444.70
524.78	477.47
524.96	423.64
525.13	339.38
525.30	390.87
525.47	500.87
525.64	430.66
525.81	421.30
525.98	411.93
526.16	440.02
526.33	388.53
526.50	369.80
526.67	372.15
526.84	367.46
527.01	395.55
527.18	430.66
527.36	444.70
527.53	402.57
527.70	451.72
527.87	428.32
528.04	475.13
528.21	468.11
528.38	395.55
528.55	397.89
528.72	423.64
528.89	379.17
529.07	404.91
529.24	451.72
529.41	479.81
529.58	423.64
529.75	397.89
529.92	433.00
530.09	468.11
530.26	418.96
530.43	421.30
530.60	449.38
530.77	411.93
530.94	418.96
531.11	433.00
531.28	437.68
531.46	393.21
531.63	430.66
531.80	414.27
531.97	397.89
532.14	404.91
532.31	425.98
532.48	393.21
532.65	449.38
532.82	425.98
532.99	475.13
533.16	423.64
533.33	369.80
533.50	435.34
533.67	386.19
533.84	440.02
534.01	374.49
534.18	435.34
534.35	358.10
534.52	353.42
534.69	435.34
534.86	421.30
535.03	379.17
535.20	390.87
535.37	402.57
535.54	390.87
535.71	404.91
535.88	468.11
536.05	376.83
536.22	423.64
536.38	451.72
536.55	402.57
536.72	416.62
536.89	414.27
537.06	430.66
537.23	409.59
537.40	428.32
537.57	425.98
537.74	514.92
537.91	461.09
538.08	332.36
538.25	484.49
538.42	454.06
538.59	411.93
538.75	418.96
538.92	379.17
539.09	451.72
539.26	468.11
539.43	454.06
539.60	433.00
539.77	461.09
539.94	425.98
540.11	428.32
540.28	423.64
540.44	379.17
540.61	393.21
540.78	458.74
540.95	400.23
541.12	543.00
541.29	386.19
541.46	407.25
541.62	388.53
541.79	433.00
541.96	351.08
542.13	379.17
542.30	435.34
542.47	465.77
542.63	435.34
542.80	376.83
542.97	421.30
543.14	393.21
543.31	334.70
543.48	435.34
543.64	444.70
543.81	402.57
543.98	472.79
544.15	430.66
544.32	451.72
544.48	409.59
544.65	397.89
544.82	442.36
544.99	327.68
545.16	416.62
545.32	402.57
545.49	503.22
545.66	416.62
545.83	409.59
546.00	379.17
546.16	360.44
546.33	442.36
546.50	447.04
546.67	486.83
546.83	404.91
547.00	433.00
547.17	442.36
547.34	411.93
547.50	493.85
547.67	435.34
547.84	428.32
548.00	444.70
548.17	409.59
548.34	433.00
548.51	514.92
548.67	428.32
548.84	407.25
549.01	454.06
549.18	437.68
549.34	407.25
549.51	390.87
549.68	430.66
549.84	447.04
550.01	444.70
550.18	498.53
550.34	468.11
550.51	402.57
550.68	505.56
550.84	355.76
551.01	449.38
551.18	423.64
551.34	479.81
551.51	411.93
551.68	416.62
551.84	409.59
552.01	428.32
552.18	411.93
552.34	421.30
552.51	433.00
552.68	404.91
552.84	430.66
553.01	437.68
553.18	402.57
553.34	484.49
553.51	351.08
553.67	484.49
553.84	416.62
554.01	477.47
554.17	409.59
554.34	388.53
554.51	498.53
554.67	433.00
554.84	454.06
555.00	479.81
555.17	444.70
555.33	418.96
555.50	437.68
555.67	360.44
555.83	463.43
556.00	468.11
556.16	468.11
556.33	493.85
556.50	435.34
556.66	416.62
556.83	374.49
556.99	400.23
557.16	418.96
557.32	395.55
557.49	444.70
557.65	409.59
557.82	414.27
557.98	409.59
558.15	456.40
558.32	430.66
558.48	433.00
558.65	433.00
558.81	383.85
558.98	442.36
559.14	433.00
559.31	425.98
559.47	454.06
559.64	493.85
559.80	386.19
559.97	381.51
560.13	526.62
560.30	409.59
560.46	379.17
560.63	383.85
560.79	390.87
560.96	435.34
561.12	407.25
561.29	433.00
561.45	414.27
561.61	421.30
561.78	458.74
561.94	383.85
562.11	458.74
562.27	332.36
562.44	514.92
562.60	428.32
562.77	428.32
562.93	479.81
563.10	444.70
563.26	409.59
563.42	411.93
563.59	416.62
563.75	386.19
563.92	369.80
564.08	489.17
564.24	397.89
564.41	386.19
564.57	365.12
564.74	421.30
564.90	421.30
565.07	430.66
565.23	500.87
565.39	362.78
565.56	395.55
565.72	456.40
565.88	381.51
566.05	425.98
566.21	372.15
566.38	360.44
566.54	440.02
566.70	362.78
566.87	390.87
567.03	355.76
567.19	425.98
567.36	444.70
567.52	402.57
567.68	435.34
567.85	440.02
568.01	402.57
568.17	409.59
568.34	423.64
568.50	430.66
568.66	369.80
568.83	454.06
568.99	444.70
569.15	442.36
569.32	437.68
569.48	461.09
569.64	379.17
569.81	425.98
569.97	482.15
570.13	355.76
570.30	435.34
570.46	402.57
570.62	498.53
570.78	390.87
570.95	358.10
571.11	423.64
571.27	428.32
571.43	500.87
571.60	402.57
571.76	421.30
571.92	416.62
572.09	390.87
572.25	468.11
572.41	346.40
572.57	327.68
572.74	451.72
572.90	458.74
573.06	416.62
573.22	386.19
573.38	411.93
573.55	433.00
573.71	409.59
573.87	442.36
574.03	414.27
574.20	402.57
574.36	456.40
574.52	367.46
574.68	409.59
574.84	440.02
575.01	409.59
575.17	397.89
575.33	407.25
575.49	475.13
575.65	393.21
575.82	444.70
575.98	461.09
576.14	428.32
576.30	393.21
576.46	442.36
576.62	461.09
576.79	465.77
576.95	461.09
577.11	430.66
577.27	374.49
577.43	430.66
577.59	386.19
577.75	430.66
577.92	337.04
578.08	442.36
578.24	440.02
578.40	451.72
578.56	470.45
578.72	465.77
578.88	428.32
579.04	451.72
579.21	383.85
579.37	428.32
579.53	395.55
579.69	458.74
579.85	402.57
580.01	454.06
580.17	414.27
580.33	440.02
580.49	360.44
580.65	435.34
580.82	458.74
580.98	348.74
581.14	397.89
581.30	409.59
581.46	458.74
581.62	369.80
581.78	383.85
581.94	458.74
582.10	400.23
582.26	425.98
582.42	463.43
582.58	383.85
582.74	362.78
582.90	388.53
583.06	454.06
583.22	468.11
583.38	535.98
583.54	381.51
583.70	407.25
583.86	437.68
584.02	393.21
584.18	414.27
584.34	470.45
584.50	433.00
584.66	388.53
584.82	433.00
584.98	484.49
585.14	418.96
585.30	470.45
585.46	451.72
585.62	390.87
585.78	423.64
585.94	386.19
586.10	528.96
586.26	456.40
586.42	468.11
586.58	418.96
586.74	395.55
586.90	393.21
587.06	430.66
587.22	388.53
587.38	430.66
587.54	442.36
587.70	454.06
587.86	437.68
588.02	444.70
588.18	353.42
588.34	339.38
588.49	386.19
588.65	355.76
588.81	367.46
588.97	440.02
589.13	491.51
589.29	421.30
589.45	454.06
589.61	451.72
589.77	444.70
589.93	400.23
590.08	444.70
590.24	423.64
590.40	404.91
590.56	397.89
590.72	414.27
590.88	346.40
591.04	447.04
591.20	395.55
591.35	397.89
591.51	393.21
591.67	400.23
591.83	379.17
591.99	418.96
592.15	463.43
592.31	395.55
592.46	454.06
592.62	456.40
592.78	470.45
592.94	360.44
593.10	376.83
593.26	414.27
593.41	433.00
593.57	334.70
593.73	395.55
593.89	428.32
594.05	407.25
594.20	381.51
594.36	496.19
594.52	447.04
594.68	381.51
594.84	437.68
594.99	440.02
595.15	475.13
595.31	407.25
595.47	447.04
595.62	376.83
595.78	386.19
595.94	416.62
596.10	414.27
596.25	421.30
596.41	393.21
596.57	393.21
596.73	421.30
596.88	393.21
597.04	428.32
597.20	423.64
597.36	486.83
597.51	416.62
597.67	400.23
597.83	447.04
597.99	344.06
598.14	395.55
598.30	440.02
598.46	454.06
598.61	430.66
598.77	442.36
598.93	383.85
599.09	376.83
599.24	407.25
599.40	465.77
599.56	463.43
599.71	430.66
599.87	376.83
600.03	388.53
600.18	407.25
600.34	433.00
600.50	423.64
600.65	374.49
600.81	402.57
600.97	395.55
601.12	311.29
601.28	463.43
601.44	374.49
601.59	393.21
601.75	400.23
601.91	414.27
602.06	451.72
602.22	484.49
602.37	454.06
602.53	369.80
602.69	463.43
602.84	381.51
603.00	411.93
603.16	437.68
603.31	440.02
603.47	472.79
603.62	395.55
603.78	479.81
603.94	344.06
604.09	430.66
604.25	447.04
604.40	423.64
604.56	341.72
604.71	379.17
604.87	437.68
605.03	393.21
605.18	411.93
605.34	456.40
605.49	376.83
605.65	381.51
605.80	407.25
605.96	395.55
606.12	451.72
606.27	428.32
606.43	468.11
606.58	414.27
606.74	332.36
606.89	418.96
607.05	449.38
607.20	458.74
607.36	465.77
607.51	447.04
607.67	449.38
607.82	411.93
607.98	425.98
608.13	400.23
608.29	402.57
608.44	454.06
608.60	430.66
608.75	472.79
608.91	470.45
609.06	482.15
609.22	425.98
609.37	393.21
609.53	397.89
609.68	358.10
609.84	334.70
609.99	388.53
610.15	435.34
