SpectraSuite Data File
++++++++++++++++++++++++++++++++++++
Date: Fri Oct 25 12:10:25 EDT 2013
User: price-jones
Dark Spectrum Present: No
Reference Spectrum Present: No
Number of Sampled Component Spectra: 1
Spectrometers: USB2+H05261
Integration Time (usec): 100000 (USB2+H05261)
Spectra Averaged: 1 (USB2+H05261)
Boxcar Smoothing: 0 (USB2+H05261)
Correct for Electrical Dark: No (USB2+H05261)
Strobe/Lamp Enabled: No (USB2+H05261)
Correct for Detector Non-linearity: No (USB2+H05261)
Correct for Stray Light: No (USB2+H05261)
Number of Pixels in Processed Spectrum: 2048
>>>>>Begin Processed Spectral Data<<<<<
365.73	388.53
365.92	388.53
366.12	388.53
366.32	269.16
366.52	203.63
366.72	250.44
366.91	234.05
367.11	248.10
367.31	248.10
367.51	238.73
367.70	241.08
367.90	241.08
368.10	257.46
368.30	297.25
368.49	283.20
368.69	196.60
368.89	250.44
369.09	224.69
369.28	294.91
369.48	212.99
369.68	301.93
369.87	379.17
370.07	322.99
370.27	348.74
370.47	280.86
370.66	334.70
370.86	341.72
371.06	425.98
371.25	367.46
371.45	393.21
371.65	362.78
371.84	367.46
372.04	360.44
372.24	330.02
372.44	430.66
372.63	383.85
372.83	376.83
373.03	463.43
373.22	362.78
373.42	365.12
373.62	433.00
373.81	440.02
374.01	407.25
374.21	388.53
374.40	395.55
374.60	411.93
374.79	435.34
374.99	449.38
375.19	461.09
375.38	442.36
375.58	416.62
375.78	379.17
375.97	475.13
376.17	402.57
376.37	447.04
376.56	430.66
376.76	428.32
376.95	402.57
377.15	388.53
377.35	409.59
377.54	433.00
377.74	479.81
377.93	414.27
378.13	404.91
378.33	351.08
378.52	402.57
378.72	383.85
378.91	463.43
379.11	414.27
379.31	397.89
379.50	411.93
379.70	404.91
379.89	421.30
380.09	423.64
380.28	367.46
380.48	407.25
380.68	341.72
380.87	407.25
381.07	442.36
381.26	451.72
381.46	355.76
381.65	435.34
381.85	388.53
382.04	407.25
382.24	465.77
382.43	404.91
382.63	388.53
382.83	416.62
383.02	461.09
383.22	421.30
383.41	416.62
383.61	397.89
383.80	430.66
384.00	379.17
384.19	428.32
384.39	414.27
384.58	383.85
384.78	381.51
384.97	362.78
385.17	372.15
385.36	386.19
385.56	346.40
385.75	463.43
385.95	407.25
386.14	402.57
386.34	418.96
386.53	407.25
386.72	388.53
386.92	514.92
387.11	463.43
387.31	374.49
387.50	395.55
387.70	404.91
387.89	435.34
388.09	313.63
388.28	407.25
388.48	393.21
388.67	477.47
388.86	468.11
389.06	381.51
389.25	404.91
389.45	409.59
389.64	430.66
389.84	390.87
390.03	414.27
390.22	416.62
390.42	381.51
390.61	421.30
390.81	330.02
391.00	388.53
391.19	344.06
391.39	400.23
391.58	358.10
391.78	449.38
391.97	458.74
392.16	374.49
392.36	428.32
392.55	386.19
392.75	433.00
392.94	393.21
393.13	322.99
393.33	372.15
393.52	383.85
393.71	458.74
393.91	355.76
394.10	344.06
394.29	458.74
394.49	393.21
394.68	416.62
394.88	428.32
395.07	435.34
395.26	325.33
395.46	414.27
395.65	465.77
395.84	465.77
396.04	440.02
396.23	390.87
396.42	430.66
396.62	505.56
396.81	402.57
397.00	409.59
397.19	454.06
397.39	421.30
397.58	388.53
397.77	381.51
397.97	308.95
398.16	449.38
398.35	479.81
398.55	341.72
398.74	416.62
398.93	442.36
399.12	395.55
399.32	456.40
399.51	388.53
399.70	449.38
399.90	433.00
400.09	440.02
400.28	397.89
400.47	395.55
400.67	358.10
400.86	411.93
401.05	416.62
401.24	440.02
401.44	468.11
401.63	444.70
401.82	386.19
402.01	372.15
402.21	409.59
402.40	369.80
402.59	376.83
402.78	416.62
402.97	423.64
403.17	472.79
403.36	416.62
403.55	477.47
403.74	353.42
403.93	416.62
404.13	440.02
404.32	400.23
404.51	365.12
404.70	400.23
404.89	395.55
405.09	435.34
405.28	397.89
405.47	423.64
405.66	390.87
405.85	430.66
406.05	365.12
406.24	465.77
406.43	404.91
406.62	442.36
406.81	475.13
407.00	416.62
407.20	390.87
407.39	411.93
407.58	447.04
407.77	451.72
407.96	418.96
408.15	395.55
408.34	311.29
408.54	386.19
408.73	423.64
408.92	449.38
409.11	404.91
409.30	447.04
409.49	416.62
409.68	414.27
409.87	496.19
410.07	437.68
410.26	428.32
410.45	449.38
410.64	407.25
410.83	308.95
411.02	365.12
411.21	416.62
411.40	402.57
411.59	437.68
411.78	428.32
411.98	444.70
412.17	360.44
412.36	374.49
412.55	362.78
412.74	491.51
412.93	489.17
413.12	379.17
413.31	390.87
413.50	418.96
413.69	379.17
413.88	428.32
414.07	451.72
414.26	416.62
414.45	411.93
414.64	425.98
414.83	376.83
415.02	416.62
415.22	388.53
415.41	411.93
415.60	456.40
415.79	390.87
415.98	430.66
416.17	449.38
416.36	367.46
416.55	440.02
416.74	379.17
416.93	411.93
417.12	414.27
417.31	320.65
417.50	386.19
417.69	423.64
417.88	416.62
418.07	372.15
418.26	428.32
418.45	355.76
418.64	386.19
418.83	411.93
419.02	440.02
419.21	400.23
419.39	411.93
419.58	404.91
419.77	332.36
419.96	374.49
420.15	454.06
420.34	322.99
420.53	402.57
420.72	381.51
420.91	468.11
421.10	465.77
421.29	388.53
421.48	433.00
421.67	428.32
421.86	418.96
422.05	346.40
422.24	397.89
422.43	397.89
422.61	365.12
422.80	374.49
422.99	334.70
423.18	407.25
423.37	393.21
423.56	418.96
423.75	435.34
423.94	374.49
424.13	388.53
424.32	456.40
424.50	465.77
424.69	447.04
424.88	400.23
425.07	344.06
425.26	381.51
425.45	393.21
425.64	435.34
425.83	334.70
426.01	341.72
426.20	397.89
426.39	383.85
426.58	395.55
426.77	414.27
426.96	435.34
427.15	400.23
427.33	465.77
427.52	348.74
427.71	355.76
427.90	442.36
428.09	411.93
428.28	435.34
428.46	411.93
428.65	423.64
428.84	442.36
429.03	407.25
429.22	390.87
429.40	435.34
429.59	362.78
429.78	414.27
429.97	339.38
430.16	379.17
430.34	376.83
430.53	402.57
430.72	411.93
430.91	472.79
431.10	421.30
431.28	456.40
431.47	472.79
431.66	402.57
431.85	381.51
432.03	437.68
432.22	372.15
432.41	397.89
432.60	470.45
432.79	376.83
432.97	393.21
433.16	430.66
433.35	294.91
433.54	421.30
433.72	418.96
433.91	423.64
434.10	423.64
434.28	435.34
434.47	367.46
434.66	454.06
434.85	414.27
435.03	395.55
435.22	500.87
435.41	425.98
435.59	381.51
435.78	388.53
435.97	390.87
436.16	540.66
436.34	418.96
436.53	425.98
436.72	418.96
436.90	425.98
437.09	440.02
437.28	435.34
437.46	414.27
437.65	409.59
437.84	489.17
438.02	491.51
438.21	461.09
438.40	390.87
438.58	409.59
438.77	411.93
438.96	376.83
439.14	402.57
439.33	463.43
439.52	404.91
439.70	458.74
439.89	386.19
440.08	409.59
440.26	365.12
440.45	369.80
440.63	430.66
440.82	381.51
441.01	358.10
441.19	447.04
441.38	409.59
441.57	440.02
441.75	440.02
441.94	461.09
442.12	428.32
442.31	411.93
442.50	362.78
442.68	437.68
442.87	454.06
443.05	423.64
443.24	393.21
443.43	404.91
443.61	435.34
443.80	451.72
443.98	442.36
444.17	479.81
444.35	383.85
444.54	416.62
444.73	425.98
444.91	402.57
445.10	433.00
445.28	409.59
445.47	470.45
445.65	379.17
445.84	400.23
446.02	472.79
446.21	449.38
446.39	407.25
446.58	444.70
446.77	402.57
446.95	407.25
447.14	414.27
447.32	379.17
447.51	393.21
447.69	400.23
447.88	416.62
448.06	447.04
448.25	386.19
448.43	425.98
448.62	376.83
448.80	390.87
448.99	428.32
449.17	400.23
449.36	381.51
449.54	437.68
449.73	449.38
449.91	400.23
450.10	418.96
450.28	409.59
450.46	475.13
450.65	449.38
450.83	421.30
451.02	484.49
451.20	507.90
451.39	444.70
451.57	390.87
451.76	435.34
451.94	402.57
452.13	440.02
452.31	449.38
452.49	418.96
452.68	318.31
452.86	379.17
453.05	416.62
453.23	435.34
453.42	395.55
453.60	444.70
453.78	400.23
453.97	362.78
454.15	451.72
454.34	458.74
454.52	358.10
454.70	475.13
454.89	414.27
455.07	428.32
455.26	404.91
455.44	365.12
455.62	395.55
455.81	440.02
455.99	400.23
456.17	430.66
456.36	421.30
456.54	383.85
456.73	404.91
456.91	470.45
457.09	409.59
457.28	425.98
457.46	470.45
457.64	442.36
457.83	418.96
458.01	435.34
458.19	411.93
458.38	411.93
458.56	472.79
458.74	440.02
458.93	463.43
459.11	425.98
459.29	367.46
459.48	421.30
459.66	475.13
459.84	440.02
460.03	456.40
460.21	409.59
460.39	458.74
460.57	458.74
460.76	475.13
460.94	433.00
461.12	418.96
461.31	479.81
461.49	430.66
461.67	315.97
461.85	404.91
462.04	442.36
462.22	753.65
462.40	451.72
462.59	379.17
462.77	444.70
462.95	414.27
463.13	404.91
463.32	451.72
463.50	421.30
463.68	358.10
463.86	402.57
464.05	388.53
464.23	428.32
464.41	425.98
464.59	402.57
464.78	430.66
464.96	374.49
465.14	423.64
465.32	428.32
465.50	447.04
465.69	383.85
465.87	315.97
466.05	372.15
466.23	449.38
466.41	416.62
466.60	365.12
466.78	372.15
466.96	437.68
467.14	463.43
467.32	374.49
467.51	475.13
467.69	369.80
467.87	362.78
468.05	379.17
468.23	404.91
468.41	414.27
468.60	433.00
468.78	402.57
468.96	447.04
469.14	379.17
469.32	381.51
469.50	379.17
469.69	372.15
469.87	411.93
470.05	414.27
470.23	463.43
470.41	374.49
470.59	433.00
470.77	447.04
470.95	393.21
471.14	404.91
471.32	423.64
471.50	430.66
471.68	369.80
471.86	388.53
472.04	351.08
472.22	332.36
472.40	353.42
472.58	433.00
472.77	428.32
472.95	428.32
473.13	454.06
473.31	468.11
473.49	437.68
473.67	367.46
473.85	468.11
474.03	383.85
474.21	425.98
474.39	463.43
474.57	477.47
474.75	479.81
474.93	332.36
475.12	435.34
475.30	411.93
475.48	463.43
475.66	484.49
475.84	479.81
476.02	465.77
476.20	465.77
476.38	468.11
476.56	402.57
476.74	337.04
476.92	411.93
477.10	433.00
477.28	407.25
477.46	402.57
477.64	386.19
477.82	491.51
478.00	365.12
478.18	351.08
478.36	393.21
478.54	407.25
478.72	372.15
478.90	376.83
479.08	428.32
479.26	442.36
479.44	393.21
479.62	409.59
479.80	402.57
479.98	414.27
480.16	463.43
480.34	400.23
480.52	388.53
480.70	430.66
480.88	454.06
481.06	390.87
481.24	470.45
481.41	390.87
481.59	372.15
481.77	353.42
481.95	362.78
482.13	454.06
482.31	388.53
482.49	383.85
482.67	416.62
482.85	444.70
483.03	372.15
483.21	372.15
483.39	365.12
483.57	435.34
483.74	402.57
483.92	461.09
484.10	435.34
484.28	479.81
484.46	451.72
484.64	383.85
484.82	425.98
485.00	346.40
485.18	372.15
485.35	358.10
485.53	381.51
485.71	498.53
485.89	397.89
486.07	374.49
486.25	449.38
486.43	379.17
486.61	372.15
486.78	407.25
486.96	395.55
487.14	397.89
487.32	437.68
487.50	334.70
487.68	376.83
487.85	440.02
488.03	353.42
488.21	428.32
488.39	383.85
488.57	334.70
488.75	418.96
488.92	533.64
489.10	416.62
489.28	435.34
489.46	369.80
489.64	390.87
489.81	435.34
489.99	341.72
490.17	362.78
490.35	468.11
490.53	425.98
490.70	407.25
490.88	430.66
491.06	430.66
491.24	423.64
491.41	418.96
491.59	456.40
491.77	479.81
491.95	414.27
492.13	444.70
492.30	379.17
492.48	322.99
492.66	395.55
492.84	383.85
493.01	414.27
493.19	421.30
493.37	468.11
493.54	388.53
493.72	430.66
493.90	358.10
494.08	442.36
494.25	461.09
494.43	454.06
494.61	433.00
494.79	425.98
494.96	430.66
495.14	393.21
495.32	407.25
495.49	381.51
495.67	388.53
495.85	489.17
496.02	416.62
496.20	430.66
496.38	451.72
496.55	447.04
496.73	341.72
496.91	404.91
497.09	407.25
497.26	395.55
497.44	433.00
497.62	404.91
497.79	334.70
497.97	404.91
498.14	409.59
498.32	416.62
498.50	461.09
498.67	428.32
498.85	458.74
499.03	440.02
499.20	407.25
499.38	425.98
499.56	372.15
499.73	404.91
499.91	451.72
500.08	444.70
500.26	444.70
500.44	393.21
500.61	421.30
500.79	435.34
500.97	414.27
501.14	383.85
501.32	433.00
501.49	500.87
501.67	461.09
501.84	397.89
502.02	493.85
502.20	428.32
502.37	416.62
502.55	409.59
502.72	407.25
502.90	437.68
503.07	376.83
503.25	503.22
503.43	372.15
503.60	447.04
503.78	330.02
503.95	465.77
504.13	388.53
504.30	449.38
504.48	388.53
504.65	489.17
504.83	430.66
505.01	454.06
505.18	400.23
505.36	418.96
505.53	355.76
505.71	463.43
505.88	491.51
506.06	430.66
506.23	395.55
506.41	367.46
506.58	411.93
506.76	360.44
506.93	489.17
507.11	447.04
507.28	416.62
507.46	440.02
507.63	395.55
507.81	468.11
507.98	482.15
508.16	395.55
508.33	503.22
508.50	440.02
508.68	409.59
508.85	369.80
509.03	484.49
509.20	430.66
509.38	444.70
509.55	320.65
509.73	390.87
509.90	383.85
510.08	344.06
510.25	468.11
510.42	383.85
510.60	435.34
510.77	468.11
510.95	433.00
511.12	447.04
511.30	437.68
511.47	390.87
511.64	407.25
511.82	395.55
511.99	428.32
512.17	381.51
512.34	416.62
512.51	418.96
512.69	447.04
512.86	458.74
513.04	449.38
513.21	437.68
513.38	369.80
513.56	421.30
513.73	425.98
513.90	437.68
514.08	423.64
514.25	433.00
514.43	407.25
514.60	437.68
514.77	430.66
514.95	374.49
515.12	425.98
515.29	397.89
515.47	456.40
515.64	425.98
515.81	442.36
515.99	458.74
516.16	397.89
516.33	423.64
516.51	414.27
516.68	409.59
516.85	346.40
517.03	388.53
517.20	496.19
517.37	358.10
517.54	430.66
517.72	451.72
517.89	425.98
518.06	449.38
518.24	423.64
518.41	418.96
518.58	428.32
518.75	418.96
518.93	493.85
519.10	404.91
519.27	449.38
519.45	491.51
519.62	463.43
519.79	447.04
519.96	383.85
520.14	416.62
520.31	496.19
520.48	423.64
520.65	444.70
520.83	414.27
521.00	409.59
521.17	423.64
521.34	353.42
521.52	388.53
521.69	383.85
521.86	400.23
522.03	407.25
522.20	470.45
522.38	454.06
522.55	444.70
522.72	447.04
522.89	451.72
523.07	517.26
523.24	315.97
523.41	393.21
523.58	390.87
523.75	402.57
523.92	414.27
524.10	433.00
524.27	463.43
524.44	334.70
524.61	358.10
524.78	400.23
524.96	458.74
525.13	447.04
525.30	449.38
525.47	433.00
525.64	470.45
525.81	414.27
525.98	425.98
526.16	372.15
526.33	428.32
526.50	304.27
526.67	395.55
526.84	365.12
527.01	358.10
527.18	451.72
527.36	423.64
527.53	383.85
527.70	442.36
527.87	437.68
528.04	416.62
528.21	402.57
528.38	440.02
528.55	395.55
528.72	503.22
528.89	440.02
529.07	390.87
529.24	430.66
529.41	440.02
529.58	416.62
529.75	430.66
529.92	479.81
530.09	433.00
530.26	414.27
530.43	395.55
530.60	440.02
530.77	442.36
530.94	395.55
531.11	400.23
531.28	400.23
531.46	409.59
531.63	440.02
531.80	421.30
531.97	409.59
532.14	458.74
532.31	507.90
532.48	423.64
532.65	407.25
532.82	362.78
532.99	433.00
533.16	411.93
533.33	325.33
533.50	402.57
533.67	379.17
533.84	325.33
534.01	390.87
534.18	440.02
534.35	456.40
534.52	397.89
534.69	395.55
534.86	414.27
535.03	416.62
535.20	409.59
535.37	390.87
535.54	440.02
535.71	411.93
535.88	505.56
536.05	395.55
536.22	402.57
536.38	367.46
536.55	393.21
536.72	383.85
536.89	433.00
537.06	397.89
537.23	383.85
537.40	388.53
537.57	379.17
537.74	531.30
537.91	421.30
538.08	353.42
538.25	416.62
538.42	440.02
538.59	454.06
538.75	358.10
538.92	418.96
539.09	383.85
539.26	407.25
539.43	414.27
539.60	381.51
539.77	428.32
539.94	447.04
540.11	444.70
540.28	454.06
540.44	482.15
540.61	451.72
540.78	414.27
540.95	411.93
541.12	463.43
541.29	367.46
541.46	451.72
541.62	411.93
541.79	388.53
541.96	400.23
542.13	416.62
542.30	393.21
542.47	383.85
542.63	421.30
542.80	458.74
542.97	400.23
543.14	449.38
543.31	411.93
543.48	451.72
543.64	416.62
543.81	411.93
543.98	418.96
544.15	400.23
544.32	449.38
544.48	383.85
544.65	423.64
544.82	449.38
544.99	397.89
545.16	442.36
545.32	369.80
545.49	388.53
545.66	386.19
545.83	374.49
546.00	500.87
546.16	428.32
546.33	379.17
546.50	430.66
546.67	397.89
546.83	409.59
547.00	414.27
547.17	355.76
547.34	320.65
547.50	421.30
547.67	416.62
547.84	468.11
548.00	435.34
548.17	346.40
548.34	381.51
548.51	425.98
548.67	400.23
548.84	421.30
549.01	383.85
549.18	379.17
549.34	397.89
549.51	400.23
549.68	376.83
549.84	362.78
550.01	388.53
550.18	393.21
550.34	493.85
550.51	454.06
550.68	463.43
550.84	390.87
551.01	379.17
551.18	393.21
551.34	402.57
551.51	468.11
551.68	344.06
551.84	428.32
552.01	447.04
552.18	416.62
552.34	409.59
552.51	465.77
552.68	435.34
552.84	372.15
553.01	458.74
553.18	393.21
553.34	353.42
553.51	379.17
553.67	433.00
553.84	475.13
554.01	454.06
554.17	395.55
554.34	395.55
554.51	465.77
554.67	440.02
554.84	444.70
555.00	365.12
555.17	458.74
555.33	465.77
555.50	362.78
555.67	437.68
555.83	414.27
556.00	421.30
556.16	578.11
556.33	402.57
556.50	393.21
556.66	414.27
556.83	479.81
556.99	367.46
557.16	395.55
557.32	465.77
557.49	421.30
557.65	388.53
557.82	388.53
557.98	437.68
558.15	425.98
558.32	400.23
558.48	395.55
558.65	397.89
558.81	418.96
558.98	437.68
559.14	454.06
559.31	353.42
559.47	388.53
559.64	416.62
559.80	386.19
559.97	369.80
560.13	404.91
560.30	484.49
560.46	395.55
560.63	358.10
560.79	386.19
560.96	430.66
561.12	428.32
561.29	425.98
561.45	428.32
561.61	407.25
561.78	475.13
561.94	442.36
562.11	395.55
562.27	374.49
562.44	386.19
562.60	411.93
562.77	409.59
562.93	468.11
563.10	451.72
563.26	416.62
563.42	447.04
563.59	440.02
563.75	418.96
563.92	465.77
564.08	374.49
564.24	430.66
564.41	498.53
564.57	404.91
564.74	404.91
564.90	400.23
565.07	435.34
565.23	435.34
565.39	397.89
565.56	444.70
565.72	421.30
565.88	365.12
566.05	381.51
566.21	454.06
566.38	437.68
566.54	416.62
566.70	376.83
566.87	402.57
567.03	444.70
567.19	425.98
567.36	386.19
567.52	423.64
567.68	315.97
567.85	409.59
568.01	428.32
568.17	367.46
568.34	442.36
568.50	489.17
568.66	416.62
568.83	463.43
568.99	411.93
569.15	456.40
569.32	386.19
569.48	407.25
569.64	397.89
569.81	381.51
569.97	416.62
570.13	465.77
570.30	393.21
570.46	402.57
570.62	339.38
570.78	379.17
570.95	444.70
571.11	451.72
571.27	486.83
571.43	379.17
571.60	491.51
571.76	449.38
571.92	449.38
572.09	447.04
572.25	383.85
572.41	379.17
572.57	484.49
572.74	531.30
572.90	440.02
573.06	475.13
573.22	433.00
573.38	437.68
573.55	418.96
573.71	386.19
573.87	437.68
574.03	440.02
574.20	414.27
574.36	456.40
574.52	477.47
574.68	421.30
574.84	388.53
575.01	416.62
575.17	444.70
575.33	395.55
575.49	479.81
575.65	428.32
575.82	397.89
575.98	442.36
576.14	484.49
576.30	454.06
576.46	489.17
576.62	381.51
576.79	404.91
576.95	435.34
577.11	397.89
577.27	362.78
577.43	451.72
577.59	498.53
577.75	491.51
577.92	486.83
578.08	437.68
578.24	458.74
578.40	442.36
578.56	411.93
578.72	411.93
578.88	433.00
579.04	404.91
579.21	423.64
579.37	442.36
579.53	388.53
579.69	395.55
579.85	395.55
580.01	414.27
580.17	367.46
580.33	458.74
580.49	416.62
580.65	423.64
580.82	428.32
580.98	435.34
581.14	383.85
581.30	482.15
581.46	411.93
581.62	430.66
581.78	500.87
581.94	461.09
582.10	496.19
582.26	339.38
582.42	339.38
582.58	430.66
582.74	416.62
582.90	477.47
583.06	416.62
583.22	442.36
583.38	376.83
583.54	425.98
583.70	472.79
583.86	428.32
584.02	421.30
584.18	451.72
584.34	402.57
584.50	404.91
584.66	421.30
584.82	379.17
584.98	416.62
585.14	463.43
585.30	440.02
585.46	381.51
585.62	437.68
585.78	330.02
585.94	388.53
586.10	414.27
586.26	390.87
586.42	449.38
586.58	458.74
586.74	456.40
586.90	472.79
587.06	463.43
587.22	372.15
587.38	383.85
587.54	414.27
587.70	463.43
587.86	451.72
588.02	416.62
588.18	388.53
588.34	435.34
588.49	386.19
588.65	414.27
588.81	411.93
588.97	416.62
589.13	362.78
589.29	414.27
589.45	433.00
589.61	468.11
589.77	442.36
589.93	416.62
590.08	348.74
590.24	449.38
590.40	449.38
590.56	407.25
590.72	421.30
590.88	355.76
591.04	404.91
591.20	318.31
591.35	421.30
591.51	463.43
591.67	416.62
591.83	500.87
591.99	379.17
592.15	402.57
592.31	442.36
592.46	379.17
592.62	442.36
592.78	402.57
592.94	381.51
593.10	437.68
593.26	393.21
593.41	383.85
593.57	435.34
593.73	395.55
593.89	397.89
594.05	383.85
594.20	449.38
594.36	414.27
594.52	428.32
594.68	477.47
594.84	454.06
594.99	559.39
595.15	433.00
595.31	367.46
595.47	423.64
595.62	449.38
595.78	395.55
595.94	411.93
596.10	393.21
596.25	463.43
596.41	339.38
596.57	444.70
596.73	444.70
596.88	397.89
597.04	407.25
597.20	397.89
597.36	472.79
597.51	470.45
597.67	451.72
597.83	409.59
597.99	479.81
598.14	444.70
598.30	451.72
598.46	451.72
598.61	442.36
598.77	435.34
598.93	365.12
599.09	430.66
599.24	449.38
599.40	444.70
599.56	425.98
599.71	411.93
599.87	390.87
600.03	451.72
600.18	437.68
600.34	442.36
600.50	390.87
600.65	418.96
600.81	479.81
600.97	437.68
601.12	454.06
601.28	482.15
601.44	416.62
601.59	358.10
601.75	423.64
601.91	444.70
602.06	407.25
602.22	433.00
602.37	390.87
602.53	477.47
602.69	353.42
602.84	440.02
603.00	379.17
603.16	409.59
603.31	444.70
603.47	458.74
603.62	437.68
603.78	414.27
603.94	400.23
604.09	374.49
604.25	449.38
604.40	369.80
604.56	365.12
604.71	433.00
604.87	404.91
605.03	404.91
605.18	428.32
605.34	395.55
605.49	440.02
605.65	418.96
605.80	433.00
605.96	358.10
606.12	414.27
606.27	425.98
606.43	365.12
606.58	402.57
606.74	390.87
606.89	433.00
607.05	442.36
607.20	402.57
607.36	374.49
607.51	402.57
607.67	463.43
607.82	376.83
607.98	404.91
608.13	386.19
608.29	402.57
608.44	449.38
608.60	425.98
608.75	414.27
608.91	393.21
609.06	351.08
609.22	458.74
609.37	409.59
609.53	409.59
609.68	360.44
609.84	486.83
609.99	381.51
610.15	437.68
