SpectraSuite Data File
++++++++++++++++++++++++++++++++++++
Date: Fri Oct 25 12:10:44 EDT 2013
User: price-jones
Dark Spectrum Present: No
Reference Spectrum Present: No
Number of Sampled Component Spectra: 1
Spectrometers: USB2+H05261
Integration Time (usec): 100000 (USB2+H05261)
Spectra Averaged: 1 (USB2+H05261)
Boxcar Smoothing: 0 (USB2+H05261)
Correct for Electrical Dark: No (USB2+H05261)
Strobe/Lamp Enabled: No (USB2+H05261)
Correct for Detector Non-linearity: No (USB2+H05261)
Correct for Stray Light: No (USB2+H05261)
Number of Pixels in Processed Spectrum: 2048
>>>>>Begin Processed Spectral Data<<<<<
365.73	278.52
365.92	278.52
366.12	278.52
366.32	255.12
366.52	283.20
366.72	215.33
366.91	222.35
367.11	257.46
367.31	198.95
367.51	208.31
367.70	241.08
367.90	262.14
368.10	217.67
368.30	191.92
368.49	220.01
368.69	337.04
368.89	201.29
369.09	297.25
369.28	322.99
369.48	271.50
369.68	163.84
369.87	266.82
370.07	285.55
370.27	353.42
370.47	353.42
370.66	322.99
370.86	339.38
371.06	372.15
371.25	402.57
371.45	346.40
371.65	407.25
371.84	428.32
372.04	330.02
372.24	437.68
372.44	418.96
372.63	379.17
372.83	390.87
373.03	416.62
373.22	397.89
373.42	447.04
373.62	395.55
373.81	411.93
374.01	409.59
374.21	397.89
374.40	421.30
374.60	369.80
374.79	402.57
374.99	428.32
375.19	388.53
375.38	454.06
375.58	383.85
375.78	404.91
375.97	437.68
376.17	414.27
376.37	407.25
376.56	390.87
376.76	362.78
376.95	458.74
377.15	404.91
377.35	425.98
377.54	437.68
377.74	327.68
377.93	346.40
378.13	369.80
378.33	353.42
378.52	433.00
378.72	482.15
378.91	404.91
379.11	423.64
379.31	414.27
379.50	411.93
379.70	458.74
379.89	404.91
380.09	418.96
380.28	416.62
380.48	346.40
380.68	428.32
380.87	430.66
381.07	383.85
381.26	507.90
381.46	390.87
381.65	428.32
381.85	402.57
382.04	348.74
382.24	334.70
382.43	456.40
382.63	386.19
382.83	348.74
383.02	418.96
383.22	507.90
383.41	418.96
383.61	374.49
383.80	440.02
384.00	409.59
384.19	411.93
384.39	458.74
384.58	428.32
384.78	341.72
384.97	430.66
385.17	353.42
385.36	411.93
385.56	339.38
385.75	418.96
385.95	362.78
386.14	376.83
386.34	433.00
386.53	400.23
386.72	322.99
386.92	451.72
387.11	327.68
387.31	386.19
387.50	341.72
387.70	341.72
387.89	433.00
388.09	435.34
388.28	407.25
388.48	358.10
388.67	379.17
388.86	365.12
389.06	358.10
389.25	437.68
389.45	397.89
389.64	355.76
389.84	444.70
390.03	411.93
390.22	414.27
390.42	381.51
390.61	383.85
390.81	421.30
391.00	414.27
391.19	402.57
391.39	449.38
391.58	447.04
391.78	390.87
391.97	430.66
392.16	421.30
392.36	423.64
392.55	428.32
392.75	423.64
392.94	407.25
393.13	456.40
393.33	425.98
393.52	463.43
393.71	463.43
393.91	374.49
394.10	442.36
394.29	449.38
394.49	444.70
394.68	409.59
394.88	421.30
395.07	339.38
395.26	437.68
395.46	472.79
395.65	418.96
395.84	360.44
396.04	414.27
396.23	430.66
396.42	411.93
396.62	409.59
396.81	400.23
397.00	381.51
397.19	397.89
397.39	369.80
397.58	411.93
397.77	365.12
397.97	428.32
398.16	402.57
398.35	393.21
398.55	400.23
398.74	386.19
398.93	362.78
399.12	372.15
399.32	393.21
399.51	388.53
399.70	390.87
399.90	395.55
400.09	330.02
400.28	451.72
400.47	444.70
400.67	430.66
400.86	454.06
401.05	465.77
401.24	414.27
401.44	381.51
401.63	393.21
401.82	428.32
402.01	409.59
402.21	386.19
402.40	369.80
402.59	421.30
402.78	397.89
402.97	355.76
403.17	407.25
403.36	334.70
403.55	414.27
403.74	454.06
403.93	449.38
404.13	468.11
404.32	463.43
404.51	334.70
404.70	365.12
404.89	416.62
405.09	510.24
405.28	395.55
405.47	437.68
405.66	465.77
405.85	388.53
406.05	421.30
406.24	402.57
406.43	376.83
406.62	393.21
406.81	519.60
407.00	451.72
407.20	379.17
407.39	418.96
407.58	395.55
407.77	360.44
407.96	411.93
408.15	423.64
408.34	458.74
408.54	484.49
408.73	411.93
408.92	397.89
409.11	407.25
409.30	440.02
409.49	418.96
409.68	388.53
409.87	411.93
410.07	390.87
410.26	461.09
410.45	451.72
410.64	437.68
410.83	367.46
411.02	468.11
411.21	341.72
411.40	425.98
411.59	428.32
411.78	404.91
411.98	400.23
412.17	388.53
412.36	395.55
412.55	430.66
412.74	362.78
412.93	454.06
413.12	353.42
413.31	416.62
413.50	454.06
413.69	425.98
413.88	414.27
414.07	402.57
414.26	468.11
414.45	437.68
414.64	372.15
414.83	402.57
415.02	390.87
415.22	433.00
415.41	472.79
415.60	435.34
415.79	386.19
415.98	484.49
416.17	337.04
416.36	386.19
416.55	358.10
416.74	442.36
416.93	437.68
417.12	421.30
417.31	386.19
417.50	393.21
417.69	409.59
417.88	433.00
418.07	447.04
418.26	334.70
418.45	430.66
418.64	444.70
418.83	416.62
419.02	400.23
419.21	421.30
419.39	334.70
419.58	369.80
419.77	332.36
419.96	416.62
420.15	411.93
420.34	383.85
420.53	435.34
420.72	404.91
420.91	468.11
421.10	351.08
421.29	493.85
421.48	444.70
421.67	411.93
421.86	414.27
422.05	397.89
422.24	435.34
422.43	388.53
422.61	470.45
422.80	463.43
422.99	386.19
423.18	407.25
423.37	447.04
423.56	372.15
423.75	484.49
423.94	411.93
424.13	451.72
424.32	393.21
424.50	444.70
424.69	397.89
424.88	376.83
425.07	416.62
425.26	358.10
425.45	447.04
425.64	428.32
425.83	404.91
426.01	425.98
426.20	454.06
426.39	477.47
426.58	334.70
426.77	372.15
426.96	411.93
427.15	449.38
427.33	418.96
427.52	437.68
427.71	421.30
427.90	393.21
428.09	440.02
428.28	407.25
428.46	404.91
428.65	374.49
428.84	306.61
429.03	468.11
429.22	369.80
429.40	379.17
429.59	451.72
429.78	383.85
429.97	414.27
430.16	425.98
430.34	393.21
430.53	407.25
430.72	376.83
430.91	482.15
431.10	374.49
431.28	355.76
431.47	402.57
431.66	472.79
431.85	411.93
432.03	395.55
432.22	451.72
432.41	468.11
432.60	468.11
432.79	388.53
432.97	407.25
433.16	428.32
433.35	367.46
433.54	454.06
433.72	440.02
433.91	404.91
434.10	437.68
434.28	416.62
434.47	418.96
434.66	447.04
434.85	409.59
435.03	449.38
435.22	477.47
435.41	421.30
435.59	482.15
435.78	411.93
435.97	386.19
436.16	411.93
436.34	463.43
436.53	414.27
436.72	484.49
436.90	421.30
437.09	433.00
437.28	428.32
437.46	395.55
437.65	395.55
437.84	449.38
438.02	437.68
438.21	407.25
438.40	404.91
438.58	393.21
438.77	491.51
438.96	409.59
439.14	374.49
439.33	386.19
439.52	390.87
439.70	425.98
439.89	386.19
440.08	400.23
440.26	442.36
440.45	505.56
440.63	444.70
440.82	430.66
441.01	496.19
441.19	435.34
441.38	379.17
441.57	411.93
441.75	454.06
441.94	463.43
442.12	411.93
442.31	372.15
442.50	390.87
442.68	444.70
442.87	379.17
443.05	393.21
443.24	386.19
443.43	454.06
443.61	449.38
443.80	433.00
443.98	404.91
444.17	437.68
444.35	465.77
444.54	365.12
444.73	444.70
444.91	423.64
445.10	369.80
445.28	458.74
445.47	428.32
445.65	346.40
445.84	451.72
446.02	461.09
446.21	416.62
446.39	416.62
446.58	475.13
446.77	386.19
446.95	400.23
447.14	444.70
447.32	433.00
447.51	458.74
447.69	393.21
447.88	425.98
448.06	425.98
448.25	407.25
448.43	437.68
448.62	397.89
448.80	383.85
448.99	428.32
449.17	430.66
449.36	367.46
449.54	409.59
449.73	372.15
449.91	486.83
450.10	372.15
450.28	458.74
450.46	437.68
450.65	383.85
450.83	411.93
451.02	369.80
451.20	383.85
451.39	344.06
451.57	454.06
451.76	472.79
451.94	362.78
452.13	381.51
452.31	454.06
452.49	442.36
452.68	414.27
452.86	475.13
453.05	421.30
453.23	433.00
453.42	383.85
453.60	449.38
453.78	348.74
453.97	414.27
454.15	433.00
454.34	402.57
454.52	463.43
454.70	447.04
454.89	463.43
455.07	351.08
455.26	461.09
455.44	449.38
455.62	440.02
455.81	437.68
455.99	388.53
456.17	348.74
456.36	383.85
456.54	442.36
456.73	397.89
456.91	381.51
457.09	461.09
457.28	374.49
457.46	423.64
457.64	447.04
457.83	468.11
458.01	428.32
458.19	461.09
458.38	418.96
458.56	468.11
458.74	372.15
458.93	404.91
459.11	430.66
459.29	486.83
459.48	341.72
459.66	440.02
459.84	404.91
460.03	428.32
460.21	456.40
460.39	425.98
460.57	411.93
460.76	444.70
460.94	442.36
461.12	449.38
461.31	468.11
461.49	301.93
461.67	456.40
461.85	411.93
462.04	407.25
462.22	814.51
462.40	535.98
462.59	444.70
462.77	381.51
462.95	376.83
463.13	383.85
463.32	479.81
463.50	437.68
463.68	486.83
463.86	416.62
464.05	425.98
464.23	430.66
464.41	301.93
464.59	437.68
464.78	360.44
464.96	386.19
465.14	430.66
465.32	414.27
465.50	454.06
465.69	346.40
465.87	381.51
466.05	404.91
466.23	454.06
466.41	362.78
466.60	440.02
466.78	411.93
466.96	477.47
467.14	500.87
467.32	444.70
467.51	383.85
467.69	435.34
467.87	468.11
468.05	430.66
468.23	449.38
468.41	418.96
468.60	423.64
468.78	433.00
468.96	430.66
469.14	456.40
469.32	395.55
469.50	451.72
469.69	433.00
469.87	428.32
470.05	402.57
470.23	423.64
470.41	423.64
470.59	397.89
470.77	430.66
470.95	414.27
471.14	390.87
471.32	482.15
471.50	489.17
471.68	454.06
471.86	447.04
472.04	418.96
472.22	402.57
472.40	416.62
472.58	376.83
472.77	341.72
472.95	367.46
473.13	454.06
473.31	444.70
473.49	468.11
473.67	456.40
473.85	440.02
474.03	468.11
474.21	393.21
474.39	400.23
474.57	430.66
474.75	379.17
474.93	407.25
475.12	390.87
475.30	437.68
475.48	433.00
475.66	402.57
475.84	409.59
476.02	397.89
476.20	468.11
476.38	440.02
476.56	456.40
476.74	430.66
476.92	411.93
477.10	388.53
477.28	411.93
477.46	390.87
477.64	423.64
477.82	472.79
478.00	411.93
478.18	416.62
478.36	416.62
478.54	355.76
478.72	381.51
478.90	395.55
479.08	407.25
479.26	416.62
479.44	395.55
479.62	449.38
479.80	318.31
479.98	376.83
480.16	402.57
480.34	444.70
480.52	496.19
480.70	379.17
480.88	402.57
481.06	374.49
481.24	472.79
481.41	442.36
481.59	416.62
481.77	407.25
481.95	465.77
482.13	451.72
482.31	437.68
482.49	388.53
482.67	507.90
482.85	360.44
483.03	369.80
483.21	381.51
483.39	414.27
483.57	442.36
483.74	458.74
483.92	388.53
484.10	374.49
484.28	365.12
484.46	421.30
484.64	433.00
484.82	465.77
485.00	451.72
485.18	437.68
485.35	437.68
485.53	362.78
485.71	451.72
485.89	388.53
486.07	430.66
486.25	468.11
486.43	409.59
486.61	437.68
486.78	447.04
486.96	325.33
487.14	447.04
487.32	430.66
487.50	418.96
487.68	425.98
487.85	404.91
488.03	463.43
488.21	386.19
488.39	390.87
488.57	351.08
488.75	348.74
488.92	437.68
489.10	442.36
489.28	449.38
489.46	355.76
489.64	463.43
489.81	404.91
489.99	353.42
490.17	397.89
490.35	486.83
490.53	355.76
490.70	362.78
490.88	393.21
491.06	409.59
491.24	393.21
491.41	465.77
491.59	374.49
491.77	402.57
491.95	404.91
492.13	435.34
492.30	414.27
492.48	477.47
492.66	430.66
492.84	435.34
493.01	414.27
493.19	447.04
493.37	409.59
493.54	454.06
493.72	437.68
493.90	433.00
494.08	482.15
494.25	351.08
494.43	414.27
494.61	458.74
494.79	447.04
494.96	397.89
495.14	393.21
495.32	325.33
495.49	411.93
495.67	428.32
495.85	475.13
496.02	444.70
496.20	414.27
496.38	444.70
496.55	428.32
496.73	465.77
496.91	430.66
497.09	355.76
497.26	381.51
497.44	442.36
497.62	430.66
497.79	402.57
497.97	454.06
498.14	475.13
498.32	458.74
498.50	360.44
498.67	470.45
498.85	428.32
499.03	421.30
499.20	383.85
499.38	433.00
499.56	479.81
499.73	409.59
499.91	409.59
500.08	407.25
500.26	390.87
500.44	447.04
500.61	514.92
500.79	383.85
500.97	418.96
501.14	470.45
501.32	411.93
501.49	421.30
501.67	414.27
501.84	402.57
502.02	418.96
502.20	418.96
502.37	444.70
502.55	409.59
502.72	428.32
502.90	416.62
503.07	428.32
503.25	449.38
503.43	433.00
503.60	346.40
503.78	421.30
503.95	409.59
504.13	407.25
504.30	435.34
504.48	451.72
504.65	465.77
504.83	402.57
505.01	351.08
505.18	425.98
505.36	414.27
505.53	395.55
505.71	397.89
505.88	493.85
506.06	472.79
506.23	402.57
506.41	395.55
506.58	390.87
506.76	369.80
506.93	407.25
507.11	456.40
507.28	409.59
507.46	404.91
507.63	409.59
507.81	374.49
507.98	411.93
508.16	461.09
508.33	407.25
508.50	379.17
508.68	437.68
508.85	437.68
509.03	400.23
509.20	388.53
509.38	470.45
509.55	353.42
509.73	395.55
509.90	510.24
510.08	402.57
510.25	395.55
510.42	430.66
510.60	447.04
510.77	404.91
510.95	400.23
511.12	425.98
511.30	421.30
511.47	430.66
511.64	395.55
511.82	435.34
511.99	484.49
512.17	365.12
512.34	341.72
512.51	367.46
512.69	435.34
512.86	442.36
513.04	402.57
513.21	416.62
513.38	372.15
513.56	397.89
513.73	458.74
513.90	376.83
514.08	407.25
514.25	379.17
514.43	451.72
514.60	416.62
514.77	411.93
514.95	407.25
515.12	369.80
515.29	383.85
515.47	458.74
515.64	465.77
515.81	390.87
515.99	428.32
516.16	428.32
516.33	374.49
516.51	416.62
516.68	393.21
516.85	428.32
517.03	418.96
517.20	437.68
517.37	440.02
517.54	507.90
517.72	395.55
517.89	365.12
518.06	411.93
518.24	461.09
518.41	449.38
518.58	470.45
518.75	395.55
518.93	367.46
519.10	383.85
519.27	393.21
519.45	423.64
519.62	362.78
519.79	440.02
519.96	411.93
520.14	484.49
520.31	437.68
520.48	393.21
520.65	512.58
520.83	468.11
521.00	440.02
521.17	468.11
521.34	463.43
521.52	437.68
521.69	365.12
521.86	390.87
522.03	444.70
522.20	433.00
522.38	500.87
522.55	414.27
522.72	423.64
522.89	421.30
523.07	479.81
523.24	454.06
523.41	414.27
523.58	496.19
523.75	386.19
523.92	320.65
524.10	393.21
524.27	437.68
524.44	393.21
524.61	390.87
524.78	414.27
524.96	418.96
525.13	404.91
525.30	528.96
525.47	425.98
525.64	397.89
525.81	381.51
525.98	418.96
526.16	397.89
526.33	437.68
526.50	360.44
526.67	369.80
526.84	472.79
527.01	425.98
527.18	423.64
527.36	404.91
527.53	416.62
527.70	458.74
527.87	344.06
528.04	444.70
528.21	376.83
528.38	465.77
528.55	505.56
528.72	400.23
528.89	372.15
529.07	423.64
529.24	369.80
529.41	428.32
529.58	386.19
529.75	428.32
529.92	362.78
530.09	409.59
530.26	449.38
530.43	440.02
530.60	409.59
530.77	407.25
530.94	449.38
531.11	390.87
531.28	379.17
531.46	390.87
531.63	456.40
531.80	395.55
531.97	418.96
532.14	386.19
532.31	440.02
532.48	477.47
532.65	428.32
532.82	395.55
532.99	383.85
533.16	416.62
533.33	393.21
533.50	339.38
533.67	437.68
533.84	416.62
534.01	472.79
534.18	409.59
534.35	374.49
534.52	355.76
534.69	409.59
534.86	430.66
535.03	435.34
535.20	374.49
535.37	376.83
535.54	470.45
535.71	447.04
535.88	425.98
536.05	330.02
536.22	407.25
536.38	407.25
536.55	477.47
536.72	461.09
536.89	374.49
537.06	379.17
537.23	411.93
537.40	390.87
537.57	362.78
537.74	458.74
537.91	440.02
538.08	393.21
538.25	477.47
538.42	430.66
538.59	337.04
538.75	388.53
538.92	423.64
539.09	386.19
539.26	404.91
539.43	423.64
539.60	430.66
539.77	440.02
539.94	369.80
540.11	442.36
540.28	393.21
540.44	456.40
540.61	470.45
540.78	470.45
540.95	383.85
541.12	479.81
541.29	433.00
541.46	435.34
541.62	411.93
541.79	393.21
541.96	402.57
542.13	430.66
542.30	318.31
542.47	435.34
542.63	407.25
542.80	383.85
542.97	463.43
543.14	433.00
543.31	407.25
543.48	395.55
543.64	411.93
543.81	386.19
543.98	404.91
544.15	400.23
544.32	440.02
544.48	475.13
544.65	421.30
544.82	341.72
544.99	416.62
545.16	414.27
545.32	407.25
545.49	390.87
545.66	435.34
545.83	423.64
546.00	362.78
546.16	390.87
546.33	390.87
546.50	447.04
546.67	491.51
546.83	425.98
547.00	414.27
547.17	416.62
547.34	395.55
547.50	390.87
547.67	437.68
547.84	437.68
548.00	440.02
548.17	433.00
548.34	372.15
548.51	397.89
548.67	390.87
548.84	449.38
549.01	505.56
549.18	421.30
549.34	414.27
549.51	468.11
549.68	435.34
549.84	379.17
550.01	458.74
550.18	442.36
550.34	365.12
550.51	484.49
550.68	470.45
550.84	393.21
551.01	505.56
551.18	381.51
551.34	458.74
551.51	440.02
551.68	465.77
551.84	435.34
552.01	414.27
552.18	411.93
552.34	379.17
552.51	440.02
552.68	425.98
552.84	421.30
553.01	402.57
553.18	381.51
553.34	414.27
553.51	379.17
553.67	327.68
553.84	404.91
554.01	468.11
554.17	390.87
554.34	447.04
554.51	390.87
554.67	414.27
554.84	451.72
555.00	334.70
555.17	397.89
555.33	416.62
555.50	402.57
555.67	409.59
555.83	428.32
556.00	451.72
556.16	486.83
556.33	435.34
556.50	456.40
556.66	479.81
556.83	388.53
556.99	388.53
557.16	376.83
557.32	386.19
557.49	440.02
557.65	461.09
557.82	348.74
557.98	440.02
558.15	482.15
558.32	437.68
558.48	517.26
558.65	402.57
558.81	454.06
558.98	395.55
559.14	433.00
559.31	472.79
559.47	433.00
559.64	306.61
559.80	433.00
559.97	383.85
560.13	348.74
560.30	411.93
560.46	397.89
560.63	390.87
560.79	482.15
560.96	390.87
561.12	402.57
561.29	374.49
561.45	409.59
561.61	393.21
561.78	447.04
561.94	451.72
562.11	423.64
562.27	414.27
562.44	374.49
562.60	451.72
562.77	437.68
562.93	500.87
563.10	423.64
563.26	440.02
563.42	435.34
563.59	346.40
563.75	437.68
563.92	468.11
564.08	440.02
564.24	465.77
564.41	512.58
564.57	390.87
564.74	435.34
564.90	372.15
565.07	353.42
565.23	411.93
565.39	425.98
565.56	444.70
565.72	409.59
565.88	505.56
566.05	507.90
566.21	435.34
566.38	440.02
566.54	465.77
566.70	437.68
566.87	442.36
567.03	442.36
567.19	465.77
567.36	418.96
567.52	458.74
567.68	409.59
567.85	433.00
568.01	465.77
568.17	404.91
568.34	442.36
568.50	397.89
568.66	430.66
568.83	475.13
568.99	367.46
569.15	444.70
569.32	435.34
569.48	397.89
569.64	414.27
569.81	430.66
569.97	425.98
570.13	514.92
570.30	447.04
570.46	425.98
570.62	454.06
570.78	486.83
570.95	301.93
571.11	454.06
571.27	449.38
571.43	402.57
571.60	465.77
571.76	458.74
571.92	388.53
572.09	465.77
572.25	456.40
572.41	411.93
572.57	386.19
572.74	416.62
572.90	449.38
573.06	388.53
573.22	395.55
573.38	437.68
573.55	416.62
573.71	428.32
573.87	404.91
574.03	458.74
574.20	463.43
574.36	351.08
574.52	451.72
574.68	454.06
574.84	404.91
575.01	402.57
575.17	416.62
575.33	402.57
575.49	400.23
575.65	475.13
575.82	435.34
575.98	440.02
576.14	407.25
576.30	362.78
576.46	395.55
576.62	383.85
576.79	447.04
576.95	500.87
577.11	447.04
577.27	390.87
577.43	393.21
577.59	472.79
577.75	447.04
577.92	449.38
578.08	475.13
578.24	386.19
578.40	444.70
578.56	411.93
578.72	388.53
578.88	372.15
579.04	416.62
579.21	484.49
579.37	468.11
579.53	402.57
579.69	423.64
579.85	411.93
580.01	451.72
580.17	477.47
580.33	409.59
580.49	372.15
580.65	421.30
580.82	421.30
580.98	447.04
581.14	425.98
581.30	442.36
581.46	465.77
581.62	463.43
581.78	440.02
581.94	447.04
582.10	365.12
582.26	418.96
582.42	395.55
582.58	418.96
582.74	414.27
582.90	433.00
583.06	395.55
583.22	341.72
583.38	383.85
583.54	355.76
583.70	470.45
583.86	411.93
584.02	381.51
584.18	463.43
584.34	458.74
584.50	367.46
584.66	428.32
584.82	414.27
584.98	372.15
585.14	416.62
585.30	496.19
585.46	454.06
585.62	358.10
585.78	442.36
585.94	449.38
586.10	440.02
586.26	393.21
586.42	383.85
586.58	465.77
586.74	386.19
586.90	500.87
587.06	498.53
587.22	414.27
587.38	383.85
587.54	386.19
587.70	418.96
587.86	416.62
588.02	346.40
588.18	444.70
588.34	468.11
588.49	358.10
588.65	402.57
588.81	479.81
588.97	404.91
589.13	416.62
589.29	463.43
589.45	449.38
589.61	362.78
589.77	379.17
589.93	430.66
590.08	395.55
590.24	489.17
590.40	437.68
590.56	458.74
590.72	411.93
590.88	430.66
591.04	365.12
591.20	402.57
591.35	411.93
591.51	393.21
591.67	470.45
591.83	430.66
591.99	454.06
592.15	414.27
592.31	442.36
592.46	360.44
592.62	440.02
592.78	402.57
592.94	344.06
593.10	381.51
593.26	395.55
593.41	407.25
593.57	430.66
593.73	372.15
593.89	442.36
594.05	367.46
594.20	425.98
594.36	425.98
594.52	381.51
594.68	388.53
594.84	463.43
594.99	407.25
595.15	491.51
595.31	449.38
595.47	386.19
595.62	409.59
595.78	458.74
595.94	421.30
596.10	383.85
596.25	407.25
596.41	449.38
596.57	521.94
596.73	449.38
596.88	411.93
597.04	386.19
597.20	390.87
597.36	433.00
597.51	397.89
597.67	369.80
597.83	418.96
597.99	468.11
598.14	465.77
598.30	456.40
598.46	397.89
598.61	428.32
598.77	447.04
598.93	411.93
599.09	369.80
599.24	411.93
599.40	444.70
599.56	388.53
599.71	472.79
599.87	404.91
600.03	407.25
600.18	397.89
600.34	449.38
600.50	447.04
600.65	344.06
600.81	428.32
600.97	393.21
601.12	430.66
601.28	451.72
601.44	341.72
601.59	409.59
601.75	362.78
601.91	512.58
602.06	430.66
602.22	442.36
602.37	404.91
602.53	346.40
602.69	416.62
602.84	395.55
603.00	486.83
603.16	444.70
603.31	404.91
603.47	411.93
603.62	437.68
603.78	468.11
603.94	407.25
604.09	447.04
604.25	390.87
604.40	444.70
604.56	411.93
604.71	449.38
604.87	372.15
605.03	404.91
605.18	449.38
605.34	388.53
605.49	390.87
605.65	463.43
605.80	379.17
605.96	397.89
606.12	400.23
606.27	468.11
606.43	524.28
606.58	393.21
606.74	418.96
606.89	383.85
607.05	383.85
607.20	411.93
607.36	440.02
607.51	421.30
607.67	397.89
607.82	538.32
607.98	393.21
608.13	411.93
608.29	444.70
608.44	409.59
608.60	418.96
608.75	433.00
608.91	390.87
609.06	479.81
609.22	454.06
609.37	402.57
609.53	440.02
609.68	456.40
609.84	435.34
609.99	470.45
610.15	367.46
