SpectraSuite Data File
++++++++++++++++++++++++++++++++++++
Date: Fri Oct 25 12:10:24 EDT 2013
User: price-jones
Dark Spectrum Present: No
Reference Spectrum Present: No
Number of Sampled Component Spectra: 1
Spectrometers: USB2+H05261
Integration Time (usec): 100000 (USB2+H05261)
Spectra Averaged: 1 (USB2+H05261)
Boxcar Smoothing: 0 (USB2+H05261)
Correct for Electrical Dark: No (USB2+H05261)
Strobe/Lamp Enabled: No (USB2+H05261)
Correct for Detector Non-linearity: No (USB2+H05261)
Correct for Stray Light: No (USB2+H05261)
Number of Pixels in Processed Spectrum: 2048
>>>>>Begin Processed Spectral Data<<<<<
365.73	327.68
365.92	327.68
366.12	327.68
366.32	280.86
366.52	231.71
366.72	264.48
366.91	220.01
367.11	222.35
367.31	210.65
367.51	248.10
367.70	194.26
367.90	227.03
368.10	224.69
368.30	250.44
368.49	234.05
368.69	273.84
368.89	250.44
369.09	290.23
369.28	243.42
369.48	311.29
369.68	313.63
369.87	264.48
370.07	330.02
370.27	369.80
370.47	360.44
370.66	252.78
370.86	297.25
371.06	362.78
371.25	381.51
371.45	386.19
371.65	393.21
371.84	269.16
372.04	327.68
372.24	397.89
372.44	470.45
372.63	383.85
372.83	395.55
373.03	348.74
373.22	451.72
373.42	353.42
373.62	430.66
373.81	374.49
374.01	416.62
374.21	475.13
374.40	355.76
374.60	447.04
374.79	465.77
374.99	374.49
375.19	477.47
375.38	442.36
375.58	379.17
375.78	390.87
375.97	423.64
376.17	447.04
376.37	409.59
376.56	409.59
376.76	383.85
376.95	407.25
377.15	409.59
377.35	397.89
377.54	465.77
377.74	365.12
377.93	402.57
378.13	411.93
378.33	447.04
378.52	337.04
378.72	463.43
378.91	393.21
379.11	465.77
379.31	358.10
379.50	400.23
379.70	376.83
379.89	430.66
380.09	407.25
380.28	404.91
380.48	372.15
380.68	374.49
380.87	393.21
381.07	430.66
381.26	353.42
381.46	430.66
381.65	362.78
381.85	409.59
382.04	383.85
382.24	447.04
382.43	393.21
382.63	299.59
382.83	395.55
383.02	367.46
383.22	386.19
383.41	451.72
383.61	414.27
383.80	416.62
384.00	423.64
384.19	388.53
384.39	393.21
384.58	461.09
384.78	367.46
384.97	409.59
385.17	355.76
385.36	395.55
385.56	395.55
385.75	381.51
385.95	425.98
386.14	451.72
386.34	311.29
386.53	433.00
386.72	376.83
386.92	374.49
387.11	418.96
387.31	351.08
387.50	376.83
387.70	379.17
387.89	362.78
388.09	327.68
388.28	341.72
388.48	386.19
388.67	440.02
388.86	351.08
389.06	339.38
389.25	386.19
389.45	393.21
389.64	414.27
389.84	395.55
390.03	461.09
390.22	465.77
390.42	393.21
390.61	397.89
390.81	407.25
391.00	451.72
391.19	425.98
391.39	383.85
391.58	454.06
391.78	425.98
391.97	428.32
392.16	334.70
392.36	505.56
392.55	486.83
392.75	365.12
392.94	390.87
393.13	411.93
393.33	397.89
393.52	444.70
393.71	416.62
393.91	360.44
394.10	362.78
394.29	348.74
394.49	397.89
394.68	369.80
394.88	390.87
395.07	395.55
395.26	425.98
395.46	332.36
395.65	409.59
395.84	414.27
396.04	454.06
396.23	461.09
396.42	404.91
396.62	418.96
396.81	454.06
397.00	411.93
397.19	421.30
397.39	414.27
397.58	400.23
397.77	362.78
397.97	334.70
398.16	337.04
398.35	369.80
398.55	416.62
398.74	372.15
398.93	477.47
399.12	416.62
399.32	358.10
399.51	421.30
399.70	449.38
399.90	402.57
400.09	440.02
400.28	341.72
400.47	393.21
400.67	402.57
400.86	402.57
401.05	440.02
401.24	456.40
401.44	411.93
401.63	388.53
401.82	482.15
402.01	433.00
402.21	465.77
402.40	423.64
402.59	390.87
402.78	372.15
402.97	411.93
403.17	348.74
403.36	421.30
403.55	388.53
403.74	358.10
403.93	341.72
404.13	418.96
404.32	411.93
404.51	433.00
404.70	407.25
404.89	407.25
405.09	414.27
405.28	379.17
405.47	337.04
405.66	404.91
405.85	456.40
406.05	386.19
406.24	386.19
406.43	397.89
406.62	435.34
406.81	496.19
407.00	433.00
407.20	351.08
407.39	374.49
407.58	341.72
407.77	463.43
407.96	430.66
408.15	372.15
408.34	386.19
408.54	458.74
408.73	341.72
408.92	465.77
409.11	454.06
409.30	393.21
409.49	346.40
409.68	433.00
409.87	395.55
410.07	409.59
410.26	449.38
410.45	330.02
410.64	433.00
410.83	407.25
411.02	421.30
411.21	381.51
411.40	411.93
411.59	421.30
411.78	351.08
411.98	402.57
412.17	332.36
412.36	397.89
412.55	395.55
412.74	409.59
412.93	433.00
413.12	456.40
413.31	425.98
413.50	386.19
413.69	358.10
413.88	486.83
414.07	416.62
414.26	393.21
414.45	320.65
414.64	440.02
414.83	407.25
415.02	395.55
415.22	416.62
415.41	442.36
415.60	372.15
415.79	423.64
415.98	514.92
416.17	435.34
416.36	428.32
416.55	411.93
416.74	428.32
416.93	400.23
417.12	393.21
417.31	390.87
417.50	353.42
417.69	461.09
417.88	365.12
418.07	407.25
418.26	341.72
418.45	360.44
418.64	416.62
418.83	388.53
419.02	428.32
419.21	428.32
419.39	367.46
419.58	414.27
419.77	421.30
419.96	421.30
420.15	458.74
420.34	421.30
420.53	449.38
420.72	482.15
420.91	390.87
421.10	400.23
421.29	379.17
421.48	454.06
421.67	442.36
421.86	374.49
422.05	365.12
422.24	386.19
422.43	390.87
422.61	388.53
422.80	409.59
422.99	428.32
423.18	404.91
423.37	449.38
423.56	463.43
423.75	428.32
423.94	367.46
424.13	468.11
424.32	423.64
424.50	433.00
424.69	383.85
424.88	407.25
425.07	339.38
425.26	388.53
425.45	325.33
425.64	386.19
425.83	430.66
426.01	411.93
426.20	428.32
426.39	458.74
426.58	428.32
426.77	454.06
426.96	461.09
427.15	416.62
427.33	433.00
427.52	341.72
427.71	304.27
427.90	465.77
428.09	414.27
428.28	416.62
428.46	388.53
428.65	407.25
428.84	386.19
429.03	458.74
429.22	409.59
429.40	315.97
429.59	451.72
429.78	449.38
429.97	449.38
430.16	461.09
430.34	416.62
430.53	447.04
430.72	472.79
430.91	435.34
431.10	400.23
431.28	440.02
431.47	365.12
431.66	414.27
431.85	358.10
432.03	407.25
432.22	484.49
432.41	402.57
432.60	397.89
432.79	383.85
432.97	416.62
433.16	365.12
433.35	358.10
433.54	386.19
433.72	344.06
433.91	388.53
434.10	355.76
434.28	404.91
434.47	355.76
434.66	388.53
434.85	404.91
435.03	423.64
435.22	423.64
435.41	374.49
435.59	475.13
435.78	320.65
435.97	362.78
436.16	421.30
436.34	337.04
436.53	397.89
436.72	411.93
436.90	456.40
437.09	379.17
437.28	435.34
437.46	395.55
437.65	482.15
437.84	383.85
438.02	393.21
438.21	521.94
438.40	418.96
438.58	383.85
438.77	428.32
438.96	374.49
439.14	421.30
439.33	404.91
439.52	517.26
439.70	409.59
439.89	425.98
440.08	376.83
440.26	390.87
440.45	425.98
440.63	402.57
440.82	327.68
441.01	390.87
441.19	442.36
441.38	376.83
441.57	414.27
441.75	393.21
441.94	454.06
442.12	386.19
442.31	470.45
442.50	367.46
442.68	404.91
442.87	339.38
443.05	433.00
443.24	353.42
443.43	451.72
443.61	463.43
443.80	428.32
443.98	423.64
444.17	421.30
444.35	407.25
444.54	374.49
444.73	418.96
444.91	475.13
445.10	397.89
445.28	411.93
445.47	430.66
445.65	451.72
445.84	397.89
446.02	447.04
446.21	376.83
446.39	421.30
446.58	348.74
446.77	355.76
446.95	463.43
447.14	416.62
447.32	421.30
447.51	383.85
447.69	433.00
447.88	376.83
448.06	472.79
448.25	388.53
448.43	418.96
448.62	353.42
448.80	411.93
448.99	433.00
449.17	409.59
449.36	353.42
449.54	456.40
449.73	449.38
449.91	470.45
450.10	367.46
450.28	486.83
450.46	433.00
450.65	437.68
450.83	451.72
451.02	400.23
451.20	456.40
451.39	393.21
451.57	376.83
451.76	414.27
451.94	348.74
452.13	456.40
452.31	433.00
452.49	369.80
452.68	444.70
452.86	344.06
453.05	477.47
453.23	482.15
453.42	411.93
453.60	332.36
453.78	449.38
453.97	379.17
454.15	486.83
454.34	369.80
454.52	381.51
454.70	433.00
454.89	388.53
455.07	416.62
455.26	344.06
455.44	402.57
455.62	379.17
455.81	411.93
455.99	437.68
456.17	414.27
456.36	418.96
456.54	374.49
456.73	397.89
456.91	411.93
457.09	416.62
457.28	423.64
457.46	423.64
457.64	414.27
457.83	416.62
458.01	313.63
458.19	402.57
458.38	362.78
458.56	423.64
458.74	390.87
458.93	428.32
459.11	404.91
459.29	407.25
459.48	383.85
459.66	404.91
459.84	437.68
460.03	437.68
460.21	390.87
460.39	407.25
460.57	407.25
460.76	421.30
460.94	397.89
461.12	484.49
461.31	440.02
461.49	435.34
461.67	430.66
461.85	353.42
462.04	400.23
462.22	685.78
462.40	416.62
462.59	386.19
462.77	362.78
462.95	421.30
463.13	369.80
463.32	440.02
463.50	411.93
463.68	362.78
463.86	468.11
464.05	456.40
464.23	496.19
464.41	428.32
464.59	381.51
464.78	325.33
464.96	411.93
465.14	442.36
465.32	407.25
465.50	461.09
465.69	442.36
465.87	397.89
466.05	397.89
466.23	351.08
466.41	346.40
466.60	435.34
466.78	388.53
466.96	407.25
467.14	440.02
467.32	477.47
467.51	418.96
467.69	425.98
467.87	404.91
468.05	454.06
468.23	433.00
468.41	416.62
468.60	440.02
468.78	423.64
468.96	442.36
469.14	409.59
469.32	374.49
469.50	423.64
469.69	372.15
469.87	423.64
470.05	374.49
470.23	418.96
470.41	428.32
470.59	425.98
470.77	379.17
470.95	435.34
471.14	423.64
471.32	428.32
471.50	449.38
471.68	416.62
471.86	409.59
472.04	411.93
472.22	433.00
472.40	397.89
472.58	435.34
472.77	430.66
472.95	440.02
473.13	425.98
473.31	524.28
473.49	402.57
473.67	472.79
473.85	496.19
474.03	395.55
474.21	425.98
474.39	360.44
474.57	451.72
474.75	435.34
474.93	374.49
475.12	409.59
475.30	390.87
475.48	409.59
475.66	461.09
475.84	435.34
476.02	423.64
476.20	479.81
476.38	454.06
476.56	468.11
476.74	367.46
476.92	404.91
477.10	393.21
477.28	437.68
477.46	444.70
477.64	437.68
477.82	442.36
478.00	421.30
478.18	440.02
478.36	416.62
478.54	362.78
478.72	461.09
478.90	454.06
479.08	409.59
479.26	472.79
479.44	440.02
479.62	327.68
479.80	430.66
479.98	397.89
480.16	393.21
480.34	524.28
480.52	397.89
480.70	433.00
480.88	442.36
481.06	407.25
481.24	353.42
481.41	463.43
481.59	444.70
481.77	435.34
481.95	383.85
482.13	416.62
482.31	390.87
482.49	416.62
482.67	372.15
482.85	418.96
483.03	400.23
483.21	400.23
483.39	332.36
483.57	463.43
483.74	440.02
483.92	425.98
484.10	376.83
484.28	440.02
484.46	433.00
484.64	369.80
484.82	430.66
485.00	418.96
485.18	358.10
485.35	489.17
485.53	442.36
485.71	416.62
485.89	369.80
486.07	411.93
486.25	374.49
486.43	411.93
486.61	447.04
486.78	409.59
486.96	409.59
487.14	344.06
487.32	444.70
487.50	421.30
487.68	395.55
487.85	425.98
488.03	458.74
488.21	468.11
488.39	458.74
488.57	468.11
488.75	414.27
488.92	491.51
489.10	468.11
489.28	409.59
489.46	374.49
489.64	360.44
489.81	362.78
489.99	407.25
490.17	402.57
490.35	512.58
490.53	397.89
490.70	433.00
490.88	449.38
491.06	458.74
491.24	369.80
491.41	444.70
491.59	416.62
491.77	386.19
491.95	437.68
492.13	447.04
492.30	423.64
492.48	430.66
492.66	376.83
492.84	416.62
493.01	381.51
493.19	337.04
493.37	425.98
493.54	475.13
493.72	376.83
493.90	390.87
494.08	390.87
494.25	449.38
494.43	463.43
494.61	393.21
494.79	411.93
494.96	341.72
495.14	374.49
495.32	369.80
495.49	433.00
495.67	372.15
495.85	442.36
496.02	355.76
496.20	400.23
496.38	400.23
496.55	456.40
496.73	402.57
496.91	444.70
497.09	395.55
497.26	374.49
497.44	437.68
497.62	397.89
497.79	491.51
497.97	440.02
498.14	433.00
498.32	468.11
498.50	409.59
498.67	341.72
498.85	402.57
499.03	409.59
499.20	383.85
499.38	341.72
499.56	484.49
499.73	416.62
499.91	437.68
500.08	440.02
500.26	372.15
500.44	386.19
500.61	449.38
500.79	411.93
500.97	411.93
501.14	500.87
501.32	362.78
501.49	393.21
501.67	507.90
501.84	407.25
502.02	395.55
502.20	416.62
502.37	468.11
502.55	407.25
502.72	341.72
502.90	393.21
503.07	388.53
503.25	404.91
503.43	425.98
503.60	425.98
503.78	416.62
503.95	512.58
504.13	409.59
504.30	416.62
504.48	409.59
504.65	454.06
504.83	376.83
505.01	374.49
505.18	421.30
505.36	425.98
505.53	393.21
505.71	400.23
505.88	369.80
506.06	395.55
506.23	411.93
506.41	444.70
506.58	400.23
506.76	425.98
506.93	367.46
507.11	355.76
507.28	423.64
507.46	416.62
507.63	390.87
507.81	355.76
507.98	463.43
508.16	402.57
508.33	320.65
508.50	425.98
508.68	376.83
508.85	440.02
509.03	400.23
509.20	444.70
509.38	388.53
509.55	489.17
509.73	404.91
509.90	482.15
510.08	395.55
510.25	472.79
510.42	411.93
510.60	404.91
510.77	475.13
510.95	414.27
511.12	362.78
511.30	379.17
511.47	411.93
511.64	454.06
511.82	395.55
511.99	411.93
512.17	440.02
512.34	390.87
512.51	386.19
512.69	372.15
512.86	440.02
513.04	386.19
513.21	402.57
513.38	416.62
513.56	428.32
513.73	365.12
513.90	376.83
514.08	465.77
514.25	409.59
514.43	470.45
514.60	393.21
514.77	379.17
514.95	395.55
515.12	322.99
515.29	348.74
515.47	360.44
515.64	386.19
515.81	362.78
515.99	442.36
516.16	430.66
516.33	409.59
516.51	449.38
516.68	461.09
516.85	465.77
517.03	334.70
517.20	430.66
517.37	411.93
517.54	418.96
517.72	404.91
517.89	428.32
518.06	418.96
518.24	500.87
518.41	454.06
518.58	428.32
518.75	344.06
518.93	404.91
519.10	435.34
519.27	372.15
519.45	440.02
519.62	341.72
519.79	383.85
519.96	421.30
520.14	463.43
520.31	456.40
520.48	456.40
520.65	447.04
520.83	430.66
521.00	435.34
521.17	440.02
521.34	440.02
521.52	454.06
521.69	376.83
521.86	414.27
522.03	449.38
522.20	479.81
522.38	486.83
522.55	411.93
522.72	390.87
522.89	353.42
523.07	447.04
523.24	397.89
523.41	390.87
523.58	430.66
523.75	418.96
523.92	411.93
524.10	454.06
524.27	472.79
524.44	397.89
524.61	423.64
524.78	458.74
524.96	454.06
525.13	486.83
525.30	500.87
525.47	423.64
525.64	430.66
525.81	484.49
525.98	400.23
526.16	388.53
526.33	425.98
526.50	365.12
526.67	414.27
526.84	404.91
527.01	367.46
527.18	472.79
527.36	449.38
527.53	430.66
527.70	433.00
527.87	409.59
528.04	430.66
528.21	449.38
528.38	423.64
528.55	353.42
528.72	404.91
528.89	423.64
529.07	395.55
529.24	479.81
529.41	444.70
529.58	425.98
529.75	397.89
529.92	440.02
530.09	454.06
530.26	505.56
530.43	491.51
530.60	372.15
530.77	327.68
530.94	404.91
531.11	468.11
531.28	428.32
531.46	395.55
531.63	430.66
531.80	411.93
531.97	393.21
532.14	376.83
532.31	386.19
532.48	428.32
532.65	395.55
532.82	360.44
532.99	358.10
533.16	442.36
533.33	423.64
533.50	428.32
533.67	390.87
533.84	404.91
534.01	442.36
534.18	393.21
534.35	470.45
534.52	395.55
534.69	428.32
534.86	346.40
535.03	388.53
535.20	451.72
535.37	402.57
535.54	409.59
535.71	451.72
535.88	447.04
536.05	430.66
536.22	428.32
536.38	425.98
536.55	440.02
536.72	440.02
536.89	388.53
537.06	381.51
537.23	362.78
537.40	411.93
537.57	437.68
537.74	411.93
537.91	393.21
538.08	458.74
538.25	433.00
538.42	526.62
538.59	433.00
538.75	418.96
538.92	409.59
539.09	435.34
539.26	447.04
539.43	430.66
539.60	425.98
539.77	437.68
539.94	454.06
540.11	463.43
540.28	458.74
540.44	507.90
540.61	388.53
540.78	358.10
540.95	416.62
541.12	397.89
541.29	397.89
541.46	367.46
541.62	367.46
541.79	400.23
541.96	379.17
542.13	393.21
542.30	388.53
542.47	411.93
542.63	367.46
542.80	435.34
542.97	416.62
543.14	353.42
543.31	395.55
543.48	386.19
543.64	430.66
543.81	416.62
543.98	411.93
544.15	386.19
544.32	341.72
544.48	449.38
544.65	367.46
544.82	444.70
544.99	433.00
545.16	454.06
545.32	383.85
545.49	447.04
545.66	360.44
545.83	379.17
546.00	351.08
546.16	437.68
546.33	304.27
546.50	430.66
546.67	407.25
546.83	451.72
547.00	430.66
547.17	402.57
547.34	397.89
547.50	437.68
547.67	430.66
547.84	411.93
548.00	444.70
548.17	454.06
548.34	365.12
548.51	428.32
548.67	440.02
548.84	393.21
549.01	428.32
549.18	402.57
549.34	362.78
549.51	458.74
549.68	430.66
549.84	393.21
550.01	411.93
550.18	482.15
550.34	510.24
550.51	383.85
550.68	381.51
550.84	339.38
551.01	447.04
551.18	423.64
551.34	402.57
551.51	390.87
551.68	418.96
551.84	416.62
552.01	362.78
552.18	404.91
552.34	393.21
552.51	421.30
552.68	421.30
552.84	351.08
553.01	451.72
553.18	437.68
553.34	393.21
553.51	409.59
553.67	477.47
553.84	402.57
554.01	477.47
554.17	470.45
554.34	440.02
554.51	430.66
554.67	390.87
554.84	435.34
555.00	437.68
555.17	418.96
555.33	374.49
555.50	430.66
555.67	433.00
555.83	400.23
556.00	416.62
556.16	526.62
556.33	433.00
556.50	425.98
556.66	393.21
556.83	411.93
556.99	409.59
557.16	311.29
557.32	362.78
557.49	397.89
557.65	435.34
557.82	376.83
557.98	397.89
558.15	397.89
558.32	411.93
558.48	386.19
558.65	444.70
558.81	440.02
558.98	404.91
559.14	409.59
559.31	428.32
559.47	393.21
559.64	404.91
559.80	411.93
559.97	454.06
560.13	416.62
560.30	348.74
560.46	327.68
560.63	433.00
560.79	437.68
560.96	468.11
561.12	421.30
561.29	451.72
561.45	395.55
561.61	402.57
561.78	418.96
561.94	440.02
562.11	407.25
562.27	421.30
562.44	404.91
562.60	414.27
562.77	461.09
562.93	486.83
563.10	409.59
563.26	463.43
563.42	425.98
563.59	461.09
563.75	444.70
563.92	414.27
564.08	430.66
564.24	479.81
564.41	421.30
564.57	393.21
564.74	407.25
564.90	435.34
565.07	393.21
565.23	503.22
565.39	407.25
565.56	390.87
565.72	372.15
565.88	390.87
566.05	397.89
566.21	369.80
566.38	477.47
566.54	435.34
566.70	425.98
566.87	430.66
567.03	365.12
567.19	407.25
567.36	472.79
567.52	433.00
567.68	425.98
567.85	404.91
568.01	430.66
568.17	425.98
568.34	451.72
568.50	397.89
568.66	372.15
568.83	425.98
568.99	383.85
569.15	390.87
569.32	444.70
569.48	393.21
569.64	433.00
569.81	425.98
569.97	400.23
570.13	388.53
570.30	498.53
570.46	374.49
570.62	376.83
570.78	409.59
570.95	365.12
571.11	400.23
571.27	388.53
571.43	379.17
571.60	376.83
571.76	351.08
571.92	449.38
572.09	372.15
572.25	423.64
572.41	379.17
572.57	423.64
572.74	463.43
572.90	395.55
573.06	458.74
573.22	442.36
573.38	465.77
573.55	449.38
573.71	472.79
573.87	407.25
574.03	404.91
574.20	468.11
574.36	505.56
574.52	440.02
574.68	442.36
574.84	440.02
575.01	416.62
575.17	418.96
575.33	486.83
575.49	376.83
575.65	447.04
575.82	482.15
575.98	496.19
576.14	402.57
576.30	414.27
576.46	381.51
576.62	409.59
576.79	383.85
576.95	381.51
577.11	372.15
577.27	472.79
577.43	365.12
577.59	433.00
577.75	428.32
577.92	386.19
578.08	402.57
578.24	390.87
578.40	475.13
578.56	358.10
578.72	390.87
578.88	358.10
579.04	383.85
579.21	475.13
579.37	407.25
579.53	433.00
579.69	369.80
579.85	409.59
580.01	402.57
580.17	362.78
580.33	451.72
580.49	411.93
580.65	388.53
580.82	320.65
580.98	437.68
581.14	423.64
581.30	510.24
581.46	400.23
581.62	493.85
581.78	437.68
581.94	472.79
582.10	383.85
582.26	461.09
582.42	393.21
582.58	416.62
582.74	285.55
582.90	470.45
583.06	409.59
583.22	440.02
583.38	414.27
583.54	409.59
583.70	496.19
583.86	433.00
584.02	372.15
584.18	482.15
584.34	428.32
584.50	482.15
584.66	379.17
584.82	407.25
584.98	341.72
585.14	428.32
585.30	444.70
585.46	444.70
585.62	414.27
585.78	395.55
585.94	458.74
586.10	369.80
586.26	386.19
586.42	442.36
586.58	414.27
586.74	444.70
586.90	435.34
587.06	437.68
587.22	411.93
587.38	416.62
587.54	447.04
587.70	435.34
587.86	388.53
588.02	421.30
588.18	400.23
588.34	463.43
588.49	416.62
588.65	376.83
588.81	531.30
588.97	381.51
589.13	421.30
589.29	437.68
589.45	390.87
589.61	414.27
589.77	486.83
589.93	397.89
590.08	425.98
590.24	411.93
590.40	451.72
590.56	418.96
590.72	449.38
590.88	376.83
591.04	393.21
591.20	355.76
591.35	421.30
591.51	433.00
591.67	458.74
591.83	397.89
591.99	482.15
592.15	430.66
592.31	395.55
592.46	461.09
592.62	409.59
592.78	383.85
592.94	404.91
593.10	381.51
593.26	402.57
593.41	425.98
593.57	388.53
593.73	465.77
593.89	486.83
594.05	437.68
594.20	470.45
594.36	470.45
594.52	365.12
594.68	421.30
594.84	475.13
594.99	463.43
595.15	437.68
595.31	437.68
595.47	493.85
595.62	374.49
595.78	365.12
595.94	407.25
596.10	440.02
596.25	484.49
596.41	402.57
596.57	376.83
596.73	330.02
596.88	421.30
597.04	386.19
597.20	313.63
597.36	402.57
597.51	463.43
597.67	500.87
597.83	433.00
597.99	430.66
598.14	437.68
598.30	433.00
598.46	388.53
598.61	383.85
598.77	440.02
598.93	390.87
599.09	353.42
599.24	330.02
599.40	430.66
599.56	482.15
599.71	404.91
599.87	416.62
600.03	404.91
600.18	449.38
600.34	421.30
600.50	376.83
600.65	376.83
600.81	337.04
600.97	383.85
601.12	411.93
601.28	496.19
601.44	383.85
601.59	360.44
601.75	428.32
601.91	365.12
602.06	416.62
602.22	468.11
602.37	440.02
602.53	482.15
602.69	414.27
602.84	440.02
603.00	393.21
603.16	369.80
603.31	465.77
603.47	433.00
603.62	425.98
603.78	400.23
603.94	411.93
604.09	475.13
604.25	435.34
604.40	416.62
604.56	437.68
604.71	367.46
604.87	433.00
605.03	465.77
605.18	381.51
605.34	421.30
605.49	430.66
605.65	454.06
605.80	444.70
605.96	465.77
606.12	407.25
606.27	442.36
606.43	437.68
606.58	351.08
606.74	416.62
606.89	451.72
607.05	428.32
607.20	346.40
607.36	477.47
607.51	397.89
607.67	414.27
607.82	491.51
607.98	421.30
608.13	374.49
608.29	409.59
608.44	454.06
608.60	440.02
608.75	475.13
608.91	425.98
609.06	421.30
609.22	514.92
609.37	414.27
609.53	388.53
609.68	423.64
609.84	397.89
609.99	423.64
610.15	397.89
