SpectraSuite Data File
++++++++++++++++++++++++++++++++++++
Date: Fri Oct 25 12:11:44 EDT 2013
User: price-jones
Dark Spectrum Present: No
Reference Spectrum Present: No
Number of Sampled Component Spectra: 1
Spectrometers: USB2+H05261
Integration Time (usec): 100000 (USB2+H05261)
Spectra Averaged: 1 (USB2+H05261)
Boxcar Smoothing: 0 (USB2+H05261)
Correct for Electrical Dark: No (USB2+H05261)
Strobe/Lamp Enabled: No (USB2+H05261)
Correct for Detector Non-linearity: No (USB2+H05261)
Correct for Stray Light: No (USB2+H05261)
Number of Pixels in Processed Spectrum: 2048
>>>>>Begin Processed Spectral Data<<<<<
365.73	348.74
365.92	348.74
366.12	348.74
366.32	276.18
366.52	217.67
366.72	210.65
366.91	224.69
367.11	243.42
367.31	224.69
367.51	231.71
367.70	229.37
367.90	297.25
368.10	194.26
368.30	229.37
368.49	229.37
368.69	271.50
368.89	266.82
369.09	241.08
369.28	278.52
369.48	236.39
369.68	327.68
369.87	315.97
370.07	306.61
370.27	315.97
370.47	294.91
370.66	365.12
370.86	388.53
371.06	379.17
371.25	428.32
371.45	341.72
371.65	334.70
371.84	400.23
372.04	425.98
372.24	407.25
372.44	362.78
372.63	407.25
372.83	397.89
373.03	376.83
373.22	379.17
373.42	454.06
373.62	428.32
373.81	435.34
374.01	397.89
374.21	404.91
374.40	390.87
374.60	425.98
374.79	367.46
374.99	437.68
375.19	444.70
375.38	475.13
375.58	484.49
375.78	402.57
375.97	341.72
376.17	456.40
376.37	411.93
376.56	411.93
376.76	346.40
376.95	400.23
377.15	456.40
377.35	449.38
377.54	444.70
377.74	355.76
377.93	393.21
378.13	437.68
378.33	449.38
378.52	388.53
378.72	468.11
378.91	402.57
379.11	334.70
379.31	463.43
379.50	393.21
379.70	514.92
379.89	449.38
380.09	402.57
380.28	461.09
380.48	369.80
380.68	390.87
380.87	381.51
381.07	409.59
381.26	379.17
381.46	362.78
381.65	379.17
381.85	465.77
382.04	388.53
382.24	454.06
382.43	411.93
382.63	383.85
382.83	430.66
383.02	498.53
383.22	386.19
383.41	379.17
383.61	402.57
383.80	360.44
384.00	404.91
384.19	395.55
384.39	479.81
384.58	365.12
384.78	447.04
384.97	435.34
385.17	428.32
385.36	348.74
385.56	428.32
385.75	360.44
385.95	393.21
386.14	470.45
386.34	402.57
386.53	400.23
386.72	416.62
386.92	440.02
387.11	437.68
387.31	402.57
387.50	325.33
387.70	365.12
387.89	409.59
388.09	341.72
388.28	435.34
388.48	444.70
388.67	468.11
388.86	397.89
389.06	449.38
389.25	444.70
389.45	414.27
389.64	351.08
389.84	388.53
390.03	374.49
390.22	407.25
390.42	404.91
390.61	393.21
390.81	395.55
391.00	360.44
391.19	355.76
391.39	428.32
391.58	334.70
391.78	397.89
391.97	409.59
392.16	372.15
392.36	437.68
392.55	470.45
392.75	475.13
392.94	337.04
393.13	416.62
393.33	400.23
393.52	381.51
393.71	423.64
393.91	428.32
394.10	404.91
394.29	360.44
394.49	421.30
394.68	465.77
394.88	454.06
395.07	440.02
395.26	388.53
395.46	447.04
395.65	463.43
395.84	351.08
396.04	425.98
396.23	402.57
396.42	374.49
396.62	369.80
396.81	414.27
397.00	395.55
397.19	395.55
397.39	337.04
397.58	505.56
397.77	421.30
397.97	447.04
398.16	440.02
398.35	442.36
398.55	428.32
398.74	388.53
398.93	465.77
399.12	355.76
399.32	442.36
399.51	465.77
399.70	388.53
399.90	407.25
400.09	393.21
400.28	383.85
400.47	383.85
400.67	449.38
400.86	440.02
401.05	437.68
401.24	449.38
401.44	472.79
401.63	421.30
401.82	409.59
402.01	411.93
402.21	440.02
402.40	407.25
402.59	437.68
402.78	433.00
402.97	404.91
403.17	358.10
403.36	437.68
403.55	428.32
403.74	428.32
403.93	348.74
404.13	451.72
404.32	346.40
404.51	369.80
404.70	433.00
404.89	395.55
405.09	425.98
405.28	339.38
405.47	341.72
405.66	397.89
405.85	397.89
406.05	421.30
406.24	388.53
406.43	409.59
406.62	421.30
406.81	430.66
407.00	449.38
407.20	451.72
407.39	353.42
407.58	388.53
407.77	418.96
407.96	433.00
408.15	409.59
408.34	421.30
408.54	491.51
408.73	376.83
408.92	423.64
409.11	348.74
409.30	430.66
409.49	442.36
409.68	313.63
409.87	381.51
410.07	355.76
410.26	433.00
410.45	458.74
410.64	407.25
410.83	472.79
411.02	344.06
411.21	447.04
411.40	418.96
411.59	365.12
411.78	393.21
411.98	486.83
412.17	337.04
412.36	440.02
412.55	416.62
412.74	404.91
412.93	395.55
413.12	409.59
413.31	458.74
413.50	425.98
413.69	376.83
413.88	461.09
414.07	383.85
414.26	388.53
414.45	367.46
414.64	414.27
414.83	374.49
415.02	362.78
415.22	454.06
415.41	365.12
415.60	442.36
415.79	369.80
415.98	365.12
416.17	393.21
416.36	479.81
416.55	430.66
416.74	477.47
416.93	407.25
417.12	365.12
417.31	388.53
417.50	437.68
417.69	358.10
417.88	425.98
418.07	320.65
418.26	397.89
418.45	486.83
418.64	461.09
418.83	409.59
419.02	388.53
419.21	414.27
419.39	397.89
419.58	444.70
419.77	409.59
419.96	458.74
420.15	376.83
420.34	414.27
420.53	374.49
420.72	376.83
420.91	390.87
421.10	395.55
421.29	393.21
421.48	475.13
421.67	482.15
421.86	465.77
422.05	437.68
422.24	402.57
422.43	397.89
422.61	425.98
422.80	414.27
422.99	463.43
423.18	416.62
423.37	395.55
423.56	402.57
423.75	411.93
423.94	388.53
424.13	444.70
424.32	416.62
424.50	463.43
424.69	407.25
424.88	409.59
425.07	435.34
425.26	402.57
425.45	404.91
425.64	397.89
425.83	360.44
426.01	397.89
426.20	416.62
426.39	435.34
426.58	418.96
426.77	423.64
426.96	372.15
427.15	435.34
427.33	402.57
427.52	437.68
427.71	407.25
427.90	435.34
428.09	386.19
428.28	442.36
428.46	358.10
428.65	447.04
428.84	390.87
429.03	454.06
429.22	435.34
429.40	428.32
429.59	395.55
429.78	440.02
429.97	433.00
430.16	393.21
430.34	383.85
430.53	367.46
430.72	418.96
430.91	465.77
431.10	383.85
431.28	477.47
431.47	449.38
431.66	421.30
431.85	435.34
432.03	376.83
432.22	404.91
432.41	351.08
432.60	433.00
432.79	367.46
432.97	393.21
433.16	404.91
433.35	456.40
433.54	414.27
433.72	461.09
433.91	407.25
434.10	376.83
434.28	404.91
434.47	379.17
434.66	423.64
434.85	337.04
435.03	390.87
435.22	449.38
435.41	433.00
435.59	514.92
435.78	444.70
435.97	393.21
436.16	430.66
436.34	461.09
436.53	418.96
436.72	484.49
436.90	409.59
437.09	507.90
437.28	421.30
437.46	482.15
437.65	376.83
437.84	433.00
438.02	379.17
438.21	430.66
438.40	442.36
438.58	376.83
438.77	365.12
438.96	400.23
439.14	425.98
439.33	353.42
439.52	400.23
439.70	433.00
439.89	428.32
440.08	294.91
440.26	472.79
440.45	346.40
440.63	355.76
440.82	393.21
441.01	414.27
441.19	390.87
441.38	402.57
441.57	400.23
441.75	430.66
441.94	372.15
442.12	458.74
442.31	423.64
442.50	479.81
442.68	472.79
442.87	437.68
443.05	411.93
443.24	440.02
443.43	433.00
443.61	407.25
443.80	365.12
443.98	397.89
444.17	404.91
444.35	416.62
444.54	421.30
444.73	386.19
444.91	451.72
445.10	369.80
445.28	442.36
445.47	461.09
445.65	442.36
445.84	423.64
446.02	423.64
446.21	430.66
446.39	390.87
446.58	362.78
446.77	390.87
446.95	449.38
447.14	400.23
447.32	456.40
447.51	407.25
447.69	409.59
447.88	351.08
448.06	470.45
448.25	418.96
448.43	430.66
448.62	423.64
448.80	346.40
448.99	355.76
449.17	423.64
449.36	440.02
449.54	458.74
449.73	339.38
449.91	400.23
450.10	358.10
450.28	461.09
450.46	447.04
450.65	407.25
450.83	407.25
451.02	381.51
451.20	346.40
451.39	379.17
451.57	416.62
451.76	374.49
451.94	386.19
452.13	482.15
452.31	425.98
452.49	313.63
452.68	444.70
452.86	360.44
453.05	388.53
453.23	414.27
453.42	437.68
453.60	362.78
453.78	435.34
453.97	430.66
454.15	388.53
454.34	411.93
454.52	458.74
454.70	376.83
454.89	428.32
455.07	395.55
455.26	395.55
455.44	400.23
455.62	327.68
455.81	374.49
455.99	416.62
456.17	449.38
456.36	351.08
456.54	393.21
456.73	367.46
456.91	440.02
457.09	423.64
457.28	383.85
457.46	451.72
457.64	411.93
457.83	428.32
458.01	388.53
458.19	482.15
458.38	449.38
458.56	430.66
458.74	355.76
458.93	411.93
459.11	379.17
459.29	388.53
459.48	449.38
459.66	491.51
459.84	379.17
460.03	493.85
460.21	404.91
460.39	409.59
460.57	418.96
460.76	411.93
460.94	418.96
461.12	440.02
461.31	430.66
461.49	421.30
461.67	416.62
461.85	397.89
462.04	449.38
462.22	781.74
462.40	358.10
462.59	456.40
462.77	379.17
462.95	430.66
463.13	318.31
463.32	341.72
463.50	435.34
463.68	458.74
463.86	526.62
464.05	365.12
464.23	470.45
464.41	397.89
464.59	388.53
464.78	332.36
464.96	407.25
465.14	400.23
465.32	353.42
465.50	444.70
465.69	428.32
465.87	404.91
466.05	430.66
466.23	428.32
466.41	437.68
466.60	425.98
466.78	358.10
466.96	386.19
467.14	402.57
467.32	461.09
467.51	381.51
467.69	444.70
467.87	400.23
468.05	393.21
468.23	428.32
468.41	425.98
468.60	454.06
468.78	383.85
468.96	451.72
469.14	435.34
469.32	407.25
469.50	416.62
469.69	428.32
469.87	447.04
470.05	458.74
470.23	458.74
470.41	440.02
470.59	355.76
470.77	339.38
470.95	388.53
471.14	423.64
471.32	397.89
471.50	423.64
471.68	493.85
471.86	428.32
472.04	407.25
472.22	458.74
472.40	472.79
472.58	376.83
472.77	348.74
472.95	444.70
473.13	442.36
473.31	491.51
473.49	402.57
473.67	489.17
473.85	395.55
474.03	463.43
474.21	409.59
474.39	470.45
474.57	435.34
474.75	433.00
474.93	440.02
475.12	386.19
475.30	454.06
475.48	493.85
475.66	451.72
475.84	418.96
476.02	388.53
476.20	414.27
476.38	430.66
476.56	444.70
476.74	423.64
476.92	470.45
477.10	433.00
477.28	477.47
477.46	369.80
477.64	524.28
477.82	423.64
478.00	433.00
478.18	386.19
478.36	411.93
478.54	425.98
478.72	393.21
478.90	447.04
479.08	390.87
479.26	437.68
479.44	430.66
479.62	374.49
479.80	407.25
479.98	470.45
480.16	435.34
480.34	493.85
480.52	421.30
480.70	379.17
480.88	414.27
481.06	376.83
481.24	397.89
481.41	451.72
481.59	376.83
481.77	404.91
481.95	400.23
482.13	479.81
482.31	425.98
482.49	440.02
482.67	423.64
482.85	451.72
483.03	407.25
483.21	374.49
483.39	358.10
483.57	407.25
483.74	479.81
483.92	409.59
484.10	447.04
484.28	418.96
484.46	489.17
484.64	390.87
484.82	388.53
485.00	444.70
485.18	397.89
485.35	402.57
485.53	454.06
485.71	491.51
485.89	435.34
486.07	430.66
486.25	484.49
486.43	374.49
486.61	503.22
486.78	437.68
486.96	449.38
487.14	433.00
487.32	451.72
487.50	407.25
487.68	430.66
487.85	433.00
488.03	486.83
488.21	390.87
488.39	381.51
488.57	451.72
488.75	369.80
488.92	458.74
489.10	414.27
489.28	465.77
489.46	435.34
489.64	388.53
489.81	449.38
489.99	437.68
490.17	451.72
490.35	566.41
490.53	435.34
490.70	393.21
490.88	362.78
491.06	402.57
491.24	376.83
491.41	489.17
491.59	463.43
491.77	372.15
491.95	411.93
492.13	332.36
492.30	395.55
492.48	447.04
492.66	444.70
492.84	402.57
493.01	472.79
493.19	470.45
493.37	442.36
493.54	444.70
493.72	411.93
493.90	397.89
494.08	451.72
494.25	428.32
494.43	386.19
494.61	348.74
494.79	367.46
494.96	376.83
495.14	388.53
495.32	454.06
495.49	447.04
495.67	411.93
495.85	414.27
496.02	325.33
496.20	416.62
496.38	418.96
496.55	491.51
496.73	393.21
496.91	393.21
497.09	435.34
497.26	430.66
497.44	442.36
497.62	388.53
497.79	440.02
497.97	482.15
498.14	458.74
498.32	404.91
498.50	468.11
498.67	440.02
498.85	383.85
499.03	442.36
499.20	386.19
499.38	409.59
499.56	409.59
499.73	477.47
499.91	390.87
500.08	437.68
500.26	376.83
500.44	407.25
500.61	503.22
500.79	414.27
500.97	444.70
501.14	451.72
501.32	379.17
501.49	400.23
501.67	379.17
501.84	407.25
502.02	386.19
502.20	390.87
502.37	430.66
502.55	407.25
502.72	334.70
502.90	423.64
503.07	437.68
503.25	425.98
503.43	423.64
503.60	423.64
503.78	395.55
503.95	390.87
504.13	470.45
504.30	423.64
504.48	435.34
504.65	465.77
504.83	418.96
505.01	442.36
505.18	430.66
505.36	423.64
505.53	423.64
505.71	409.59
505.88	369.80
506.06	395.55
506.23	447.04
506.41	465.77
506.58	390.87
506.76	447.04
506.93	407.25
507.11	440.02
507.28	407.25
507.46	383.85
507.63	423.64
507.81	379.17
507.98	397.89
508.16	430.66
508.33	425.98
508.50	411.93
508.68	353.42
508.85	430.66
509.03	433.00
509.20	386.19
509.38	435.34
509.55	484.49
509.73	449.38
509.90	451.72
510.08	437.68
510.25	388.53
510.42	430.66
510.60	416.62
510.77	463.43
510.95	428.32
511.12	465.77
511.30	440.02
511.47	386.19
511.64	430.66
511.82	390.87
511.99	341.72
512.17	449.38
512.34	390.87
512.51	465.77
512.69	411.93
512.86	393.21
513.04	411.93
513.21	500.87
513.38	402.57
513.56	393.21
513.73	379.17
513.90	437.68
514.08	332.36
514.25	458.74
514.43	409.59
514.60	351.08
514.77	442.36
514.95	418.96
515.12	372.15
515.29	411.93
515.47	409.59
515.64	353.42
515.81	353.42
515.99	482.15
516.16	407.25
516.33	418.96
516.51	358.10
516.68	381.51
516.85	440.02
517.03	400.23
517.20	414.27
517.37	463.43
517.54	393.21
517.72	418.96
517.89	414.27
518.06	423.64
518.24	437.68
518.41	449.38
518.58	461.09
518.75	440.02
518.93	437.68
519.10	421.30
519.27	437.68
519.45	416.62
519.62	447.04
519.79	458.74
519.96	421.30
520.14	463.43
520.31	435.34
520.48	433.00
520.65	437.68
520.83	428.32
521.00	463.43
521.17	442.36
521.34	397.89
521.52	402.57
521.69	416.62
521.86	409.59
522.03	400.23
522.20	416.62
522.38	369.80
522.55	484.49
522.72	351.08
522.89	390.87
523.07	428.32
523.24	428.32
523.41	428.32
523.58	386.19
523.75	449.38
523.92	423.64
524.10	393.21
524.27	397.89
524.44	402.57
524.61	428.32
524.78	421.30
524.96	479.81
525.13	444.70
525.30	418.96
525.47	423.64
525.64	379.17
525.81	454.06
525.98	486.83
526.16	463.43
526.33	393.21
526.50	477.47
526.67	418.96
526.84	390.87
527.01	397.89
527.18	470.45
527.36	374.49
527.53	451.72
527.70	397.89
527.87	451.72
528.04	421.30
528.21	393.21
528.38	402.57
528.55	374.49
528.72	421.30
528.89	400.23
529.07	397.89
529.24	500.87
529.41	416.62
529.58	423.64
529.75	379.17
529.92	475.13
530.09	425.98
530.26	416.62
530.43	416.62
530.60	395.55
530.77	435.34
530.94	444.70
531.11	468.11
531.28	414.27
531.46	430.66
531.63	404.91
531.80	411.93
531.97	470.45
532.14	355.76
532.31	388.53
532.48	430.66
532.65	383.85
532.82	367.46
532.99	395.55
533.16	425.98
533.33	437.68
533.50	437.68
533.67	425.98
533.84	451.72
534.01	482.15
534.18	407.25
534.35	433.00
534.52	421.30
534.69	400.23
534.86	461.09
535.03	468.11
535.20	437.68
535.37	447.04
535.54	442.36
535.71	430.66
535.88	442.36
536.05	451.72
536.22	409.59
536.38	433.00
536.55	428.32
536.72	388.53
536.89	425.98
537.06	407.25
537.23	344.06
537.40	414.27
537.57	379.17
537.74	447.04
537.91	393.21
538.08	465.77
538.25	411.93
538.42	435.34
538.59	418.96
538.75	430.66
538.92	411.93
539.09	482.15
539.26	435.34
539.43	397.89
539.60	503.22
539.77	416.62
539.94	365.12
540.11	402.57
540.28	409.59
540.44	423.64
540.61	493.85
540.78	407.25
540.95	402.57
541.12	454.06
541.29	383.85
541.46	409.59
541.62	393.21
541.79	465.77
541.96	435.34
542.13	414.27
542.30	332.36
542.47	444.70
542.63	454.06
542.80	428.32
542.97	444.70
543.14	362.78
543.31	411.93
543.48	402.57
543.64	395.55
543.81	400.23
543.98	400.23
544.15	411.93
544.32	428.32
544.48	367.46
544.65	428.32
544.82	430.66
544.99	433.00
545.16	475.13
545.32	428.32
545.49	442.36
545.66	498.53
545.83	425.98
546.00	402.57
546.16	437.68
546.33	351.08
546.50	407.25
546.67	451.72
546.83	402.57
547.00	423.64
547.17	407.25
547.34	395.55
547.50	435.34
547.67	428.32
547.84	372.15
548.00	496.19
548.17	383.85
548.34	395.55
548.51	428.32
548.67	428.32
548.84	374.49
549.01	433.00
549.18	393.21
549.34	409.59
549.51	465.77
549.68	444.70
549.84	369.80
550.01	404.91
550.18	507.90
550.34	458.74
550.51	440.02
550.68	482.15
550.84	397.89
551.01	365.12
551.18	414.27
551.34	416.62
551.51	418.96
551.68	341.72
551.84	397.89
552.01	463.43
552.18	369.80
552.34	437.68
552.51	397.89
552.68	390.87
552.84	404.91
553.01	358.10
553.18	423.64
553.34	376.83
553.51	369.80
553.67	409.59
553.84	458.74
554.01	489.17
554.17	475.13
554.34	404.91
554.51	454.06
554.67	407.25
554.84	505.56
555.00	444.70
555.17	407.25
555.33	365.12
555.50	423.64
555.67	386.19
555.83	421.30
556.00	425.98
556.16	561.73
556.33	505.56
556.50	433.00
556.66	397.89
556.83	416.62
556.99	397.89
557.16	418.96
557.32	390.87
557.49	437.68
557.65	442.36
557.82	341.72
557.98	456.40
558.15	440.02
558.32	486.83
558.48	496.19
558.65	421.30
558.81	416.62
558.98	475.13
559.14	449.38
559.31	388.53
559.47	407.25
559.64	444.70
559.80	433.00
559.97	397.89
560.13	447.04
560.30	358.10
560.46	461.09
560.63	397.89
560.79	430.66
560.96	454.06
561.12	358.10
561.29	374.49
561.45	447.04
561.61	442.36
561.78	449.38
561.94	482.15
562.11	395.55
562.27	465.77
562.44	425.98
562.60	379.17
562.77	477.47
562.93	440.02
563.10	414.27
563.26	400.23
563.42	498.53
563.59	505.56
563.75	397.89
563.92	372.15
564.08	456.40
564.24	470.45
564.41	503.22
564.57	416.62
564.74	390.87
564.90	388.53
565.07	442.36
565.23	479.81
565.39	411.93
565.56	386.19
565.72	404.91
565.88	475.13
566.05	341.72
566.21	402.57
566.38	435.34
566.54	327.68
566.70	477.47
566.87	313.63
567.03	369.80
567.19	383.85
567.36	374.49
567.52	416.62
567.68	491.51
567.85	491.51
568.01	379.17
568.17	458.74
568.34	437.68
568.50	433.00
568.66	447.04
568.83	456.40
568.99	348.74
569.15	491.51
569.32	456.40
569.48	461.09
569.64	374.49
569.81	458.74
569.97	421.30
570.13	442.36
570.30	416.62
570.46	397.89
570.62	379.17
570.78	423.64
570.95	449.38
571.11	367.46
571.27	411.93
571.43	372.15
571.60	447.04
571.76	386.19
571.92	428.32
572.09	435.34
572.25	465.77
572.41	365.12
572.57	348.74
572.74	472.79
572.90	428.32
573.06	435.34
573.22	395.55
573.38	435.34
573.55	423.64
573.71	449.38
573.87	472.79
574.03	334.70
574.20	404.91
574.36	472.79
574.52	365.12
574.68	440.02
574.84	411.93
575.01	416.62
575.17	397.89
575.33	442.36
575.49	458.74
575.65	355.76
575.82	397.89
575.98	418.96
576.14	430.66
576.30	355.76
576.46	397.89
576.62	379.17
576.79	428.32
576.95	397.89
577.11	418.96
577.27	423.64
577.43	360.44
577.59	482.15
577.75	379.17
577.92	390.87
578.08	414.27
578.24	374.49
578.40	454.06
578.56	402.57
578.72	433.00
578.88	423.64
579.04	444.70
579.21	437.68
579.37	442.36
579.53	414.27
579.69	397.89
579.85	358.10
580.01	411.93
580.17	428.32
580.33	372.15
580.49	390.87
580.65	435.34
580.82	379.17
580.98	339.38
581.14	428.32
581.30	454.06
581.46	468.11
581.62	414.27
581.78	386.19
581.94	458.74
582.10	496.19
582.26	430.66
582.42	475.13
582.58	440.02
582.74	428.32
582.90	400.23
583.06	407.25
583.22	379.17
583.38	383.85
583.54	388.53
583.70	458.74
583.86	376.83
584.02	423.64
584.18	484.49
584.34	477.47
584.50	491.51
584.66	374.49
584.82	411.93
584.98	447.04
585.14	381.51
585.30	418.96
585.46	461.09
585.62	468.11
585.78	421.30
585.94	470.45
586.10	451.72
586.26	428.32
586.42	428.32
586.58	428.32
586.74	444.70
586.90	470.45
587.06	461.09
587.22	395.55
587.38	397.89
587.54	482.15
587.70	423.64
587.86	503.22
588.02	442.36
588.18	388.53
588.34	491.51
588.49	383.85
588.65	428.32
588.81	404.91
588.97	362.78
589.13	411.93
589.29	484.49
589.45	472.79
589.61	449.38
589.77	397.89
589.93	362.78
590.08	421.30
590.24	402.57
590.40	433.00
590.56	407.25
590.72	418.96
590.88	390.87
591.04	531.30
591.20	444.70
591.35	463.43
591.51	475.13
591.67	416.62
591.83	470.45
591.99	430.66
592.15	397.89
592.31	435.34
592.46	430.66
592.62	470.45
592.78	484.49
592.94	435.34
593.10	407.25
593.26	418.96
593.41	393.21
593.57	393.21
593.73	454.06
593.89	447.04
594.05	437.68
594.20	442.36
594.36	456.40
594.52	444.70
594.68	351.08
594.84	390.87
594.99	428.32
595.15	425.98
595.31	404.91
595.47	442.36
595.62	390.87
595.78	477.47
595.94	362.78
596.10	418.96
596.25	414.27
596.41	411.93
596.57	369.80
596.73	461.09
596.88	451.72
597.04	428.32
597.20	404.91
597.36	472.79
597.51	421.30
597.67	461.09
597.83	456.40
597.99	428.32
598.14	428.32
598.30	337.04
598.46	425.98
598.61	454.06
598.77	484.49
598.93	435.34
599.09	393.21
599.24	374.49
599.40	414.27
599.56	425.98
599.71	437.68
599.87	444.70
600.03	355.76
600.18	425.98
600.34	397.89
600.50	414.27
600.65	421.30
600.81	416.62
600.97	376.83
601.12	472.79
601.28	491.51
601.44	365.12
601.59	421.30
601.75	374.49
601.91	407.25
602.06	472.79
602.22	461.09
602.37	468.11
602.53	437.68
602.69	475.13
602.84	416.62
603.00	423.64
603.16	386.19
603.31	416.62
603.47	479.81
603.62	437.68
603.78	369.80
603.94	393.21
604.09	411.93
604.25	367.46
604.40	465.77
604.56	444.70
604.71	374.49
604.87	407.25
605.03	409.59
605.18	423.64
605.34	421.30
605.49	428.32
605.65	407.25
605.80	463.43
605.96	423.64
606.12	472.79
606.27	430.66
606.43	411.93
606.58	468.11
606.74	447.04
606.89	395.55
607.05	388.53
607.20	472.79
607.36	425.98
607.51	390.87
607.67	372.15
607.82	447.04
607.98	442.36
608.13	388.53
608.29	418.96
608.44	433.00
608.60	482.15
608.75	379.17
608.91	379.17
609.06	421.30
609.22	421.30
609.37	435.34
609.53	369.80
609.68	388.53
609.84	369.80
609.99	395.55
610.15	449.38
