SpectraSuite Data File
++++++++++++++++++++++++++++++++++++
Date: Fri Oct 25 12:11:04 EDT 2013
User: price-jones
Dark Spectrum Present: No
Reference Spectrum Present: No
Number of Sampled Component Spectra: 1
Spectrometers: USB2+H05261
Integration Time (usec): 100000 (USB2+H05261)
Spectra Averaged: 1 (USB2+H05261)
Boxcar Smoothing: 0 (USB2+H05261)
Correct for Electrical Dark: No (USB2+H05261)
Strobe/Lamp Enabled: No (USB2+H05261)
Correct for Detector Non-linearity: No (USB2+H05261)
Correct for Stray Light: No (USB2+H05261)
Number of Pixels in Processed Spectrum: 2048
>>>>>Begin Processed Spectral Data<<<<<
365.73	241.08
365.92	241.08
366.12	241.08
366.32	304.27
366.52	290.23
366.72	287.89
366.91	306.61
367.11	241.08
367.31	250.44
367.51	248.10
367.70	262.14
367.90	236.39
368.10	301.93
368.30	327.68
368.49	252.78
368.69	276.18
368.89	259.80
369.09	252.78
369.28	276.18
369.48	337.04
369.68	278.52
369.87	358.10
370.07	264.48
370.27	327.68
370.47	327.68
370.66	360.44
370.86	348.74
371.06	374.49
371.25	386.19
371.45	407.25
371.65	458.74
371.84	334.70
372.04	379.17
372.24	442.36
372.44	355.76
372.63	390.87
372.83	330.02
373.03	442.36
373.22	381.51
373.42	393.21
373.62	456.40
373.81	425.98
374.01	451.72
374.21	458.74
374.40	404.91
374.60	428.32
374.79	362.78
374.99	381.51
375.19	351.08
375.38	358.10
375.58	397.89
375.78	423.64
375.97	451.72
376.17	397.89
376.37	332.36
376.56	407.25
376.76	421.30
376.95	388.53
377.15	416.62
377.35	472.79
377.54	372.15
377.74	386.19
377.93	341.72
378.13	418.96
378.33	409.59
378.52	388.53
378.72	472.79
378.91	400.23
379.11	489.17
379.31	416.62
379.50	332.36
379.70	435.34
379.89	411.93
380.09	414.27
380.28	393.21
380.48	486.83
380.68	456.40
380.87	327.68
381.07	407.25
381.26	425.98
381.46	372.15
381.65	416.62
381.85	351.08
382.04	425.98
382.24	456.40
382.43	416.62
382.63	435.34
382.83	386.19
383.02	388.53
383.22	465.77
383.41	351.08
383.61	388.53
383.80	425.98
384.00	456.40
384.19	409.59
384.39	416.62
384.58	397.89
384.78	435.34
384.97	433.00
385.17	365.12
385.36	465.77
385.56	390.87
385.75	360.44
385.95	360.44
386.14	423.64
386.34	397.89
386.53	425.98
386.72	386.19
386.92	393.21
387.11	409.59
387.31	435.34
387.50	362.78
387.70	425.98
387.89	423.64
388.09	369.80
388.28	381.51
388.48	437.68
388.67	430.66
388.86	442.36
389.06	393.21
389.25	346.40
389.45	355.76
389.64	433.00
389.84	400.23
390.03	433.00
390.22	388.53
390.42	353.42
390.61	397.89
390.81	383.85
391.00	390.87
391.19	383.85
391.39	435.34
391.58	423.64
391.78	393.21
391.97	372.15
392.16	379.17
392.36	360.44
392.55	402.57
392.75	400.23
392.94	395.55
393.13	435.34
393.33	400.23
393.52	456.40
393.71	479.81
393.91	425.98
394.10	358.10
394.29	390.87
394.49	372.15
394.68	416.62
394.88	435.34
395.07	355.76
395.26	390.87
395.46	442.36
395.65	411.93
395.84	390.87
396.04	411.93
396.23	414.27
396.42	411.93
396.62	418.96
396.81	416.62
397.00	390.87
397.19	414.27
397.39	337.04
397.58	461.09
397.77	449.38
397.97	416.62
398.16	376.83
398.35	386.19
398.55	395.55
398.74	351.08
398.93	484.49
399.12	334.70
399.32	421.30
399.51	395.55
399.70	374.49
399.90	437.68
400.09	374.49
400.28	425.98
400.47	402.57
400.67	301.93
400.86	339.38
401.05	411.93
401.24	451.72
401.44	444.70
401.63	418.96
401.82	344.06
402.01	325.33
402.21	407.25
402.40	365.12
402.59	358.10
402.78	381.51
402.97	367.46
403.17	428.32
403.36	327.68
403.55	386.19
403.74	313.63
403.93	381.51
404.13	383.85
404.32	367.46
404.51	421.30
404.70	390.87
404.89	414.27
405.09	451.72
405.28	397.89
405.47	444.70
405.66	390.87
405.85	447.04
406.05	414.27
406.24	484.49
406.43	379.17
406.62	461.09
406.81	465.77
407.00	383.85
407.20	442.36
407.39	404.91
407.58	423.64
407.77	425.98
407.96	395.55
408.15	381.51
408.34	479.81
408.54	390.87
408.73	393.21
408.92	353.42
409.11	416.62
409.30	442.36
409.49	465.77
409.68	383.85
409.87	393.21
410.07	390.87
410.26	440.02
410.45	447.04
410.64	404.91
410.83	365.12
411.02	451.72
411.21	435.34
411.40	409.59
411.59	383.85
411.78	369.80
411.98	404.91
412.17	386.19
412.36	428.32
412.55	360.44
412.74	362.78
412.93	374.49
413.12	381.51
413.31	433.00
413.50	414.27
413.69	318.31
413.88	475.13
414.07	411.93
414.26	367.46
414.45	383.85
414.64	341.72
414.83	397.89
415.02	442.36
415.22	468.11
415.41	418.96
415.60	404.91
415.79	458.74
415.98	418.96
416.17	400.23
416.36	454.06
416.55	442.36
416.74	360.44
416.93	472.79
417.12	322.99
417.31	360.44
417.50	475.13
417.69	404.91
417.88	393.21
418.07	393.21
418.26	402.57
418.45	381.51
418.64	465.77
418.83	376.83
419.02	369.80
419.21	386.19
419.39	400.23
419.58	409.59
419.77	381.51
419.96	395.55
420.15	465.77
420.34	400.23
420.53	367.46
420.72	402.57
420.91	423.64
421.10	353.42
421.29	461.09
421.48	493.85
421.67	416.62
421.86	437.68
422.05	435.34
422.24	451.72
422.43	369.80
422.61	334.70
422.80	425.98
422.99	400.23
423.18	346.40
423.37	463.43
423.56	442.36
423.75	425.98
423.94	400.23
424.13	360.44
424.32	421.30
424.50	355.76
424.69	421.30
424.88	428.32
425.07	437.68
425.26	386.19
425.45	400.23
425.64	437.68
425.83	362.78
426.01	374.49
426.20	418.96
426.39	388.53
426.58	400.23
426.77	400.23
426.96	430.66
427.15	397.89
427.33	458.74
427.52	454.06
427.71	491.51
427.90	337.04
428.09	388.53
428.28	442.36
428.46	390.87
428.65	374.49
428.84	416.62
429.03	337.04
429.22	425.98
429.40	367.46
429.59	414.27
429.78	393.21
429.97	402.57
430.16	376.83
430.34	348.74
430.53	348.74
430.72	379.17
430.91	442.36
431.10	456.40
431.28	454.06
431.47	454.06
431.66	374.49
431.85	505.56
432.03	379.17
432.22	449.38
432.41	447.04
432.60	390.87
432.79	407.25
432.97	479.81
433.16	381.51
433.35	327.68
433.54	458.74
433.72	444.70
433.91	442.36
434.10	395.55
434.28	447.04
434.47	491.51
434.66	470.45
434.85	358.10
435.03	428.32
435.22	472.79
435.41	475.13
435.59	367.46
435.78	409.59
435.97	337.04
436.16	421.30
436.34	411.93
436.53	442.36
436.72	423.64
436.90	407.25
437.09	423.64
437.28	351.08
437.46	486.83
437.65	442.36
437.84	416.62
438.02	390.87
438.21	414.27
438.40	404.91
438.58	433.00
438.77	451.72
438.96	379.17
439.14	433.00
439.33	465.77
439.52	433.00
439.70	360.44
439.89	458.74
440.08	407.25
440.26	397.89
440.45	456.40
440.63	451.72
440.82	393.21
441.01	435.34
441.19	449.38
441.38	374.49
441.57	428.32
441.75	355.76
441.94	397.89
442.12	437.68
442.31	383.85
442.50	418.96
442.68	360.44
442.87	461.09
443.05	428.32
443.24	411.93
443.43	465.77
443.61	468.11
443.80	393.21
443.98	433.00
444.17	411.93
444.35	433.00
444.54	407.25
444.73	433.00
444.91	423.64
445.10	376.83
445.28	430.66
445.47	379.17
445.65	454.06
445.84	435.34
446.02	402.57
446.21	433.00
446.39	388.53
446.58	374.49
446.77	369.80
446.95	451.72
447.14	425.98
447.32	479.81
447.51	337.04
447.69	414.27
447.88	449.38
448.06	433.00
448.25	416.62
448.43	379.17
448.62	369.80
448.80	468.11
448.99	400.23
449.17	416.62
449.36	430.66
449.54	430.66
449.73	423.64
449.91	402.57
450.10	409.59
450.28	444.70
450.46	421.30
450.65	332.36
450.83	421.30
451.02	456.40
451.20	444.70
451.39	397.89
451.57	400.23
451.76	416.62
451.94	435.34
452.13	479.81
452.31	458.74
452.49	456.40
452.68	409.59
452.86	477.47
453.05	418.96
453.23	454.06
453.42	409.59
453.60	472.79
453.78	451.72
453.97	411.93
454.15	421.30
454.34	454.06
454.52	400.23
454.70	388.53
454.89	477.47
455.07	386.19
455.26	353.42
455.44	428.32
455.62	418.96
455.81	395.55
455.99	435.34
456.17	447.04
456.36	409.59
456.54	433.00
456.73	383.85
456.91	369.80
457.09	407.25
457.28	458.74
457.46	430.66
457.64	442.36
457.83	409.59
458.01	397.89
458.19	407.25
458.38	423.64
458.56	449.38
458.74	390.87
458.93	463.43
459.11	376.83
459.29	402.57
459.48	423.64
459.66	472.79
459.84	437.68
460.03	435.34
460.21	418.96
460.39	367.46
460.57	404.91
460.76	407.25
460.94	451.72
461.12	418.96
461.31	472.79
461.49	418.96
461.67	433.00
461.85	449.38
462.04	421.30
462.22	753.65
462.40	454.06
462.59	416.62
462.77	414.27
462.95	461.09
463.13	388.53
463.32	418.96
463.50	477.47
463.68	369.80
463.86	374.49
464.05	409.59
464.23	358.10
464.41	430.66
464.59	390.87
464.78	425.98
464.96	411.93
465.14	440.02
465.32	393.21
465.50	435.34
465.69	390.87
465.87	435.34
466.05	425.98
466.23	435.34
466.41	418.96
466.60	435.34
466.78	470.45
466.96	425.98
467.14	451.72
467.32	440.02
467.51	414.27
467.69	468.11
467.87	437.68
468.05	425.98
468.23	442.36
468.41	428.32
468.60	362.78
468.78	374.49
468.96	416.62
469.14	365.12
469.32	400.23
469.50	475.13
469.69	463.43
469.87	435.34
470.05	428.32
470.23	479.81
470.41	416.62
470.59	454.06
470.77	430.66
470.95	360.44
471.14	461.09
471.32	468.11
471.50	388.53
471.68	447.04
471.86	503.22
472.04	440.02
472.22	360.44
472.40	355.76
472.58	379.17
472.77	479.81
472.95	409.59
473.13	402.57
473.31	461.09
473.49	383.85
473.67	402.57
473.85	477.47
474.03	390.87
474.21	379.17
474.39	461.09
474.57	435.34
474.75	458.74
474.93	395.55
475.12	372.15
475.30	379.17
475.48	379.17
475.66	428.32
475.84	379.17
476.02	372.15
476.20	390.87
476.38	390.87
476.56	531.30
476.74	437.68
476.92	416.62
477.10	407.25
477.28	411.93
477.46	376.83
477.64	407.25
477.82	435.34
478.00	381.51
478.18	447.04
478.36	404.91
478.54	421.30
478.72	404.91
478.90	484.49
479.08	411.93
479.26	362.78
479.44	395.55
479.62	365.12
479.80	404.91
479.98	414.27
480.16	379.17
480.34	440.02
480.52	451.72
480.70	386.19
480.88	390.87
481.06	400.23
481.24	402.57
481.41	440.02
481.59	444.70
481.77	468.11
481.95	393.21
482.13	407.25
482.31	409.59
482.49	322.99
482.67	428.32
482.85	414.27
483.03	409.59
483.21	442.36
483.39	430.66
483.57	442.36
483.74	423.64
483.92	379.17
484.10	430.66
484.28	496.19
484.46	402.57
484.64	425.98
484.82	388.53
485.00	430.66
485.18	411.93
485.35	376.83
485.53	360.44
485.71	507.90
485.89	402.57
486.07	421.30
486.25	519.60
486.43	421.30
486.61	414.27
486.78	465.77
486.96	437.68
487.14	400.23
487.32	388.53
487.50	365.12
487.68	390.87
487.85	379.17
488.03	454.06
488.21	479.81
488.39	388.53
488.57	414.27
488.75	421.30
488.92	470.45
489.10	451.72
489.28	451.72
489.46	388.53
489.64	430.66
489.81	484.49
489.99	423.64
490.17	404.91
490.35	517.26
490.53	430.66
490.70	470.45
490.88	423.64
491.06	435.34
491.24	416.62
491.41	454.06
491.59	383.85
491.77	353.42
491.95	421.30
492.13	440.02
492.30	465.77
492.48	400.23
492.66	437.68
492.84	421.30
493.01	404.91
493.19	383.85
493.37	409.59
493.54	404.91
493.72	421.30
493.90	381.51
494.08	463.43
494.25	404.91
494.43	365.12
494.61	444.70
494.79	400.23
494.96	379.17
495.14	416.62
495.32	442.36
495.49	425.98
495.67	369.80
495.85	458.74
496.02	388.53
496.20	489.17
496.38	531.30
496.55	414.27
496.73	442.36
496.91	456.40
497.09	458.74
497.26	409.59
497.44	388.53
497.62	383.85
497.79	418.96
497.97	437.68
498.14	390.87
498.32	463.43
498.50	369.80
498.67	442.36
498.85	404.91
499.03	386.19
499.20	435.34
499.38	337.04
499.56	358.10
499.73	484.49
499.91	435.34
500.08	447.04
500.26	407.25
500.44	411.93
500.61	362.78
500.79	362.78
500.97	402.57
501.14	423.64
501.32	383.85
501.49	423.64
501.67	320.65
501.84	383.85
502.02	465.77
502.20	470.45
502.37	376.83
502.55	433.00
502.72	367.46
502.90	498.53
503.07	435.34
503.25	402.57
503.43	435.34
503.60	409.59
503.78	454.06
503.95	435.34
504.13	393.21
504.30	430.66
504.48	409.59
504.65	456.40
504.83	428.32
505.01	393.21
505.18	402.57
505.36	423.64
505.53	454.06
505.71	407.25
505.88	463.43
506.06	447.04
506.23	414.27
506.41	397.89
506.58	407.25
506.76	472.79
506.93	404.91
507.11	477.47
507.28	374.49
507.46	372.15
507.63	475.13
507.81	428.32
507.98	442.36
508.16	390.87
508.33	451.72
508.50	491.51
508.68	388.53
508.85	418.96
509.03	395.55
509.20	404.91
509.38	447.04
509.55	411.93
509.73	477.47
509.90	386.19
510.08	447.04
510.25	330.02
510.42	447.04
510.60	362.78
510.77	355.76
510.95	428.32
511.12	402.57
511.30	418.96
511.47	411.93
511.64	458.74
511.82	458.74
511.99	442.36
512.17	444.70
512.34	409.59
512.51	465.77
512.69	362.78
512.86	486.83
513.04	390.87
513.21	437.68
513.38	423.64
513.56	491.51
513.73	479.81
513.90	472.79
514.08	362.78
514.25	458.74
514.43	442.36
514.60	369.80
514.77	477.47
514.95	449.38
515.12	332.36
515.29	411.93
515.47	341.72
515.64	344.06
515.81	428.32
515.99	365.12
516.16	416.62
516.33	407.25
516.51	442.36
516.68	418.96
516.85	407.25
517.03	409.59
517.20	414.27
517.37	395.55
517.54	365.12
517.72	367.46
517.89	451.72
518.06	409.59
518.24	468.11
518.41	468.11
518.58	547.69
518.75	376.83
518.93	484.49
519.10	447.04
519.27	362.78
519.45	414.27
519.62	442.36
519.79	435.34
519.96	409.59
520.14	421.30
520.31	390.87
520.48	402.57
520.65	447.04
520.83	433.00
521.00	430.66
521.17	425.98
521.34	428.32
521.52	433.00
521.69	418.96
521.86	376.83
522.03	433.00
522.20	451.72
522.38	397.89
522.55	440.02
522.72	449.38
522.89	435.34
523.07	428.32
523.24	454.06
523.41	404.91
523.58	395.55
523.75	320.65
523.92	369.80
524.10	421.30
524.27	334.70
524.44	444.70
524.61	416.62
524.78	393.21
524.96	470.45
525.13	440.02
525.30	409.59
525.47	461.09
525.64	400.23
525.81	451.72
525.98	400.23
526.16	421.30
526.33	472.79
526.50	423.64
526.67	407.25
526.84	386.19
527.01	292.57
527.18	414.27
527.36	421.30
527.53	344.06
527.70	428.32
527.87	402.57
528.04	498.53
528.21	407.25
528.38	444.70
528.55	397.89
528.72	533.64
528.89	482.15
529.07	440.02
529.24	435.34
529.41	444.70
529.58	388.53
529.75	425.98
529.92	472.79
530.09	444.70
530.26	475.13
530.43	425.98
530.60	393.21
530.77	416.62
530.94	355.76
531.11	472.79
531.28	512.58
531.46	379.17
531.63	407.25
531.80	468.11
531.97	463.43
532.14	402.57
532.31	475.13
532.48	442.36
532.65	381.51
532.82	428.32
532.99	425.98
533.16	383.85
533.33	414.27
533.50	372.15
533.67	475.13
533.84	404.91
534.01	386.19
534.18	395.55
534.35	379.17
534.52	484.49
534.69	433.00
534.86	395.55
535.03	381.51
535.20	374.49
535.37	383.85
535.54	383.85
535.71	449.38
535.88	435.34
536.05	435.34
536.22	395.55
536.38	365.12
536.55	390.87
536.72	463.43
536.89	379.17
537.06	388.53
537.23	430.66
537.40	418.96
537.57	386.19
537.74	433.00
537.91	423.64
538.08	477.47
538.25	397.89
538.42	388.53
538.59	397.89
538.75	353.42
538.92	381.51
539.09	383.85
539.26	360.44
539.43	433.00
539.60	435.34
539.77	463.43
539.94	456.40
540.11	402.57
540.28	517.26
540.44	465.77
540.61	393.21
540.78	416.62
540.95	395.55
541.12	465.77
541.29	400.23
541.46	458.74
541.62	475.13
541.79	475.13
541.96	435.34
542.13	451.72
542.30	425.98
542.47	451.72
542.63	337.04
542.80	404.91
542.97	437.68
543.14	416.62
543.31	421.30
543.48	421.30
543.64	500.87
543.81	456.40
543.98	411.93
544.15	360.44
544.32	428.32
544.48	390.87
544.65	468.11
544.82	484.49
544.99	430.66
545.16	489.17
545.32	318.31
545.49	461.09
545.66	416.62
545.83	461.09
546.00	409.59
546.16	346.40
546.33	449.38
546.50	404.91
546.67	463.43
546.83	374.49
547.00	458.74
547.17	430.66
547.34	339.38
547.50	416.62
547.67	447.04
547.84	369.80
548.00	376.83
548.17	386.19
548.34	472.79
548.51	470.45
548.67	423.64
548.84	360.44
549.01	409.59
549.18	437.68
549.34	456.40
549.51	421.30
549.68	411.93
549.84	472.79
550.01	337.04
550.18	496.19
550.34	524.28
550.51	472.79
550.68	442.36
550.84	402.57
551.01	430.66
551.18	430.66
551.34	404.91
551.51	425.98
551.68	470.45
551.84	444.70
552.01	465.77
552.18	386.19
552.34	461.09
552.51	489.17
552.68	423.64
552.84	376.83
553.01	421.30
553.18	414.27
553.34	416.62
553.51	404.91
553.67	465.77
553.84	486.83
554.01	411.93
554.17	440.02
554.34	341.72
554.51	430.66
554.67	435.34
554.84	376.83
555.00	383.85
555.17	395.55
555.33	449.38
555.50	372.15
555.67	433.00
555.83	433.00
556.00	428.32
556.16	608.54
556.33	486.83
556.50	414.27
556.66	423.64
556.83	500.87
556.99	383.85
557.16	416.62
557.32	395.55
557.49	365.12
557.65	341.72
557.82	451.72
557.98	444.70
558.15	465.77
558.32	479.81
558.48	386.19
558.65	390.87
558.81	437.68
558.98	430.66
559.14	472.79
559.31	423.64
559.47	458.74
559.64	414.27
559.80	461.09
559.97	435.34
560.13	421.30
560.30	374.49
560.46	407.25
560.63	428.32
560.79	468.11
560.96	393.21
561.12	442.36
561.29	454.06
561.45	430.66
561.61	416.62
561.78	437.68
561.94	486.83
562.11	386.19
562.27	411.93
562.44	381.51
562.60	449.38
562.77	475.13
562.93	493.85
563.10	493.85
563.26	449.38
563.42	456.40
563.59	468.11
563.75	482.15
563.92	423.64
564.08	442.36
564.24	411.93
564.41	484.49
564.57	423.64
564.74	362.78
564.90	449.38
565.07	416.62
565.23	395.55
565.39	402.57
565.56	407.25
565.72	395.55
565.88	402.57
566.05	388.53
566.21	325.33
566.38	388.53
566.54	362.78
566.70	334.70
566.87	395.55
567.03	362.78
567.19	381.51
567.36	507.90
567.52	451.72
567.68	440.02
567.85	430.66
568.01	386.19
568.17	425.98
568.34	381.51
568.50	440.02
568.66	369.80
568.83	437.68
568.99	402.57
569.15	458.74
569.32	393.21
569.48	362.78
569.64	395.55
569.81	463.43
569.97	449.38
570.13	444.70
570.30	365.12
570.46	376.83
570.62	411.93
570.78	479.81
570.95	461.09
571.11	484.49
571.27	456.40
571.43	433.00
571.60	397.89
571.76	379.17
571.92	386.19
572.09	421.30
572.25	379.17
572.41	395.55
572.57	383.85
572.74	451.72
572.90	425.98
573.06	437.68
573.22	395.55
573.38	437.68
573.55	458.74
573.71	484.49
573.87	479.81
574.03	379.17
574.20	383.85
574.36	486.83
574.52	425.98
574.68	407.25
574.84	468.11
575.01	416.62
575.17	407.25
575.33	425.98
575.49	425.98
575.65	376.83
575.82	383.85
575.98	383.85
576.14	386.19
576.30	458.74
576.46	404.91
576.62	442.36
576.79	430.66
576.95	482.15
577.11	393.21
577.27	353.42
577.43	463.43
577.59	409.59
577.75	402.57
577.92	458.74
578.08	437.68
578.24	402.57
578.40	423.64
578.56	428.32
578.72	461.09
578.88	414.27
579.04	414.27
579.21	433.00
579.37	470.45
579.53	421.30
579.69	435.34
579.85	400.23
580.01	442.36
580.17	372.15
580.33	428.32
580.49	414.27
580.65	332.36
580.82	425.98
580.98	372.15
581.14	379.17
581.30	437.68
581.46	433.00
581.62	465.77
581.78	407.25
581.94	454.06
582.10	367.46
582.26	521.94
582.42	397.89
582.58	414.27
582.74	440.02
582.90	409.59
583.06	475.13
583.22	397.89
583.38	437.68
583.54	421.30
583.70	388.53
583.86	355.76
584.02	386.19
584.18	428.32
584.34	402.57
584.50	425.98
584.66	425.98
584.82	430.66
584.98	435.34
585.14	461.09
585.30	458.74
585.46	435.34
585.62	353.42
585.78	313.63
585.94	465.77
586.10	411.93
586.26	521.94
586.42	484.49
586.58	409.59
586.74	418.96
586.90	512.58
587.06	418.96
587.22	372.15
587.38	416.62
587.54	376.83
587.70	440.02
587.86	447.04
588.02	437.68
588.18	409.59
588.34	454.06
588.49	407.25
588.65	461.09
588.81	372.15
588.97	402.57
589.13	383.85
589.29	472.79
589.45	451.72
589.61	393.21
589.77	388.53
589.93	388.53
590.08	484.49
590.24	409.59
590.40	355.76
590.56	458.74
590.72	425.98
590.88	475.13
591.04	423.64
591.20	416.62
591.35	430.66
591.51	360.44
591.67	454.06
591.83	381.51
591.99	397.89
592.15	397.89
592.31	435.34
592.46	383.85
592.62	477.47
592.78	374.49
592.94	369.80
593.10	402.57
593.26	404.91
593.41	451.72
593.57	409.59
593.73	348.74
593.89	421.30
594.05	346.40
594.20	369.80
594.36	421.30
594.52	386.19
594.68	383.85
594.84	376.83
594.99	451.72
595.15	407.25
595.31	402.57
595.47	433.00
595.62	444.70
595.78	374.49
595.94	428.32
596.10	423.64
596.25	407.25
596.41	390.87
596.57	400.23
596.73	379.17
596.88	376.83
597.04	376.83
597.20	493.85
597.36	423.64
597.51	358.10
597.67	395.55
597.83	407.25
597.99	414.27
598.14	437.68
598.30	442.36
598.46	374.49
598.61	421.30
598.77	428.32
598.93	437.68
599.09	395.55
599.24	404.91
599.40	454.06
599.56	376.83
599.71	458.74
599.87	425.98
600.03	425.98
600.18	484.49
600.34	393.21
600.50	334.70
600.65	344.06
600.81	421.30
600.97	348.74
601.12	404.91
601.28	451.72
601.44	430.66
601.59	402.57
601.75	433.00
601.91	393.21
602.06	486.83
602.22	421.30
602.37	395.55
602.53	386.19
602.69	447.04
602.84	390.87
603.00	428.32
603.16	409.59
603.31	449.38
603.47	365.12
603.62	411.93
603.78	388.53
603.94	402.57
604.09	362.78
604.25	414.27
604.40	386.19
604.56	484.49
604.71	418.96
604.87	421.30
605.03	430.66
605.18	421.30
605.34	456.40
605.49	348.74
605.65	339.38
605.80	402.57
605.96	414.27
606.12	397.89
606.27	433.00
606.43	468.11
606.58	458.74
606.74	360.44
606.89	374.49
607.05	409.59
607.20	440.02
607.36	449.38
607.51	477.47
607.67	449.38
607.82	479.81
607.98	449.38
608.13	463.43
608.29	433.00
608.44	482.15
608.60	454.06
608.75	376.83
608.91	418.96
609.06	390.87
609.22	409.59
609.37	383.85
609.53	369.80
609.68	435.34
609.84	383.85
609.99	470.45
610.15	449.38
