SpectraSuite Data File
++++++++++++++++++++++++++++++++++++
Date: Fri Oct 25 12:10:33 EDT 2013
User: price-jones
Dark Spectrum Present: No
Reference Spectrum Present: No
Number of Sampled Component Spectra: 1
Spectrometers: USB2+H05261
Integration Time (usec): 100000 (USB2+H05261)
Spectra Averaged: 1 (USB2+H05261)
Boxcar Smoothing: 0 (USB2+H05261)
Correct for Electrical Dark: No (USB2+H05261)
Strobe/Lamp Enabled: No (USB2+H05261)
Correct for Detector Non-linearity: No (USB2+H05261)
Correct for Stray Light: No (USB2+H05261)
Number of Pixels in Processed Spectrum: 2048
>>>>>Begin Processed Spectral Data<<<<<
365.73	337.04
365.92	337.04
366.12	337.04
366.32	273.84
366.52	278.52
366.72	166.18
366.91	297.25
367.11	259.80
367.31	187.24
367.51	243.42
367.70	220.01
367.90	248.10
368.10	271.50
368.30	238.73
368.49	220.01
368.69	283.20
368.89	227.03
369.09	278.52
369.28	297.25
369.48	327.68
369.68	280.86
369.87	297.25
370.07	301.93
370.27	337.04
370.47	353.42
370.66	346.40
370.86	308.95
371.06	442.36
371.25	390.87
371.45	386.19
371.65	395.55
371.84	322.99
372.04	402.57
372.24	428.32
372.44	381.51
372.63	320.65
372.83	465.77
373.03	353.42
373.22	388.53
373.42	386.19
373.62	444.70
373.81	369.80
374.01	390.87
374.21	402.57
374.40	416.62
374.60	397.89
374.79	409.59
374.99	372.15
375.19	395.55
375.38	372.15
375.58	365.12
375.78	475.13
375.97	437.68
376.17	486.83
376.37	423.64
376.56	397.89
376.76	440.02
376.95	348.74
377.15	397.89
377.35	423.64
377.54	402.57
377.74	430.66
377.93	486.83
378.13	430.66
378.33	416.62
378.52	414.27
378.72	482.15
378.91	470.45
379.11	437.68
379.31	386.19
379.50	442.36
379.70	425.98
379.89	407.25
380.09	454.06
380.28	381.51
380.48	341.72
380.68	344.06
380.87	365.12
381.07	388.53
381.26	475.13
381.46	369.80
381.65	479.81
381.85	409.59
382.04	456.40
382.24	386.19
382.43	402.57
382.63	393.21
382.83	376.83
383.02	430.66
383.22	386.19
383.41	367.46
383.61	400.23
383.80	470.45
384.00	390.87
384.19	409.59
384.39	411.93
384.58	353.42
384.78	393.21
384.97	393.21
385.17	444.70
385.36	402.57
385.56	437.68
385.75	416.62
385.95	346.40
386.14	440.02
386.34	421.30
386.53	330.02
386.72	472.79
386.92	477.47
387.11	430.66
387.31	461.09
387.50	425.98
387.70	301.93
387.89	393.21
388.09	414.27
388.28	440.02
388.48	348.74
388.67	435.34
388.86	351.08
389.06	435.34
389.25	465.77
389.45	414.27
389.64	491.51
389.84	428.32
390.03	425.98
390.22	414.27
390.42	447.04
390.61	376.83
390.81	461.09
391.00	362.78
391.19	470.45
391.39	486.83
391.58	430.66
391.78	395.55
391.97	437.68
392.16	402.57
392.36	425.98
392.55	374.49
392.75	437.68
392.94	379.17
393.13	334.70
393.33	351.08
393.52	400.23
393.71	433.00
393.91	400.23
394.10	383.85
394.29	376.83
394.49	423.64
394.68	407.25
394.88	451.72
395.07	404.91
395.26	372.15
395.46	418.96
395.65	383.85
395.84	386.19
396.04	416.62
396.23	383.85
396.42	395.55
396.62	397.89
396.81	369.80
397.00	435.34
397.19	418.96
397.39	360.44
397.58	456.40
397.77	367.46
397.97	421.30
398.16	435.34
398.35	367.46
398.55	313.63
398.74	421.30
398.93	433.00
399.12	451.72
399.32	425.98
399.51	423.64
399.70	395.55
399.90	383.85
400.09	442.36
400.28	383.85
400.47	409.59
400.67	341.72
400.86	440.02
401.05	416.62
401.24	451.72
401.44	381.51
401.63	376.83
401.82	369.80
402.01	428.32
402.21	423.64
402.40	355.76
402.59	418.96
402.78	346.40
402.97	365.12
403.17	390.87
403.36	430.66
403.55	367.46
403.74	367.46
403.93	390.87
404.13	421.30
404.32	379.17
404.51	425.98
404.70	451.72
404.89	393.21
405.09	454.06
405.28	411.93
405.47	458.74
405.66	447.04
405.85	442.36
406.05	397.89
406.24	404.91
406.43	341.72
406.62	402.57
406.81	437.68
407.00	440.02
407.20	463.43
407.39	414.27
407.58	369.80
407.77	465.77
407.96	428.32
408.15	493.85
408.34	479.81
408.54	341.72
408.73	402.57
408.92	395.55
409.11	416.62
409.30	454.06
409.49	435.34
409.68	395.55
409.87	500.87
410.07	470.45
410.26	425.98
410.45	393.21
410.64	440.02
410.83	407.25
411.02	362.78
411.21	461.09
411.40	477.47
411.59	472.79
411.78	475.13
411.98	428.32
412.17	351.08
412.36	397.89
412.55	372.15
412.74	404.91
412.93	348.74
413.12	444.70
413.31	425.98
413.50	400.23
413.69	388.53
413.88	444.70
414.07	456.40
414.26	383.85
414.45	360.44
414.64	454.06
414.83	376.83
415.02	435.34
415.22	425.98
415.41	337.04
415.60	383.85
415.79	463.43
415.98	440.02
416.17	418.96
416.36	341.72
416.55	423.64
416.74	414.27
416.93	381.51
417.12	433.00
417.31	397.89
417.50	383.85
417.69	393.21
417.88	440.02
418.07	381.51
418.26	379.17
418.45	367.46
418.64	437.68
418.83	407.25
419.02	388.53
419.21	400.23
419.39	388.53
419.58	322.99
419.77	383.85
419.96	447.04
420.15	428.32
420.34	440.02
420.53	409.59
420.72	461.09
420.91	423.64
421.10	318.31
421.29	451.72
421.48	383.85
421.67	425.98
421.86	374.49
422.05	458.74
422.24	442.36
422.43	465.77
422.61	435.34
422.80	430.66
422.99	444.70
423.18	379.17
423.37	454.06
423.56	292.57
423.75	517.26
423.94	369.80
424.13	390.87
424.32	451.72
424.50	428.32
424.69	472.79
424.88	376.83
425.07	444.70
425.26	425.98
425.45	402.57
425.64	372.15
425.83	383.85
426.01	388.53
426.20	369.80
426.39	341.72
426.58	491.51
426.77	407.25
426.96	461.09
427.15	407.25
427.33	461.09
427.52	482.15
427.71	393.21
427.90	461.09
428.09	486.83
428.28	402.57
428.46	376.83
428.65	379.17
428.84	362.78
429.03	447.04
429.22	463.43
429.40	479.81
429.59	461.09
429.78	397.89
429.97	449.38
430.16	421.30
430.34	393.21
430.53	444.70
430.72	428.32
430.91	458.74
431.10	479.81
431.28	346.40
431.47	339.38
431.66	393.21
431.85	362.78
432.03	425.98
432.22	416.62
432.41	451.72
432.60	449.38
432.79	390.87
432.97	451.72
433.16	360.44
433.35	353.42
433.54	418.96
433.72	376.83
433.91	440.02
434.10	414.27
434.28	397.89
434.47	379.17
434.66	400.23
434.85	451.72
435.03	451.72
435.22	447.04
435.41	433.00
435.59	411.93
435.78	435.34
435.97	409.59
436.16	367.46
436.34	404.91
436.53	379.17
436.72	447.04
436.90	407.25
437.09	369.80
437.28	374.49
437.46	425.98
437.65	465.77
437.84	433.00
438.02	416.62
438.21	449.38
438.40	425.98
438.58	386.19
438.77	367.46
438.96	425.98
439.14	395.55
439.33	397.89
439.52	402.57
439.70	367.46
439.89	503.22
440.08	393.21
440.26	334.70
440.45	376.83
440.63	451.72
440.82	451.72
441.01	337.04
441.19	395.55
441.38	402.57
441.57	383.85
441.75	461.09
441.94	447.04
442.12	458.74
442.31	404.91
442.50	397.89
442.68	393.21
442.87	374.49
443.05	428.32
443.24	411.93
443.43	404.91
443.61	383.85
443.80	393.21
443.98	402.57
444.17	395.55
444.35	407.25
444.54	435.34
444.73	390.87
444.91	470.45
445.10	456.40
445.28	390.87
445.47	362.78
445.65	383.85
445.84	404.91
446.02	442.36
446.21	386.19
446.39	423.64
446.58	367.46
446.77	339.38
446.95	365.12
447.14	386.19
447.32	451.72
447.51	442.36
447.69	383.85
447.88	416.62
448.06	500.87
448.25	393.21
448.43	393.21
448.62	414.27
448.80	395.55
448.99	470.45
449.17	465.77
449.36	411.93
449.54	456.40
449.73	353.42
449.91	428.32
450.10	341.72
450.28	458.74
450.46	486.83
450.65	407.25
450.83	475.13
451.02	409.59
451.20	425.98
451.39	386.19
451.57	402.57
451.76	386.19
451.94	390.87
452.13	388.53
452.31	395.55
452.49	397.89
452.68	418.96
452.86	456.40
453.05	409.59
453.23	451.72
453.42	318.31
453.60	407.25
453.78	379.17
453.97	402.57
454.15	381.51
454.34	397.89
454.52	451.72
454.70	449.38
454.89	395.55
455.07	353.42
455.26	397.89
455.44	433.00
455.62	360.44
455.81	470.45
455.99	400.23
456.17	416.62
456.36	447.04
456.54	456.40
456.73	454.06
456.91	386.19
457.09	339.38
457.28	407.25
457.46	440.02
457.64	470.45
457.83	433.00
458.01	379.17
458.19	404.91
458.38	444.70
458.56	449.38
458.74	376.83
458.93	341.72
459.11	400.23
459.29	367.46
459.48	454.06
459.66	472.79
459.84	449.38
460.03	461.09
460.21	418.96
460.39	430.66
460.57	376.83
460.76	411.93
460.94	421.30
461.12	433.00
461.31	510.24
461.49	369.80
461.67	437.68
461.85	365.12
462.04	414.27
462.22	802.80
462.40	428.32
462.59	491.51
462.77	353.42
462.95	435.34
463.13	456.40
463.32	430.66
463.50	423.64
463.68	376.83
463.86	372.15
464.05	414.27
464.23	418.96
464.41	456.40
464.59	444.70
464.78	411.93
464.96	458.74
465.14	454.06
465.32	484.49
465.50	390.87
465.69	423.64
465.87	390.87
466.05	393.21
466.23	386.19
466.41	411.93
466.60	477.47
466.78	468.11
466.96	379.17
467.14	404.91
467.32	496.19
467.51	358.10
467.69	435.34
467.87	386.19
468.05	416.62
468.23	397.89
468.41	496.19
468.60	484.49
468.78	411.93
468.96	440.02
469.14	393.21
469.32	320.65
469.50	341.72
469.69	393.21
469.87	447.04
470.05	430.66
470.23	423.64
470.41	386.19
470.59	367.46
470.77	425.98
470.95	393.21
471.14	411.93
471.32	315.97
471.50	414.27
471.68	395.55
471.86	386.19
472.04	386.19
472.22	454.06
472.40	421.30
472.58	374.49
472.77	425.98
472.95	440.02
473.13	395.55
473.31	369.80
473.49	491.51
473.67	423.64
473.85	454.06
474.03	411.93
474.21	414.27
474.39	440.02
474.57	402.57
474.75	379.17
474.93	458.74
475.12	376.83
475.30	421.30
475.48	376.83
475.66	407.25
475.84	433.00
476.02	374.49
476.20	400.23
476.38	409.59
476.56	461.09
476.74	421.30
476.92	407.25
477.10	388.53
477.28	348.74
477.46	402.57
477.64	383.85
477.82	381.51
478.00	440.02
478.18	397.89
478.36	395.55
478.54	418.96
478.72	414.27
478.90	411.93
479.08	346.40
479.26	367.46
479.44	379.17
479.62	402.57
479.80	416.62
479.98	381.51
480.16	381.51
480.34	414.27
480.52	425.98
480.70	425.98
480.88	416.62
481.06	414.27
481.24	397.89
481.41	428.32
481.59	437.68
481.77	433.00
481.95	416.62
482.13	454.06
482.31	393.21
482.49	407.25
482.67	454.06
482.85	416.62
483.03	449.38
483.21	411.93
483.39	418.96
483.57	517.26
483.74	461.09
483.92	437.68
484.10	447.04
484.28	454.06
484.46	409.59
484.64	442.36
484.82	507.90
485.00	418.96
485.18	348.74
485.35	444.70
485.53	383.85
485.71	503.22
485.89	428.32
486.07	383.85
486.25	519.60
486.43	372.15
486.61	425.98
486.78	421.30
486.96	367.46
487.14	390.87
487.32	360.44
487.50	390.87
487.68	437.68
487.85	421.30
488.03	365.12
488.21	477.47
488.39	383.85
488.57	369.80
488.75	365.12
488.92	503.22
489.10	346.40
489.28	374.49
489.46	404.91
489.64	437.68
489.81	362.78
489.99	416.62
490.17	367.46
490.35	433.00
490.53	416.62
490.70	355.76
490.88	468.11
491.06	414.27
491.24	451.72
491.41	451.72
491.59	465.77
491.77	404.91
491.95	416.62
492.13	484.49
492.30	454.06
492.48	409.59
492.66	388.53
492.84	383.85
493.01	402.57
493.19	433.00
493.37	463.43
493.54	393.21
493.72	365.12
493.90	372.15
494.08	423.64
494.25	397.89
494.43	397.89
494.61	416.62
494.79	402.57
494.96	447.04
495.14	421.30
495.32	374.49
495.49	360.44
495.67	425.98
495.85	365.12
496.02	425.98
496.20	386.19
496.38	407.25
496.55	430.66
496.73	362.78
496.91	461.09
497.09	475.13
497.26	423.64
497.44	341.72
497.62	435.34
497.79	397.89
497.97	409.59
498.14	461.09
498.32	444.70
498.50	397.89
498.67	414.27
498.85	433.00
499.03	355.76
499.20	423.64
499.38	447.04
499.56	390.87
499.73	369.80
499.91	428.32
500.08	458.74
500.26	367.46
500.44	449.38
500.61	433.00
500.79	444.70
500.97	421.30
501.14	402.57
501.32	458.74
501.49	374.49
501.67	414.27
501.84	372.15
502.02	362.78
502.20	470.45
502.37	458.74
502.55	395.55
502.72	414.27
502.90	414.27
503.07	468.11
503.25	407.25
503.43	386.19
503.60	484.49
503.78	517.26
503.95	346.40
504.13	482.15
504.30	404.91
504.48	433.00
504.65	390.87
504.83	465.77
505.01	386.19
505.18	390.87
505.36	388.53
505.53	397.89
505.71	376.83
505.88	386.19
506.06	365.12
506.23	381.51
506.41	372.15
506.58	449.38
506.76	416.62
506.93	304.27
507.11	395.55
507.28	416.62
507.46	397.89
507.63	390.87
507.81	379.17
507.98	470.45
508.16	442.36
508.33	444.70
508.50	433.00
508.68	428.32
508.85	430.66
509.03	379.17
509.20	484.49
509.38	416.62
509.55	465.77
509.73	437.68
509.90	425.98
510.08	437.68
510.25	423.64
510.42	418.96
510.60	416.62
510.77	423.64
510.95	390.87
511.12	456.40
511.30	468.11
511.47	337.04
511.64	435.34
511.82	388.53
511.99	428.32
512.17	379.17
512.34	449.38
512.51	409.59
512.69	355.76
512.86	449.38
513.04	447.04
513.21	425.98
513.38	430.66
513.56	381.51
513.73	416.62
513.90	440.02
514.08	393.21
514.25	376.83
514.43	468.11
514.60	374.49
514.77	458.74
514.95	418.96
515.12	376.83
515.29	337.04
515.47	339.38
515.64	447.04
515.81	477.47
515.99	475.13
516.16	393.21
516.33	433.00
516.51	414.27
516.68	383.85
516.85	416.62
517.03	451.72
517.20	358.10
517.37	414.27
517.54	400.23
517.72	444.70
517.89	365.12
518.06	421.30
518.24	454.06
518.41	491.51
518.58	341.72
518.75	372.15
518.93	376.83
519.10	376.83
519.27	430.66
519.45	402.57
519.62	397.89
519.79	437.68
519.96	388.53
520.14	437.68
520.31	433.00
520.48	409.59
520.65	411.93
520.83	397.89
521.00	428.32
521.17	428.32
521.34	383.85
521.52	440.02
521.69	372.15
521.86	433.00
522.03	510.24
522.20	528.96
522.38	386.19
522.55	428.32
522.72	465.77
522.89	428.32
523.07	416.62
523.24	444.70
523.41	428.32
523.58	435.34
523.75	430.66
523.92	388.53
524.10	442.36
524.27	418.96
524.44	400.23
524.61	409.59
524.78	428.32
524.96	395.55
525.13	421.30
525.30	332.36
525.47	449.38
525.64	369.80
525.81	437.68
525.98	503.22
526.16	482.15
526.33	400.23
526.50	365.12
526.67	404.91
526.84	348.74
527.01	341.72
527.18	409.59
527.36	365.12
527.53	372.15
527.70	507.90
527.87	414.27
528.04	444.70
528.21	402.57
528.38	451.72
528.55	430.66
528.72	430.66
528.89	423.64
529.07	390.87
529.24	397.89
529.41	376.83
529.58	416.62
529.75	362.78
529.92	404.91
530.09	451.72
530.26	428.32
530.43	358.10
530.60	383.85
530.77	407.25
530.94	355.76
531.11	442.36
531.28	444.70
531.46	369.80
531.63	437.68
531.80	465.77
531.97	390.87
532.14	472.79
532.31	360.44
532.48	461.09
532.65	435.34
532.82	372.15
532.99	383.85
533.16	374.49
533.33	393.21
533.50	393.21
533.67	367.46
533.84	353.42
534.01	407.25
534.18	416.62
534.35	425.98
534.52	393.21
534.69	444.70
534.86	421.30
535.03	411.93
535.20	423.64
535.37	402.57
535.54	465.77
535.71	418.96
535.88	390.87
536.05	433.00
536.22	451.72
536.38	376.83
536.55	397.89
536.72	458.74
536.89	362.78
537.06	456.40
537.23	381.51
537.40	365.12
537.57	421.30
537.74	463.43
537.91	351.08
538.08	365.12
538.25	433.00
538.42	337.04
538.59	388.53
538.75	390.87
538.92	465.77
539.09	393.21
539.26	386.19
539.43	430.66
539.60	463.43
539.77	449.38
539.94	409.59
540.11	477.47
540.28	430.66
540.44	493.85
540.61	411.93
540.78	407.25
540.95	505.56
541.12	475.13
541.29	388.53
541.46	451.72
541.62	475.13
541.79	475.13
541.96	330.02
542.13	355.76
542.30	425.98
542.47	402.57
542.63	449.38
542.80	416.62
542.97	341.72
543.14	404.91
543.31	430.66
543.48	444.70
543.64	379.17
543.81	433.00
543.98	440.02
544.15	388.53
544.32	444.70
544.48	425.98
544.65	397.89
544.82	367.46
544.99	454.06
545.16	402.57
545.32	425.98
545.49	444.70
545.66	433.00
545.83	374.49
546.00	388.53
546.16	330.02
546.33	428.32
546.50	440.02
546.67	496.19
546.83	421.30
547.00	353.42
547.17	435.34
547.34	543.00
547.50	416.62
547.67	376.83
547.84	411.93
548.00	395.55
548.17	407.25
548.34	411.93
548.51	440.02
548.67	418.96
548.84	393.21
549.01	402.57
549.18	402.57
549.34	451.72
549.51	444.70
549.68	360.44
549.84	428.32
550.01	365.12
550.18	390.87
550.34	503.22
550.51	421.30
550.68	484.49
550.84	376.83
551.01	414.27
551.18	435.34
551.34	411.93
551.51	400.23
551.68	451.72
551.84	372.15
552.01	458.74
552.18	414.27
552.34	428.32
552.51	348.74
552.68	404.91
552.84	404.91
553.01	407.25
553.18	437.68
553.34	411.93
553.51	379.17
553.67	402.57
553.84	414.27
554.01	393.21
554.17	414.27
554.34	386.19
554.51	386.19
554.67	461.09
554.84	383.85
555.00	400.23
555.17	421.30
555.33	386.19
555.50	449.38
555.67	479.81
555.83	379.17
556.00	435.34
556.16	514.92
556.33	456.40
556.50	407.25
556.66	433.00
556.83	425.98
556.99	454.06
557.16	353.42
557.32	372.15
557.49	330.02
557.65	430.66
557.82	372.15
557.98	433.00
558.15	379.17
558.32	367.46
558.48	383.85
558.65	365.12
558.81	425.98
558.98	465.77
559.14	505.56
559.31	418.96
559.47	451.72
559.64	367.46
559.80	367.46
559.97	411.93
560.13	381.51
560.30	381.51
560.46	393.21
560.63	407.25
560.79	400.23
560.96	489.17
561.12	430.66
561.29	409.59
561.45	451.72
561.61	404.91
561.78	535.98
561.94	407.25
562.11	475.13
562.27	416.62
562.44	507.90
562.60	418.96
562.77	444.70
562.93	461.09
563.10	376.83
563.26	430.66
563.42	428.32
563.59	421.30
563.75	390.87
563.92	433.00
564.08	386.19
564.24	465.77
564.41	456.40
564.57	393.21
564.74	358.10
564.90	421.30
565.07	393.21
565.23	470.45
565.39	482.15
565.56	465.77
565.72	381.51
565.88	437.68
566.05	458.74
566.21	381.51
566.38	451.72
566.54	437.68
566.70	400.23
566.87	407.25
567.03	416.62
567.19	479.81
567.36	484.49
567.52	447.04
567.68	451.72
567.85	407.25
568.01	409.59
568.17	383.85
568.34	458.74
568.50	425.98
568.66	360.44
568.83	496.19
568.99	437.68
569.15	442.36
569.32	454.06
569.48	411.93
569.64	372.15
569.81	362.78
569.97	428.32
570.13	355.76
570.30	416.62
570.46	421.30
570.62	447.04
570.78	458.74
570.95	407.25
571.11	388.53
571.27	447.04
571.43	393.21
571.60	430.66
571.76	376.83
571.92	482.15
572.09	404.91
572.25	397.89
572.41	395.55
572.57	393.21
572.74	449.38
572.90	386.19
573.06	479.81
573.22	423.64
573.38	458.74
573.55	416.62
573.71	449.38
573.87	486.83
574.03	411.93
574.20	456.40
574.36	449.38
574.52	414.27
574.68	430.66
574.84	409.59
575.01	451.72
575.17	468.11
575.33	374.49
575.49	404.91
575.65	442.36
575.82	414.27
575.98	430.66
576.14	411.93
576.30	435.34
576.46	451.72
576.62	421.30
576.79	407.25
576.95	442.36
577.11	444.70
577.27	358.10
577.43	425.98
577.59	376.83
577.75	409.59
577.92	414.27
578.08	416.62
578.24	433.00
578.40	519.60
578.56	367.46
578.72	416.62
578.88	433.00
579.04	461.09
579.21	433.00
579.37	430.66
579.53	486.83
579.69	482.15
579.85	421.30
580.01	372.15
580.17	491.51
580.33	416.62
580.49	402.57
580.65	500.87
580.82	360.44
580.98	463.43
581.14	421.30
581.30	442.36
581.46	395.55
581.62	451.72
581.78	334.70
581.94	440.02
582.10	376.83
582.26	381.51
582.42	400.23
582.58	409.59
582.74	397.89
582.90	376.83
583.06	442.36
583.22	414.27
583.38	435.34
583.54	416.62
583.70	421.30
583.86	388.53
584.02	400.23
584.18	456.40
584.34	397.89
584.50	442.36
584.66	496.19
584.82	416.62
584.98	442.36
585.14	425.98
585.30	444.70
585.46	334.70
585.62	430.66
585.78	430.66
585.94	456.40
586.10	472.79
586.26	404.91
586.42	512.58
586.58	402.57
586.74	468.11
586.90	418.96
587.06	397.89
587.22	449.38
587.38	374.49
587.54	348.74
587.70	395.55
587.86	425.98
588.02	400.23
588.18	428.32
588.34	472.79
588.49	454.06
588.65	442.36
588.81	449.38
588.97	425.98
589.13	400.23
589.29	425.98
589.45	458.74
589.61	388.53
589.77	433.00
589.93	442.36
590.08	444.70
590.24	444.70
590.40	425.98
590.56	458.74
590.72	416.62
590.88	355.76
591.04	423.64
591.20	388.53
591.35	479.81
591.51	416.62
591.67	440.02
591.83	440.02
591.99	388.53
592.15	407.25
592.31	404.91
592.46	407.25
592.62	503.22
592.78	414.27
592.94	414.27
593.10	407.25
593.26	411.93
593.41	498.53
593.57	437.68
593.73	428.32
593.89	440.02
594.05	397.89
594.20	444.70
594.36	423.64
594.52	423.64
594.68	376.83
594.84	440.02
594.99	456.40
595.15	383.85
595.31	447.04
595.47	425.98
595.62	369.80
595.78	425.98
595.94	414.27
596.10	395.55
596.25	388.53
596.41	463.43
596.57	414.27
596.73	374.49
596.88	374.49
597.04	409.59
597.20	346.40
597.36	435.34
597.51	407.25
597.67	390.87
597.83	393.21
597.99	454.06
598.14	418.96
598.30	404.91
598.46	414.27
598.61	428.32
598.77	393.21
598.93	423.64
599.09	454.06
599.24	444.70
599.40	463.43
599.56	402.57
599.71	435.34
599.87	402.57
600.03	454.06
600.18	435.34
600.34	390.87
600.50	383.85
600.65	383.85
600.81	433.00
600.97	397.89
601.12	414.27
601.28	411.93
601.44	400.23
601.59	381.51
601.75	402.57
601.91	423.64
602.06	414.27
602.22	554.71
602.37	372.15
602.53	440.02
602.69	458.74
602.84	367.46
603.00	397.89
603.16	388.53
603.31	458.74
603.47	447.04
603.62	437.68
603.78	454.06
603.94	437.68
604.09	360.44
604.25	414.27
604.40	451.72
604.56	411.93
604.71	428.32
604.87	484.49
605.03	348.74
605.18	414.27
605.34	400.23
605.49	454.06
605.65	386.19
605.80	369.80
605.96	428.32
606.12	395.55
606.27	451.72
606.43	456.40
606.58	428.32
606.74	421.30
606.89	393.21
607.05	393.21
607.20	461.09
607.36	463.43
607.51	365.12
607.67	423.64
607.82	435.34
607.98	454.06
608.13	397.89
608.29	416.62
608.44	428.32
608.60	416.62
608.75	425.98
608.91	433.00
609.06	444.70
609.22	393.21
609.37	425.98
609.53	348.74
609.68	486.83
609.84	362.78
609.99	444.70
610.15	423.64
