SpectraSuite Data File
++++++++++++++++++++++++++++++++++++
Date: Fri Oct 25 12:11:14 EDT 2013
User: price-jones
Dark Spectrum Present: No
Reference Spectrum Present: No
Number of Sampled Component Spectra: 1
Spectrometers: USB2+H05261
Integration Time (usec): 100000 (USB2+H05261)
Spectra Averaged: 1 (USB2+H05261)
Boxcar Smoothing: 0 (USB2+H05261)
Correct for Electrical Dark: No (USB2+H05261)
Strobe/Lamp Enabled: No (USB2+H05261)
Correct for Detector Non-linearity: No (USB2+H05261)
Correct for Stray Light: No (USB2+H05261)
Number of Pixels in Processed Spectrum: 2048
>>>>>Begin Processed Spectral Data<<<<<
365.73	351.08
365.92	351.08
366.12	351.08
366.32	264.48
366.52	292.57
366.72	203.63
366.91	255.12
367.11	201.29
367.31	266.82
367.51	229.37
367.70	191.92
367.90	318.31
368.10	252.78
368.30	248.10
368.49	255.12
368.69	252.78
368.89	273.84
369.09	203.63
369.28	243.42
369.48	353.42
369.68	294.91
369.87	308.95
370.07	327.68
370.27	365.12
370.47	318.31
370.66	318.31
370.86	322.99
371.06	320.65
371.25	365.12
371.45	306.61
371.65	353.42
371.84	400.23
372.04	400.23
372.24	444.70
372.44	435.34
372.63	372.15
372.83	346.40
373.03	367.46
373.22	358.10
373.42	355.76
373.62	414.27
373.81	402.57
374.01	409.59
374.21	397.89
374.40	421.30
374.60	477.47
374.79	451.72
374.99	379.17
375.19	433.00
375.38	407.25
375.58	465.77
375.78	393.21
375.97	404.91
376.17	409.59
376.37	388.53
376.56	442.36
376.76	348.74
376.95	341.72
377.15	360.44
377.35	447.04
377.54	437.68
377.74	418.96
377.93	367.46
378.13	411.93
378.33	470.45
378.52	423.64
378.72	409.59
378.91	360.44
379.11	365.12
379.31	423.64
379.50	362.78
379.70	465.77
379.89	425.98
380.09	360.44
380.28	451.72
380.48	393.21
380.68	402.57
380.87	407.25
381.07	320.65
381.26	404.91
381.46	414.27
381.65	414.27
381.85	428.32
382.04	393.21
382.24	404.91
382.43	428.32
382.63	332.36
382.83	430.66
383.02	435.34
383.22	402.57
383.41	423.64
383.61	458.74
383.80	437.68
384.00	402.57
384.19	409.59
384.39	397.89
384.58	390.87
384.78	374.49
384.97	468.11
385.17	313.63
385.36	358.10
385.56	402.57
385.75	395.55
385.95	418.96
386.14	493.85
386.34	409.59
386.53	411.93
386.72	442.36
386.92	381.51
387.11	372.15
387.31	421.30
387.50	414.27
387.70	402.57
387.89	428.32
388.09	390.87
388.28	374.49
388.48	430.66
388.67	411.93
388.86	346.40
389.06	423.64
389.25	334.70
389.45	395.55
389.64	433.00
389.84	425.98
390.03	416.62
390.22	379.17
390.42	395.55
390.61	374.49
390.81	388.53
391.00	402.57
391.19	393.21
391.39	435.34
391.58	440.02
391.78	404.91
391.97	444.70
392.16	341.72
392.36	437.68
392.55	454.06
392.75	353.42
392.94	400.23
393.13	447.04
393.33	423.64
393.52	365.12
393.71	461.09
393.91	442.36
394.10	482.15
394.29	425.98
394.49	433.00
394.68	428.32
394.88	414.27
395.07	423.64
395.26	433.00
395.46	400.23
395.65	423.64
395.84	430.66
396.04	510.24
396.23	395.55
396.42	440.02
396.62	451.72
396.81	454.06
397.00	430.66
397.19	409.59
397.39	451.72
397.58	433.00
397.77	397.89
397.97	376.83
398.16	454.06
398.35	484.49
398.55	362.78
398.74	393.21
398.93	397.89
399.12	430.66
399.32	383.85
399.51	369.80
399.70	423.64
399.90	318.31
400.09	322.99
400.28	341.72
400.47	386.19
400.67	390.87
400.86	423.64
401.05	505.56
401.24	526.62
401.44	372.15
401.63	390.87
401.82	339.38
402.01	379.17
402.21	393.21
402.40	388.53
402.59	414.27
402.78	416.62
402.97	411.93
403.17	496.19
403.36	440.02
403.55	470.45
403.74	397.89
403.93	355.76
404.13	465.77
404.32	393.21
404.51	365.12
404.70	428.32
404.89	477.47
405.09	437.68
405.28	400.23
405.47	458.74
405.66	421.30
405.85	411.93
406.05	411.93
406.24	414.27
406.43	433.00
406.62	418.96
406.81	456.40
407.00	433.00
407.20	425.98
407.39	421.30
407.58	430.66
407.77	418.96
407.96	423.64
408.15	400.23
408.34	454.06
408.54	421.30
408.73	386.19
408.92	409.59
409.11	437.68
409.30	472.79
409.49	447.04
409.68	367.46
409.87	386.19
410.07	376.83
410.26	341.72
410.45	407.25
410.64	430.66
410.83	332.36
411.02	383.85
411.21	477.47
411.40	437.68
411.59	341.72
411.78	484.49
411.98	411.93
412.17	374.49
412.36	369.80
412.55	388.53
412.74	367.46
412.93	442.36
413.12	339.38
413.31	402.57
413.50	386.19
413.69	395.55
413.88	390.87
414.07	442.36
414.26	395.55
414.45	376.83
414.64	402.57
414.83	477.47
415.02	393.21
415.22	470.45
415.41	458.74
415.60	449.38
415.79	386.19
415.98	461.09
416.17	360.44
416.36	376.83
416.55	423.64
416.74	430.66
416.93	435.34
417.12	409.59
417.31	372.15
417.50	360.44
417.69	414.27
417.88	376.83
418.07	397.89
418.26	435.34
418.45	425.98
418.64	421.30
418.83	472.79
419.02	404.91
419.21	388.53
419.39	407.25
419.58	393.21
419.77	379.17
419.96	423.64
420.15	442.36
420.34	472.79
420.53	430.66
420.72	383.85
420.91	456.40
421.10	428.32
421.29	367.46
421.48	423.64
421.67	386.19
421.86	442.36
422.05	442.36
422.24	404.91
422.43	411.93
422.61	484.49
422.80	409.59
422.99	402.57
423.18	339.38
423.37	447.04
423.56	409.59
423.75	388.53
423.94	414.27
424.13	379.17
424.32	416.62
424.50	430.66
424.69	411.93
424.88	444.70
425.07	437.68
425.26	435.34
425.45	425.98
425.64	418.96
425.83	334.70
426.01	409.59
426.20	461.09
426.39	395.55
426.58	458.74
426.77	421.30
426.96	409.59
427.15	388.53
427.33	376.83
427.52	407.25
427.71	407.25
427.90	411.93
428.09	411.93
428.28	430.66
428.46	435.34
428.65	440.02
428.84	400.23
429.03	397.89
429.22	451.72
429.40	376.83
429.59	437.68
429.78	400.23
429.97	409.59
430.16	353.42
430.34	421.30
430.53	362.78
430.72	372.15
430.91	454.06
431.10	383.85
431.28	414.27
431.47	369.80
431.66	365.12
431.85	400.23
432.03	465.77
432.22	397.89
432.41	414.27
432.60	383.85
432.79	353.42
432.97	409.59
433.16	400.23
433.35	365.12
433.54	400.23
433.72	383.85
433.91	468.11
434.10	372.15
434.28	411.93
434.47	442.36
434.66	418.96
434.85	463.43
435.03	454.06
435.22	484.49
435.41	411.93
435.59	395.55
435.78	367.46
435.97	381.51
436.16	430.66
436.34	348.74
436.53	440.02
436.72	367.46
436.90	479.81
437.09	430.66
437.28	430.66
437.46	428.32
437.65	444.70
437.84	409.59
438.02	376.83
438.21	416.62
438.40	435.34
438.58	416.62
438.77	386.19
438.96	435.34
439.14	416.62
439.33	416.62
439.52	418.96
439.70	435.34
439.89	393.21
440.08	409.59
440.26	418.96
440.45	475.13
440.63	468.11
440.82	407.25
441.01	374.49
441.19	430.66
441.38	414.27
441.57	428.32
441.75	489.17
441.94	442.36
442.12	463.43
442.31	418.96
442.50	379.17
442.68	400.23
442.87	451.72
443.05	454.06
443.24	486.83
443.43	404.91
443.61	454.06
443.80	376.83
443.98	402.57
444.17	393.21
444.35	447.04
444.54	402.57
444.73	400.23
444.91	500.87
445.10	454.06
445.28	404.91
445.47	435.34
445.65	465.77
445.84	393.21
446.02	444.70
446.21	388.53
446.39	390.87
446.58	421.30
446.77	418.96
446.95	409.59
447.14	386.19
447.32	444.70
447.51	379.17
447.69	465.77
447.88	402.57
448.06	454.06
448.25	421.30
448.43	454.06
448.62	393.21
448.80	463.43
448.99	397.89
449.17	463.43
449.36	390.87
449.54	346.40
449.73	376.83
449.91	418.96
450.10	306.61
450.28	482.15
450.46	388.53
450.65	393.21
450.83	325.33
451.02	463.43
451.20	409.59
451.39	416.62
451.57	351.08
451.76	390.87
451.94	458.74
452.13	465.77
452.31	456.40
452.49	404.91
452.68	411.93
452.86	379.17
453.05	496.19
453.23	451.72
453.42	409.59
453.60	442.36
453.78	447.04
453.97	397.89
454.15	428.32
454.34	358.10
454.52	423.64
454.70	381.51
454.89	454.06
455.07	433.00
455.26	395.55
455.44	442.36
455.62	393.21
455.81	440.02
455.99	425.98
456.17	393.21
456.36	550.03
456.54	454.06
456.73	423.64
456.91	451.72
457.09	409.59
457.28	423.64
457.46	409.59
457.64	411.93
457.83	454.06
458.01	418.96
458.19	365.12
458.38	397.89
458.56	372.15
458.74	407.25
458.93	423.64
459.11	358.10
459.29	372.15
459.48	491.51
459.66	524.28
459.84	456.40
460.03	500.87
460.21	414.27
460.39	447.04
460.57	423.64
460.76	433.00
460.94	423.64
461.12	379.17
461.31	456.40
461.49	369.80
461.67	358.10
461.85	442.36
462.04	360.44
462.22	763.01
462.40	451.72
462.59	447.04
462.77	433.00
462.95	416.62
463.13	437.68
463.32	374.49
463.50	418.96
463.68	367.46
463.86	411.93
464.05	444.70
464.23	428.32
464.41	374.49
464.59	442.36
464.78	407.25
464.96	402.57
465.14	444.70
465.32	397.89
465.50	388.53
465.69	383.85
465.87	397.89
466.05	400.23
466.23	327.68
466.41	454.06
466.60	414.27
466.78	393.21
466.96	444.70
467.14	463.43
467.32	498.53
467.51	393.21
467.69	430.66
467.87	444.70
468.05	428.32
468.23	517.26
468.41	451.72
468.60	425.98
468.78	430.66
468.96	482.15
469.14	479.81
469.32	393.21
469.50	421.30
469.69	430.66
469.87	423.64
470.05	454.06
470.23	376.83
470.41	418.96
470.59	393.21
470.77	418.96
470.95	407.25
471.14	397.89
471.32	430.66
471.50	447.04
471.68	442.36
471.86	435.34
472.04	400.23
472.22	416.62
472.40	491.51
472.58	409.59
472.77	344.06
472.95	348.74
473.13	416.62
473.31	442.36
473.49	428.32
473.67	414.27
473.85	402.57
474.03	388.53
474.21	411.93
474.39	451.72
474.57	442.36
474.75	388.53
474.93	409.59
475.12	404.91
475.30	414.27
475.48	390.87
475.66	379.17
475.84	407.25
476.02	461.09
476.20	465.77
476.38	393.21
476.56	521.94
476.74	379.17
476.92	367.46
477.10	456.40
477.28	358.10
477.46	418.96
477.64	393.21
477.82	383.85
478.00	423.64
478.18	402.57
478.36	498.53
478.54	475.13
478.72	400.23
478.90	369.80
479.08	397.89
479.26	428.32
479.44	472.79
479.62	416.62
479.80	400.23
479.98	404.91
480.16	402.57
480.34	479.81
480.52	414.27
480.70	421.30
480.88	365.12
481.06	407.25
481.24	341.72
481.41	376.83
481.59	468.11
481.77	372.15
481.95	447.04
482.13	479.81
482.31	449.38
482.49	421.30
482.67	397.89
482.85	468.11
483.03	365.12
483.21	435.34
483.39	362.78
483.57	404.91
483.74	414.27
483.92	423.64
484.10	276.18
484.28	372.15
484.46	493.85
484.64	397.89
484.82	423.64
485.00	461.09
485.18	379.17
485.35	404.91
485.53	404.91
485.71	390.87
485.89	360.44
486.07	367.46
486.25	425.98
486.43	465.77
486.61	477.47
486.78	369.80
486.96	315.97
487.14	362.78
487.32	430.66
487.50	374.49
487.68	365.12
487.85	433.00
488.03	454.06
488.21	437.68
488.39	447.04
488.57	414.27
488.75	358.10
488.92	547.69
489.10	339.38
489.28	451.72
489.46	430.66
489.64	421.30
489.81	402.57
489.99	411.93
490.17	402.57
490.35	437.68
490.53	362.78
490.70	437.68
490.88	465.77
491.06	365.12
491.24	444.70
491.41	421.30
491.59	423.64
491.77	416.62
491.95	503.22
492.13	461.09
492.30	400.23
492.48	461.09
492.66	442.36
492.84	393.21
493.01	390.87
493.19	409.59
493.37	458.74
493.54	411.93
493.72	461.09
493.90	428.32
494.08	386.19
494.25	421.30
494.43	433.00
494.61	458.74
494.79	421.30
494.96	318.31
495.14	397.89
495.32	454.06
495.49	404.91
495.67	458.74
495.85	374.49
496.02	351.08
496.20	414.27
496.38	402.57
496.55	369.80
496.73	507.90
496.91	346.40
497.09	409.59
497.26	425.98
497.44	428.32
497.62	423.64
497.79	430.66
497.97	393.21
498.14	390.87
498.32	454.06
498.50	414.27
498.67	456.40
498.85	468.11
499.03	486.83
499.20	425.98
499.38	400.23
499.56	444.70
499.73	395.55
499.91	442.36
500.08	421.30
500.26	411.93
500.44	416.62
500.61	423.64
500.79	433.00
500.97	458.74
501.14	498.53
501.32	458.74
501.49	444.70
501.67	404.91
501.84	451.72
502.02	447.04
502.20	465.77
502.37	381.51
502.55	407.25
502.72	351.08
502.90	435.34
503.07	428.32
503.25	379.17
503.43	390.87
503.60	456.40
503.78	428.32
503.95	390.87
504.13	404.91
504.30	409.59
504.48	414.27
504.65	463.43
504.83	423.64
505.01	416.62
505.18	414.27
505.36	402.57
505.53	397.89
505.71	393.21
505.88	397.89
506.06	435.34
506.23	447.04
506.41	390.87
506.58	414.27
506.76	433.00
506.93	430.66
507.11	416.62
507.28	468.11
507.46	386.19
507.63	400.23
507.81	386.19
507.98	416.62
508.16	449.38
508.33	411.93
508.50	444.70
508.68	353.42
508.85	360.44
509.03	418.96
509.20	430.66
509.38	381.51
509.55	407.25
509.73	451.72
509.90	428.32
510.08	477.47
510.25	442.36
510.42	376.83
510.60	472.79
510.77	414.27
510.95	484.49
511.12	425.98
511.30	414.27
511.47	367.46
511.64	435.34
511.82	444.70
511.99	430.66
512.17	353.42
512.34	365.12
512.51	376.83
512.69	435.34
512.86	402.57
513.04	411.93
513.21	395.55
513.38	407.25
513.56	440.02
513.73	358.10
513.90	416.62
514.08	425.98
514.25	395.55
514.43	433.00
514.60	358.10
514.77	390.87
514.95	428.32
515.12	400.23
515.29	430.66
515.47	409.59
515.64	353.42
515.81	404.91
515.99	458.74
516.16	423.64
516.33	510.24
516.51	437.68
516.68	395.55
516.85	484.49
517.03	433.00
517.20	376.83
517.37	409.59
517.54	440.02
517.72	416.62
517.89	409.59
518.06	451.72
518.24	435.34
518.41	409.59
518.58	383.85
518.75	407.25
518.93	381.51
519.10	400.23
519.27	409.59
519.45	425.98
519.62	402.57
519.79	402.57
519.96	360.44
520.14	411.93
520.31	404.91
520.48	376.83
520.65	444.70
520.83	416.62
521.00	482.15
521.17	437.68
521.34	416.62
521.52	444.70
521.69	418.96
521.86	400.23
522.03	402.57
522.20	479.81
522.38	411.93
522.55	393.21
522.72	411.93
522.89	393.21
523.07	444.70
523.24	383.85
523.41	402.57
523.58	435.34
523.75	451.72
523.92	369.80
524.10	465.77
524.27	374.49
524.44	341.72
524.61	433.00
524.78	433.00
524.96	456.40
525.13	505.56
525.30	500.87
525.47	395.55
525.64	435.34
525.81	400.23
525.98	423.64
526.16	444.70
526.33	351.08
526.50	433.00
526.67	325.33
526.84	341.72
527.01	449.38
527.18	400.23
527.36	428.32
527.53	358.10
527.70	404.91
527.87	395.55
528.04	496.19
528.21	386.19
528.38	400.23
528.55	381.51
528.72	451.72
528.89	435.34
529.07	404.91
529.24	465.77
529.41	477.47
529.58	510.24
529.75	416.62
529.92	355.76
530.09	390.87
530.26	470.45
530.43	430.66
530.60	411.93
530.77	397.89
530.94	456.40
531.11	479.81
531.28	425.98
531.46	430.66
531.63	444.70
531.80	374.49
531.97	411.93
532.14	440.02
532.31	442.36
532.48	383.85
532.65	414.27
532.82	421.30
532.99	435.34
533.16	397.89
533.33	355.76
533.50	456.40
533.67	395.55
533.84	484.49
534.01	433.00
534.18	440.02
534.35	484.49
534.52	402.57
534.69	449.38
534.86	442.36
535.03	430.66
535.20	423.64
535.37	440.02
535.54	383.85
535.71	327.68
535.88	421.30
536.05	407.25
536.22	404.91
536.38	395.55
536.55	414.27
536.72	470.45
536.89	463.43
537.06	437.68
537.23	416.62
537.40	428.32
537.57	393.21
537.74	400.23
537.91	355.76
538.08	400.23
538.25	472.79
538.42	458.74
538.59	358.10
538.75	381.51
538.92	379.17
539.09	435.34
539.26	447.04
539.43	468.11
539.60	430.66
539.77	447.04
539.94	477.47
540.11	416.62
540.28	465.77
540.44	470.45
540.61	423.64
540.78	402.57
540.95	381.51
541.12	454.06
541.29	388.53
541.46	454.06
541.62	435.34
541.79	416.62
541.96	440.02
542.13	390.87
542.30	430.66
542.47	395.55
542.63	418.96
542.80	461.09
542.97	449.38
543.14	395.55
543.31	381.51
543.48	435.34
543.64	454.06
543.81	379.17
543.98	379.17
544.15	435.34
544.32	444.70
544.48	430.66
544.65	379.17
544.82	404.91
544.99	353.42
545.16	416.62
545.32	423.64
545.49	472.79
545.66	442.36
545.83	447.04
546.00	461.09
546.16	416.62
546.33	386.19
546.50	388.53
546.67	449.38
546.83	493.85
547.00	374.49
547.17	367.46
547.34	353.42
547.50	390.87
547.67	425.98
547.84	430.66
548.00	390.87
548.17	388.53
548.34	369.80
548.51	435.34
548.67	447.04
548.84	421.30
549.01	465.77
549.18	479.81
549.34	395.55
549.51	379.17
549.68	451.72
549.84	430.66
550.01	402.57
550.18	449.38
550.34	451.72
550.51	437.68
550.68	416.62
550.84	353.42
551.01	472.79
551.18	379.17
551.34	416.62
551.51	475.13
551.68	447.04
551.84	472.79
552.01	444.70
552.18	402.57
552.34	437.68
552.51	404.91
552.68	411.93
552.84	393.21
553.01	379.17
553.18	402.57
553.34	414.27
553.51	425.98
553.67	421.30
553.84	381.51
554.01	470.45
554.17	435.34
554.34	456.40
554.51	404.91
554.67	463.43
554.84	433.00
555.00	400.23
555.17	428.32
555.33	442.36
555.50	388.53
555.67	465.77
555.83	402.57
556.00	416.62
556.16	585.13
556.33	425.98
556.50	376.83
556.66	411.93
556.83	346.40
556.99	397.89
557.16	397.89
557.32	388.53
557.49	374.49
557.65	386.19
557.82	456.40
557.98	397.89
558.15	414.27
558.32	423.64
558.48	411.93
558.65	362.78
558.81	376.83
558.98	379.17
559.14	390.87
559.31	407.25
559.47	425.98
559.64	423.64
559.80	402.57
559.97	416.62
560.13	425.98
560.30	482.15
560.46	421.30
560.63	451.72
560.79	411.93
560.96	386.19
561.12	442.36
561.29	386.19
561.45	390.87
561.61	409.59
561.78	447.04
561.94	442.36
562.11	397.89
562.27	379.17
562.44	360.44
562.60	409.59
562.77	402.57
562.93	484.49
563.10	440.02
563.26	461.09
563.42	437.68
563.59	360.44
563.75	397.89
563.92	437.68
564.08	425.98
564.24	428.32
564.41	500.87
564.57	407.25
564.74	423.64
564.90	463.43
565.07	348.74
565.23	381.51
565.39	404.91
565.56	440.02
565.72	414.27
565.88	330.02
566.05	390.87
566.21	402.57
566.38	435.34
566.54	449.38
566.70	447.04
566.87	346.40
567.03	383.85
567.19	330.02
567.36	475.13
567.52	341.72
567.68	421.30
567.85	430.66
568.01	468.11
568.17	433.00
568.34	400.23
568.50	421.30
568.66	409.59
568.83	386.19
568.99	428.32
569.15	416.62
569.32	468.11
569.48	447.04
569.64	423.64
569.81	447.04
569.97	379.17
570.13	409.59
570.30	458.74
570.46	416.62
570.62	456.40
570.78	472.79
570.95	402.57
571.11	437.68
571.27	428.32
571.43	437.68
571.60	449.38
571.76	395.55
571.92	458.74
572.09	402.57
572.25	449.38
572.41	418.96
572.57	395.55
572.74	395.55
572.90	465.77
573.06	486.83
573.22	404.91
573.38	409.59
573.55	456.40
573.71	458.74
573.87	430.66
574.03	402.57
574.20	430.66
574.36	409.59
574.52	440.02
574.68	365.12
574.84	451.72
575.01	411.93
575.17	465.77
575.33	451.72
575.49	444.70
575.65	489.17
575.82	510.24
575.98	503.22
576.14	458.74
576.30	421.30
576.46	423.64
576.62	400.23
576.79	454.06
576.95	435.34
577.11	414.27
577.27	449.38
577.43	388.53
577.59	463.43
577.75	458.74
577.92	393.21
578.08	437.68
578.24	440.02
578.40	425.98
578.56	493.85
578.72	421.30
578.88	367.46
579.04	367.46
579.21	407.25
579.37	407.25
579.53	332.36
579.69	451.72
579.85	430.66
580.01	484.49
580.17	465.77
580.33	416.62
580.49	381.51
580.65	428.32
580.82	463.43
580.98	463.43
581.14	409.59
581.30	479.81
581.46	393.21
581.62	400.23
581.78	418.96
581.94	386.19
582.10	320.65
582.26	430.66
582.42	421.30
582.58	386.19
582.74	435.34
582.90	461.09
583.06	381.51
583.22	442.36
583.38	374.49
583.54	421.30
583.70	463.43
583.86	421.30
584.02	414.27
584.18	428.32
584.34	372.15
584.50	365.12
584.66	374.49
584.82	444.70
584.98	433.00
585.14	404.91
585.30	491.51
585.46	404.91
585.62	325.33
585.78	407.25
585.94	374.49
586.10	395.55
586.26	416.62
586.42	454.06
586.58	430.66
586.74	383.85
586.90	416.62
587.06	477.47
587.22	428.32
587.38	482.15
587.54	407.25
587.70	470.45
587.86	475.13
588.02	447.04
588.18	447.04
588.34	444.70
588.49	341.72
588.65	388.53
588.81	404.91
588.97	407.25
589.13	451.72
589.29	447.04
589.45	414.27
589.61	425.98
589.77	463.43
589.93	379.17
590.08	435.34
590.24	444.70
590.40	437.68
590.56	397.89
590.72	433.00
590.88	454.06
591.04	362.78
591.20	407.25
591.35	383.85
591.51	463.43
591.67	390.87
591.83	393.21
591.99	407.25
592.15	404.91
592.31	418.96
592.46	393.21
592.62	451.72
592.78	437.68
592.94	393.21
593.10	411.93
593.26	425.98
593.41	421.30
593.57	444.70
593.73	409.59
593.89	454.06
594.05	456.40
594.20	447.04
594.36	381.51
594.52	465.77
594.68	369.80
594.84	430.66
594.99	454.06
595.15	409.59
595.31	428.32
595.47	404.91
595.62	402.57
595.78	472.79
595.94	418.96
596.10	393.21
596.25	414.27
596.41	404.91
596.57	407.25
596.73	435.34
596.88	388.53
597.04	379.17
597.20	423.64
597.36	479.81
597.51	442.36
597.67	430.66
597.83	383.85
597.99	428.32
598.14	418.96
598.30	388.53
598.46	423.64
598.61	423.64
598.77	491.51
598.93	454.06
599.09	390.87
599.24	372.15
599.40	428.32
599.56	444.70
599.71	498.53
599.87	451.72
600.03	409.59
600.18	379.17
600.34	486.83
600.50	337.04
600.65	435.34
600.81	381.51
600.97	388.53
601.12	400.23
601.28	472.79
601.44	428.32
601.59	421.30
601.75	365.12
601.91	430.66
602.06	472.79
602.22	514.92
602.37	411.93
602.53	461.09
602.69	458.74
602.84	461.09
603.00	449.38
603.16	470.45
603.31	393.21
603.47	416.62
603.62	425.98
603.78	458.74
603.94	468.11
604.09	381.51
604.25	365.12
604.40	346.40
604.56	407.25
604.71	322.99
604.87	395.55
605.03	425.98
605.18	458.74
605.34	444.70
605.49	337.04
605.65	390.87
605.80	379.17
605.96	425.98
606.12	414.27
606.27	409.59
606.43	444.70
606.58	458.74
606.74	468.11
606.89	475.13
607.05	418.96
607.20	470.45
607.36	381.51
607.51	390.87
607.67	362.78
607.82	482.15
607.98	430.66
608.13	421.30
608.29	433.00
608.44	425.98
608.60	379.17
608.75	461.09
608.91	496.19
609.06	407.25
609.22	421.30
609.37	386.19
609.53	411.93
609.68	358.10
609.84	454.06
609.99	458.74
610.15	411.93
