SpectraSuite Data File
++++++++++++++++++++++++++++++++++++
Date: Fri Oct 25 12:10:48 EDT 2013
User: price-jones
Dark Spectrum Present: No
Reference Spectrum Present: No
Number of Sampled Component Spectra: 1
Spectrometers: USB2+H05261
Integration Time (usec): 100000 (USB2+H05261)
Spectra Averaged: 1 (USB2+H05261)
Boxcar Smoothing: 0 (USB2+H05261)
Correct for Electrical Dark: No (USB2+H05261)
Strobe/Lamp Enabled: No (USB2+H05261)
Correct for Detector Non-linearity: No (USB2+H05261)
Correct for Stray Light: No (USB2+H05261)
Number of Pixels in Processed Spectrum: 2048
>>>>>Begin Processed Spectral Data<<<<<
365.73	327.68
365.92	327.68
366.12	327.68
366.32	257.46
366.52	255.12
366.72	297.25
366.91	234.05
367.11	241.08
367.31	257.46
367.51	243.42
367.70	269.16
367.90	234.05
368.10	220.01
368.30	266.82
368.49	255.12
368.69	264.48
368.89	236.39
369.09	285.55
369.28	234.05
369.48	236.39
369.68	287.89
369.87	409.59
370.07	241.08
370.27	334.70
370.47	283.20
370.66	360.44
370.86	330.02
371.06	386.19
371.25	339.38
371.45	369.80
371.65	351.08
371.84	423.64
372.04	397.89
372.24	470.45
372.44	388.53
372.63	430.66
372.83	360.44
373.03	379.17
373.22	358.10
373.42	362.78
373.62	416.62
373.81	341.72
374.01	472.79
374.21	472.79
374.40	442.36
374.60	442.36
374.79	430.66
374.99	418.96
375.19	465.77
375.38	428.32
375.58	440.02
375.78	397.89
375.97	388.53
376.17	458.74
376.37	514.92
376.56	421.30
376.76	425.98
376.95	393.21
377.15	402.57
377.35	451.72
377.54	381.51
377.74	395.55
377.93	444.70
378.13	393.21
378.33	437.68
378.52	447.04
378.72	418.96
378.91	493.85
379.11	425.98
379.31	461.09
379.50	376.83
379.70	433.00
379.89	454.06
380.09	428.32
380.28	379.17
380.48	440.02
380.68	447.04
380.87	472.79
381.07	458.74
381.26	374.49
381.46	416.62
381.65	390.87
381.85	386.19
382.04	456.40
382.24	386.19
382.43	402.57
382.63	404.91
382.83	414.27
383.02	421.30
383.22	437.68
383.41	449.38
383.61	458.74
383.80	451.72
384.00	418.96
384.19	339.38
384.39	360.44
384.58	437.68
384.78	454.06
384.97	451.72
385.17	386.19
385.36	337.04
385.56	355.76
385.75	325.33
385.95	348.74
386.14	425.98
386.34	409.59
386.53	407.25
386.72	362.78
386.92	531.30
387.11	475.13
387.31	393.21
387.50	402.57
387.70	458.74
387.89	440.02
388.09	360.44
388.28	397.89
388.48	440.02
388.67	430.66
388.86	468.11
389.06	400.23
389.25	416.62
389.45	386.19
389.64	376.83
389.84	435.34
390.03	381.51
390.22	381.51
390.42	456.40
390.61	330.02
390.81	320.65
391.00	437.68
391.19	428.32
391.39	390.87
391.58	444.70
391.78	416.62
391.97	425.98
392.16	458.74
392.36	367.46
392.55	423.64
392.75	376.83
392.94	416.62
393.13	458.74
393.33	407.25
393.52	346.40
393.71	458.74
393.91	472.79
394.10	374.49
394.29	416.62
394.49	440.02
394.68	390.87
394.88	421.30
395.07	461.09
395.26	418.96
395.46	383.85
395.65	444.70
395.84	372.15
396.04	442.36
396.23	425.98
396.42	344.06
396.62	376.83
396.81	400.23
397.00	524.28
397.19	510.24
397.39	423.64
397.58	444.70
397.77	369.80
397.97	372.15
398.16	325.33
398.35	379.17
398.55	402.57
398.74	402.57
398.93	386.19
399.12	358.10
399.32	411.93
399.51	425.98
399.70	337.04
399.90	400.23
400.09	400.23
400.28	449.38
400.47	451.72
400.67	486.83
400.86	423.64
401.05	411.93
401.24	381.51
401.44	334.70
401.63	395.55
401.82	402.57
402.01	411.93
402.21	372.15
402.40	456.40
402.59	388.53
402.78	475.13
402.97	383.85
403.17	404.91
403.36	435.34
403.55	334.70
403.74	390.87
403.93	393.21
404.13	444.70
404.32	416.62
404.51	428.32
404.70	421.30
404.89	397.89
405.09	416.62
405.28	409.59
405.47	440.02
405.66	451.72
405.85	383.85
406.05	411.93
406.24	461.09
406.43	470.45
406.62	369.80
406.81	496.19
407.00	468.11
407.20	374.49
407.39	397.89
407.58	472.79
407.77	482.15
407.96	411.93
408.15	428.32
408.34	425.98
408.54	353.42
408.73	510.24
408.92	407.25
409.11	435.34
409.30	397.89
409.49	397.89
409.68	407.25
409.87	386.19
410.07	430.66
410.26	402.57
410.45	402.57
410.64	498.53
410.83	418.96
411.02	423.64
411.21	411.93
411.40	421.30
411.59	348.74
411.78	444.70
411.98	472.79
412.17	458.74
412.36	402.57
412.55	376.83
412.74	358.10
412.93	442.36
413.12	367.46
413.31	369.80
413.50	355.76
413.69	407.25
413.88	383.85
414.07	458.74
414.26	386.19
414.45	449.38
414.64	388.53
414.83	454.06
415.02	374.49
415.22	390.87
415.41	421.30
415.60	428.32
415.79	367.46
415.98	430.66
416.17	498.53
416.36	411.93
416.55	411.93
416.74	437.68
416.93	447.04
417.12	407.25
417.31	369.80
417.50	395.55
417.69	414.27
417.88	489.17
418.07	386.19
418.26	440.02
418.45	437.68
418.64	395.55
418.83	437.68
419.02	423.64
419.21	374.49
419.39	421.30
419.58	367.46
419.77	386.19
419.96	416.62
420.15	512.58
420.34	430.66
420.53	404.91
420.72	440.02
420.91	449.38
421.10	346.40
421.29	454.06
421.48	428.32
421.67	379.17
421.86	395.55
422.05	411.93
422.24	344.06
422.43	341.72
422.61	320.65
422.80	376.83
422.99	437.68
423.18	407.25
423.37	461.09
423.56	372.15
423.75	362.78
423.94	372.15
424.13	414.27
424.32	456.40
424.50	423.64
424.69	395.55
424.88	475.13
425.07	374.49
425.26	367.46
425.45	484.49
425.64	402.57
425.83	397.89
426.01	393.21
426.20	367.46
426.39	470.45
426.58	379.17
426.77	402.57
426.96	503.22
427.15	414.27
427.33	390.87
427.52	388.53
427.71	388.53
427.90	437.68
428.09	465.77
428.28	416.62
428.46	456.40
428.65	440.02
428.84	416.62
429.03	395.55
429.22	444.70
429.40	409.59
429.59	414.27
429.78	411.93
429.97	393.21
430.16	433.00
430.34	407.25
430.53	444.70
430.72	437.68
430.91	402.57
431.10	374.49
431.28	388.53
431.47	421.30
431.66	376.83
431.85	430.66
432.03	414.27
432.22	425.98
432.41	430.66
432.60	456.40
432.79	283.20
432.97	358.10
433.16	423.64
433.35	414.27
433.54	376.83
433.72	486.83
433.91	383.85
434.10	383.85
434.28	404.91
434.47	365.12
434.66	409.59
434.85	400.23
435.03	372.15
435.22	472.79
435.41	486.83
435.59	458.74
435.78	402.57
435.97	407.25
436.16	461.09
436.34	411.93
436.53	365.12
436.72	465.77
436.90	379.17
437.09	411.93
437.28	486.83
437.46	505.56
437.65	390.87
437.84	407.25
438.02	386.19
438.21	482.15
438.40	447.04
438.58	334.70
438.77	390.87
438.96	425.98
439.14	353.42
439.33	428.32
439.52	475.13
439.70	381.51
439.89	414.27
440.08	428.32
440.26	463.43
440.45	475.13
440.63	402.57
440.82	416.62
441.01	365.12
441.19	414.27
441.38	447.04
441.57	407.25
441.75	458.74
441.94	411.93
442.12	416.62
442.31	447.04
442.50	383.85
442.68	374.49
442.87	409.59
443.05	355.76
443.24	425.98
443.43	507.90
443.61	388.53
443.80	428.32
443.98	440.02
444.17	393.21
444.35	393.21
444.54	390.87
444.73	418.96
444.91	503.22
445.10	428.32
445.28	355.76
445.47	402.57
445.65	383.85
445.84	353.42
446.02	393.21
446.21	402.57
446.39	433.00
446.58	465.77
446.77	355.76
446.95	390.87
447.14	397.89
447.32	423.64
447.51	451.72
447.69	411.93
447.88	433.00
448.06	468.11
448.25	369.80
448.43	421.30
448.62	397.89
448.80	411.93
448.99	425.98
449.17	425.98
449.36	489.17
449.54	400.23
449.73	430.66
449.91	437.68
450.10	369.80
450.28	458.74
450.46	486.83
450.65	440.02
450.83	479.81
451.02	402.57
451.20	402.57
451.39	416.62
451.57	379.17
451.76	400.23
451.94	393.21
452.13	440.02
452.31	440.02
452.49	435.34
452.68	430.66
452.86	451.72
453.05	484.49
453.23	411.93
453.42	477.47
453.60	461.09
453.78	360.44
453.97	341.72
454.15	351.08
454.34	390.87
454.52	383.85
454.70	381.51
454.89	433.00
455.07	425.98
455.26	407.25
455.44	414.27
455.62	449.38
455.81	353.42
455.99	433.00
456.17	367.46
456.36	379.17
456.54	468.11
456.73	362.78
456.91	414.27
457.09	416.62
457.28	381.51
457.46	400.23
457.64	383.85
457.83	383.85
458.01	435.34
458.19	456.40
458.38	344.06
458.56	444.70
458.74	409.59
458.93	437.68
459.11	414.27
459.29	421.30
459.48	433.00
459.66	416.62
459.84	397.89
460.03	444.70
460.21	435.34
460.39	433.00
460.57	383.85
460.76	421.30
460.94	390.87
461.12	372.15
461.31	449.38
461.49	395.55
461.67	442.36
461.85	390.87
462.04	451.72
462.22	753.65
462.40	444.70
462.59	491.51
462.77	416.62
462.95	400.23
463.13	475.13
463.32	411.93
463.50	402.57
463.68	423.64
463.86	456.40
464.05	449.38
464.23	505.56
464.41	407.25
464.59	400.23
464.78	360.44
464.96	397.89
465.14	374.49
465.32	407.25
465.50	414.27
465.69	489.17
465.87	395.55
466.05	456.40
466.23	386.19
466.41	440.02
466.60	395.55
466.78	395.55
466.96	386.19
467.14	425.98
467.32	402.57
467.51	428.32
467.69	341.72
467.87	472.79
468.05	484.49
468.23	517.26
468.41	414.27
468.60	402.57
468.78	526.62
468.96	421.30
469.14	411.93
469.32	465.77
469.50	402.57
469.69	456.40
469.87	360.44
470.05	400.23
470.23	435.34
470.41	416.62
470.59	402.57
470.77	407.25
470.95	369.80
471.14	379.17
471.32	386.19
471.50	407.25
471.68	402.57
471.86	402.57
472.04	402.57
472.22	449.38
472.40	381.51
472.58	430.66
472.77	449.38
472.95	442.36
473.13	435.34
473.31	402.57
473.49	376.83
473.67	404.91
473.85	425.98
474.03	416.62
474.21	461.09
474.39	440.02
474.57	423.64
474.75	386.19
474.93	358.10
475.12	449.38
475.30	397.89
475.48	442.36
475.66	388.53
475.84	479.81
476.02	369.80
476.20	386.19
476.38	425.98
476.56	437.68
476.74	402.57
476.92	477.47
477.10	421.30
477.28	332.36
477.46	414.27
477.64	482.15
477.82	428.32
478.00	416.62
478.18	416.62
478.36	411.93
478.54	407.25
478.72	379.17
478.90	367.46
479.08	430.66
479.26	421.30
479.44	409.59
479.62	440.02
479.80	369.80
479.98	416.62
480.16	418.96
480.34	437.68
480.52	386.19
480.70	447.04
480.88	428.32
481.06	414.27
481.24	395.55
481.41	437.68
481.59	433.00
481.77	407.25
481.95	358.10
482.13	447.04
482.31	416.62
482.49	397.89
482.67	367.46
482.85	440.02
483.03	414.27
483.21	365.12
483.39	425.98
483.57	454.06
483.74	479.81
483.92	390.87
484.10	404.91
484.28	334.70
484.46	463.43
484.64	416.62
484.82	444.70
485.00	416.62
485.18	449.38
485.35	444.70
485.53	465.77
485.71	461.09
485.89	367.46
486.07	292.57
486.25	479.81
486.43	390.87
486.61	425.98
486.78	512.58
486.96	383.85
487.14	423.64
487.32	383.85
487.50	407.25
487.68	437.68
487.85	348.74
488.03	428.32
488.21	397.89
488.39	379.17
488.57	414.27
488.75	388.53
488.92	472.79
489.10	365.12
489.28	428.32
489.46	383.85
489.64	468.11
489.81	421.30
489.99	411.93
490.17	449.38
490.35	421.30
490.53	376.83
490.70	411.93
490.88	430.66
491.06	386.19
491.24	465.77
491.41	440.02
491.59	472.79
491.77	400.23
491.95	435.34
492.13	496.19
492.30	470.45
492.48	454.06
492.66	400.23
492.84	416.62
493.01	468.11
493.19	444.70
493.37	477.47
493.54	433.00
493.72	355.76
493.90	411.93
494.08	407.25
494.25	407.25
494.43	395.55
494.61	372.15
494.79	404.91
494.96	395.55
495.14	491.51
495.32	376.83
495.49	383.85
495.67	416.62
495.85	428.32
496.02	402.57
496.20	407.25
496.38	456.40
496.55	418.96
496.73	390.87
496.91	430.66
497.09	407.25
497.26	425.98
497.44	444.70
497.62	395.55
497.79	395.55
497.97	475.13
498.14	393.21
498.32	430.66
498.50	425.98
498.67	433.00
498.85	425.98
499.03	383.85
499.20	430.66
499.38	383.85
499.56	325.33
499.73	442.36
499.91	472.79
500.08	416.62
500.26	421.30
500.44	414.27
500.61	362.78
500.79	390.87
500.97	425.98
501.14	379.17
501.32	393.21
501.49	440.02
501.67	447.04
501.84	503.22
502.02	355.76
502.20	390.87
502.37	451.72
502.55	383.85
502.72	425.98
502.90	402.57
503.07	294.91
503.25	423.64
503.43	414.27
503.60	444.70
503.78	475.13
503.95	379.17
504.13	393.21
504.30	465.77
504.48	402.57
504.65	442.36
504.83	416.62
505.01	355.76
505.18	449.38
505.36	465.77
505.53	418.96
505.71	409.59
505.88	428.32
506.06	414.27
506.23	379.17
506.41	404.91
506.58	397.89
506.76	421.30
506.93	433.00
507.11	421.30
507.28	332.36
507.46	358.10
507.63	411.93
507.81	397.89
507.98	404.91
508.16	404.91
508.33	404.91
508.50	400.23
508.68	458.74
508.85	416.62
509.03	447.04
509.20	390.87
509.38	390.87
509.55	421.30
509.73	418.96
509.90	407.25
510.08	395.55
510.25	409.59
510.42	430.66
510.60	372.15
510.77	379.17
510.95	489.17
511.12	397.89
511.30	433.00
511.47	437.68
511.64	482.15
511.82	348.74
511.99	442.36
512.17	430.66
512.34	428.32
512.51	369.80
512.69	444.70
512.86	411.93
513.04	414.27
513.21	390.87
513.38	341.72
513.56	353.42
513.73	430.66
513.90	404.91
514.08	409.59
514.25	414.27
514.43	414.27
514.60	381.51
514.77	435.34
514.95	390.87
515.12	465.77
515.29	449.38
515.47	430.66
515.64	407.25
515.81	320.65
515.99	397.89
516.16	400.23
516.33	540.66
516.51	393.21
516.68	374.49
516.85	468.11
517.03	411.93
517.20	367.46
517.37	435.34
517.54	402.57
517.72	425.98
517.89	418.96
518.06	444.70
518.24	512.58
518.41	421.30
518.58	423.64
518.75	421.30
518.93	369.80
519.10	397.89
519.27	440.02
519.45	397.89
519.62	404.91
519.79	437.68
519.96	397.89
520.14	365.12
520.31	437.68
520.48	472.79
520.65	325.33
520.83	433.00
521.00	404.91
521.17	423.64
521.34	491.51
521.52	353.42
521.69	381.51
521.86	362.78
522.03	348.74
522.20	414.27
522.38	421.30
522.55	376.83
522.72	393.21
522.89	486.83
523.07	461.09
523.24	365.12
523.41	386.19
523.58	404.91
523.75	449.38
523.92	456.40
524.10	493.85
524.27	409.59
524.44	433.00
524.61	418.96
524.78	428.32
524.96	423.64
525.13	390.87
525.30	414.27
525.47	376.83
525.64	404.91
525.81	411.93
525.98	348.74
526.16	423.64
526.33	447.04
526.50	386.19
526.67	365.12
526.84	468.11
527.01	372.15
527.18	402.57
527.36	404.91
527.53	374.49
527.70	430.66
527.87	397.89
528.04	451.72
528.21	383.85
528.38	428.32
528.55	456.40
528.72	407.25
528.89	393.21
529.07	416.62
529.24	423.64
529.41	505.56
529.58	491.51
529.75	444.70
529.92	409.59
530.09	393.21
530.26	477.47
530.43	423.64
530.60	435.34
530.77	407.25
530.94	423.64
531.11	369.80
531.28	362.78
531.46	470.45
531.63	397.89
531.80	407.25
531.97	360.44
532.14	388.53
532.31	423.64
532.48	425.98
532.65	449.38
532.82	486.83
532.99	500.87
533.16	444.70
533.33	454.06
533.50	379.17
533.67	444.70
533.84	484.49
534.01	447.04
534.18	425.98
534.35	365.12
534.52	388.53
534.69	442.36
534.86	409.59
535.03	332.36
535.20	351.08
535.37	465.77
535.54	421.30
535.71	414.27
535.88	407.25
536.05	461.09
536.22	397.89
536.38	388.53
536.55	395.55
536.72	456.40
536.89	383.85
537.06	365.12
537.23	369.80
537.40	463.43
537.57	397.89
537.74	463.43
537.91	423.64
538.08	440.02
538.25	402.57
538.42	407.25
538.59	362.78
538.75	418.96
538.92	388.53
539.09	376.83
539.26	482.15
539.43	491.51
539.60	379.17
539.77	482.15
539.94	407.25
540.11	425.98
540.28	430.66
540.44	510.24
540.61	465.77
540.78	337.04
540.95	348.74
541.12	489.17
541.29	447.04
541.46	409.59
541.62	425.98
541.79	388.53
541.96	365.12
542.13	444.70
542.30	421.30
542.47	428.32
542.63	318.31
542.80	393.21
542.97	423.64
543.14	505.56
543.31	440.02
543.48	465.77
543.64	444.70
543.81	468.11
543.98	397.89
544.15	306.61
544.32	400.23
544.48	482.15
544.65	411.93
544.82	470.45
544.99	376.83
545.16	374.49
545.32	425.98
545.49	458.74
545.66	379.17
545.83	411.93
546.00	435.34
546.16	442.36
546.33	468.11
546.50	381.51
546.67	367.46
546.83	449.38
547.00	465.77
547.17	425.98
547.34	367.46
547.50	444.70
547.67	428.32
547.84	395.55
548.00	440.02
548.17	444.70
548.34	437.68
548.51	486.83
548.67	444.70
548.84	372.15
549.01	428.32
549.18	355.76
549.34	449.38
549.51	444.70
549.68	449.38
549.84	484.49
550.01	318.31
550.18	440.02
550.34	496.19
550.51	393.21
550.68	423.64
550.84	430.66
551.01	383.85
551.18	339.38
551.34	437.68
551.51	425.98
551.68	379.17
551.84	393.21
552.01	395.55
552.18	351.08
552.34	470.45
552.51	395.55
552.68	425.98
552.84	418.96
553.01	402.57
553.18	428.32
553.34	367.46
553.51	437.68
553.67	437.68
553.84	428.32
554.01	437.68
554.17	397.89
554.34	341.72
554.51	365.12
554.67	451.72
554.84	404.91
555.00	358.10
555.17	423.64
555.33	470.45
555.50	390.87
555.67	376.83
555.83	423.64
556.00	402.57
556.16	517.26
556.33	425.98
556.50	421.30
556.66	418.96
556.83	458.74
556.99	484.49
557.16	444.70
557.32	435.34
557.49	416.62
557.65	421.30
557.82	381.51
557.98	454.06
558.15	447.04
558.32	428.32
558.48	407.25
558.65	477.47
558.81	425.98
558.98	337.04
559.14	454.06
559.31	423.64
559.47	435.34
559.64	390.87
559.80	461.09
559.97	369.80
560.13	451.72
560.30	458.74
560.46	386.19
560.63	440.02
560.79	425.98
560.96	489.17
561.12	388.53
561.29	388.53
561.45	376.83
561.61	435.34
561.78	491.51
561.94	430.66
562.11	397.89
562.27	381.51
562.44	367.46
562.60	440.02
562.77	369.80
562.93	538.32
563.10	409.59
563.26	400.23
563.42	449.38
563.59	465.77
563.75	477.47
563.92	433.00
564.08	353.42
564.24	397.89
564.41	475.13
564.57	390.87
564.74	425.98
564.90	395.55
565.07	451.72
565.23	486.83
565.39	442.36
565.56	468.11
565.72	320.65
565.88	374.49
566.05	404.91
566.21	407.25
566.38	425.98
566.54	447.04
566.70	454.06
566.87	416.62
567.03	355.76
567.19	465.77
567.36	477.47
567.52	423.64
567.68	428.32
567.85	428.32
568.01	428.32
568.17	465.77
568.34	479.81
568.50	433.00
568.66	386.19
568.83	475.13
568.99	395.55
569.15	444.70
569.32	421.30
569.48	414.27
569.64	388.53
569.81	433.00
569.97	409.59
570.13	479.81
570.30	409.59
570.46	388.53
570.62	404.91
570.78	404.91
570.95	402.57
571.11	447.04
571.27	468.11
571.43	407.25
571.60	400.23
571.76	402.57
571.92	456.40
572.09	393.21
572.25	430.66
572.41	449.38
572.57	367.46
572.74	479.81
572.90	367.46
573.06	383.85
573.22	437.68
573.38	428.32
573.55	435.34
573.71	458.74
573.87	477.47
574.03	372.15
574.20	330.02
574.36	416.62
574.52	465.77
574.68	425.98
574.84	407.25
575.01	414.27
575.17	376.83
575.33	390.87
575.49	442.36
575.65	381.51
575.82	341.72
575.98	449.38
576.14	423.64
576.30	353.42
576.46	423.64
576.62	372.15
576.79	379.17
576.95	444.70
577.11	409.59
577.27	411.93
577.43	430.66
577.59	451.72
577.75	376.83
577.92	458.74
578.08	358.10
578.24	425.98
578.40	360.44
578.56	421.30
578.72	372.15
578.88	374.49
579.04	353.42
579.21	409.59
579.37	395.55
579.53	404.91
579.69	444.70
579.85	470.45
580.01	421.30
580.17	433.00
580.33	390.87
580.49	461.09
580.65	402.57
580.82	397.89
580.98	447.04
581.14	447.04
581.30	463.43
581.46	400.23
581.62	447.04
581.78	376.83
581.94	407.25
582.10	461.09
582.26	411.93
582.42	369.80
582.58	433.00
582.74	360.44
582.90	461.09
583.06	437.68
583.22	430.66
583.38	409.59
583.54	444.70
583.70	500.87
583.86	451.72
584.02	409.59
584.18	411.93
584.34	397.89
584.50	411.93
584.66	404.91
584.82	414.27
584.98	386.19
585.14	409.59
585.30	409.59
585.46	351.08
585.62	456.40
585.78	482.15
585.94	470.45
586.10	376.83
586.26	465.77
586.42	458.74
586.58	454.06
586.74	437.68
586.90	390.87
587.06	456.40
587.22	402.57
587.38	428.32
587.54	486.83
587.70	407.25
587.86	407.25
588.02	367.46
588.18	409.59
588.34	400.23
588.49	482.15
588.65	472.79
588.81	470.45
588.97	491.51
589.13	379.17
589.29	458.74
589.45	409.59
589.61	397.89
589.77	470.45
589.93	465.77
590.08	411.93
590.24	418.96
590.40	414.27
590.56	433.00
590.72	353.42
590.88	418.96
591.04	376.83
591.20	437.68
591.35	435.34
591.51	430.66
591.67	386.19
591.83	418.96
591.99	402.57
592.15	414.27
592.31	423.64
592.46	409.59
592.62	468.11
592.78	411.93
592.94	379.17
593.10	318.31
593.26	430.66
593.41	416.62
593.57	358.10
593.73	400.23
593.89	475.13
594.05	482.15
594.20	393.21
594.36	400.23
594.52	386.19
594.68	397.89
594.84	411.93
594.99	526.62
595.15	477.47
595.31	472.79
595.47	367.46
595.62	360.44
595.78	337.04
595.94	428.32
596.10	498.53
596.25	465.77
596.41	449.38
596.57	393.21
596.73	411.93
596.88	353.42
597.04	397.89
597.20	409.59
597.36	470.45
597.51	425.98
597.67	430.66
597.83	489.17
597.99	451.72
598.14	435.34
598.30	425.98
598.46	470.45
598.61	367.46
598.77	430.66
598.93	418.96
599.09	472.79
599.24	451.72
599.40	451.72
599.56	388.53
599.71	470.45
599.87	454.06
600.03	454.06
600.18	421.30
600.34	444.70
600.50	379.17
600.65	397.89
600.81	411.93
600.97	447.04
601.12	435.34
601.28	425.98
601.44	390.87
601.59	379.17
601.75	372.15
601.91	358.10
602.06	367.46
602.22	440.02
602.37	470.45
602.53	400.23
602.69	425.98
602.84	379.17
603.00	374.49
603.16	463.43
603.31	447.04
603.47	433.00
603.62	421.30
603.78	409.59
603.94	435.34
604.09	454.06
604.25	493.85
604.40	425.98
604.56	428.32
604.71	400.23
604.87	425.98
605.03	376.83
605.18	421.30
605.34	444.70
605.49	416.62
605.65	421.30
605.80	353.42
605.96	411.93
606.12	456.40
606.27	465.77
606.43	491.51
606.58	465.77
606.74	423.64
606.89	416.62
607.05	475.13
607.20	435.34
607.36	468.11
607.51	421.30
607.67	444.70
607.82	393.21
607.98	507.90
608.13	491.51
608.29	421.30
608.44	451.72
608.60	407.25
608.75	404.91
608.91	435.34
609.06	372.15
609.22	435.34
609.37	444.70
609.53	458.74
609.68	344.06
609.84	456.40
609.99	404.91
610.15	425.98
