SpectraSuite Data File
++++++++++++++++++++++++++++++++++++
Date: Fri Oct 25 12:11:02 EDT 2013
User: price-jones
Dark Spectrum Present: No
Reference Spectrum Present: No
Number of Sampled Component Spectra: 1
Spectrometers: USB2+H05261
Integration Time (usec): 100000 (USB2+H05261)
Spectra Averaged: 1 (USB2+H05261)
Boxcar Smoothing: 0 (USB2+H05261)
Correct for Electrical Dark: No (USB2+H05261)
Strobe/Lamp Enabled: No (USB2+H05261)
Correct for Detector Non-linearity: No (USB2+H05261)
Correct for Stray Light: No (USB2+H05261)
Number of Pixels in Processed Spectrum: 2048
>>>>>Begin Processed Spectral Data<<<<<
365.73	330.02
365.92	330.02
366.12	330.02
366.32	271.50
366.52	255.12
366.72	227.03
366.91	245.76
367.11	292.57
367.31	255.12
367.51	280.86
367.70	238.73
367.90	243.42
368.10	212.99
368.30	292.57
368.49	231.71
368.69	299.59
368.89	292.57
369.09	259.80
369.28	259.80
369.48	304.27
369.68	252.78
369.87	252.78
370.07	299.59
370.27	348.74
370.47	339.38
370.66	353.42
370.86	360.44
371.06	411.93
371.25	477.47
371.45	355.76
371.65	301.93
371.84	353.42
372.04	353.42
372.24	369.80
372.44	400.23
372.63	421.30
372.83	362.78
373.03	425.98
373.22	362.78
373.42	465.77
373.62	491.51
373.81	402.57
374.01	456.40
374.21	409.59
374.40	369.80
374.60	428.32
374.79	400.23
374.99	334.70
375.19	404.91
375.38	461.09
375.58	454.06
375.78	477.47
375.97	461.09
376.17	496.19
376.37	458.74
376.56	458.74
376.76	433.00
376.95	379.17
377.15	355.76
377.35	379.17
377.54	430.66
377.74	388.53
377.93	435.34
378.13	374.49
378.33	470.45
378.52	463.43
378.72	521.94
378.91	416.62
379.11	421.30
379.31	425.98
379.50	325.33
379.70	411.93
379.89	435.34
380.09	418.96
380.28	409.59
380.48	372.15
380.68	444.70
380.87	379.17
381.07	393.21
381.26	433.00
381.46	362.78
381.65	388.53
381.85	479.81
382.04	458.74
382.24	388.53
382.43	444.70
382.63	407.25
382.83	421.30
383.02	423.64
383.22	449.38
383.41	386.19
383.61	397.89
383.80	435.34
384.00	325.33
384.19	390.87
384.39	365.12
384.58	440.02
384.78	423.64
384.97	442.36
385.17	482.15
385.36	388.53
385.56	381.51
385.75	390.87
385.95	411.93
386.14	442.36
386.34	365.12
386.53	407.25
386.72	393.21
386.92	381.51
387.11	334.70
387.31	411.93
387.50	390.87
387.70	402.57
387.89	353.42
388.09	475.13
388.28	383.85
388.48	360.44
388.67	407.25
388.86	447.04
389.06	404.91
389.25	388.53
389.45	411.93
389.64	376.83
389.84	433.00
390.03	433.00
390.22	423.64
390.42	376.83
390.61	376.83
390.81	386.19
391.00	418.96
391.19	444.70
391.39	374.49
391.58	435.34
391.78	337.04
391.97	411.93
392.16	395.55
392.36	479.81
392.55	477.47
392.75	430.66
392.94	409.59
393.13	383.85
393.33	447.04
393.52	383.85
393.71	507.90
393.91	376.83
394.10	411.93
394.29	374.49
394.49	409.59
394.68	458.74
394.88	458.74
395.07	416.62
395.26	433.00
395.46	390.87
395.65	388.53
395.84	395.55
396.04	498.53
396.23	461.09
396.42	479.81
396.62	383.85
396.81	416.62
397.00	400.23
397.19	365.12
397.39	404.91
397.58	402.57
397.77	411.93
397.97	393.21
398.16	374.49
398.35	344.06
398.55	411.93
398.74	418.96
398.93	437.68
399.12	404.91
399.32	444.70
399.51	362.78
399.70	425.98
399.90	449.38
400.09	390.87
400.28	418.96
400.47	362.78
400.67	437.68
400.86	409.59
401.05	418.96
401.24	470.45
401.44	463.43
401.63	461.09
401.82	369.80
402.01	409.59
402.21	416.62
402.40	358.10
402.59	383.85
402.78	339.38
402.97	418.96
403.17	409.59
403.36	402.57
403.55	404.91
403.74	407.25
403.93	463.43
404.13	454.06
404.32	479.81
404.51	449.38
404.70	458.74
404.89	388.53
405.09	447.04
405.28	440.02
405.47	409.59
405.66	407.25
405.85	379.17
406.05	414.27
406.24	428.32
406.43	376.83
406.62	376.83
406.81	461.09
407.00	425.98
407.20	360.44
407.39	496.19
407.58	447.04
407.77	425.98
407.96	421.30
408.15	475.13
408.34	437.68
408.54	367.46
408.73	386.19
408.92	327.68
409.11	390.87
409.30	376.83
409.49	397.89
409.68	390.87
409.87	468.11
410.07	461.09
410.26	409.59
410.45	374.49
410.64	367.46
410.83	360.44
411.02	372.15
411.21	442.36
411.40	358.10
411.59	404.91
411.78	407.25
411.98	451.72
412.17	337.04
412.36	444.70
412.55	381.51
412.74	430.66
412.93	451.72
413.12	409.59
413.31	404.91
413.50	425.98
413.69	376.83
413.88	433.00
414.07	447.04
414.26	449.38
414.45	374.49
414.64	430.66
414.83	407.25
415.02	423.64
415.22	400.23
415.41	400.23
415.60	374.49
415.79	372.15
415.98	402.57
416.17	393.21
416.36	416.62
416.55	341.72
416.74	414.27
416.93	472.79
417.12	421.30
417.31	397.89
417.50	442.36
417.69	519.60
417.88	435.34
418.07	411.93
418.26	449.38
418.45	411.93
418.64	418.96
418.83	440.02
419.02	365.12
419.21	400.23
419.39	346.40
419.58	437.68
419.77	437.68
419.96	402.57
420.15	449.38
420.34	447.04
420.53	437.68
420.72	482.15
420.91	421.30
421.10	348.74
421.29	395.55
421.48	400.23
421.67	411.93
421.86	374.49
422.05	388.53
422.24	395.55
422.43	372.15
422.61	395.55
422.80	409.59
422.99	437.68
423.18	395.55
423.37	421.30
423.56	383.85
423.75	397.89
423.94	390.87
424.13	425.98
424.32	334.70
424.50	402.57
424.69	468.11
424.88	433.00
425.07	386.19
425.26	388.53
425.45	416.62
425.64	475.13
425.83	351.08
426.01	451.72
426.20	454.06
426.39	444.70
426.58	402.57
426.77	433.00
426.96	388.53
427.15	346.40
427.33	451.72
427.52	367.46
427.71	358.10
427.90	383.85
428.09	395.55
428.28	435.34
428.46	397.89
428.65	418.96
428.84	369.80
429.03	444.70
429.22	437.68
429.40	458.74
429.59	409.59
429.78	437.68
429.97	409.59
430.16	393.21
430.34	491.51
430.53	449.38
430.72	430.66
430.91	496.19
431.10	435.34
431.28	395.55
431.47	454.06
431.66	386.19
431.85	416.62
432.03	435.34
432.22	404.91
432.41	365.12
432.60	461.09
432.79	430.66
432.97	423.64
433.16	416.62
433.35	369.80
433.54	318.31
433.72	435.34
433.91	437.68
434.10	451.72
434.28	465.77
434.47	433.00
434.66	456.40
434.85	397.89
435.03	376.83
435.22	383.85
435.41	437.68
435.59	369.80
435.78	362.78
435.97	463.43
436.16	388.53
436.34	440.02
436.53	433.00
436.72	374.49
436.90	442.36
437.09	400.23
437.28	402.57
437.46	416.62
437.65	376.83
437.84	433.00
438.02	442.36
438.21	386.19
438.40	365.12
438.58	430.66
438.77	435.34
438.96	400.23
439.14	404.91
439.33	411.93
439.52	454.06
439.70	435.34
439.89	407.25
440.08	435.34
440.26	491.51
440.45	379.17
440.63	365.12
440.82	411.93
441.01	416.62
441.19	358.10
441.38	358.10
441.57	458.74
441.75	442.36
441.94	397.89
442.12	381.51
442.31	369.80
442.50	402.57
442.68	400.23
442.87	449.38
443.05	425.98
443.24	454.06
443.43	376.83
443.61	440.02
443.80	390.87
443.98	407.25
444.17	362.78
444.35	332.36
444.54	390.87
444.73	423.64
444.91	423.64
445.10	421.30
445.28	379.17
445.47	423.64
445.65	475.13
445.84	388.53
446.02	414.27
446.21	344.06
446.39	433.00
446.58	367.46
446.77	369.80
446.95	409.59
447.14	437.68
447.32	463.43
447.51	440.02
447.69	435.34
447.88	351.08
448.06	421.30
448.25	409.59
448.43	491.51
448.62	362.78
448.80	355.76
448.99	500.87
449.17	404.91
449.36	395.55
449.54	437.68
449.73	444.70
449.91	421.30
450.10	458.74
450.28	440.02
450.46	433.00
450.65	393.21
450.83	409.59
451.02	390.87
451.20	411.93
451.39	435.34
451.57	404.91
451.76	404.91
451.94	451.72
452.13	381.51
452.31	465.77
452.49	393.21
452.68	472.79
452.86	351.08
453.05	514.92
453.23	437.68
453.42	402.57
453.60	454.06
453.78	454.06
453.97	374.49
454.15	388.53
454.34	402.57
454.52	379.17
454.70	395.55
454.89	444.70
455.07	428.32
455.26	414.27
455.44	491.51
455.62	421.30
455.81	409.59
455.99	407.25
456.17	407.25
456.36	393.21
456.54	383.85
456.73	402.57
456.91	416.62
457.09	447.04
457.28	379.17
457.46	451.72
457.64	440.02
457.83	435.34
458.01	414.27
458.19	400.23
458.38	451.72
458.56	367.46
458.74	388.53
458.93	407.25
459.11	379.17
459.29	402.57
459.48	402.57
459.66	430.66
459.84	423.64
460.03	552.37
460.21	447.04
460.39	372.15
460.57	470.45
460.76	458.74
460.94	388.53
461.12	440.02
461.31	425.98
461.49	447.04
461.67	397.89
461.85	395.55
462.04	383.85
462.22	788.76
462.40	369.80
462.59	414.27
462.77	449.38
462.95	404.91
463.13	421.30
463.32	421.30
463.50	437.68
463.68	423.64
463.86	393.21
464.05	369.80
464.23	456.40
464.41	430.66
464.59	440.02
464.78	372.15
464.96	365.12
465.14	423.64
465.32	409.59
465.50	353.42
465.69	435.34
465.87	397.89
466.05	386.19
466.23	437.68
466.41	390.87
466.60	397.89
466.78	444.70
466.96	393.21
467.14	383.85
467.32	486.83
467.51	425.98
467.69	416.62
467.87	465.77
468.05	414.27
468.23	447.04
468.41	470.45
468.60	430.66
468.78	365.12
468.96	456.40
469.14	418.96
469.32	411.93
469.50	376.83
469.69	430.66
469.87	472.79
470.05	440.02
470.23	313.63
470.41	411.93
470.59	456.40
470.77	414.27
470.95	393.21
471.14	404.91
471.32	447.04
471.50	447.04
471.68	351.08
471.86	421.30
472.04	411.93
472.22	372.15
472.40	430.66
472.58	416.62
472.77	386.19
472.95	461.09
473.13	498.53
473.31	402.57
473.49	390.87
473.67	498.53
473.85	386.19
474.03	400.23
474.21	458.74
474.39	402.57
474.57	449.38
474.75	360.44
474.93	379.17
475.12	320.65
475.30	400.23
475.48	423.64
475.66	344.06
475.84	428.32
476.02	418.96
476.20	433.00
476.38	360.44
476.56	521.94
476.74	451.72
476.92	468.11
477.10	390.87
477.28	416.62
477.46	444.70
477.64	390.87
477.82	465.77
478.00	330.02
478.18	440.02
478.36	461.09
478.54	351.08
478.72	447.04
478.90	421.30
479.08	425.98
479.26	414.27
479.44	425.98
479.62	372.15
479.80	482.15
479.98	411.93
480.16	318.31
480.34	395.55
480.52	390.87
480.70	468.11
480.88	402.57
481.06	433.00
481.24	393.21
481.41	397.89
481.59	397.89
481.77	437.68
481.95	374.49
482.13	514.92
482.31	379.17
482.49	449.38
482.67	463.43
482.85	510.24
483.03	421.30
483.21	404.91
483.39	468.11
483.57	379.17
483.74	428.32
483.92	414.27
484.10	400.23
484.28	428.32
484.46	437.68
484.64	512.58
484.82	437.68
485.00	388.53
485.18	414.27
485.35	388.53
485.53	365.12
485.71	482.15
485.89	451.72
486.07	353.42
486.25	484.49
486.43	461.09
486.61	451.72
486.78	461.09
486.96	365.12
487.14	414.27
487.32	390.87
487.50	388.53
487.68	456.40
487.85	449.38
488.03	388.53
488.21	463.43
488.39	458.74
488.57	456.40
488.75	411.93
488.92	521.94
489.10	423.64
489.28	435.34
489.46	489.17
489.64	411.93
489.81	442.36
489.99	472.79
490.17	374.49
490.35	390.87
490.53	416.62
490.70	428.32
490.88	402.57
491.06	414.27
491.24	367.46
491.41	409.59
491.59	454.06
491.77	386.19
491.95	428.32
492.13	386.19
492.30	442.36
492.48	411.93
492.66	414.27
492.84	358.10
493.01	456.40
493.19	369.80
493.37	418.96
493.54	461.09
493.72	435.34
493.90	402.57
494.08	465.77
494.25	388.53
494.43	472.79
494.61	383.85
494.79	395.55
494.96	425.98
495.14	402.57
495.32	409.59
495.49	425.98
495.67	430.66
495.85	379.17
496.02	411.93
496.20	456.40
496.38	414.27
496.55	409.59
496.73	428.32
496.91	395.55
497.09	423.64
497.26	425.98
497.44	390.87
497.62	425.98
497.79	397.89
497.97	435.34
498.14	463.43
498.32	430.66
498.50	365.12
498.67	442.36
498.85	404.91
499.03	423.64
499.20	402.57
499.38	360.44
499.56	383.85
499.73	489.17
499.91	416.62
500.08	468.11
500.26	404.91
500.44	421.30
500.61	442.36
500.79	421.30
500.97	411.93
501.14	489.17
501.32	390.87
501.49	475.13
501.67	409.59
501.84	402.57
502.02	409.59
502.20	402.57
502.37	449.38
502.55	402.57
502.72	409.59
502.90	463.43
503.07	416.62
503.25	327.68
503.43	383.85
503.60	416.62
503.78	472.79
503.95	374.49
504.13	421.30
504.30	423.64
504.48	468.11
504.65	533.64
504.83	362.78
505.01	461.09
505.18	421.30
505.36	404.91
505.53	416.62
505.71	428.32
505.88	437.68
506.06	414.27
506.23	386.19
506.41	430.66
506.58	386.19
506.76	358.10
506.93	386.19
507.11	472.79
507.28	470.45
507.46	444.70
507.63	454.06
507.81	451.72
507.98	461.09
508.16	397.89
508.33	414.27
508.50	454.06
508.68	414.27
508.85	416.62
509.03	395.55
509.20	444.70
509.38	425.98
509.55	416.62
509.73	414.27
509.90	383.85
510.08	360.44
510.25	440.02
510.42	374.49
510.60	454.06
510.77	381.51
510.95	456.40
511.12	407.25
511.30	442.36
511.47	454.06
511.64	374.49
511.82	447.04
511.99	425.98
512.17	386.19
512.34	334.70
512.51	379.17
512.69	414.27
512.86	430.66
513.04	409.59
513.21	430.66
513.38	430.66
513.56	411.93
513.73	407.25
513.90	407.25
514.08	376.83
514.25	435.34
514.43	425.98
514.60	421.30
514.77	472.79
514.95	402.57
515.12	393.21
515.29	468.11
515.47	411.93
515.64	388.53
515.81	402.57
515.99	451.72
516.16	428.32
516.33	411.93
516.51	440.02
516.68	400.23
516.85	388.53
517.03	465.77
517.20	447.04
517.37	409.59
517.54	414.27
517.72	353.42
517.89	360.44
518.06	416.62
518.24	442.36
518.41	477.47
518.58	437.68
518.75	437.68
518.93	416.62
519.10	440.02
519.27	489.17
519.45	507.90
519.62	421.30
519.79	393.21
519.96	449.38
520.14	428.32
520.31	468.11
520.48	362.78
520.65	404.91
520.83	376.83
521.00	346.40
521.17	414.27
521.34	449.38
521.52	447.04
521.69	409.59
521.86	414.27
522.03	400.23
522.20	456.40
522.38	421.30
522.55	442.36
522.72	379.17
522.89	400.23
523.07	454.06
523.24	444.70
523.41	365.12
523.58	449.38
523.75	416.62
523.92	409.59
524.10	358.10
524.27	411.93
524.44	404.91
524.61	421.30
524.78	454.06
524.96	475.13
525.13	442.36
525.30	517.26
525.47	395.55
525.64	411.93
525.81	440.02
525.98	376.83
526.16	472.79
526.33	386.19
526.50	390.87
526.67	400.23
526.84	414.27
527.01	306.61
527.18	423.64
527.36	390.87
527.53	311.29
527.70	465.77
527.87	500.87
528.04	456.40
528.21	372.15
528.38	442.36
528.55	470.45
528.72	435.34
528.89	454.06
529.07	388.53
529.24	468.11
529.41	397.89
529.58	423.64
529.75	395.55
529.92	428.32
530.09	404.91
530.26	400.23
530.43	470.45
530.60	458.74
530.77	418.96
530.94	395.55
531.11	442.36
531.28	442.36
531.46	388.53
531.63	433.00
531.80	393.21
531.97	470.45
532.14	418.96
532.31	386.19
532.48	416.62
532.65	428.32
532.82	355.76
532.99	346.40
533.16	433.00
533.33	470.45
533.50	447.04
533.67	414.27
533.84	404.91
534.01	414.27
534.18	498.53
534.35	395.55
534.52	500.87
534.69	428.32
534.86	386.19
535.03	409.59
535.20	358.10
535.37	456.40
535.54	472.79
535.71	393.21
535.88	489.17
536.05	468.11
536.22	444.70
536.38	454.06
536.55	437.68
536.72	454.06
536.89	381.51
537.06	397.89
537.23	404.91
537.40	456.40
537.57	376.83
537.74	451.72
537.91	449.38
538.08	351.08
538.25	416.62
538.42	358.10
538.59	493.85
538.75	386.19
538.92	386.19
539.09	437.68
539.26	379.17
539.43	449.38
539.60	461.09
539.77	519.60
539.94	374.49
540.11	395.55
540.28	489.17
540.44	472.79
540.61	404.91
540.78	381.51
540.95	454.06
541.12	465.77
541.29	440.02
541.46	397.89
541.62	421.30
541.79	435.34
541.96	418.96
542.13	414.27
542.30	388.53
542.47	458.74
542.63	365.12
542.80	477.47
542.97	369.80
543.14	402.57
543.31	437.68
543.48	465.77
543.64	449.38
543.81	425.98
543.98	437.68
544.15	388.53
544.32	418.96
544.48	397.89
544.65	472.79
544.82	402.57
544.99	374.49
545.16	397.89
545.32	428.32
545.49	369.80
545.66	477.47
545.83	400.23
546.00	397.89
546.16	386.19
546.33	376.83
546.50	374.49
546.67	437.68
546.83	458.74
547.00	351.08
547.17	379.17
547.34	479.81
547.50	458.74
547.67	409.59
547.84	414.27
548.00	390.87
548.17	418.96
548.34	447.04
548.51	486.83
548.67	482.15
548.84	414.27
549.01	437.68
549.18	404.91
549.34	475.13
549.51	425.98
549.68	470.45
549.84	437.68
550.01	414.27
550.18	447.04
550.34	493.85
550.51	416.62
550.68	444.70
550.84	425.98
551.01	400.23
551.18	435.34
551.34	437.68
551.51	486.83
551.68	409.59
551.84	444.70
552.01	428.32
552.18	386.19
552.34	365.12
552.51	372.15
552.68	449.38
552.84	344.06
553.01	404.91
553.18	437.68
553.34	383.85
553.51	433.00
553.67	451.72
553.84	477.47
554.01	421.30
554.17	430.66
554.34	341.72
554.51	430.66
554.67	383.85
554.84	442.36
555.00	461.09
555.17	430.66
555.33	458.74
555.50	440.02
555.67	407.25
555.83	416.62
556.00	456.40
556.16	543.00
556.33	503.22
556.50	463.43
556.66	402.57
556.83	451.72
556.99	421.30
557.16	430.66
557.32	404.91
557.49	451.72
557.65	465.77
557.82	372.15
557.98	402.57
558.15	416.62
558.32	425.98
558.48	437.68
558.65	486.83
558.81	500.87
558.98	444.70
559.14	433.00
559.31	528.96
559.47	395.55
559.64	407.25
559.80	472.79
559.97	428.32
560.13	470.45
560.30	376.83
560.46	451.72
560.63	367.46
560.79	421.30
560.96	409.59
561.12	442.36
561.29	404.91
561.45	388.53
561.61	479.81
561.78	461.09
561.94	418.96
562.11	395.55
562.27	402.57
562.44	402.57
562.60	397.89
562.77	407.25
562.93	418.96
563.10	339.38
563.26	479.81
563.42	433.00
563.59	400.23
563.75	404.91
563.92	468.11
564.08	482.15
564.24	416.62
564.41	458.74
564.57	395.55
564.74	425.98
564.90	486.83
565.07	456.40
565.23	449.38
565.39	418.96
565.56	444.70
565.72	409.59
565.88	400.23
566.05	449.38
566.21	442.36
566.38	402.57
566.54	514.92
566.70	383.85
566.87	418.96
567.03	393.21
567.19	421.30
567.36	381.51
567.52	477.47
567.68	463.43
567.85	402.57
568.01	463.43
568.17	435.34
568.34	482.15
568.50	454.06
568.66	491.51
568.83	550.03
568.99	414.27
569.15	475.13
569.32	411.93
569.48	351.08
569.64	435.34
569.81	442.36
569.97	416.62
570.13	409.59
570.30	393.21
570.46	409.59
570.62	458.74
570.78	437.68
570.95	409.59
571.11	468.11
571.27	454.06
571.43	437.68
571.60	416.62
571.76	402.57
571.92	442.36
572.09	454.06
572.25	397.89
572.41	388.53
572.57	472.79
572.74	477.47
572.90	442.36
573.06	416.62
573.22	444.70
573.38	440.02
573.55	461.09
573.71	456.40
573.87	409.59
574.03	407.25
574.20	376.83
574.36	407.25
574.52	430.66
574.68	383.85
574.84	421.30
575.01	383.85
575.17	472.79
575.33	383.85
575.49	414.27
575.65	407.25
575.82	479.81
575.98	362.78
576.14	418.96
576.30	416.62
576.46	355.76
576.62	447.04
576.79	437.68
576.95	407.25
577.11	341.72
577.27	334.70
577.43	421.30
577.59	451.72
577.75	409.59
577.92	390.87
578.08	451.72
578.24	393.21
578.40	440.02
578.56	484.49
578.72	423.64
578.88	447.04
579.04	404.91
579.21	334.70
579.37	362.78
579.53	463.43
579.69	407.25
579.85	461.09
580.01	465.77
580.17	395.55
580.33	458.74
580.49	447.04
580.65	472.79
580.82	376.83
580.98	414.27
581.14	447.04
581.30	514.92
581.46	416.62
581.62	510.24
581.78	435.34
581.94	463.43
582.10	383.85
582.26	418.96
582.42	407.25
582.58	348.74
582.74	390.87
582.90	395.55
583.06	477.47
583.22	433.00
583.38	421.30
583.54	348.74
583.70	416.62
583.86	456.40
584.02	397.89
584.18	510.24
584.34	400.23
584.50	428.32
584.66	433.00
584.82	404.91
584.98	411.93
585.14	379.17
585.30	454.06
585.46	486.83
585.62	430.66
585.78	447.04
585.94	376.83
586.10	451.72
586.26	383.85
586.42	440.02
586.58	428.32
586.74	421.30
586.90	404.91
587.06	374.49
587.22	458.74
587.38	440.02
587.54	355.76
587.70	430.66
587.86	447.04
588.02	416.62
588.18	428.32
588.34	437.68
588.49	341.72
588.65	454.06
588.81	372.15
588.97	444.70
589.13	435.34
589.29	395.55
589.45	411.93
589.61	451.72
589.77	400.23
589.93	470.45
590.08	416.62
590.24	353.42
590.40	407.25
590.56	421.30
590.72	421.30
590.88	414.27
591.04	409.59
591.20	379.17
591.35	397.89
591.51	397.89
591.67	404.91
591.83	388.53
591.99	447.04
592.15	404.91
592.31	444.70
592.46	367.46
592.62	449.38
592.78	440.02
592.94	440.02
593.10	407.25
593.26	421.30
593.41	416.62
593.57	379.17
593.73	386.19
593.89	423.64
594.05	423.64
594.20	430.66
594.36	444.70
594.52	409.59
594.68	407.25
594.84	381.51
594.99	456.40
595.15	393.21
595.31	360.44
595.47	456.40
595.62	400.23
595.78	390.87
595.94	407.25
596.10	433.00
596.25	437.68
596.41	451.72
596.57	416.62
596.73	369.80
596.88	482.15
597.04	372.15
597.20	393.21
597.36	461.09
597.51	332.36
597.67	386.19
597.83	334.70
597.99	418.96
598.14	428.32
598.30	372.15
598.46	407.25
598.61	465.77
598.77	402.57
598.93	367.46
599.09	351.08
599.24	423.64
599.40	454.06
599.56	444.70
599.71	379.17
599.87	472.79
600.03	447.04
600.18	418.96
600.34	386.19
600.50	402.57
600.65	411.93
600.81	418.96
600.97	397.89
601.12	407.25
601.28	433.00
601.44	442.36
601.59	416.62
601.75	374.49
601.91	421.30
602.06	554.71
602.22	447.04
602.37	477.47
602.53	416.62
602.69	486.83
602.84	423.64
603.00	468.11
603.16	367.46
603.31	430.66
603.47	425.98
603.62	386.19
603.78	344.06
603.94	383.85
604.09	404.91
604.25	414.27
604.40	421.30
604.56	400.23
604.71	395.55
604.87	362.78
605.03	444.70
605.18	491.51
605.34	505.56
605.49	416.62
605.65	425.98
605.80	397.89
605.96	315.97
606.12	409.59
606.27	454.06
606.43	339.38
606.58	468.11
606.74	372.15
606.89	491.51
607.05	390.87
607.20	407.25
607.36	440.02
607.51	435.34
607.67	376.83
607.82	440.02
607.98	393.21
608.13	512.58
608.29	470.45
608.44	451.72
608.60	423.64
608.75	421.30
608.91	484.49
609.06	414.27
609.22	407.25
609.37	475.13
609.53	379.17
609.68	421.30
609.84	442.36
609.99	376.83
610.15	409.59
