SpectraSuite Data File
++++++++++++++++++++++++++++++++++++
Date: Fri Oct 25 12:10:51 EDT 2013
User: price-jones
Dark Spectrum Present: No
Reference Spectrum Present: No
Number of Sampled Component Spectra: 1
Spectrometers: USB2+H05261
Integration Time (usec): 100000 (USB2+H05261)
Spectra Averaged: 1 (USB2+H05261)
Boxcar Smoothing: 0 (USB2+H05261)
Correct for Electrical Dark: No (USB2+H05261)
Strobe/Lamp Enabled: No (USB2+H05261)
Correct for Detector Non-linearity: No (USB2+H05261)
Correct for Stray Light: No (USB2+H05261)
Number of Pixels in Processed Spectrum: 2048
>>>>>Begin Processed Spectral Data<<<<<
365.73	348.74
365.92	348.74
366.12	348.74
366.32	210.65
366.52	241.08
366.72	248.10
366.91	245.76
367.11	262.14
367.31	273.84
367.51	259.80
367.70	203.63
367.90	304.27
368.10	262.14
368.30	241.08
368.49	215.33
368.69	320.65
368.89	266.82
369.09	320.65
369.28	248.10
369.48	292.57
369.68	283.20
369.87	276.18
370.07	292.57
370.27	337.04
370.47	308.95
370.66	381.51
370.86	299.59
371.06	388.53
371.25	402.57
371.45	388.53
371.65	416.62
371.84	344.06
372.04	374.49
372.24	376.83
372.44	400.23
372.63	416.62
372.83	369.80
373.03	451.72
373.22	358.10
373.42	360.44
373.62	393.21
373.81	475.13
374.01	482.15
374.21	397.89
374.40	379.17
374.60	454.06
374.79	468.11
374.99	449.38
375.19	449.38
375.38	486.83
375.58	416.62
375.78	386.19
375.97	416.62
376.17	449.38
376.37	409.59
376.56	397.89
376.76	388.53
376.95	411.93
377.15	463.43
377.35	454.06
377.54	383.85
377.74	395.55
377.93	414.27
378.13	435.34
378.33	435.34
378.52	414.27
378.72	484.49
378.91	404.91
379.11	428.32
379.31	325.33
379.50	390.87
379.70	404.91
379.89	400.23
380.09	386.19
380.28	381.51
380.48	409.59
380.68	383.85
380.87	407.25
381.07	484.49
381.26	505.56
381.46	386.19
381.65	397.89
381.85	418.96
382.04	360.44
382.24	320.65
382.43	397.89
382.63	421.30
382.83	374.49
383.02	416.62
383.22	447.04
383.41	428.32
383.61	372.15
383.80	425.98
384.00	386.19
384.19	465.77
384.39	367.46
384.58	461.09
384.78	388.53
384.97	470.45
385.17	397.89
385.36	353.42
385.56	379.17
385.75	386.19
385.95	421.30
386.14	369.80
386.34	376.83
386.53	355.76
386.72	435.34
386.92	433.00
387.11	402.57
387.31	418.96
387.50	423.64
387.70	418.96
387.89	379.17
388.09	423.64
388.28	428.32
388.48	465.77
388.67	454.06
388.86	404.91
389.06	365.12
389.25	423.64
389.45	416.62
389.64	374.49
389.84	397.89
390.03	451.72
390.22	440.02
390.42	393.21
390.61	369.80
390.81	482.15
391.00	454.06
391.19	423.64
391.39	395.55
391.58	449.38
391.78	503.22
391.97	400.23
392.16	402.57
392.36	411.93
392.55	425.98
392.75	383.85
392.94	369.80
393.13	421.30
393.33	374.49
393.52	407.25
393.71	388.53
393.91	458.74
394.10	463.43
394.29	437.68
394.49	400.23
394.68	423.64
394.88	360.44
395.07	428.32
395.26	435.34
395.46	425.98
395.65	475.13
395.84	458.74
396.04	496.19
396.23	416.62
396.42	425.98
396.62	414.27
396.81	386.19
397.00	390.87
397.19	388.53
397.39	444.70
397.58	449.38
397.77	444.70
397.97	407.25
398.16	437.68
398.35	449.38
398.55	428.32
398.74	383.85
398.93	390.87
399.12	433.00
399.32	404.91
399.51	430.66
399.70	423.64
399.90	416.62
400.09	402.57
400.28	407.25
400.47	428.32
400.67	369.80
400.86	369.80
401.05	369.80
401.24	409.59
401.44	447.04
401.63	374.49
401.82	416.62
402.01	447.04
402.21	414.27
402.40	433.00
402.59	355.76
402.78	367.46
402.97	451.72
403.17	458.74
403.36	362.78
403.55	390.87
403.74	433.00
403.93	332.36
404.13	465.77
404.32	407.25
404.51	430.66
404.70	414.27
404.89	402.57
405.09	425.98
405.28	339.38
405.47	355.76
405.66	393.21
405.85	404.91
406.05	313.63
406.24	372.15
406.43	383.85
406.62	463.43
406.81	437.68
407.00	381.51
407.20	421.30
407.39	393.21
407.58	421.30
407.77	402.57
407.96	421.30
408.15	395.55
408.34	411.93
408.54	458.74
408.73	407.25
408.92	381.51
409.11	463.43
409.30	472.79
409.49	372.15
409.68	404.91
409.87	383.85
410.07	449.38
410.26	379.17
410.45	351.08
410.64	383.85
410.83	376.83
411.02	372.15
411.21	360.44
411.40	491.51
411.59	433.00
411.78	423.64
411.98	454.06
412.17	374.49
412.36	430.66
412.55	379.17
412.74	461.09
412.93	428.32
413.12	402.57
413.31	435.34
413.50	397.89
413.69	428.32
413.88	400.23
414.07	407.25
414.26	411.93
414.45	374.49
414.64	423.64
414.83	418.96
415.02	486.83
415.22	468.11
415.41	411.93
415.60	367.46
415.79	409.59
415.98	430.66
416.17	397.89
416.36	313.63
416.55	400.23
416.74	386.19
416.93	444.70
417.12	404.91
417.31	449.38
417.50	393.21
417.69	404.91
417.88	390.87
418.07	393.21
418.26	409.59
418.45	402.57
418.64	451.72
418.83	360.44
419.02	365.12
419.21	407.25
419.39	400.23
419.58	416.62
419.77	393.21
419.96	374.49
420.15	433.00
420.34	416.62
420.53	400.23
420.72	397.89
420.91	428.32
421.10	435.34
421.29	437.68
421.48	381.51
421.67	421.30
421.86	351.08
422.05	306.61
422.24	386.19
422.43	435.34
422.61	313.63
422.80	416.62
422.99	451.72
423.18	440.02
423.37	444.70
423.56	477.47
423.75	358.10
423.94	372.15
424.13	428.32
424.32	369.80
424.50	376.83
424.69	379.17
424.88	437.68
425.07	416.62
425.26	414.27
425.45	482.15
425.64	430.66
425.83	489.17
426.01	454.06
426.20	383.85
426.39	376.83
426.58	411.93
426.77	355.76
426.96	435.34
427.15	454.06
427.33	421.30
427.52	433.00
427.71	421.30
427.90	458.74
428.09	447.04
428.28	348.74
428.46	313.63
428.65	440.02
428.84	372.15
429.03	407.25
429.22	376.83
429.40	383.85
429.59	383.85
429.78	458.74
429.97	376.83
430.16	409.59
430.34	351.08
430.53	404.91
430.72	421.30
430.91	430.66
431.10	456.40
431.28	428.32
431.47	393.21
431.66	400.23
431.85	388.53
432.03	430.66
432.22	489.17
432.41	447.04
432.60	500.87
432.79	442.36
432.97	376.83
433.16	388.53
433.35	468.11
433.54	365.12
433.72	379.17
433.91	458.74
434.10	390.87
434.28	433.00
434.47	425.98
434.66	416.62
434.85	402.57
435.03	374.49
435.22	393.21
435.41	496.19
435.59	440.02
435.78	444.70
435.97	407.25
436.16	440.02
436.34	418.96
436.53	369.80
436.72	505.56
436.90	381.51
437.09	472.79
437.28	386.19
437.46	421.30
437.65	379.17
437.84	430.66
438.02	428.32
438.21	447.04
438.40	451.72
438.58	348.74
438.77	503.22
438.96	423.64
439.14	458.74
439.33	456.40
439.52	418.96
439.70	393.21
439.89	418.96
440.08	388.53
440.26	379.17
440.45	428.32
440.63	437.68
440.82	440.02
441.01	414.27
441.19	348.74
441.38	369.80
441.57	383.85
441.75	470.45
441.94	386.19
442.12	369.80
442.31	395.55
442.50	376.83
442.68	444.70
442.87	491.51
443.05	367.46
443.24	388.53
443.43	437.68
443.61	442.36
443.80	390.87
443.98	355.76
444.17	470.45
444.35	428.32
444.54	393.21
444.73	362.78
444.91	416.62
445.10	397.89
445.28	456.40
445.47	386.19
445.65	442.36
445.84	334.70
446.02	395.55
446.21	433.00
446.39	365.12
446.58	437.68
446.77	456.40
446.95	449.38
447.14	444.70
447.32	421.30
447.51	411.93
447.69	379.17
447.88	376.83
448.06	390.87
448.25	456.40
448.43	430.66
448.62	451.72
448.80	428.32
448.99	397.89
449.17	395.55
449.36	379.17
449.54	489.17
449.73	393.21
449.91	475.13
450.10	428.32
450.28	477.47
450.46	486.83
450.65	437.68
450.83	470.45
451.02	437.68
451.20	414.27
451.39	421.30
451.57	423.64
451.76	435.34
451.94	320.65
452.13	470.45
452.31	454.06
452.49	416.62
452.68	358.10
452.86	383.85
453.05	484.49
453.23	437.68
453.42	365.12
453.60	388.53
453.78	402.57
453.97	402.57
454.15	395.55
454.34	449.38
454.52	365.12
454.70	454.06
454.89	381.51
455.07	390.87
455.26	404.91
455.44	402.57
455.62	416.62
455.81	435.34
455.99	421.30
456.17	444.70
456.36	381.51
456.54	306.61
456.73	423.64
456.91	407.25
457.09	383.85
457.28	470.45
457.46	442.36
457.64	435.34
457.83	418.96
458.01	372.15
458.19	421.30
458.38	397.89
458.56	482.15
458.74	423.64
458.93	425.98
459.11	407.25
459.29	444.70
459.48	428.32
459.66	433.00
459.84	442.36
460.03	519.60
460.21	428.32
460.39	463.43
460.57	421.30
460.76	393.21
460.94	414.27
461.12	519.60
461.31	418.96
461.49	362.78
461.67	456.40
461.85	440.02
462.04	330.02
462.22	798.12
462.40	454.06
462.59	451.72
462.77	418.96
462.95	484.49
463.13	393.21
463.32	444.70
463.50	433.00
463.68	379.17
463.86	440.02
464.05	489.17
464.23	423.64
464.41	390.87
464.59	337.04
464.78	409.59
464.96	386.19
465.14	353.42
465.32	421.30
465.50	475.13
465.69	463.43
465.87	388.53
466.05	411.93
466.23	400.23
466.41	411.93
466.60	454.06
466.78	433.00
466.96	425.98
467.14	418.96
467.32	433.00
467.51	435.34
467.69	388.53
467.87	517.26
468.05	472.79
468.23	454.06
468.41	411.93
468.60	418.96
468.78	400.23
468.96	435.34
469.14	472.79
469.32	428.32
469.50	444.70
469.69	442.36
469.87	379.17
470.05	407.25
470.23	425.98
470.41	353.42
470.59	407.25
470.77	472.79
470.95	442.36
471.14	435.34
471.32	402.57
471.50	433.00
471.68	374.49
471.86	372.15
472.04	407.25
472.22	411.93
472.40	397.89
472.58	341.72
472.77	390.87
472.95	355.76
473.13	470.45
473.31	465.77
473.49	386.19
473.67	365.12
473.85	491.51
474.03	440.02
474.21	393.21
474.39	458.74
474.57	491.51
474.75	505.56
474.93	376.83
475.12	318.31
475.30	444.70
475.48	404.91
475.66	454.06
475.84	430.66
476.02	348.74
476.20	372.15
476.38	386.19
476.56	444.70
476.74	390.87
476.92	376.83
477.10	423.64
477.28	416.62
477.46	372.15
477.64	365.12
477.82	421.30
478.00	418.96
478.18	390.87
478.36	395.55
478.54	414.27
478.72	358.10
478.90	428.32
479.08	353.42
479.26	404.91
479.44	435.34
479.62	421.30
479.80	404.91
479.98	411.93
480.16	449.38
480.34	358.10
480.52	348.74
480.70	425.98
480.88	411.93
481.06	454.06
481.24	369.80
481.41	365.12
481.59	444.70
481.77	395.55
481.95	360.44
482.13	367.46
482.31	362.78
482.49	390.87
482.67	383.85
482.85	437.68
483.03	404.91
483.21	404.91
483.39	449.38
483.57	463.43
483.74	444.70
483.92	418.96
484.10	390.87
484.28	437.68
484.46	430.66
484.64	407.25
484.82	383.85
485.00	421.30
485.18	423.64
485.35	393.21
485.53	435.34
485.71	393.21
485.89	435.34
486.07	416.62
486.25	461.09
486.43	472.79
486.61	444.70
486.78	435.34
486.96	437.68
487.14	447.04
487.32	404.91
487.50	409.59
487.68	372.15
487.85	416.62
488.03	477.47
488.21	409.59
488.39	383.85
488.57	369.80
488.75	409.59
488.92	418.96
489.10	376.83
489.28	430.66
489.46	404.91
489.64	383.85
489.81	402.57
489.99	437.68
490.17	484.49
490.35	372.15
490.53	374.49
490.70	404.91
490.88	449.38
491.06	383.85
491.24	435.34
491.41	416.62
491.59	414.27
491.77	404.91
491.95	386.19
492.13	393.21
492.30	423.64
492.48	390.87
492.66	484.49
492.84	423.64
493.01	379.17
493.19	444.70
493.37	458.74
493.54	397.89
493.72	496.19
493.90	409.59
494.08	374.49
494.25	416.62
494.43	425.98
494.61	414.27
494.79	414.27
494.96	351.08
495.14	428.32
495.32	402.57
495.49	411.93
495.67	400.23
495.85	376.83
496.02	435.34
496.20	477.47
496.38	402.57
496.55	454.06
496.73	468.11
496.91	379.17
497.09	414.27
497.26	430.66
497.44	409.59
497.62	381.51
497.79	397.89
497.97	475.13
498.14	430.66
498.32	461.09
498.50	444.70
498.67	362.78
498.85	461.09
499.03	386.19
499.20	477.47
499.38	397.89
499.56	414.27
499.73	447.04
499.91	404.91
500.08	493.85
500.26	400.23
500.44	421.30
500.61	358.10
500.79	369.80
500.97	402.57
501.14	440.02
501.32	451.72
501.49	390.87
501.67	407.25
501.84	489.17
502.02	430.66
502.20	463.43
502.37	383.85
502.55	425.98
502.72	440.02
502.90	433.00
503.07	404.91
503.25	512.58
503.43	444.70
503.60	404.91
503.78	433.00
503.95	402.57
504.13	388.53
504.30	449.38
504.48	484.49
504.65	430.66
504.83	386.19
505.01	423.64
505.18	407.25
505.36	393.21
505.53	418.96
505.71	386.19
505.88	496.19
506.06	358.10
506.23	451.72
506.41	430.66
506.58	454.06
506.76	440.02
506.93	348.74
507.11	365.12
507.28	386.19
507.46	390.87
507.63	393.21
507.81	381.51
507.98	344.06
508.16	461.09
508.33	449.38
508.50	440.02
508.68	475.13
508.85	411.93
509.03	372.15
509.20	311.29
509.38	465.77
509.55	451.72
509.73	372.15
509.90	468.11
510.08	397.89
510.25	433.00
510.42	477.47
510.60	425.98
510.77	449.38
510.95	491.51
511.12	435.34
511.30	395.55
511.47	498.53
511.64	475.13
511.82	372.15
511.99	409.59
512.17	407.25
512.34	379.17
512.51	404.91
512.69	430.66
512.86	393.21
513.04	407.25
513.21	447.04
513.38	388.53
513.56	409.59
513.73	351.08
513.90	376.83
514.08	416.62
514.25	442.36
514.43	447.04
514.60	372.15
514.77	395.55
514.95	423.64
515.12	512.58
515.29	390.87
515.47	463.43
515.64	362.78
515.81	470.45
515.99	484.49
516.16	393.21
516.33	500.87
516.51	444.70
516.68	400.23
516.85	397.89
517.03	484.49
517.20	479.81
517.37	372.15
517.54	437.68
517.72	526.62
517.89	418.96
518.06	318.31
518.24	500.87
518.41	428.32
518.58	397.89
518.75	423.64
518.93	423.64
519.10	414.27
519.27	393.21
519.45	381.51
519.62	425.98
519.79	435.34
519.96	454.06
520.14	414.27
520.31	421.30
520.48	416.62
520.65	400.23
520.83	440.02
521.00	402.57
521.17	418.96
521.34	461.09
521.52	451.72
521.69	376.83
521.86	468.11
522.03	404.91
522.20	355.76
522.38	397.89
522.55	381.51
522.72	365.12
522.89	397.89
523.07	425.98
523.24	353.42
523.41	402.57
523.58	404.91
523.75	437.68
523.92	430.66
524.10	362.78
524.27	451.72
524.44	470.45
524.61	468.11
524.78	433.00
524.96	381.51
525.13	437.68
525.30	365.12
525.47	379.17
525.64	381.51
525.81	465.77
525.98	404.91
526.16	395.55
526.33	407.25
526.50	393.21
526.67	301.93
526.84	404.91
527.01	416.62
527.18	379.17
527.36	451.72
527.53	456.40
527.70	379.17
527.87	379.17
528.04	477.47
528.21	418.96
528.38	409.59
528.55	475.13
528.72	402.57
528.89	498.53
529.07	365.12
529.24	430.66
529.41	411.93
529.58	451.72
529.75	411.93
529.92	451.72
530.09	404.91
530.26	435.34
530.43	428.32
530.60	362.78
530.77	409.59
530.94	430.66
531.11	449.38
531.28	330.02
531.46	456.40
531.63	409.59
531.80	423.64
531.97	411.93
532.14	346.40
532.31	451.72
532.48	418.96
532.65	470.45
532.82	430.66
532.99	475.13
533.16	428.32
533.33	383.85
533.50	409.59
533.67	442.36
533.84	451.72
534.01	493.85
534.18	402.57
534.35	435.34
534.52	330.02
534.69	451.72
534.86	433.00
535.03	421.30
535.20	381.51
535.37	344.06
535.54	421.30
535.71	409.59
535.88	489.17
536.05	484.49
536.22	435.34
536.38	390.87
536.55	383.85
536.72	430.66
536.89	407.25
537.06	365.12
537.23	348.74
537.40	402.57
537.57	461.09
537.74	435.34
537.91	430.66
538.08	437.68
538.25	440.02
538.42	437.68
538.59	418.96
538.75	390.87
538.92	381.51
539.09	393.21
539.26	339.38
539.43	430.66
539.60	425.98
539.77	458.74
539.94	383.85
540.11	461.09
540.28	479.81
540.44	414.27
540.61	374.49
540.78	423.64
540.95	400.23
541.12	440.02
541.29	360.44
541.46	442.36
541.62	470.45
541.79	365.12
541.96	437.68
542.13	344.06
542.30	409.59
542.47	409.59
542.63	402.57
542.80	461.09
542.97	372.15
543.14	402.57
543.31	449.38
543.48	451.72
543.64	362.78
543.81	332.36
543.98	418.96
544.15	395.55
544.32	388.53
544.48	402.57
544.65	374.49
544.82	376.83
544.99	351.08
545.16	402.57
545.32	451.72
545.49	449.38
545.66	463.43
545.83	454.06
546.00	365.12
546.16	353.42
546.33	372.15
546.50	369.80
546.67	393.21
546.83	407.25
547.00	435.34
547.17	425.98
547.34	470.45
547.50	475.13
547.67	386.19
547.84	409.59
548.00	456.40
548.17	386.19
548.34	330.02
548.51	421.30
548.67	437.68
548.84	407.25
549.01	472.79
549.18	425.98
549.34	411.93
549.51	395.55
549.68	402.57
549.84	430.66
550.01	416.62
550.18	489.17
550.34	423.64
550.51	423.64
550.68	395.55
550.84	407.25
551.01	449.38
551.18	433.00
551.34	367.46
551.51	339.38
551.68	388.53
551.84	360.44
552.01	444.70
552.18	411.93
552.34	421.30
552.51	411.93
552.68	421.30
552.84	372.15
553.01	353.42
553.18	409.59
553.34	416.62
553.51	451.72
553.67	423.64
553.84	463.43
554.01	369.80
554.17	421.30
554.34	404.91
554.51	411.93
554.67	454.06
554.84	411.93
555.00	353.42
555.17	395.55
555.33	414.27
555.50	390.87
555.67	454.06
555.83	416.62
556.00	416.62
556.16	566.41
556.33	454.06
556.50	376.83
556.66	517.26
556.83	390.87
556.99	470.45
557.16	404.91
557.32	376.83
557.49	433.00
557.65	383.85
557.82	367.46
557.98	407.25
558.15	433.00
558.32	369.80
558.48	484.49
558.65	425.98
558.81	407.25
558.98	402.57
559.14	440.02
559.31	435.34
559.47	435.34
559.64	454.06
559.80	376.83
559.97	421.30
560.13	381.51
560.30	395.55
560.46	458.74
560.63	367.46
560.79	451.72
560.96	435.34
561.12	341.72
561.29	433.00
561.45	400.23
561.61	407.25
561.78	440.02
561.94	334.70
562.11	372.15
562.27	404.91
562.44	376.83
562.60	414.27
562.77	404.91
562.93	430.66
563.10	430.66
563.26	367.46
563.42	393.21
563.59	404.91
563.75	440.02
563.92	514.92
564.08	430.66
564.24	386.19
564.41	465.77
564.57	416.62
564.74	395.55
564.90	374.49
565.07	496.19
565.23	379.17
565.39	325.33
565.56	451.72
565.72	402.57
565.88	367.46
566.05	381.51
566.21	477.47
566.38	454.06
566.54	451.72
566.70	425.98
566.87	517.26
567.03	376.83
567.19	414.27
567.36	435.34
567.52	360.44
567.68	383.85
567.85	428.32
568.01	362.78
568.17	404.91
568.34	421.30
568.50	376.83
568.66	418.96
568.83	456.40
568.99	407.25
569.15	451.72
569.32	449.38
569.48	397.89
569.64	376.83
569.81	372.15
569.97	400.23
570.13	418.96
570.30	456.40
570.46	444.70
570.62	397.89
570.78	390.87
570.95	449.38
571.11	451.72
571.27	489.17
571.43	411.93
571.60	507.90
571.76	430.66
571.92	395.55
572.09	447.04
572.25	423.64
572.41	475.13
572.57	465.77
572.74	388.53
572.90	421.30
573.06	353.42
573.22	468.11
573.38	418.96
573.55	503.22
573.71	404.91
573.87	456.40
574.03	402.57
574.20	437.68
574.36	388.53
574.52	404.91
574.68	402.57
574.84	381.51
575.01	407.25
575.17	437.68
575.33	379.17
575.49	390.87
575.65	372.15
575.82	379.17
575.98	444.70
576.14	369.80
576.30	440.02
576.46	479.81
576.62	461.09
576.79	414.27
576.95	383.85
577.11	402.57
577.27	421.30
577.43	437.68
577.59	454.06
577.75	461.09
577.92	433.00
578.08	437.68
578.24	330.02
578.40	526.62
578.56	435.34
578.72	425.98
578.88	425.98
579.04	404.91
579.21	383.85
579.37	449.38
579.53	411.93
579.69	484.49
579.85	393.21
580.01	400.23
580.17	456.40
580.33	437.68
580.49	351.08
580.65	423.64
580.82	379.17
580.98	351.08
581.14	369.80
581.30	409.59
581.46	458.74
581.62	421.30
581.78	402.57
581.94	416.62
582.10	374.49
582.26	418.96
582.42	437.68
582.58	430.66
582.74	386.19
582.90	482.15
583.06	414.27
583.22	440.02
583.38	454.06
583.54	404.91
583.70	465.77
583.86	374.49
584.02	458.74
584.18	440.02
584.34	381.51
584.50	393.21
584.66	416.62
584.82	414.27
584.98	444.70
585.14	447.04
585.30	440.02
585.46	423.64
585.62	322.99
585.78	379.17
585.94	433.00
586.10	374.49
586.26	409.59
586.42	491.51
586.58	468.11
586.74	386.19
586.90	388.53
587.06	402.57
587.22	437.68
587.38	358.10
587.54	383.85
587.70	428.32
587.86	505.56
588.02	362.78
588.18	416.62
588.34	411.93
588.49	428.32
588.65	482.15
588.81	411.93
588.97	435.34
589.13	435.34
589.29	444.70
589.45	456.40
589.61	435.34
589.77	449.38
589.93	334.70
590.08	341.72
590.24	386.19
590.40	411.93
590.56	437.68
590.72	414.27
590.88	451.72
591.04	381.51
591.20	437.68
591.35	468.11
591.51	402.57
591.67	430.66
591.83	444.70
591.99	463.43
592.15	475.13
592.31	461.09
592.46	381.51
592.62	428.32
592.78	461.09
592.94	360.44
593.10	358.10
593.26	355.76
593.41	367.46
593.57	414.27
593.73	376.83
593.89	374.49
594.05	313.63
594.20	486.83
594.36	372.15
594.52	393.21
594.68	407.25
594.84	400.23
594.99	400.23
595.15	442.36
595.31	465.77
595.47	421.30
595.62	451.72
595.78	379.17
595.94	470.45
596.10	355.76
596.25	430.66
596.41	435.34
596.57	425.98
596.73	447.04
596.88	498.53
597.04	437.68
597.20	433.00
597.36	376.83
597.51	404.91
597.67	423.64
597.83	447.04
597.99	470.45
598.14	456.40
598.30	524.28
598.46	430.66
598.61	418.96
598.77	435.34
598.93	421.30
599.09	416.62
599.24	379.17
599.40	447.04
599.56	416.62
599.71	489.17
599.87	397.89
600.03	414.27
600.18	451.72
600.34	472.79
600.50	437.68
600.65	404.91
600.81	451.72
600.97	444.70
601.12	423.64
601.28	409.59
601.44	421.30
601.59	421.30
601.75	430.66
601.91	479.81
602.06	423.64
602.22	503.22
602.37	477.47
602.53	425.98
602.69	411.93
602.84	451.72
603.00	388.53
603.16	454.06
603.31	510.24
603.47	402.57
603.62	404.91
603.78	428.32
603.94	472.79
604.09	404.91
604.25	423.64
604.40	421.30
604.56	388.53
604.71	454.06
604.87	365.12
605.03	423.64
605.18	451.72
605.34	409.59
605.49	435.34
605.65	414.27
605.80	440.02
605.96	353.42
606.12	390.87
606.27	376.83
606.43	451.72
606.58	421.30
606.74	393.21
606.89	444.70
607.05	468.11
607.20	372.15
607.36	395.55
607.51	416.62
607.67	418.96
607.82	435.34
607.98	379.17
608.13	418.96
608.29	430.66
608.44	538.32
608.60	404.91
608.75	470.45
608.91	477.47
609.06	402.57
609.22	409.59
609.37	381.51
609.53	404.91
609.68	461.09
609.84	423.64
609.99	395.55
610.15	411.93
