SpectraSuite Data File
++++++++++++++++++++++++++++++++++++
Date: Fri Oct 25 12:10:52 EDT 2013
User: price-jones
Dark Spectrum Present: No
Reference Spectrum Present: No
Number of Sampled Component Spectra: 1
Spectrometers: USB2+H05261
Integration Time (usec): 100000 (USB2+H05261)
Spectra Averaged: 1 (USB2+H05261)
Boxcar Smoothing: 0 (USB2+H05261)
Correct for Electrical Dark: No (USB2+H05261)
Strobe/Lamp Enabled: No (USB2+H05261)
Correct for Detector Non-linearity: No (USB2+H05261)
Correct for Stray Light: No (USB2+H05261)
Number of Pixels in Processed Spectrum: 2048
>>>>>Begin Processed Spectral Data<<<<<
365.73	360.44
365.92	360.44
366.12	360.44
366.32	269.16
366.52	301.93
366.72	243.42
366.91	241.08
367.11	264.48
367.31	231.71
367.51	201.29
367.70	203.63
367.90	255.12
368.10	224.69
368.30	243.42
368.49	262.14
368.69	294.91
368.89	257.46
369.09	248.10
369.28	292.57
369.48	327.68
369.68	231.71
369.87	308.95
370.07	220.01
370.27	355.76
370.47	346.40
370.66	390.87
370.86	367.46
371.06	472.79
371.25	402.57
371.45	367.46
371.65	465.77
371.84	402.57
372.04	395.55
372.24	411.93
372.44	386.19
372.63	379.17
372.83	390.87
373.03	418.96
373.22	409.59
373.42	369.80
373.62	397.89
373.81	423.64
374.01	369.80
374.21	423.64
374.40	374.49
374.60	411.93
374.79	421.30
374.99	475.13
375.19	416.62
375.38	365.12
375.58	393.21
375.78	430.66
375.97	404.91
376.17	442.36
376.37	423.64
376.56	454.06
376.76	386.19
376.95	369.80
377.15	407.25
377.35	400.23
377.54	365.12
377.74	404.91
377.93	325.33
378.13	318.31
378.33	344.06
378.52	374.49
378.72	348.74
378.91	444.70
379.11	346.40
379.31	437.68
379.50	425.98
379.70	414.27
379.89	470.45
380.09	400.23
380.28	383.85
380.48	397.89
380.68	381.51
380.87	390.87
381.07	444.70
381.26	395.55
381.46	400.23
381.65	390.87
381.85	388.53
382.04	461.09
382.24	418.96
382.43	299.59
382.63	362.78
382.83	421.30
383.02	360.44
383.22	440.02
383.41	376.83
383.61	395.55
383.80	437.68
384.00	407.25
384.19	390.87
384.39	428.32
384.58	451.72
384.78	484.49
384.97	322.99
385.17	351.08
385.36	418.96
385.56	407.25
385.75	376.83
385.95	423.64
386.14	418.96
386.34	435.34
386.53	465.77
386.72	454.06
386.92	454.06
387.11	463.43
387.31	440.02
387.50	362.78
387.70	344.06
387.89	358.10
388.09	308.95
388.28	397.89
388.48	381.51
388.67	372.15
388.86	407.25
389.06	414.27
389.25	437.68
389.45	409.59
389.64	355.76
389.84	442.36
390.03	435.34
390.22	418.96
390.42	386.19
390.61	358.10
390.81	311.29
391.00	409.59
391.19	402.57
391.39	383.85
391.58	440.02
391.78	402.57
391.97	402.57
392.16	334.70
392.36	428.32
392.55	454.06
392.75	456.40
392.94	428.32
393.13	470.45
393.33	468.11
393.52	451.72
393.71	437.68
393.91	390.87
394.10	397.89
394.29	372.15
394.49	374.49
394.68	390.87
394.88	379.17
395.07	388.53
395.26	423.64
395.46	421.30
395.65	454.06
395.84	400.23
396.04	442.36
396.23	376.83
396.42	407.25
396.62	447.04
396.81	414.27
397.00	386.19
397.19	362.78
397.39	400.23
397.58	442.36
397.77	463.43
397.97	409.59
398.16	388.53
398.35	360.44
398.55	386.19
398.74	393.21
398.93	409.59
399.12	425.98
399.32	442.36
399.51	379.17
399.70	451.72
399.90	411.93
400.09	395.55
400.28	416.62
400.47	393.21
400.67	449.38
400.86	411.93
401.05	411.93
401.24	395.55
401.44	407.25
401.63	386.19
401.82	430.66
402.01	430.66
402.21	400.23
402.40	428.32
402.59	360.44
402.78	358.10
402.97	393.21
403.17	421.30
403.36	355.76
403.55	409.59
403.74	393.21
403.93	472.79
404.13	414.27
404.32	421.30
404.51	367.46
404.70	440.02
404.89	425.98
405.09	400.23
405.28	381.51
405.47	402.57
405.66	369.80
405.85	381.51
406.05	433.00
406.24	372.15
406.43	344.06
406.62	428.32
406.81	470.45
407.00	397.89
407.20	374.49
407.39	458.74
407.58	400.23
407.77	440.02
407.96	369.80
408.15	447.04
408.34	414.27
408.54	404.91
408.73	346.40
408.92	402.57
409.11	379.17
409.30	486.83
409.49	341.72
409.68	397.89
409.87	397.89
410.07	437.68
410.26	428.32
410.45	437.68
410.64	437.68
410.83	400.23
411.02	367.46
411.21	346.40
411.40	397.89
411.59	421.30
411.78	402.57
411.98	407.25
412.17	395.55
412.36	414.27
412.55	390.87
412.74	360.44
412.93	423.64
413.12	418.96
413.31	393.21
413.50	418.96
413.69	395.55
413.88	414.27
414.07	402.57
414.26	348.74
414.45	461.09
414.64	367.46
414.83	397.89
415.02	461.09
415.22	440.02
415.41	390.87
415.60	425.98
415.79	425.98
415.98	475.13
416.17	411.93
416.36	404.91
416.55	414.27
416.74	388.53
416.93	402.57
417.12	433.00
417.31	381.51
417.50	414.27
417.69	425.98
417.88	475.13
418.07	362.78
418.26	440.02
418.45	435.34
418.64	397.89
418.83	379.17
419.02	404.91
419.21	425.98
419.39	348.74
419.58	407.25
419.77	313.63
419.96	386.19
420.15	402.57
420.34	402.57
420.53	472.79
420.72	451.72
420.91	409.59
421.10	444.70
421.29	451.72
421.48	442.36
421.67	390.87
421.86	470.45
422.05	425.98
422.24	379.17
422.43	379.17
422.61	416.62
422.80	458.74
422.99	430.66
423.18	360.44
423.37	456.40
423.56	362.78
423.75	376.83
423.94	374.49
424.13	362.78
424.32	344.06
424.50	404.91
424.69	437.68
424.88	400.23
425.07	416.62
425.26	465.77
425.45	440.02
425.64	325.33
425.83	421.30
426.01	451.72
426.20	416.62
426.39	444.70
426.58	400.23
426.77	383.85
426.96	374.49
427.15	456.40
427.33	397.89
427.52	414.27
427.71	367.46
427.90	411.93
428.09	402.57
428.28	383.85
428.46	344.06
428.65	442.36
428.84	393.21
429.03	468.11
429.22	440.02
429.40	470.45
429.59	411.93
429.78	451.72
429.97	479.81
430.16	376.83
430.34	355.76
430.53	383.85
430.72	414.27
430.91	468.11
431.10	484.49
431.28	433.00
431.47	423.64
431.66	451.72
431.85	444.70
432.03	404.91
432.22	418.96
432.41	376.83
432.60	402.57
432.79	376.83
432.97	421.30
433.16	395.55
433.35	400.23
433.54	407.25
433.72	440.02
433.91	374.49
434.10	390.87
434.28	395.55
434.47	433.00
434.66	414.27
434.85	423.64
435.03	397.89
435.22	442.36
435.41	425.98
435.59	339.38
435.78	379.17
435.97	409.59
436.16	421.30
436.34	381.51
436.53	409.59
436.72	355.76
436.90	418.96
437.09	395.55
437.28	430.66
437.46	414.27
437.65	484.49
437.84	472.79
438.02	379.17
438.21	411.93
438.40	463.43
438.58	397.89
438.77	451.72
438.96	390.87
439.14	505.56
439.33	472.79
439.52	416.62
439.70	402.57
439.89	372.15
440.08	444.70
440.26	409.59
440.45	470.45
440.63	437.68
440.82	486.83
441.01	414.27
441.19	423.64
441.38	351.08
441.57	402.57
441.75	393.21
441.94	510.24
442.12	433.00
442.31	430.66
442.50	402.57
442.68	362.78
442.87	374.49
443.05	456.40
443.24	386.19
443.43	393.21
443.61	503.22
443.80	351.08
443.98	423.64
444.17	372.15
444.35	479.81
444.54	428.32
444.73	372.15
444.91	533.64
445.10	411.93
445.28	395.55
445.47	393.21
445.65	463.43
445.84	381.51
446.02	388.53
446.21	374.49
446.39	388.53
446.58	479.81
446.77	465.77
446.95	360.44
447.14	414.27
447.32	440.02
447.51	409.59
447.69	407.25
447.88	425.98
448.06	404.91
448.25	423.64
448.43	290.23
448.62	409.59
448.80	437.68
448.99	470.45
449.17	393.21
449.36	360.44
449.54	407.25
449.73	395.55
449.91	379.17
450.10	409.59
450.28	465.77
450.46	458.74
450.65	449.38
450.83	425.98
451.02	430.66
451.20	472.79
451.39	376.83
451.57	383.85
451.76	510.24
451.94	351.08
452.13	503.22
452.31	442.36
452.49	402.57
452.68	362.78
452.86	477.47
453.05	430.66
453.23	411.93
453.42	379.17
453.60	465.77
453.78	414.27
453.97	388.53
454.15	425.98
454.34	374.49
454.52	360.44
454.70	489.17
454.89	489.17
455.07	440.02
455.26	374.49
455.44	433.00
455.62	369.80
455.81	390.87
455.99	465.77
456.17	388.53
456.36	355.76
456.54	447.04
456.73	507.90
456.91	440.02
457.09	376.83
457.28	362.78
457.46	454.06
457.64	449.38
457.83	372.15
458.01	414.27
458.19	386.19
458.38	395.55
458.56	381.51
458.74	451.72
458.93	386.19
459.11	376.83
459.29	400.23
459.48	433.00
459.66	414.27
459.84	472.79
460.03	507.90
460.21	425.98
460.39	376.83
460.57	433.00
460.76	386.19
460.94	428.32
461.12	416.62
461.31	454.06
461.49	435.34
461.67	379.17
461.85	421.30
462.04	367.46
462.22	805.14
462.40	348.74
462.59	449.38
462.77	362.78
462.95	367.46
463.13	463.43
463.32	440.02
463.50	435.34
463.68	451.72
463.86	381.51
464.05	407.25
464.23	402.57
464.41	393.21
464.59	404.91
464.78	428.32
464.96	416.62
465.14	444.70
465.32	383.85
465.50	456.40
465.69	435.34
465.87	407.25
466.05	383.85
466.23	416.62
466.41	344.06
466.60	416.62
466.78	400.23
466.96	400.23
467.14	447.04
467.32	472.79
467.51	463.43
467.69	479.81
467.87	416.62
468.05	404.91
468.23	440.02
468.41	383.85
468.60	383.85
468.78	484.49
468.96	505.56
469.14	418.96
469.32	421.30
469.50	372.15
469.69	440.02
469.87	339.38
470.05	407.25
470.23	454.06
470.41	442.36
470.59	404.91
470.77	367.46
470.95	362.78
471.14	360.44
471.32	388.53
471.50	475.13
471.68	440.02
471.86	362.78
472.04	388.53
472.22	454.06
472.40	430.66
472.58	327.68
472.77	404.91
472.95	449.38
473.13	409.59
473.31	414.27
473.49	393.21
473.67	360.44
473.85	374.49
474.03	421.30
474.21	442.36
474.39	407.25
474.57	463.43
474.75	435.34
474.93	442.36
475.12	358.10
475.30	374.49
475.48	425.98
475.66	458.74
475.84	379.17
476.02	348.74
476.20	397.89
476.38	454.06
476.56	458.74
476.74	416.62
476.92	400.23
477.10	444.70
477.28	477.47
477.46	468.11
477.64	545.34
477.82	409.59
478.00	430.66
478.18	407.25
478.36	360.44
478.54	397.89
478.72	437.68
478.90	416.62
479.08	369.80
479.26	416.62
479.44	425.98
479.62	348.74
479.80	351.08
479.98	351.08
480.16	369.80
480.34	337.04
480.52	304.27
480.70	425.98
480.88	397.89
481.06	393.21
481.24	416.62
481.41	362.78
481.59	437.68
481.77	365.12
481.95	388.53
482.13	435.34
482.31	514.92
482.49	463.43
482.67	449.38
482.85	416.62
483.03	416.62
483.21	442.36
483.39	449.38
483.57	381.51
483.74	400.23
483.92	479.81
484.10	344.06
484.28	454.06
484.46	437.68
484.64	411.93
484.82	402.57
485.00	325.33
485.18	372.15
485.35	423.64
485.53	379.17
485.71	468.11
485.89	425.98
486.07	367.46
486.25	468.11
486.43	430.66
486.61	454.06
486.78	423.64
486.96	393.21
487.14	435.34
487.32	376.83
487.50	418.96
487.68	482.15
487.85	428.32
488.03	433.00
488.21	425.98
488.39	397.89
488.57	402.57
488.75	421.30
488.92	472.79
489.10	411.93
489.28	381.51
489.46	428.32
489.64	458.74
489.81	433.00
489.99	468.11
490.17	402.57
490.35	428.32
490.53	393.21
490.70	362.78
490.88	383.85
491.06	418.96
491.24	435.34
491.41	355.76
491.59	374.49
491.77	311.29
491.95	421.30
492.13	428.32
492.30	381.51
492.48	451.72
492.66	433.00
492.84	390.87
493.01	395.55
493.19	374.49
493.37	358.10
493.54	456.40
493.72	358.10
493.90	430.66
494.08	461.09
494.25	428.32
494.43	440.02
494.61	402.57
494.79	435.34
494.96	404.91
495.14	447.04
495.32	374.49
495.49	400.23
495.67	430.66
495.85	379.17
496.02	386.19
496.20	404.91
496.38	428.32
496.55	435.34
496.73	414.27
496.91	430.66
497.09	404.91
497.26	388.53
497.44	423.64
497.62	442.36
497.79	468.11
497.97	428.32
498.14	393.21
498.32	433.00
498.50	414.27
498.67	404.91
498.85	407.25
499.03	374.49
499.20	425.98
499.38	489.17
499.56	414.27
499.73	468.11
499.91	409.59
500.08	393.21
500.26	477.47
500.44	397.89
500.61	402.57
500.79	451.72
500.97	433.00
501.14	449.38
501.32	421.30
501.49	442.36
501.67	360.44
501.84	435.34
502.02	400.23
502.20	458.74
502.37	397.89
502.55	381.51
502.72	428.32
502.90	425.98
503.07	409.59
503.25	456.40
503.43	369.80
503.60	458.74
503.78	407.25
503.95	458.74
504.13	397.89
504.30	475.13
504.48	430.66
504.65	486.83
504.83	472.79
505.01	456.40
505.18	374.49
505.36	376.83
505.53	418.96
505.71	414.27
505.88	435.34
506.06	437.68
506.23	372.15
506.41	404.91
506.58	397.89
506.76	433.00
506.93	444.70
507.11	468.11
507.28	355.76
507.46	458.74
507.63	407.25
507.81	362.78
507.98	365.12
508.16	379.17
508.33	465.77
508.50	407.25
508.68	381.51
508.85	372.15
509.03	374.49
509.20	430.66
509.38	428.32
509.55	493.85
509.73	400.23
509.90	456.40
510.08	390.87
510.25	411.93
510.42	351.08
510.60	433.00
510.77	414.27
510.95	421.30
511.12	407.25
511.30	442.36
511.47	395.55
511.64	411.93
511.82	437.68
511.99	463.43
512.17	409.59
512.34	418.96
512.51	435.34
512.69	482.15
512.86	440.02
513.04	433.00
513.21	416.62
513.38	428.32
513.56	449.38
513.73	395.55
513.90	379.17
514.08	416.62
514.25	444.70
514.43	447.04
514.60	390.87
514.77	430.66
514.95	421.30
515.12	454.06
515.29	425.98
515.47	447.04
515.64	409.59
515.81	376.83
515.99	435.34
516.16	383.85
516.33	395.55
516.51	482.15
516.68	365.12
516.85	379.17
517.03	339.38
517.20	433.00
517.37	372.15
517.54	386.19
517.72	404.91
517.89	397.89
518.06	395.55
518.24	409.59
518.41	458.74
518.58	416.62
518.75	374.49
518.93	428.32
519.10	386.19
519.27	421.30
519.45	402.57
519.62	395.55
519.79	390.87
519.96	386.19
520.14	355.76
520.31	498.53
520.48	407.25
520.65	435.34
520.83	465.77
521.00	430.66
521.17	482.15
521.34	379.17
521.52	388.53
521.69	437.68
521.86	423.64
522.03	433.00
522.20	449.38
522.38	404.91
522.55	435.34
522.72	374.49
522.89	365.12
523.07	402.57
523.24	425.98
523.41	416.62
523.58	400.23
523.75	440.02
523.92	421.30
524.10	372.15
524.27	505.56
524.44	423.64
524.61	386.19
524.78	376.83
524.96	454.06
525.13	386.19
525.30	386.19
525.47	416.62
525.64	388.53
525.81	404.91
525.98	435.34
526.16	437.68
526.33	521.94
526.50	407.25
526.67	400.23
526.84	423.64
527.01	442.36
527.18	428.32
527.36	407.25
527.53	416.62
527.70	383.85
527.87	433.00
528.04	458.74
528.21	463.43
528.38	393.21
528.55	477.47
528.72	402.57
528.89	402.57
529.07	402.57
529.24	435.34
529.41	437.68
529.58	395.55
529.75	402.57
529.92	442.36
530.09	390.87
530.26	414.27
530.43	486.83
530.60	416.62
530.77	411.93
530.94	400.23
531.11	461.09
531.28	386.19
531.46	388.53
531.63	400.23
531.80	440.02
531.97	475.13
532.14	409.59
532.31	451.72
532.48	475.13
532.65	327.68
532.82	449.38
532.99	421.30
533.16	400.23
533.33	383.85
533.50	437.68
533.67	423.64
533.84	400.23
534.01	503.22
534.18	425.98
534.35	360.44
534.52	395.55
534.69	411.93
534.86	346.40
535.03	395.55
535.20	430.66
535.37	416.62
535.54	430.66
535.71	400.23
535.88	418.96
536.05	390.87
536.22	430.66
536.38	393.21
536.55	355.76
536.72	376.83
536.89	437.68
537.06	449.38
537.23	407.25
537.40	482.15
537.57	425.98
537.74	451.72
537.91	416.62
538.08	390.87
538.25	437.68
538.42	430.66
538.59	416.62
538.75	414.27
538.92	437.68
539.09	409.59
539.26	365.12
539.43	442.36
539.60	433.00
539.77	402.57
539.94	402.57
540.11	468.11
540.28	458.74
540.44	386.19
540.61	395.55
540.78	381.51
540.95	395.55
541.12	376.83
541.29	386.19
541.46	447.04
541.62	461.09
541.79	376.83
541.96	358.10
542.13	322.99
542.30	369.80
542.47	444.70
542.63	411.93
542.80	454.06
542.97	397.89
543.14	444.70
543.31	447.04
543.48	365.12
543.64	449.38
543.81	484.49
543.98	437.68
544.15	458.74
544.32	472.79
544.48	418.96
544.65	454.06
544.82	397.89
544.99	411.93
545.16	458.74
545.32	482.15
545.49	407.25
545.66	430.66
545.83	353.42
546.00	475.13
546.16	379.17
546.33	367.46
546.50	425.98
546.67	468.11
546.83	463.43
547.00	484.49
547.17	372.15
547.34	379.17
547.50	456.40
547.67	468.11
547.84	449.38
548.00	407.25
548.17	470.45
548.34	358.10
548.51	451.72
548.67	390.87
548.84	369.80
549.01	351.08
549.18	390.87
549.34	440.02
549.51	388.53
549.68	418.96
549.84	421.30
550.01	454.06
550.18	470.45
550.34	463.43
550.51	435.34
550.68	521.94
550.84	425.98
551.01	454.06
551.18	477.47
551.34	390.87
551.51	388.53
551.68	348.74
551.84	322.99
552.01	407.25
552.18	425.98
552.34	435.34
552.51	475.13
552.68	416.62
552.84	395.55
553.01	444.70
553.18	372.15
553.34	440.02
553.51	416.62
553.67	451.72
553.84	402.57
554.01	468.11
554.17	374.49
554.34	421.30
554.51	404.91
554.67	425.98
554.84	447.04
555.00	472.79
555.17	458.74
555.33	397.89
555.50	493.85
555.67	475.13
555.83	374.49
556.00	414.27
556.16	503.22
556.33	407.25
556.50	437.68
556.66	376.83
556.83	376.83
556.99	468.11
557.16	440.02
557.32	425.98
557.49	421.30
557.65	353.42
557.82	454.06
557.98	510.24
558.15	425.98
558.32	376.83
558.48	416.62
558.65	493.85
558.81	409.59
558.98	433.00
559.14	437.68
559.31	437.68
559.47	540.66
559.64	386.19
559.80	376.83
559.97	386.19
560.13	409.59
560.30	423.64
560.46	400.23
560.63	433.00
560.79	458.74
560.96	428.32
561.12	430.66
561.29	430.66
561.45	418.96
561.61	430.66
561.78	521.94
561.94	400.23
562.11	421.30
562.27	393.21
562.44	386.19
562.60	411.93
562.77	451.72
562.93	423.64
563.10	393.21
563.26	433.00
563.42	435.34
563.59	451.72
563.75	353.42
563.92	418.96
564.08	411.93
564.24	458.74
564.41	418.96
564.57	416.62
564.74	418.96
564.90	435.34
565.07	411.93
565.23	402.57
565.39	442.36
565.56	388.53
565.72	376.83
565.88	379.17
566.05	409.59
566.21	475.13
566.38	430.66
566.54	433.00
566.70	444.70
566.87	393.21
567.03	390.87
567.19	428.32
567.36	372.15
567.52	435.34
567.68	468.11
567.85	404.91
568.01	444.70
568.17	383.85
568.34	425.98
568.50	437.68
568.66	447.04
568.83	465.77
568.99	402.57
569.15	365.12
569.32	470.45
569.48	425.98
569.64	337.04
569.81	454.06
569.97	458.74
570.13	414.27
570.30	479.81
570.46	348.74
570.62	486.83
570.78	376.83
570.95	437.68
571.11	444.70
571.27	447.04
571.43	421.30
571.60	411.93
571.76	327.68
571.92	383.85
572.09	451.72
572.25	407.25
572.41	428.32
572.57	425.98
572.74	376.83
572.90	496.19
573.06	397.89
573.22	451.72
573.38	433.00
573.55	442.36
573.71	414.27
573.87	435.34
574.03	421.30
574.20	404.91
574.36	428.32
574.52	482.15
574.68	372.15
574.84	386.19
575.01	444.70
575.17	507.90
575.33	379.17
575.49	433.00
575.65	528.96
575.82	425.98
575.98	444.70
576.14	449.38
576.30	407.25
576.46	416.62
576.62	402.57
576.79	470.45
576.95	451.72
577.11	437.68
577.27	374.49
577.43	402.57
577.59	477.47
577.75	451.72
577.92	486.83
578.08	475.13
578.24	472.79
578.40	444.70
578.56	447.04
578.72	395.55
578.88	498.53
579.04	409.59
579.21	475.13
579.37	444.70
579.53	365.12
579.69	489.17
579.85	444.70
580.01	414.27
580.17	409.59
580.33	388.53
580.49	423.64
580.65	411.93
580.82	409.59
580.98	397.89
581.14	433.00
581.30	390.87
581.46	402.57
581.62	390.87
581.78	479.81
581.94	491.51
582.10	376.83
582.26	433.00
582.42	423.64
582.58	404.91
582.74	451.72
582.90	428.32
583.06	418.96
583.22	411.93
583.38	369.80
583.54	348.74
583.70	411.93
583.86	351.08
584.02	395.55
584.18	433.00
584.34	390.87
584.50	461.09
584.66	376.83
584.82	414.27
584.98	468.11
585.14	397.89
585.30	437.68
585.46	407.25
585.62	376.83
585.78	433.00
585.94	444.70
586.10	407.25
586.26	353.42
586.42	479.81
586.58	402.57
586.74	418.96
586.90	472.79
587.06	400.23
587.22	421.30
587.38	390.87
587.54	512.58
587.70	489.17
587.86	440.02
588.02	388.53
588.18	407.25
588.34	400.23
588.49	458.74
588.65	402.57
588.81	477.47
588.97	390.87
589.13	482.15
589.29	416.62
589.45	484.49
589.61	386.19
589.77	428.32
589.93	379.17
590.08	365.12
590.24	428.32
590.40	444.70
590.56	449.38
590.72	461.09
590.88	437.68
591.04	468.11
591.20	435.34
591.35	451.72
591.51	447.04
591.67	386.19
591.83	358.10
591.99	393.21
592.15	461.09
592.31	418.96
592.46	372.15
592.62	437.68
592.78	397.89
592.94	416.62
593.10	454.06
593.26	444.70
593.41	393.21
593.57	381.51
593.73	458.74
593.89	393.21
594.05	458.74
594.20	372.15
594.36	390.87
594.52	395.55
594.68	393.21
594.84	425.98
594.99	493.85
595.15	393.21
595.31	472.79
595.47	514.92
595.62	435.34
595.78	486.83
595.94	428.32
596.10	461.09
596.25	411.93
596.41	374.49
596.57	411.93
596.73	430.66
596.88	454.06
597.04	468.11
597.20	418.96
597.36	414.27
597.51	404.91
597.67	444.70
597.83	374.49
597.99	430.66
598.14	425.98
598.30	430.66
598.46	400.23
598.61	433.00
598.77	435.34
598.93	400.23
599.09	451.72
599.24	414.27
599.40	430.66
599.56	437.68
599.71	472.79
599.87	388.53
600.03	374.49
600.18	414.27
600.34	447.04
600.50	376.83
600.65	437.68
600.81	470.45
600.97	428.32
601.12	437.68
601.28	458.74
601.44	404.91
601.59	404.91
601.75	421.30
601.91	381.51
602.06	447.04
602.22	449.38
602.37	400.23
602.53	395.55
602.69	414.27
602.84	355.76
603.00	456.40
603.16	367.46
603.31	397.89
603.47	379.17
603.62	400.23
603.78	470.45
603.94	395.55
604.09	383.85
604.25	414.27
604.40	416.62
604.56	414.27
604.71	440.02
604.87	402.57
605.03	383.85
605.18	358.10
605.34	451.72
605.49	428.32
605.65	393.21
605.80	355.76
605.96	355.76
606.12	435.34
606.27	418.96
606.43	442.36
606.58	442.36
606.74	425.98
606.89	390.87
607.05	451.72
607.20	407.25
607.36	470.45
607.51	416.62
607.67	447.04
607.82	374.49
607.98	468.11
608.13	402.57
608.29	437.68
608.44	449.38
608.60	435.34
608.75	461.09
608.91	425.98
609.06	442.36
609.22	440.02
609.37	383.85
609.53	414.27
609.68	435.34
609.84	449.38
609.99	381.51
610.15	435.34
