SpectraSuite Data File
++++++++++++++++++++++++++++++++++++
Date: Fri Oct 25 12:10:34 EDT 2013
User: price-jones
Dark Spectrum Present: No
Reference Spectrum Present: No
Number of Sampled Component Spectra: 1
Spectrometers: USB2+H05261
Integration Time (usec): 100000 (USB2+H05261)
Spectra Averaged: 1 (USB2+H05261)
Boxcar Smoothing: 0 (USB2+H05261)
Correct for Electrical Dark: No (USB2+H05261)
Strobe/Lamp Enabled: No (USB2+H05261)
Correct for Detector Non-linearity: No (USB2+H05261)
Correct for Stray Light: No (USB2+H05261)
Number of Pixels in Processed Spectrum: 2048
>>>>>Begin Processed Spectral Data<<<<<
365.73	318.31
365.92	318.31
366.12	318.31
366.32	271.50
366.52	168.52
366.72	231.71
366.91	229.37
367.11	198.95
367.31	161.50
367.51	278.52
367.70	280.86
367.90	217.67
368.10	245.76
368.30	243.42
368.49	250.44
368.69	220.01
368.89	245.76
369.09	212.99
369.28	290.23
369.48	327.68
369.68	266.82
369.87	306.61
370.07	290.23
370.27	322.99
370.47	327.68
370.66	252.78
370.86	292.57
371.06	383.85
371.25	388.53
371.45	238.73
371.65	308.95
371.84	414.27
372.04	374.49
372.24	306.61
372.44	320.65
372.63	416.62
372.83	411.93
373.03	465.77
373.22	451.72
373.42	334.70
373.62	433.00
373.81	393.21
374.01	454.06
374.21	388.53
374.40	423.64
374.60	454.06
374.79	383.85
374.99	409.59
375.19	388.53
375.38	397.89
375.58	414.27
375.78	397.89
375.97	447.04
376.17	381.51
376.37	411.93
376.56	407.25
376.76	409.59
376.95	449.38
377.15	456.40
377.35	327.68
377.54	397.89
377.74	463.43
377.93	407.25
378.13	348.74
378.33	383.85
378.52	369.80
378.72	433.00
378.91	409.59
379.11	372.15
379.31	360.44
379.50	433.00
379.70	458.74
379.89	505.56
380.09	379.17
380.28	365.12
380.48	404.91
380.68	435.34
380.87	463.43
381.07	383.85
381.26	440.02
381.46	404.91
381.65	421.30
381.85	383.85
382.04	444.70
382.24	367.46
382.43	404.91
382.63	400.23
382.83	423.64
383.02	411.93
383.22	437.68
383.41	449.38
383.61	379.17
383.80	444.70
384.00	334.70
384.19	400.23
384.39	440.02
384.58	372.15
384.78	423.64
384.97	337.04
385.17	411.93
385.36	330.02
385.56	428.32
385.75	451.72
385.95	407.25
386.14	451.72
386.34	313.63
386.53	444.70
386.72	393.21
386.92	381.51
387.11	388.53
387.31	402.57
387.50	404.91
387.70	381.51
387.89	425.98
388.09	444.70
388.28	379.17
388.48	383.85
388.67	447.04
388.86	325.33
389.06	437.68
389.25	379.17
389.45	425.98
389.64	437.68
389.84	493.85
390.03	355.76
390.22	337.04
390.42	365.12
390.61	376.83
390.81	397.89
391.00	458.74
391.19	416.62
391.39	454.06
391.58	425.98
391.78	416.62
391.97	430.66
392.16	447.04
392.36	433.00
392.55	367.46
392.75	411.93
392.94	444.70
393.13	437.68
393.33	397.89
393.52	332.36
393.71	503.22
393.91	425.98
394.10	421.30
394.29	369.80
394.49	411.93
394.68	367.46
394.88	395.55
395.07	423.64
395.26	416.62
395.46	404.91
395.65	416.62
395.84	390.87
396.04	437.68
396.23	418.96
396.42	383.85
396.62	442.36
396.81	451.72
397.00	395.55
397.19	407.25
397.39	430.66
397.58	395.55
397.77	428.32
397.97	393.21
398.16	407.25
398.35	416.62
398.55	414.27
398.74	367.46
398.93	465.77
399.12	425.98
399.32	435.34
399.51	414.27
399.70	409.59
399.90	411.93
400.09	411.93
400.28	407.25
400.47	400.23
400.67	440.02
400.86	351.08
401.05	435.34
401.24	397.89
401.44	472.79
401.63	402.57
401.82	400.23
402.01	393.21
402.21	491.51
402.40	397.89
402.59	379.17
402.78	395.55
402.97	383.85
403.17	334.70
403.36	395.55
403.55	411.93
403.74	486.83
403.93	397.89
404.13	376.83
404.32	341.72
404.51	386.19
404.70	404.91
404.89	376.83
405.09	465.77
405.28	435.34
405.47	376.83
405.66	390.87
405.85	461.09
406.05	374.49
406.24	416.62
406.43	381.51
406.62	447.04
406.81	444.70
407.00	397.89
407.20	407.25
407.39	442.36
407.58	430.66
407.77	425.98
407.96	409.59
408.15	376.83
408.34	404.91
408.54	393.21
408.73	341.72
408.92	325.33
409.11	411.93
409.30	407.25
409.49	334.70
409.68	376.83
409.87	409.59
410.07	362.78
410.26	397.89
410.45	430.66
410.64	337.04
410.83	454.06
411.02	449.38
411.21	435.34
411.40	411.93
411.59	428.32
411.78	358.10
411.98	440.02
412.17	388.53
412.36	397.89
412.55	416.62
412.74	437.68
412.93	451.72
413.12	425.98
413.31	433.00
413.50	411.93
413.69	423.64
413.88	379.17
414.07	341.72
414.26	315.97
414.45	454.06
414.64	355.76
414.83	395.55
415.02	404.91
415.22	388.53
415.41	442.36
415.60	348.74
415.79	447.04
415.98	496.19
416.17	442.36
416.36	442.36
416.55	442.36
416.74	433.00
416.93	397.89
417.12	381.51
417.31	402.57
417.50	416.62
417.69	383.85
417.88	444.70
418.07	430.66
418.26	482.15
418.45	339.38
418.64	428.32
418.83	358.10
419.02	418.96
419.21	348.74
419.39	486.83
419.58	430.66
419.77	437.68
419.96	437.68
420.15	402.57
420.34	379.17
420.53	435.34
420.72	395.55
420.91	454.06
421.10	458.74
421.29	440.02
421.48	358.10
421.67	444.70
421.86	372.15
422.05	423.64
422.24	437.68
422.43	388.53
422.61	442.36
422.80	423.64
422.99	479.81
423.18	440.02
423.37	358.10
423.56	400.23
423.75	435.34
423.94	414.27
424.13	351.08
424.32	337.04
424.50	409.59
424.69	367.46
424.88	447.04
425.07	344.06
425.26	468.11
425.45	461.09
425.64	379.17
425.83	362.78
426.01	505.56
426.20	395.55
426.39	477.47
426.58	430.66
426.77	440.02
426.96	395.55
427.15	393.21
427.33	337.04
427.52	437.68
427.71	369.80
427.90	411.93
428.09	374.49
428.28	322.99
428.46	442.36
428.65	416.62
428.84	435.34
429.03	430.66
429.22	365.12
429.40	339.38
429.59	411.93
429.78	416.62
429.97	365.12
430.16	332.36
430.34	444.70
430.53	421.30
430.72	437.68
430.91	407.25
431.10	440.02
431.28	428.32
431.47	402.57
431.66	500.87
431.85	402.57
432.03	421.30
432.22	440.02
432.41	421.30
432.60	407.25
432.79	437.68
432.97	416.62
433.16	397.89
433.35	383.85
433.54	372.15
433.72	404.91
433.91	404.91
434.10	344.06
434.28	379.17
434.47	423.64
434.66	442.36
434.85	425.98
435.03	411.93
435.22	449.38
435.41	416.62
435.59	470.45
435.78	449.38
435.97	435.34
436.16	348.74
436.34	402.57
436.53	418.96
436.72	470.45
436.90	486.83
437.09	400.23
437.28	369.80
437.46	376.83
437.65	400.23
437.84	449.38
438.02	358.10
438.21	442.36
438.40	418.96
438.58	404.91
438.77	418.96
438.96	470.45
439.14	461.09
439.33	341.72
439.52	411.93
439.70	407.25
439.89	409.59
440.08	484.49
440.26	440.02
440.45	379.17
440.63	348.74
440.82	442.36
441.01	404.91
441.19	360.44
441.38	397.89
441.57	362.78
441.75	418.96
441.94	421.30
442.12	400.23
442.31	407.25
442.50	367.46
442.68	418.96
442.87	456.40
443.05	390.87
443.24	449.38
443.43	374.49
443.61	425.98
443.80	489.17
443.98	395.55
444.17	444.70
444.35	411.93
444.54	423.64
444.73	414.27
444.91	411.93
445.10	435.34
445.28	388.53
445.47	437.68
445.65	360.44
445.84	388.53
446.02	435.34
446.21	383.85
446.39	365.12
446.58	465.77
446.77	348.74
446.95	437.68
447.14	332.36
447.32	456.40
447.51	440.02
447.69	482.15
447.88	315.97
448.06	489.17
448.25	425.98
448.43	322.99
448.62	369.80
448.80	421.30
448.99	454.06
449.17	383.85
449.36	440.02
449.54	463.43
449.73	358.10
449.91	402.57
450.10	334.70
450.28	496.19
450.46	493.85
450.65	414.27
450.83	416.62
451.02	397.89
451.20	411.93
451.39	372.15
451.57	372.15
451.76	421.30
451.94	430.66
452.13	505.56
452.31	423.64
452.49	404.91
452.68	388.53
452.86	437.68
453.05	458.74
453.23	486.83
453.42	388.53
453.60	447.04
453.78	386.19
453.97	428.32
454.15	414.27
454.34	435.34
454.52	409.59
454.70	423.64
454.89	477.47
455.07	440.02
455.26	444.70
455.44	402.57
455.62	369.80
455.81	440.02
455.99	472.79
456.17	437.68
456.36	381.51
456.54	428.32
456.73	402.57
456.91	435.34
457.09	503.22
457.28	416.62
457.46	465.77
457.64	322.99
457.83	423.64
458.01	402.57
458.19	351.08
458.38	435.34
458.56	442.36
458.74	353.42
458.93	393.21
459.11	447.04
459.29	388.53
459.48	393.21
459.66	433.00
459.84	435.34
460.03	484.49
460.21	367.46
460.39	327.68
460.57	390.87
460.76	367.46
460.94	409.59
461.12	404.91
461.31	493.85
461.49	437.68
461.67	381.51
461.85	397.89
462.04	463.43
462.22	732.59
462.40	437.68
462.59	386.19
462.77	390.87
462.95	477.47
463.13	407.25
463.32	362.78
463.50	461.09
463.68	414.27
463.86	465.77
464.05	447.04
464.23	393.21
464.41	418.96
464.59	425.98
464.78	400.23
464.96	393.21
465.14	383.85
465.32	395.55
465.50	456.40
465.69	468.11
465.87	332.36
466.05	461.09
466.23	325.33
466.41	393.21
466.60	414.27
466.78	430.66
466.96	365.12
467.14	411.93
467.32	435.34
467.51	390.87
467.69	428.32
467.87	402.57
468.05	388.53
468.23	440.02
468.41	418.96
468.60	433.00
468.78	407.25
468.96	449.38
469.14	498.53
469.32	365.12
469.50	449.38
469.69	449.38
469.87	456.40
470.05	437.68
470.23	374.49
470.41	369.80
470.59	367.46
470.77	430.66
470.95	435.34
471.14	449.38
471.32	400.23
471.50	451.72
471.68	418.96
471.86	451.72
472.04	409.59
472.22	416.62
472.40	428.32
472.58	376.83
472.77	437.68
472.95	379.17
473.13	414.27
473.31	437.68
473.49	423.64
473.67	463.43
473.85	421.30
474.03	451.72
474.21	444.70
474.39	409.59
474.57	477.47
474.75	409.59
474.93	407.25
475.12	367.46
475.30	332.36
475.48	390.87
475.66	433.00
475.84	444.70
476.02	397.89
476.20	505.56
476.38	404.91
476.56	489.17
476.74	416.62
476.92	407.25
477.10	435.34
477.28	416.62
477.46	411.93
477.64	479.81
477.82	425.98
478.00	470.45
478.18	411.93
478.36	397.89
478.54	339.38
478.72	325.33
478.90	433.00
479.08	451.72
479.26	404.91
479.44	463.43
479.62	397.89
479.80	442.36
479.98	425.98
480.16	353.42
480.34	400.23
480.52	449.38
480.70	418.96
480.88	421.30
481.06	456.40
481.24	386.19
481.41	400.23
481.59	428.32
481.77	465.77
481.95	353.42
482.13	442.36
482.31	437.68
482.49	404.91
482.67	411.93
482.85	369.80
483.03	456.40
483.21	362.78
483.39	411.93
483.57	421.30
483.74	397.89
483.92	400.23
484.10	339.38
484.28	437.68
484.46	414.27
484.64	397.89
484.82	407.25
485.00	341.72
485.18	379.17
485.35	395.55
485.53	379.17
485.71	428.32
485.89	435.34
486.07	411.93
486.25	433.00
486.43	433.00
486.61	482.15
486.78	489.17
486.96	376.83
487.14	440.02
487.32	397.89
487.50	440.02
487.68	514.92
487.85	456.40
488.03	418.96
488.21	418.96
488.39	353.42
488.57	430.66
488.75	423.64
488.92	519.60
489.10	393.21
489.28	468.11
489.46	365.12
489.64	388.53
489.81	388.53
489.99	428.32
490.17	386.19
490.35	442.36
490.53	407.25
490.70	451.72
490.88	400.23
491.06	372.15
491.24	444.70
491.41	418.96
491.59	411.93
491.77	388.53
491.95	447.04
492.13	386.19
492.30	351.08
492.48	353.42
492.66	428.32
492.84	472.79
493.01	409.59
493.19	397.89
493.37	447.04
493.54	372.15
493.72	425.98
493.90	369.80
494.08	374.49
494.25	379.17
494.43	383.85
494.61	482.15
494.79	489.17
494.96	479.81
495.14	383.85
495.32	479.81
495.49	386.19
495.67	433.00
495.85	400.23
496.02	341.72
496.20	418.96
496.38	407.25
496.55	353.42
496.73	325.33
496.91	315.97
497.09	472.79
497.26	475.13
497.44	418.96
497.62	390.87
497.79	433.00
497.97	397.89
498.14	444.70
498.32	416.62
498.50	407.25
498.67	435.34
498.85	388.53
499.03	393.21
499.20	416.62
499.38	311.29
499.56	423.64
499.73	442.36
499.91	397.89
500.08	482.15
500.26	472.79
500.44	416.62
500.61	407.25
500.79	383.85
500.97	465.77
501.14	458.74
501.32	423.64
501.49	444.70
501.67	407.25
501.84	390.87
502.02	416.62
502.20	468.11
502.37	456.40
502.55	440.02
502.72	414.27
502.90	397.89
503.07	433.00
503.25	393.21
503.43	458.74
503.60	395.55
503.78	397.89
503.95	383.85
504.13	472.79
504.30	435.34
504.48	437.68
504.65	425.98
504.83	475.13
505.01	428.32
505.18	416.62
505.36	463.43
505.53	421.30
505.71	381.51
505.88	400.23
506.06	454.06
506.23	379.17
506.41	465.77
506.58	486.83
506.76	451.72
506.93	489.17
507.11	468.11
507.28	416.62
507.46	411.93
507.63	447.04
507.81	447.04
507.98	397.89
508.16	435.34
508.33	423.64
508.50	454.06
508.68	393.21
508.85	367.46
509.03	428.32
509.20	353.42
509.38	414.27
509.55	435.34
509.73	376.83
509.90	421.30
510.08	407.25
510.25	360.44
510.42	404.91
510.60	407.25
510.77	449.38
510.95	449.38
511.12	393.21
511.30	470.45
511.47	400.23
511.64	397.89
511.82	362.78
511.99	404.91
512.17	435.34
512.34	458.74
512.51	386.19
512.69	423.64
512.86	393.21
513.04	440.02
513.21	390.87
513.38	421.30
513.56	404.91
513.73	421.30
513.90	440.02
514.08	425.98
514.25	475.13
514.43	423.64
514.60	407.25
514.77	418.96
514.95	500.87
515.12	463.43
515.29	379.17
515.47	475.13
515.64	461.09
515.81	397.89
515.99	498.53
516.16	435.34
516.33	425.98
516.51	388.53
516.68	372.15
516.85	390.87
517.03	388.53
517.20	390.87
517.37	407.25
517.54	397.89
517.72	416.62
517.89	472.79
518.06	374.49
518.24	479.81
518.41	411.93
518.58	472.79
518.75	430.66
518.93	472.79
519.10	465.77
519.27	372.15
519.45	411.93
519.62	430.66
519.79	428.32
519.96	416.62
520.14	414.27
520.31	484.49
520.48	395.55
520.65	346.40
520.83	360.44
521.00	421.30
521.17	454.06
521.34	475.13
521.52	374.49
521.69	358.10
521.86	411.93
522.03	461.09
522.20	489.17
522.38	358.10
522.55	407.25
522.72	451.72
522.89	414.27
523.07	456.40
523.24	414.27
523.41	470.45
523.58	386.19
523.75	428.32
523.92	475.13
524.10	463.43
524.27	416.62
524.44	386.19
524.61	468.11
524.78	416.62
524.96	414.27
525.13	353.42
525.30	374.49
525.47	421.30
525.64	440.02
525.81	454.06
525.98	440.02
526.16	449.38
526.33	381.51
526.50	376.83
526.67	397.89
526.84	383.85
527.01	433.00
527.18	344.06
527.36	390.87
527.53	433.00
527.70	468.11
527.87	437.68
528.04	479.81
528.21	479.81
528.38	383.85
528.55	489.17
528.72	433.00
528.89	491.51
529.07	421.30
529.24	346.40
529.41	404.91
529.58	346.40
529.75	386.19
529.92	397.89
530.09	362.78
530.26	376.83
530.43	437.68
530.60	374.49
530.77	353.42
530.94	454.06
531.11	416.62
531.28	393.21
531.46	376.83
531.63	463.43
531.80	334.70
531.97	465.77
532.14	390.87
532.31	411.93
532.48	409.59
532.65	437.68
532.82	444.70
532.99	442.36
533.16	421.30
533.33	388.53
533.50	395.55
533.67	372.15
533.84	416.62
534.01	425.98
534.18	390.87
534.35	369.80
534.52	388.53
534.69	395.55
534.86	423.64
535.03	383.85
535.20	418.96
535.37	444.70
535.54	400.23
535.71	388.53
535.88	489.17
536.05	404.91
536.22	500.87
536.38	407.25
536.55	465.77
536.72	456.40
536.89	423.64
537.06	423.64
537.23	423.64
537.40	430.66
537.57	449.38
537.74	447.04
537.91	470.45
538.08	416.62
538.25	425.98
538.42	388.53
538.59	348.74
538.75	440.02
538.92	449.38
539.09	414.27
539.26	423.64
539.43	402.57
539.60	376.83
539.77	468.11
539.94	486.83
540.11	470.45
540.28	425.98
540.44	407.25
540.61	386.19
540.78	397.89
540.95	456.40
541.12	456.40
541.29	301.93
541.46	433.00
541.62	470.45
541.79	386.19
541.96	437.68
542.13	423.64
542.30	451.72
542.47	477.47
542.63	414.27
542.80	397.89
542.97	442.36
543.14	428.32
543.31	421.30
543.48	341.72
543.64	390.87
543.81	386.19
543.98	393.21
544.15	407.25
544.32	416.62
544.48	404.91
544.65	418.96
544.82	416.62
544.99	447.04
545.16	451.72
545.32	386.19
545.49	414.27
545.66	435.34
545.83	421.30
546.00	442.36
546.16	433.00
546.33	475.13
546.50	407.25
546.67	451.72
546.83	421.30
547.00	458.74
547.17	463.43
547.34	369.80
547.50	421.30
547.67	440.02
547.84	449.38
548.00	416.62
548.17	369.80
548.34	407.25
548.51	456.40
548.67	339.38
548.84	421.30
549.01	386.19
549.18	379.17
549.34	404.91
549.51	425.98
549.68	447.04
549.84	407.25
550.01	444.70
550.18	440.02
550.34	444.70
550.51	414.27
550.68	463.43
550.84	463.43
551.01	390.87
551.18	440.02
551.34	414.27
551.51	386.19
551.68	423.64
551.84	400.23
552.01	442.36
552.18	409.59
552.34	416.62
552.51	414.27
552.68	437.68
552.84	374.49
553.01	381.51
553.18	411.93
553.34	498.53
553.51	447.04
553.67	418.96
553.84	484.49
554.01	447.04
554.17	531.30
554.34	386.19
554.51	425.98
554.67	440.02
554.84	418.96
555.00	454.06
555.17	456.40
555.33	416.62
555.50	444.70
555.67	416.62
555.83	416.62
556.00	409.59
556.16	510.24
556.33	463.43
556.50	402.57
556.66	423.64
556.83	390.87
556.99	421.30
557.16	465.77
557.32	425.98
557.49	451.72
557.65	423.64
557.82	402.57
557.98	433.00
558.15	404.91
558.32	477.47
558.48	339.38
558.65	482.15
558.81	451.72
558.98	358.10
559.14	376.83
559.31	458.74
559.47	440.02
559.64	383.85
559.80	414.27
559.97	411.93
560.13	407.25
560.30	465.77
560.46	390.87
560.63	369.80
560.79	472.79
560.96	465.77
561.12	337.04
561.29	407.25
561.45	341.72
561.61	367.46
561.78	531.30
561.94	339.38
562.11	416.62
562.27	433.00
562.44	404.91
562.60	372.15
562.77	440.02
562.93	447.04
563.10	442.36
563.26	393.21
563.42	470.45
563.59	397.89
563.75	456.40
563.92	475.13
564.08	416.62
564.24	407.25
564.41	519.60
564.57	344.06
564.74	414.27
564.90	379.17
565.07	418.96
565.23	458.74
565.39	454.06
565.56	414.27
565.72	409.59
565.88	430.66
566.05	451.72
566.21	475.13
566.38	367.46
566.54	414.27
566.70	369.80
566.87	388.53
567.03	470.45
567.19	479.81
567.36	472.79
567.52	402.57
567.68	463.43
567.85	442.36
568.01	386.19
568.17	411.93
568.34	411.93
568.50	503.22
568.66	383.85
568.83	470.45
568.99	395.55
569.15	430.66
569.32	372.15
569.48	414.27
569.64	395.55
569.81	395.55
569.97	423.64
570.13	447.04
570.30	374.49
570.46	416.62
570.62	444.70
570.78	421.30
570.95	456.40
571.11	430.66
571.27	468.11
571.43	390.87
571.60	463.43
571.76	430.66
571.92	393.21
572.09	479.81
572.25	395.55
572.41	456.40
572.57	484.49
572.74	390.87
572.90	451.72
573.06	444.70
573.22	425.98
573.38	491.51
573.55	491.51
573.71	461.09
573.87	397.89
574.03	325.33
574.20	416.62
574.36	365.12
574.52	383.85
574.68	449.38
574.84	409.59
575.01	409.59
575.17	489.17
575.33	449.38
575.49	454.06
575.65	421.30
575.82	365.12
575.98	376.83
576.14	430.66
576.30	430.66
576.46	470.45
576.62	379.17
576.79	421.30
576.95	430.66
577.11	365.12
577.27	430.66
577.43	437.68
577.59	468.11
577.75	416.62
577.92	479.81
578.08	477.47
578.24	381.51
578.40	456.40
578.56	472.79
578.72	397.89
578.88	461.09
579.04	430.66
579.21	400.23
579.37	372.15
579.53	348.74
579.69	433.00
579.85	451.72
580.01	332.36
580.17	447.04
580.33	402.57
580.49	411.93
580.65	393.21
580.82	470.45
580.98	388.53
581.14	440.02
581.30	372.15
581.46	430.66
581.62	409.59
581.78	395.55
581.94	379.17
582.10	416.62
582.26	416.62
582.42	400.23
582.58	402.57
582.74	411.93
582.90	351.08
583.06	475.13
583.22	395.55
583.38	369.80
583.54	353.42
583.70	454.06
583.86	400.23
584.02	409.59
584.18	383.85
584.34	411.93
584.50	388.53
584.66	447.04
584.82	393.21
584.98	400.23
585.14	468.11
585.30	472.79
585.46	344.06
585.62	456.40
585.78	465.77
585.94	390.87
586.10	381.51
586.26	416.62
586.42	510.24
586.58	351.08
586.74	437.68
586.90	465.77
587.06	386.19
587.22	477.47
587.38	395.55
587.54	425.98
587.70	407.25
587.86	374.49
588.02	496.19
588.18	463.43
588.34	386.19
588.49	400.23
588.65	430.66
588.81	369.80
588.97	423.64
589.13	365.12
589.29	440.02
589.45	437.68
589.61	418.96
589.77	454.06
589.93	449.38
590.08	402.57
590.24	423.64
590.40	425.98
590.56	400.23
590.72	447.04
590.88	433.00
591.04	383.85
591.20	407.25
591.35	458.74
591.51	435.34
591.67	447.04
591.83	414.27
591.99	414.27
592.15	428.32
592.31	449.38
592.46	388.53
592.62	430.66
592.78	372.15
592.94	353.42
593.10	402.57
593.26	430.66
593.41	344.06
593.57	390.87
593.73	428.32
593.89	475.13
594.05	421.30
594.20	395.55
594.36	505.56
594.52	423.64
594.68	407.25
594.84	449.38
594.99	442.36
595.15	423.64
595.31	409.59
595.47	444.70
595.62	451.72
595.78	482.15
595.94	421.30
596.10	433.00
596.25	442.36
596.41	442.36
596.57	400.23
596.73	339.38
596.88	409.59
597.04	400.23
597.20	435.34
597.36	500.87
597.51	456.40
597.67	365.12
597.83	367.46
597.99	465.77
598.14	465.77
598.30	440.02
598.46	456.40
598.61	435.34
598.77	404.91
598.93	423.64
599.09	372.15
599.24	470.45
599.40	449.38
599.56	407.25
599.71	369.80
599.87	372.15
600.03	428.32
600.18	468.11
600.34	418.96
600.50	386.19
600.65	381.51
600.81	442.36
600.97	451.72
601.12	416.62
601.28	451.72
601.44	416.62
601.59	442.36
601.75	425.98
601.91	355.76
602.06	402.57
602.22	486.83
602.37	456.40
602.53	451.72
602.69	425.98
602.84	386.19
603.00	360.44
603.16	346.40
603.31	465.77
603.47	362.78
603.62	472.79
603.78	437.68
603.94	444.70
604.09	430.66
604.25	447.04
604.40	465.77
604.56	440.02
604.71	449.38
604.87	390.87
605.03	435.34
605.18	376.83
605.34	418.96
605.49	458.74
605.65	355.76
605.80	372.15
605.96	458.74
606.12	397.89
606.27	409.59
606.43	449.38
606.58	367.46
606.74	454.06
606.89	322.99
607.05	416.62
607.20	365.12
607.36	433.00
607.51	416.62
607.67	468.11
607.82	442.36
607.98	463.43
608.13	425.98
608.29	477.47
608.44	393.21
608.60	442.36
608.75	461.09
608.91	435.34
609.06	351.08
609.22	428.32
609.37	386.19
609.53	404.91
609.68	404.91
609.84	414.27
609.99	421.30
610.15	472.79
