SpectraSuite Data File
++++++++++++++++++++++++++++++++++++
Date: Fri Oct 25 12:11:37 EDT 2013
User: price-jones
Dark Spectrum Present: No
Reference Spectrum Present: No
Number of Sampled Component Spectra: 1
Spectrometers: USB2+H05261
Integration Time (usec): 100000 (USB2+H05261)
Spectra Averaged: 1 (USB2+H05261)
Boxcar Smoothing: 0 (USB2+H05261)
Correct for Electrical Dark: No (USB2+H05261)
Strobe/Lamp Enabled: No (USB2+H05261)
Correct for Detector Non-linearity: No (USB2+H05261)
Correct for Stray Light: No (USB2+H05261)
Number of Pixels in Processed Spectrum: 2048
>>>>>Begin Processed Spectral Data<<<<<
365.73	355.76
365.92	355.76
366.12	355.76
366.32	264.48
366.52	255.12
366.72	234.05
366.91	304.27
367.11	224.69
367.31	280.86
367.51	238.73
367.70	217.67
367.90	205.97
368.10	236.39
368.30	210.65
368.49	245.76
368.69	383.85
368.89	306.61
369.09	283.20
369.28	276.18
369.48	266.82
369.68	224.69
369.87	330.02
370.07	269.16
370.27	348.74
370.47	252.78
370.66	236.39
370.86	393.21
371.06	320.65
371.25	397.89
371.45	351.08
371.65	353.42
371.84	374.49
372.04	395.55
372.24	440.02
372.44	379.17
372.63	362.78
372.83	388.53
373.03	425.98
373.22	465.77
373.42	367.46
373.62	440.02
373.81	409.59
374.01	360.44
374.21	374.49
374.40	404.91
374.60	423.64
374.79	330.02
374.99	498.53
375.19	449.38
375.38	479.81
375.58	433.00
375.78	346.40
375.97	447.04
376.17	425.98
376.37	351.08
376.56	425.98
376.76	372.15
376.95	437.68
377.15	465.77
377.35	423.64
377.54	472.79
377.74	409.59
377.93	411.93
378.13	428.32
378.33	430.66
378.52	381.51
378.72	440.02
378.91	393.21
379.11	327.68
379.31	416.62
379.50	421.30
379.70	381.51
379.89	425.98
380.09	374.49
380.28	395.55
380.48	388.53
380.68	411.93
380.87	367.46
381.07	423.64
381.26	458.74
381.46	477.47
381.65	397.89
381.85	390.87
382.04	374.49
382.24	430.66
382.43	327.68
382.63	404.91
382.83	433.00
383.02	379.17
383.22	484.49
383.41	374.49
383.61	388.53
383.80	362.78
384.00	397.89
384.19	423.64
384.39	402.57
384.58	362.78
384.78	400.23
384.97	463.43
385.17	407.25
385.36	428.32
385.56	360.44
385.75	442.36
385.95	367.46
386.14	468.11
386.34	407.25
386.53	388.53
386.72	402.57
386.92	444.70
387.11	388.53
387.31	402.57
387.50	407.25
387.70	421.30
387.89	425.98
388.09	423.64
388.28	386.19
388.48	430.66
388.67	440.02
388.86	414.27
389.06	390.87
389.25	409.59
389.45	337.04
389.64	393.21
389.84	472.79
390.03	372.15
390.22	407.25
390.42	454.06
390.61	393.21
390.81	344.06
391.00	369.80
391.19	376.83
391.39	411.93
391.58	402.57
391.78	423.64
391.97	451.72
392.16	386.19
392.36	437.68
392.55	442.36
392.75	418.96
392.94	433.00
393.13	442.36
393.33	428.32
393.52	463.43
393.71	458.74
393.91	407.25
394.10	372.15
394.29	351.08
394.49	379.17
394.68	404.91
394.88	430.66
395.07	416.62
395.26	430.66
395.46	379.17
395.65	433.00
395.84	381.51
396.04	433.00
396.23	379.17
396.42	374.49
396.62	353.42
396.81	442.36
397.00	456.40
397.19	393.21
397.39	428.32
397.58	402.57
397.77	362.78
397.97	411.93
398.16	468.11
398.35	400.23
398.55	376.83
398.74	381.51
398.93	376.83
399.12	454.06
399.32	355.76
399.51	374.49
399.70	449.38
399.90	428.32
400.09	397.89
400.28	416.62
400.47	397.89
400.67	444.70
400.86	362.78
401.05	407.25
401.24	374.49
401.44	409.59
401.63	383.85
401.82	418.96
402.01	404.91
402.21	346.40
402.40	430.66
402.59	346.40
402.78	421.30
402.97	425.98
403.17	416.62
403.36	402.57
403.55	397.89
403.74	411.93
403.93	454.06
404.13	442.36
404.32	400.23
404.51	402.57
404.70	477.47
404.89	425.98
405.09	421.30
405.28	404.91
405.47	477.47
405.66	449.38
405.85	348.74
406.05	365.12
406.24	423.64
406.43	379.17
406.62	425.98
406.81	507.90
407.00	428.32
407.20	376.83
407.39	395.55
407.58	381.51
407.77	475.13
407.96	435.34
408.15	400.23
408.34	386.19
408.54	337.04
408.73	414.27
408.92	423.64
409.11	418.96
409.30	477.47
409.49	358.10
409.68	388.53
409.87	381.51
410.07	416.62
410.26	430.66
410.45	517.26
410.64	388.53
410.83	402.57
411.02	437.68
411.21	383.85
411.40	411.93
411.59	341.72
411.78	418.96
411.98	397.89
412.17	397.89
412.36	404.91
412.55	430.66
412.74	479.81
412.93	437.68
413.12	404.91
413.31	447.04
413.50	414.27
413.69	414.27
413.88	402.57
414.07	461.09
414.26	423.64
414.45	437.68
414.64	423.64
414.83	397.89
415.02	381.51
415.22	470.45
415.41	461.09
415.60	428.32
415.79	395.55
415.98	461.09
416.17	362.78
416.36	433.00
416.55	362.78
416.74	463.43
416.93	386.19
417.12	425.98
417.31	451.72
417.50	383.85
417.69	442.36
417.88	379.17
418.07	458.74
418.26	411.93
418.45	367.46
418.64	400.23
418.83	423.64
419.02	402.57
419.21	414.27
419.39	325.33
419.58	395.55
419.77	454.06
419.96	416.62
420.15	440.02
420.34	358.10
420.53	435.34
420.72	348.74
420.91	451.72
421.10	402.57
421.29	477.47
421.48	479.81
421.67	383.85
421.86	428.32
422.05	482.15
422.24	461.09
422.43	458.74
422.61	393.21
422.80	407.25
422.99	442.36
423.18	421.30
423.37	421.30
423.56	421.30
423.75	479.81
423.94	369.80
424.13	360.44
424.32	409.59
424.50	409.59
424.69	407.25
424.88	418.96
425.07	404.91
425.26	444.70
425.45	379.17
425.64	395.55
425.83	409.59
426.01	479.81
426.20	400.23
426.39	397.89
426.58	423.64
426.77	386.19
426.96	411.93
427.15	383.85
427.33	381.51
427.52	386.19
427.71	428.32
427.90	400.23
428.09	442.36
428.28	414.27
428.46	379.17
428.65	411.93
428.84	362.78
429.03	411.93
429.22	362.78
429.40	465.77
429.59	456.40
429.78	465.77
429.97	390.87
430.16	482.15
430.34	447.04
430.53	400.23
430.72	416.62
430.91	409.59
431.10	400.23
431.28	423.64
431.47	400.23
431.66	456.40
431.85	365.12
432.03	418.96
432.22	416.62
432.41	423.64
432.60	440.02
432.79	351.08
432.97	449.38
433.16	416.62
433.35	388.53
433.54	414.27
433.72	444.70
433.91	470.45
434.10	400.23
434.28	463.43
434.47	411.93
434.66	489.17
434.85	430.66
435.03	414.27
435.22	390.87
435.41	421.30
435.59	397.89
435.78	475.13
435.97	381.51
436.16	468.11
436.34	341.72
436.53	397.89
436.72	425.98
436.90	388.53
437.09	470.45
437.28	404.91
437.46	444.70
437.65	383.85
437.84	433.00
438.02	407.25
438.21	383.85
438.40	386.19
438.58	358.10
438.77	386.19
438.96	402.57
439.14	428.32
439.33	425.98
439.52	369.80
439.70	423.64
439.89	402.57
440.08	500.87
440.26	407.25
440.45	444.70
440.63	458.74
440.82	416.62
441.01	437.68
441.19	463.43
441.38	339.38
441.57	330.02
441.75	449.38
441.94	440.02
442.12	423.64
442.31	503.22
442.50	437.68
442.68	301.93
442.87	376.83
443.05	386.19
443.24	416.62
443.43	395.55
443.61	447.04
443.80	386.19
443.98	430.66
444.17	435.34
444.35	425.98
444.54	409.59
444.73	425.98
444.91	360.44
445.10	353.42
445.28	395.55
445.47	454.06
445.65	386.19
445.84	411.93
446.02	437.68
446.21	409.59
446.39	416.62
446.58	334.70
446.77	374.49
446.95	381.51
447.14	414.27
447.32	430.66
447.51	414.27
447.69	290.23
447.88	379.17
448.06	435.34
448.25	479.81
448.43	404.91
448.62	409.59
448.80	470.45
448.99	397.89
449.17	444.70
449.36	491.51
449.54	463.43
449.73	447.04
449.91	437.68
450.10	355.76
450.28	402.57
450.46	512.58
450.65	456.40
450.83	444.70
451.02	468.11
451.20	440.02
451.39	362.78
451.57	407.25
451.76	395.55
451.94	440.02
452.13	402.57
452.31	444.70
452.49	468.11
452.68	379.17
452.86	428.32
453.05	437.68
453.23	458.74
453.42	404.91
453.60	362.78
453.78	360.44
453.97	397.89
454.15	435.34
454.34	507.90
454.52	404.91
454.70	395.55
454.89	383.85
455.07	425.98
455.26	433.00
455.44	496.19
455.62	435.34
455.81	393.21
455.99	447.04
456.17	477.47
456.36	442.36
456.54	491.51
456.73	440.02
456.91	449.38
457.09	402.57
457.28	416.62
457.46	458.74
457.64	365.12
457.83	383.85
458.01	402.57
458.19	440.02
458.38	402.57
458.56	402.57
458.74	390.87
458.93	451.72
459.11	404.91
459.29	437.68
459.48	442.36
459.66	421.30
459.84	463.43
460.03	456.40
460.21	393.21
460.39	451.72
460.57	442.36
460.76	433.00
460.94	379.17
461.12	433.00
461.31	454.06
461.49	332.36
461.67	409.59
461.85	449.38
462.04	414.27
462.22	753.65
462.40	435.34
462.59	418.96
462.77	325.33
462.95	430.66
463.13	409.59
463.32	482.15
463.50	414.27
463.68	414.27
463.86	397.89
464.05	386.19
464.23	425.98
464.41	421.30
464.59	409.59
464.78	423.64
464.96	447.04
465.14	507.90
465.32	388.53
465.50	369.80
465.69	444.70
465.87	386.19
466.05	454.06
466.23	435.34
466.41	503.22
466.60	451.72
466.78	379.17
466.96	493.85
467.14	367.46
467.32	461.09
467.51	435.34
467.69	386.19
467.87	421.30
468.05	409.59
468.23	444.70
468.41	362.78
468.60	465.77
468.78	486.83
468.96	383.85
469.14	435.34
469.32	414.27
469.50	400.23
469.69	468.11
469.87	400.23
470.05	437.68
470.23	400.23
470.41	411.93
470.59	393.21
470.77	416.62
470.95	430.66
471.14	397.89
471.32	400.23
471.50	470.45
471.68	374.49
471.86	477.47
472.04	400.23
472.22	442.36
472.40	421.30
472.58	379.17
472.77	367.46
472.95	358.10
473.13	414.27
473.31	421.30
473.49	393.21
473.67	395.55
473.85	330.02
474.03	484.49
474.21	437.68
474.39	444.70
474.57	400.23
474.75	433.00
474.93	395.55
475.12	407.25
475.30	379.17
475.48	386.19
475.66	393.21
475.84	428.32
476.02	468.11
476.20	423.64
476.38	386.19
476.56	489.17
476.74	411.93
476.92	421.30
477.10	449.38
477.28	472.79
477.46	395.55
477.64	411.93
477.82	444.70
478.00	409.59
478.18	369.80
478.36	411.93
478.54	416.62
478.72	383.85
478.90	500.87
479.08	400.23
479.26	437.68
479.44	440.02
479.62	358.10
479.80	360.44
479.98	486.83
480.16	381.51
480.34	454.06
480.52	491.51
480.70	423.64
480.88	433.00
481.06	386.19
481.24	348.74
481.41	409.59
481.59	428.32
481.77	433.00
481.95	437.68
482.13	428.32
482.31	458.74
482.49	409.59
482.67	437.68
482.85	402.57
483.03	388.53
483.21	404.91
483.39	423.64
483.57	423.64
483.74	498.53
483.92	418.96
484.10	379.17
484.28	425.98
484.46	404.91
484.64	454.06
484.82	468.11
485.00	360.44
485.18	418.96
485.35	449.38
485.53	353.42
485.71	402.57
485.89	395.55
486.07	463.43
486.25	416.62
486.43	367.46
486.61	402.57
486.78	442.36
486.96	407.25
487.14	423.64
487.32	404.91
487.50	395.55
487.68	440.02
487.85	430.66
488.03	379.17
488.21	447.04
488.39	517.26
488.57	395.55
488.75	421.30
488.92	498.53
489.10	390.87
489.28	447.04
489.46	400.23
489.64	402.57
489.81	367.46
489.99	411.93
490.17	423.64
490.35	458.74
490.53	390.87
490.70	386.19
490.88	341.72
491.06	402.57
491.24	341.72
491.41	402.57
491.59	433.00
491.77	397.89
491.95	322.99
492.13	409.59
492.30	400.23
492.48	374.49
492.66	400.23
492.84	365.12
493.01	383.85
493.19	409.59
493.37	447.04
493.54	496.19
493.72	362.78
493.90	479.81
494.08	395.55
494.25	383.85
494.43	496.19
494.61	425.98
494.79	390.87
494.96	365.12
495.14	451.72
495.32	376.83
495.49	397.89
495.67	402.57
495.85	444.70
496.02	383.85
496.20	372.15
496.38	477.47
496.55	416.62
496.73	423.64
496.91	421.30
497.09	470.45
497.26	477.47
497.44	367.46
497.62	367.46
497.79	386.19
497.97	416.62
498.14	411.93
498.32	477.47
498.50	416.62
498.67	315.97
498.85	475.13
499.03	414.27
499.20	444.70
499.38	411.93
499.56	416.62
499.73	393.21
499.91	369.80
500.08	435.34
500.26	437.68
500.44	418.96
500.61	437.68
500.79	339.38
500.97	416.62
501.14	449.38
501.32	374.49
501.49	465.77
501.67	407.25
501.84	393.21
502.02	327.68
502.20	425.98
502.37	454.06
502.55	360.44
502.72	400.23
502.90	449.38
503.07	411.93
503.25	479.81
503.43	475.13
503.60	458.74
503.78	400.23
503.95	470.45
504.13	383.85
504.30	372.15
504.48	402.57
504.65	465.77
504.83	451.72
505.01	397.89
505.18	475.13
505.36	425.98
505.53	374.49
505.71	388.53
505.88	472.79
506.06	421.30
506.23	491.51
506.41	411.93
506.58	442.36
506.76	416.62
506.93	468.11
507.11	353.42
507.28	458.74
507.46	435.34
507.63	465.77
507.81	351.08
507.98	435.34
508.16	430.66
508.33	404.91
508.50	444.70
508.68	479.81
508.85	423.64
509.03	444.70
509.20	421.30
509.38	395.55
509.55	400.23
509.73	423.64
509.90	489.17
510.08	418.96
510.25	416.62
510.42	402.57
510.60	416.62
510.77	428.32
510.95	435.34
511.12	388.53
511.30	407.25
511.47	325.33
511.64	414.27
511.82	360.44
511.99	456.40
512.17	491.51
512.34	397.89
512.51	447.04
512.69	442.36
512.86	489.17
513.04	414.27
513.21	400.23
513.38	411.93
513.56	416.62
513.73	407.25
513.90	348.74
514.08	320.65
514.25	402.57
514.43	489.17
514.60	425.98
514.77	383.85
514.95	409.59
515.12	449.38
515.29	437.68
515.47	365.12
515.64	484.49
515.81	430.66
515.99	440.02
516.16	437.68
516.33	383.85
516.51	416.62
516.68	465.77
516.85	486.83
517.03	374.49
517.20	435.34
517.37	444.70
517.54	442.36
517.72	451.72
517.89	425.98
518.06	425.98
518.24	493.85
518.41	496.19
518.58	442.36
518.75	355.76
518.93	468.11
519.10	449.38
519.27	404.91
519.45	376.83
519.62	404.91
519.79	461.09
519.96	339.38
520.14	479.81
520.31	456.40
520.48	416.62
520.65	437.68
520.83	428.32
521.00	407.25
521.17	458.74
521.34	449.38
521.52	388.53
521.69	433.00
521.86	397.89
522.03	428.32
522.20	503.22
522.38	418.96
522.55	451.72
522.72	463.43
522.89	390.87
523.07	454.06
523.24	360.44
523.41	416.62
523.58	433.00
523.75	442.36
523.92	372.15
524.10	437.68
524.27	400.23
524.44	409.59
524.61	425.98
524.78	374.49
524.96	430.66
525.13	449.38
525.30	482.15
525.47	437.68
525.64	341.72
525.81	449.38
525.98	454.06
526.16	433.00
526.33	362.78
526.50	470.45
526.67	425.98
526.84	372.15
527.01	407.25
527.18	463.43
527.36	379.17
527.53	393.21
527.70	425.98
527.87	409.59
528.04	428.32
528.21	444.70
528.38	379.17
528.55	388.53
528.72	425.98
528.89	503.22
529.07	458.74
529.24	402.57
529.41	376.83
529.58	397.89
529.75	402.57
529.92	404.91
530.09	428.32
530.26	346.40
530.43	308.95
530.60	425.98
530.77	430.66
530.94	430.66
531.11	418.96
531.28	430.66
531.46	416.62
531.63	376.83
531.80	447.04
531.97	484.49
532.14	411.93
532.31	430.66
532.48	414.27
532.65	386.19
532.82	475.13
532.99	437.68
533.16	428.32
533.33	435.34
533.50	402.57
533.67	386.19
533.84	409.59
534.01	444.70
534.18	433.00
534.35	397.89
534.52	430.66
534.69	456.40
534.86	381.51
535.03	470.45
535.20	355.76
535.37	489.17
535.54	362.78
535.71	386.19
535.88	461.09
536.05	451.72
536.22	360.44
536.38	365.12
536.55	407.25
536.72	411.93
536.89	428.32
537.06	465.77
537.23	404.91
537.40	465.77
537.57	353.42
537.74	383.85
537.91	451.72
538.08	442.36
538.25	428.32
538.42	381.51
538.59	407.25
538.75	402.57
538.92	393.21
539.09	454.06
539.26	404.91
539.43	344.06
539.60	414.27
539.77	435.34
539.94	440.02
540.11	433.00
540.28	430.66
540.44	393.21
540.61	402.57
540.78	339.38
540.95	451.72
541.12	493.85
541.29	348.74
541.46	444.70
541.62	440.02
541.79	451.72
541.96	449.38
542.13	395.55
542.30	414.27
542.47	390.87
542.63	381.51
542.80	463.43
542.97	433.00
543.14	355.76
543.31	482.15
543.48	521.94
543.64	447.04
543.81	468.11
543.98	388.53
544.15	418.96
544.32	365.12
544.48	461.09
544.65	337.04
544.82	402.57
544.99	381.51
545.16	468.11
545.32	404.91
545.49	479.81
545.66	346.40
545.83	337.04
546.00	404.91
546.16	369.80
546.33	365.12
546.50	458.74
546.67	461.09
546.83	430.66
547.00	348.74
547.17	454.06
547.34	372.15
547.50	472.79
547.67	437.68
547.84	355.76
548.00	463.43
548.17	484.49
548.34	442.36
548.51	402.57
548.67	425.98
548.84	320.65
549.01	381.51
549.18	388.53
549.34	397.89
549.51	442.36
549.68	409.59
549.84	442.36
550.01	475.13
550.18	451.72
550.34	444.70
550.51	355.76
550.68	463.43
550.84	383.85
551.01	400.23
551.18	407.25
551.34	409.59
551.51	437.68
551.68	411.93
551.84	428.32
552.01	393.21
552.18	428.32
552.34	358.10
552.51	440.02
552.68	442.36
552.84	376.83
553.01	440.02
553.18	484.49
553.34	318.31
553.51	447.04
553.67	440.02
553.84	411.93
554.01	388.53
554.17	449.38
554.34	393.21
554.51	442.36
554.67	435.34
554.84	423.64
555.00	428.32
555.17	425.98
555.33	400.23
555.50	381.51
555.67	430.66
555.83	414.27
556.00	454.06
556.16	458.74
556.33	400.23
556.50	341.72
556.66	360.44
556.83	454.06
556.99	407.25
557.16	367.46
557.32	360.44
557.49	404.91
557.65	365.12
557.82	411.93
557.98	430.66
558.15	376.83
558.32	411.93
558.48	381.51
558.65	416.62
558.81	437.68
558.98	404.91
559.14	428.32
559.31	395.55
559.47	447.04
559.64	360.44
559.80	369.80
559.97	461.09
560.13	449.38
560.30	362.78
560.46	409.59
560.63	376.83
560.79	421.30
560.96	433.00
561.12	503.22
561.29	430.66
561.45	407.25
561.61	458.74
561.78	531.30
561.94	475.13
562.11	414.27
562.27	468.11
562.44	388.53
562.60	416.62
562.77	472.79
562.93	447.04
563.10	407.25
563.26	374.49
563.42	442.36
563.59	503.22
563.75	421.30
563.92	482.15
564.08	447.04
564.24	430.66
564.41	402.57
564.57	376.83
564.74	400.23
564.90	416.62
565.07	447.04
565.23	393.21
565.39	369.80
565.56	479.81
565.72	449.38
565.88	447.04
566.05	358.10
566.21	423.64
566.38	383.85
566.54	341.72
566.70	365.12
566.87	379.17
567.03	421.30
567.19	421.30
567.36	402.57
567.52	451.72
567.68	454.06
567.85	414.27
568.01	379.17
568.17	407.25
568.34	416.62
568.50	447.04
568.66	355.76
568.83	489.17
568.99	491.51
569.15	491.51
569.32	376.83
569.48	425.98
569.64	397.89
569.81	404.91
569.97	407.25
570.13	376.83
570.30	435.34
570.46	402.57
570.62	360.44
570.78	421.30
570.95	369.80
571.11	386.19
571.27	519.60
571.43	400.23
571.60	461.09
571.76	456.40
571.92	433.00
572.09	428.32
572.25	397.89
572.41	433.00
572.57	402.57
572.74	407.25
572.90	400.23
573.06	388.53
573.22	440.02
573.38	423.64
573.55	444.70
573.71	456.40
573.87	442.36
574.03	402.57
574.20	433.00
574.36	461.09
574.52	456.40
574.68	393.21
574.84	367.46
575.01	423.64
575.17	416.62
575.33	447.04
575.49	433.00
575.65	433.00
575.82	454.06
575.98	449.38
576.14	400.23
576.30	379.17
576.46	409.59
576.62	470.45
576.79	447.04
576.95	416.62
577.11	388.53
577.27	458.74
577.43	482.15
577.59	486.83
577.75	414.27
577.92	379.17
578.08	484.49
578.24	400.23
578.40	433.00
578.56	386.19
578.72	353.42
578.88	418.96
579.04	379.17
579.21	475.13
579.37	409.59
579.53	430.66
579.69	503.22
579.85	433.00
580.01	433.00
580.17	400.23
580.33	402.57
580.49	411.93
580.65	418.96
580.82	390.87
580.98	442.36
581.14	395.55
581.30	430.66
581.46	404.91
581.62	423.64
581.78	442.36
581.94	409.59
582.10	374.49
582.26	348.74
582.42	425.98
582.58	337.04
582.74	409.59
582.90	397.89
583.06	470.45
583.22	425.98
583.38	418.96
583.54	470.45
583.70	404.91
583.86	381.51
584.02	416.62
584.18	397.89
584.34	449.38
584.50	369.80
584.66	365.12
584.82	416.62
584.98	390.87
585.14	458.74
585.30	428.32
585.46	428.32
585.62	418.96
585.78	437.68
585.94	407.25
586.10	444.70
586.26	414.27
586.42	484.49
586.58	463.43
586.74	451.72
586.90	404.91
587.06	458.74
587.22	425.98
587.38	362.78
587.54	433.00
587.70	449.38
587.86	369.80
588.02	411.93
588.18	390.87
588.34	400.23
588.49	456.40
588.65	428.32
588.81	395.55
588.97	397.89
589.13	402.57
589.29	440.02
589.45	423.64
589.61	409.59
589.77	456.40
589.93	425.98
590.08	390.87
590.24	362.78
590.40	369.80
590.56	521.94
590.72	372.15
590.88	397.89
591.04	339.38
591.20	386.19
591.35	512.58
591.51	395.55
591.67	383.85
591.83	409.59
591.99	437.68
592.15	425.98
592.31	402.57
592.46	388.53
592.62	416.62
592.78	390.87
592.94	383.85
593.10	442.36
593.26	388.53
593.41	390.87
593.57	421.30
593.73	334.70
593.89	470.45
594.05	425.98
594.20	390.87
594.36	477.47
594.52	348.74
594.68	400.23
594.84	376.83
594.99	493.85
595.15	397.89
595.31	381.51
595.47	404.91
595.62	477.47
595.78	418.96
595.94	332.36
596.10	402.57
596.25	416.62
596.41	376.83
596.57	355.76
596.73	395.55
596.88	458.74
597.04	512.58
597.20	372.15
597.36	411.93
597.51	381.51
597.67	418.96
597.83	379.17
597.99	496.19
598.14	355.76
598.30	470.45
598.46	414.27
598.61	484.49
598.77	430.66
598.93	447.04
599.09	418.96
599.24	397.89
599.40	367.46
599.56	456.40
599.71	454.06
599.87	411.93
600.03	425.98
600.18	430.66
600.34	390.87
600.50	458.74
600.65	353.42
600.81	475.13
600.97	430.66
601.12	372.15
601.28	440.02
601.44	411.93
601.59	341.72
601.75	416.62
601.91	421.30
602.06	463.43
602.22	489.17
602.37	407.25
602.53	402.57
602.69	440.02
602.84	404.91
603.00	379.17
603.16	489.17
603.31	414.27
603.47	397.89
603.62	409.59
603.78	411.93
603.94	416.62
604.09	315.97
604.25	381.51
604.40	355.76
604.56	428.32
604.71	482.15
604.87	400.23
605.03	386.19
605.18	425.98
605.34	418.96
605.49	458.74
605.65	463.43
605.80	388.53
605.96	414.27
606.12	435.34
606.27	411.93
606.43	423.64
606.58	341.72
606.74	346.40
606.89	435.34
607.05	430.66
607.20	456.40
607.36	510.24
607.51	372.15
607.67	477.47
607.82	428.32
607.98	416.62
608.13	400.23
608.29	475.13
608.44	393.21
608.60	418.96
608.75	430.66
608.91	409.59
609.06	386.19
609.22	388.53
609.37	402.57
609.53	409.59
609.68	390.87
609.84	374.49
609.99	449.38
610.15	463.43
