SpectraSuite Data File
++++++++++++++++++++++++++++++++++++
Date: Fri Oct 25 12:10:19 EDT 2013
User: price-jones
Dark Spectrum Present: No
Reference Spectrum Present: No
Number of Sampled Component Spectra: 1
Spectrometers: USB2+H05261
Integration Time (usec): 100000 (USB2+H05261)
Spectra Averaged: 1 (USB2+H05261)
Boxcar Smoothing: 0 (USB2+H05261)
Correct for Electrical Dark: No (USB2+H05261)
Strobe/Lamp Enabled: No (USB2+H05261)
Correct for Detector Non-linearity: No (USB2+H05261)
Correct for Stray Light: No (USB2+H05261)
Number of Pixels in Processed Spectrum: 2048
>>>>>Begin Processed Spectral Data<<<<<
365.73	367.46
365.92	367.46
366.12	367.46
366.32	238.73
366.52	243.42
366.72	255.12
366.91	182.56
367.11	187.24
367.31	255.12
367.51	264.48
367.70	227.03
367.90	236.39
368.10	222.35
368.30	220.01
368.49	315.97
368.69	250.44
368.89	278.52
369.09	278.52
369.28	252.78
369.48	205.97
369.68	320.65
369.87	252.78
370.07	280.86
370.27	322.99
370.47	318.31
370.66	416.62
370.86	346.40
371.06	348.74
371.25	355.76
371.45	367.46
371.65	353.42
371.84	341.72
372.04	379.17
372.24	360.44
372.44	393.21
372.63	400.23
372.83	416.62
373.03	351.08
373.22	421.30
373.42	414.27
373.62	390.87
373.81	404.91
374.01	418.96
374.21	442.36
374.40	397.89
374.60	418.96
374.79	388.53
374.99	402.57
375.19	440.02
375.38	423.64
375.58	456.40
375.78	425.98
375.97	433.00
376.17	479.81
376.37	461.09
376.56	372.15
376.76	402.57
376.95	404.91
377.15	447.04
377.35	447.04
377.54	365.12
377.74	374.49
377.93	381.51
378.13	428.32
378.33	425.98
378.52	484.49
378.72	386.19
378.91	449.38
379.11	397.89
379.31	367.46
379.50	425.98
379.70	437.68
379.89	362.78
380.09	440.02
380.28	435.34
380.48	440.02
380.68	365.12
380.87	367.46
381.07	376.83
381.26	402.57
381.46	325.33
381.65	330.02
381.85	381.51
382.04	416.62
382.24	447.04
382.43	379.17
382.63	374.49
382.83	433.00
383.02	479.81
383.22	409.59
383.41	376.83
383.61	397.89
383.80	428.32
384.00	444.70
384.19	388.53
384.39	411.93
384.58	418.96
384.78	411.93
384.97	491.51
385.17	383.85
385.36	376.83
385.56	369.80
385.75	421.30
385.95	465.77
386.14	416.62
386.34	433.00
386.53	404.91
386.72	444.70
386.92	456.40
387.11	421.30
387.31	451.72
387.50	374.49
387.70	390.87
387.89	425.98
388.09	447.04
388.28	355.76
388.48	327.68
388.67	409.59
388.86	369.80
389.06	461.09
389.25	407.25
389.45	397.89
389.64	444.70
389.84	409.59
390.03	393.21
390.22	369.80
390.42	440.02
390.61	383.85
390.81	367.46
391.00	526.62
391.19	510.24
391.39	407.25
391.58	500.87
391.78	353.42
391.97	404.91
392.16	425.98
392.36	362.78
392.55	435.34
392.75	353.42
392.94	411.93
393.13	346.40
393.33	365.12
393.52	402.57
393.71	416.62
393.91	362.78
394.10	381.51
394.29	456.40
394.49	400.23
394.68	351.08
394.88	404.91
395.07	477.47
395.26	372.15
395.46	416.62
395.65	437.68
395.84	372.15
396.04	437.68
396.23	428.32
396.42	433.00
396.62	456.40
396.81	435.34
397.00	383.85
397.19	454.06
397.39	402.57
397.58	416.62
397.77	430.66
397.97	418.96
398.16	397.89
398.35	383.85
398.55	369.80
398.74	416.62
398.93	397.89
399.12	383.85
399.32	470.45
399.51	404.91
399.70	376.83
399.90	409.59
400.09	386.19
400.28	456.40
400.47	374.49
400.67	430.66
400.86	465.77
401.05	444.70
401.24	374.49
401.44	393.21
401.63	404.91
401.82	461.09
402.01	414.27
402.21	416.62
402.40	442.36
402.59	400.23
402.78	407.25
402.97	418.96
403.17	435.34
403.36	451.72
403.55	395.55
403.74	421.30
403.93	400.23
404.13	397.89
404.32	435.34
404.51	351.08
404.70	400.23
404.89	407.25
405.09	397.89
405.28	381.51
405.47	407.25
405.66	498.53
405.85	489.17
406.05	458.74
406.24	449.38
406.43	458.74
406.62	416.62
406.81	418.96
407.00	374.49
407.20	433.00
407.39	414.27
407.58	407.25
407.77	418.96
407.96	475.13
408.15	442.36
408.34	465.77
408.54	458.74
408.73	423.64
408.92	372.15
409.11	397.89
409.30	376.83
409.49	418.96
409.68	346.40
409.87	454.06
410.07	395.55
410.26	388.53
410.45	376.83
410.64	454.06
410.83	390.87
411.02	369.80
411.21	365.12
411.40	456.40
411.59	367.46
411.78	449.38
411.98	390.87
412.17	369.80
412.36	360.44
412.55	407.25
412.74	449.38
412.93	416.62
413.12	360.44
413.31	393.21
413.50	386.19
413.69	442.36
413.88	386.19
414.07	409.59
414.26	400.23
414.45	430.66
414.64	461.09
414.83	421.30
415.02	379.17
415.22	330.02
415.41	409.59
415.60	379.17
415.79	444.70
415.98	435.34
416.17	465.77
416.36	463.43
416.55	379.17
416.74	388.53
416.93	463.43
417.12	472.79
417.31	379.17
417.50	360.44
417.69	367.46
417.88	318.31
418.07	433.00
418.26	416.62
418.45	463.43
418.64	423.64
418.83	493.85
419.02	447.04
419.21	425.98
419.39	341.72
419.58	376.83
419.77	355.76
419.96	360.44
420.15	414.27
420.34	393.21
420.53	369.80
420.72	470.45
420.91	425.98
421.10	430.66
421.29	353.42
421.48	402.57
421.67	381.51
421.86	386.19
422.05	428.32
422.24	395.55
422.43	449.38
422.61	376.83
422.80	414.27
422.99	404.91
423.18	444.70
423.37	425.98
423.56	437.68
423.75	358.10
423.94	383.85
424.13	386.19
424.32	411.93
424.50	423.64
424.69	418.96
424.88	390.87
425.07	306.61
425.26	458.74
425.45	414.27
425.64	472.79
425.83	463.43
426.01	407.25
426.20	374.49
426.39	369.80
426.58	430.66
426.77	379.17
426.96	414.27
427.15	449.38
427.33	337.04
427.52	381.51
427.71	402.57
427.90	372.15
428.09	339.38
428.28	393.21
428.46	440.02
428.65	449.38
428.84	397.89
429.03	491.51
429.22	456.40
429.40	351.08
429.59	301.93
429.78	360.44
429.97	397.89
430.16	421.30
430.34	470.45
430.53	430.66
430.72	404.91
430.91	416.62
431.10	397.89
431.28	395.55
431.47	454.06
431.66	437.68
431.85	355.76
432.03	355.76
432.22	486.83
432.41	355.76
432.60	407.25
432.79	404.91
432.97	416.62
433.16	388.53
433.35	430.66
433.54	409.59
433.72	411.93
433.91	437.68
434.10	428.32
434.28	421.30
434.47	449.38
434.66	461.09
434.85	353.42
435.03	463.43
435.22	468.11
435.41	461.09
435.59	456.40
435.78	351.08
435.97	341.72
436.16	435.34
436.34	367.46
436.53	383.85
436.72	449.38
436.90	444.70
437.09	465.77
437.28	348.74
437.46	418.96
437.65	444.70
437.84	425.98
438.02	465.77
438.21	433.00
438.40	472.79
438.58	395.55
438.77	416.62
438.96	437.68
439.14	435.34
439.33	442.36
439.52	449.38
439.70	423.64
439.89	421.30
440.08	404.91
440.26	463.43
440.45	369.80
440.63	435.34
440.82	421.30
441.01	437.68
441.19	397.89
441.38	425.98
441.57	400.23
441.75	461.09
441.94	386.19
442.12	440.02
442.31	367.46
442.50	409.59
442.68	400.23
442.87	397.89
443.05	390.87
443.24	472.79
443.43	470.45
443.61	444.70
443.80	421.30
443.98	372.15
444.17	433.00
444.35	374.49
444.54	381.51
444.73	362.78
444.91	428.32
445.10	397.89
445.28	414.27
445.47	407.25
445.65	393.21
445.84	397.89
446.02	503.22
446.21	407.25
446.39	381.51
446.58	400.23
446.77	374.49
446.95	402.57
447.14	418.96
447.32	430.66
447.51	400.23
447.69	456.40
447.88	411.93
448.06	475.13
448.25	435.34
448.43	433.00
448.62	362.78
448.80	390.87
448.99	367.46
449.17	442.36
449.36	411.93
449.54	418.96
449.73	409.59
449.91	435.34
450.10	344.06
450.28	397.89
450.46	365.12
450.65	411.93
450.83	428.32
451.02	430.66
451.20	395.55
451.39	428.32
451.57	442.36
451.76	332.36
451.94	397.89
452.13	407.25
452.31	374.49
452.49	440.02
452.68	351.08
452.86	414.27
453.05	435.34
453.23	414.27
453.42	414.27
453.60	475.13
453.78	400.23
453.97	433.00
454.15	369.80
454.34	421.30
454.52	430.66
454.70	507.90
454.89	451.72
455.07	383.85
455.26	496.19
455.44	451.72
455.62	425.98
455.81	390.87
455.99	393.21
456.17	404.91
456.36	374.49
456.54	386.19
456.73	383.85
456.91	416.62
457.09	428.32
457.28	437.68
457.46	421.30
457.64	421.30
457.83	447.04
458.01	374.49
458.19	437.68
458.38	470.45
458.56	379.17
458.74	351.08
458.93	369.80
459.11	372.15
459.29	451.72
459.48	521.94
459.66	376.83
459.84	421.30
460.03	477.47
460.21	407.25
460.39	451.72
460.57	496.19
460.76	414.27
460.94	435.34
461.12	428.32
461.31	454.06
461.49	402.57
461.67	379.17
461.85	461.09
462.04	484.49
462.22	814.51
462.40	390.87
462.59	411.93
462.77	358.10
462.95	477.47
463.13	416.62
463.32	388.53
463.50	362.78
463.68	489.17
463.86	388.53
464.05	430.66
464.23	456.40
464.41	433.00
464.59	454.06
464.78	423.64
464.96	381.51
465.14	383.85
465.32	355.76
465.50	461.09
465.69	418.96
465.87	402.57
466.05	440.02
466.23	379.17
466.41	402.57
466.60	337.04
466.78	411.93
466.96	428.32
467.14	381.51
467.32	423.64
467.51	414.27
467.69	386.19
467.87	437.68
468.05	346.40
468.23	376.83
468.41	472.79
468.60	402.57
468.78	374.49
468.96	444.70
469.14	418.96
469.32	397.89
469.50	449.38
469.69	416.62
469.87	383.85
470.05	388.53
470.23	465.77
470.41	421.30
470.59	496.19
470.77	400.23
470.95	379.17
471.14	447.04
471.32	362.78
471.50	372.15
471.68	407.25
471.86	433.00
472.04	416.62
472.22	411.93
472.40	442.36
472.58	374.49
472.77	311.29
472.95	402.57
473.13	470.45
473.31	393.21
473.49	407.25
473.67	435.34
473.85	486.83
474.03	449.38
474.21	456.40
474.39	423.64
474.57	418.96
474.75	388.53
474.93	292.57
475.12	379.17
475.30	365.12
475.48	421.30
475.66	449.38
475.84	353.42
476.02	433.00
476.20	425.98
476.38	472.79
476.56	402.57
476.74	430.66
476.92	369.80
477.10	397.89
477.28	404.91
477.46	407.25
477.64	400.23
477.82	440.02
478.00	395.55
478.18	369.80
478.36	437.68
478.54	407.25
478.72	367.46
478.90	390.87
479.08	423.64
479.26	395.55
479.44	449.38
479.62	390.87
479.80	421.30
479.98	386.19
480.16	449.38
480.34	482.15
480.52	440.02
480.70	428.32
480.88	400.23
481.06	341.72
481.24	339.38
481.41	400.23
481.59	418.96
481.77	435.34
481.95	442.36
482.13	397.89
482.31	404.91
482.49	390.87
482.67	437.68
482.85	428.32
483.03	454.06
483.21	465.77
483.39	442.36
483.57	440.02
483.74	435.34
483.92	428.32
484.10	360.44
484.28	414.27
484.46	393.21
484.64	381.51
484.82	393.21
485.00	456.40
485.18	428.32
485.35	402.57
485.53	381.51
485.71	416.62
485.89	365.12
486.07	409.59
486.25	456.40
486.43	372.15
486.61	411.93
486.78	484.49
486.96	402.57
487.14	437.68
487.32	498.53
487.50	414.27
487.68	376.83
487.85	458.74
488.03	407.25
488.21	416.62
488.39	358.10
488.57	404.91
488.75	393.21
488.92	519.60
489.10	414.27
489.28	404.91
489.46	362.78
489.64	369.80
489.81	404.91
489.99	400.23
490.17	407.25
490.35	435.34
490.53	379.17
490.70	423.64
490.88	440.02
491.06	418.96
491.24	351.08
491.41	454.06
491.59	407.25
491.77	402.57
491.95	397.89
492.13	425.98
492.30	430.66
492.48	369.80
492.66	388.53
492.84	416.62
493.01	442.36
493.19	369.80
493.37	430.66
493.54	393.21
493.72	463.43
493.90	388.53
494.08	418.96
494.25	416.62
494.43	423.64
494.61	388.53
494.79	388.53
494.96	381.51
495.14	369.80
495.32	383.85
495.49	400.23
495.67	451.72
495.85	458.74
496.02	400.23
496.20	519.60
496.38	500.87
496.55	386.19
496.73	435.34
496.91	393.21
497.09	416.62
497.26	472.79
497.44	381.51
497.62	362.78
497.79	430.66
497.97	444.70
498.14	374.49
498.32	360.44
498.50	381.51
498.67	376.83
498.85	444.70
499.03	435.34
499.20	393.21
499.38	393.21
499.56	348.74
499.73	393.21
499.91	425.98
500.08	416.62
500.26	421.30
500.44	407.25
500.61	402.57
500.79	418.96
500.97	397.89
501.14	433.00
501.32	409.59
501.49	514.92
501.67	404.91
501.84	421.30
502.02	374.49
502.20	381.51
502.37	430.66
502.55	407.25
502.72	430.66
502.90	472.79
503.07	447.04
503.25	442.36
503.43	374.49
503.60	411.93
503.78	447.04
503.95	435.34
504.13	479.81
504.30	444.70
504.48	451.72
504.65	461.09
504.83	465.77
505.01	486.83
505.18	409.59
505.36	437.68
505.53	416.62
505.71	404.91
505.88	463.43
506.06	456.40
506.23	379.17
506.41	458.74
506.58	477.47
506.76	330.02
506.93	390.87
507.11	425.98
507.28	393.21
507.46	395.55
507.63	416.62
507.81	379.17
507.98	440.02
508.16	407.25
508.33	418.96
508.50	503.22
508.68	397.89
508.85	435.34
509.03	388.53
509.20	449.38
509.38	372.15
509.55	430.66
509.73	367.46
509.90	442.36
510.08	395.55
510.25	411.93
510.42	400.23
510.60	461.09
510.77	339.38
510.95	454.06
511.12	437.68
511.30	395.55
511.47	362.78
511.64	416.62
511.82	402.57
511.99	477.47
512.17	444.70
512.34	423.64
512.51	454.06
512.69	421.30
512.86	454.06
513.04	449.38
513.21	407.25
513.38	463.43
513.56	372.15
513.73	362.78
513.90	402.57
514.08	381.51
514.25	425.98
514.43	397.89
514.60	425.98
514.77	362.78
514.95	458.74
515.12	358.10
515.29	423.64
515.47	362.78
515.64	372.15
515.81	454.06
515.99	416.62
516.16	444.70
516.33	440.02
516.51	351.08
516.68	409.59
516.85	400.23
517.03	435.34
517.20	463.43
517.37	454.06
517.54	437.68
517.72	407.25
517.89	360.44
518.06	395.55
518.24	404.91
518.41	463.43
518.58	362.78
518.75	393.21
518.93	437.68
519.10	486.83
519.27	379.17
519.45	421.30
519.62	444.70
519.79	379.17
519.96	397.89
520.14	372.15
520.31	395.55
520.48	400.23
520.65	320.65
520.83	433.00
521.00	407.25
521.17	458.74
521.34	411.93
521.52	472.79
521.69	383.85
521.86	390.87
522.03	416.62
522.20	514.92
522.38	435.34
522.55	442.36
522.72	355.76
522.89	451.72
523.07	418.96
523.24	468.11
523.41	435.34
523.58	372.15
523.75	341.72
523.92	381.51
524.10	418.96
524.27	404.91
524.44	484.49
524.61	458.74
524.78	383.85
524.96	444.70
525.13	374.49
525.30	404.91
525.47	344.06
525.64	404.91
525.81	484.49
525.98	463.43
526.16	421.30
526.33	388.53
526.50	435.34
526.67	360.44
526.84	355.76
527.01	493.85
527.18	505.56
527.36	402.57
527.53	372.15
527.70	411.93
527.87	407.25
528.04	435.34
528.21	430.66
528.38	479.81
528.55	407.25
528.72	416.62
528.89	463.43
529.07	409.59
529.24	440.02
529.41	428.32
529.58	465.77
529.75	418.96
529.92	414.27
530.09	470.45
530.26	479.81
530.43	421.30
530.60	423.64
530.77	388.53
530.94	418.96
531.11	430.66
531.28	486.83
531.46	418.96
531.63	463.43
531.80	365.12
531.97	421.30
532.14	442.36
532.31	362.78
532.48	463.43
532.65	383.85
532.82	437.68
532.99	395.55
533.16	430.66
533.33	344.06
533.50	407.25
533.67	379.17
533.84	444.70
534.01	491.51
534.18	402.57
534.35	440.02
534.52	383.85
534.69	411.93
534.86	454.06
535.03	397.89
535.20	430.66
535.37	421.30
535.54	475.13
535.71	421.30
535.88	437.68
536.05	416.62
536.22	400.23
536.38	475.13
536.55	447.04
536.72	465.77
536.89	381.51
537.06	411.93
537.23	472.79
537.40	306.61
537.57	451.72
537.74	493.85
537.91	468.11
538.08	411.93
538.25	400.23
538.42	447.04
538.59	339.38
538.75	369.80
538.92	393.21
539.09	360.44
539.26	433.00
539.43	493.85
539.60	327.68
539.77	397.89
539.94	409.59
540.11	372.15
540.28	493.85
540.44	388.53
540.61	470.45
540.78	395.55
540.95	463.43
541.12	449.38
541.29	423.64
541.46	407.25
541.62	397.89
541.79	372.15
541.96	390.87
542.13	433.00
542.30	379.17
542.47	418.96
542.63	433.00
542.80	395.55
542.97	454.06
543.14	444.70
543.31	451.72
543.48	388.53
543.64	407.25
543.81	475.13
543.98	348.74
544.15	337.04
544.32	437.68
544.48	470.45
544.65	381.51
544.82	402.57
544.99	402.57
545.16	414.27
545.32	421.30
545.49	411.93
545.66	489.17
545.83	444.70
546.00	381.51
546.16	435.34
546.33	423.64
546.50	435.34
546.67	418.96
546.83	400.23
547.00	360.44
547.17	449.38
547.34	393.21
547.50	425.98
547.67	348.74
547.84	421.30
548.00	451.72
548.17	383.85
548.34	386.19
548.51	409.59
548.67	444.70
548.84	369.80
549.01	379.17
549.18	472.79
549.34	472.79
549.51	367.46
549.68	418.96
549.84	461.09
550.01	393.21
550.18	468.11
550.34	500.87
550.51	393.21
550.68	425.98
550.84	479.81
551.01	421.30
551.18	440.02
551.34	402.57
551.51	381.51
551.68	353.42
551.84	397.89
552.01	369.80
552.18	365.12
552.34	414.27
552.51	468.11
552.68	454.06
552.84	444.70
553.01	402.57
553.18	390.87
553.34	451.72
553.51	337.04
553.67	475.13
553.84	388.53
554.01	365.12
554.17	386.19
554.34	425.98
554.51	404.91
554.67	470.45
554.84	407.25
555.00	435.34
555.17	411.93
555.33	465.77
555.50	397.89
555.67	339.38
555.83	433.00
556.00	402.57
556.16	543.00
556.33	433.00
556.50	428.32
556.66	433.00
556.83	454.06
556.99	393.21
557.16	472.79
557.32	444.70
557.49	456.40
557.65	390.87
557.82	428.32
557.98	456.40
558.15	383.85
558.32	458.74
558.48	461.09
558.65	414.27
558.81	491.51
558.98	400.23
559.14	386.19
559.31	388.53
559.47	397.89
559.64	383.85
559.80	421.30
559.97	465.77
560.13	353.42
560.30	381.51
560.46	425.98
560.63	379.17
560.79	458.74
560.96	496.19
561.12	397.89
561.29	463.43
561.45	430.66
561.61	435.34
561.78	531.30
561.94	425.98
562.11	425.98
562.27	362.78
562.44	416.62
562.60	458.74
562.77	428.32
562.93	388.53
563.10	442.36
563.26	416.62
563.42	379.17
563.59	433.00
563.75	411.93
563.92	489.17
564.08	430.66
564.24	421.30
564.41	449.38
564.57	388.53
564.74	423.64
564.90	411.93
565.07	425.98
565.23	390.87
565.39	395.55
565.56	540.66
565.72	475.13
565.88	465.77
566.05	444.70
566.21	374.49
566.38	442.36
566.54	376.83
566.70	428.32
566.87	376.83
567.03	390.87
567.19	353.42
567.36	402.57
567.52	402.57
567.68	451.72
567.85	351.08
568.01	390.87
568.17	468.11
568.34	379.17
568.50	379.17
568.66	351.08
568.83	519.60
568.99	393.21
569.15	442.36
569.32	428.32
569.48	468.11
569.64	444.70
569.81	454.06
569.97	390.87
570.13	440.02
570.30	348.74
570.46	451.72
570.62	369.80
570.78	348.74
570.95	402.57
571.11	416.62
571.27	454.06
571.43	449.38
571.60	421.30
571.76	411.93
571.92	425.98
572.09	447.04
572.25	407.25
572.41	344.06
572.57	348.74
572.74	444.70
572.90	433.00
573.06	367.46
573.22	348.74
573.38	416.62
573.55	444.70
573.71	454.06
573.87	425.98
574.03	444.70
574.20	465.77
574.36	493.85
574.52	372.15
574.68	465.77
574.84	430.66
575.01	435.34
575.17	475.13
575.33	383.85
575.49	444.70
575.65	454.06
575.82	451.72
575.98	442.36
576.14	397.89
576.30	421.30
576.46	463.43
576.62	449.38
576.79	486.83
576.95	454.06
577.11	435.34
577.27	421.30
577.43	416.62
577.59	447.04
577.75	402.57
577.92	418.96
578.08	397.89
578.24	304.27
578.40	463.43
578.56	470.45
578.72	456.40
578.88	435.34
579.04	430.66
579.21	416.62
579.37	442.36
579.53	362.78
579.69	456.40
579.85	416.62
580.01	372.15
580.17	418.96
580.33	414.27
580.49	418.96
580.65	435.34
580.82	418.96
580.98	416.62
581.14	451.72
581.30	484.49
581.46	440.02
581.62	447.04
581.78	365.12
581.94	449.38
582.10	393.21
582.26	344.06
582.42	379.17
582.58	404.91
582.74	454.06
582.90	454.06
583.06	402.57
583.22	397.89
583.38	449.38
583.54	435.34
583.70	411.93
583.86	402.57
584.02	430.66
584.18	409.59
584.34	393.21
584.50	444.70
584.66	433.00
584.82	425.98
584.98	440.02
585.14	477.47
585.30	416.62
585.46	472.79
585.62	411.93
585.78	400.23
585.94	440.02
586.10	351.08
586.26	463.43
586.42	416.62
586.58	395.55
586.74	433.00
586.90	472.79
587.06	393.21
587.22	404.91
587.38	461.09
587.54	397.89
587.70	442.36
587.86	407.25
588.02	386.19
588.18	447.04
588.34	482.15
588.49	458.74
588.65	404.91
588.81	507.90
588.97	430.66
589.13	433.00
589.29	407.25
589.45	479.81
589.61	433.00
589.77	440.02
589.93	505.56
590.08	416.62
590.24	411.93
590.40	418.96
590.56	454.06
590.72	409.59
590.88	376.83
591.04	383.85
591.20	376.83
591.35	393.21
591.51	330.02
591.67	414.27
591.83	428.32
591.99	442.36
592.15	402.57
592.31	407.25
592.46	400.23
592.62	423.64
592.78	337.04
592.94	414.27
593.10	428.32
593.26	402.57
593.41	442.36
593.57	428.32
593.73	395.55
593.89	395.55
594.05	367.46
594.20	468.11
594.36	440.02
594.52	444.70
594.68	372.15
594.84	414.27
594.99	463.43
595.15	355.76
595.31	491.51
595.47	411.93
595.62	437.68
595.78	355.76
595.94	393.21
596.10	330.02
596.25	332.36
596.41	557.05
596.57	423.64
596.73	414.27
596.88	341.72
597.04	430.66
597.20	416.62
597.36	393.21
597.51	402.57
597.67	451.72
597.83	325.33
597.99	454.06
598.14	451.72
598.30	315.97
598.46	404.91
598.61	414.27
598.77	388.53
598.93	454.06
599.09	411.93
599.24	463.43
599.40	421.30
599.56	325.33
599.71	458.74
599.87	362.78
600.03	402.57
600.18	362.78
600.34	355.76
600.50	456.40
600.65	395.55
600.81	440.02
600.97	456.40
601.12	362.78
601.28	430.66
601.44	365.12
601.59	418.96
601.75	470.45
601.91	376.83
602.06	435.34
602.22	374.49
602.37	400.23
602.53	447.04
602.69	456.40
602.84	440.02
603.00	425.98
603.16	440.02
603.31	449.38
603.47	388.53
603.62	421.30
603.78	409.59
603.94	463.43
604.09	451.72
604.25	418.96
604.40	447.04
604.56	465.77
604.71	379.17
604.87	372.15
605.03	353.42
605.18	472.79
605.34	402.57
605.49	400.23
605.65	360.44
605.80	351.08
605.96	418.96
606.12	433.00
606.27	374.49
606.43	425.98
606.58	393.21
606.74	400.23
606.89	416.62
607.05	402.57
607.20	447.04
607.36	451.72
607.51	437.68
607.67	447.04
607.82	404.91
607.98	404.91
608.13	402.57
608.29	376.83
608.44	414.27
608.60	418.96
608.75	472.79
608.91	447.04
609.06	465.77
609.22	390.87
609.37	400.23
609.53	393.21
609.68	407.25
609.84	416.62
609.99	418.96
610.15	442.36
