SpectraSuite Data File
++++++++++++++++++++++++++++++++++++
Date: Fri Oct 25 12:10:16 EDT 2013
User: price-jones
Dark Spectrum Present: No
Reference Spectrum Present: No
Number of Sampled Component Spectra: 1
Spectrometers: USB2+H05261
Integration Time (usec): 100000 (USB2+H05261)
Spectra Averaged: 1 (USB2+H05261)
Boxcar Smoothing: 0 (USB2+H05261)
Correct for Electrical Dark: No (USB2+H05261)
Strobe/Lamp Enabled: No (USB2+H05261)
Correct for Detector Non-linearity: No (USB2+H05261)
Correct for Stray Light: No (USB2+H05261)
Number of Pixels in Processed Spectrum: 2048
>>>>>Begin Processed Spectral Data<<<<<
365.73	388.53
365.92	388.53
366.12	388.53
366.32	201.29
366.52	243.42
366.72	255.12
366.91	245.76
367.11	227.03
367.31	241.08
367.51	217.67
367.70	278.52
367.90	273.84
368.10	266.82
368.30	212.99
368.49	283.20
368.69	264.48
368.89	301.93
369.09	255.12
369.28	318.31
369.48	238.73
369.68	322.99
369.87	292.57
370.07	266.82
370.27	346.40
370.47	379.17
370.66	332.36
370.86	341.72
371.06	325.33
371.25	397.89
371.45	355.76
371.65	428.32
371.84	376.83
372.04	374.49
372.24	428.32
372.44	456.40
372.63	397.89
372.83	320.65
373.03	491.51
373.22	416.62
373.42	437.68
373.62	386.19
373.81	409.59
374.01	447.04
374.21	454.06
374.40	430.66
374.60	414.27
374.79	395.55
374.99	393.21
375.19	404.91
375.38	372.15
375.58	395.55
375.78	470.45
375.97	458.74
376.17	407.25
376.37	322.99
376.56	369.80
376.76	454.06
376.95	416.62
377.15	428.32
377.35	416.62
377.54	379.17
377.74	411.93
377.93	386.19
378.13	449.38
378.33	355.76
378.52	456.40
378.72	418.96
378.91	435.34
379.11	433.00
379.31	409.59
379.50	397.89
379.70	437.68
379.89	376.83
380.09	461.09
380.28	425.98
380.48	365.12
380.68	393.21
380.87	418.96
381.07	393.21
381.26	451.72
381.46	425.98
381.65	418.96
381.85	381.51
382.04	400.23
382.24	374.49
382.43	475.13
382.63	379.17
382.83	433.00
383.02	435.34
383.22	397.89
383.41	351.08
383.61	442.36
383.80	449.38
384.00	395.55
384.19	411.93
384.39	409.59
384.58	374.49
384.78	447.04
384.97	404.91
385.17	411.93
385.36	360.44
385.56	360.44
385.75	435.34
385.95	388.53
386.14	379.17
386.34	379.17
386.53	451.72
386.72	374.49
386.92	524.28
387.11	407.25
387.31	435.34
387.50	407.25
387.70	400.23
387.89	376.83
388.09	344.06
388.28	435.34
388.48	393.21
388.67	444.70
388.86	407.25
389.06	374.49
389.25	423.64
389.45	346.40
389.64	353.42
389.84	449.38
390.03	416.62
390.22	430.66
390.42	503.22
390.61	425.98
390.81	425.98
391.00	374.49
391.19	449.38
391.39	482.15
391.58	475.13
391.78	388.53
391.97	428.32
392.16	395.55
392.36	423.64
392.55	416.62
392.75	386.19
392.94	433.00
393.13	444.70
393.33	374.49
393.52	435.34
393.71	418.96
393.91	486.83
394.10	437.68
394.29	383.85
394.49	360.44
394.68	456.40
394.88	489.17
395.07	374.49
395.26	351.08
395.46	379.17
395.65	407.25
395.84	454.06
396.04	465.77
396.23	369.80
396.42	379.17
396.62	341.72
396.81	383.85
397.00	374.49
397.19	404.91
397.39	411.93
397.58	440.02
397.77	423.64
397.97	388.53
398.16	454.06
398.35	416.62
398.55	407.25
398.74	414.27
398.93	407.25
399.12	430.66
399.32	411.93
399.51	437.68
399.70	348.74
399.90	400.23
400.09	421.30
400.28	409.59
400.47	418.96
400.67	362.78
400.86	318.31
401.05	421.30
401.24	468.11
401.44	449.38
401.63	451.72
401.82	423.64
402.01	344.06
402.21	421.30
402.40	430.66
402.59	418.96
402.78	334.70
402.97	374.49
403.17	395.55
403.36	358.10
403.55	341.72
403.74	334.70
403.93	397.89
404.13	393.21
404.32	362.78
404.51	400.23
404.70	454.06
404.89	365.12
405.09	444.70
405.28	407.25
405.47	372.15
405.66	451.72
405.85	451.72
406.05	437.68
406.24	430.66
406.43	409.59
406.62	414.27
406.81	498.53
407.00	374.49
407.20	465.77
407.39	411.93
407.58	402.57
407.77	358.10
407.96	416.62
408.15	397.89
408.34	430.66
408.54	414.27
408.73	383.85
408.92	407.25
409.11	440.02
409.30	390.87
409.49	454.06
409.68	440.02
409.87	433.00
410.07	461.09
410.26	353.42
410.45	437.68
410.64	409.59
410.83	404.91
411.02	407.25
411.21	451.72
411.40	409.59
411.59	411.93
411.78	418.96
411.98	400.23
412.17	346.40
412.36	402.57
412.55	411.93
412.74	437.68
412.93	433.00
413.12	374.49
413.31	458.74
413.50	423.64
413.69	425.98
413.88	479.81
414.07	440.02
414.26	409.59
414.45	447.04
414.64	510.24
414.83	449.38
415.02	372.15
415.22	360.44
415.41	463.43
415.60	379.17
415.79	341.72
415.98	440.02
416.17	458.74
416.36	388.53
416.55	400.23
416.74	425.98
416.93	402.57
417.12	451.72
417.31	390.87
417.50	428.32
417.69	454.06
417.88	362.78
418.07	447.04
418.26	344.06
418.45	374.49
418.64	454.06
418.83	435.34
419.02	416.62
419.21	447.04
419.39	393.21
419.58	463.43
419.77	376.83
419.96	456.40
420.15	397.89
420.34	402.57
420.53	433.00
420.72	463.43
420.91	428.32
421.10	423.64
421.29	404.91
421.48	414.27
421.67	545.34
421.86	397.89
422.05	421.30
422.24	435.34
422.43	383.85
422.61	451.72
422.80	337.04
422.99	376.83
423.18	440.02
423.37	423.64
423.56	477.47
423.75	451.72
423.94	379.17
424.13	430.66
424.32	372.15
424.50	362.78
424.69	425.98
424.88	461.09
425.07	341.72
425.26	442.36
425.45	404.91
425.64	477.47
425.83	449.38
426.01	442.36
426.20	351.08
426.39	358.10
426.58	418.96
426.77	397.89
426.96	365.12
427.15	374.49
427.33	365.12
427.52	395.55
427.71	390.87
427.90	381.51
428.09	465.77
428.28	381.51
428.46	383.85
428.65	421.30
428.84	456.40
429.03	440.02
429.22	383.85
429.40	393.21
429.59	388.53
429.78	461.09
429.97	433.00
430.16	404.91
430.34	376.83
430.53	414.27
430.72	454.06
430.91	444.70
431.10	416.62
431.28	463.43
431.47	362.78
431.66	353.42
431.85	320.65
432.03	374.49
432.22	388.53
432.41	395.55
432.60	395.55
432.79	407.25
432.97	409.59
433.16	332.36
433.35	430.66
433.54	435.34
433.72	486.83
433.91	411.93
434.10	407.25
434.28	416.62
434.47	395.55
434.66	440.02
434.85	414.27
435.03	395.55
435.22	512.58
435.41	383.85
435.59	381.51
435.78	423.64
435.97	437.68
436.16	435.34
436.34	428.32
436.53	444.70
436.72	418.96
436.90	411.93
437.09	390.87
437.28	465.77
437.46	425.98
437.65	400.23
437.84	383.85
438.02	332.36
438.21	498.53
438.40	440.02
438.58	437.68
438.77	358.10
438.96	428.32
439.14	433.00
439.33	362.78
439.52	362.78
439.70	440.02
439.89	449.38
440.08	388.53
440.26	411.93
440.45	468.11
440.63	447.04
440.82	421.30
441.01	348.74
441.19	440.02
441.38	468.11
441.57	442.36
441.75	416.62
441.94	407.25
442.12	433.00
442.31	449.38
442.50	365.12
442.68	472.79
442.87	440.02
443.05	437.68
443.24	383.85
443.43	423.64
443.61	444.70
443.80	421.30
443.98	463.43
444.17	477.47
444.35	449.38
444.54	430.66
444.73	395.55
444.91	498.53
445.10	353.42
445.28	393.21
445.47	418.96
445.65	400.23
445.84	414.27
446.02	416.62
446.21	458.74
446.39	381.51
446.58	428.32
446.77	461.09
446.95	428.32
447.14	409.59
447.32	475.13
447.51	393.21
447.69	416.62
447.88	383.85
448.06	430.66
448.25	404.91
448.43	433.00
448.62	411.93
448.80	416.62
448.99	379.17
449.17	449.38
449.36	433.00
449.54	440.02
449.73	393.21
449.91	433.00
450.10	390.87
450.28	463.43
450.46	449.38
450.65	390.87
450.83	416.62
451.02	442.36
451.20	407.25
451.39	397.89
451.57	425.98
451.76	355.76
451.94	475.13
452.13	393.21
452.31	484.49
452.49	386.19
452.68	421.30
452.86	442.36
453.05	514.92
453.23	454.06
453.42	355.76
453.60	360.44
453.78	425.98
453.97	430.66
454.15	414.27
454.34	414.27
454.52	421.30
454.70	472.79
454.89	449.38
455.07	437.68
455.26	395.55
455.44	386.19
455.62	444.70
455.81	402.57
455.99	362.78
456.17	454.06
456.36	372.15
456.54	386.19
456.73	341.72
456.91	360.44
457.09	397.89
457.28	475.13
457.46	421.30
457.64	407.25
457.83	430.66
458.01	325.33
458.19	482.15
458.38	447.04
458.56	433.00
458.74	379.17
458.93	414.27
459.11	425.98
459.29	423.64
459.48	365.12
459.66	433.00
459.84	374.49
460.03	465.77
460.21	423.64
460.39	388.53
460.57	418.96
460.76	435.34
460.94	454.06
461.12	482.15
461.31	383.85
461.49	440.02
461.67	397.89
461.85	383.85
462.04	463.43
462.22	779.40
462.40	468.11
462.59	416.62
462.77	423.64
462.95	407.25
463.13	433.00
463.32	477.47
463.50	512.58
463.68	395.55
463.86	463.43
464.05	346.40
464.23	475.13
464.41	458.74
464.59	463.43
464.78	367.46
464.96	355.76
465.14	390.87
465.32	435.34
465.50	418.96
465.69	449.38
465.87	409.59
466.05	507.90
466.23	400.23
466.41	409.59
466.60	514.92
466.78	346.40
466.96	395.55
467.14	447.04
467.32	428.32
467.51	477.47
467.69	320.65
467.87	435.34
468.05	404.91
468.23	386.19
468.41	360.44
468.60	416.62
468.78	407.25
468.96	376.83
469.14	372.15
469.32	425.98
469.50	383.85
469.69	465.77
469.87	425.98
470.05	379.17
470.23	376.83
470.41	442.36
470.59	404.91
470.77	430.66
470.95	344.06
471.14	479.81
471.32	407.25
471.50	472.79
471.68	430.66
471.86	454.06
472.04	418.96
472.22	397.89
472.40	437.68
472.58	440.02
472.77	374.49
472.95	372.15
473.13	397.89
473.31	418.96
473.49	390.87
473.67	435.34
473.85	454.06
474.03	395.55
474.21	393.21
474.39	360.44
474.57	437.68
474.75	400.23
474.93	390.87
475.12	367.46
475.30	456.40
475.48	388.53
475.66	416.62
475.84	367.46
476.02	362.78
476.20	372.15
476.38	372.15
476.56	428.32
476.74	425.98
476.92	381.51
477.10	400.23
477.28	472.79
477.46	409.59
477.64	449.38
477.82	425.98
478.00	416.62
478.18	409.59
478.36	365.12
478.54	440.02
478.72	362.78
478.90	376.83
479.08	409.59
479.26	360.44
479.44	388.53
479.62	435.34
479.80	409.59
479.98	435.34
480.16	409.59
480.34	447.04
480.52	458.74
480.70	407.25
480.88	351.08
481.06	411.93
481.24	346.40
481.41	381.51
481.59	411.93
481.77	479.81
481.95	421.30
482.13	404.91
482.31	414.27
482.49	393.21
482.67	374.49
482.85	376.83
483.03	421.30
483.21	472.79
483.39	379.17
483.57	402.57
483.74	388.53
483.92	433.00
484.10	400.23
484.28	395.55
484.46	383.85
484.64	383.85
484.82	421.30
485.00	421.30
485.18	395.55
485.35	407.25
485.53	440.02
485.71	381.51
485.89	397.89
486.07	381.51
486.25	449.38
486.43	409.59
486.61	421.30
486.78	414.27
486.96	435.34
487.14	383.85
487.32	407.25
487.50	393.21
487.68	381.51
487.85	367.46
488.03	433.00
488.21	423.64
488.39	409.59
488.57	386.19
488.75	428.32
488.92	521.94
489.10	407.25
489.28	496.19
489.46	374.49
489.64	425.98
489.81	472.79
489.99	407.25
490.17	360.44
490.35	451.72
490.53	390.87
490.70	442.36
490.88	428.32
491.06	388.53
491.24	423.64
491.41	360.44
491.59	437.68
491.77	425.98
491.95	372.15
492.13	397.89
492.30	433.00
492.48	374.49
492.66	414.27
492.84	374.49
493.01	411.93
493.19	344.06
493.37	390.87
493.54	442.36
493.72	414.27
493.90	362.78
494.08	442.36
494.25	365.12
494.43	430.66
494.61	393.21
494.79	362.78
494.96	360.44
495.14	407.25
495.32	472.79
495.49	496.19
495.67	456.40
495.85	390.87
496.02	367.46
496.20	463.43
496.38	430.66
496.55	507.90
496.73	379.17
496.91	465.77
497.09	360.44
497.26	395.55
497.44	395.55
497.62	456.40
497.79	411.93
497.97	472.79
498.14	463.43
498.32	437.68
498.50	477.47
498.67	374.49
498.85	395.55
499.03	428.32
499.20	454.06
499.38	435.34
499.56	388.53
499.73	440.02
499.91	372.15
500.08	423.64
500.26	475.13
500.44	423.64
500.61	414.27
500.79	440.02
500.97	400.23
501.14	416.62
501.32	428.32
501.49	348.74
501.67	454.06
501.84	393.21
502.02	397.89
502.20	531.30
502.37	400.23
502.55	435.34
502.72	407.25
502.90	458.74
503.07	379.17
503.25	386.19
503.43	346.40
503.60	404.91
503.78	390.87
503.95	376.83
504.13	414.27
504.30	425.98
504.48	404.91
504.65	430.66
504.83	440.02
505.01	418.96
505.18	414.27
505.36	444.70
505.53	409.59
505.71	351.08
505.88	454.06
506.06	421.30
506.23	477.47
506.41	451.72
506.58	465.77
506.76	435.34
506.93	376.83
507.11	407.25
507.28	374.49
507.46	379.17
507.63	477.47
507.81	463.43
507.98	362.78
508.16	362.78
508.33	484.49
508.50	440.02
508.68	423.64
508.85	409.59
509.03	416.62
509.20	463.43
509.38	468.11
509.55	447.04
509.73	409.59
509.90	393.21
510.08	407.25
510.25	400.23
510.42	372.15
510.60	447.04
510.77	425.98
510.95	465.77
511.12	440.02
511.30	418.96
511.47	437.68
511.64	411.93
511.82	400.23
511.99	475.13
512.17	358.10
512.34	383.85
512.51	451.72
512.69	416.62
512.86	482.15
513.04	400.23
513.21	430.66
513.38	355.76
513.56	402.57
513.73	402.57
513.90	425.98
514.08	334.70
514.25	423.64
514.43	416.62
514.60	376.83
514.77	449.38
514.95	435.34
515.12	395.55
515.29	433.00
515.47	507.90
515.64	505.56
515.81	428.32
515.99	496.19
516.16	465.77
516.33	449.38
516.51	407.25
516.68	374.49
516.85	440.02
517.03	414.27
517.20	416.62
517.37	376.83
517.54	390.87
517.72	435.34
517.89	451.72
518.06	376.83
518.24	496.19
518.41	456.40
518.58	461.09
518.75	442.36
518.93	416.62
519.10	367.46
519.27	383.85
519.45	397.89
519.62	430.66
519.79	479.81
519.96	407.25
520.14	458.74
520.31	435.34
520.48	456.40
520.65	390.87
520.83	428.32
521.00	444.70
521.17	463.43
521.34	456.40
521.52	418.96
521.69	358.10
521.86	341.72
522.03	379.17
522.20	433.00
522.38	428.32
522.55	386.19
522.72	409.59
522.89	418.96
523.07	470.45
523.24	404.91
523.41	418.96
523.58	468.11
523.75	416.62
523.92	362.78
524.10	430.66
524.27	444.70
524.44	465.77
524.61	524.28
524.78	425.98
524.96	440.02
525.13	428.32
525.30	421.30
525.47	458.74
525.64	437.68
525.81	468.11
525.98	428.32
526.16	409.59
526.33	456.40
526.50	435.34
526.67	393.21
526.84	351.08
527.01	416.62
527.18	416.62
527.36	454.06
527.53	430.66
527.70	416.62
527.87	407.25
528.04	526.62
528.21	440.02
528.38	390.87
528.55	421.30
528.72	400.23
528.89	468.11
529.07	397.89
529.24	440.02
529.41	404.91
529.58	475.13
529.75	353.42
529.92	397.89
530.09	388.53
530.26	421.30
530.43	372.15
530.60	425.98
530.77	397.89
530.94	360.44
531.11	407.25
531.28	449.38
531.46	470.45
531.63	418.96
531.80	344.06
531.97	491.51
532.14	456.40
532.31	348.74
532.48	423.64
532.65	383.85
532.82	372.15
532.99	402.57
533.16	435.34
533.33	468.11
533.50	425.98
533.67	456.40
533.84	360.44
534.01	423.64
534.18	367.46
534.35	428.32
534.52	372.15
534.69	421.30
534.86	435.34
535.03	348.74
535.20	397.89
535.37	428.32
535.54	348.74
535.71	383.85
535.88	423.64
536.05	414.27
536.22	383.85
536.38	402.57
536.55	416.62
536.72	376.83
536.89	442.36
537.06	400.23
537.23	367.46
537.40	470.45
537.57	395.55
537.74	449.38
537.91	447.04
538.08	447.04
538.25	440.02
538.42	374.49
538.59	440.02
538.75	421.30
538.92	367.46
539.09	388.53
539.26	433.00
539.43	397.89
539.60	341.72
539.77	355.76
539.94	411.93
540.11	369.80
540.28	484.49
540.44	447.04
540.61	425.98
540.78	454.06
540.95	341.72
541.12	507.90
541.29	407.25
541.46	411.93
541.62	386.19
541.79	454.06
541.96	433.00
542.13	458.74
542.30	374.49
542.47	472.79
542.63	402.57
542.80	388.53
542.97	418.96
543.14	465.77
543.31	454.06
543.48	383.85
543.64	388.53
543.81	430.66
543.98	372.15
544.15	388.53
544.32	414.27
544.48	444.70
544.65	400.23
544.82	393.21
544.99	381.51
545.16	383.85
545.32	369.80
545.49	425.98
545.66	341.72
545.83	355.76
546.00	418.96
546.16	409.59
546.33	451.72
546.50	390.87
546.67	411.93
546.83	421.30
547.00	421.30
547.17	423.64
547.34	362.78
547.50	454.06
547.67	393.21
547.84	461.09
548.00	348.74
548.17	414.27
548.34	393.21
548.51	348.74
548.67	444.70
548.84	423.64
549.01	416.62
549.18	416.62
549.34	348.74
549.51	442.36
549.68	390.87
549.84	365.12
550.01	395.55
550.18	449.38
550.34	470.45
550.51	468.11
550.68	458.74
550.84	451.72
551.01	440.02
551.18	465.77
551.34	430.66
551.51	458.74
551.68	404.91
551.84	458.74
552.01	374.49
552.18	458.74
552.34	463.43
552.51	477.47
552.68	444.70
552.84	423.64
553.01	390.87
553.18	430.66
553.34	372.15
553.51	397.89
553.67	425.98
553.84	498.53
554.01	528.96
554.17	479.81
554.34	442.36
554.51	442.36
554.67	425.98
554.84	421.30
555.00	400.23
555.17	414.27
555.33	435.34
555.50	360.44
555.67	430.66
555.83	402.57
556.00	430.66
556.16	561.73
556.33	414.27
556.50	444.70
556.66	315.97
556.83	386.19
556.99	393.21
557.16	463.43
557.32	461.09
557.49	376.83
557.65	383.85
557.82	330.02
557.98	400.23
558.15	482.15
558.32	397.89
558.48	379.17
558.65	451.72
558.81	400.23
558.98	430.66
559.14	437.68
559.31	416.62
559.47	409.59
559.64	414.27
559.80	524.28
559.97	388.53
560.13	451.72
560.30	381.51
560.46	383.85
560.63	425.98
560.79	388.53
560.96	472.79
561.12	425.98
561.29	411.93
561.45	442.36
561.61	456.40
561.78	531.30
561.94	383.85
562.11	395.55
562.27	414.27
562.44	416.62
562.60	379.17
562.77	449.38
562.93	538.32
563.10	451.72
563.26	287.89
563.42	454.06
563.59	360.44
563.75	365.12
563.92	454.06
564.08	395.55
564.24	402.57
564.41	484.49
564.57	325.33
564.74	451.72
564.90	369.80
565.07	437.68
565.23	397.89
565.39	440.02
565.56	390.87
565.72	393.21
565.88	435.34
566.05	440.02
566.21	451.72
566.38	402.57
566.54	423.64
566.70	369.80
566.87	339.38
567.03	346.40
567.19	451.72
567.36	454.06
567.52	416.62
567.68	400.23
567.85	447.04
568.01	461.09
568.17	423.64
568.34	442.36
568.50	423.64
568.66	433.00
568.83	451.72
568.99	498.53
569.15	435.34
569.32	416.62
569.48	400.23
569.64	367.46
569.81	409.59
569.97	369.80
570.13	442.36
570.30	409.59
570.46	449.38
570.62	416.62
570.78	421.30
570.95	411.93
571.11	423.64
571.27	428.32
571.43	332.36
571.60	447.04
571.76	461.09
571.92	430.66
572.09	463.43
572.25	369.80
572.41	348.74
572.57	491.51
572.74	472.79
572.90	421.30
573.06	456.40
573.22	449.38
573.38	402.57
573.55	444.70
573.71	435.34
573.87	423.64
574.03	475.13
574.20	433.00
574.36	524.28
574.52	411.93
574.68	365.12
574.84	456.40
575.01	454.06
575.17	428.32
575.33	409.59
575.49	463.43
575.65	468.11
575.82	383.85
575.98	418.96
576.14	411.93
576.30	449.38
576.46	477.47
576.62	416.62
576.79	395.55
576.95	407.25
577.11	414.27
577.27	440.02
577.43	442.36
577.59	421.30
577.75	465.77
577.92	437.68
578.08	437.68
578.24	397.89
578.40	489.17
578.56	454.06
578.72	414.27
578.88	482.15
579.04	451.72
579.21	458.74
579.37	404.91
579.53	456.40
579.69	433.00
579.85	451.72
580.01	421.30
580.17	451.72
580.33	433.00
580.49	341.72
580.65	500.87
580.82	444.70
580.98	355.76
581.14	362.78
581.30	418.96
581.46	369.80
581.62	437.68
581.78	360.44
581.94	404.91
582.10	388.53
582.26	390.87
582.42	393.21
582.58	379.17
582.74	372.15
582.90	498.53
583.06	414.27
583.22	355.76
583.38	425.98
583.54	334.70
583.70	442.36
583.86	463.43
584.02	482.15
584.18	449.38
584.34	379.17
584.50	486.83
584.66	423.64
584.82	482.15
584.98	430.66
585.14	411.93
585.30	407.25
585.46	402.57
585.62	437.68
585.78	454.06
585.94	381.51
586.10	440.02
586.26	390.87
586.42	435.34
586.58	418.96
586.74	442.36
586.90	330.02
587.06	482.15
587.22	440.02
587.38	472.79
587.54	379.17
587.70	393.21
587.86	376.83
588.02	489.17
588.18	383.85
588.34	400.23
588.49	372.15
588.65	376.83
588.81	428.32
588.97	360.44
589.13	376.83
589.29	449.38
589.45	465.77
589.61	402.57
589.77	484.49
589.93	388.53
590.08	442.36
590.24	411.93
590.40	376.83
590.56	414.27
590.72	365.12
590.88	409.59
591.04	402.57
591.20	393.21
591.35	472.79
591.51	404.91
591.67	425.98
591.83	482.15
591.99	409.59
592.15	496.19
592.31	463.43
592.46	449.38
592.62	449.38
592.78	409.59
592.94	475.13
593.10	423.64
593.26	390.87
593.41	383.85
593.57	400.23
593.73	374.49
593.89	430.66
594.05	491.51
594.20	327.68
594.36	498.53
594.52	458.74
594.68	442.36
594.84	409.59
594.99	390.87
595.15	489.17
595.31	407.25
595.47	500.87
595.62	409.59
595.78	348.74
595.94	395.55
596.10	367.46
596.25	421.30
596.41	407.25
596.57	402.57
596.73	458.74
596.88	365.12
597.04	404.91
597.20	442.36
597.36	482.15
597.51	379.17
597.67	433.00
597.83	395.55
597.99	440.02
598.14	414.27
598.30	414.27
598.46	437.68
598.61	458.74
598.77	411.93
598.93	388.53
599.09	444.70
599.24	407.25
599.40	454.06
599.56	388.53
599.71	430.66
599.87	447.04
600.03	425.98
600.18	353.42
600.34	444.70
600.50	402.57
600.65	407.25
600.81	456.40
600.97	397.89
601.12	390.87
601.28	493.85
601.44	442.36
601.59	339.38
601.75	411.93
601.91	454.06
602.06	393.21
602.22	425.98
602.37	411.93
602.53	421.30
602.69	418.96
602.84	400.23
603.00	348.74
603.16	477.47
603.31	374.49
603.47	390.87
603.62	341.72
603.78	456.40
603.94	428.32
604.09	414.27
604.25	442.36
604.40	430.66
604.56	376.83
604.71	444.70
604.87	493.85
605.03	435.34
605.18	451.72
605.34	461.09
605.49	418.96
605.65	393.21
605.80	395.55
605.96	395.55
606.12	374.49
606.27	372.15
606.43	402.57
606.58	451.72
606.74	510.24
606.89	390.87
607.05	411.93
607.20	447.04
607.36	393.21
607.51	425.98
607.67	372.15
607.82	358.10
607.98	416.62
608.13	418.96
608.29	390.87
608.44	440.02
608.60	395.55
608.75	367.46
608.91	421.30
609.06	454.06
609.22	470.45
609.37	414.27
609.53	454.06
609.68	400.23
609.84	411.93
609.99	491.51
610.15	425.98
