SpectraSuite Data File
++++++++++++++++++++++++++++++++++++
Date: Fri Oct 25 12:11:35 EDT 2013
User: price-jones
Dark Spectrum Present: No
Reference Spectrum Present: No
Number of Sampled Component Spectra: 1
Spectrometers: USB2+H05261
Integration Time (usec): 100000 (USB2+H05261)
Spectra Averaged: 1 (USB2+H05261)
Boxcar Smoothing: 0 (USB2+H05261)
Correct for Electrical Dark: No (USB2+H05261)
Strobe/Lamp Enabled: No (USB2+H05261)
Correct for Detector Non-linearity: No (USB2+H05261)
Correct for Stray Light: No (USB2+H05261)
Number of Pixels in Processed Spectrum: 2048
>>>>>Begin Processed Spectral Data<<<<<
365.73	365.12
365.92	365.12
366.12	365.12
366.32	205.97
366.52	266.82
366.72	262.14
366.91	294.91
367.11	248.10
367.31	217.67
367.51	273.84
367.70	203.63
367.90	156.82
368.10	248.10
368.30	241.08
368.49	166.18
368.69	280.86
368.89	234.05
369.09	266.82
369.28	311.29
369.48	241.08
369.68	301.93
369.87	280.86
370.07	315.97
370.27	301.93
370.47	355.76
370.66	292.57
370.86	315.97
371.06	337.04
371.25	379.17
371.45	318.31
371.65	348.74
371.84	414.27
372.04	358.10
372.24	435.34
372.44	376.83
372.63	440.02
372.83	425.98
373.03	423.64
373.22	447.04
373.42	435.34
373.62	428.32
373.81	425.98
374.01	465.77
374.21	386.19
374.40	351.08
374.60	440.02
374.79	421.30
374.99	423.64
375.19	423.64
375.38	428.32
375.58	447.04
375.78	447.04
375.97	355.76
376.17	411.93
376.37	449.38
376.56	409.59
376.76	442.36
376.95	348.74
377.15	365.12
377.35	376.83
377.54	393.21
377.74	430.66
377.93	437.68
378.13	503.22
378.33	428.32
378.52	393.21
378.72	397.89
378.91	390.87
379.11	346.40
379.31	313.63
379.50	430.66
379.70	421.30
379.89	365.12
380.09	416.62
380.28	388.53
380.48	409.59
380.68	306.61
380.87	404.91
381.07	414.27
381.26	341.72
381.46	381.51
381.65	451.72
381.85	442.36
382.04	332.36
382.24	458.74
382.43	404.91
382.63	379.17
382.83	433.00
383.02	458.74
383.22	418.96
383.41	404.91
383.61	411.93
383.80	369.80
384.00	353.42
384.19	369.80
384.39	386.19
384.58	430.66
384.78	428.32
384.97	390.87
385.17	421.30
385.36	447.04
385.56	404.91
385.75	404.91
385.95	346.40
386.14	482.15
386.34	383.85
386.53	500.87
386.72	339.38
386.92	409.59
387.11	304.27
387.31	381.51
387.50	395.55
387.70	374.49
387.89	475.13
388.09	416.62
388.28	365.12
388.48	411.93
388.67	458.74
388.86	330.02
389.06	421.30
389.25	388.53
389.45	430.66
389.64	381.51
389.84	381.51
390.03	418.96
390.22	428.32
390.42	435.34
390.61	397.89
390.81	360.44
391.00	362.78
391.19	404.91
391.39	339.38
391.58	376.83
391.78	484.49
391.97	327.68
392.16	395.55
392.36	428.32
392.55	386.19
392.75	425.98
392.94	400.23
393.13	393.21
393.33	395.55
393.52	393.21
393.71	416.62
393.91	402.57
394.10	477.47
394.29	369.80
394.49	353.42
394.68	454.06
394.88	351.08
395.07	465.77
395.26	416.62
395.46	414.27
395.65	449.38
395.84	407.25
396.04	458.74
396.23	435.34
396.42	341.72
396.62	418.96
396.81	311.29
397.00	334.70
397.19	433.00
397.39	444.70
397.58	397.89
397.77	447.04
397.97	374.49
398.16	332.36
398.35	383.85
398.55	397.89
398.74	369.80
398.93	440.02
399.12	418.96
399.32	465.77
399.51	390.87
399.70	456.40
399.90	421.30
400.09	423.64
400.28	393.21
400.47	428.32
400.67	367.46
400.86	402.57
401.05	379.17
401.24	402.57
401.44	416.62
401.63	479.81
401.82	360.44
402.01	404.91
402.21	355.76
402.40	428.32
402.59	449.38
402.78	346.40
402.97	463.43
403.17	458.74
403.36	428.32
403.55	365.12
403.74	376.83
403.93	339.38
404.13	451.72
404.32	379.17
404.51	411.93
404.70	372.15
404.89	365.12
405.09	400.23
405.28	421.30
405.47	444.70
405.66	411.93
405.85	381.51
406.05	388.53
406.24	437.68
406.43	451.72
406.62	395.55
406.81	423.64
407.00	418.96
407.20	386.19
407.39	409.59
407.58	386.19
407.77	440.02
407.96	383.85
408.15	489.17
408.34	461.09
408.54	360.44
408.73	440.02
408.92	472.79
409.11	451.72
409.30	479.81
409.49	435.34
409.68	393.21
409.87	423.64
410.07	346.40
410.26	442.36
410.45	360.44
410.64	416.62
410.83	444.70
411.02	416.62
411.21	383.85
411.40	360.44
411.59	425.98
411.78	404.91
411.98	397.89
412.17	404.91
412.36	360.44
412.55	409.59
412.74	358.10
412.93	409.59
413.12	407.25
413.31	416.62
413.50	433.00
413.69	470.45
413.88	447.04
414.07	348.74
414.26	348.74
414.45	430.66
414.64	423.64
414.83	390.87
415.02	402.57
415.22	470.45
415.41	472.79
415.60	397.89
415.79	411.93
415.98	454.06
416.17	379.17
416.36	402.57
416.55	365.12
416.74	388.53
416.93	430.66
417.12	444.70
417.31	458.74
417.50	355.76
417.69	355.76
417.88	395.55
418.07	440.02
418.26	386.19
418.45	409.59
418.64	416.62
418.83	428.32
419.02	449.38
419.21	402.57
419.39	339.38
419.58	304.27
419.77	381.51
419.96	430.66
420.15	468.11
420.34	374.49
420.53	435.34
420.72	320.65
420.91	395.55
421.10	472.79
421.29	407.25
421.48	477.47
421.67	421.30
421.86	440.02
422.05	308.95
422.24	428.32
422.43	379.17
422.61	358.10
422.80	468.11
422.99	372.15
423.18	416.62
423.37	404.91
423.56	369.80
423.75	367.46
423.94	311.29
424.13	411.93
424.32	421.30
424.50	369.80
424.69	444.70
424.88	449.38
425.07	433.00
425.26	402.57
425.45	421.30
425.64	297.25
425.83	519.60
426.01	369.80
426.20	456.40
426.39	365.12
426.58	435.34
426.77	409.59
426.96	423.64
427.15	383.85
427.33	407.25
427.52	454.06
427.71	400.23
427.90	367.46
428.09	341.72
428.28	463.43
428.46	414.27
428.65	388.53
428.84	437.68
429.03	407.25
429.22	421.30
429.40	437.68
429.59	479.81
429.78	421.30
429.97	482.15
430.16	402.57
430.34	311.29
430.53	458.74
430.72	341.72
430.91	423.64
431.10	386.19
431.28	404.91
431.47	320.65
431.66	402.57
431.85	376.83
432.03	332.36
432.22	430.66
432.41	369.80
432.60	440.02
432.79	411.93
432.97	416.62
433.16	365.12
433.35	404.91
433.54	393.21
433.72	402.57
433.91	407.25
434.10	374.49
434.28	425.98
434.47	423.64
434.66	454.06
434.85	390.87
435.03	395.55
435.22	437.68
435.41	444.70
435.59	447.04
435.78	425.98
435.97	395.55
436.16	454.06
436.34	395.55
436.53	367.46
436.72	358.10
436.90	437.68
437.09	454.06
437.28	456.40
437.46	407.25
437.65	388.53
437.84	376.83
438.02	418.96
438.21	451.72
438.40	486.83
438.58	400.23
438.77	482.15
438.96	423.64
439.14	444.70
439.33	423.64
439.52	447.04
439.70	344.06
439.89	369.80
440.08	390.87
440.26	402.57
440.45	400.23
440.63	416.62
440.82	402.57
441.01	425.98
441.19	470.45
441.38	409.59
441.57	369.80
441.75	456.40
441.94	395.55
442.12	360.44
442.31	362.78
442.50	430.66
442.68	360.44
442.87	416.62
443.05	381.51
443.24	360.44
443.43	402.57
443.61	435.34
443.80	388.53
443.98	472.79
444.17	447.04
444.35	393.21
444.54	367.46
444.73	374.49
444.91	428.32
445.10	381.51
445.28	423.64
445.47	416.62
445.65	402.57
445.84	440.02
446.02	374.49
446.21	458.74
446.39	367.46
446.58	510.24
446.77	435.34
446.95	376.83
447.14	400.23
447.32	369.80
447.51	397.89
447.69	330.02
447.88	393.21
448.06	461.09
448.25	470.45
448.43	383.85
448.62	454.06
448.80	433.00
448.99	425.98
449.17	395.55
449.36	404.91
449.54	440.02
449.73	418.96
449.91	442.36
450.10	425.98
450.28	388.53
450.46	461.09
450.65	381.51
450.83	416.62
451.02	381.51
451.20	449.38
451.39	376.83
451.57	397.89
451.76	435.34
451.94	388.53
452.13	454.06
452.31	461.09
452.49	404.91
452.68	346.40
452.86	421.30
453.05	477.47
453.23	376.83
453.42	393.21
453.60	409.59
453.78	423.64
453.97	395.55
454.15	395.55
454.34	470.45
454.52	409.59
454.70	404.91
454.89	475.13
455.07	414.27
455.26	477.47
455.44	407.25
455.62	402.57
455.81	348.74
455.99	414.27
456.17	486.83
456.36	498.53
456.54	430.66
456.73	383.85
456.91	433.00
457.09	358.10
457.28	449.38
457.46	409.59
457.64	472.79
457.83	423.64
458.01	397.89
458.19	440.02
458.38	395.55
458.56	425.98
458.74	409.59
458.93	456.40
459.11	451.72
459.29	397.89
459.48	369.80
459.66	430.66
459.84	400.23
460.03	449.38
460.21	409.59
460.39	409.59
460.57	362.78
460.76	421.30
460.94	463.43
461.12	484.49
461.31	402.57
461.49	411.93
461.67	411.93
461.85	430.66
462.04	390.87
462.22	763.01
462.40	477.47
462.59	465.77
462.77	418.96
462.95	404.91
463.13	437.68
463.32	400.23
463.50	428.32
463.68	435.34
463.86	386.19
464.05	346.40
464.23	442.36
464.41	407.25
464.59	433.00
464.78	472.79
464.96	458.74
465.14	468.11
465.32	355.76
465.50	400.23
465.69	374.49
465.87	404.91
466.05	383.85
466.23	400.23
466.41	418.96
466.60	461.09
466.78	351.08
466.96	421.30
467.14	437.68
467.32	425.98
467.51	407.25
467.69	414.27
467.87	379.17
468.05	353.42
468.23	475.13
468.41	468.11
468.60	447.04
468.78	423.64
468.96	442.36
469.14	472.79
469.32	372.15
469.50	379.17
469.69	430.66
469.87	400.23
470.05	404.91
470.23	437.68
470.41	379.17
470.59	390.87
470.77	358.10
470.95	437.68
471.14	477.47
471.32	433.00
471.50	440.02
471.68	341.72
471.86	416.62
472.04	381.51
472.22	456.40
472.40	344.06
472.58	381.51
472.77	386.19
472.95	393.21
473.13	437.68
473.31	486.83
473.49	428.32
473.67	409.59
473.85	409.59
474.03	463.43
474.21	456.40
474.39	486.83
474.57	535.98
474.75	423.64
474.93	407.25
475.12	381.51
475.30	454.06
475.48	425.98
475.66	447.04
475.84	395.55
476.02	402.57
476.20	470.45
476.38	404.91
476.56	437.68
476.74	435.34
476.92	423.64
477.10	423.64
477.28	437.68
477.46	430.66
477.64	428.32
477.82	435.34
478.00	449.38
478.18	435.34
478.36	379.17
478.54	369.80
478.72	465.77
478.90	449.38
479.08	388.53
479.26	376.83
479.44	383.85
479.62	430.66
479.80	386.19
479.98	397.89
480.16	423.64
480.34	411.93
480.52	411.93
480.70	395.55
480.88	418.96
481.06	351.08
481.24	472.79
481.41	390.87
481.59	416.62
481.77	379.17
481.95	397.89
482.13	451.72
482.31	379.17
482.49	411.93
482.67	458.74
482.85	425.98
483.03	477.47
483.21	458.74
483.39	454.06
483.57	428.32
483.74	404.91
483.92	442.36
484.10	454.06
484.28	409.59
484.46	447.04
484.64	355.76
484.82	416.62
485.00	397.89
485.18	472.79
485.35	430.66
485.53	395.55
485.71	433.00
485.89	376.83
486.07	456.40
486.25	470.45
486.43	397.89
486.61	411.93
486.78	433.00
486.96	444.70
487.14	362.78
487.32	414.27
487.50	332.36
487.68	440.02
487.85	409.59
488.03	428.32
488.21	451.72
488.39	400.23
488.57	409.59
488.75	409.59
488.92	475.13
489.10	421.30
489.28	430.66
489.46	458.74
489.64	425.98
489.81	402.57
489.99	472.79
490.17	444.70
490.35	430.66
490.53	425.98
490.70	365.12
490.88	477.47
491.06	437.68
491.24	397.89
491.41	423.64
491.59	404.91
491.77	437.68
491.95	409.59
492.13	337.04
492.30	407.25
492.48	454.06
492.66	397.89
492.84	402.57
493.01	440.02
493.19	379.17
493.37	463.43
493.54	451.72
493.72	454.06
493.90	468.11
494.08	418.96
494.25	484.49
494.43	397.89
494.61	421.30
494.79	381.51
494.96	449.38
495.14	393.21
495.32	416.62
495.49	465.77
495.67	390.87
495.85	421.30
496.02	416.62
496.20	505.56
496.38	322.99
496.55	379.17
496.73	404.91
496.91	496.19
497.09	433.00
497.26	475.13
497.44	449.38
497.62	379.17
497.79	376.83
497.97	435.34
498.14	421.30
498.32	397.89
498.50	447.04
498.67	407.25
498.85	451.72
499.03	461.09
499.20	404.91
499.38	437.68
499.56	407.25
499.73	489.17
499.91	468.11
500.08	447.04
500.26	409.59
500.44	463.43
500.61	442.36
500.79	402.57
500.97	461.09
501.14	437.68
501.32	484.49
501.49	458.74
501.67	521.94
501.84	416.62
502.02	418.96
502.20	463.43
502.37	425.98
502.55	442.36
502.72	374.49
502.90	388.53
503.07	425.98
503.25	451.72
503.43	407.25
503.60	456.40
503.78	447.04
503.95	379.17
504.13	411.93
504.30	433.00
504.48	421.30
504.65	437.68
504.83	461.09
505.01	454.06
505.18	428.32
505.36	418.96
505.53	442.36
505.71	418.96
505.88	458.74
506.06	390.87
506.23	397.89
506.41	397.89
506.58	365.12
506.76	430.66
506.93	346.40
507.11	414.27
507.28	402.57
507.46	409.59
507.63	433.00
507.81	428.32
507.98	381.51
508.16	421.30
508.33	430.66
508.50	440.02
508.68	409.59
508.85	491.51
509.03	362.78
509.20	402.57
509.38	367.46
509.55	430.66
509.73	404.91
509.90	547.69
510.08	414.27
510.25	402.57
510.42	458.74
510.60	421.30
510.77	451.72
510.95	454.06
511.12	435.34
511.30	409.59
511.47	468.11
511.64	465.77
511.82	418.96
511.99	449.38
512.17	379.17
512.34	374.49
512.51	372.15
512.69	386.19
512.86	369.80
513.04	449.38
513.21	447.04
513.38	374.49
513.56	433.00
513.73	465.77
513.90	414.27
514.08	395.55
514.25	360.44
514.43	468.11
514.60	360.44
514.77	416.62
514.95	461.09
515.12	442.36
515.29	423.64
515.47	393.21
515.64	383.85
515.81	442.36
515.99	454.06
516.16	393.21
516.33	477.47
516.51	397.89
516.68	355.76
516.85	344.06
517.03	477.47
517.20	407.25
517.37	416.62
517.54	416.62
517.72	463.43
517.89	465.77
518.06	444.70
518.24	369.80
518.41	475.13
518.58	444.70
518.75	423.64
518.93	416.62
519.10	465.77
519.27	409.59
519.45	383.85
519.62	360.44
519.79	440.02
519.96	390.87
520.14	421.30
520.31	454.06
520.48	472.79
520.65	435.34
520.83	437.68
521.00	442.36
521.17	353.42
521.34	454.06
521.52	470.45
521.69	449.38
521.86	449.38
522.03	489.17
522.20	416.62
522.38	322.99
522.55	402.57
522.72	425.98
522.89	411.93
523.07	404.91
523.24	472.79
523.41	454.06
523.58	404.91
523.75	397.89
523.92	376.83
524.10	433.00
524.27	423.64
524.44	416.62
524.61	461.09
524.78	407.25
524.96	402.57
525.13	390.87
525.30	463.43
525.47	442.36
525.64	365.12
525.81	393.21
525.98	451.72
526.16	381.51
526.33	390.87
526.50	411.93
526.67	442.36
526.84	374.49
527.01	362.78
527.18	400.23
527.36	376.83
527.53	379.17
527.70	374.49
527.87	468.11
528.04	451.72
528.21	437.68
528.38	348.74
528.55	351.08
528.72	433.00
528.89	475.13
529.07	442.36
529.24	430.66
529.41	425.98
529.58	402.57
529.75	435.34
529.92	465.77
530.09	388.53
530.26	477.47
530.43	409.59
530.60	510.24
530.77	418.96
530.94	475.13
531.11	421.30
531.28	433.00
531.46	461.09
531.63	472.79
531.80	430.66
531.97	369.80
532.14	409.59
532.31	402.57
532.48	421.30
532.65	491.51
532.82	402.57
532.99	402.57
533.16	355.76
533.33	428.32
533.50	437.68
533.67	433.00
533.84	479.81
534.01	454.06
534.18	503.22
534.35	332.36
534.52	393.21
534.69	400.23
534.86	421.30
535.03	372.15
535.20	442.36
535.37	411.93
535.54	388.53
535.71	465.77
535.88	447.04
536.05	418.96
536.22	397.89
536.38	411.93
536.55	437.68
536.72	491.51
536.89	393.21
537.06	372.15
537.23	393.21
537.40	472.79
537.57	463.43
537.74	482.15
537.91	400.23
538.08	355.76
538.25	444.70
538.42	449.38
538.59	451.72
538.75	386.19
538.92	442.36
539.09	433.00
539.26	409.59
539.43	416.62
539.60	414.27
539.77	421.30
539.94	414.27
540.11	365.12
540.28	486.83
540.44	458.74
540.61	416.62
540.78	325.33
540.95	451.72
541.12	404.91
541.29	421.30
541.46	456.40
541.62	444.70
541.79	400.23
541.96	379.17
542.13	400.23
542.30	353.42
542.47	421.30
542.63	390.87
542.80	479.81
542.97	414.27
543.14	414.27
543.31	430.66
543.48	383.85
543.64	433.00
543.81	503.22
543.98	423.64
544.15	395.55
544.32	470.45
544.48	461.09
544.65	400.23
544.82	397.89
544.99	383.85
545.16	430.66
545.32	447.04
545.49	451.72
545.66	451.72
545.83	346.40
546.00	423.64
546.16	470.45
546.33	423.64
546.50	425.98
546.67	496.19
546.83	554.71
547.00	470.45
547.17	428.32
547.34	503.22
547.50	397.89
547.67	404.91
547.84	418.96
548.00	418.96
548.17	353.42
548.34	425.98
548.51	496.19
548.67	395.55
548.84	395.55
549.01	472.79
549.18	381.51
549.34	404.91
549.51	449.38
549.68	393.21
549.84	386.19
550.01	353.42
550.18	402.57
550.34	468.11
550.51	458.74
550.68	411.93
550.84	433.00
551.01	337.04
551.18	433.00
551.34	435.34
551.51	425.98
551.68	376.83
551.84	461.09
552.01	437.68
552.18	383.85
552.34	390.87
552.51	428.32
552.68	447.04
552.84	414.27
553.01	461.09
553.18	472.79
553.34	461.09
553.51	449.38
553.67	395.55
553.84	409.59
554.01	489.17
554.17	423.64
554.34	454.06
554.51	355.76
554.67	442.36
554.84	409.59
555.00	421.30
555.17	390.87
555.33	447.04
555.50	393.21
555.67	435.34
555.83	435.34
556.00	346.40
556.16	442.36
556.33	411.93
556.50	416.62
556.66	486.83
556.83	395.55
556.99	334.70
557.16	388.53
557.32	507.90
557.49	416.62
557.65	468.11
557.82	409.59
557.98	386.19
558.15	454.06
558.32	430.66
558.48	451.72
558.65	395.55
558.81	418.96
558.98	416.62
559.14	411.93
559.31	418.96
559.47	397.89
559.64	416.62
559.80	493.85
559.97	482.15
560.13	433.00
560.30	390.87
560.46	395.55
560.63	428.32
560.79	447.04
560.96	510.24
561.12	376.83
561.29	376.83
561.45	456.40
561.61	414.27
561.78	458.74
561.94	404.91
562.11	351.08
562.27	458.74
562.44	428.32
562.60	386.19
562.77	407.25
562.93	493.85
563.10	374.49
563.26	428.32
563.42	395.55
563.59	339.38
563.75	425.98
563.92	465.77
564.08	470.45
564.24	470.45
564.41	517.26
564.57	395.55
564.74	437.68
564.90	468.11
565.07	404.91
565.23	400.23
565.39	402.57
565.56	442.36
565.72	407.25
565.88	479.81
566.05	414.27
566.21	367.46
566.38	482.15
566.54	430.66
566.70	397.89
566.87	339.38
567.03	428.32
567.19	430.66
567.36	486.83
567.52	411.93
567.68	372.15
567.85	430.66
568.01	379.17
568.17	353.42
568.34	423.64
568.50	447.04
568.66	390.87
568.83	416.62
568.99	425.98
569.15	482.15
569.32	397.89
569.48	402.57
569.64	475.13
569.81	372.15
569.97	454.06
570.13	433.00
570.30	367.46
570.46	325.33
570.62	404.91
570.78	428.32
570.95	388.53
571.11	458.74
571.27	411.93
571.43	442.36
571.60	442.36
571.76	365.12
571.92	414.27
572.09	472.79
572.25	416.62
572.41	400.23
572.57	435.34
572.74	393.21
572.90	430.66
573.06	388.53
573.22	409.59
573.38	498.53
573.55	442.36
573.71	430.66
573.87	470.45
574.03	447.04
574.20	423.64
574.36	425.98
574.52	388.53
574.68	362.78
574.84	475.13
575.01	425.98
575.17	442.36
575.33	414.27
575.49	442.36
575.65	416.62
575.82	421.30
575.98	400.23
576.14	418.96
576.30	402.57
576.46	360.44
576.62	423.64
576.79	428.32
576.95	482.15
577.11	472.79
577.27	369.80
577.43	388.53
577.59	447.04
577.75	400.23
577.92	407.25
578.08	402.57
578.24	379.17
578.40	475.13
578.56	433.00
578.72	461.09
578.88	397.89
579.04	388.53
579.21	440.02
579.37	386.19
579.53	407.25
579.69	409.59
579.85	404.91
580.01	409.59
580.17	421.30
580.33	393.21
580.49	381.51
580.65	407.25
580.82	402.57
580.98	470.45
581.14	393.21
581.30	475.13
581.46	449.38
581.62	449.38
581.78	430.66
581.94	400.23
582.10	395.55
582.26	367.46
582.42	386.19
582.58	407.25
582.74	458.74
582.90	386.19
583.06	407.25
583.22	353.42
583.38	397.89
583.54	372.15
583.70	369.80
583.86	397.89
584.02	379.17
584.18	411.93
584.34	411.93
584.50	477.47
584.66	388.53
584.82	369.80
584.98	475.13
585.14	395.55
585.30	381.51
585.46	458.74
585.62	395.55
585.78	393.21
585.94	444.70
586.10	397.89
586.26	505.56
586.42	416.62
586.58	428.32
586.74	404.91
586.90	461.09
587.06	358.10
587.22	440.02
587.38	374.49
587.54	379.17
587.70	386.19
587.86	437.68
588.02	400.23
588.18	414.27
588.34	484.49
588.49	327.68
588.65	390.87
588.81	461.09
588.97	447.04
589.13	414.27
589.29	346.40
589.45	437.68
589.61	479.81
589.77	479.81
589.93	395.55
590.08	437.68
590.24	379.17
590.40	425.98
590.56	425.98
590.72	442.36
590.88	395.55
591.04	463.43
591.20	404.91
591.35	433.00
591.51	442.36
591.67	407.25
591.83	395.55
591.99	440.02
592.15	437.68
592.31	444.70
592.46	430.66
592.62	355.76
592.78	479.81
592.94	435.34
593.10	372.15
593.26	390.87
593.41	416.62
593.57	332.36
593.73	440.02
593.89	428.32
594.05	346.40
594.20	458.74
594.36	423.64
594.52	437.68
594.68	388.53
594.84	404.91
594.99	433.00
595.15	456.40
595.31	416.62
595.47	447.04
595.62	369.80
595.78	451.72
595.94	407.25
596.10	411.93
596.25	449.38
596.41	395.55
596.57	418.96
596.73	409.59
596.88	447.04
597.04	376.83
597.20	407.25
597.36	493.85
597.51	444.70
597.67	404.91
597.83	458.74
597.99	449.38
598.14	337.04
598.30	348.74
598.46	411.93
598.61	449.38
598.77	433.00
598.93	447.04
599.09	376.83
599.24	486.83
599.40	435.34
599.56	461.09
599.71	388.53
599.87	421.30
600.03	425.98
600.18	360.44
600.34	444.70
600.50	435.34
600.65	428.32
600.81	444.70
600.97	423.64
601.12	440.02
601.28	437.68
601.44	414.27
601.59	334.70
601.75	440.02
601.91	365.12
602.06	472.79
602.22	472.79
602.37	475.13
602.53	400.23
602.69	437.68
602.84	383.85
603.00	411.93
603.16	489.17
603.31	463.43
603.47	444.70
603.62	440.02
603.78	402.57
603.94	383.85
604.09	421.30
604.25	496.19
604.40	409.59
604.56	358.10
604.71	444.70
604.87	393.21
605.03	430.66
605.18	437.68
605.34	456.40
605.49	451.72
605.65	404.91
605.80	442.36
605.96	402.57
606.12	465.77
606.27	395.55
606.43	456.40
606.58	472.79
606.74	416.62
606.89	475.13
607.05	383.85
607.20	388.53
607.36	414.27
607.51	402.57
607.67	411.93
607.82	400.23
607.98	421.30
608.13	411.93
608.29	397.89
608.44	470.45
608.60	409.59
608.75	404.91
608.91	430.66
609.06	477.47
609.22	430.66
609.37	351.08
609.53	379.17
609.68	390.87
609.84	465.77
609.99	421.30
610.15	414.27
