SpectraSuite Data File
++++++++++++++++++++++++++++++++++++
Date: Fri Oct 25 12:10:26 EDT 2013
User: price-jones
Dark Spectrum Present: No
Reference Spectrum Present: No
Number of Sampled Component Spectra: 1
Spectrometers: USB2+H05261
Integration Time (usec): 100000 (USB2+H05261)
Spectra Averaged: 1 (USB2+H05261)
Boxcar Smoothing: 0 (USB2+H05261)
Correct for Electrical Dark: No (USB2+H05261)
Strobe/Lamp Enabled: No (USB2+H05261)
Correct for Detector Non-linearity: No (USB2+H05261)
Correct for Stray Light: No (USB2+H05261)
Number of Pixels in Processed Spectrum: 2048
>>>>>Begin Processed Spectral Data<<<<<
365.73	367.46
365.92	367.46
366.12	367.46
366.32	304.27
366.52	290.23
366.72	255.12
366.91	217.67
367.11	245.76
367.31	222.35
367.51	252.78
367.70	220.01
367.90	257.46
368.10	257.46
368.30	194.26
368.49	217.67
368.69	227.03
368.89	287.89
369.09	227.03
369.28	266.82
369.48	283.20
369.68	285.55
369.87	248.10
370.07	341.72
370.27	346.40
370.47	308.95
370.66	351.08
370.86	355.76
371.06	346.40
371.25	423.64
371.45	325.33
371.65	379.17
371.84	383.85
372.04	437.68
372.24	369.80
372.44	440.02
372.63	393.21
372.83	402.57
373.03	374.49
373.22	411.93
373.42	397.89
373.62	372.15
373.81	348.74
374.01	468.11
374.21	411.93
374.40	425.98
374.60	451.72
374.79	416.62
374.99	374.49
375.19	425.98
375.38	493.85
375.58	397.89
375.78	407.25
375.97	344.06
376.17	463.43
376.37	397.89
376.56	372.15
376.76	411.93
376.95	428.32
377.15	475.13
377.35	393.21
377.54	468.11
377.74	381.51
377.93	376.83
378.13	416.62
378.33	437.68
378.52	404.91
378.72	411.93
378.91	440.02
379.11	447.04
379.31	390.87
379.50	383.85
379.70	358.10
379.89	404.91
380.09	346.40
380.28	365.12
380.48	423.64
380.68	388.53
380.87	404.91
381.07	360.44
381.26	423.64
381.46	372.15
381.65	402.57
381.85	409.59
382.04	369.80
382.24	386.19
382.43	423.64
382.63	425.98
382.83	409.59
383.02	447.04
383.22	400.23
383.41	414.27
383.61	374.49
383.80	444.70
384.00	404.91
384.19	437.68
384.39	421.30
384.58	414.27
384.78	418.96
384.97	416.62
385.17	421.30
385.36	395.55
385.56	404.91
385.75	376.83
385.95	437.68
386.14	447.04
386.34	503.22
386.53	386.19
386.72	402.57
386.92	397.89
387.11	435.34
387.31	435.34
387.50	435.34
387.70	374.49
387.89	379.17
388.09	390.87
388.28	423.64
388.48	379.17
388.67	374.49
388.86	454.06
389.06	435.34
389.25	421.30
389.45	360.44
389.64	430.66
389.84	437.68
390.03	330.02
390.22	411.93
390.42	437.68
390.61	372.15
390.81	318.31
391.00	407.25
391.19	346.40
391.39	404.91
391.58	395.55
391.78	472.79
391.97	372.15
392.16	390.87
392.36	353.42
392.55	367.46
392.75	381.51
392.94	465.77
393.13	404.91
393.33	416.62
393.52	332.36
393.71	400.23
393.91	421.30
394.10	421.30
394.29	409.59
394.49	379.17
394.68	435.34
394.88	444.70
395.07	409.59
395.26	430.66
395.46	409.59
395.65	402.57
395.84	367.46
396.04	416.62
396.23	374.49
396.42	383.85
396.62	440.02
396.81	444.70
397.00	447.04
397.19	379.17
397.39	397.89
397.58	360.44
397.77	449.38
397.97	425.98
398.16	425.98
398.35	421.30
398.55	390.87
398.74	367.46
398.93	400.23
399.12	456.40
399.32	374.49
399.51	447.04
399.70	404.91
399.90	416.62
400.09	407.25
400.28	421.30
400.47	383.85
400.67	374.49
400.86	379.17
401.05	491.51
401.24	442.36
401.44	327.68
401.63	461.09
401.82	400.23
402.01	409.59
402.21	407.25
402.40	463.43
402.59	447.04
402.78	447.04
402.97	437.68
403.17	367.46
403.36	311.29
403.55	367.46
403.74	372.15
403.93	386.19
404.13	435.34
404.32	430.66
404.51	472.79
404.70	395.55
404.89	372.15
405.09	444.70
405.28	430.66
405.47	311.29
405.66	388.53
405.85	428.32
406.05	423.64
406.24	381.51
406.43	386.19
406.62	360.44
406.81	496.19
407.00	418.96
407.20	376.83
407.39	447.04
407.58	440.02
407.77	397.89
407.96	461.09
408.15	369.80
408.34	433.00
408.54	386.19
408.73	393.21
408.92	346.40
409.11	402.57
409.30	383.85
409.49	414.27
409.68	376.83
409.87	407.25
410.07	416.62
410.26	379.17
410.45	404.91
410.64	344.06
410.83	381.51
411.02	393.21
411.21	416.62
411.40	404.91
411.59	414.27
411.78	346.40
411.98	381.51
412.17	365.12
412.36	493.85
412.55	411.93
412.74	390.87
412.93	409.59
413.12	442.36
413.31	411.93
413.50	433.00
413.69	458.74
413.88	400.23
414.07	381.51
414.26	461.09
414.45	369.80
414.64	376.83
414.83	402.57
415.02	386.19
415.22	402.57
415.41	367.46
415.60	421.30
415.79	440.02
415.98	407.25
416.17	477.47
416.36	456.40
416.55	428.32
416.74	463.43
416.93	435.34
417.12	393.21
417.31	404.91
417.50	393.21
417.69	393.21
417.88	374.49
418.07	421.30
418.26	404.91
418.45	334.70
418.64	465.77
418.83	355.76
419.02	381.51
419.21	449.38
419.39	421.30
419.58	414.27
419.77	348.74
419.96	365.12
420.15	437.68
420.34	355.76
420.53	404.91
420.72	416.62
420.91	451.72
421.10	451.72
421.29	451.72
421.48	365.12
421.67	404.91
421.86	407.25
422.05	411.93
422.24	353.42
422.43	458.74
422.61	332.36
422.80	447.04
422.99	383.85
423.18	397.89
423.37	400.23
423.56	482.15
423.75	444.70
423.94	442.36
424.13	365.12
424.32	421.30
424.50	484.49
424.69	468.11
424.88	414.27
425.07	376.83
425.26	458.74
425.45	498.53
425.64	440.02
425.83	440.02
426.01	421.30
426.20	362.78
426.39	376.83
426.58	325.33
426.77	444.70
426.96	463.43
427.15	376.83
427.33	418.96
427.52	360.44
427.71	425.98
427.90	416.62
428.09	418.96
428.28	472.79
428.46	440.02
428.65	376.83
428.84	472.79
429.03	514.92
429.22	330.02
429.40	348.74
429.59	470.45
429.78	416.62
429.97	444.70
430.16	407.25
430.34	400.23
430.53	390.87
430.72	458.74
430.91	353.42
431.10	416.62
431.28	456.40
431.47	470.45
431.66	379.17
431.85	454.06
432.03	411.93
432.22	514.92
432.41	418.96
432.60	461.09
432.79	407.25
432.97	423.64
433.16	421.30
433.35	397.89
433.54	456.40
433.72	414.27
433.91	449.38
434.10	360.44
434.28	449.38
434.47	428.32
434.66	425.98
434.85	423.64
435.03	402.57
435.22	486.83
435.41	482.15
435.59	395.55
435.78	423.64
435.97	372.15
436.16	416.62
436.34	440.02
436.53	430.66
436.72	491.51
436.90	470.45
437.09	411.93
437.28	418.96
437.46	362.78
437.65	402.57
437.84	435.34
438.02	372.15
438.21	451.72
438.40	470.45
438.58	461.09
438.77	463.43
438.96	334.70
439.14	416.62
439.33	472.79
439.52	397.89
439.70	383.85
439.89	402.57
440.08	449.38
440.26	477.47
440.45	400.23
440.63	395.55
440.82	418.96
441.01	425.98
441.19	395.55
441.38	386.19
441.57	325.33
441.75	440.02
441.94	430.66
442.12	444.70
442.31	383.85
442.50	332.36
442.68	423.64
442.87	425.98
443.05	386.19
443.24	409.59
443.43	440.02
443.61	383.85
443.80	449.38
443.98	430.66
444.17	362.78
444.35	386.19
444.54	418.96
444.73	407.25
444.91	463.43
445.10	400.23
445.28	409.59
445.47	444.70
445.65	411.93
445.84	440.02
446.02	404.91
446.21	449.38
446.39	465.77
446.58	411.93
446.77	395.55
446.95	461.09
447.14	388.53
447.32	411.93
447.51	421.30
447.69	404.91
447.88	365.12
448.06	402.57
448.25	409.59
448.43	360.44
448.62	416.62
448.80	461.09
448.99	461.09
449.17	433.00
449.36	376.83
449.54	379.17
449.73	351.08
449.91	416.62
450.10	383.85
450.28	528.96
450.46	411.93
450.65	477.47
450.83	409.59
451.02	372.15
451.20	348.74
451.39	393.21
451.57	379.17
451.76	447.04
451.94	461.09
452.13	428.32
452.31	437.68
452.49	472.79
452.68	430.66
452.86	369.80
453.05	440.02
453.23	400.23
453.42	418.96
453.60	411.93
453.78	404.91
453.97	454.06
454.15	372.15
454.34	341.72
454.52	379.17
454.70	430.66
454.89	472.79
455.07	393.21
455.26	402.57
455.44	451.72
455.62	400.23
455.81	416.62
455.99	365.12
456.17	339.38
456.36	411.93
456.54	404.91
456.73	465.77
456.91	458.74
457.09	425.98
457.28	433.00
457.46	393.21
457.64	386.19
457.83	407.25
458.01	353.42
458.19	353.42
458.38	372.15
458.56	430.66
458.74	372.15
458.93	440.02
459.11	437.68
459.29	344.06
459.48	402.57
459.66	428.32
459.84	353.42
460.03	463.43
460.21	397.89
460.39	348.74
460.57	440.02
460.76	379.17
460.94	365.12
461.12	411.93
461.31	437.68
461.49	365.12
461.67	294.91
461.85	440.02
462.04	355.76
462.22	720.88
462.40	390.87
462.59	386.19
462.77	489.17
462.95	386.19
463.13	327.68
463.32	395.55
463.50	395.55
463.68	428.32
463.86	397.89
464.05	402.57
464.23	423.64
464.41	407.25
464.59	447.04
464.78	400.23
464.96	383.85
465.14	425.98
465.32	383.85
465.50	355.76
465.69	353.42
465.87	381.51
466.05	425.98
466.23	393.21
466.41	440.02
466.60	383.85
466.78	433.00
466.96	414.27
467.14	404.91
467.32	411.93
467.51	449.38
467.69	383.85
467.87	442.36
468.05	400.23
468.23	425.98
468.41	425.98
468.60	388.53
468.78	397.89
468.96	416.62
469.14	454.06
469.32	430.66
469.50	344.06
469.69	458.74
469.87	430.66
470.05	416.62
470.23	442.36
470.41	418.96
470.59	430.66
470.77	339.38
470.95	407.25
471.14	442.36
471.32	271.50
471.50	463.43
471.68	379.17
471.86	423.64
472.04	341.72
472.22	414.27
472.40	425.98
472.58	444.70
472.77	374.49
472.95	409.59
473.13	449.38
473.31	496.19
473.49	393.21
473.67	433.00
473.85	451.72
474.03	437.68
474.21	376.83
474.39	393.21
474.57	458.74
474.75	402.57
474.93	407.25
475.12	458.74
475.30	472.79
475.48	411.93
475.66	400.23
475.84	423.64
476.02	376.83
476.20	435.34
476.38	381.51
476.56	486.83
476.74	407.25
476.92	407.25
477.10	411.93
477.28	433.00
477.46	367.46
477.64	379.17
477.82	416.62
478.00	414.27
478.18	381.51
478.36	355.76
478.54	290.23
478.72	386.19
478.90	372.15
479.08	414.27
479.26	339.38
479.44	411.93
479.62	461.09
479.80	484.49
479.98	437.68
480.16	386.19
480.34	374.49
480.52	444.70
480.70	449.38
480.88	390.87
481.06	404.91
481.24	418.96
481.41	435.34
481.59	411.93
481.77	437.68
481.95	402.57
482.13	442.36
482.31	416.62
482.49	435.34
482.67	379.17
482.85	451.72
483.03	409.59
483.21	390.87
483.39	395.55
483.57	414.27
483.74	407.25
483.92	372.15
484.10	484.49
484.28	376.83
484.46	435.34
484.64	447.04
484.82	465.77
485.00	397.89
485.18	379.17
485.35	390.87
485.53	381.51
485.71	423.64
485.89	486.83
486.07	428.32
486.25	468.11
486.43	416.62
486.61	435.34
486.78	423.64
486.96	388.53
487.14	404.91
487.32	369.80
487.50	400.23
487.68	421.30
487.85	421.30
488.03	449.38
488.21	454.06
488.39	348.74
488.57	465.77
488.75	407.25
488.92	465.77
489.10	400.23
489.28	423.64
489.46	379.17
489.64	465.77
489.81	477.47
489.99	374.49
490.17	381.51
490.35	517.26
490.53	440.02
490.70	388.53
490.88	463.43
491.06	430.66
491.24	440.02
491.41	383.85
491.59	447.04
491.77	461.09
491.95	386.19
492.13	423.64
492.30	372.15
492.48	416.62
492.66	451.72
492.84	409.59
493.01	402.57
493.19	402.57
493.37	402.57
493.54	442.36
493.72	379.17
493.90	395.55
494.08	400.23
494.25	468.11
494.43	447.04
494.61	358.10
494.79	372.15
494.96	395.55
495.14	400.23
495.32	437.68
495.49	409.59
495.67	437.68
495.85	449.38
496.02	409.59
496.20	381.51
496.38	435.34
496.55	367.46
496.73	442.36
496.91	360.44
497.09	416.62
497.26	360.44
497.44	461.09
497.62	400.23
497.79	411.93
497.97	372.15
498.14	430.66
498.32	379.17
498.50	388.53
498.67	423.64
498.85	442.36
499.03	416.62
499.20	409.59
499.38	479.81
499.56	437.68
499.73	458.74
499.91	393.21
500.08	346.40
500.26	404.91
500.44	435.34
500.61	383.85
500.79	362.78
500.97	404.91
501.14	461.09
501.32	440.02
501.49	493.85
501.67	411.93
501.84	409.59
502.02	337.04
502.20	362.78
502.37	404.91
502.55	320.65
502.72	327.68
502.90	447.04
503.07	407.25
503.25	344.06
503.43	383.85
503.60	433.00
503.78	379.17
503.95	409.59
504.13	489.17
504.30	402.57
504.48	402.57
504.65	458.74
504.83	425.98
505.01	393.21
505.18	414.27
505.36	383.85
505.53	421.30
505.71	411.93
505.88	386.19
506.06	456.40
506.23	360.44
506.41	407.25
506.58	404.91
506.76	458.74
506.93	388.53
507.11	425.98
507.28	447.04
507.46	442.36
507.63	491.51
507.81	498.53
507.98	421.30
508.16	376.83
508.33	449.38
508.50	449.38
508.68	372.15
508.85	421.30
509.03	447.04
509.20	358.10
509.38	491.51
509.55	458.74
509.73	421.30
509.90	477.47
510.08	454.06
510.25	372.15
510.42	395.55
510.60	390.87
510.77	362.78
510.95	486.83
511.12	409.59
511.30	402.57
511.47	425.98
511.64	430.66
511.82	449.38
511.99	482.15
512.17	475.13
512.34	437.68
512.51	383.85
512.69	454.06
512.86	355.76
513.04	395.55
513.21	369.80
513.38	411.93
513.56	362.78
513.73	416.62
513.90	461.09
514.08	360.44
514.25	435.34
514.43	393.21
514.60	407.25
514.77	360.44
514.95	440.02
515.12	360.44
515.29	430.66
515.47	433.00
515.64	416.62
515.81	500.87
515.99	430.66
516.16	437.68
516.33	477.47
516.51	397.89
516.68	440.02
516.85	383.85
517.03	433.00
517.20	435.34
517.37	500.87
517.54	468.11
517.72	489.17
517.89	372.15
518.06	388.53
518.24	470.45
518.41	472.79
518.58	362.78
518.75	498.53
518.93	491.51
519.10	402.57
519.27	416.62
519.45	402.57
519.62	397.89
519.79	423.64
519.96	372.15
520.14	461.09
520.31	395.55
520.48	428.32
520.65	425.98
520.83	409.59
521.00	440.02
521.17	397.89
521.34	369.80
521.52	367.46
521.69	407.25
521.86	376.83
522.03	475.13
522.20	416.62
522.38	435.34
522.55	414.27
522.72	369.80
522.89	341.72
523.07	477.47
523.24	430.66
523.41	404.91
523.58	369.80
523.75	428.32
523.92	386.19
524.10	404.91
524.27	383.85
524.44	404.91
524.61	351.08
524.78	409.59
524.96	442.36
525.13	362.78
525.30	397.89
525.47	411.93
525.64	407.25
525.81	416.62
525.98	442.36
526.16	444.70
526.33	423.64
526.50	402.57
526.67	418.96
526.84	407.25
527.01	402.57
527.18	507.90
527.36	351.08
527.53	374.49
527.70	484.49
527.87	402.57
528.04	449.38
528.21	458.74
528.38	475.13
528.55	362.78
528.72	498.53
528.89	442.36
529.07	435.34
529.24	365.12
529.41	472.79
529.58	360.44
529.75	414.27
529.92	423.64
530.09	472.79
530.26	451.72
530.43	458.74
530.60	433.00
530.77	381.51
530.94	418.96
531.11	418.96
531.28	428.32
531.46	470.45
531.63	440.02
531.80	411.93
531.97	362.78
532.14	416.62
532.31	360.44
532.48	348.74
532.65	433.00
532.82	369.80
532.99	393.21
533.16	416.62
533.33	423.64
533.50	372.15
533.67	344.06
533.84	430.66
534.01	407.25
534.18	374.49
534.35	440.02
534.52	442.36
534.69	454.06
534.86	472.79
535.03	468.11
535.20	388.53
535.37	374.49
535.54	435.34
535.71	428.32
535.88	437.68
536.05	372.15
536.22	440.02
536.38	479.81
536.55	393.21
536.72	489.17
536.89	376.83
537.06	404.91
537.23	388.53
537.40	458.74
537.57	414.27
537.74	491.51
537.91	449.38
538.08	397.89
538.25	442.36
538.42	365.12
538.59	355.76
538.75	461.09
538.92	447.04
539.09	393.21
539.26	442.36
539.43	463.43
539.60	388.53
539.77	430.66
539.94	376.83
540.11	402.57
540.28	482.15
540.44	421.30
540.61	456.40
540.78	449.38
540.95	416.62
541.12	463.43
541.29	444.70
541.46	416.62
541.62	437.68
541.79	358.10
541.96	411.93
542.13	374.49
542.30	395.55
542.47	454.06
542.63	393.21
542.80	430.66
542.97	395.55
543.14	416.62
543.31	390.87
543.48	376.83
543.64	358.10
543.81	475.13
543.98	341.72
544.15	379.17
544.32	423.64
544.48	435.34
544.65	402.57
544.82	355.76
544.99	477.47
545.16	461.09
545.32	407.25
545.49	416.62
545.66	411.93
545.83	395.55
546.00	409.59
546.16	367.46
546.33	395.55
546.50	409.59
546.67	461.09
546.83	390.87
547.00	442.36
547.17	390.87
547.34	376.83
547.50	397.89
547.67	397.89
547.84	355.76
548.00	489.17
548.17	442.36
548.34	442.36
548.51	407.25
548.67	465.77
548.84	421.30
549.01	416.62
549.18	402.57
549.34	423.64
549.51	411.93
549.68	430.66
549.84	379.17
550.01	337.04
550.18	484.49
550.34	433.00
550.51	458.74
550.68	463.43
550.84	344.06
551.01	489.17
551.18	376.83
551.34	404.91
551.51	456.40
551.68	379.17
551.84	531.30
552.01	442.36
552.18	425.98
552.34	367.46
552.51	355.76
552.68	416.62
552.84	376.83
553.01	390.87
553.18	463.43
553.34	393.21
553.51	475.13
553.67	435.34
553.84	360.44
554.01	397.89
554.17	390.87
554.34	395.55
554.51	402.57
554.67	397.89
554.84	418.96
555.00	407.25
555.17	435.34
555.33	507.90
555.50	362.78
555.67	386.19
555.83	437.68
556.00	362.78
556.16	587.47
556.33	423.64
556.50	442.36
556.66	390.87
556.83	393.21
556.99	425.98
557.16	418.96
557.32	463.43
557.49	393.21
557.65	470.45
557.82	433.00
557.98	416.62
558.15	395.55
558.32	447.04
558.48	440.02
558.65	435.34
558.81	372.15
558.98	425.98
559.14	463.43
559.31	404.91
559.47	435.34
559.64	454.06
559.80	512.58
559.97	447.04
560.13	425.98
560.30	397.89
560.46	393.21
560.63	397.89
560.79	475.13
560.96	404.91
561.12	470.45
561.29	407.25
561.45	379.17
561.61	400.23
561.78	521.94
561.94	402.57
562.11	395.55
562.27	425.98
562.44	411.93
562.60	449.38
562.77	397.89
562.93	477.47
563.10	433.00
563.26	440.02
563.42	411.93
563.59	524.28
563.75	449.38
563.92	418.96
564.08	456.40
564.24	475.13
564.41	458.74
564.57	390.87
564.74	400.23
564.90	430.66
565.07	409.59
565.23	383.85
565.39	372.15
565.56	442.36
565.72	383.85
565.88	402.57
566.05	395.55
566.21	409.59
566.38	404.91
566.54	390.87
566.70	435.34
566.87	437.68
567.03	365.12
567.19	397.89
567.36	442.36
567.52	397.89
567.68	404.91
567.85	454.06
568.01	440.02
568.17	425.98
568.34	425.98
568.50	514.92
568.66	386.19
568.83	421.30
568.99	423.64
569.15	393.21
569.32	423.64
569.48	479.81
569.64	400.23
569.81	456.40
569.97	348.74
570.13	433.00
570.30	383.85
570.46	433.00
570.62	491.51
570.78	444.70
570.95	318.31
571.11	433.00
571.27	440.02
571.43	433.00
571.60	430.66
571.76	470.45
571.92	437.68
572.09	393.21
572.25	411.93
572.41	486.83
572.57	430.66
572.74	458.74
572.90	442.36
573.06	386.19
573.22	435.34
573.38	435.34
573.55	397.89
573.71	482.15
573.87	458.74
574.03	358.10
574.20	337.04
574.36	360.44
574.52	479.81
574.68	435.34
574.84	376.83
575.01	390.87
575.17	458.74
575.33	374.49
575.49	482.15
575.65	421.30
575.82	400.23
575.98	423.64
576.14	390.87
576.30	383.85
576.46	475.13
576.62	407.25
576.79	400.23
576.95	463.43
577.11	423.64
577.27	351.08
577.43	416.62
577.59	444.70
577.75	454.06
577.92	423.64
578.08	386.19
578.24	416.62
578.40	421.30
578.56	489.17
578.72	435.34
578.88	444.70
579.04	444.70
579.21	433.00
579.37	393.21
579.53	440.02
579.69	411.93
579.85	414.27
580.01	388.53
580.17	344.06
580.33	367.46
580.49	425.98
580.65	337.04
580.82	365.12
580.98	390.87
581.14	416.62
581.30	400.23
581.46	341.72
581.62	498.53
581.78	421.30
581.94	358.10
582.10	376.83
582.26	397.89
582.42	402.57
582.58	437.68
582.74	372.15
582.90	461.09
583.06	423.64
583.22	358.10
583.38	353.42
583.54	381.51
583.70	440.02
583.86	454.06
584.02	367.46
584.18	404.91
584.34	402.57
584.50	381.51
584.66	360.44
584.82	395.55
584.98	358.10
585.14	437.68
585.30	461.09
585.46	360.44
585.62	383.85
585.78	327.68
585.94	491.51
586.10	397.89
586.26	348.74
586.42	409.59
586.58	386.19
586.74	433.00
586.90	383.85
587.06	409.59
587.22	381.51
587.38	482.15
587.54	421.30
587.70	484.49
587.86	472.79
588.02	393.21
588.18	409.59
588.34	407.25
588.49	386.19
588.65	327.68
588.81	414.27
588.97	433.00
589.13	414.27
589.29	372.15
589.45	458.74
589.61	407.25
589.77	451.72
589.93	388.53
590.08	376.83
590.24	388.53
590.40	442.36
590.56	388.53
590.72	458.74
590.88	416.62
591.04	404.91
591.20	397.89
591.35	498.53
591.51	435.34
591.67	493.85
591.83	386.19
591.99	510.24
592.15	386.19
592.31	409.59
592.46	381.51
592.62	477.47
592.78	433.00
592.94	418.96
593.10	416.62
593.26	360.44
593.41	447.04
593.57	369.80
593.73	402.57
593.89	407.25
594.05	472.79
594.20	442.36
594.36	430.66
594.52	444.70
594.68	409.59
594.84	493.85
594.99	376.83
595.15	416.62
595.31	437.68
595.47	400.23
595.62	414.27
595.78	397.89
595.94	479.81
596.10	425.98
596.25	425.98
596.41	454.06
596.57	376.83
596.73	456.40
596.88	400.23
597.04	390.87
597.20	437.68
597.36	435.34
597.51	470.45
597.67	425.98
597.83	414.27
597.99	444.70
598.14	461.09
598.30	449.38
598.46	479.81
598.61	425.98
598.77	425.98
598.93	444.70
599.09	442.36
599.24	421.30
599.40	435.34
599.56	423.64
599.71	489.17
599.87	444.70
600.03	435.34
600.18	451.72
600.34	463.43
600.50	463.43
600.65	425.98
600.81	505.56
600.97	407.25
601.12	400.23
601.28	489.17
601.44	451.72
601.59	423.64
601.75	402.57
601.91	383.85
602.06	379.17
602.22	454.06
602.37	470.45
602.53	468.11
602.69	402.57
602.84	437.68
603.00	414.27
603.16	376.83
603.31	416.62
603.47	435.34
603.62	428.32
603.78	365.12
603.94	423.64
604.09	491.51
604.25	461.09
604.40	416.62
604.56	393.21
604.71	367.46
604.87	425.98
605.03	428.32
605.18	402.57
605.34	477.47
605.49	402.57
605.65	409.59
605.80	468.11
605.96	442.36
606.12	421.30
606.27	402.57
606.43	472.79
606.58	416.62
606.74	383.85
606.89	435.34
607.05	397.89
607.20	430.66
607.36	477.47
607.51	421.30
607.67	444.70
607.82	430.66
607.98	489.17
608.13	355.76
608.29	411.93
608.44	435.34
608.60	498.53
608.75	500.87
608.91	465.77
609.06	454.06
609.22	421.30
609.37	339.38
609.53	423.64
609.68	355.76
609.84	397.89
609.99	379.17
610.15	491.51
