SpectraSuite Data File
++++++++++++++++++++++++++++++++++++
Date: Fri Oct 25 12:11:10 EDT 2013
User: price-jones
Dark Spectrum Present: No
Reference Spectrum Present: No
Number of Sampled Component Spectra: 1
Spectrometers: USB2+H05261
Integration Time (usec): 100000 (USB2+H05261)
Spectra Averaged: 1 (USB2+H05261)
Boxcar Smoothing: 0 (USB2+H05261)
Correct for Electrical Dark: No (USB2+H05261)
Strobe/Lamp Enabled: No (USB2+H05261)
Correct for Detector Non-linearity: No (USB2+H05261)
Correct for Stray Light: No (USB2+H05261)
Number of Pixels in Processed Spectrum: 2048
>>>>>Begin Processed Spectral Data<<<<<
365.73	355.76
365.92	355.76
366.12	355.76
366.32	252.78
366.52	229.37
366.72	304.27
366.91	325.33
367.11	248.10
367.31	198.95
367.51	234.05
367.70	180.22
367.90	217.67
368.10	215.33
368.30	224.69
368.49	243.42
368.69	238.73
368.89	222.35
369.09	203.63
369.28	306.61
369.48	227.03
369.68	280.86
369.87	294.91
370.07	301.93
370.27	294.91
370.47	365.12
370.66	332.36
370.86	355.76
371.06	330.02
371.25	397.89
371.45	358.10
371.65	402.57
371.84	395.55
372.04	358.10
372.24	449.38
372.44	442.36
372.63	475.13
372.83	437.68
373.03	463.43
373.22	435.34
373.42	367.46
373.62	383.85
373.81	440.02
374.01	393.21
374.21	407.25
374.40	393.21
374.60	383.85
374.79	430.66
374.99	491.51
375.19	407.25
375.38	421.30
375.58	418.96
375.78	428.32
375.97	468.11
376.17	468.11
376.37	400.23
376.56	433.00
376.76	423.64
376.95	423.64
377.15	425.98
377.35	404.91
377.54	477.47
377.74	390.87
377.93	454.06
378.13	435.34
378.33	451.72
378.52	463.43
378.72	395.55
378.91	444.70
379.11	482.15
379.31	393.21
379.50	402.57
379.70	477.47
379.89	430.66
380.09	386.19
380.28	372.15
380.48	433.00
380.68	362.78
380.87	393.21
381.07	437.68
381.26	395.55
381.46	346.40
381.65	351.08
381.85	395.55
382.04	444.70
382.24	383.85
382.43	367.46
382.63	353.42
382.83	294.91
383.02	411.93
383.22	421.30
383.41	367.46
383.61	381.51
383.80	451.72
384.00	374.49
384.19	409.59
384.39	383.85
384.58	386.19
384.78	313.63
384.97	397.89
385.17	341.72
385.36	423.64
385.56	369.80
385.75	379.17
385.95	440.02
386.14	409.59
386.34	423.64
386.53	386.19
386.72	365.12
386.92	456.40
387.11	400.23
387.31	362.78
387.50	393.21
387.70	276.18
387.89	470.45
388.09	433.00
388.28	390.87
388.48	418.96
388.67	465.77
388.86	362.78
389.06	358.10
389.25	388.53
389.45	397.89
389.64	414.27
389.84	390.87
390.03	386.19
390.22	442.36
390.42	372.15
390.61	449.38
390.81	402.57
391.00	418.96
391.19	414.27
391.39	447.04
391.58	367.46
391.78	433.00
391.97	435.34
392.16	355.76
392.36	418.96
392.55	388.53
392.75	416.62
392.94	409.59
393.13	454.06
393.33	440.02
393.52	411.93
393.71	379.17
393.91	388.53
394.10	334.70
394.29	437.68
394.49	437.68
394.68	365.12
394.88	374.49
395.07	393.21
395.26	311.29
395.46	393.21
395.65	365.12
395.84	411.93
396.04	526.62
396.23	360.44
396.42	442.36
396.62	376.83
396.81	367.46
397.00	416.62
397.19	454.06
397.39	418.96
397.58	477.47
397.77	362.78
397.97	423.64
398.16	388.53
398.35	404.91
398.55	379.17
398.74	416.62
398.93	376.83
399.12	486.83
399.32	421.30
399.51	418.96
399.70	430.66
399.90	423.64
400.09	503.22
400.28	390.87
400.47	435.34
400.67	482.15
400.86	404.91
401.05	407.25
401.24	381.51
401.44	379.17
401.63	411.93
401.82	423.64
402.01	353.42
402.21	421.30
402.40	425.98
402.59	390.87
402.78	322.99
402.97	435.34
403.17	365.12
403.36	348.74
403.55	358.10
403.74	470.45
403.93	440.02
404.13	407.25
404.32	397.89
404.51	395.55
404.70	397.89
404.89	400.23
405.09	468.11
405.28	383.85
405.47	353.42
405.66	404.91
405.85	414.27
406.05	376.83
406.24	423.64
406.43	379.17
406.62	433.00
406.81	454.06
407.00	454.06
407.20	430.66
407.39	372.15
407.58	423.64
407.77	395.55
407.96	435.34
408.15	456.40
408.34	379.17
408.54	409.59
408.73	374.49
408.92	414.27
409.11	425.98
409.30	402.57
409.49	372.15
409.68	437.68
409.87	407.25
410.07	414.27
410.26	430.66
410.45	407.25
410.64	388.53
410.83	400.23
411.02	358.10
411.21	435.34
411.40	437.68
411.59	451.72
411.78	379.17
411.98	379.17
412.17	402.57
412.36	423.64
412.55	423.64
412.74	430.66
412.93	475.13
413.12	400.23
413.31	411.93
413.50	381.51
413.69	449.38
413.88	454.06
414.07	433.00
414.26	414.27
414.45	404.91
414.64	379.17
414.83	486.83
415.02	358.10
415.22	383.85
415.41	463.43
415.60	400.23
415.79	421.30
415.98	437.68
416.17	393.21
416.36	379.17
416.55	351.08
416.74	468.11
416.93	369.80
417.12	379.17
417.31	402.57
417.50	416.62
417.69	449.38
417.88	390.87
418.07	407.25
418.26	414.27
418.45	404.91
418.64	430.66
418.83	470.45
419.02	360.44
419.21	461.09
419.39	416.62
419.58	390.87
419.77	379.17
419.96	454.06
420.15	454.06
420.34	390.87
420.53	390.87
420.72	381.51
420.91	430.66
421.10	404.91
421.29	388.53
421.48	479.81
421.67	393.21
421.86	435.34
422.05	379.17
422.24	374.49
422.43	358.10
422.61	411.93
422.80	369.80
422.99	367.46
423.18	348.74
423.37	449.38
423.56	404.91
423.75	437.68
423.94	451.72
424.13	411.93
424.32	440.02
424.50	414.27
424.69	468.11
424.88	468.11
425.07	386.19
425.26	362.78
425.45	358.10
425.64	379.17
425.83	447.04
426.01	390.87
426.20	397.89
426.39	430.66
426.58	409.59
426.77	409.59
426.96	484.49
427.15	416.62
427.33	395.55
427.52	411.93
427.71	484.49
427.90	407.25
428.09	461.09
428.28	461.09
428.46	402.57
428.65	362.78
428.84	411.93
429.03	435.34
429.22	414.27
429.40	395.55
429.59	393.21
429.78	442.36
429.97	388.53
430.16	416.62
430.34	425.98
430.53	376.83
430.72	365.12
430.91	407.25
431.10	409.59
431.28	353.42
431.47	397.89
431.66	454.06
431.85	428.32
432.03	451.72
432.22	433.00
432.41	498.53
432.60	433.00
432.79	276.18
432.97	376.83
433.16	390.87
433.35	346.40
433.54	390.87
433.72	437.68
433.91	365.12
434.10	395.55
434.28	358.10
434.47	437.68
434.66	454.06
434.85	442.36
435.03	360.44
435.22	505.56
435.41	440.02
435.59	475.13
435.78	496.19
435.97	411.93
436.16	437.68
436.34	404.91
436.53	440.02
436.72	369.80
436.90	430.66
437.09	482.15
437.28	468.11
437.46	397.89
437.65	435.34
437.84	470.45
438.02	353.42
438.21	407.25
438.40	416.62
438.58	379.17
438.77	346.40
438.96	308.95
439.14	388.53
439.33	463.43
439.52	390.87
439.70	397.89
439.89	383.85
440.08	407.25
440.26	477.47
440.45	482.15
440.63	411.93
440.82	374.49
441.01	414.27
441.19	362.78
441.38	477.47
441.57	404.91
441.75	451.72
441.94	376.83
442.12	383.85
442.31	346.40
442.50	381.51
442.68	421.30
442.87	409.59
443.05	376.83
443.24	538.32
443.43	395.55
443.61	451.72
443.80	440.02
443.98	440.02
444.17	435.34
444.35	407.25
444.54	463.43
444.73	383.85
444.91	414.27
445.10	444.70
445.28	409.59
445.47	425.98
445.65	414.27
445.84	451.72
446.02	372.15
446.21	395.55
446.39	449.38
446.58	482.15
446.77	442.36
446.95	442.36
447.14	404.91
447.32	379.17
447.51	395.55
447.69	400.23
447.88	365.12
448.06	411.93
448.25	430.66
448.43	463.43
448.62	416.62
448.80	451.72
448.99	470.45
449.17	367.46
449.36	491.51
449.54	402.57
449.73	344.06
449.91	388.53
450.10	400.23
450.28	456.40
450.46	437.68
450.65	416.62
450.83	437.68
451.02	344.06
451.20	421.30
451.39	404.91
451.57	395.55
451.76	372.15
451.94	444.70
452.13	369.80
452.31	503.22
452.49	407.25
452.68	383.85
452.86	386.19
453.05	418.96
453.23	458.74
453.42	381.51
453.60	437.68
453.78	346.40
453.97	376.83
454.15	397.89
454.34	449.38
454.52	442.36
454.70	421.30
454.89	430.66
455.07	386.19
455.26	400.23
455.44	414.27
455.62	372.15
455.81	404.91
455.99	456.40
456.17	449.38
456.36	353.42
456.54	447.04
456.73	365.12
456.91	395.55
457.09	505.56
457.28	449.38
457.46	386.19
457.64	468.11
457.83	400.23
458.01	372.15
458.19	428.32
458.38	416.62
458.56	386.19
458.74	383.85
458.93	404.91
459.11	411.93
459.29	407.25
459.48	400.23
459.66	418.96
459.84	372.15
460.03	496.19
460.21	414.27
460.39	393.21
460.57	311.29
460.76	423.64
460.94	393.21
461.12	421.30
461.31	477.47
461.49	383.85
461.67	346.40
461.85	414.27
462.04	395.55
462.22	748.97
462.40	454.06
462.59	491.51
462.77	418.96
462.95	369.80
463.13	409.59
463.32	409.59
463.50	369.80
463.68	470.45
463.86	425.98
464.05	430.66
464.23	369.80
464.41	486.83
464.59	386.19
464.78	404.91
464.96	374.49
465.14	414.27
465.32	425.98
465.50	456.40
465.69	397.89
465.87	428.32
466.05	388.53
466.23	428.32
466.41	393.21
466.60	425.98
466.78	418.96
466.96	442.36
467.14	423.64
467.32	458.74
467.51	355.76
467.69	449.38
467.87	440.02
468.05	421.30
468.23	503.22
468.41	437.68
468.60	433.00
468.78	428.32
468.96	425.98
469.14	451.72
469.32	400.23
469.50	425.98
469.69	400.23
469.87	418.96
470.05	472.79
470.23	461.09
470.41	477.47
470.59	442.36
470.77	400.23
470.95	463.43
471.14	383.85
471.32	383.85
471.50	402.57
471.68	379.17
471.86	451.72
472.04	358.10
472.22	411.93
472.40	407.25
472.58	388.53
472.77	386.19
472.95	360.44
473.13	442.36
473.31	437.68
473.49	353.42
473.67	390.87
473.85	404.91
474.03	477.47
474.21	400.23
474.39	440.02
474.57	404.91
474.75	423.64
474.93	414.27
475.12	388.53
475.30	409.59
475.48	414.27
475.66	423.64
475.84	440.02
476.02	386.19
476.20	430.66
476.38	414.27
476.56	437.68
476.74	475.13
476.92	435.34
477.10	360.44
477.28	395.55
477.46	379.17
477.64	440.02
477.82	381.51
478.00	421.30
478.18	409.59
478.36	409.59
478.54	388.53
478.72	355.76
478.90	545.34
479.08	468.11
479.26	369.80
479.44	383.85
479.62	451.72
479.80	435.34
479.98	418.96
480.16	395.55
480.34	404.91
480.52	425.98
480.70	355.76
480.88	407.25
481.06	447.04
481.24	383.85
481.41	425.98
481.59	421.30
481.77	390.87
481.95	440.02
482.13	402.57
482.31	381.51
482.49	425.98
482.67	507.90
482.85	470.45
483.03	418.96
483.21	381.51
483.39	397.89
483.57	414.27
483.74	430.66
483.92	404.91
484.10	402.57
484.28	465.77
484.46	435.34
484.64	397.89
484.82	430.66
485.00	374.49
485.18	395.55
485.35	390.87
485.53	402.57
485.71	463.43
485.89	430.66
486.07	390.87
486.25	435.34
486.43	433.00
486.61	388.53
486.78	418.96
486.96	416.62
487.14	430.66
487.32	418.96
487.50	400.23
487.68	428.32
487.85	437.68
488.03	489.17
488.21	437.68
488.39	421.30
488.57	416.62
488.75	365.12
488.92	442.36
489.10	395.55
489.28	447.04
489.46	337.04
489.64	376.83
489.81	449.38
489.99	454.06
490.17	418.96
490.35	493.85
490.53	425.98
490.70	395.55
490.88	447.04
491.06	376.83
491.24	407.25
491.41	423.64
491.59	393.21
491.77	437.68
491.95	468.11
492.13	407.25
492.30	423.64
492.48	369.80
492.66	376.83
492.84	430.66
493.01	430.66
493.19	458.74
493.37	484.49
493.54	402.57
493.72	369.80
493.90	395.55
494.08	465.77
494.25	402.57
494.43	407.25
494.61	379.17
494.79	337.04
494.96	372.15
495.14	425.98
495.32	341.72
495.49	458.74
495.67	397.89
495.85	383.85
496.02	388.53
496.20	444.70
496.38	456.40
496.55	423.64
496.73	418.96
496.91	395.55
497.09	367.46
497.26	393.21
497.44	365.12
497.62	379.17
497.79	414.27
497.97	449.38
498.14	414.27
498.32	468.11
498.50	463.43
498.67	395.55
498.85	437.68
499.03	461.09
499.20	437.68
499.38	351.08
499.56	355.76
499.73	416.62
499.91	395.55
500.08	421.30
500.26	379.17
500.44	472.79
500.61	425.98
500.79	313.63
500.97	425.98
501.14	447.04
501.32	374.49
501.49	470.45
501.67	348.74
501.84	414.27
502.02	444.70
502.20	430.66
502.37	430.66
502.55	454.06
502.72	418.96
502.90	404.91
503.07	444.70
503.25	386.19
503.43	379.17
503.60	463.43
503.78	470.45
503.95	365.12
504.13	395.55
504.30	358.10
504.48	372.15
504.65	423.64
504.83	437.68
505.01	390.87
505.18	421.30
505.36	421.30
505.53	386.19
505.71	376.83
505.88	456.40
506.06	400.23
506.23	379.17
506.41	381.51
506.58	409.59
506.76	444.70
506.93	404.91
507.11	393.21
507.28	449.38
507.46	374.49
507.63	449.38
507.81	372.15
507.98	444.70
508.16	390.87
508.33	451.72
508.50	428.32
508.68	369.80
508.85	430.66
509.03	390.87
509.20	437.68
509.38	449.38
509.55	456.40
509.73	517.26
509.90	379.17
510.08	390.87
510.25	463.43
510.42	430.66
510.60	470.45
510.77	472.79
510.95	388.53
511.12	397.89
511.30	407.25
511.47	519.60
511.64	414.27
511.82	458.74
511.99	411.93
512.17	463.43
512.34	386.19
512.51	528.96
512.69	421.30
512.86	458.74
513.04	362.78
513.21	386.19
513.38	397.89
513.56	470.45
513.73	435.34
513.90	404.91
514.08	369.80
514.25	358.10
514.43	400.23
514.60	437.68
514.77	386.19
514.95	442.36
515.12	346.40
515.29	388.53
515.47	423.64
515.64	442.36
515.81	433.00
515.99	411.93
516.16	383.85
516.33	411.93
516.51	421.30
516.68	369.80
516.85	383.85
517.03	447.04
517.20	451.72
517.37	358.10
517.54	390.87
517.72	367.46
517.89	374.49
518.06	468.11
518.24	521.94
518.41	411.93
518.58	397.89
518.75	461.09
518.93	409.59
519.10	493.85
519.27	428.32
519.45	402.57
519.62	454.06
519.79	440.02
519.96	437.68
520.14	463.43
520.31	416.62
520.48	404.91
520.65	425.98
520.83	404.91
521.00	416.62
521.17	414.27
521.34	437.68
521.52	372.15
521.69	430.66
521.86	358.10
522.03	475.13
522.20	407.25
522.38	395.55
522.55	463.43
522.72	442.36
522.89	440.02
523.07	416.62
523.24	425.98
523.41	388.53
523.58	379.17
523.75	358.10
523.92	416.62
524.10	437.68
524.27	374.49
524.44	404.91
524.61	484.49
524.78	381.51
524.96	360.44
525.13	355.76
525.30	461.09
525.47	491.51
525.64	402.57
525.81	414.27
525.98	402.57
526.16	449.38
526.33	390.87
526.50	423.64
526.67	390.87
526.84	451.72
527.01	311.29
527.18	421.30
527.36	374.49
527.53	433.00
527.70	407.25
527.87	440.02
528.04	500.87
528.21	472.79
528.38	400.23
528.55	444.70
528.72	461.09
528.89	425.98
529.07	404.91
529.24	395.55
529.41	379.17
529.58	341.72
529.75	339.38
529.92	388.53
530.09	458.74
530.26	505.56
530.43	444.70
530.60	372.15
530.77	437.68
530.94	386.19
531.11	388.53
531.28	376.83
531.46	409.59
531.63	409.59
531.80	367.46
531.97	393.21
532.14	362.78
532.31	376.83
532.48	395.55
532.65	440.02
532.82	512.58
532.99	360.44
533.16	425.98
533.33	339.38
533.50	425.98
533.67	381.51
533.84	423.64
534.01	430.66
534.18	447.04
534.35	458.74
534.52	388.53
534.69	400.23
534.86	400.23
535.03	407.25
535.20	411.93
535.37	437.68
535.54	386.19
535.71	372.15
535.88	470.45
536.05	414.27
536.22	353.42
536.38	465.77
536.55	482.15
536.72	437.68
536.89	369.80
537.06	409.59
537.23	355.76
537.40	482.15
537.57	388.53
537.74	465.77
537.91	393.21
538.08	428.32
538.25	418.96
538.42	449.38
538.59	388.53
538.75	493.85
538.92	372.15
539.09	374.49
539.26	435.34
539.43	383.85
539.60	437.68
539.77	493.85
539.94	454.06
540.11	411.93
540.28	421.30
540.44	393.21
540.61	456.40
540.78	395.55
540.95	418.96
541.12	463.43
541.29	397.89
541.46	409.59
541.62	447.04
541.79	456.40
541.96	355.76
542.13	425.98
542.30	416.62
542.47	414.27
542.63	379.17
542.80	414.27
542.97	470.45
543.14	430.66
543.31	468.11
543.48	437.68
543.64	493.85
543.81	461.09
543.98	390.87
544.15	456.40
544.32	503.22
544.48	416.62
544.65	475.13
544.82	416.62
544.99	374.49
545.16	468.11
545.32	437.68
545.49	468.11
545.66	358.10
545.83	423.64
546.00	440.02
546.16	428.32
546.33	376.83
546.50	454.06
546.67	458.74
546.83	404.91
547.00	390.87
547.17	411.93
547.34	435.34
547.50	416.62
547.67	416.62
547.84	386.19
548.00	489.17
548.17	397.89
548.34	418.96
548.51	468.11
548.67	456.40
548.84	397.89
549.01	407.25
549.18	416.62
549.34	470.45
549.51	489.17
549.68	442.36
549.84	409.59
550.01	416.62
550.18	552.37
550.34	512.58
550.51	454.06
550.68	404.91
550.84	433.00
551.01	360.44
551.18	428.32
551.34	334.70
551.51	425.98
551.68	411.93
551.84	407.25
552.01	337.04
552.18	411.93
552.34	381.51
552.51	444.70
552.68	425.98
552.84	465.77
553.01	447.04
553.18	416.62
553.34	395.55
553.51	423.64
553.67	435.34
553.84	535.98
554.01	428.32
554.17	395.55
554.34	386.19
554.51	444.70
554.67	430.66
554.84	386.19
555.00	500.87
555.17	390.87
555.33	479.81
555.50	440.02
555.67	465.77
555.83	418.96
556.00	505.56
556.16	521.94
556.33	421.30
556.50	381.51
556.66	421.30
556.83	374.49
556.99	414.27
557.16	479.81
557.32	390.87
557.49	374.49
557.65	402.57
557.82	451.72
557.98	388.53
558.15	440.02
558.32	397.89
558.48	402.57
558.65	376.83
558.81	374.49
558.98	367.46
559.14	425.98
559.31	451.72
559.47	395.55
559.64	344.06
559.80	435.34
559.97	374.49
560.13	414.27
560.30	423.64
560.46	435.34
560.63	409.59
560.79	393.21
560.96	440.02
561.12	423.64
561.29	472.79
561.45	407.25
561.61	409.59
561.78	479.81
561.94	411.93
562.11	425.98
562.27	477.47
562.44	423.64
562.60	360.44
562.77	355.76
562.93	418.96
563.10	390.87
563.26	418.96
563.42	449.38
563.59	374.49
563.75	348.74
563.92	479.81
564.08	435.34
564.24	433.00
564.41	489.17
564.57	358.10
564.74	411.93
564.90	472.79
565.07	425.98
565.23	479.81
565.39	402.57
565.56	393.21
565.72	388.53
565.88	365.12
566.05	425.98
566.21	379.17
566.38	437.68
566.54	493.85
566.70	386.19
566.87	369.80
567.03	383.85
567.19	496.19
567.36	351.08
567.52	383.85
567.68	388.53
567.85	425.98
568.01	454.06
568.17	418.96
568.34	440.02
568.50	390.87
568.66	407.25
568.83	475.13
568.99	416.62
569.15	484.49
569.32	435.34
569.48	404.91
569.64	379.17
569.81	475.13
569.97	388.53
570.13	477.47
570.30	393.21
570.46	421.30
570.62	372.15
570.78	379.17
570.95	421.30
571.11	500.87
571.27	510.24
571.43	365.12
571.60	463.43
571.76	367.46
571.92	437.68
572.09	346.40
572.25	416.62
572.41	404.91
572.57	404.91
572.74	414.27
572.90	451.72
573.06	482.15
573.22	454.06
573.38	461.09
573.55	484.49
573.71	404.91
573.87	444.70
574.03	393.21
574.20	374.49
574.36	423.64
574.52	397.89
574.68	444.70
574.84	489.17
575.01	440.02
575.17	437.68
575.33	414.27
575.49	486.83
575.65	454.06
575.82	425.98
575.98	386.19
576.14	383.85
576.30	465.77
576.46	348.74
576.62	440.02
576.79	318.31
576.95	437.68
577.11	491.51
577.27	360.44
577.43	461.09
577.59	442.36
577.75	381.51
577.92	339.38
578.08	454.06
578.24	390.87
578.40	421.30
578.56	447.04
578.72	486.83
578.88	416.62
579.04	400.23
579.21	425.98
579.37	376.83
579.53	440.02
579.69	447.04
579.85	390.87
580.01	418.96
580.17	332.36
580.33	425.98
580.49	390.87
580.65	428.32
580.82	479.81
580.98	353.42
581.14	381.51
581.30	440.02
581.46	416.62
581.62	416.62
581.78	435.34
581.94	414.27
582.10	381.51
582.26	360.44
582.42	440.02
582.58	475.13
582.74	423.64
582.90	404.91
583.06	451.72
583.22	505.56
583.38	379.17
583.54	451.72
583.70	505.56
583.86	442.36
584.02	360.44
584.18	433.00
584.34	400.23
584.50	423.64
584.66	369.80
584.82	447.04
584.98	395.55
585.14	477.47
585.30	393.21
585.46	437.68
585.62	374.49
585.78	470.45
585.94	440.02
586.10	390.87
586.26	411.93
586.42	461.09
586.58	425.98
586.74	416.62
586.90	447.04
587.06	519.60
587.22	421.30
587.38	404.91
587.54	381.51
587.70	465.77
587.86	423.64
588.02	400.23
588.18	430.66
588.34	407.25
588.49	358.10
588.65	397.89
588.81	428.32
588.97	388.53
589.13	379.17
589.29	465.77
589.45	430.66
589.61	353.42
589.77	440.02
589.93	411.93
590.08	383.85
590.24	447.04
590.40	383.85
590.56	367.46
590.72	383.85
590.88	341.72
591.04	449.38
591.20	463.43
591.35	433.00
591.51	369.80
591.67	365.12
591.83	425.98
591.99	447.04
592.15	411.93
592.31	430.66
592.46	411.93
592.62	449.38
592.78	393.21
592.94	430.66
593.10	435.34
593.26	435.34
593.41	402.57
593.57	416.62
593.73	411.93
593.89	571.09
594.05	409.59
594.20	418.96
594.36	421.30
594.52	451.72
594.68	449.38
594.84	500.87
594.99	451.72
595.15	433.00
595.31	470.45
595.47	388.53
595.62	430.66
595.78	465.77
595.94	444.70
596.10	411.93
596.25	411.93
596.41	498.53
596.57	414.27
596.73	334.70
596.88	456.40
597.04	435.34
597.20	367.46
597.36	383.85
597.51	404.91
597.67	437.68
597.83	428.32
597.99	414.27
598.14	379.17
598.30	409.59
598.46	372.15
598.61	449.38
598.77	379.17
598.93	402.57
599.09	444.70
599.24	395.55
599.40	414.27
599.56	402.57
599.71	423.64
599.87	360.44
600.03	386.19
600.18	454.06
600.34	381.51
600.50	407.25
600.65	346.40
600.81	351.08
600.97	451.72
601.12	355.76
601.28	507.90
601.44	454.06
601.59	433.00
601.75	388.53
601.91	395.55
602.06	437.68
602.22	468.11
602.37	437.68
602.53	397.89
602.69	465.77
602.84	470.45
603.00	428.32
603.16	423.64
603.31	425.98
603.47	442.36
603.62	360.44
603.78	397.89
603.94	437.68
604.09	355.76
604.25	449.38
604.40	418.96
604.56	421.30
604.71	376.83
604.87	381.51
605.03	507.90
605.18	461.09
605.34	449.38
605.49	447.04
605.65	414.27
605.80	402.57
605.96	449.38
606.12	416.62
606.27	395.55
606.43	425.98
606.58	428.32
606.74	400.23
606.89	388.53
607.05	327.68
607.20	447.04
607.36	463.43
607.51	374.49
607.67	397.89
607.82	456.40
607.98	458.74
608.13	465.77
608.29	458.74
608.44	472.79
608.60	454.06
608.75	454.06
608.91	414.27
609.06	388.53
609.22	414.27
609.37	421.30
609.53	390.87
609.68	386.19
609.84	435.34
609.99	388.53
610.15	449.38
