SpectraSuite Data File
++++++++++++++++++++++++++++++++++++
Date: Fri Oct 25 12:10:24 EDT 2013
User: price-jones
Dark Spectrum Present: No
Reference Spectrum Present: No
Number of Sampled Component Spectra: 1
Spectrometers: USB2+H05261
Integration Time (usec): 100000 (USB2+H05261)
Spectra Averaged: 1 (USB2+H05261)
Boxcar Smoothing: 0 (USB2+H05261)
Correct for Electrical Dark: No (USB2+H05261)
Strobe/Lamp Enabled: No (USB2+H05261)
Correct for Detector Non-linearity: No (USB2+H05261)
Correct for Stray Light: No (USB2+H05261)
Number of Pixels in Processed Spectrum: 2048
>>>>>Begin Processed Spectral Data<<<<<
365.73	301.93
365.92	301.93
366.12	301.93
366.32	278.52
366.52	231.71
366.72	177.88
366.91	250.44
367.11	220.01
367.31	227.03
367.51	266.82
367.70	276.18
367.90	231.71
368.10	264.48
368.30	266.82
368.49	266.82
368.69	334.70
368.89	255.12
369.09	217.67
369.28	252.78
369.48	299.59
369.68	294.91
369.87	212.99
370.07	222.35
370.27	376.83
370.47	318.31
370.66	271.50
370.86	367.46
371.06	346.40
371.25	395.55
371.45	322.99
371.65	402.57
371.84	395.55
372.04	414.27
372.24	409.59
372.44	428.32
372.63	334.70
372.83	334.70
373.03	374.49
373.22	334.70
373.42	400.23
373.62	393.21
373.81	423.64
374.01	428.32
374.21	442.36
374.40	383.85
374.60	418.96
374.79	463.43
374.99	423.64
375.19	372.15
375.38	505.56
375.58	407.25
375.78	409.59
375.97	465.77
376.17	442.36
376.37	477.47
376.56	381.51
376.76	379.17
376.95	395.55
377.15	372.15
377.35	411.93
377.54	330.02
377.74	397.89
377.93	461.09
378.13	393.21
378.33	376.83
378.52	430.66
378.72	400.23
378.91	421.30
379.11	393.21
379.31	320.65
379.50	418.96
379.70	407.25
379.89	458.74
380.09	433.00
380.28	390.87
380.48	369.80
380.68	304.27
380.87	346.40
381.07	404.91
381.26	470.45
381.46	404.91
381.65	404.91
381.85	435.34
382.04	381.51
382.24	344.06
382.43	435.34
382.63	411.93
382.83	362.78
383.02	409.59
383.22	414.27
383.41	400.23
383.61	425.98
383.80	472.79
384.00	411.93
384.19	409.59
384.39	383.85
384.58	344.06
384.78	416.62
384.97	367.46
385.17	414.27
385.36	383.85
385.56	365.12
385.75	435.34
385.95	372.15
386.14	407.25
386.34	365.12
386.53	416.62
386.72	367.46
386.92	451.72
387.11	468.11
387.31	346.40
387.50	337.04
387.70	496.19
387.89	386.19
388.09	339.38
388.28	421.30
388.48	332.36
388.67	447.04
388.86	379.17
389.06	367.46
389.25	358.10
389.45	400.23
389.64	393.21
389.84	433.00
390.03	425.98
390.22	393.21
390.42	400.23
390.61	381.51
390.81	421.30
391.00	395.55
391.19	369.80
391.39	397.89
391.58	383.85
391.78	358.10
391.97	360.44
392.16	327.68
392.36	407.25
392.55	381.51
392.75	395.55
392.94	320.65
393.13	341.72
393.33	444.70
393.52	428.32
393.71	479.81
393.91	372.15
394.10	365.12
394.29	358.10
394.49	386.19
394.68	428.32
394.88	437.68
395.07	447.04
395.26	346.40
395.46	463.43
395.65	400.23
395.84	374.49
396.04	421.30
396.23	386.19
396.42	362.78
396.62	423.64
396.81	411.93
397.00	395.55
397.19	425.98
397.39	414.27
397.58	468.11
397.77	475.13
397.97	461.09
398.16	500.87
398.35	435.34
398.55	414.27
398.74	421.30
398.93	449.38
399.12	372.15
399.32	416.62
399.51	404.91
399.70	423.64
399.90	421.30
400.09	437.68
400.28	449.38
400.47	421.30
400.67	414.27
400.86	402.57
401.05	435.34
401.24	437.68
401.44	428.32
401.63	376.83
401.82	416.62
402.01	353.42
402.21	341.72
402.40	411.93
402.59	407.25
402.78	435.34
402.97	393.21
403.17	411.93
403.36	358.10
403.55	454.06
403.74	454.06
403.93	379.17
404.13	461.09
404.32	376.83
404.51	372.15
404.70	463.43
404.89	376.83
405.09	433.00
405.28	404.91
405.47	376.83
405.66	386.19
405.85	454.06
406.05	407.25
406.24	479.81
406.43	470.45
406.62	437.68
406.81	407.25
407.00	423.64
407.20	360.44
407.39	397.89
407.58	472.79
407.77	367.46
407.96	449.38
408.15	479.81
408.34	390.87
408.54	421.30
408.73	461.09
408.92	414.27
409.11	400.23
409.30	425.98
409.49	383.85
409.68	454.06
409.87	388.53
410.07	334.70
410.26	440.02
410.45	362.78
410.64	379.17
410.83	458.74
411.02	437.68
411.21	407.25
411.40	416.62
411.59	355.76
411.78	372.15
411.98	444.70
412.17	454.06
412.36	409.59
412.55	409.59
412.74	383.85
412.93	414.27
413.12	404.91
413.31	369.80
413.50	355.76
413.69	346.40
413.88	409.59
414.07	411.93
414.26	393.21
414.45	388.53
414.64	461.09
414.83	421.30
415.02	433.00
415.22	475.13
415.41	444.70
415.60	397.89
415.79	395.55
415.98	442.36
416.17	404.91
416.36	390.87
416.55	393.21
416.74	395.55
416.93	458.74
417.12	449.38
417.31	418.96
417.50	411.93
417.69	458.74
417.88	451.72
418.07	369.80
418.26	383.85
418.45	376.83
418.64	425.98
418.83	379.17
419.02	430.66
419.21	475.13
419.39	379.17
419.58	444.70
419.77	397.89
419.96	418.96
420.15	437.68
420.34	440.02
420.53	435.34
420.72	444.70
420.91	454.06
421.10	402.57
421.29	435.34
421.48	447.04
421.67	411.93
421.86	400.23
422.05	355.76
422.24	374.49
422.43	437.68
422.61	390.87
422.80	430.66
422.99	348.74
423.18	407.25
423.37	456.40
423.56	395.55
423.75	465.77
423.94	376.83
424.13	397.89
424.32	346.40
424.50	430.66
424.69	393.21
424.88	458.74
425.07	351.08
425.26	376.83
425.45	447.04
425.64	341.72
425.83	365.12
426.01	433.00
426.20	428.32
426.39	447.04
426.58	425.98
426.77	447.04
426.96	344.06
427.15	397.89
427.33	437.68
427.52	353.42
427.71	376.83
427.90	433.00
428.09	435.34
428.28	397.89
428.46	372.15
428.65	437.68
428.84	362.78
429.03	440.02
429.22	365.12
429.40	472.79
429.59	477.47
429.78	416.62
429.97	365.12
430.16	425.98
430.34	386.19
430.53	395.55
430.72	372.15
430.91	416.62
431.10	430.66
431.28	376.83
431.47	341.72
431.66	425.98
431.85	362.78
432.03	430.66
432.22	496.19
432.41	386.19
432.60	449.38
432.79	421.30
432.97	411.93
433.16	372.15
433.35	365.12
433.54	423.64
433.72	362.78
433.91	489.17
434.10	367.46
434.28	381.51
434.47	372.15
434.66	461.09
434.85	411.93
435.03	423.64
435.22	402.57
435.41	458.74
435.59	402.57
435.78	430.66
435.97	395.55
436.16	400.23
436.34	409.59
436.53	425.98
436.72	411.93
436.90	444.70
437.09	409.59
437.28	386.19
437.46	430.66
437.65	390.87
437.84	430.66
438.02	402.57
438.21	451.72
438.40	414.27
438.58	402.57
438.77	390.87
438.96	351.08
439.14	421.30
439.33	437.68
439.52	388.53
439.70	409.59
439.89	395.55
440.08	409.59
440.26	447.04
440.45	468.11
440.63	444.70
440.82	433.00
441.01	435.34
441.19	444.70
441.38	397.89
441.57	376.83
441.75	416.62
441.94	348.74
442.12	454.06
442.31	397.89
442.50	407.25
442.68	390.87
442.87	442.36
443.05	360.44
443.24	374.49
443.43	404.91
443.61	423.64
443.80	341.72
443.98	425.98
444.17	409.59
444.35	409.59
444.54	440.02
444.73	397.89
444.91	470.45
445.10	440.02
445.28	337.04
445.47	358.10
445.65	388.53
445.84	430.66
446.02	411.93
446.21	409.59
446.39	372.15
446.58	418.96
446.77	360.44
446.95	437.68
447.14	449.38
447.32	390.87
447.51	339.38
447.69	465.77
447.88	433.00
448.06	411.93
448.25	379.17
448.43	374.49
448.62	416.62
448.80	393.21
448.99	442.36
449.17	428.32
449.36	397.89
449.54	449.38
449.73	414.27
449.91	425.98
450.10	449.38
450.28	486.83
450.46	475.13
450.65	425.98
450.83	407.25
451.02	400.23
451.20	428.32
451.39	404.91
451.57	407.25
451.76	444.70
451.94	346.40
452.13	365.12
452.31	411.93
452.49	430.66
452.68	437.68
452.86	404.91
453.05	449.38
453.23	442.36
453.42	421.30
453.60	388.53
453.78	423.64
453.97	379.17
454.15	440.02
454.34	400.23
454.52	337.04
454.70	468.11
454.89	465.77
455.07	386.19
455.26	472.79
455.44	454.06
455.62	442.36
455.81	428.32
455.99	435.34
456.17	503.22
456.36	484.49
456.54	397.89
456.73	367.46
456.91	376.83
457.09	428.32
457.28	449.38
457.46	444.70
457.64	386.19
457.83	409.59
458.01	400.23
458.19	341.72
458.38	411.93
458.56	353.42
458.74	425.98
458.93	400.23
459.11	463.43
459.29	388.53
459.48	397.89
459.66	440.02
459.84	440.02
460.03	521.94
460.21	418.96
460.39	400.23
460.57	395.55
460.76	482.15
460.94	433.00
461.12	423.64
461.31	444.70
461.49	470.45
461.67	411.93
461.85	383.85
462.04	395.55
462.22	786.42
462.40	400.23
462.59	428.32
462.77	461.09
462.95	472.79
463.13	393.21
463.32	418.96
463.50	421.30
463.68	409.59
463.86	388.53
464.05	358.10
464.23	451.72
464.41	423.64
464.59	472.79
464.78	409.59
464.96	409.59
465.14	416.62
465.32	393.21
465.50	512.58
465.69	449.38
465.87	381.51
466.05	386.19
466.23	395.55
466.41	353.42
466.60	472.79
466.78	395.55
466.96	414.27
467.14	456.40
467.32	440.02
467.51	444.70
467.69	444.70
467.87	489.17
468.05	435.34
468.23	461.09
468.41	470.45
468.60	374.49
468.78	458.74
468.96	425.98
469.14	479.81
469.32	491.51
469.50	388.53
469.69	381.51
469.87	435.34
470.05	437.68
470.23	491.51
470.41	386.19
470.59	407.25
470.77	442.36
470.95	379.17
471.14	383.85
471.32	414.27
471.50	435.34
471.68	404.91
471.86	489.17
472.04	416.62
472.22	369.80
472.40	383.85
472.58	393.21
472.77	341.72
472.95	465.77
473.13	400.23
473.31	421.30
473.49	440.02
473.67	369.80
473.85	407.25
474.03	409.59
474.21	397.89
474.39	425.98
474.57	451.72
474.75	425.98
474.93	418.96
475.12	376.83
475.30	440.02
475.48	397.89
475.66	416.62
475.84	425.98
476.02	409.59
476.20	461.09
476.38	379.17
476.56	423.64
476.74	283.20
476.92	379.17
477.10	442.36
477.28	435.34
477.46	390.87
477.64	425.98
477.82	414.27
478.00	397.89
478.18	409.59
478.36	304.27
478.54	465.77
478.72	390.87
478.90	365.12
479.08	421.30
479.26	402.57
479.44	475.13
479.62	372.15
479.80	402.57
479.98	402.57
480.16	407.25
480.34	435.34
480.52	400.23
480.70	421.30
480.88	369.80
481.06	379.17
481.24	351.08
481.41	423.64
481.59	503.22
481.77	407.25
481.95	435.34
482.13	416.62
482.31	411.93
482.49	437.68
482.67	365.12
482.85	388.53
483.03	447.04
483.21	423.64
483.39	393.21
483.57	404.91
483.74	430.66
483.92	383.85
484.10	330.02
484.28	400.23
484.46	486.83
484.64	330.02
484.82	402.57
485.00	344.06
485.18	395.55
485.35	393.21
485.53	383.85
485.71	428.32
485.89	383.85
486.07	409.59
486.25	421.30
486.43	416.62
486.61	440.02
486.78	409.59
486.96	421.30
487.14	390.87
487.32	421.30
487.50	435.34
487.68	416.62
487.85	458.74
488.03	498.53
488.21	458.74
488.39	367.46
488.57	365.12
488.75	418.96
488.92	407.25
489.10	402.57
489.28	435.34
489.46	362.78
489.64	418.96
489.81	393.21
489.99	451.72
490.17	416.62
490.35	458.74
490.53	372.15
490.70	451.72
490.88	407.25
491.06	341.72
491.24	355.76
491.41	346.40
491.59	451.72
491.77	414.27
491.95	404.91
492.13	418.96
492.30	428.32
492.48	486.83
492.66	407.25
492.84	393.21
493.01	404.91
493.19	435.34
493.37	430.66
493.54	374.49
493.72	433.00
493.90	444.70
494.08	381.51
494.25	472.79
494.43	428.32
494.61	341.72
494.79	402.57
494.96	411.93
495.14	519.60
495.32	433.00
495.49	397.89
495.67	400.23
495.85	414.27
496.02	395.55
496.20	411.93
496.38	421.30
496.55	414.27
496.73	482.15
496.91	400.23
497.09	503.22
497.26	362.78
497.44	447.04
497.62	353.42
497.79	397.89
497.97	383.85
498.14	402.57
498.32	400.23
498.50	337.04
498.67	411.93
498.85	447.04
499.03	418.96
499.20	407.25
499.38	374.49
499.56	484.49
499.73	491.51
499.91	425.98
500.08	456.40
500.26	400.23
500.44	411.93
500.61	461.09
500.79	367.46
500.97	367.46
501.14	381.51
501.32	334.70
501.49	503.22
501.67	404.91
501.84	400.23
502.02	315.97
502.20	477.47
502.37	395.55
502.55	423.64
502.72	416.62
502.90	383.85
503.07	372.15
503.25	383.85
503.43	414.27
503.60	339.38
503.78	465.77
503.95	470.45
504.13	353.42
504.30	397.89
504.48	351.08
504.65	451.72
504.83	468.11
505.01	365.12
505.18	386.19
505.36	444.70
505.53	369.80
505.71	372.15
505.88	458.74
506.06	461.09
506.23	407.25
506.41	433.00
506.58	472.79
506.76	451.72
506.93	416.62
507.11	379.17
507.28	397.89
507.46	393.21
507.63	416.62
507.81	425.98
507.98	454.06
508.16	337.04
508.33	440.02
508.50	388.53
508.68	484.49
508.85	482.15
509.03	409.59
509.20	400.23
509.38	463.43
509.55	400.23
509.73	423.64
509.90	435.34
510.08	479.81
510.25	400.23
510.42	418.96
510.60	425.98
510.77	418.96
510.95	463.43
511.12	435.34
511.30	414.27
511.47	386.19
511.64	447.04
511.82	454.06
511.99	458.74
512.17	435.34
512.34	449.38
512.51	390.87
512.69	367.46
512.86	477.47
513.04	386.19
513.21	372.15
513.38	435.34
513.56	318.31
513.73	423.64
513.90	409.59
514.08	402.57
514.25	374.49
514.43	428.32
514.60	315.97
514.77	402.57
514.95	437.68
515.12	442.36
515.29	449.38
515.47	414.27
515.64	418.96
515.81	425.98
515.99	351.08
516.16	461.09
516.33	433.00
516.51	409.59
516.68	458.74
516.85	404.91
517.03	437.68
517.20	376.83
517.37	414.27
517.54	362.78
517.72	407.25
517.89	425.98
518.06	423.64
518.24	444.70
518.41	444.70
518.58	418.96
518.75	337.04
518.93	348.74
519.10	421.30
519.27	337.04
519.45	374.49
519.62	390.87
519.79	461.09
519.96	437.68
520.14	456.40
520.31	451.72
520.48	482.15
520.65	409.59
520.83	416.62
521.00	355.76
521.17	440.02
521.34	400.23
521.52	461.09
521.69	444.70
521.86	433.00
522.03	458.74
522.20	472.79
522.38	493.85
522.55	416.62
522.72	437.68
522.89	397.89
523.07	423.64
523.24	402.57
523.41	411.93
523.58	461.09
523.75	395.55
523.92	428.32
524.10	390.87
524.27	463.43
524.44	433.00
524.61	402.57
524.78	418.96
524.96	390.87
525.13	372.15
525.30	393.21
525.47	402.57
525.64	411.93
525.81	355.76
525.98	463.43
526.16	437.68
526.33	379.17
526.50	451.72
526.67	376.83
526.84	381.51
527.01	440.02
527.18	383.85
527.36	433.00
527.53	397.89
527.70	416.62
527.87	437.68
528.04	435.34
528.21	402.57
528.38	376.83
528.55	411.93
528.72	456.40
528.89	414.27
529.07	444.70
529.24	386.19
529.41	540.66
529.58	468.11
529.75	425.98
529.92	449.38
530.09	416.62
530.26	465.77
530.43	416.62
530.60	435.34
530.77	400.23
530.94	393.21
531.11	402.57
531.28	379.17
531.46	374.49
531.63	440.02
531.80	386.19
531.97	456.40
532.14	397.89
532.31	451.72
532.48	414.27
532.65	454.06
532.82	447.04
532.99	395.55
533.16	435.34
533.33	425.98
533.50	433.00
533.67	369.80
533.84	454.06
534.01	449.38
534.18	456.40
534.35	430.66
534.52	411.93
534.69	461.09
534.86	440.02
535.03	362.78
535.20	393.21
535.37	360.44
535.54	393.21
535.71	402.57
535.88	334.70
536.05	369.80
536.22	465.77
536.38	425.98
536.55	451.72
536.72	454.06
536.89	421.30
537.06	444.70
537.23	395.55
537.40	404.91
537.57	435.34
537.74	477.47
537.91	440.02
538.08	428.32
538.25	442.36
538.42	395.55
538.59	435.34
538.75	470.45
538.92	465.77
539.09	376.83
539.26	353.42
539.43	428.32
539.60	407.25
539.77	458.74
539.94	381.51
540.11	383.85
540.28	393.21
540.44	475.13
540.61	334.70
540.78	407.25
540.95	390.87
541.12	404.91
541.29	360.44
541.46	456.40
541.62	390.87
541.79	468.11
541.96	440.02
542.13	334.70
542.30	351.08
542.47	477.47
542.63	404.91
542.80	411.93
542.97	449.38
543.14	465.77
543.31	407.25
543.48	388.53
543.64	404.91
543.81	400.23
543.98	365.12
544.15	395.55
544.32	416.62
544.48	430.66
544.65	407.25
544.82	365.12
544.99	440.02
545.16	318.31
545.32	390.87
545.49	390.87
545.66	454.06
545.83	423.64
546.00	355.76
546.16	390.87
546.33	414.27
546.50	409.59
546.67	524.28
546.83	376.83
547.00	484.49
547.17	390.87
547.34	418.96
547.50	423.64
547.67	407.25
547.84	409.59
548.00	402.57
548.17	423.64
548.34	374.49
548.51	500.87
548.67	475.13
548.84	381.51
549.01	423.64
549.18	337.04
549.34	531.30
549.51	433.00
549.68	444.70
549.84	416.62
550.01	423.64
550.18	465.77
550.34	437.68
550.51	435.34
550.68	376.83
550.84	381.51
551.01	437.68
551.18	470.45
551.34	409.59
551.51	393.21
551.68	353.42
551.84	416.62
552.01	374.49
552.18	425.98
552.34	418.96
552.51	379.17
552.68	402.57
552.84	440.02
553.01	456.40
553.18	372.15
553.34	315.97
553.51	437.68
553.67	372.15
553.84	444.70
554.01	433.00
554.17	489.17
554.34	311.29
554.51	407.25
554.67	484.49
554.84	444.70
555.00	416.62
555.17	472.79
555.33	463.43
555.50	360.44
555.67	376.83
555.83	369.80
556.00	449.38
556.16	573.43
556.33	440.02
556.50	454.06
556.66	376.83
556.83	416.62
556.99	465.77
557.16	440.02
557.32	379.17
557.49	374.49
557.65	334.70
557.82	423.64
557.98	423.64
558.15	440.02
558.32	458.74
558.48	433.00
558.65	456.40
558.81	411.93
558.98	416.62
559.14	428.32
559.31	400.23
559.47	416.62
559.64	400.23
559.80	421.30
559.97	402.57
560.13	463.43
560.30	374.49
560.46	365.12
560.63	365.12
560.79	482.15
560.96	409.59
561.12	428.32
561.29	442.36
561.45	433.00
561.61	430.66
561.78	514.92
561.94	477.47
562.11	463.43
562.27	470.45
562.44	402.57
562.60	449.38
562.77	397.89
562.93	477.47
563.10	376.83
563.26	435.34
563.42	451.72
563.59	369.80
563.75	423.64
563.92	447.04
564.08	463.43
564.24	477.47
564.41	489.17
564.57	423.64
564.74	402.57
564.90	442.36
565.07	414.27
565.23	411.93
565.39	428.32
565.56	411.93
565.72	372.15
565.88	395.55
566.05	397.89
566.21	437.68
566.38	477.47
566.54	390.87
566.70	418.96
566.87	461.09
567.03	444.70
567.19	339.38
567.36	393.21
567.52	411.93
567.68	393.21
567.85	456.40
568.01	379.17
568.17	341.72
568.34	407.25
568.50	386.19
568.66	409.59
568.83	447.04
568.99	393.21
569.15	472.79
569.32	444.70
569.48	365.12
569.64	461.09
569.81	402.57
569.97	360.44
570.13	449.38
570.30	456.40
570.46	468.11
570.62	383.85
570.78	489.17
570.95	430.66
571.11	393.21
571.27	444.70
571.43	421.30
571.60	423.64
571.76	376.83
571.92	397.89
572.09	367.46
572.25	402.57
572.41	414.27
572.57	374.49
572.74	554.71
572.90	447.04
573.06	397.89
573.22	433.00
573.38	479.81
573.55	337.04
573.71	418.96
573.87	433.00
574.03	463.43
574.20	376.83
574.36	430.66
574.52	423.64
574.68	372.15
574.84	440.02
575.01	451.72
575.17	447.04
575.33	421.30
575.49	409.59
575.65	409.59
575.82	411.93
575.98	503.22
576.14	463.43
576.30	454.06
576.46	393.21
576.62	407.25
576.79	409.59
576.95	404.91
577.11	362.78
577.27	395.55
577.43	416.62
577.59	418.96
577.75	458.74
577.92	418.96
578.08	463.43
578.24	411.93
578.40	369.80
578.56	447.04
578.72	411.93
578.88	386.19
579.04	421.30
579.21	341.72
579.37	418.96
579.53	381.51
579.69	425.98
579.85	435.34
580.01	409.59
580.17	425.98
580.33	470.45
580.49	454.06
580.65	397.89
580.82	374.49
580.98	397.89
581.14	388.53
581.30	454.06
581.46	355.76
581.62	433.00
581.78	437.68
581.94	418.96
582.10	374.49
582.26	451.72
582.42	390.87
582.58	440.02
582.74	271.50
582.90	444.70
583.06	435.34
583.22	444.70
583.38	416.62
583.54	423.64
583.70	461.09
583.86	409.59
584.02	421.30
584.18	433.00
584.34	454.06
584.50	411.93
584.66	463.43
584.82	433.00
584.98	421.30
585.14	383.85
585.30	475.13
585.46	374.49
585.62	411.93
585.78	454.06
585.94	447.04
586.10	400.23
586.26	423.64
586.42	510.24
586.58	346.40
586.74	416.62
586.90	442.36
587.06	383.85
587.22	435.34
587.38	381.51
587.54	418.96
587.70	454.06
587.86	484.49
588.02	435.34
588.18	442.36
588.34	416.62
588.49	362.78
588.65	489.17
588.81	496.19
588.97	393.21
589.13	491.51
589.29	416.62
589.45	400.23
589.61	425.98
589.77	440.02
589.93	404.91
590.08	430.66
590.24	353.42
590.40	327.68
590.56	440.02
590.72	465.77
590.88	397.89
591.04	465.77
591.20	395.55
591.35	411.93
591.51	449.38
591.67	454.06
591.83	430.66
591.99	402.57
592.15	383.85
592.31	404.91
592.46	430.66
592.62	440.02
592.78	390.87
592.94	461.09
593.10	402.57
593.26	414.27
593.41	470.45
593.57	379.17
593.73	390.87
593.89	386.19
594.05	376.83
594.20	444.70
594.36	440.02
594.52	430.66
594.68	421.30
594.84	400.23
594.99	418.96
595.15	416.62
595.31	433.00
595.47	458.74
595.62	341.72
595.78	369.80
595.94	421.30
596.10	400.23
596.25	444.70
596.41	416.62
596.57	402.57
596.73	442.36
596.88	479.81
597.04	451.72
597.20	411.93
597.36	360.44
597.51	428.32
597.67	470.45
597.83	379.17
597.99	491.51
598.14	360.44
598.30	379.17
598.46	400.23
598.61	479.81
598.77	416.62
598.93	428.32
599.09	425.98
599.24	437.68
599.40	407.25
599.56	411.93
599.71	383.85
599.87	369.80
600.03	383.85
600.18	433.00
600.34	414.27
600.50	500.87
600.65	353.42
600.81	386.19
600.97	369.80
601.12	430.66
601.28	393.21
601.44	397.89
601.59	435.34
601.75	477.47
601.91	447.04
602.06	388.53
602.22	404.91
602.37	440.02
602.53	404.91
602.69	468.11
602.84	388.53
603.00	409.59
603.16	404.91
603.31	433.00
603.47	421.30
603.62	416.62
603.78	475.13
603.94	433.00
604.09	372.15
604.25	388.53
604.40	433.00
604.56	435.34
604.71	475.13
604.87	369.80
605.03	367.46
605.18	372.15
605.34	411.93
605.49	402.57
605.65	414.27
605.80	407.25
605.96	468.11
606.12	491.51
606.27	447.04
606.43	402.57
606.58	414.27
606.74	437.68
606.89	395.55
607.05	372.15
607.20	386.19
607.36	463.43
607.51	379.17
607.67	437.68
607.82	393.21
607.98	418.96
608.13	374.49
608.29	418.96
608.44	440.02
608.60	435.34
608.75	440.02
608.91	397.89
609.06	414.27
609.22	388.53
609.37	379.17
609.53	463.43
609.68	442.36
609.84	341.72
609.99	447.04
610.15	414.27
