SpectraSuite Data File
++++++++++++++++++++++++++++++++++++
Date: Fri Oct 25 12:10:06 EDT 2013
User: price-jones
Dark Spectrum Present: No
Reference Spectrum Present: No
Number of Sampled Component Spectra: 1
Spectrometers: USB2+H05261
Integration Time (usec): 100000 (USB2+H05261)
Spectra Averaged: 1 (USB2+H05261)
Boxcar Smoothing: 0 (USB2+H05261)
Correct for Electrical Dark: No (USB2+H05261)
Strobe/Lamp Enabled: No (USB2+H05261)
Correct for Detector Non-linearity: No (USB2+H05261)
Correct for Stray Light: No (USB2+H05261)
Number of Pixels in Processed Spectrum: 2048
>>>>>Begin Processed Spectral Data<<<<<
365.73	311.29
365.92	311.29
366.12	311.29
366.32	231.71
366.52	194.26
366.72	280.86
366.91	212.99
367.11	313.63
367.31	252.78
367.51	313.63
367.70	227.03
367.90	304.27
368.10	184.90
368.30	248.10
368.49	280.86
368.69	292.57
368.89	271.50
369.09	224.69
369.28	332.36
369.48	290.23
369.68	273.84
369.87	308.95
370.07	259.80
370.27	294.91
370.47	327.68
370.66	411.93
370.86	351.08
371.06	381.51
371.25	468.11
371.45	341.72
371.65	435.34
371.84	339.38
372.04	407.25
372.24	409.59
372.44	348.74
372.63	418.96
372.83	421.30
373.03	447.04
373.22	402.57
373.42	395.55
373.62	477.47
373.81	437.68
374.01	444.70
374.21	468.11
374.40	390.87
374.60	461.09
374.79	437.68
374.99	425.98
375.19	433.00
375.38	421.30
375.58	444.70
375.78	374.49
375.97	383.85
376.17	482.15
376.37	376.83
376.56	402.57
376.76	362.78
376.95	435.34
377.15	404.91
377.35	369.80
377.54	442.36
377.74	388.53
377.93	404.91
378.13	390.87
378.33	411.93
378.52	355.76
378.72	414.27
378.91	430.66
379.11	397.89
379.31	360.44
379.50	369.80
379.70	447.04
379.89	388.53
380.09	379.17
380.28	435.34
380.48	334.70
380.68	393.21
380.87	351.08
381.07	484.49
381.26	348.74
381.46	362.78
381.65	470.45
381.85	365.12
382.04	372.15
382.24	430.66
382.43	418.96
382.63	404.91
382.83	416.62
383.02	435.34
383.22	484.49
383.41	440.02
383.61	456.40
383.80	482.15
384.00	379.17
384.19	346.40
384.39	414.27
384.58	390.87
384.78	402.57
384.97	404.91
385.17	351.08
385.36	407.25
385.56	444.70
385.75	447.04
385.95	372.15
386.14	397.89
386.34	367.46
386.53	470.45
386.72	442.36
386.92	479.81
387.11	449.38
387.31	411.93
387.50	447.04
387.70	365.12
387.89	367.46
388.09	444.70
388.28	414.27
388.48	388.53
388.67	423.64
388.86	428.32
389.06	390.87
389.25	365.12
389.45	367.46
389.64	358.10
389.84	409.59
390.03	407.25
390.22	404.91
390.42	330.02
390.61	409.59
390.81	353.42
391.00	400.23
391.19	416.62
391.39	428.32
391.58	423.64
391.78	388.53
391.97	465.77
392.16	416.62
392.36	437.68
392.55	454.06
392.75	423.64
392.94	402.57
393.13	479.81
393.33	425.98
393.52	402.57
393.71	418.96
393.91	444.70
394.10	397.89
394.29	421.30
394.49	421.30
394.68	397.89
394.88	454.06
395.07	397.89
395.26	411.93
395.46	348.74
395.65	393.21
395.84	423.64
396.04	437.68
396.23	423.64
396.42	346.40
396.62	409.59
396.81	461.09
397.00	418.96
397.19	372.15
397.39	397.89
397.58	433.00
397.77	411.93
397.97	456.40
398.16	400.23
398.35	414.27
398.55	390.87
398.74	395.55
398.93	491.51
399.12	330.02
399.32	421.30
399.51	433.00
399.70	386.19
399.90	444.70
400.09	458.74
400.28	374.49
400.47	447.04
400.67	463.43
400.86	472.79
401.05	376.83
401.24	386.19
401.44	418.96
401.63	465.77
401.82	454.06
402.01	425.98
402.21	425.98
402.40	433.00
402.59	381.51
402.78	437.68
402.97	386.19
403.17	425.98
403.36	400.23
403.55	383.85
403.74	468.11
403.93	390.87
404.13	435.34
404.32	390.87
404.51	447.04
404.70	372.15
404.89	341.72
405.09	444.70
405.28	372.15
405.47	409.59
405.66	458.74
405.85	393.21
406.05	390.87
406.24	428.32
406.43	416.62
406.62	393.21
406.81	388.53
407.00	444.70
407.20	386.19
407.39	313.63
407.58	437.68
407.77	376.83
407.96	477.47
408.15	418.96
408.34	365.12
408.54	444.70
408.73	447.04
408.92	402.57
409.11	355.76
409.30	435.34
409.49	463.43
409.68	451.72
409.87	400.23
410.07	454.06
410.26	397.89
410.45	353.42
410.64	430.66
410.83	411.93
411.02	435.34
411.21	449.38
411.40	409.59
411.59	383.85
411.78	393.21
411.98	418.96
412.17	313.63
412.36	409.59
412.55	376.83
412.74	411.93
412.93	435.34
413.12	449.38
413.31	337.04
413.50	409.59
413.69	428.32
413.88	498.53
414.07	437.68
414.26	435.34
414.45	402.57
414.64	407.25
414.83	449.38
415.02	311.29
415.22	379.17
415.41	423.64
415.60	339.38
415.79	404.91
415.98	425.98
416.17	435.34
416.36	397.89
416.55	381.51
416.74	442.36
416.93	458.74
417.12	376.83
417.31	437.68
417.50	325.33
417.69	507.90
417.88	404.91
418.07	416.62
418.26	409.59
418.45	449.38
418.64	365.12
418.83	409.59
419.02	444.70
419.21	414.27
419.39	362.78
419.58	388.53
419.77	369.80
419.96	440.02
420.15	512.58
420.34	395.55
420.53	465.77
420.72	374.49
420.91	393.21
421.10	393.21
421.29	451.72
421.48	355.76
421.67	379.17
421.86	397.89
422.05	369.80
422.24	360.44
422.43	486.83
422.61	425.98
422.80	376.83
422.99	421.30
423.18	330.02
423.37	418.96
423.56	372.15
423.75	348.74
423.94	421.30
424.13	386.19
424.32	358.10
424.50	421.30
424.69	442.36
424.88	418.96
425.07	374.49
425.26	344.06
425.45	433.00
425.64	367.46
425.83	388.53
426.01	458.74
426.20	402.57
426.39	444.70
426.58	468.11
426.77	386.19
426.96	386.19
427.15	386.19
427.33	421.30
427.52	425.98
427.71	444.70
427.90	362.78
428.09	437.68
428.28	376.83
428.46	421.30
428.65	421.30
428.84	470.45
429.03	433.00
429.22	409.59
429.40	400.23
429.59	386.19
429.78	372.15
429.97	353.42
430.16	416.62
430.34	404.91
430.53	402.57
430.72	379.17
430.91	348.74
431.10	442.36
431.28	400.23
431.47	425.98
431.66	454.06
431.85	402.57
432.03	496.19
432.22	423.64
432.41	425.98
432.60	447.04
432.79	418.96
432.97	447.04
433.16	348.74
433.35	461.09
433.54	428.32
433.72	379.17
433.91	379.17
434.10	423.64
434.28	468.11
434.47	437.68
434.66	447.04
434.85	395.55
435.03	442.36
435.22	421.30
435.41	435.34
435.59	395.55
435.78	386.19
435.97	355.76
436.16	369.80
436.34	390.87
436.53	404.91
436.72	360.44
436.90	463.43
437.09	442.36
437.28	449.38
437.46	414.27
437.65	451.72
437.84	402.57
438.02	407.25
438.21	397.89
438.40	390.87
438.58	337.04
438.77	411.93
438.96	463.43
439.14	365.12
439.33	341.72
439.52	383.85
439.70	449.38
439.89	442.36
440.08	327.68
440.26	416.62
440.45	428.32
440.63	362.78
440.82	428.32
441.01	369.80
441.19	465.77
441.38	416.62
441.57	362.78
441.75	442.36
441.94	475.13
442.12	397.89
442.31	440.02
442.50	416.62
442.68	433.00
442.87	411.93
443.05	365.12
443.24	430.66
443.43	428.32
443.61	402.57
443.80	381.51
443.98	404.91
444.17	433.00
444.35	365.12
444.54	421.30
444.73	379.17
444.91	423.64
445.10	362.78
445.28	433.00
445.47	411.93
445.65	461.09
445.84	475.13
446.02	423.64
446.21	367.46
446.39	421.30
446.58	376.83
446.77	388.53
446.95	379.17
447.14	454.06
447.32	444.70
447.51	409.59
447.69	379.17
447.88	409.59
448.06	440.02
448.25	372.15
448.43	428.32
448.62	430.66
448.80	437.68
448.99	397.89
449.17	409.59
449.36	292.57
449.54	418.96
449.73	388.53
449.91	456.40
450.10	381.51
450.28	416.62
450.46	451.72
450.65	353.42
450.83	430.66
451.02	451.72
451.20	437.68
451.39	402.57
451.57	442.36
451.76	472.79
451.94	376.83
452.13	346.40
452.31	393.21
452.49	435.34
452.68	383.85
452.86	386.19
453.05	500.87
453.23	362.78
453.42	400.23
453.60	325.33
453.78	489.17
453.97	346.40
454.15	489.17
454.34	390.87
454.52	407.25
454.70	484.49
454.89	433.00
455.07	397.89
455.26	423.64
455.44	428.32
455.62	449.38
455.81	379.17
455.99	458.74
456.17	461.09
456.36	421.30
456.54	402.57
456.73	383.85
456.91	421.30
457.09	423.64
457.28	454.06
457.46	374.49
457.64	482.15
457.83	409.59
458.01	456.40
458.19	402.57
458.38	416.62
458.56	407.25
458.74	358.10
458.93	390.87
459.11	437.68
459.29	381.51
459.48	376.83
459.66	411.93
459.84	437.68
460.03	498.53
460.21	477.47
460.39	425.98
460.57	421.30
460.76	463.43
460.94	435.34
461.12	435.34
461.31	458.74
461.49	346.40
461.67	411.93
461.85	400.23
462.04	456.40
462.22	744.29
462.40	414.27
462.59	400.23
462.77	416.62
462.95	414.27
463.13	425.98
463.32	437.68
463.50	437.68
463.68	428.32
463.86	414.27
464.05	454.06
464.23	388.53
464.41	414.27
464.59	358.10
464.78	393.21
464.96	376.83
465.14	388.53
465.32	400.23
465.50	369.80
465.69	456.40
465.87	395.55
466.05	379.17
466.23	393.21
466.41	407.25
466.60	456.40
466.78	402.57
466.96	425.98
467.14	353.42
467.32	440.02
467.51	428.32
467.69	414.27
467.87	414.27
468.05	423.64
468.23	388.53
468.41	383.85
468.60	388.53
468.78	454.06
468.96	489.17
469.14	472.79
469.32	409.59
469.50	402.57
469.69	369.80
469.87	390.87
470.05	449.38
470.23	437.68
470.41	409.59
470.59	379.17
470.77	463.43
470.95	440.02
471.14	461.09
471.32	346.40
471.50	454.06
471.68	454.06
471.86	437.68
472.04	470.45
472.22	433.00
472.40	390.87
472.58	409.59
472.77	388.53
472.95	447.04
473.13	491.51
473.31	456.40
473.49	379.17
473.67	330.02
473.85	404.91
474.03	437.68
474.21	477.47
474.39	388.53
474.57	435.34
474.75	433.00
474.93	383.85
475.12	325.33
475.30	407.25
475.48	393.21
475.66	409.59
475.84	435.34
476.02	395.55
476.20	451.72
476.38	383.85
476.56	484.49
476.74	421.30
476.92	400.23
477.10	500.87
477.28	451.72
477.46	381.51
477.64	503.22
477.82	425.98
478.00	383.85
478.18	395.55
478.36	341.72
478.54	456.40
478.72	411.93
478.90	390.87
479.08	414.27
479.26	524.28
479.44	423.64
479.62	465.77
479.80	383.85
479.98	393.21
480.16	425.98
480.34	482.15
480.52	428.32
480.70	468.11
480.88	379.17
481.06	365.12
481.24	421.30
481.41	440.02
481.59	390.87
481.77	390.87
481.95	416.62
482.13	416.62
482.31	334.70
482.49	379.17
482.67	482.15
482.85	447.04
483.03	433.00
483.21	433.00
483.39	458.74
483.57	395.55
483.74	435.34
483.92	470.45
484.10	451.72
484.28	477.47
484.46	479.81
484.64	400.23
484.82	372.15
485.00	400.23
485.18	454.06
485.35	451.72
485.53	433.00
485.71	411.93
485.89	414.27
486.07	449.38
486.25	418.96
486.43	440.02
486.61	381.51
486.78	418.96
486.96	451.72
487.14	461.09
487.32	388.53
487.50	409.59
487.68	395.55
487.85	365.12
488.03	409.59
488.21	411.93
488.39	393.21
488.57	435.34
488.75	444.70
488.92	512.58
489.10	334.70
489.28	486.83
489.46	418.96
489.64	414.27
489.81	430.66
489.99	477.47
490.17	535.98
490.35	484.49
490.53	435.34
490.70	402.57
490.88	491.51
491.06	400.23
491.24	470.45
491.41	437.68
491.59	442.36
491.77	402.57
491.95	376.83
492.13	383.85
492.30	409.59
492.48	437.68
492.66	360.44
492.84	416.62
493.01	451.72
493.19	386.19
493.37	484.49
493.54	416.62
493.72	447.04
493.90	344.06
494.08	402.57
494.25	421.30
494.43	367.46
494.61	376.83
494.79	388.53
494.96	407.25
495.14	402.57
495.32	437.68
495.49	397.89
495.67	374.49
495.85	383.85
496.02	344.06
496.20	433.00
496.38	449.38
496.55	402.57
496.73	428.32
496.91	456.40
497.09	442.36
497.26	416.62
497.44	369.80
497.62	411.93
497.79	400.23
497.97	447.04
498.14	409.59
498.32	416.62
498.50	411.93
498.67	411.93
498.85	449.38
499.03	383.85
499.20	444.70
499.38	440.02
499.56	376.83
499.73	444.70
499.91	390.87
500.08	482.15
500.26	449.38
500.44	358.10
500.61	428.32
500.79	407.25
500.97	411.93
501.14	512.58
501.32	402.57
501.49	456.40
501.67	463.43
501.84	472.79
502.02	388.53
502.20	425.98
502.37	437.68
502.55	470.45
502.72	425.98
502.90	437.68
503.07	433.00
503.25	376.83
503.43	416.62
503.60	416.62
503.78	416.62
503.95	437.68
504.13	393.21
504.30	402.57
504.48	367.46
504.65	393.21
504.83	411.93
505.01	358.10
505.18	468.11
505.36	416.62
505.53	383.85
505.71	461.09
505.88	456.40
506.06	390.87
506.23	428.32
506.41	435.34
506.58	414.27
506.76	388.53
506.93	475.13
507.11	407.25
507.28	379.17
507.46	423.64
507.63	400.23
507.81	428.32
507.98	451.72
508.16	322.99
508.33	428.32
508.50	372.15
508.68	360.44
508.85	423.64
509.03	421.30
509.20	428.32
509.38	447.04
509.55	400.23
509.73	465.77
509.90	423.64
510.08	437.68
510.25	451.72
510.42	442.36
510.60	365.12
510.77	437.68
510.95	468.11
511.12	489.17
511.30	402.57
511.47	449.38
511.64	444.70
511.82	435.34
511.99	425.98
512.17	482.15
512.34	362.78
512.51	379.17
512.69	437.68
512.86	510.24
513.04	395.55
513.21	393.21
513.38	416.62
513.56	372.15
513.73	416.62
513.90	435.34
514.08	381.51
514.25	428.32
514.43	369.80
514.60	388.53
514.77	404.91
514.95	344.06
515.12	411.93
515.29	400.23
515.47	458.74
515.64	510.24
515.81	346.40
515.99	369.80
516.16	404.91
516.33	442.36
516.51	400.23
516.68	379.17
516.85	411.93
517.03	416.62
517.20	381.51
517.37	386.19
517.54	423.64
517.72	365.12
517.89	379.17
518.06	348.74
518.24	423.64
518.41	444.70
518.58	421.30
518.75	400.23
518.93	367.46
519.10	409.59
519.27	395.55
519.45	414.27
519.62	425.98
519.79	435.34
519.96	395.55
520.14	433.00
520.31	463.43
520.48	421.30
520.65	428.32
520.83	400.23
521.00	437.68
521.17	409.59
521.34	386.19
521.52	437.68
521.69	395.55
521.86	407.25
522.03	430.66
522.20	440.02
522.38	344.06
522.55	353.42
522.72	407.25
522.89	440.02
523.07	479.81
523.24	430.66
523.41	409.59
523.58	379.17
523.75	411.93
523.92	390.87
524.10	442.36
524.27	332.36
524.44	393.21
524.61	475.13
524.78	414.27
524.96	430.66
525.13	407.25
525.30	409.59
525.47	430.66
525.64	416.62
525.81	379.17
525.98	383.85
526.16	418.96
526.33	379.17
526.50	397.89
526.67	400.23
526.84	379.17
527.01	423.64
527.18	461.09
527.36	507.90
527.53	423.64
527.70	458.74
527.87	397.89
528.04	451.72
528.21	351.08
528.38	414.27
528.55	463.43
528.72	409.59
528.89	430.66
529.07	374.49
529.24	458.74
529.41	477.47
529.58	416.62
529.75	437.68
529.92	409.59
530.09	402.57
530.26	421.30
530.43	493.85
530.60	351.08
530.77	428.32
530.94	374.49
531.11	388.53
531.28	463.43
531.46	454.06
531.63	435.34
531.80	444.70
531.97	500.87
532.14	404.91
532.31	390.87
532.48	433.00
532.65	442.36
532.82	353.42
532.99	435.34
533.16	458.74
533.33	489.17
533.50	421.30
533.67	409.59
533.84	463.43
534.01	402.57
534.18	395.55
534.35	428.32
534.52	465.77
534.69	383.85
534.86	428.32
535.03	421.30
535.20	372.15
535.37	327.68
535.54	500.87
535.71	379.17
535.88	444.70
536.05	365.12
536.22	386.19
536.38	311.29
536.55	458.74
536.72	418.96
536.89	456.40
537.06	409.59
537.23	355.76
537.40	416.62
537.57	381.51
537.74	416.62
537.91	367.46
538.08	447.04
538.25	400.23
538.42	510.24
538.59	461.09
538.75	360.44
538.92	400.23
539.09	486.83
539.26	379.17
539.43	465.77
539.60	390.87
539.77	388.53
539.94	383.85
540.11	484.49
540.28	458.74
540.44	440.02
540.61	519.60
540.78	374.49
540.95	383.85
541.12	456.40
541.29	440.02
541.46	461.09
541.62	390.87
541.79	402.57
541.96	411.93
542.13	430.66
542.30	374.49
542.47	425.98
542.63	388.53
542.80	404.91
542.97	400.23
543.14	397.89
543.31	442.36
543.48	360.44
543.64	498.53
543.81	409.59
543.98	365.12
544.15	397.89
544.32	491.51
544.48	395.55
544.65	395.55
544.82	416.62
544.99	411.93
545.16	386.19
545.32	395.55
545.49	472.79
545.66	418.96
545.83	404.91
546.00	369.80
546.16	365.12
546.33	449.38
546.50	388.53
546.67	444.70
546.83	482.15
547.00	447.04
547.17	430.66
547.34	383.85
547.50	440.02
547.67	428.32
547.84	463.43
548.00	440.02
548.17	393.21
548.34	442.36
548.51	458.74
548.67	414.27
548.84	435.34
549.01	428.32
549.18	409.59
549.34	425.98
549.51	433.00
549.68	351.08
549.84	407.25
550.01	428.32
550.18	491.51
550.34	423.64
550.51	470.45
550.68	468.11
550.84	437.68
551.01	456.40
551.18	416.62
551.34	381.51
551.51	416.62
551.68	404.91
551.84	472.79
552.01	358.10
552.18	421.30
552.34	454.06
552.51	477.47
552.68	428.32
552.84	404.91
553.01	395.55
553.18	456.40
553.34	423.64
553.51	386.19
553.67	482.15
553.84	449.38
554.01	470.45
554.17	440.02
554.34	402.57
554.51	404.91
554.67	425.98
554.84	414.27
555.00	416.62
555.17	433.00
555.33	433.00
555.50	451.72
555.67	433.00
555.83	428.32
556.00	435.34
556.16	514.92
556.33	458.74
556.50	428.32
556.66	395.55
556.83	444.70
556.99	360.44
557.16	379.17
557.32	414.27
557.49	442.36
557.65	428.32
557.82	360.44
557.98	400.23
558.15	440.02
558.32	414.27
558.48	353.42
558.65	402.57
558.81	414.27
558.98	416.62
559.14	465.77
559.31	421.30
559.47	423.64
559.64	449.38
559.80	407.25
559.97	440.02
560.13	482.15
560.30	456.40
560.46	404.91
560.63	423.64
560.79	423.64
560.96	435.34
561.12	414.27
561.29	402.57
561.45	425.98
561.61	388.53
561.78	468.11
561.94	400.23
562.11	369.80
562.27	376.83
562.44	421.30
562.60	407.25
562.77	390.87
562.93	498.53
563.10	444.70
563.26	468.11
563.42	372.15
563.59	428.32
563.75	418.96
563.92	447.04
564.08	418.96
564.24	390.87
564.41	421.30
564.57	355.76
564.74	435.34
564.90	404.91
565.07	407.25
565.23	395.55
565.39	423.64
565.56	437.68
565.72	372.15
565.88	428.32
566.05	379.17
566.21	362.78
566.38	421.30
566.54	397.89
566.70	444.70
566.87	388.53
567.03	411.93
567.19	407.25
567.36	444.70
567.52	440.02
567.68	400.23
567.85	409.59
568.01	376.83
568.17	407.25
568.34	379.17
568.50	418.96
568.66	330.02
568.83	479.81
568.99	425.98
569.15	388.53
569.32	454.06
569.48	383.85
569.64	454.06
569.81	388.53
569.97	423.64
570.13	440.02
570.30	423.64
570.46	437.68
570.62	472.79
570.78	421.30
570.95	386.19
571.11	482.15
571.27	463.43
571.43	374.49
571.60	397.89
571.76	430.66
571.92	433.00
572.09	447.04
572.25	367.46
572.41	372.15
572.57	428.32
572.74	418.96
572.90	491.51
573.06	397.89
573.22	433.00
573.38	477.47
573.55	496.19
573.71	472.79
573.87	388.53
574.03	423.64
574.20	374.49
574.36	409.59
574.52	407.25
574.68	367.46
574.84	479.81
575.01	362.78
575.17	416.62
575.33	379.17
575.49	489.17
575.65	386.19
575.82	414.27
575.98	465.77
576.14	374.49
576.30	372.15
576.46	409.59
576.62	414.27
576.79	479.81
576.95	414.27
577.11	372.15
577.27	369.80
577.43	482.15
577.59	435.34
577.75	456.40
577.92	367.46
578.08	327.68
578.24	383.85
578.40	456.40
578.56	423.64
578.72	430.66
578.88	437.68
579.04	451.72
579.21	379.17
579.37	430.66
579.53	472.79
579.69	500.87
579.85	379.17
580.01	400.23
580.17	409.59
580.33	458.74
580.49	475.13
580.65	486.83
580.82	437.68
580.98	486.83
581.14	430.66
581.30	433.00
581.46	386.19
581.62	379.17
581.78	337.04
581.94	454.06
582.10	395.55
582.26	404.91
582.42	348.74
582.58	383.85
582.74	449.38
582.90	397.89
583.06	437.68
583.22	430.66
583.38	407.25
583.54	489.17
583.70	395.55
583.86	404.91
584.02	395.55
584.18	477.47
584.34	435.34
584.50	367.46
584.66	320.65
584.82	395.55
584.98	465.77
585.14	418.96
585.30	418.96
585.46	519.60
585.62	404.91
585.78	315.97
585.94	447.04
586.10	437.68
586.26	458.74
586.42	456.40
586.58	447.04
586.74	465.77
586.90	379.17
587.06	390.87
587.22	365.12
587.38	369.80
587.54	358.10
587.70	409.59
587.86	400.23
588.02	400.23
588.18	433.00
588.34	433.00
588.49	435.34
588.65	421.30
588.81	454.06
588.97	341.72
589.13	416.62
589.29	402.57
589.45	423.64
589.61	421.30
589.77	411.93
589.93	386.19
590.08	430.66
590.24	383.85
590.40	341.72
590.56	372.15
590.72	404.91
590.88	451.72
591.04	416.62
591.20	411.93
591.35	491.51
591.51	388.53
591.67	388.53
591.83	365.12
591.99	397.89
592.15	416.62
592.31	383.85
592.46	400.23
592.62	451.72
592.78	374.49
592.94	423.64
593.10	388.53
593.26	414.27
593.41	421.30
593.57	381.51
593.73	435.34
593.89	475.13
594.05	414.27
594.20	421.30
594.36	407.25
594.52	416.62
594.68	393.21
594.84	414.27
594.99	414.27
595.15	421.30
595.31	465.77
595.47	442.36
595.62	402.57
595.78	395.55
595.94	428.32
596.10	418.96
596.25	418.96
596.41	411.93
596.57	330.02
596.73	367.46
596.88	348.74
597.04	395.55
597.20	416.62
597.36	418.96
597.51	428.32
597.67	449.38
597.83	376.83
597.99	493.85
598.14	454.06
598.30	500.87
598.46	470.45
598.61	430.66
598.77	402.57
598.93	372.15
599.09	358.10
599.24	376.83
599.40	465.77
599.56	440.02
599.71	500.87
599.87	447.04
600.03	386.19
600.18	498.53
600.34	414.27
600.50	425.98
600.65	454.06
600.81	447.04
600.97	402.57
601.12	437.68
601.28	414.27
601.44	428.32
601.59	463.43
601.75	407.25
601.91	421.30
602.06	425.98
602.22	383.85
602.37	465.77
602.53	393.21
602.69	430.66
602.84	421.30
603.00	425.98
603.16	454.06
603.31	454.06
603.47	416.62
603.62	416.62
603.78	433.00
603.94	430.66
604.09	440.02
604.25	449.38
604.40	463.43
604.56	435.34
604.71	461.09
604.87	421.30
605.03	400.23
605.18	475.13
605.34	447.04
605.49	430.66
605.65	381.51
605.80	358.10
605.96	376.83
606.12	395.55
606.27	425.98
606.43	524.28
606.58	411.93
606.74	433.00
606.89	386.19
607.05	458.74
607.20	442.36
607.36	383.85
607.51	330.02
607.67	388.53
607.82	383.85
607.98	435.34
608.13	386.19
608.29	393.21
608.44	425.98
608.60	418.96
608.75	425.98
608.91	416.62
609.06	390.87
609.22	409.59
609.37	395.55
609.53	449.38
609.68	528.96
609.84	449.38
609.99	393.21
610.15	386.19
