SpectraSuite Data File
++++++++++++++++++++++++++++++++++++
Date: Fri Oct 25 12:11:27 EDT 2013
User: price-jones
Dark Spectrum Present: No
Reference Spectrum Present: No
Number of Sampled Component Spectra: 1
Spectrometers: USB2+H05261
Integration Time (usec): 100000 (USB2+H05261)
Spectra Averaged: 1 (USB2+H05261)
Boxcar Smoothing: 0 (USB2+H05261)
Correct for Electrical Dark: No (USB2+H05261)
Strobe/Lamp Enabled: No (USB2+H05261)
Correct for Detector Non-linearity: No (USB2+H05261)
Correct for Stray Light: No (USB2+H05261)
Number of Pixels in Processed Spectrum: 2048
>>>>>Begin Processed Spectral Data<<<<<
365.73	388.53
365.92	388.53
366.12	388.53
366.32	238.73
366.52	243.42
366.72	255.12
366.91	210.65
367.11	187.24
367.31	283.20
367.51	262.14
367.70	285.55
367.90	271.50
368.10	290.23
368.30	273.84
368.49	173.20
368.69	229.37
368.89	245.76
369.09	250.44
369.28	299.59
369.48	322.99
369.68	367.46
369.87	262.14
370.07	245.76
370.27	351.08
370.47	318.31
370.66	320.65
370.86	292.57
371.06	395.55
371.25	381.51
371.45	327.68
371.65	418.96
371.84	372.15
372.04	379.17
372.24	360.44
372.44	447.04
372.63	407.25
372.83	414.27
373.03	416.62
373.22	421.30
373.42	418.96
373.62	437.68
373.81	407.25
374.01	395.55
374.21	433.00
374.40	430.66
374.60	418.96
374.79	337.04
374.99	409.59
375.19	425.98
375.38	416.62
375.58	472.79
375.78	465.77
375.97	411.93
376.17	430.66
376.37	372.15
376.56	395.55
376.76	367.46
376.95	388.53
377.15	383.85
377.35	458.74
377.54	479.81
377.74	430.66
377.93	440.02
378.13	409.59
378.33	463.43
378.52	386.19
378.72	482.15
378.91	477.47
379.11	451.72
379.31	484.49
379.50	388.53
379.70	416.62
379.89	465.77
380.09	425.98
380.28	454.06
380.48	468.11
380.68	409.59
380.87	381.51
381.07	367.46
381.26	397.89
381.46	390.87
381.65	425.98
381.85	407.25
382.04	348.74
382.24	344.06
382.43	395.55
382.63	390.87
382.83	390.87
383.02	425.98
383.22	440.02
383.41	386.19
383.61	407.25
383.80	444.70
384.00	386.19
384.19	395.55
384.39	411.93
384.58	360.44
384.78	374.49
384.97	409.59
385.17	374.49
385.36	395.55
385.56	402.57
385.75	463.43
385.95	428.32
386.14	374.49
386.34	397.89
386.53	369.80
386.72	358.10
386.92	428.32
387.11	442.36
387.31	372.15
387.50	454.06
387.70	367.46
387.89	362.78
388.09	308.95
388.28	402.57
388.48	416.62
388.67	461.09
388.86	425.98
389.06	383.85
389.25	404.91
389.45	365.12
389.64	411.93
389.84	437.68
390.03	433.00
390.22	379.17
390.42	428.32
390.61	360.44
390.81	404.91
391.00	430.66
391.19	365.12
391.39	393.21
391.58	411.93
391.78	430.66
391.97	425.98
392.16	397.89
392.36	397.89
392.55	449.38
392.75	449.38
392.94	416.62
393.13	393.21
393.33	358.10
393.52	407.25
393.71	411.93
393.91	402.57
394.10	390.87
394.29	376.83
394.49	369.80
394.68	388.53
394.88	383.85
395.07	376.83
395.26	423.64
395.46	414.27
395.65	400.23
395.84	428.32
396.04	538.32
396.23	386.19
396.42	423.64
396.62	433.00
396.81	491.51
397.00	437.68
397.19	407.25
397.39	386.19
397.58	458.74
397.77	404.91
397.97	327.68
398.16	442.36
398.35	435.34
398.55	428.32
398.74	416.62
398.93	411.93
399.12	381.51
399.32	475.13
399.51	386.19
399.70	416.62
399.90	437.68
400.09	365.12
400.28	435.34
400.47	388.53
400.67	444.70
400.86	379.17
401.05	411.93
401.24	498.53
401.44	411.93
401.63	386.19
401.82	388.53
402.01	423.64
402.21	435.34
402.40	395.55
402.59	360.44
402.78	365.12
402.97	414.27
403.17	414.27
403.36	411.93
403.55	461.09
403.74	428.32
403.93	414.27
404.13	437.68
404.32	376.83
404.51	395.55
404.70	402.57
404.89	505.56
405.09	418.96
405.28	379.17
405.47	369.80
405.66	435.34
405.85	430.66
406.05	383.85
406.24	395.55
406.43	416.62
406.62	463.43
406.81	484.49
407.00	358.10
407.20	456.40
407.39	409.59
407.58	374.49
407.77	447.04
407.96	325.33
408.15	433.00
408.34	362.78
408.54	395.55
408.73	451.72
408.92	374.49
409.11	374.49
409.30	491.51
409.49	414.27
409.68	411.93
409.87	435.34
410.07	416.62
410.26	383.85
410.45	400.23
410.64	449.38
410.83	416.62
411.02	365.12
411.21	470.45
411.40	402.57
411.59	461.09
411.78	435.34
411.98	440.02
412.17	374.49
412.36	421.30
412.55	423.64
412.74	454.06
412.93	421.30
413.12	390.87
413.31	433.00
413.50	449.38
413.69	414.27
413.88	414.27
414.07	451.72
414.26	454.06
414.45	428.32
414.64	379.17
414.83	411.93
415.02	479.81
415.22	383.85
415.41	402.57
415.60	397.89
415.79	409.59
415.98	376.83
416.17	428.32
416.36	374.49
416.55	365.12
416.74	472.79
416.93	418.96
417.12	416.62
417.31	365.12
417.50	388.53
417.69	461.09
417.88	341.72
418.07	381.51
418.26	390.87
418.45	369.80
418.64	486.83
418.83	383.85
419.02	358.10
419.21	442.36
419.39	369.80
419.58	327.68
419.77	355.76
419.96	444.70
420.15	451.72
420.34	486.83
420.53	372.15
420.72	407.25
420.91	379.17
421.10	463.43
421.29	430.66
421.48	428.32
421.67	388.53
421.86	404.91
422.05	367.46
422.24	369.80
422.43	430.66
422.61	393.21
422.80	362.78
422.99	344.06
423.18	447.04
423.37	468.11
423.56	444.70
423.75	461.09
423.94	435.34
424.13	465.77
424.32	414.27
424.50	437.68
424.69	400.23
424.88	390.87
425.07	397.89
425.26	379.17
425.45	365.12
425.64	416.62
425.83	414.27
426.01	421.30
426.20	454.06
426.39	376.83
426.58	404.91
426.77	418.96
426.96	423.64
427.15	475.13
427.33	367.46
427.52	451.72
427.71	437.68
427.90	402.57
428.09	383.85
428.28	362.78
428.46	409.59
428.65	428.32
428.84	332.36
429.03	437.68
429.22	409.59
429.40	416.62
429.59	397.89
429.78	337.04
429.97	407.25
430.16	386.19
430.34	433.00
430.53	362.78
430.72	393.21
430.91	393.21
431.10	372.15
431.28	442.36
431.47	477.47
431.66	402.57
431.85	421.30
432.03	456.40
432.22	512.58
432.41	330.02
432.60	397.89
432.79	386.19
432.97	383.85
433.16	386.19
433.35	421.30
433.54	411.93
433.72	479.81
433.91	442.36
434.10	372.15
434.28	456.40
434.47	409.59
434.66	386.19
434.85	381.51
435.03	433.00
435.22	451.72
435.41	414.27
435.59	381.51
435.78	395.55
435.97	397.89
436.16	437.68
436.34	456.40
436.53	454.06
436.72	465.77
436.90	425.98
437.09	411.93
437.28	437.68
437.46	411.93
437.65	472.79
437.84	393.21
438.02	454.06
438.21	402.57
438.40	365.12
438.58	411.93
438.77	447.04
438.96	376.83
439.14	418.96
439.33	376.83
439.52	358.10
439.70	390.87
439.89	456.40
440.08	374.49
440.26	386.19
440.45	472.79
440.63	393.21
440.82	404.91
441.01	421.30
441.19	442.36
441.38	447.04
441.57	454.06
441.75	430.66
441.94	475.13
442.12	369.80
442.31	367.46
442.50	430.66
442.68	465.77
442.87	442.36
443.05	362.78
443.24	351.08
443.43	454.06
443.61	386.19
443.80	355.76
443.98	386.19
444.17	397.89
444.35	454.06
444.54	416.62
444.73	454.06
444.91	395.55
445.10	418.96
445.28	402.57
445.47	369.80
445.65	416.62
445.84	447.04
446.02	355.76
446.21	376.83
446.39	386.19
446.58	444.70
446.77	381.51
446.95	465.77
447.14	393.21
447.32	369.80
447.51	397.89
447.69	440.02
447.88	362.78
448.06	393.21
448.25	376.83
448.43	479.81
448.62	404.91
448.80	454.06
448.99	451.72
449.17	470.45
449.36	433.00
449.54	411.93
449.73	498.53
449.91	442.36
450.10	435.34
450.28	482.15
450.46	454.06
450.65	442.36
450.83	409.59
451.02	449.38
451.20	449.38
451.39	397.89
451.57	423.64
451.76	390.87
451.94	411.93
452.13	397.89
452.31	472.79
452.49	402.57
452.68	386.19
452.86	400.23
453.05	346.40
453.23	402.57
453.42	388.53
453.60	409.59
453.78	388.53
453.97	379.17
454.15	386.19
454.34	440.02
454.52	379.17
454.70	437.68
454.89	493.85
455.07	365.12
455.26	414.27
455.44	454.06
455.62	451.72
455.81	435.34
455.99	374.49
456.17	456.40
456.36	430.66
456.54	425.98
456.73	430.66
456.91	383.85
457.09	369.80
457.28	472.79
457.46	416.62
457.64	376.83
457.83	404.91
458.01	414.27
458.19	374.49
458.38	493.85
458.56	421.30
458.74	353.42
458.93	461.09
459.11	348.74
459.29	383.85
459.48	442.36
459.66	482.15
459.84	447.04
460.03	475.13
460.21	444.70
460.39	454.06
460.57	425.98
460.76	365.12
460.94	381.51
461.12	472.79
461.31	491.51
461.49	440.02
461.67	388.53
461.85	411.93
462.04	332.36
462.22	727.91
462.40	411.93
462.59	393.21
462.77	433.00
462.95	372.15
463.13	421.30
463.32	416.62
463.50	393.21
463.68	414.27
463.86	428.32
464.05	374.49
464.23	433.00
464.41	484.49
464.59	440.02
464.78	463.43
464.96	425.98
465.14	437.68
465.32	475.13
465.50	388.53
465.69	472.79
465.87	383.85
466.05	421.30
466.23	428.32
466.41	449.38
466.60	390.87
466.78	472.79
466.96	425.98
467.14	425.98
467.32	447.04
467.51	386.19
467.69	411.93
467.87	458.74
468.05	374.49
468.23	414.27
468.41	404.91
468.60	372.15
468.78	393.21
468.96	360.44
469.14	430.66
469.32	423.64
469.50	465.77
469.69	367.46
469.87	414.27
470.05	383.85
470.23	400.23
470.41	372.15
470.59	479.81
470.77	477.47
470.95	421.30
471.14	517.26
471.32	308.95
471.50	395.55
471.68	447.04
471.86	386.19
472.04	397.89
472.22	442.36
472.40	421.30
472.58	386.19
472.77	433.00
472.95	484.49
473.13	423.64
473.31	454.06
473.49	393.21
473.67	397.89
473.85	409.59
474.03	409.59
474.21	395.55
474.39	379.17
474.57	514.92
474.75	435.34
474.93	423.64
475.12	418.96
475.30	395.55
475.48	451.72
475.66	433.00
475.84	381.51
476.02	468.11
476.20	395.55
476.38	376.83
476.56	402.57
476.74	397.89
476.92	381.51
477.10	437.68
477.28	381.51
477.46	418.96
477.64	421.30
477.82	351.08
478.00	425.98
478.18	395.55
478.36	390.87
478.54	411.93
478.72	360.44
478.90	468.11
479.08	416.62
479.26	418.96
479.44	456.40
479.62	383.85
479.80	437.68
479.98	390.87
480.16	435.34
480.34	433.00
480.52	437.68
480.70	437.68
480.88	414.27
481.06	435.34
481.24	376.83
481.41	425.98
481.59	395.55
481.77	383.85
481.95	437.68
482.13	468.11
482.31	423.64
482.49	428.32
482.67	400.23
482.85	442.36
483.03	454.06
483.21	456.40
483.39	395.55
483.57	458.74
483.74	362.78
483.92	388.53
484.10	442.36
484.28	465.77
484.46	411.93
484.64	416.62
484.82	416.62
485.00	435.34
485.18	374.49
485.35	425.98
485.53	440.02
485.71	491.51
485.89	411.93
486.07	414.27
486.25	428.32
486.43	400.23
486.61	435.34
486.78	507.90
486.96	425.98
487.14	369.80
487.32	365.12
487.50	376.83
487.68	365.12
487.85	454.06
488.03	386.19
488.21	381.51
488.39	367.46
488.57	437.68
488.75	416.62
488.92	475.13
489.10	421.30
489.28	479.81
489.46	404.91
489.64	447.04
489.81	358.10
489.99	381.51
490.17	388.53
490.35	400.23
490.53	447.04
490.70	390.87
490.88	428.32
491.06	416.62
491.24	411.93
491.41	430.66
491.59	421.30
491.77	423.64
491.95	348.74
492.13	428.32
492.30	477.47
492.48	404.91
492.66	451.72
492.84	416.62
493.01	425.98
493.19	444.70
493.37	486.83
493.54	344.06
493.72	339.38
493.90	395.55
494.08	390.87
494.25	402.57
494.43	407.25
494.61	393.21
494.79	397.89
494.96	425.98
495.14	416.62
495.32	397.89
495.49	479.81
495.67	444.70
495.85	369.80
496.02	458.74
496.20	437.68
496.38	402.57
496.55	437.68
496.73	395.55
496.91	428.32
497.09	381.51
497.26	393.21
497.44	425.98
497.62	454.06
497.79	470.45
497.97	433.00
498.14	468.11
498.32	444.70
498.50	395.55
498.67	430.66
498.85	411.93
499.03	418.96
499.20	414.27
499.38	404.91
499.56	379.17
499.73	489.17
499.91	465.77
500.08	435.34
500.26	421.30
500.44	330.02
500.61	404.91
500.79	402.57
500.97	393.21
501.14	404.91
501.32	425.98
501.49	477.47
501.67	397.89
501.84	416.62
502.02	374.49
502.20	449.38
502.37	482.15
502.55	411.93
502.72	393.21
502.90	475.13
503.07	411.93
503.25	418.96
503.43	402.57
503.60	430.66
503.78	414.27
503.95	390.87
504.13	437.68
504.30	376.83
504.48	395.55
504.65	500.87
504.83	470.45
505.01	414.27
505.18	475.13
505.36	386.19
505.53	402.57
505.71	393.21
505.88	423.64
506.06	489.17
506.23	435.34
506.41	395.55
506.58	365.12
506.76	395.55
506.93	463.43
507.11	463.43
507.28	437.68
507.46	404.91
507.63	463.43
507.81	461.09
507.98	423.64
508.16	454.06
508.33	407.25
508.50	416.62
508.68	383.85
508.85	430.66
509.03	433.00
509.20	428.32
509.38	414.27
509.55	458.74
509.73	454.06
509.90	458.74
510.08	393.21
510.25	447.04
510.42	425.98
510.60	404.91
510.77	433.00
510.95	507.90
511.12	411.93
511.30	425.98
511.47	383.85
511.64	477.47
511.82	433.00
511.99	381.51
512.17	411.93
512.34	388.53
512.51	468.11
512.69	402.57
512.86	404.91
513.04	442.36
513.21	386.19
513.38	414.27
513.56	353.42
513.73	372.15
513.90	423.64
514.08	397.89
514.25	430.66
514.43	468.11
514.60	367.46
514.77	456.40
514.95	477.47
515.12	402.57
515.29	397.89
515.47	358.10
515.64	402.57
515.81	376.83
515.99	435.34
516.16	468.11
516.33	440.02
516.51	411.93
516.68	433.00
516.85	411.93
517.03	416.62
517.20	489.17
517.37	362.78
517.54	372.15
517.72	358.10
517.89	379.17
518.06	381.51
518.24	463.43
518.41	437.68
518.58	402.57
518.75	393.21
518.93	344.06
519.10	374.49
519.27	416.62
519.45	379.17
519.62	400.23
519.79	444.70
519.96	355.76
520.14	433.00
520.31	386.19
520.48	379.17
520.65	362.78
520.83	353.42
521.00	444.70
521.17	395.55
521.34	425.98
521.52	388.53
521.69	383.85
521.86	388.53
522.03	402.57
522.20	472.79
522.38	402.57
522.55	351.08
522.72	430.66
522.89	433.00
523.07	440.02
523.24	454.06
523.41	367.46
523.58	404.91
523.75	444.70
523.92	423.64
524.10	451.72
524.27	416.62
524.44	411.93
524.61	407.25
524.78	383.85
524.96	524.28
525.13	386.19
525.30	447.04
525.47	407.25
525.64	423.64
525.81	411.93
525.98	447.04
526.16	407.25
526.33	327.68
526.50	365.12
526.67	365.12
526.84	414.27
527.01	386.19
527.18	414.27
527.36	472.79
527.53	404.91
527.70	435.34
527.87	430.66
528.04	400.23
528.21	454.06
528.38	442.36
528.55	400.23
528.72	472.79
528.89	493.85
529.07	451.72
529.24	482.15
529.41	407.25
529.58	416.62
529.75	414.27
529.92	430.66
530.09	327.68
530.26	390.87
530.43	402.57
530.60	400.23
530.77	381.51
530.94	468.11
531.11	418.96
531.28	395.55
531.46	388.53
531.63	423.64
531.80	493.85
531.97	369.80
532.14	381.51
532.31	500.87
532.48	428.32
532.65	463.43
532.82	358.10
532.99	433.00
533.16	463.43
533.33	463.43
533.50	447.04
533.67	447.04
533.84	468.11
534.01	472.79
534.18	479.81
534.35	447.04
534.52	458.74
534.69	425.98
534.86	468.11
535.03	444.70
535.20	395.55
535.37	454.06
535.54	369.80
535.71	315.97
535.88	397.89
536.05	411.93
536.22	402.57
536.38	353.42
536.55	430.66
536.72	379.17
536.89	393.21
537.06	418.96
537.23	395.55
537.40	472.79
537.57	489.17
537.74	437.68
537.91	383.85
538.08	433.00
538.25	428.32
538.42	395.55
538.59	435.34
538.75	334.70
538.92	395.55
539.09	374.49
539.26	383.85
539.43	404.91
539.60	425.98
539.77	540.66
539.94	388.53
540.11	421.30
540.28	386.19
540.44	437.68
540.61	409.59
540.78	407.25
540.95	395.55
541.12	545.34
541.29	397.89
541.46	456.40
541.62	433.00
541.79	374.49
541.96	358.10
542.13	369.80
542.30	393.21
542.47	440.02
542.63	418.96
542.80	463.43
542.97	456.40
543.14	423.64
543.31	433.00
543.48	397.89
543.64	512.58
543.81	376.83
543.98	339.38
544.15	440.02
544.32	414.27
544.48	465.77
544.65	461.09
544.82	379.17
544.99	451.72
545.16	442.36
545.32	400.23
545.49	442.36
545.66	423.64
545.83	390.87
546.00	411.93
546.16	365.12
546.33	414.27
546.50	421.30
546.67	400.23
546.83	440.02
547.00	400.23
547.17	407.25
547.34	425.98
547.50	395.55
547.67	510.24
547.84	421.30
548.00	421.30
548.17	433.00
548.34	435.34
548.51	430.66
548.67	379.17
548.84	383.85
549.01	496.19
549.18	458.74
549.34	388.53
549.51	414.27
549.68	404.91
549.84	461.09
550.01	435.34
550.18	442.36
550.34	428.32
550.51	411.93
550.68	498.53
550.84	374.49
551.01	430.66
551.18	449.38
551.34	365.12
551.51	430.66
551.68	369.80
551.84	447.04
552.01	397.89
552.18	411.93
552.34	451.72
552.51	421.30
552.68	421.30
552.84	407.25
553.01	383.85
553.18	465.77
553.34	442.36
553.51	425.98
553.67	416.62
553.84	468.11
554.01	489.17
554.17	475.13
554.34	294.91
554.51	397.89
554.67	407.25
554.84	435.34
555.00	465.77
555.17	358.10
555.33	425.98
555.50	449.38
555.67	456.40
555.83	407.25
556.00	395.55
556.16	573.43
556.33	465.77
556.50	418.96
556.66	451.72
556.83	454.06
556.99	463.43
557.16	423.64
557.32	379.17
557.49	379.17
557.65	411.93
557.82	435.34
557.98	503.22
558.15	428.32
558.32	416.62
558.48	372.15
558.65	433.00
558.81	416.62
558.98	397.89
559.14	442.36
559.31	477.47
559.47	365.12
559.64	376.83
559.80	418.96
559.97	416.62
560.13	400.23
560.30	409.59
560.46	376.83
560.63	479.81
560.79	362.78
560.96	414.27
561.12	468.11
561.29	430.66
561.45	447.04
561.61	390.87
561.78	512.58
561.94	416.62
562.11	397.89
562.27	430.66
562.44	409.59
562.60	451.72
562.77	383.85
562.93	442.36
563.10	388.53
563.26	482.15
563.42	435.34
563.59	402.57
563.75	444.70
563.92	447.04
564.08	461.09
564.24	444.70
564.41	486.83
564.57	379.17
564.74	407.25
564.90	348.74
565.07	514.92
565.23	454.06
565.39	397.89
565.56	496.19
565.72	449.38
565.88	442.36
566.05	390.87
566.21	435.34
566.38	381.51
566.54	449.38
566.70	381.51
566.87	425.98
567.03	411.93
567.19	416.62
567.36	397.89
567.52	409.59
567.68	346.40
567.85	355.76
568.01	416.62
568.17	425.98
568.34	388.53
568.50	461.09
568.66	376.83
568.83	435.34
568.99	353.42
569.15	418.96
569.32	428.32
569.48	454.06
569.64	416.62
569.81	423.64
569.97	397.89
570.13	433.00
570.30	376.83
570.46	472.79
570.62	395.55
570.78	379.17
570.95	386.19
571.11	449.38
571.27	402.57
571.43	388.53
571.60	449.38
571.76	430.66
571.92	444.70
572.09	444.70
572.25	367.46
572.41	418.96
572.57	489.17
572.74	404.91
572.90	449.38
573.06	428.32
573.22	442.36
573.38	444.70
573.55	479.81
573.71	376.83
573.87	407.25
574.03	400.23
574.20	397.89
574.36	400.23
574.52	421.30
574.68	409.59
574.84	472.79
575.01	397.89
575.17	461.09
575.33	421.30
575.49	475.13
575.65	491.51
575.82	423.64
575.98	458.74
576.14	390.87
576.30	421.30
576.46	430.66
576.62	449.38
576.79	369.80
576.95	444.70
577.11	489.17
577.27	414.27
577.43	465.77
577.59	421.30
577.75	484.49
577.92	454.06
578.08	418.96
578.24	461.09
578.40	440.02
578.56	404.91
578.72	374.49
578.88	454.06
579.04	397.89
579.21	383.85
579.37	444.70
579.53	489.17
579.69	425.98
579.85	475.13
580.01	461.09
580.17	425.98
580.33	430.66
580.49	397.89
580.65	461.09
580.82	374.49
580.98	402.57
581.14	393.21
581.30	421.30
581.46	472.79
581.62	341.72
581.78	435.34
581.94	458.74
582.10	423.64
582.26	358.10
582.42	393.21
582.58	386.19
582.74	409.59
582.90	411.93
583.06	404.91
583.22	402.57
583.38	454.06
583.54	407.25
583.70	430.66
583.86	425.98
584.02	351.08
584.18	400.23
584.34	414.27
584.50	367.46
584.66	418.96
584.82	346.40
584.98	435.34
585.14	407.25
585.30	425.98
585.46	351.08
585.62	397.89
585.78	372.15
585.94	393.21
586.10	437.68
586.26	358.10
586.42	461.09
586.58	433.00
586.74	430.66
586.90	411.93
587.06	423.64
587.22	407.25
587.38	435.34
587.54	409.59
587.70	470.45
587.86	503.22
588.02	465.77
588.18	402.57
588.34	428.32
588.49	365.12
588.65	486.83
588.81	393.21
588.97	355.76
589.13	425.98
589.29	416.62
589.45	409.59
589.61	430.66
589.77	447.04
589.93	393.21
590.08	477.47
590.24	395.55
590.40	482.15
590.56	393.21
590.72	440.02
590.88	404.91
591.04	484.49
591.20	414.27
591.35	390.87
591.51	442.36
591.67	362.78
591.83	414.27
591.99	360.44
592.15	418.96
592.31	388.53
592.46	496.19
592.62	414.27
592.78	433.00
592.94	416.62
593.10	521.94
593.26	407.25
593.41	397.89
593.57	393.21
593.73	397.89
593.89	411.93
594.05	428.32
594.20	376.83
594.36	442.36
594.52	400.23
594.68	390.87
594.84	369.80
594.99	437.68
595.15	404.91
595.31	425.98
595.47	444.70
595.62	388.53
595.78	372.15
595.94	451.72
596.10	416.62
596.25	493.85
596.41	510.24
596.57	456.40
596.73	404.91
596.88	421.30
597.04	425.98
597.20	404.91
597.36	521.94
597.51	367.46
597.67	344.06
597.83	416.62
597.99	348.74
598.14	444.70
598.30	451.72
598.46	435.34
598.61	437.68
598.77	437.68
598.93	390.87
599.09	397.89
599.24	418.96
599.40	486.83
599.56	402.57
599.71	327.68
599.87	393.21
600.03	407.25
600.18	477.47
600.34	397.89
600.50	337.04
600.65	353.42
600.81	332.36
600.97	411.93
601.12	395.55
601.28	463.43
601.44	397.89
601.59	402.57
601.75	484.49
601.91	400.23
602.06	514.92
602.22	498.53
602.37	388.53
602.53	353.42
602.69	454.06
602.84	390.87
603.00	435.34
603.16	444.70
603.31	454.06
603.47	435.34
603.62	358.10
603.78	433.00
603.94	421.30
604.09	454.06
604.25	416.62
604.40	437.68
604.56	435.34
604.71	472.79
604.87	451.72
605.03	435.34
605.18	475.13
605.34	449.38
605.49	397.89
605.65	341.72
605.80	360.44
605.96	416.62
606.12	454.06
606.27	465.77
606.43	423.64
606.58	435.34
606.74	383.85
606.89	428.32
607.05	409.59
607.20	411.93
607.36	451.72
607.51	400.23
607.67	374.49
607.82	489.17
607.98	423.64
608.13	355.76
608.29	465.77
608.44	428.32
608.60	362.78
608.75	456.40
608.91	404.91
609.06	383.85
609.22	421.30
609.37	330.02
609.53	386.19
609.68	351.08
609.84	400.23
609.99	381.51
610.15	416.62
