SpectraSuite Data File
++++++++++++++++++++++++++++++++++++
Date: Fri Oct 25 12:11:45 EDT 2013
User: price-jones
Dark Spectrum Present: No
Reference Spectrum Present: No
Number of Sampled Component Spectra: 1
Spectrometers: USB2+H05261
Integration Time (usec): 100000 (USB2+H05261)
Spectra Averaged: 1 (USB2+H05261)
Boxcar Smoothing: 0 (USB2+H05261)
Correct for Electrical Dark: No (USB2+H05261)
Strobe/Lamp Enabled: No (USB2+H05261)
Correct for Detector Non-linearity: No (USB2+H05261)
Correct for Stray Light: No (USB2+H05261)
Number of Pixels in Processed Spectrum: 2048
>>>>>Begin Processed Spectral Data<<<<<
365.73	358.10
365.92	358.10
366.12	358.10
366.32	304.27
366.52	248.10
366.72	304.27
366.91	210.65
367.11	292.57
367.31	287.89
367.51	210.65
367.70	227.03
367.90	212.99
368.10	222.35
368.30	173.20
368.49	255.12
368.69	304.27
368.89	276.18
369.09	245.76
369.28	264.48
369.48	320.65
369.68	306.61
369.87	320.65
370.07	297.25
370.27	351.08
370.47	330.02
370.66	397.89
370.86	341.72
371.06	372.15
371.25	365.12
371.45	367.46
371.65	461.09
371.84	435.34
372.04	374.49
372.24	348.74
372.44	407.25
372.63	407.25
372.83	395.55
373.03	358.10
373.22	400.23
373.42	461.09
373.62	362.78
373.81	435.34
374.01	397.89
374.21	428.32
374.40	337.04
374.60	416.62
374.79	411.93
374.99	421.30
375.19	397.89
375.38	428.32
375.58	442.36
375.78	433.00
375.97	430.66
376.17	423.64
376.37	332.36
376.56	421.30
376.76	421.30
376.95	428.32
377.15	416.62
377.35	418.96
377.54	433.00
377.74	486.83
377.93	404.91
378.13	379.17
378.33	463.43
378.52	369.80
378.72	416.62
378.91	461.09
379.11	374.49
379.31	428.32
379.50	411.93
379.70	444.70
379.89	416.62
380.09	416.62
380.28	447.04
380.48	493.85
380.68	400.23
380.87	367.46
381.07	407.25
381.26	437.68
381.46	383.85
381.65	381.51
381.85	390.87
382.04	456.40
382.24	367.46
382.43	409.59
382.63	372.15
382.83	381.51
383.02	435.34
383.22	409.59
383.41	414.27
383.61	444.70
383.80	433.00
384.00	416.62
384.19	397.89
384.39	421.30
384.58	376.83
384.78	395.55
384.97	390.87
385.17	360.44
385.36	414.27
385.56	416.62
385.75	402.57
385.95	458.74
386.14	479.81
386.34	379.17
386.53	444.70
386.72	348.74
386.92	390.87
387.11	425.98
387.31	421.30
387.50	372.15
387.70	362.78
387.89	353.42
388.09	358.10
388.28	409.59
388.48	435.34
388.67	351.08
388.86	362.78
389.06	414.27
389.25	409.59
389.45	416.62
389.64	395.55
389.84	409.59
390.03	442.36
390.22	402.57
390.42	393.21
390.61	397.89
390.81	351.08
391.00	425.98
391.19	390.87
391.39	409.59
391.58	433.00
391.78	367.46
391.97	416.62
392.16	454.06
392.36	400.23
392.55	451.72
392.75	372.15
392.94	423.64
393.13	407.25
393.33	339.38
393.52	388.53
393.71	463.43
393.91	418.96
394.10	418.96
394.29	449.38
394.49	414.27
394.68	421.30
394.88	411.93
395.07	437.68
395.26	411.93
395.46	322.99
395.65	449.38
395.84	454.06
396.04	477.47
396.23	458.74
396.42	423.64
396.62	440.02
396.81	404.91
397.00	409.59
397.19	395.55
397.39	386.19
397.58	379.17
397.77	346.40
397.97	407.25
398.16	404.91
398.35	451.72
398.55	360.44
398.74	374.49
398.93	437.68
399.12	379.17
399.32	451.72
399.51	433.00
399.70	425.98
399.90	465.77
400.09	395.55
400.28	430.66
400.47	381.51
400.67	379.17
400.86	444.70
401.05	344.06
401.24	423.64
401.44	519.60
401.63	433.00
401.82	458.74
402.01	425.98
402.21	411.93
402.40	397.89
402.59	451.72
402.78	381.51
402.97	437.68
403.17	489.17
403.36	489.17
403.55	313.63
403.74	425.98
403.93	379.17
404.13	449.38
404.32	409.59
404.51	402.57
404.70	428.32
404.89	395.55
405.09	409.59
405.28	355.76
405.47	440.02
405.66	395.55
405.85	397.89
406.05	388.53
406.24	461.09
406.43	418.96
406.62	402.57
406.81	421.30
407.00	421.30
407.20	447.04
407.39	381.51
407.58	411.93
407.77	411.93
407.96	444.70
408.15	383.85
408.34	383.85
408.54	468.11
408.73	423.64
408.92	395.55
409.11	383.85
409.30	451.72
409.49	381.51
409.68	383.85
409.87	468.11
410.07	376.83
410.26	414.27
410.45	402.57
410.64	421.30
410.83	400.23
411.02	404.91
411.21	447.04
411.40	423.64
411.59	367.46
411.78	440.02
411.98	442.36
412.17	393.21
412.36	379.17
412.55	390.87
412.74	444.70
412.93	430.66
413.12	390.87
413.31	386.19
413.50	344.06
413.69	496.19
413.88	416.62
414.07	433.00
414.26	383.85
414.45	447.04
414.64	409.59
414.83	411.93
415.02	449.38
415.22	388.53
415.41	458.74
415.60	454.06
415.79	397.89
415.98	463.43
416.17	428.32
416.36	496.19
416.55	341.72
416.74	414.27
416.93	400.23
417.12	351.08
417.31	390.87
417.50	442.36
417.69	435.34
417.88	447.04
418.07	428.32
418.26	454.06
418.45	372.15
418.64	451.72
418.83	411.93
419.02	430.66
419.21	334.70
419.39	404.91
419.58	383.85
419.77	435.34
419.96	400.23
420.15	482.15
420.34	447.04
420.53	425.98
420.72	404.91
420.91	393.21
421.10	397.89
421.29	416.62
421.48	428.32
421.67	341.72
421.86	322.99
422.05	386.19
422.24	379.17
422.43	437.68
422.61	390.87
422.80	369.80
422.99	407.25
423.18	388.53
423.37	461.09
423.56	409.59
423.75	400.23
423.94	390.87
424.13	409.59
424.32	402.57
424.50	407.25
424.69	393.21
424.88	393.21
425.07	388.53
425.26	456.40
425.45	430.66
425.64	395.55
425.83	393.21
426.01	414.27
426.20	416.62
426.39	397.89
426.58	402.57
426.77	421.30
426.96	418.96
427.15	425.98
427.33	376.83
427.52	442.36
427.71	458.74
427.90	447.04
428.09	437.68
428.28	381.51
428.46	475.13
428.65	367.46
428.84	341.72
429.03	430.66
429.22	409.59
429.40	444.70
429.59	435.34
429.78	409.59
429.97	440.02
430.16	390.87
430.34	402.57
430.53	421.30
430.72	409.59
430.91	526.62
431.10	454.06
431.28	458.74
431.47	393.21
431.66	454.06
431.85	411.93
432.03	444.70
432.22	468.11
432.41	376.83
432.60	449.38
432.79	425.98
432.97	360.44
433.16	411.93
433.35	430.66
433.54	425.98
433.72	418.96
433.91	365.12
434.10	393.21
434.28	369.80
434.47	472.79
434.66	400.23
434.85	355.76
435.03	360.44
435.22	442.36
435.41	416.62
435.59	433.00
435.78	482.15
435.97	395.55
436.16	418.96
436.34	442.36
436.53	409.59
436.72	393.21
436.90	433.00
437.09	374.49
437.28	447.04
437.46	421.30
437.65	386.19
437.84	416.62
438.02	491.51
438.21	435.34
438.40	418.96
438.58	477.47
438.77	383.85
438.96	404.91
439.14	442.36
439.33	433.00
439.52	400.23
439.70	433.00
439.89	425.98
440.08	407.25
440.26	430.66
440.45	491.51
440.63	381.51
440.82	393.21
441.01	430.66
441.19	428.32
441.38	435.34
441.57	390.87
441.75	388.53
441.94	444.70
442.12	397.89
442.31	348.74
442.50	430.66
442.68	409.59
442.87	409.59
443.05	437.68
443.24	407.25
443.43	390.87
443.61	447.04
443.80	383.85
443.98	470.45
444.17	486.83
444.35	444.70
444.54	444.70
444.73	475.13
444.91	437.68
445.10	372.15
445.28	393.21
445.47	390.87
445.65	386.19
445.84	376.83
446.02	428.32
446.21	360.44
446.39	433.00
446.58	409.59
446.77	416.62
446.95	411.93
447.14	475.13
447.32	463.43
447.51	418.96
447.69	397.89
447.88	351.08
448.06	421.30
448.25	461.09
448.43	404.91
448.62	365.12
448.80	393.21
448.99	451.72
449.17	386.19
449.36	449.38
449.54	334.70
449.73	355.76
449.91	451.72
450.10	388.53
450.28	447.04
450.46	465.77
450.65	414.27
450.83	388.53
451.02	435.34
451.20	423.64
451.39	400.23
451.57	404.91
451.76	395.55
451.94	369.80
452.13	416.62
452.31	437.68
452.49	365.12
452.68	463.43
452.86	388.53
453.05	437.68
453.23	425.98
453.42	421.30
453.60	400.23
453.78	409.59
453.97	437.68
454.15	428.32
454.34	433.00
454.52	411.93
454.70	463.43
454.89	442.36
455.07	379.17
455.26	386.19
455.44	456.40
455.62	428.32
455.81	397.89
455.99	489.17
456.17	400.23
456.36	416.62
456.54	409.59
456.73	435.34
456.91	402.57
457.09	397.89
457.28	437.68
457.46	418.96
457.64	433.00
457.83	393.21
458.01	339.38
458.19	395.55
458.38	425.98
458.56	390.87
458.74	404.91
458.93	451.72
459.11	402.57
459.29	409.59
459.48	430.66
459.66	449.38
459.84	435.34
460.03	397.89
460.21	423.64
460.39	376.83
460.57	479.81
460.76	416.62
460.94	407.25
461.12	388.53
461.31	461.09
461.49	447.04
461.67	416.62
461.85	383.85
462.04	418.96
462.22	777.06
462.40	393.21
462.59	437.68
462.77	411.93
462.95	430.66
463.13	395.55
463.32	414.27
463.50	428.32
463.68	458.74
463.86	425.98
464.05	425.98
464.23	386.19
464.41	477.47
464.59	386.19
464.78	447.04
464.96	416.62
465.14	435.34
465.32	400.23
465.50	372.15
465.69	330.02
465.87	409.59
466.05	404.91
466.23	428.32
466.41	444.70
466.60	421.30
466.78	330.02
466.96	374.49
467.14	397.89
467.32	475.13
467.51	440.02
467.69	451.72
467.87	442.36
468.05	449.38
468.23	421.30
468.41	416.62
468.60	418.96
468.78	416.62
468.96	437.68
469.14	418.96
469.32	351.08
469.50	425.98
469.69	414.27
469.87	376.83
470.05	393.21
470.23	407.25
470.41	374.49
470.59	409.59
470.77	451.72
470.95	332.36
471.14	376.83
471.32	456.40
471.50	433.00
471.68	444.70
471.86	402.57
472.04	433.00
472.22	388.53
472.40	383.85
472.58	421.30
472.77	386.19
472.95	358.10
473.13	418.96
473.31	463.43
473.49	339.38
473.67	383.85
473.85	444.70
474.03	435.34
474.21	407.25
474.39	414.27
474.57	449.38
474.75	416.62
474.93	390.87
475.12	433.00
475.30	404.91
475.48	409.59
475.66	421.30
475.84	447.04
476.02	411.93
476.20	437.68
476.38	449.38
476.56	486.83
476.74	433.00
476.92	437.68
477.10	470.45
477.28	402.57
477.46	463.43
477.64	414.27
477.82	454.06
478.00	456.40
478.18	411.93
478.36	421.30
478.54	449.38
478.72	388.53
478.90	397.89
479.08	411.93
479.26	383.85
479.44	351.08
479.62	395.55
479.80	421.30
479.98	372.15
480.16	423.64
480.34	332.36
480.52	390.87
480.70	407.25
480.88	402.57
481.06	358.10
481.24	341.72
481.41	390.87
481.59	393.21
481.77	393.21
481.95	353.42
482.13	484.49
482.31	414.27
482.49	365.12
482.67	470.45
482.85	341.72
483.03	402.57
483.21	404.91
483.39	433.00
483.57	374.49
483.74	369.80
483.92	442.36
484.10	330.02
484.28	402.57
484.46	479.81
484.64	376.83
484.82	379.17
485.00	367.46
485.18	407.25
485.35	435.34
485.53	414.27
485.71	461.09
485.89	461.09
486.07	470.45
486.25	407.25
486.43	430.66
486.61	442.36
486.78	423.64
486.96	397.89
487.14	437.68
487.32	414.27
487.50	407.25
487.68	433.00
487.85	407.25
488.03	411.93
488.21	411.93
488.39	381.51
488.57	451.72
488.75	395.55
488.92	535.98
489.10	449.38
489.28	430.66
489.46	313.63
489.64	458.74
489.81	442.36
489.99	444.70
490.17	327.68
490.35	477.47
490.53	458.74
490.70	386.19
490.88	475.13
491.06	454.06
491.24	414.27
491.41	428.32
491.59	433.00
491.77	372.15
491.95	388.53
492.13	355.76
492.30	418.96
492.48	386.19
492.66	475.13
492.84	404.91
493.01	362.78
493.19	395.55
493.37	409.59
493.54	390.87
493.72	484.49
493.90	395.55
494.08	360.44
494.25	374.49
494.43	416.62
494.61	437.68
494.79	381.51
494.96	470.45
495.14	301.93
495.32	435.34
495.49	416.62
495.67	437.68
495.85	451.72
496.02	423.64
496.20	465.77
496.38	442.36
496.55	409.59
496.73	489.17
496.91	433.00
497.09	454.06
497.26	409.59
497.44	435.34
497.62	458.74
497.79	449.38
497.97	362.78
498.14	407.25
498.32	372.15
498.50	372.15
498.67	414.27
498.85	435.34
499.03	386.19
499.20	416.62
499.38	435.34
499.56	407.25
499.73	409.59
499.91	447.04
500.08	465.77
500.26	334.70
500.44	435.34
500.61	337.04
500.79	372.15
500.97	402.57
501.14	437.68
501.32	416.62
501.49	477.47
501.67	367.46
501.84	400.23
502.02	362.78
502.20	365.12
502.37	465.77
502.55	430.66
502.72	423.64
502.90	433.00
503.07	409.59
503.25	463.43
503.43	358.10
503.60	456.40
503.78	454.06
503.95	437.68
504.13	386.19
504.30	440.02
504.48	423.64
504.65	475.13
504.83	421.30
505.01	435.34
505.18	414.27
505.36	404.91
505.53	404.91
505.71	390.87
505.88	418.96
506.06	470.45
506.23	418.96
506.41	414.27
506.58	433.00
506.76	379.17
506.93	355.76
507.11	404.91
507.28	433.00
507.46	404.91
507.63	421.30
507.81	421.30
507.98	409.59
508.16	430.66
508.33	482.15
508.50	409.59
508.68	421.30
508.85	367.46
509.03	414.27
509.20	458.74
509.38	414.27
509.55	451.72
509.73	388.53
509.90	416.62
510.08	388.53
510.25	425.98
510.42	423.64
510.60	353.42
510.77	489.17
510.95	423.64
511.12	428.32
511.30	435.34
511.47	440.02
511.64	421.30
511.82	456.40
511.99	411.93
512.17	425.98
512.34	320.65
512.51	442.36
512.69	454.06
512.86	407.25
513.04	402.57
513.21	404.91
513.38	341.72
513.56	404.91
513.73	414.27
513.90	404.91
514.08	376.83
514.25	379.17
514.43	463.43
514.60	449.38
514.77	449.38
514.95	346.40
515.12	376.83
515.29	339.38
515.47	379.17
515.64	390.87
515.81	430.66
515.99	395.55
516.16	451.72
516.33	430.66
516.51	442.36
516.68	407.25
516.85	409.59
517.03	374.49
517.20	393.21
517.37	418.96
517.54	468.11
517.72	390.87
517.89	372.15
518.06	428.32
518.24	458.74
518.41	390.87
518.58	404.91
518.75	402.57
518.93	402.57
519.10	440.02
519.27	421.30
519.45	458.74
519.62	435.34
519.79	414.27
519.96	407.25
520.14	463.43
520.31	447.04
520.48	409.59
520.65	425.98
520.83	440.02
521.00	400.23
521.17	395.55
521.34	376.83
521.52	395.55
521.69	500.87
521.86	442.36
522.03	468.11
522.20	367.46
522.38	386.19
522.55	442.36
522.72	454.06
522.89	397.89
523.07	423.64
523.24	449.38
523.41	433.00
523.58	440.02
523.75	402.57
523.92	358.10
524.10	383.85
524.27	404.91
524.44	404.91
524.61	447.04
524.78	404.91
524.96	442.36
525.13	416.62
525.30	428.32
525.47	465.77
525.64	409.59
525.81	383.85
525.98	444.70
526.16	437.68
526.33	369.80
526.50	397.89
526.67	397.89
526.84	402.57
527.01	369.80
527.18	390.87
527.36	449.38
527.53	393.21
527.70	386.19
527.87	442.36
528.04	451.72
528.21	381.51
528.38	379.17
528.55	386.19
528.72	479.81
528.89	407.25
529.07	435.34
529.24	390.87
529.41	461.09
529.58	344.06
529.75	449.38
529.92	341.72
530.09	411.93
530.26	414.27
530.43	407.25
530.60	421.30
530.77	458.74
530.94	442.36
531.11	482.15
531.28	430.66
531.46	397.89
531.63	393.21
531.80	486.83
531.97	416.62
532.14	463.43
532.31	451.72
532.48	411.93
532.65	369.80
532.82	475.13
532.99	489.17
533.16	374.49
533.33	421.30
533.50	383.85
533.67	390.87
533.84	430.66
534.01	418.96
534.18	418.96
534.35	435.34
534.52	388.53
534.69	414.27
534.86	442.36
535.03	411.93
535.20	454.06
535.37	423.64
535.54	435.34
535.71	447.04
535.88	423.64
536.05	397.89
536.22	360.44
536.38	407.25
536.55	440.02
536.72	489.17
536.89	395.55
537.06	454.06
537.23	418.96
537.40	463.43
537.57	500.87
537.74	440.02
537.91	435.34
538.08	360.44
538.25	376.83
538.42	367.46
538.59	372.15
538.75	383.85
538.92	465.77
539.09	433.00
539.26	332.36
539.43	444.70
539.60	383.85
539.77	402.57
539.94	423.64
540.11	393.21
540.28	486.83
540.44	465.77
540.61	428.32
540.78	355.76
540.95	411.93
541.12	468.11
541.29	442.36
541.46	428.32
541.62	395.55
541.79	456.40
541.96	454.06
542.13	423.64
542.30	386.19
542.47	411.93
542.63	423.64
542.80	451.72
542.97	423.64
543.14	465.77
543.31	440.02
543.48	463.43
543.64	454.06
543.81	416.62
543.98	404.91
544.15	362.78
544.32	442.36
544.48	416.62
544.65	358.10
544.82	397.89
544.99	416.62
545.16	454.06
545.32	430.66
545.49	421.30
545.66	407.25
545.83	416.62
546.00	390.87
546.16	383.85
546.33	418.96
546.50	414.27
546.67	369.80
546.83	407.25
547.00	409.59
547.17	400.23
547.34	411.93
547.50	386.19
547.67	404.91
547.84	379.17
548.00	397.89
548.17	360.44
548.34	362.78
548.51	383.85
548.67	423.64
548.84	355.76
549.01	510.24
549.18	407.25
549.34	376.83
549.51	407.25
549.68	454.06
549.84	411.93
550.01	493.85
550.18	428.32
550.34	435.34
550.51	444.70
550.68	486.83
550.84	437.68
551.01	444.70
551.18	360.44
551.34	376.83
551.51	442.36
551.68	454.06
551.84	482.15
552.01	379.17
552.18	407.25
552.34	374.49
552.51	421.30
552.68	402.57
552.84	416.62
553.01	383.85
553.18	411.93
553.34	372.15
553.51	383.85
553.67	409.59
553.84	402.57
554.01	379.17
554.17	386.19
554.34	454.06
554.51	386.19
554.67	376.83
554.84	451.72
555.00	461.09
555.17	461.09
555.33	414.27
555.50	397.89
555.67	418.96
555.83	390.87
556.00	507.90
556.16	573.43
556.33	440.02
556.50	465.77
556.66	456.40
556.83	402.57
556.99	388.53
557.16	404.91
557.32	402.57
557.49	383.85
557.65	393.21
557.82	404.91
557.98	341.72
558.15	376.83
558.32	442.36
558.48	400.23
558.65	409.59
558.81	451.72
558.98	440.02
559.14	402.57
559.31	365.12
559.47	468.11
559.64	454.06
559.80	407.25
559.97	430.66
560.13	479.81
560.30	376.83
560.46	416.62
560.63	386.19
560.79	393.21
560.96	425.98
561.12	383.85
561.29	407.25
561.45	397.89
561.61	428.32
561.78	489.17
561.94	486.83
562.11	428.32
562.27	500.87
562.44	362.78
562.60	369.80
562.77	400.23
562.93	484.49
563.10	393.21
563.26	465.77
563.42	430.66
563.59	418.96
563.75	418.96
563.92	374.49
564.08	360.44
564.24	386.19
564.41	479.81
564.57	379.17
564.74	437.68
564.90	447.04
565.07	444.70
565.23	400.23
565.39	456.40
565.56	423.64
565.72	393.21
565.88	404.91
566.05	390.87
566.21	367.46
566.38	393.21
566.54	430.66
566.70	374.49
566.87	454.06
567.03	358.10
567.19	477.47
567.36	437.68
567.52	351.08
567.68	425.98
567.85	479.81
568.01	311.29
568.17	407.25
568.34	435.34
568.50	484.49
568.66	402.57
568.83	465.77
568.99	423.64
569.15	444.70
569.32	411.93
569.48	416.62
569.64	456.40
569.81	362.78
569.97	393.21
570.13	433.00
570.30	362.78
570.46	477.47
570.62	430.66
570.78	369.80
570.95	433.00
571.11	423.64
571.27	407.25
571.43	348.74
571.60	500.87
571.76	376.83
571.92	397.89
572.09	451.72
572.25	355.76
572.41	447.04
572.57	472.79
572.74	425.98
572.90	482.15
573.06	428.32
573.22	358.10
573.38	402.57
573.55	418.96
573.71	418.96
573.87	421.30
574.03	400.23
574.20	372.15
574.36	552.37
574.52	409.59
574.68	404.91
574.84	418.96
575.01	421.30
575.17	463.43
575.33	358.10
575.49	433.00
575.65	454.06
575.82	390.87
575.98	369.80
576.14	362.78
576.30	414.27
576.46	440.02
576.62	379.17
576.79	433.00
576.95	470.45
577.11	374.49
577.27	449.38
577.43	447.04
577.59	489.17
577.75	416.62
577.92	390.87
578.08	444.70
578.24	418.96
578.40	475.13
578.56	433.00
578.72	491.51
578.88	435.34
579.04	425.98
579.21	470.45
579.37	421.30
579.53	414.27
579.69	465.77
579.85	451.72
580.01	407.25
580.17	442.36
580.33	449.38
580.49	388.53
580.65	465.77
580.82	482.15
580.98	449.38
581.14	507.90
581.30	454.06
581.46	440.02
581.62	489.17
581.78	456.40
581.94	472.79
582.10	393.21
582.26	379.17
582.42	379.17
582.58	463.43
582.74	367.46
582.90	465.77
583.06	440.02
583.22	395.55
583.38	456.40
583.54	423.64
583.70	477.47
583.86	479.81
584.02	458.74
584.18	510.24
584.34	383.85
584.50	400.23
584.66	430.66
584.82	390.87
584.98	402.57
585.14	428.32
585.30	416.62
585.46	407.25
585.62	440.02
585.78	411.93
585.94	442.36
586.10	472.79
586.26	437.68
586.42	440.02
586.58	519.60
586.74	425.98
586.90	449.38
587.06	451.72
587.22	442.36
587.38	435.34
587.54	461.09
587.70	390.87
587.86	465.77
588.02	433.00
588.18	400.23
588.34	362.78
588.49	390.87
588.65	416.62
588.81	376.83
588.97	475.13
589.13	433.00
589.29	423.64
589.45	409.59
589.61	423.64
589.77	437.68
589.93	442.36
590.08	393.21
590.24	351.08
590.40	418.96
590.56	489.17
590.72	379.17
590.88	379.17
591.04	479.81
591.20	372.15
591.35	454.06
591.51	440.02
591.67	407.25
591.83	407.25
591.99	486.83
592.15	416.62
592.31	416.62
592.46	444.70
592.62	512.58
592.78	381.51
592.94	383.85
593.10	400.23
593.26	367.46
593.41	435.34
593.57	383.85
593.73	421.30
593.89	447.04
594.05	416.62
594.20	463.43
594.36	449.38
594.52	458.74
594.68	418.96
594.84	463.43
594.99	465.77
595.15	407.25
595.31	465.77
595.47	477.47
595.62	428.32
595.78	395.55
595.94	388.53
596.10	493.85
596.25	404.91
596.41	393.21
596.57	393.21
596.73	383.85
596.88	400.23
597.04	430.66
597.20	456.40
597.36	339.38
597.51	421.30
597.67	463.43
597.83	440.02
597.99	456.40
598.14	400.23
598.30	458.74
598.46	437.68
598.61	400.23
598.77	409.59
598.93	395.55
599.09	409.59
599.24	447.04
599.40	444.70
599.56	447.04
599.71	334.70
599.87	355.76
600.03	428.32
600.18	411.93
600.34	404.91
600.50	456.40
600.65	433.00
600.81	423.64
600.97	407.25
601.12	416.62
601.28	440.02
601.44	416.62
601.59	451.72
601.75	416.62
601.91	421.30
602.06	411.93
602.22	458.74
602.37	390.87
602.53	395.55
602.69	400.23
602.84	440.02
603.00	440.02
603.16	416.62
603.31	411.93
603.47	425.98
603.62	414.27
603.78	437.68
603.94	421.30
604.09	381.51
604.25	423.64
604.40	353.42
604.56	400.23
604.71	425.98
604.87	397.89
605.03	416.62
605.18	383.85
605.34	425.98
605.49	423.64
605.65	444.70
605.80	379.17
605.96	409.59
606.12	440.02
606.27	421.30
606.43	510.24
606.58	465.77
606.74	407.25
606.89	498.53
607.05	491.51
607.20	491.51
607.36	418.96
607.51	400.23
607.67	411.93
607.82	416.62
607.98	514.92
608.13	386.19
608.29	440.02
608.44	395.55
608.60	393.21
608.75	428.32
608.91	437.68
609.06	440.02
609.22	390.87
609.37	416.62
609.53	437.68
609.68	397.89
609.84	369.80
609.99	428.32
610.15	395.55
