SpectraSuite Data File
++++++++++++++++++++++++++++++++++++
Date: Fri Oct 25 12:10:58 EDT 2013
User: price-jones
Dark Spectrum Present: No
Reference Spectrum Present: No
Number of Sampled Component Spectra: 1
Spectrometers: USB2+H05261
Integration Time (usec): 100000 (USB2+H05261)
Spectra Averaged: 1 (USB2+H05261)
Boxcar Smoothing: 0 (USB2+H05261)
Correct for Electrical Dark: No (USB2+H05261)
Strobe/Lamp Enabled: No (USB2+H05261)
Correct for Detector Non-linearity: No (USB2+H05261)
Correct for Stray Light: No (USB2+H05261)
Number of Pixels in Processed Spectrum: 2048
>>>>>Begin Processed Spectral Data<<<<<
365.73	339.38
365.92	339.38
366.12	339.38
366.32	250.44
366.52	180.22
366.72	262.14
366.91	245.76
367.11	299.59
367.31	227.03
367.51	227.03
367.70	266.82
367.90	250.44
368.10	210.65
368.30	224.69
368.49	250.44
368.69	276.18
368.89	285.55
369.09	290.23
369.28	241.08
369.48	252.78
369.68	318.31
369.87	341.72
370.07	341.72
370.27	367.46
370.47	248.10
370.66	273.84
370.86	355.76
371.06	397.89
371.25	449.38
371.45	404.91
371.65	404.91
371.84	400.23
372.04	341.72
372.24	372.15
372.44	454.06
372.63	416.62
372.83	351.08
373.03	425.98
373.22	440.02
373.42	414.27
373.62	374.49
373.81	411.93
374.01	404.91
374.21	311.29
374.40	358.10
374.60	425.98
374.79	400.23
374.99	435.34
375.19	407.25
375.38	489.17
375.58	414.27
375.78	416.62
375.97	393.21
376.17	472.79
376.37	393.21
376.56	411.93
376.76	379.17
376.95	355.76
377.15	484.49
377.35	433.00
377.54	379.17
377.74	449.38
377.93	418.96
378.13	444.70
378.33	409.59
378.52	390.87
378.72	475.13
378.91	409.59
379.11	404.91
379.31	395.55
379.50	266.82
379.70	458.74
379.89	428.32
380.09	416.62
380.28	414.27
380.48	339.38
380.68	365.12
380.87	433.00
381.07	454.06
381.26	442.36
381.46	411.93
381.65	421.30
381.85	423.64
382.04	285.55
382.24	390.87
382.43	276.18
382.63	386.19
382.83	376.83
383.02	341.72
383.22	414.27
383.41	400.23
383.61	442.36
383.80	346.40
384.00	381.51
384.19	440.02
384.39	400.23
384.58	383.85
384.78	358.10
384.97	390.87
385.17	360.44
385.36	388.53
385.56	442.36
385.75	456.40
385.95	365.12
386.14	451.72
386.34	407.25
386.53	383.85
386.72	428.32
386.92	346.40
387.11	496.19
387.31	411.93
387.50	463.43
387.70	437.68
387.89	395.55
388.09	397.89
388.28	374.49
388.48	437.68
388.67	386.19
388.86	423.64
389.06	414.27
389.25	330.02
389.45	390.87
389.64	451.72
389.84	402.57
390.03	421.30
390.22	367.46
390.42	421.30
390.61	334.70
390.81	365.12
391.00	463.43
391.19	425.98
391.39	409.59
391.58	491.51
391.78	428.32
391.97	451.72
392.16	470.45
392.36	404.91
392.55	500.87
392.75	444.70
392.94	409.59
393.13	528.96
393.33	458.74
393.52	435.34
393.71	421.30
393.91	367.46
394.10	390.87
394.29	470.45
394.49	402.57
394.68	458.74
394.88	383.85
395.07	388.53
395.26	386.19
395.46	447.04
395.65	496.19
395.84	395.55
396.04	425.98
396.23	458.74
396.42	374.49
396.62	365.12
396.81	397.89
397.00	393.21
397.19	428.32
397.39	423.64
397.58	390.87
397.77	374.49
397.97	435.34
398.16	411.93
398.35	402.57
398.55	428.32
398.74	433.00
398.93	433.00
399.12	393.21
399.32	451.72
399.51	376.83
399.70	423.64
399.90	423.64
400.09	447.04
400.28	489.17
400.47	372.15
400.67	484.49
400.86	374.49
401.05	418.96
401.24	400.23
401.44	447.04
401.63	388.53
401.82	393.21
402.01	411.93
402.21	440.02
402.40	416.62
402.59	456.40
402.78	390.87
402.97	362.78
403.17	440.02
403.36	388.53
403.55	400.23
403.74	351.08
403.93	463.43
404.13	447.04
404.32	458.74
404.51	404.91
404.70	465.77
404.89	472.79
405.09	383.85
405.28	409.59
405.47	383.85
405.66	456.40
405.85	451.72
406.05	390.87
406.24	416.62
406.43	390.87
406.62	402.57
406.81	440.02
407.00	395.55
407.20	362.78
407.39	344.06
407.58	416.62
407.77	437.68
407.96	416.62
408.15	397.89
408.34	433.00
408.54	365.12
408.73	414.27
408.92	388.53
409.11	386.19
409.30	414.27
409.49	430.66
409.68	414.27
409.87	437.68
410.07	393.21
410.26	430.66
410.45	369.80
410.64	400.23
410.83	353.42
411.02	390.87
411.21	360.44
411.40	423.64
411.59	400.23
411.78	400.23
411.98	376.83
412.17	390.87
412.36	411.93
412.55	423.64
412.74	390.87
412.93	409.59
413.12	379.17
413.31	430.66
413.50	397.89
413.69	435.34
413.88	409.59
414.07	444.70
414.26	440.02
414.45	388.53
414.64	386.19
414.83	404.91
415.02	454.06
415.22	463.43
415.41	388.53
415.60	355.76
415.79	425.98
415.98	435.34
416.17	388.53
416.36	526.62
416.55	416.62
416.74	348.74
416.93	479.81
417.12	423.64
417.31	418.96
417.50	437.68
417.69	505.56
417.88	400.23
418.07	395.55
418.26	334.70
418.45	379.17
418.64	447.04
418.83	484.49
419.02	416.62
419.21	430.66
419.39	416.62
419.58	430.66
419.77	386.19
419.96	414.27
420.15	442.36
420.34	444.70
420.53	411.93
420.72	411.93
420.91	409.59
421.10	395.55
421.29	381.51
421.48	400.23
421.67	447.04
421.86	400.23
422.05	463.43
422.24	369.80
422.43	440.02
422.61	402.57
422.80	430.66
422.99	369.80
423.18	367.46
423.37	472.79
423.56	388.53
423.75	411.93
423.94	379.17
424.13	451.72
424.32	369.80
424.50	404.91
424.69	454.06
424.88	435.34
425.07	418.96
425.26	374.49
425.45	360.44
425.64	390.87
425.83	437.68
426.01	463.43
426.20	404.91
426.39	411.93
426.58	383.85
426.77	383.85
426.96	341.72
427.15	423.64
427.33	386.19
427.52	465.77
427.71	435.34
427.90	381.51
428.09	397.89
428.28	285.55
428.46	393.21
428.65	407.25
428.84	449.38
429.03	402.57
429.22	416.62
429.40	367.46
429.59	418.96
429.78	468.11
429.97	444.70
430.16	397.89
430.34	372.15
430.53	341.72
430.72	409.59
430.91	447.04
431.10	407.25
431.28	440.02
431.47	404.91
431.66	423.64
431.85	409.59
432.03	425.98
432.22	433.00
432.41	416.62
432.60	444.70
432.79	414.27
432.97	411.93
433.16	433.00
433.35	421.30
433.54	383.85
433.72	503.22
433.91	423.64
434.10	418.96
434.28	367.46
434.47	421.30
434.66	369.80
434.85	451.72
435.03	400.23
435.22	433.00
435.41	402.57
435.59	409.59
435.78	411.93
435.97	414.27
436.16	465.77
436.34	400.23
436.53	409.59
436.72	376.83
436.90	423.64
437.09	472.79
437.28	449.38
437.46	421.30
437.65	496.19
437.84	386.19
438.02	491.51
438.21	421.30
438.40	390.87
438.58	353.42
438.77	383.85
438.96	461.09
439.14	381.51
439.33	414.27
439.52	404.91
439.70	444.70
439.89	388.53
440.08	381.51
440.26	428.32
440.45	449.38
440.63	430.66
440.82	407.25
441.01	440.02
441.19	376.83
441.38	386.19
441.57	458.74
441.75	393.21
441.94	404.91
442.12	339.38
442.31	395.55
442.50	482.15
442.68	414.27
442.87	430.66
443.05	407.25
443.24	465.77
443.43	444.70
443.61	437.68
443.80	454.06
443.98	411.93
444.17	458.74
444.35	416.62
444.54	451.72
444.73	407.25
444.91	407.25
445.10	400.23
445.28	374.49
445.47	376.83
445.65	409.59
445.84	411.93
446.02	388.53
446.21	489.17
446.39	458.74
446.58	458.74
446.77	465.77
446.95	449.38
447.14	383.85
447.32	470.45
447.51	341.72
447.69	428.32
447.88	451.72
448.06	482.15
448.25	414.27
448.43	330.02
448.62	442.36
448.80	425.98
448.99	444.70
449.17	411.93
449.36	449.38
449.54	353.42
449.73	411.93
449.91	447.04
450.10	381.51
450.28	500.87
450.46	500.87
450.65	390.87
450.83	458.74
451.02	428.32
451.20	407.25
451.39	500.87
451.57	423.64
451.76	456.40
451.94	447.04
452.13	353.42
452.31	468.11
452.49	472.79
452.68	388.53
452.86	461.09
453.05	454.06
453.23	444.70
453.42	442.36
453.60	362.78
453.78	397.89
453.97	393.21
454.15	388.53
454.34	435.34
454.52	346.40
454.70	430.66
454.89	374.49
455.07	414.27
455.26	421.30
455.44	376.83
455.62	376.83
455.81	425.98
455.99	449.38
456.17	390.87
456.36	421.30
456.54	388.53
456.73	411.93
456.91	369.80
457.09	428.32
457.28	435.34
457.46	421.30
457.64	468.11
457.83	456.40
458.01	397.89
458.19	440.02
458.38	351.08
458.56	372.15
458.74	351.08
458.93	379.17
459.11	334.70
459.29	374.49
459.48	386.19
459.66	454.06
459.84	428.32
460.03	489.17
460.21	447.04
460.39	451.72
460.57	491.51
460.76	421.30
460.94	402.57
461.12	400.23
461.31	468.11
461.49	449.38
461.67	339.38
461.85	362.78
462.04	418.96
462.22	819.19
462.40	444.70
462.59	496.19
462.77	454.06
462.95	456.40
463.13	362.78
463.32	454.06
463.50	421.30
463.68	435.34
463.86	388.53
464.05	416.62
464.23	416.62
464.41	388.53
464.59	411.93
464.78	416.62
464.96	395.55
465.14	477.47
465.32	376.83
465.50	444.70
465.69	409.59
465.87	402.57
466.05	346.40
466.23	308.95
466.41	397.89
466.60	435.34
466.78	433.00
466.96	379.17
467.14	360.44
467.32	482.15
467.51	428.32
467.69	409.59
467.87	465.77
468.05	390.87
468.23	414.27
468.41	442.36
468.60	421.30
468.78	388.53
468.96	414.27
469.14	493.85
469.32	388.53
469.50	381.51
469.69	379.17
469.87	428.32
470.05	458.74
470.23	451.72
470.41	369.80
470.59	454.06
470.77	482.15
470.95	440.02
471.14	477.47
471.32	425.98
471.50	475.13
471.68	437.68
471.86	374.49
472.04	425.98
472.22	404.91
472.40	423.64
472.58	437.68
472.77	414.27
472.95	395.55
473.13	491.51
473.31	454.06
473.49	397.89
473.67	428.32
473.85	449.38
474.03	397.89
474.21	374.49
474.39	411.93
474.57	479.81
474.75	397.89
474.93	402.57
475.12	411.93
475.30	402.57
475.48	437.68
475.66	376.83
475.84	472.79
476.02	372.15
476.20	421.30
476.38	376.83
476.56	461.09
476.74	411.93
476.92	348.74
477.10	388.53
477.28	486.83
477.46	451.72
477.64	470.45
477.82	374.49
478.00	430.66
478.18	383.85
478.36	451.72
478.54	358.10
478.72	386.19
478.90	346.40
479.08	308.95
479.26	428.32
479.44	400.23
479.62	463.43
479.80	454.06
479.98	458.74
480.16	358.10
480.34	421.30
480.52	449.38
480.70	341.72
480.88	442.36
481.06	475.13
481.24	374.49
481.41	456.40
481.59	390.87
481.77	390.87
481.95	423.64
482.13	351.08
482.31	418.96
482.49	400.23
482.67	423.64
482.85	421.30
483.03	395.55
483.21	454.06
483.39	449.38
483.57	383.85
483.74	472.79
483.92	442.36
484.10	416.62
484.28	454.06
484.46	500.87
484.64	376.83
484.82	470.45
485.00	440.02
485.18	304.27
485.35	475.13
485.53	414.27
485.71	449.38
485.89	402.57
486.07	388.53
486.25	505.56
486.43	444.70
486.61	461.09
486.78	414.27
486.96	449.38
487.14	393.21
487.32	386.19
487.50	440.02
487.68	416.62
487.85	449.38
488.03	442.36
488.21	430.66
488.39	496.19
488.57	416.62
488.75	437.68
488.92	447.04
489.10	430.66
489.28	472.79
489.46	430.66
489.64	411.93
489.81	360.44
489.99	458.74
490.17	402.57
490.35	535.98
490.53	442.36
490.70	367.46
490.88	407.25
491.06	348.74
491.24	463.43
491.41	425.98
491.59	507.90
491.77	449.38
491.95	423.64
492.13	418.96
492.30	465.77
492.48	435.34
492.66	440.02
492.84	346.40
493.01	407.25
493.19	414.27
493.37	449.38
493.54	444.70
493.72	458.74
493.90	390.87
494.08	390.87
494.25	362.78
494.43	397.89
494.61	400.23
494.79	355.76
494.96	390.87
495.14	449.38
495.32	379.17
495.49	430.66
495.67	451.72
495.85	435.34
496.02	416.62
496.20	428.32
496.38	463.43
496.55	402.57
496.73	444.70
496.91	411.93
497.09	353.42
497.26	421.30
497.44	451.72
497.62	306.61
497.79	421.30
497.97	360.44
498.14	449.38
498.32	433.00
498.50	470.45
498.67	409.59
498.85	425.98
499.03	404.91
499.20	407.25
499.38	348.74
499.56	425.98
499.73	428.32
499.91	493.85
500.08	437.68
500.26	465.77
500.44	402.57
500.61	416.62
500.79	418.96
500.97	456.40
501.14	409.59
501.32	435.34
501.49	454.06
501.67	433.00
501.84	418.96
502.02	400.23
502.20	400.23
502.37	400.23
502.55	402.57
502.72	430.66
502.90	456.40
503.07	351.08
503.25	475.13
503.43	489.17
503.60	484.49
503.78	414.27
503.95	465.77
504.13	395.55
504.30	362.78
504.48	418.96
504.65	414.27
504.83	423.64
505.01	449.38
505.18	404.91
505.36	341.72
505.53	456.40
505.71	437.68
505.88	425.98
506.06	435.34
506.23	372.15
506.41	433.00
506.58	404.91
506.76	498.53
506.93	435.34
507.11	449.38
507.28	423.64
507.46	402.57
507.63	465.77
507.81	393.21
507.98	444.70
508.16	407.25
508.33	428.32
508.50	456.40
508.68	409.59
508.85	423.64
509.03	374.49
509.20	465.77
509.38	395.55
509.55	411.93
509.73	386.19
509.90	491.51
510.08	344.06
510.25	451.72
510.42	468.11
510.60	430.66
510.77	437.68
510.95	491.51
511.12	435.34
511.30	353.42
511.47	416.62
511.64	470.45
511.82	411.93
511.99	512.58
512.17	482.15
512.34	400.23
512.51	411.93
512.69	430.66
512.86	465.77
513.04	423.64
513.21	367.46
513.38	472.79
513.56	428.32
513.73	461.09
513.90	442.36
514.08	379.17
514.25	479.81
514.43	440.02
514.60	425.98
514.77	372.15
514.95	388.53
515.12	484.49
515.29	421.30
515.47	421.30
515.64	430.66
515.81	470.45
515.99	411.93
516.16	461.09
516.33	362.78
516.51	390.87
516.68	430.66
516.85	433.00
517.03	376.83
517.20	411.93
517.37	402.57
517.54	437.68
517.72	454.06
517.89	365.12
518.06	428.32
518.24	402.57
518.41	386.19
518.58	407.25
518.75	374.49
518.93	447.04
519.10	418.96
519.27	383.85
519.45	416.62
519.62	360.44
519.79	409.59
519.96	400.23
520.14	397.89
520.31	421.30
520.48	442.36
520.65	407.25
520.83	341.72
521.00	376.83
521.17	435.34
521.34	442.36
521.52	472.79
521.69	404.91
521.86	381.51
522.03	390.87
522.20	444.70
522.38	358.10
522.55	386.19
522.72	468.11
522.89	428.32
523.07	451.72
523.24	362.78
523.41	447.04
523.58	451.72
523.75	416.62
523.92	463.43
524.10	402.57
524.27	461.09
524.44	362.78
524.61	461.09
524.78	451.72
524.96	416.62
525.13	442.36
525.30	381.51
525.47	421.30
525.64	468.11
525.81	395.55
525.98	404.91
526.16	386.19
526.33	430.66
526.50	376.83
526.67	437.68
526.84	433.00
527.01	404.91
527.18	454.06
527.36	482.15
527.53	428.32
527.70	423.64
527.87	381.51
528.04	528.96
528.21	409.59
528.38	353.42
528.55	444.70
528.72	433.00
528.89	454.06
529.07	362.78
529.24	435.34
529.41	472.79
529.58	458.74
529.75	344.06
529.92	447.04
530.09	493.85
530.26	407.25
530.43	388.53
530.60	383.85
530.77	414.27
530.94	430.66
531.11	414.27
531.28	425.98
531.46	362.78
531.63	402.57
531.80	433.00
531.97	421.30
532.14	461.09
532.31	416.62
532.48	407.25
532.65	470.45
532.82	386.19
532.99	376.83
533.16	433.00
533.33	360.44
533.50	425.98
533.67	430.66
533.84	465.77
534.01	454.06
534.18	372.15
534.35	433.00
534.52	470.45
534.69	444.70
534.86	383.85
535.03	418.96
535.20	435.34
535.37	418.96
535.54	463.43
535.71	454.06
535.88	435.34
536.05	421.30
536.22	395.55
536.38	381.51
536.55	449.38
536.72	440.02
536.89	383.85
537.06	456.40
537.23	442.36
537.40	428.32
537.57	360.44
537.74	463.43
537.91	433.00
538.08	435.34
538.25	374.49
538.42	433.00
538.59	390.87
538.75	351.08
538.92	435.34
539.09	402.57
539.26	411.93
539.43	423.64
539.60	458.74
539.77	477.47
539.94	472.79
540.11	449.38
540.28	458.74
540.44	477.47
540.61	428.32
540.78	411.93
540.95	390.87
541.12	379.17
541.29	421.30
541.46	404.91
541.62	383.85
541.79	374.49
541.96	458.74
542.13	383.85
542.30	421.30
542.47	470.45
542.63	433.00
542.80	390.87
542.97	414.27
543.14	400.23
543.31	404.91
543.48	360.44
543.64	395.55
543.81	358.10
543.98	472.79
544.15	388.53
544.32	416.62
544.48	451.72
544.65	402.57
544.82	390.87
544.99	360.44
545.16	444.70
545.32	428.32
545.49	351.08
545.66	374.49
545.83	423.64
546.00	400.23
546.16	411.93
546.33	440.02
546.50	418.96
546.67	428.32
546.83	489.17
547.00	353.42
547.17	454.06
547.34	451.72
547.50	402.57
547.67	517.26
547.84	465.77
548.00	372.15
548.17	397.89
548.34	425.98
548.51	449.38
548.67	411.93
548.84	458.74
549.01	337.04
549.18	456.40
549.34	386.19
549.51	395.55
549.68	397.89
549.84	397.89
550.01	428.32
550.18	489.17
550.34	449.38
550.51	402.57
550.68	440.02
550.84	388.53
551.01	372.15
551.18	425.98
551.34	479.81
551.51	454.06
551.68	458.74
551.84	423.64
552.01	423.64
552.18	362.78
552.34	397.89
552.51	386.19
552.68	437.68
552.84	362.78
553.01	383.85
553.18	367.46
553.34	475.13
553.51	390.87
553.67	465.77
553.84	482.15
554.01	411.93
554.17	437.68
554.34	418.96
554.51	346.40
554.67	433.00
554.84	479.81
555.00	402.57
555.17	369.80
555.33	454.06
555.50	479.81
555.67	397.89
555.83	362.78
556.00	390.87
556.16	512.58
556.33	458.74
556.50	404.91
556.66	372.15
556.83	367.46
556.99	468.11
557.16	402.57
557.32	418.96
557.49	411.93
557.65	465.77
557.82	353.42
557.98	390.87
558.15	365.12
558.32	339.38
558.48	395.55
558.65	341.72
558.81	383.85
558.98	458.74
559.14	383.85
559.31	442.36
559.47	416.62
559.64	397.89
559.80	407.25
559.97	416.62
560.13	451.72
560.30	440.02
560.46	348.74
560.63	369.80
560.79	388.53
560.96	425.98
561.12	379.17
561.29	435.34
561.45	362.78
561.61	456.40
561.78	550.03
561.94	479.81
562.11	395.55
562.27	442.36
562.44	397.89
562.60	428.32
562.77	362.78
562.93	482.15
563.10	346.40
563.26	433.00
563.42	421.30
563.59	395.55
563.75	353.42
563.92	451.72
564.08	374.49
564.24	416.62
564.41	423.64
564.57	440.02
564.74	416.62
564.90	388.53
565.07	498.53
565.23	503.22
565.39	512.58
565.56	493.85
565.72	449.38
565.88	444.70
566.05	475.13
566.21	435.34
566.38	381.51
566.54	437.68
566.70	428.32
566.87	461.09
567.03	442.36
567.19	397.89
567.36	365.12
567.52	397.89
567.68	414.27
567.85	407.25
568.01	414.27
568.17	421.30
568.34	430.66
568.50	472.79
568.66	339.38
568.83	430.66
568.99	390.87
569.15	440.02
569.32	465.77
569.48	393.21
569.64	442.36
569.81	374.49
569.97	482.15
570.13	418.96
570.30	449.38
570.46	475.13
570.62	365.12
570.78	341.72
570.95	437.68
571.11	435.34
571.27	430.66
571.43	383.85
571.60	470.45
571.76	407.25
571.92	409.59
572.09	348.74
572.25	372.15
572.41	393.21
572.57	411.93
572.74	442.36
572.90	416.62
573.06	465.77
573.22	369.80
573.38	477.47
573.55	442.36
573.71	407.25
573.87	386.19
574.03	423.64
574.20	409.59
574.36	468.11
574.52	475.13
574.68	409.59
574.84	470.45
575.01	425.98
575.17	440.02
575.33	409.59
575.49	465.77
575.65	423.64
575.82	444.70
575.98	386.19
576.14	400.23
576.30	411.93
576.46	409.59
576.62	421.30
576.79	386.19
576.95	421.30
577.11	390.87
577.27	390.87
577.43	414.27
577.59	458.74
577.75	456.40
577.92	421.30
578.08	449.38
578.24	423.64
578.40	468.11
578.56	512.58
578.72	444.70
578.88	423.64
579.04	365.12
579.21	482.15
579.37	404.91
579.53	505.56
579.69	440.02
579.85	437.68
580.01	421.30
580.17	379.17
580.33	449.38
580.49	425.98
580.65	461.09
580.82	411.93
580.98	461.09
581.14	423.64
581.30	395.55
581.46	463.43
581.62	423.64
581.78	414.27
581.94	388.53
582.10	418.96
582.26	433.00
582.42	437.68
582.58	489.17
582.74	344.06
582.90	423.64
583.06	376.83
583.22	369.80
583.38	348.74
583.54	444.70
583.70	470.45
583.86	395.55
584.02	402.57
584.18	447.04
584.34	449.38
584.50	365.12
584.66	393.21
584.82	388.53
584.98	390.87
585.14	428.32
585.30	472.79
585.46	486.83
585.62	428.32
585.78	421.30
585.94	409.59
586.10	404.91
586.26	458.74
586.42	454.06
586.58	386.19
586.74	440.02
586.90	428.32
587.06	437.68
587.22	451.72
587.38	477.47
587.54	433.00
587.70	421.30
587.86	477.47
588.02	355.76
588.18	475.13
588.34	442.36
588.49	402.57
588.65	409.59
588.81	465.77
588.97	404.91
589.13	390.87
589.29	409.59
589.45	409.59
589.61	362.78
589.77	498.53
589.93	421.30
590.08	374.49
590.24	351.08
590.40	358.10
590.56	423.64
590.72	430.66
590.88	365.12
591.04	416.62
591.20	433.00
591.35	470.45
591.51	367.46
591.67	437.68
591.83	402.57
591.99	463.43
592.15	454.06
592.31	472.79
592.46	423.64
592.62	489.17
592.78	362.78
592.94	416.62
593.10	374.49
593.26	327.68
593.41	369.80
593.57	470.45
593.73	416.62
593.89	442.36
594.05	447.04
594.20	425.98
594.36	449.38
594.52	379.17
594.68	472.79
594.84	435.34
594.99	418.96
595.15	454.06
595.31	360.44
595.47	440.02
595.62	393.21
595.78	423.64
595.94	409.59
596.10	437.68
596.25	496.19
596.41	423.64
596.57	447.04
596.73	355.76
596.88	463.43
597.04	332.36
597.20	367.46
597.36	465.77
597.51	425.98
597.67	346.40
597.83	299.59
597.99	451.72
598.14	472.79
598.30	416.62
598.46	402.57
598.61	477.47
598.77	395.55
598.93	463.43
599.09	442.36
599.24	458.74
599.40	379.17
599.56	435.34
599.71	388.53
599.87	404.91
600.03	397.89
600.18	463.43
600.34	447.04
600.50	435.34
600.65	409.59
600.81	433.00
600.97	449.38
601.12	440.02
601.28	475.13
601.44	402.57
601.59	468.11
601.75	404.91
601.91	421.30
602.06	327.68
602.22	479.81
602.37	465.77
602.53	418.96
602.69	416.62
602.84	433.00
603.00	374.49
603.16	418.96
603.31	400.23
603.47	470.45
603.62	383.85
603.78	395.55
603.94	447.04
604.09	421.30
604.25	440.02
604.40	381.51
604.56	397.89
604.71	341.72
604.87	407.25
605.03	423.64
605.18	433.00
605.34	421.30
605.49	337.04
605.65	447.04
605.80	411.93
605.96	517.26
606.12	503.22
606.27	458.74
606.43	369.80
606.58	454.06
606.74	510.24
606.89	470.45
607.05	482.15
607.20	449.38
607.36	416.62
607.51	454.06
607.67	437.68
607.82	411.93
607.98	395.55
608.13	402.57
608.29	409.59
608.44	472.79
608.60	409.59
608.75	470.45
608.91	397.89
609.06	454.06
609.22	451.72
609.37	433.00
609.53	418.96
609.68	470.45
609.84	395.55
609.99	341.72
610.15	416.62
