SpectraSuite Data File
++++++++++++++++++++++++++++++++++++
Date: Fri Oct 25 12:10:26 EDT 2013
User: price-jones
Dark Spectrum Present: No
Reference Spectrum Present: No
Number of Sampled Component Spectra: 1
Spectrometers: USB2+H05261
Integration Time (usec): 100000 (USB2+H05261)
Spectra Averaged: 1 (USB2+H05261)
Boxcar Smoothing: 0 (USB2+H05261)
Correct for Electrical Dark: No (USB2+H05261)
Strobe/Lamp Enabled: No (USB2+H05261)
Correct for Detector Non-linearity: No (USB2+H05261)
Correct for Stray Light: No (USB2+H05261)
Number of Pixels in Processed Spectrum: 2048
>>>>>Begin Processed Spectral Data<<<<<
365.73	292.57
365.92	292.57
366.12	292.57
366.32	248.10
366.52	241.08
366.72	227.03
366.91	245.76
367.11	257.46
367.31	224.69
367.51	229.37
367.70	243.42
367.90	283.20
368.10	287.89
368.30	198.95
368.49	222.35
368.69	227.03
368.89	287.89
369.09	170.86
369.28	327.68
369.48	285.55
369.68	250.44
369.87	358.10
370.07	276.18
370.27	348.74
370.47	334.70
370.66	313.63
370.86	372.15
371.06	327.68
371.25	418.96
371.45	374.49
371.65	372.15
371.84	386.19
372.04	411.93
372.24	365.12
372.44	332.36
372.63	379.17
372.83	404.91
373.03	409.59
373.22	365.12
373.42	407.25
373.62	418.96
373.81	454.06
374.01	449.38
374.21	421.30
374.40	447.04
374.60	468.11
374.79	440.02
374.99	369.80
375.19	461.09
375.38	477.47
375.58	397.89
375.78	475.13
375.97	440.02
376.17	482.15
376.37	465.77
376.56	418.96
376.76	337.04
376.95	435.34
377.15	468.11
377.35	404.91
377.54	440.02
377.74	461.09
377.93	330.02
378.13	404.91
378.33	461.09
378.52	386.19
378.72	353.42
378.91	393.21
379.11	355.76
379.31	381.51
379.50	383.85
379.70	461.09
379.89	400.23
380.09	381.51
380.28	376.83
380.48	395.55
380.68	400.23
380.87	337.04
381.07	425.98
381.26	400.23
381.46	330.02
381.65	407.25
381.85	376.83
382.04	383.85
382.24	365.12
382.43	409.59
382.63	369.80
382.83	411.93
383.02	423.64
383.22	447.04
383.41	353.42
383.61	381.51
383.80	465.77
384.00	400.23
384.19	379.17
384.39	393.21
384.58	393.21
384.78	437.68
384.97	418.96
385.17	404.91
385.36	430.66
385.56	369.80
385.75	374.49
385.95	444.70
386.14	372.15
386.34	372.15
386.53	414.27
386.72	423.64
386.92	444.70
387.11	341.72
387.31	386.19
387.50	379.17
387.70	339.38
387.89	381.51
388.09	458.74
388.28	362.78
388.48	383.85
388.67	358.10
388.86	430.66
389.06	440.02
389.25	437.68
389.45	425.98
389.64	411.93
389.84	400.23
390.03	449.38
390.22	435.34
390.42	425.98
390.61	411.93
390.81	423.64
391.00	388.53
391.19	404.91
391.39	390.87
391.58	376.83
391.78	402.57
391.97	428.32
392.16	341.72
392.36	400.23
392.55	433.00
392.75	379.17
392.94	369.80
393.13	433.00
393.33	402.57
393.52	351.08
393.71	311.29
393.91	418.96
394.10	435.34
394.29	290.23
394.49	411.93
394.68	416.62
394.88	372.15
395.07	461.09
395.26	444.70
395.46	433.00
395.65	414.27
395.84	461.09
396.04	468.11
396.23	367.46
396.42	435.34
396.62	461.09
396.81	433.00
397.00	346.40
397.19	372.15
397.39	374.49
397.58	442.36
397.77	360.44
397.97	393.21
398.16	409.59
398.35	353.42
398.55	454.06
398.74	369.80
398.93	379.17
399.12	440.02
399.32	449.38
399.51	369.80
399.70	379.17
399.90	383.85
400.09	388.53
400.28	402.57
400.47	402.57
400.67	440.02
400.86	390.87
401.05	414.27
401.24	379.17
401.44	479.81
401.63	390.87
401.82	407.25
402.01	447.04
402.21	395.55
402.40	409.59
402.59	322.99
402.78	388.53
402.97	430.66
403.17	416.62
403.36	423.64
403.55	362.78
403.74	397.89
403.93	440.02
404.13	440.02
404.32	409.59
404.51	353.42
404.70	400.23
404.89	411.93
405.09	458.74
405.28	376.83
405.47	390.87
405.66	374.49
405.85	397.89
406.05	437.68
406.24	404.91
406.43	386.19
406.62	400.23
406.81	451.72
407.00	458.74
407.20	437.68
407.39	456.40
407.58	411.93
407.77	313.63
407.96	418.96
408.15	362.78
408.34	393.21
408.54	428.32
408.73	402.57
408.92	351.08
409.11	430.66
409.30	404.91
409.49	437.68
409.68	442.36
409.87	339.38
410.07	355.76
410.26	400.23
410.45	393.21
410.64	397.89
410.83	383.85
411.02	437.68
411.21	430.66
411.40	390.87
411.59	423.64
411.78	358.10
411.98	365.12
412.17	423.64
412.36	397.89
412.55	367.46
412.74	409.59
412.93	449.38
413.12	425.98
413.31	400.23
413.50	376.83
413.69	355.76
413.88	477.47
414.07	355.76
414.26	386.19
414.45	418.96
414.64	407.25
414.83	411.93
415.02	388.53
415.22	402.57
415.41	409.59
415.60	313.63
415.79	400.23
415.98	458.74
416.17	383.85
416.36	397.89
416.55	395.55
416.74	489.17
416.93	362.78
417.12	440.02
417.31	433.00
417.50	444.70
417.69	491.51
417.88	402.57
418.07	414.27
418.26	435.34
418.45	409.59
418.64	372.15
418.83	411.93
419.02	418.96
419.21	491.51
419.39	484.49
419.58	430.66
419.77	383.85
419.96	400.23
420.15	409.59
420.34	430.66
420.53	486.83
420.72	444.70
420.91	390.87
421.10	397.89
421.29	425.98
421.48	395.55
421.67	404.91
421.86	395.55
422.05	435.34
422.24	442.36
422.43	400.23
422.61	393.21
422.80	421.30
422.99	374.49
423.18	362.78
423.37	428.32
423.56	442.36
423.75	423.64
423.94	379.17
424.13	404.91
424.32	397.89
424.50	390.87
424.69	428.32
424.88	362.78
425.07	376.83
425.26	418.96
425.45	416.62
425.64	414.27
425.83	390.87
426.01	334.70
426.20	369.80
426.39	386.19
426.58	468.11
426.77	411.93
426.96	390.87
427.15	367.46
427.33	411.93
427.52	388.53
427.71	421.30
427.90	493.85
428.09	344.06
428.28	416.62
428.46	414.27
428.65	447.04
428.84	411.93
429.03	416.62
429.22	388.53
429.40	358.10
429.59	435.34
429.78	472.79
429.97	358.10
430.16	421.30
430.34	383.85
430.53	475.13
430.72	381.51
430.91	454.06
431.10	425.98
431.28	423.64
431.47	379.17
431.66	435.34
431.85	390.87
432.03	369.80
432.22	402.57
432.41	383.85
432.60	416.62
432.79	365.12
432.97	472.79
433.16	362.78
433.35	358.10
433.54	402.57
433.72	449.38
433.91	442.36
434.10	388.53
434.28	374.49
434.47	409.59
434.66	433.00
434.85	447.04
435.03	376.83
435.22	440.02
435.41	379.17
435.59	409.59
435.78	421.30
435.97	353.42
436.16	358.10
436.34	383.85
436.53	454.06
436.72	444.70
436.90	430.66
437.09	472.79
437.28	414.27
437.46	365.12
437.65	411.93
437.84	407.25
438.02	418.96
438.21	416.62
438.40	437.68
438.58	425.98
438.77	381.51
438.96	479.81
439.14	346.40
439.33	374.49
439.52	444.70
439.70	458.74
439.89	433.00
440.08	409.59
440.26	428.32
440.45	456.40
440.63	411.93
440.82	428.32
441.01	402.57
441.19	402.57
441.38	435.34
441.57	437.68
441.75	433.00
441.94	407.25
442.12	454.06
442.31	423.64
442.50	327.68
442.68	390.87
442.87	421.30
443.05	440.02
443.24	383.85
443.43	442.36
443.61	482.15
443.80	465.77
443.98	376.83
444.17	376.83
444.35	395.55
444.54	381.51
444.73	411.93
444.91	404.91
445.10	351.08
445.28	402.57
445.47	479.81
445.65	418.96
445.84	311.29
446.02	395.55
446.21	418.96
446.39	407.25
446.58	430.66
446.77	374.49
446.95	461.09
447.14	428.32
447.32	400.23
447.51	435.34
447.69	475.13
447.88	414.27
448.06	421.30
448.25	444.70
448.43	390.87
448.62	372.15
448.80	418.96
448.99	440.02
449.17	376.83
449.36	367.46
449.54	390.87
449.73	411.93
449.91	393.21
450.10	369.80
450.28	440.02
450.46	395.55
450.65	449.38
450.83	393.21
451.02	477.47
451.20	433.00
451.39	411.93
451.57	339.38
451.76	416.62
451.94	465.77
452.13	444.70
452.31	444.70
452.49	376.83
452.68	365.12
452.86	369.80
453.05	507.90
453.23	475.13
453.42	400.23
453.60	379.17
453.78	390.87
453.97	418.96
454.15	376.83
454.34	451.72
454.52	395.55
454.70	395.55
454.89	367.46
455.07	365.12
455.26	404.91
455.44	414.27
455.62	407.25
455.81	428.32
455.99	435.34
456.17	407.25
456.36	428.32
456.54	346.40
456.73	395.55
456.91	402.57
457.09	423.64
457.28	400.23
457.46	337.04
457.64	449.38
457.83	454.06
458.01	463.43
458.19	416.62
458.38	416.62
458.56	425.98
458.74	449.38
458.93	440.02
459.11	397.89
459.29	507.90
459.48	416.62
459.66	444.70
459.84	407.25
460.03	451.72
460.21	447.04
460.39	386.19
460.57	442.36
460.76	423.64
460.94	409.59
461.12	397.89
461.31	437.68
461.49	358.10
461.67	390.87
461.85	458.74
462.04	463.43
462.22	795.78
462.40	407.25
462.59	414.27
462.77	346.40
462.95	421.30
463.13	451.72
463.32	418.96
463.50	414.27
463.68	435.34
463.86	444.70
464.05	421.30
464.23	486.83
464.41	383.85
464.59	383.85
464.78	365.12
464.96	400.23
465.14	423.64
465.32	418.96
465.50	379.17
465.69	463.43
465.87	397.89
466.05	437.68
466.23	369.80
466.41	442.36
466.60	418.96
466.78	440.02
466.96	433.00
467.14	444.70
467.32	409.59
467.51	414.27
467.69	400.23
467.87	444.70
468.05	451.72
468.23	416.62
468.41	463.43
468.60	423.64
468.78	360.44
468.96	449.38
469.14	440.02
469.32	402.57
469.50	451.72
469.69	414.27
469.87	465.77
470.05	409.59
470.23	353.42
470.41	372.15
470.59	447.04
470.77	423.64
470.95	404.91
471.14	365.12
471.32	416.62
471.50	435.34
471.68	414.27
471.86	470.45
472.04	407.25
472.22	393.21
472.40	383.85
472.58	360.44
472.77	411.93
472.95	315.97
473.13	451.72
473.31	442.36
473.49	442.36
473.67	379.17
473.85	463.43
474.03	477.47
474.21	407.25
474.39	489.17
474.57	444.70
474.75	397.89
474.93	416.62
475.12	379.17
475.30	454.06
475.48	393.21
475.66	430.66
475.84	390.87
476.02	355.76
476.20	421.30
476.38	381.51
476.56	463.43
476.74	411.93
476.92	367.46
477.10	430.66
477.28	407.25
477.46	388.53
477.64	449.38
477.82	339.38
478.00	381.51
478.18	372.15
478.36	484.49
478.54	451.72
478.72	489.17
478.90	411.93
479.08	341.72
479.26	454.06
479.44	411.93
479.62	407.25
479.80	372.15
479.98	435.34
480.16	444.70
480.34	454.06
480.52	362.78
480.70	402.57
480.88	369.80
481.06	440.02
481.24	461.09
481.41	348.74
481.59	414.27
481.77	475.13
481.95	465.77
482.13	402.57
482.31	379.17
482.49	362.78
482.67	404.91
482.85	430.66
483.03	470.45
483.21	484.49
483.39	390.87
483.57	393.21
483.74	475.13
483.92	358.10
484.10	388.53
484.28	400.23
484.46	444.70
484.64	414.27
484.82	418.96
485.00	428.32
485.18	402.57
485.35	409.59
485.53	393.21
485.71	444.70
485.89	397.89
486.07	393.21
486.25	383.85
486.43	381.51
486.61	475.13
486.78	421.30
486.96	409.59
487.14	414.27
487.32	381.51
487.50	458.74
487.68	407.25
487.85	381.51
488.03	407.25
488.21	423.64
488.39	421.30
488.57	395.55
488.75	393.21
488.92	519.60
489.10	435.34
489.28	451.72
489.46	397.89
489.64	414.27
489.81	365.12
489.99	400.23
490.17	521.94
490.35	433.00
490.53	397.89
490.70	482.15
490.88	330.02
491.06	369.80
491.24	358.10
491.41	390.87
491.59	444.70
491.77	379.17
491.95	451.72
492.13	435.34
492.30	442.36
492.48	367.46
492.66	395.55
492.84	447.04
493.01	435.34
493.19	423.64
493.37	428.32
493.54	447.04
493.72	440.02
493.90	463.43
494.08	411.93
494.25	449.38
494.43	374.49
494.61	414.27
494.79	374.49
494.96	454.06
495.14	428.32
495.32	400.23
495.49	372.15
495.67	411.93
495.85	416.62
496.02	388.53
496.20	465.77
496.38	423.64
496.55	433.00
496.73	400.23
496.91	409.59
497.09	402.57
497.26	421.30
497.44	430.66
497.62	519.60
497.79	374.49
497.97	393.21
498.14	330.02
498.32	360.44
498.50	423.64
498.67	390.87
498.85	376.83
499.03	372.15
499.20	498.53
499.38	416.62
499.56	409.59
499.73	430.66
499.91	425.98
500.08	442.36
500.26	423.64
500.44	386.19
500.61	437.68
500.79	433.00
500.97	386.19
501.14	484.49
501.32	395.55
501.49	393.21
501.67	388.53
501.84	400.23
502.02	355.76
502.20	386.19
502.37	404.91
502.55	418.96
502.72	358.10
502.90	493.85
503.07	414.27
503.25	416.62
503.43	327.68
503.60	433.00
503.78	388.53
503.95	430.66
504.13	414.27
504.30	409.59
504.48	411.93
504.65	397.89
504.83	451.72
505.01	449.38
505.18	421.30
505.36	402.57
505.53	484.49
505.71	355.76
505.88	472.79
506.06	341.72
506.23	411.93
506.41	428.32
506.58	435.34
506.76	393.21
506.93	414.27
507.11	416.62
507.28	346.40
507.46	418.96
507.63	470.45
507.81	458.74
507.98	447.04
508.16	423.64
508.33	430.66
508.50	390.87
508.68	428.32
508.85	440.02
509.03	414.27
509.20	346.40
509.38	416.62
509.55	355.76
509.73	465.77
509.90	449.38
510.08	449.38
510.25	379.17
510.42	404.91
510.60	386.19
510.77	428.32
510.95	383.85
511.12	430.66
511.30	454.06
511.47	451.72
511.64	475.13
511.82	404.91
511.99	507.90
512.17	421.30
512.34	381.51
512.51	440.02
512.69	449.38
512.86	489.17
513.04	386.19
513.21	381.51
513.38	400.23
513.56	440.02
513.73	393.21
513.90	376.83
514.08	388.53
514.25	386.19
514.43	477.47
514.60	355.76
514.77	395.55
514.95	374.49
515.12	362.78
515.29	458.74
515.47	458.74
515.64	414.27
515.81	416.62
515.99	470.45
516.16	425.98
516.33	458.74
516.51	411.93
516.68	411.93
516.85	358.10
517.03	444.70
517.20	397.89
517.37	411.93
517.54	351.08
517.72	425.98
517.89	418.96
518.06	519.60
518.24	489.17
518.41	470.45
518.58	444.70
518.75	423.64
518.93	376.83
519.10	430.66
519.27	435.34
519.45	421.30
519.62	449.38
519.79	428.32
519.96	418.96
520.14	456.40
520.31	482.15
520.48	423.64
520.65	414.27
520.83	440.02
521.00	388.53
521.17	423.64
521.34	348.74
521.52	362.78
521.69	395.55
521.86	407.25
522.03	461.09
522.20	437.68
522.38	404.91
522.55	374.49
522.72	458.74
522.89	402.57
523.07	430.66
523.24	383.85
523.41	433.00
523.58	411.93
523.75	430.66
523.92	418.96
524.10	430.66
524.27	416.62
524.44	367.46
524.61	484.49
524.78	414.27
524.96	493.85
525.13	465.77
525.30	402.57
525.47	428.32
525.64	395.55
525.81	463.43
525.98	456.40
526.16	414.27
526.33	428.32
526.50	404.91
526.67	435.34
526.84	374.49
527.01	451.72
527.18	421.30
527.36	400.23
527.53	477.47
527.70	414.27
527.87	416.62
528.04	468.11
528.21	414.27
528.38	344.06
528.55	479.81
528.72	496.19
528.89	416.62
529.07	360.44
529.24	444.70
529.41	451.72
529.58	327.68
529.75	407.25
529.92	444.70
530.09	449.38
530.26	440.02
530.43	444.70
530.60	374.49
530.77	372.15
530.94	472.79
531.11	393.21
531.28	397.89
531.46	395.55
531.63	411.93
531.80	430.66
531.97	437.68
532.14	496.19
532.31	440.02
532.48	379.17
532.65	383.85
532.82	388.53
532.99	386.19
533.16	437.68
533.33	454.06
533.50	402.57
533.67	395.55
533.84	395.55
534.01	428.32
534.18	372.15
534.35	479.81
534.52	444.70
534.69	472.79
534.86	472.79
535.03	369.80
535.20	346.40
535.37	463.43
535.54	351.08
535.71	348.74
535.88	421.30
536.05	374.49
536.22	437.68
536.38	409.59
536.55	447.04
536.72	388.53
536.89	409.59
537.06	381.51
537.23	348.74
537.40	425.98
537.57	498.53
537.74	444.70
537.91	376.83
538.08	444.70
538.25	400.23
538.42	407.25
538.59	465.77
538.75	407.25
538.92	395.55
539.09	421.30
539.26	393.21
539.43	458.74
539.60	430.66
539.77	440.02
539.94	423.64
540.11	418.96
540.28	381.51
540.44	428.32
540.61	360.44
540.78	351.08
540.95	358.10
541.12	454.06
541.29	393.21
541.46	421.30
541.62	486.83
541.79	404.91
541.96	430.66
542.13	334.70
542.30	386.19
542.47	395.55
542.63	397.89
542.80	404.91
542.97	379.17
543.14	489.17
543.31	346.40
543.48	470.45
543.64	367.46
543.81	430.66
543.98	358.10
544.15	416.62
544.32	505.56
544.48	472.79
544.65	374.49
544.82	402.57
544.99	404.91
545.16	355.76
545.32	386.19
545.49	390.87
545.66	393.21
545.83	416.62
546.00	428.32
546.16	435.34
546.33	390.87
546.50	395.55
546.67	402.57
546.83	468.11
547.00	491.51
547.17	421.30
547.34	440.02
547.50	447.04
547.67	365.12
547.84	383.85
548.00	468.11
548.17	437.68
548.34	393.21
548.51	421.30
548.67	433.00
548.84	458.74
549.01	433.00
549.18	388.53
549.34	461.09
549.51	402.57
549.68	447.04
549.84	482.15
550.01	425.98
550.18	451.72
550.34	528.96
550.51	360.44
550.68	449.38
550.84	425.98
551.01	416.62
551.18	383.85
551.34	479.81
551.51	397.89
551.68	383.85
551.84	454.06
552.01	433.00
552.18	411.93
552.34	458.74
552.51	425.98
552.68	379.17
552.84	418.96
553.01	386.19
553.18	411.93
553.34	397.89
553.51	437.68
553.67	411.93
553.84	416.62
554.01	425.98
554.17	416.62
554.34	423.64
554.51	500.87
554.67	414.27
554.84	381.51
555.00	444.70
555.17	475.13
555.33	458.74
555.50	418.96
555.67	346.40
555.83	365.12
556.00	407.25
556.16	528.96
556.33	493.85
556.50	437.68
556.66	411.93
556.83	344.06
556.99	458.74
557.16	341.72
557.32	416.62
557.49	442.36
557.65	379.17
557.82	463.43
557.98	479.81
558.15	428.32
558.32	477.47
558.48	362.78
558.65	374.49
558.81	461.09
558.98	479.81
559.14	433.00
559.31	447.04
559.47	421.30
559.64	425.98
559.80	383.85
559.97	444.70
560.13	386.19
560.30	383.85
560.46	418.96
560.63	416.62
560.79	369.80
560.96	383.85
561.12	397.89
561.29	470.45
561.45	407.25
561.61	388.53
561.78	510.24
561.94	416.62
562.11	482.15
562.27	433.00
562.44	372.15
562.60	393.21
562.77	414.27
562.93	507.90
563.10	425.98
563.26	428.32
563.42	423.64
563.59	390.87
563.75	397.89
563.92	493.85
564.08	458.74
564.24	397.89
564.41	463.43
564.57	407.25
564.74	367.46
564.90	463.43
565.07	440.02
565.23	463.43
565.39	458.74
565.56	514.92
565.72	407.25
565.88	425.98
566.05	477.47
566.21	383.85
566.38	411.93
566.54	472.79
566.70	388.53
566.87	404.91
567.03	353.42
567.19	358.10
567.36	416.62
567.52	416.62
567.68	386.19
567.85	414.27
568.01	400.23
568.17	390.87
568.34	442.36
568.50	407.25
568.66	362.78
568.83	517.26
568.99	421.30
569.15	477.47
569.32	433.00
569.48	479.81
569.64	454.06
569.81	400.23
569.97	447.04
570.13	454.06
570.30	386.19
570.46	358.10
570.62	409.59
570.78	428.32
570.95	374.49
571.11	388.53
571.27	435.34
571.43	411.93
571.60	437.68
571.76	435.34
571.92	423.64
572.09	437.68
572.25	475.13
572.41	369.80
572.57	395.55
572.74	470.45
572.90	479.81
573.06	362.78
573.22	372.15
573.38	416.62
573.55	440.02
573.71	456.40
573.87	437.68
574.03	454.06
574.20	423.64
574.36	423.64
574.52	393.21
574.68	449.38
574.84	468.11
575.01	421.30
575.17	397.89
575.33	411.93
575.49	444.70
575.65	482.15
575.82	463.43
575.98	461.09
576.14	409.59
576.30	404.91
576.46	442.36
576.62	449.38
576.79	510.24
576.95	484.49
577.11	409.59
577.27	435.34
577.43	393.21
577.59	451.72
577.75	374.49
577.92	402.57
578.08	428.32
578.24	425.98
578.40	390.87
578.56	463.43
578.72	388.53
578.88	414.27
579.04	395.55
579.21	400.23
579.37	388.53
579.53	365.12
579.69	500.87
579.85	374.49
580.01	416.62
580.17	390.87
580.33	402.57
580.49	386.19
580.65	458.74
580.82	421.30
580.98	418.96
581.14	465.77
581.30	444.70
581.46	351.08
581.62	451.72
581.78	451.72
581.94	440.02
582.10	383.85
582.26	414.27
582.42	423.64
582.58	416.62
582.74	468.11
582.90	285.55
583.06	390.87
583.22	444.70
583.38	423.64
583.54	393.21
583.70	374.49
583.86	400.23
584.02	414.27
584.18	418.96
584.34	423.64
584.50	407.25
584.66	444.70
584.82	409.59
584.98	454.06
585.14	400.23
585.30	468.11
585.46	437.68
585.62	369.80
585.78	374.49
585.94	421.30
586.10	409.59
586.26	482.15
586.42	435.34
586.58	491.51
586.74	400.23
586.90	416.62
587.06	430.66
587.22	395.55
587.38	407.25
587.54	451.72
587.70	402.57
587.86	470.45
588.02	400.23
588.18	440.02
588.34	505.56
588.49	477.47
588.65	444.70
588.81	444.70
588.97	444.70
589.13	425.98
589.29	433.00
589.45	456.40
589.61	447.04
589.77	372.15
589.93	383.85
590.08	400.23
590.24	404.91
590.40	477.47
590.56	388.53
590.72	346.40
590.88	337.04
591.04	374.49
591.20	397.89
591.35	526.62
591.51	409.59
591.67	407.25
591.83	447.04
591.99	498.53
592.15	409.59
592.31	425.98
592.46	421.30
592.62	458.74
592.78	433.00
592.94	365.12
593.10	440.02
593.26	430.66
593.41	493.85
593.57	362.78
593.73	365.12
593.89	435.34
594.05	440.02
594.20	447.04
594.36	425.98
594.52	397.89
594.68	472.79
594.84	416.62
594.99	505.56
595.15	411.93
595.31	458.74
595.47	390.87
595.62	395.55
595.78	437.68
595.94	360.44
596.10	395.55
596.25	379.17
596.41	503.22
596.57	428.32
596.73	435.34
596.88	402.57
597.04	482.15
597.20	428.32
597.36	524.28
597.51	444.70
597.67	477.47
597.83	386.19
597.99	454.06
598.14	402.57
598.30	416.62
598.46	449.38
598.61	477.47
598.77	433.00
598.93	365.12
599.09	358.10
599.24	383.85
599.40	404.91
599.56	414.27
599.71	414.27
599.87	351.08
600.03	383.85
600.18	472.79
600.34	411.93
600.50	425.98
600.65	416.62
600.81	369.80
600.97	411.93
601.12	440.02
601.28	421.30
601.44	447.04
601.59	482.15
601.75	465.77
601.91	435.34
602.06	458.74
602.22	421.30
602.37	409.59
602.53	414.27
602.69	402.57
602.84	425.98
603.00	430.66
603.16	400.23
603.31	423.64
603.47	421.30
603.62	435.34
603.78	430.66
603.94	465.77
604.09	491.51
604.25	402.57
604.40	372.15
604.56	346.40
604.71	386.19
604.87	456.40
605.03	444.70
605.18	376.83
605.34	512.58
605.49	425.98
605.65	444.70
605.80	372.15
605.96	374.49
606.12	510.24
606.27	449.38
606.43	428.32
606.58	360.44
606.74	388.53
606.89	376.83
607.05	472.79
607.20	374.49
607.36	442.36
607.51	423.64
607.67	395.55
607.82	475.13
607.98	491.51
608.13	388.53
608.29	388.53
608.44	482.15
608.60	437.68
608.75	416.62
608.91	433.00
609.06	479.81
609.22	437.68
609.37	362.78
609.53	372.15
609.68	425.98
609.84	479.81
609.99	477.47
610.15	428.32
