SpectraSuite Data File
++++++++++++++++++++++++++++++++++++
Date: Fri Oct 25 12:11:18 EDT 2013
User: price-jones
Dark Spectrum Present: No
Reference Spectrum Present: No
Number of Sampled Component Spectra: 1
Spectrometers: USB2+H05261
Integration Time (usec): 100000 (USB2+H05261)
Spectra Averaged: 1 (USB2+H05261)
Boxcar Smoothing: 0 (USB2+H05261)
Correct for Electrical Dark: No (USB2+H05261)
Strobe/Lamp Enabled: No (USB2+H05261)
Correct for Detector Non-linearity: No (USB2+H05261)
Correct for Stray Light: No (USB2+H05261)
Number of Pixels in Processed Spectrum: 2048
>>>>>Begin Processed Spectral Data<<<<<
365.73	421.30
365.92	421.30
366.12	421.30
366.32	264.48
366.52	280.86
366.72	224.69
366.91	234.05
367.11	248.10
367.31	238.73
367.51	215.33
367.70	182.56
367.90	259.80
368.10	257.46
368.30	285.55
368.49	234.05
368.69	182.56
368.89	273.84
369.09	252.78
369.28	315.97
369.48	229.37
369.68	229.37
369.87	322.99
370.07	255.12
370.27	332.36
370.47	313.63
370.66	416.62
370.86	318.31
371.06	470.45
371.25	414.27
371.45	414.27
371.65	339.38
371.84	372.15
372.04	376.83
372.24	454.06
372.44	386.19
372.63	414.27
372.83	428.32
373.03	440.02
373.22	365.12
373.42	407.25
373.62	428.32
373.81	430.66
374.01	463.43
374.21	379.17
374.40	447.04
374.60	444.70
374.79	360.44
374.99	395.55
375.19	512.58
375.38	461.09
375.58	451.72
375.78	468.11
375.97	383.85
376.17	465.77
376.37	353.42
376.56	348.74
376.76	379.17
376.95	435.34
377.15	372.15
377.35	367.46
377.54	447.04
377.74	468.11
377.93	414.27
378.13	386.19
378.33	440.02
378.52	435.34
378.72	493.85
378.91	444.70
379.11	400.23
379.31	425.98
379.50	416.62
379.70	468.11
379.89	430.66
380.09	372.15
380.28	313.63
380.48	362.78
380.68	330.02
380.87	409.59
381.07	433.00
381.26	407.25
381.46	358.10
381.65	430.66
381.85	428.32
382.04	348.74
382.24	383.85
382.43	447.04
382.63	428.32
382.83	376.83
383.02	465.77
383.22	440.02
383.41	449.38
383.61	477.47
383.80	397.89
384.00	402.57
384.19	411.93
384.39	447.04
384.58	337.04
384.78	383.85
384.97	383.85
385.17	318.31
385.36	433.00
385.56	435.34
385.75	418.96
385.95	470.45
386.14	379.17
386.34	444.70
386.53	404.91
386.72	409.59
386.92	409.59
387.11	351.08
387.31	430.66
387.50	395.55
387.70	465.77
387.89	409.59
388.09	383.85
388.28	383.85
388.48	414.27
388.67	411.93
388.86	442.36
389.06	369.80
389.25	477.47
389.45	454.06
389.64	428.32
389.84	414.27
390.03	404.91
390.22	442.36
390.42	428.32
390.61	463.43
390.81	428.32
391.00	400.23
391.19	369.80
391.39	376.83
391.58	383.85
391.78	386.19
391.97	442.36
392.16	351.08
392.36	379.17
392.55	409.59
392.75	454.06
392.94	421.30
393.13	388.53
393.33	440.02
393.52	414.27
393.71	447.04
393.91	454.06
394.10	444.70
394.29	369.80
394.49	372.15
394.68	435.34
394.88	414.27
395.07	430.66
395.26	407.25
395.46	430.66
395.65	416.62
395.84	433.00
396.04	414.27
396.23	374.49
396.42	411.93
396.62	440.02
396.81	381.51
397.00	435.34
397.19	374.49
397.39	423.64
397.58	400.23
397.77	355.76
397.97	477.47
398.16	444.70
398.35	421.30
398.55	390.87
398.74	386.19
398.93	404.91
399.12	322.99
399.32	418.96
399.51	421.30
399.70	388.53
399.90	442.36
400.09	449.38
400.28	496.19
400.47	372.15
400.67	444.70
400.86	430.66
401.05	447.04
401.24	418.96
401.44	486.83
401.63	451.72
401.82	454.06
402.01	442.36
402.21	407.25
402.40	346.40
402.59	397.89
402.78	414.27
402.97	402.57
403.17	437.68
403.36	374.49
403.55	430.66
403.74	411.93
403.93	425.98
404.13	470.45
404.32	402.57
404.51	409.59
404.70	454.06
404.89	409.59
405.09	437.68
405.28	322.99
405.47	388.53
405.66	414.27
405.85	388.53
406.05	367.46
406.24	379.17
406.43	477.47
406.62	447.04
406.81	421.30
407.00	411.93
407.20	451.72
407.39	397.89
407.58	397.89
407.77	407.25
407.96	397.89
408.15	465.77
408.34	367.46
408.54	409.59
408.73	379.17
408.92	423.64
409.11	454.06
409.30	418.96
409.49	362.78
409.68	463.43
409.87	393.21
410.07	388.53
410.26	383.85
410.45	337.04
410.64	395.55
410.83	421.30
411.02	404.91
411.21	383.85
411.40	468.11
411.59	400.23
411.78	381.51
411.98	393.21
412.17	397.89
412.36	404.91
412.55	449.38
412.74	358.10
412.93	470.45
413.12	390.87
413.31	386.19
413.50	440.02
413.69	341.72
413.88	362.78
414.07	397.89
414.26	444.70
414.45	332.36
414.64	383.85
414.83	358.10
415.02	409.59
415.22	433.00
415.41	339.38
415.60	442.36
415.79	414.27
415.98	425.98
416.17	369.80
416.36	390.87
416.55	383.85
416.74	393.21
416.93	374.49
417.12	402.57
417.31	442.36
417.50	346.40
417.69	458.74
417.88	351.08
418.07	355.76
418.26	339.38
418.45	482.15
418.64	411.93
418.83	397.89
419.02	498.53
419.21	411.93
419.39	353.42
419.58	447.04
419.77	386.19
419.96	388.53
420.15	421.30
420.34	409.59
420.53	381.51
420.72	365.12
420.91	437.68
421.10	304.27
421.29	425.98
421.48	404.91
421.67	463.43
421.86	421.30
422.05	435.34
422.24	425.98
422.43	451.72
422.61	348.74
422.80	440.02
422.99	425.98
423.18	421.30
423.37	468.11
423.56	425.98
423.75	433.00
423.94	393.21
424.13	449.38
424.32	418.96
424.50	418.96
424.69	414.27
424.88	430.66
425.07	355.76
425.26	374.49
425.45	425.98
425.64	379.17
425.83	383.85
426.01	451.72
426.20	463.43
426.39	393.21
426.58	395.55
426.77	409.59
426.96	388.53
427.15	369.80
427.33	395.55
427.52	390.87
427.71	409.59
427.90	451.72
428.09	372.15
428.28	407.25
428.46	390.87
428.65	444.70
428.84	437.68
429.03	449.38
429.22	430.66
429.40	411.93
429.59	360.44
429.78	447.04
429.97	447.04
430.16	451.72
430.34	369.80
430.53	437.68
430.72	390.87
430.91	458.74
431.10	411.93
431.28	416.62
431.47	430.66
431.66	416.62
431.85	437.68
432.03	383.85
432.22	376.83
432.41	388.53
432.60	390.87
432.79	390.87
432.97	365.12
433.16	397.89
433.35	400.23
433.54	404.91
433.72	472.79
433.91	397.89
434.10	383.85
434.28	421.30
434.47	393.21
434.66	414.27
434.85	374.49
435.03	442.36
435.22	407.25
435.41	447.04
435.59	421.30
435.78	414.27
435.97	414.27
436.16	416.62
436.34	451.72
436.53	433.00
436.72	418.96
436.90	376.83
437.09	395.55
437.28	362.78
437.46	402.57
437.65	442.36
437.84	425.98
438.02	381.51
438.21	421.30
438.40	402.57
438.58	440.02
438.77	449.38
438.96	397.89
439.14	411.93
439.33	435.34
439.52	407.25
439.70	468.11
439.89	369.80
440.08	437.68
440.26	435.34
440.45	409.59
440.63	393.21
440.82	374.49
441.01	414.27
441.19	423.64
441.38	407.25
441.57	390.87
441.75	381.51
441.94	425.98
442.12	461.09
442.31	395.55
442.50	433.00
442.68	372.15
442.87	402.57
443.05	404.91
443.24	479.81
443.43	470.45
443.61	468.11
443.80	433.00
443.98	470.45
444.17	372.15
444.35	454.06
444.54	418.96
444.73	407.25
444.91	430.66
445.10	407.25
445.28	423.64
445.47	360.44
445.65	346.40
445.84	376.83
446.02	470.45
446.21	402.57
446.39	393.21
446.58	397.89
446.77	414.27
446.95	409.59
447.14	418.96
447.32	421.30
447.51	461.09
447.69	440.02
447.88	369.80
448.06	407.25
448.25	379.17
448.43	411.93
448.62	491.51
448.80	458.74
448.99	428.32
449.17	390.87
449.36	386.19
449.54	400.23
449.73	447.04
449.91	463.43
450.10	390.87
450.28	470.45
450.46	500.87
450.65	437.68
450.83	507.90
451.02	447.04
451.20	348.74
451.39	449.38
451.57	388.53
451.76	454.06
451.94	433.00
452.13	418.96
452.31	407.25
452.49	435.34
452.68	386.19
452.86	402.57
453.05	409.59
453.23	465.77
453.42	472.79
453.60	383.85
453.78	437.68
453.97	346.40
454.15	440.02
454.34	386.19
454.52	372.15
454.70	440.02
454.89	435.34
455.07	421.30
455.26	367.46
455.44	402.57
455.62	351.08
455.81	496.19
455.99	489.17
456.17	404.91
456.36	442.36
456.54	383.85
456.73	404.91
456.91	416.62
457.09	461.09
457.28	440.02
457.46	353.42
457.64	388.53
457.83	407.25
458.01	383.85
458.19	407.25
458.38	358.10
458.56	421.30
458.74	351.08
458.93	433.00
459.11	383.85
459.29	418.96
459.48	425.98
459.66	524.28
459.84	479.81
460.03	449.38
460.21	435.34
460.39	447.04
460.57	407.25
460.76	449.38
460.94	461.09
461.12	477.47
461.31	482.15
461.49	421.30
461.67	447.04
461.85	341.72
462.04	374.49
462.22	734.93
462.40	437.68
462.59	416.62
462.77	425.98
462.95	475.13
463.13	440.02
463.32	332.36
463.50	358.10
463.68	458.74
463.86	444.70
464.05	435.34
464.23	407.25
464.41	379.17
464.59	430.66
464.78	414.27
464.96	414.27
465.14	369.80
465.32	430.66
465.50	346.40
465.69	395.55
465.87	390.87
466.05	390.87
466.23	369.80
466.41	402.57
466.60	444.70
466.78	339.38
466.96	461.09
467.14	381.51
467.32	425.98
467.51	390.87
467.69	454.06
467.87	463.43
468.05	456.40
468.23	463.43
468.41	402.57
468.60	465.77
468.78	390.87
468.96	421.30
469.14	355.76
469.32	346.40
469.50	428.32
469.69	465.77
469.87	386.19
470.05	411.93
470.23	395.55
470.41	454.06
470.59	301.93
470.77	430.66
470.95	409.59
471.14	442.36
471.32	442.36
471.50	437.68
471.68	397.89
471.86	447.04
472.04	402.57
472.22	449.38
472.40	454.06
472.58	475.13
472.77	458.74
472.95	458.74
473.13	503.22
473.31	407.25
473.49	449.38
473.67	397.89
473.85	451.72
474.03	440.02
474.21	428.32
474.39	451.72
474.57	395.55
474.75	468.11
474.93	456.40
475.12	367.46
475.30	486.83
475.48	358.10
475.66	468.11
475.84	390.87
476.02	369.80
476.20	402.57
476.38	397.89
476.56	402.57
476.74	430.66
476.92	458.74
477.10	425.98
477.28	390.87
477.46	421.30
477.64	376.83
477.82	400.23
478.00	458.74
478.18	491.51
478.36	372.15
478.54	442.36
478.72	409.59
478.90	404.91
479.08	400.23
479.26	351.08
479.44	411.93
479.62	416.62
479.80	353.42
479.98	383.85
480.16	411.93
480.34	409.59
480.52	433.00
480.70	369.80
480.88	418.96
481.06	418.96
481.24	327.68
481.41	451.72
481.59	456.40
481.77	461.09
481.95	414.27
482.13	416.62
482.31	411.93
482.49	402.57
482.67	447.04
482.85	418.96
483.03	430.66
483.21	397.89
483.39	470.45
483.57	486.83
483.74	510.24
483.92	430.66
484.10	395.55
484.28	458.74
484.46	535.98
484.64	341.72
484.82	414.27
485.00	442.36
485.18	383.85
485.35	447.04
485.53	402.57
485.71	388.53
485.89	423.64
486.07	421.30
486.25	407.25
486.43	458.74
486.61	454.06
486.78	456.40
486.96	376.83
487.14	456.40
487.32	430.66
487.50	454.06
487.68	383.85
487.85	390.87
488.03	451.72
488.21	477.47
488.39	404.91
488.57	425.98
488.75	390.87
488.92	461.09
489.10	381.51
489.28	437.68
489.46	475.13
489.64	397.89
489.81	355.76
489.99	454.06
490.17	355.76
490.35	496.19
490.53	475.13
490.70	435.34
490.88	421.30
491.06	468.11
491.24	451.72
491.41	428.32
491.59	409.59
491.77	404.91
491.95	430.66
492.13	383.85
492.30	437.68
492.48	423.64
492.66	372.15
492.84	339.38
493.01	372.15
493.19	372.15
493.37	500.87
493.54	365.12
493.72	381.51
493.90	395.55
494.08	423.64
494.25	475.13
494.43	407.25
494.61	444.70
494.79	320.65
494.96	393.21
495.14	435.34
495.32	414.27
495.49	346.40
495.67	510.24
495.85	360.44
496.02	437.68
496.20	456.40
496.38	479.81
496.55	449.38
496.73	390.87
496.91	411.93
497.09	393.21
497.26	447.04
497.44	421.30
497.62	437.68
497.79	353.42
497.97	425.98
498.14	479.81
498.32	465.77
498.50	423.64
498.67	372.15
498.85	411.93
499.03	334.70
499.20	337.04
499.38	393.21
499.56	454.06
499.73	437.68
499.91	367.46
500.08	390.87
500.26	428.32
500.44	383.85
500.61	440.02
500.79	433.00
500.97	395.55
501.14	461.09
501.32	489.17
501.49	395.55
501.67	390.87
501.84	433.00
502.02	421.30
502.20	514.92
502.37	465.77
502.55	355.76
502.72	402.57
502.90	425.98
503.07	423.64
503.25	400.23
503.43	472.79
503.60	421.30
503.78	458.74
503.95	388.53
504.13	386.19
504.30	404.91
504.48	470.45
504.65	456.40
504.83	456.40
505.01	395.55
505.18	393.21
505.36	402.57
505.53	409.59
505.71	435.34
505.88	423.64
506.06	442.36
506.23	393.21
506.41	379.17
506.58	461.09
506.76	425.98
506.93	400.23
507.11	358.10
507.28	390.87
507.46	444.70
507.63	407.25
507.81	400.23
507.98	393.21
508.16	395.55
508.33	390.87
508.50	449.38
508.68	383.85
508.85	369.80
509.03	437.68
509.20	465.77
509.38	360.44
509.55	437.68
509.73	367.46
509.90	372.15
510.08	468.11
510.25	440.02
510.42	397.89
510.60	404.91
510.77	416.62
510.95	451.72
511.12	447.04
511.30	369.80
511.47	423.64
511.64	404.91
511.82	407.25
511.99	381.51
512.17	421.30
512.34	442.36
512.51	440.02
512.69	435.34
512.86	456.40
513.04	430.66
513.21	451.72
513.38	435.34
513.56	344.06
513.73	383.85
513.90	397.89
514.08	444.70
514.25	395.55
514.43	456.40
514.60	465.77
514.77	449.38
514.95	454.06
515.12	437.68
515.29	414.27
515.47	430.66
515.64	461.09
515.81	339.38
515.99	379.17
516.16	430.66
516.33	421.30
516.51	493.85
516.68	421.30
516.85	418.96
517.03	306.61
517.20	376.83
517.37	435.34
517.54	330.02
517.72	437.68
517.89	425.98
518.06	365.12
518.24	458.74
518.41	470.45
518.58	425.98
518.75	477.47
518.93	418.96
519.10	430.66
519.27	444.70
519.45	425.98
519.62	447.04
519.79	423.64
519.96	418.96
520.14	451.72
520.31	447.04
520.48	421.30
520.65	442.36
520.83	472.79
521.00	496.19
521.17	421.30
521.34	348.74
521.52	388.53
521.69	409.59
521.86	482.15
522.03	376.83
522.20	402.57
522.38	355.76
522.55	421.30
522.72	468.11
522.89	470.45
523.07	470.45
523.24	381.51
523.41	393.21
523.58	344.06
523.75	470.45
523.92	388.53
524.10	428.32
524.27	365.12
524.44	440.02
524.61	421.30
524.78	449.38
524.96	416.62
525.13	390.87
525.30	409.59
525.47	425.98
525.64	407.25
525.81	393.21
525.98	390.87
526.16	365.12
526.33	397.89
526.50	428.32
526.67	421.30
526.84	390.87
527.01	362.78
527.18	395.55
527.36	423.64
527.53	449.38
527.70	454.06
527.87	423.64
528.04	472.79
528.21	421.30
528.38	425.98
528.55	411.93
528.72	454.06
528.89	365.12
529.07	472.79
529.24	425.98
529.41	458.74
529.58	463.43
529.75	381.51
529.92	416.62
530.09	416.62
530.26	393.21
530.43	414.27
530.60	404.91
530.77	423.64
530.94	379.17
531.11	456.40
531.28	362.78
531.46	339.38
531.63	381.51
531.80	472.79
531.97	444.70
532.14	456.40
532.31	374.49
532.48	430.66
532.65	477.47
532.82	318.31
532.99	444.70
533.16	435.34
533.33	421.30
533.50	402.57
533.67	402.57
533.84	477.47
534.01	444.70
534.18	409.59
534.35	409.59
534.52	470.45
534.69	418.96
534.86	468.11
535.03	395.55
535.20	428.32
535.37	425.98
535.54	484.49
535.71	362.78
535.88	379.17
536.05	404.91
536.22	341.72
536.38	358.10
536.55	425.98
536.72	447.04
536.89	425.98
537.06	447.04
537.23	472.79
537.40	442.36
537.57	362.78
537.74	510.24
537.91	500.87
538.08	418.96
538.25	458.74
538.42	421.30
538.59	468.11
538.75	447.04
538.92	397.89
539.09	437.68
539.26	430.66
539.43	444.70
539.60	374.49
539.77	404.91
539.94	395.55
540.11	414.27
540.28	369.80
540.44	409.59
540.61	409.59
540.78	468.11
540.95	470.45
541.12	521.94
541.29	416.62
541.46	393.21
541.62	430.66
541.79	369.80
541.96	348.74
542.13	421.30
542.30	442.36
542.47	428.32
542.63	409.59
542.80	472.79
542.97	482.15
543.14	374.49
543.31	447.04
543.48	475.13
543.64	465.77
543.81	451.72
543.98	395.55
544.15	437.68
544.32	386.19
544.48	451.72
544.65	484.49
544.82	409.59
544.99	421.30
545.16	416.62
545.32	491.51
545.49	423.64
545.66	369.80
545.83	372.15
546.00	367.46
546.16	425.98
546.33	416.62
546.50	435.34
546.67	456.40
546.83	458.74
547.00	365.12
547.17	358.10
547.34	442.36
547.50	421.30
547.67	404.91
547.84	411.93
548.00	425.98
548.17	402.57
548.34	430.66
548.51	442.36
548.67	442.36
548.84	411.93
549.01	402.57
549.18	400.23
549.34	461.09
549.51	416.62
549.68	372.15
549.84	437.68
550.01	444.70
550.18	430.66
550.34	454.06
550.51	444.70
550.68	362.78
550.84	437.68
551.01	449.38
551.18	428.32
551.34	435.34
551.51	416.62
551.68	374.49
551.84	397.89
552.01	388.53
552.18	334.70
552.34	442.36
552.51	421.30
552.68	388.53
552.84	447.04
553.01	400.23
553.18	400.23
553.34	407.25
553.51	463.43
553.67	402.57
553.84	411.93
554.01	451.72
554.17	425.98
554.34	367.46
554.51	442.36
554.67	472.79
554.84	463.43
555.00	444.70
555.17	376.83
555.33	433.00
555.50	409.59
555.67	409.59
555.83	440.02
556.00	355.76
556.16	496.19
556.33	393.21
556.50	369.80
556.66	416.62
556.83	416.62
556.99	461.09
557.16	372.15
557.32	365.12
557.49	423.64
557.65	369.80
557.82	409.59
557.98	379.17
558.15	393.21
558.32	353.42
558.48	458.74
558.65	451.72
558.81	430.66
558.98	304.27
559.14	390.87
559.31	479.81
559.47	383.85
559.64	404.91
559.80	505.56
559.97	367.46
560.13	344.06
560.30	421.30
560.46	402.57
560.63	435.34
560.79	442.36
560.96	444.70
561.12	416.62
561.29	430.66
561.45	409.59
561.61	454.06
561.78	437.68
561.94	428.32
562.11	416.62
562.27	444.70
562.44	444.70
562.60	472.79
562.77	400.23
562.93	451.72
563.10	358.10
563.26	390.87
563.42	468.11
563.59	418.96
563.75	482.15
563.92	383.85
564.08	393.21
564.24	355.76
564.41	454.06
564.57	442.36
564.74	477.47
564.90	416.62
565.07	393.21
565.23	472.79
565.39	379.17
565.56	489.17
565.72	407.25
565.88	472.79
566.05	423.64
566.21	428.32
566.38	409.59
566.54	393.21
566.70	421.30
566.87	465.77
567.03	407.25
567.19	362.78
567.36	454.06
567.52	383.85
567.68	360.44
567.85	397.89
568.01	423.64
568.17	360.44
568.34	418.96
568.50	517.26
568.66	362.78
568.83	514.92
568.99	402.57
569.15	451.72
569.32	430.66
569.48	400.23
569.64	381.51
569.81	437.68
569.97	416.62
570.13	425.98
570.30	383.85
570.46	306.61
570.62	365.12
570.78	437.68
570.95	400.23
571.11	451.72
571.27	479.81
571.43	449.38
571.60	449.38
571.76	437.68
571.92	376.83
572.09	468.11
572.25	425.98
572.41	433.00
572.57	425.98
572.74	475.13
572.90	390.87
573.06	386.19
573.22	393.21
573.38	440.02
573.55	475.13
573.71	449.38
573.87	442.36
574.03	437.68
574.20	388.53
574.36	454.06
574.52	346.40
574.68	388.53
574.84	334.70
575.01	442.36
575.17	465.77
575.33	421.30
575.49	409.59
575.65	409.59
575.82	386.19
575.98	447.04
576.14	444.70
576.30	442.36
576.46	407.25
576.62	425.98
576.79	418.96
576.95	440.02
577.11	397.89
577.27	404.91
577.43	425.98
577.59	484.49
577.75	425.98
577.92	407.25
578.08	451.72
578.24	416.62
578.40	505.56
578.56	449.38
578.72	407.25
578.88	414.27
579.04	503.22
579.21	430.66
579.37	425.98
579.53	369.80
579.69	482.15
579.85	386.19
580.01	435.34
580.17	428.32
580.33	360.44
580.49	416.62
580.65	440.02
580.82	451.72
580.98	360.44
581.14	367.46
581.30	444.70
581.46	423.64
581.62	493.85
581.78	433.00
581.94	404.91
582.10	435.34
582.26	402.57
582.42	344.06
582.58	423.64
582.74	411.93
582.90	379.17
583.06	390.87
583.22	461.09
583.38	365.12
583.54	376.83
583.70	421.30
583.86	381.51
584.02	428.32
584.18	409.59
584.34	428.32
584.50	346.40
584.66	458.74
584.82	355.76
584.98	437.68
585.14	472.79
585.30	407.25
585.46	353.42
585.62	423.64
585.78	383.85
585.94	435.34
586.10	404.91
586.26	451.72
586.42	507.90
586.58	475.13
586.74	482.15
586.90	418.96
587.06	379.17
587.22	423.64
587.38	402.57
587.54	416.62
587.70	435.34
587.86	416.62
588.02	482.15
588.18	442.36
588.34	414.27
588.49	400.23
588.65	404.91
588.81	397.89
588.97	418.96
589.13	416.62
589.29	503.22
589.45	500.87
589.61	393.21
589.77	416.62
589.93	411.93
590.08	416.62
590.24	374.49
590.40	414.27
590.56	456.40
590.72	379.17
590.88	358.10
591.04	358.10
591.20	423.64
591.35	440.02
591.51	437.68
591.67	388.53
591.83	367.46
591.99	362.78
592.15	395.55
592.31	402.57
592.46	393.21
592.62	456.40
592.78	386.19
592.94	444.70
593.10	409.59
593.26	423.64
593.41	358.10
593.57	383.85
593.73	374.49
593.89	482.15
594.05	449.38
594.20	346.40
594.36	409.59
594.52	423.64
594.68	433.00
594.84	409.59
594.99	367.46
595.15	484.49
595.31	458.74
595.47	430.66
595.62	404.91
595.78	437.68
595.94	428.32
596.10	402.57
596.25	386.19
596.41	479.81
596.57	430.66
596.73	372.15
596.88	437.68
597.04	397.89
597.20	437.68
597.36	442.36
597.51	423.64
597.67	430.66
597.83	463.43
597.99	430.66
598.14	395.55
598.30	465.77
598.46	489.17
598.61	479.81
598.77	440.02
598.93	411.93
599.09	423.64
599.24	461.09
599.40	404.91
599.56	395.55
599.71	372.15
599.87	418.96
600.03	355.76
600.18	393.21
600.34	433.00
600.50	416.62
600.65	475.13
600.81	428.32
600.97	449.38
601.12	414.27
601.28	449.38
601.44	407.25
601.59	454.06
601.75	362.78
601.91	425.98
602.06	407.25
602.22	486.83
602.37	451.72
602.53	416.62
602.69	430.66
602.84	454.06
603.00	372.15
603.16	421.30
603.31	433.00
603.47	444.70
603.62	430.66
603.78	411.93
603.94	430.66
604.09	416.62
604.25	433.00
604.40	374.49
604.56	404.91
604.71	393.21
604.87	503.22
605.03	409.59
605.18	404.91
605.34	435.34
605.49	409.59
605.65	430.66
605.80	397.89
605.96	428.32
606.12	430.66
606.27	416.62
606.43	372.15
606.58	388.53
606.74	442.36
606.89	451.72
607.05	418.96
607.20	442.36
607.36	402.57
607.51	465.77
607.67	414.27
607.82	407.25
607.98	395.55
608.13	437.68
608.29	437.68
608.44	463.43
608.60	390.87
608.75	418.96
608.91	397.89
609.06	498.53
609.22	409.59
609.37	411.93
609.53	472.79
609.68	456.40
609.84	397.89
609.99	486.83
610.15	456.40
