SpectraSuite Data File
++++++++++++++++++++++++++++++++++++
Date: Fri Oct 25 12:11:02 EDT 2013
User: price-jones
Dark Spectrum Present: No
Reference Spectrum Present: No
Number of Sampled Component Spectra: 1
Spectrometers: USB2+H05261
Integration Time (usec): 100000 (USB2+H05261)
Spectra Averaged: 1 (USB2+H05261)
Boxcar Smoothing: 0 (USB2+H05261)
Correct for Electrical Dark: No (USB2+H05261)
Strobe/Lamp Enabled: No (USB2+H05261)
Correct for Detector Non-linearity: No (USB2+H05261)
Correct for Stray Light: No (USB2+H05261)
Number of Pixels in Processed Spectrum: 2048
>>>>>Begin Processed Spectral Data<<<<<
365.73	322.99
365.92	322.99
366.12	322.99
366.32	297.25
366.52	255.12
366.72	250.44
366.91	212.99
367.11	201.29
367.31	227.03
367.51	203.63
367.70	283.20
367.90	259.80
368.10	262.14
368.30	208.31
368.49	201.29
368.69	231.71
368.89	344.06
369.09	175.54
369.28	245.76
369.48	215.33
369.68	294.91
369.87	313.63
370.07	327.68
370.27	337.04
370.47	306.61
370.66	334.70
370.86	315.97
371.06	358.10
371.25	374.49
371.45	379.17
371.65	449.38
371.84	395.55
372.04	461.09
372.24	374.49
372.44	393.21
372.63	388.53
372.83	358.10
373.03	355.76
373.22	470.45
373.42	386.19
373.62	496.19
373.81	543.00
374.01	472.79
374.21	449.38
374.40	367.46
374.60	489.17
374.79	428.32
374.99	409.59
375.19	444.70
375.38	409.59
375.58	423.64
375.78	407.25
375.97	482.15
376.17	416.62
376.37	409.59
376.56	400.23
376.76	425.98
376.95	379.17
377.15	428.32
377.35	435.34
377.54	435.34
377.74	416.62
377.93	390.87
378.13	379.17
378.33	470.45
378.52	400.23
378.72	437.68
378.91	440.02
379.11	360.44
379.31	400.23
379.50	411.93
379.70	449.38
379.89	416.62
380.09	383.85
380.28	411.93
380.48	395.55
380.68	379.17
380.87	386.19
381.07	454.06
381.26	360.44
381.46	430.66
381.65	407.25
381.85	444.70
382.04	425.98
382.24	346.40
382.43	411.93
382.63	425.98
382.83	386.19
383.02	409.59
383.22	395.55
383.41	393.21
383.61	372.15
383.80	433.00
384.00	388.53
384.19	386.19
384.39	374.49
384.58	383.85
384.78	353.42
384.97	430.66
385.17	376.83
385.36	402.57
385.56	423.64
385.75	341.72
385.95	428.32
386.14	435.34
386.34	402.57
386.53	393.21
386.72	449.38
386.92	383.85
387.11	425.98
387.31	374.49
387.50	351.08
387.70	367.46
387.89	416.62
388.09	360.44
388.28	414.27
388.48	369.80
388.67	458.74
388.86	409.59
389.06	367.46
389.25	388.53
389.45	404.91
389.64	479.81
389.84	454.06
390.03	454.06
390.22	301.93
390.42	451.72
390.61	416.62
390.81	395.55
391.00	402.57
391.19	461.09
391.39	381.51
391.58	407.25
391.78	348.74
391.97	395.55
392.16	383.85
392.36	444.70
392.55	442.36
392.75	393.21
392.94	341.72
393.13	430.66
393.33	341.72
393.52	437.68
393.71	458.74
393.91	374.49
394.10	425.98
394.29	430.66
394.49	400.23
394.68	416.62
394.88	421.30
395.07	449.38
395.26	386.19
395.46	386.19
395.65	442.36
395.84	416.62
396.04	500.87
396.23	388.53
396.42	388.53
396.62	425.98
396.81	444.70
397.00	344.06
397.19	425.98
397.39	395.55
397.58	411.93
397.77	421.30
397.97	444.70
398.16	418.96
398.35	400.23
398.55	379.17
398.74	393.21
398.93	505.56
399.12	348.74
399.32	456.40
399.51	334.70
399.70	440.02
399.90	409.59
400.09	351.08
400.28	402.57
400.47	360.44
400.67	428.32
400.86	402.57
401.05	383.85
401.24	393.21
401.44	346.40
401.63	411.93
401.82	386.19
402.01	376.83
402.21	454.06
402.40	425.98
402.59	341.72
402.78	437.68
402.97	411.93
403.17	407.25
403.36	468.11
403.55	407.25
403.74	416.62
403.93	437.68
404.13	491.51
404.32	409.59
404.51	433.00
404.70	404.91
404.89	395.55
405.09	435.34
405.28	407.25
405.47	433.00
405.66	374.49
405.85	512.58
406.05	400.23
406.24	418.96
406.43	416.62
406.62	411.93
406.81	454.06
407.00	428.32
407.20	423.64
407.39	433.00
407.58	407.25
407.77	379.17
407.96	404.91
408.15	433.00
408.34	456.40
408.54	390.87
408.73	477.47
408.92	456.40
409.11	416.62
409.30	477.47
409.49	433.00
409.68	414.27
409.87	346.40
410.07	313.63
410.26	447.04
410.45	407.25
410.64	418.96
410.83	358.10
411.02	423.64
411.21	404.91
411.40	411.93
411.59	418.96
411.78	390.87
411.98	367.46
412.17	325.33
412.36	421.30
412.55	397.89
412.74	344.06
412.93	418.96
413.12	414.27
413.31	390.87
413.50	376.83
413.69	397.89
413.88	437.68
414.07	409.59
414.26	430.66
414.45	411.93
414.64	409.59
414.83	465.77
415.02	390.87
415.22	472.79
415.41	404.91
415.60	383.85
415.79	402.57
415.98	433.00
416.17	409.59
416.36	369.80
416.55	346.40
416.74	423.64
416.93	393.21
417.12	397.89
417.31	358.10
417.50	327.68
417.69	435.34
417.88	463.43
418.07	402.57
418.26	437.68
418.45	425.98
418.64	437.68
418.83	381.51
419.02	411.93
419.21	383.85
419.39	442.36
419.58	367.46
419.77	418.96
419.96	472.79
420.15	430.66
420.34	456.40
420.53	390.87
420.72	325.33
420.91	449.38
421.10	388.53
421.29	454.06
421.48	475.13
421.67	428.32
421.86	383.85
422.05	442.36
422.24	428.32
422.43	390.87
422.61	327.68
422.80	365.12
422.99	358.10
423.18	369.80
423.37	465.77
423.56	479.81
423.75	489.17
423.94	383.85
424.13	372.15
424.32	334.70
424.50	388.53
424.69	465.77
424.88	421.30
425.07	388.53
425.26	409.59
425.45	423.64
425.64	428.32
425.83	458.74
426.01	390.87
426.20	353.42
426.39	435.34
426.58	400.23
426.77	444.70
426.96	451.72
427.15	411.93
427.33	456.40
427.52	299.59
427.71	407.25
427.90	388.53
428.09	404.91
428.28	395.55
428.46	376.83
428.65	421.30
428.84	421.30
429.03	397.89
429.22	383.85
429.40	404.91
429.59	416.62
429.78	442.36
429.97	374.49
430.16	421.30
430.34	435.34
430.53	407.25
430.72	386.19
430.91	428.32
431.10	411.93
431.28	402.57
431.47	388.53
431.66	430.66
431.85	369.80
432.03	386.19
432.22	533.64
432.41	348.74
432.60	402.57
432.79	468.11
432.97	416.62
433.16	388.53
433.35	355.76
433.54	409.59
433.72	428.32
433.91	435.34
434.10	435.34
434.28	376.83
434.47	425.98
434.66	409.59
434.85	440.02
435.03	400.23
435.22	472.79
435.41	456.40
435.59	407.25
435.78	362.78
435.97	365.12
436.16	463.43
436.34	456.40
436.53	418.96
436.72	484.49
436.90	386.19
437.09	301.93
437.28	468.11
437.46	442.36
437.65	447.04
437.84	472.79
438.02	468.11
438.21	395.55
438.40	425.98
438.58	416.62
438.77	447.04
438.96	440.02
439.14	379.17
439.33	381.51
439.52	402.57
439.70	433.00
439.89	428.32
440.08	411.93
440.26	470.45
440.45	461.09
440.63	435.34
440.82	374.49
441.01	428.32
441.19	386.19
441.38	461.09
441.57	486.83
441.75	400.23
441.94	447.04
442.12	425.98
442.31	404.91
442.50	421.30
442.68	393.21
442.87	400.23
443.05	390.87
443.24	416.62
443.43	442.36
443.61	433.00
443.80	449.38
443.98	379.17
444.17	454.06
444.35	400.23
444.54	376.83
444.73	470.45
444.91	507.90
445.10	482.15
445.28	372.15
445.47	351.08
445.65	411.93
445.84	358.10
446.02	507.90
446.21	376.83
446.39	409.59
446.58	428.32
446.77	381.51
446.95	461.09
447.14	381.51
447.32	409.59
447.51	393.21
447.69	400.23
447.88	381.51
448.06	353.42
448.25	393.21
448.43	388.53
448.62	322.99
448.80	325.33
448.99	477.47
449.17	475.13
449.36	416.62
449.54	397.89
449.73	454.06
449.91	397.89
450.10	425.98
450.28	430.66
450.46	383.85
450.65	465.77
450.83	479.81
451.02	416.62
451.20	383.85
451.39	395.55
451.57	409.59
451.76	381.51
451.94	381.51
452.13	440.02
452.31	444.70
452.49	390.87
452.68	397.89
452.86	409.59
453.05	444.70
453.23	435.34
453.42	376.83
453.60	379.17
453.78	447.04
453.97	416.62
454.15	381.51
454.34	437.68
454.52	341.72
454.70	514.92
454.89	379.17
455.07	423.64
455.26	461.09
455.44	472.79
455.62	379.17
455.81	397.89
455.99	400.23
456.17	472.79
456.36	425.98
456.54	404.91
456.73	414.27
456.91	433.00
457.09	430.66
457.28	437.68
457.46	449.38
457.64	421.30
457.83	369.80
458.01	372.15
458.19	451.72
458.38	379.17
458.56	421.30
458.74	334.70
458.93	449.38
459.11	386.19
459.29	383.85
459.48	414.27
459.66	458.74
459.84	397.89
460.03	472.79
460.21	442.36
460.39	372.15
460.57	414.27
460.76	428.32
460.94	404.91
461.12	388.53
461.31	383.85
461.49	358.10
461.67	442.36
461.85	344.06
462.04	451.72
462.22	786.42
462.40	383.85
462.59	397.89
462.77	433.00
462.95	379.17
463.13	435.34
463.32	386.19
463.50	407.25
463.68	421.30
463.86	442.36
464.05	390.87
464.23	414.27
464.41	442.36
464.59	379.17
464.78	416.62
464.96	388.53
465.14	437.68
465.32	486.83
465.50	386.19
465.69	435.34
465.87	388.53
466.05	376.83
466.23	372.15
466.41	421.30
466.60	393.21
466.78	414.27
466.96	383.85
467.14	416.62
467.32	475.13
467.51	358.10
467.69	393.21
467.87	486.83
468.05	372.15
468.23	440.02
468.41	461.09
468.60	414.27
468.78	425.98
468.96	468.11
469.14	418.96
469.32	395.55
469.50	369.80
469.69	393.21
469.87	367.46
470.05	470.45
470.23	435.34
470.41	397.89
470.59	421.30
470.77	512.58
470.95	463.43
471.14	416.62
471.32	409.59
471.50	425.98
471.68	468.11
471.86	330.02
472.04	397.89
472.22	409.59
472.40	433.00
472.58	400.23
472.77	425.98
472.95	386.19
473.13	482.15
473.31	435.34
473.49	395.55
473.67	418.96
473.85	447.04
474.03	367.46
474.21	458.74
474.39	442.36
474.57	447.04
474.75	477.47
474.93	376.83
475.12	440.02
475.30	416.62
475.48	484.49
475.66	416.62
475.84	369.80
476.02	386.19
476.20	411.93
476.38	414.27
476.56	491.51
476.74	411.93
476.92	407.25
477.10	365.12
477.28	463.43
477.46	402.57
477.64	479.81
477.82	362.78
478.00	365.12
478.18	423.64
478.36	440.02
478.54	381.51
478.72	395.55
478.90	456.40
479.08	395.55
479.26	407.25
479.44	367.46
479.62	341.72
479.80	292.57
479.98	428.32
480.16	449.38
480.34	458.74
480.52	428.32
480.70	428.32
480.88	379.17
481.06	414.27
481.24	421.30
481.41	390.87
481.59	447.04
481.77	372.15
481.95	397.89
482.13	519.60
482.31	367.46
482.49	416.62
482.67	423.64
482.85	468.11
483.03	440.02
483.21	362.78
483.39	381.51
483.57	461.09
483.74	451.72
483.92	482.15
484.10	416.62
484.28	376.83
484.46	409.59
484.64	425.98
484.82	418.96
485.00	386.19
485.18	407.25
485.35	444.70
485.53	437.68
485.71	404.91
485.89	353.42
486.07	425.98
486.25	507.90
486.43	416.62
486.61	379.17
486.78	418.96
486.96	383.85
487.14	416.62
487.32	449.38
487.50	407.25
487.68	344.06
487.85	456.40
488.03	498.53
488.21	435.34
488.39	465.77
488.57	430.66
488.75	416.62
488.92	472.79
489.10	444.70
489.28	458.74
489.46	425.98
489.64	454.06
489.81	475.13
489.99	395.55
490.17	423.64
490.35	517.26
490.53	430.66
490.70	449.38
490.88	425.98
491.06	318.31
491.24	491.51
491.41	456.40
491.59	407.25
491.77	374.49
491.95	372.15
492.13	423.64
492.30	442.36
492.48	386.19
492.66	414.27
492.84	472.79
493.01	397.89
493.19	388.53
493.37	407.25
493.54	381.51
493.72	390.87
493.90	451.72
494.08	475.13
494.25	390.87
494.43	440.02
494.61	435.34
494.79	383.85
494.96	386.19
495.14	442.36
495.32	374.49
495.49	430.66
495.67	458.74
495.85	482.15
496.02	447.04
496.20	435.34
496.38	421.30
496.55	376.83
496.73	390.87
496.91	404.91
497.09	374.49
497.26	428.32
497.44	383.85
497.62	393.21
497.79	435.34
497.97	440.02
498.14	475.13
498.32	395.55
498.50	428.32
498.67	402.57
498.85	428.32
499.03	493.85
499.20	379.17
499.38	416.62
499.56	374.49
499.73	475.13
499.91	341.72
500.08	440.02
500.26	379.17
500.44	351.08
500.61	388.53
500.79	472.79
500.97	449.38
501.14	461.09
501.32	404.91
501.49	475.13
501.67	430.66
501.84	409.59
502.02	428.32
502.20	444.70
502.37	428.32
502.55	372.15
502.72	337.04
502.90	484.49
503.07	367.46
503.25	444.70
503.43	404.91
503.60	360.44
503.78	409.59
503.95	425.98
504.13	390.87
504.30	409.59
504.48	437.68
504.65	444.70
504.83	465.77
505.01	421.30
505.18	454.06
505.36	397.89
505.53	463.43
505.71	444.70
505.88	404.91
506.06	482.15
506.23	379.17
506.41	402.57
506.58	409.59
506.76	402.57
506.93	379.17
507.11	400.23
507.28	418.96
507.46	395.55
507.63	395.55
507.81	372.15
507.98	442.36
508.16	411.93
508.33	437.68
508.50	479.81
508.68	416.62
508.85	430.66
509.03	344.06
509.20	379.17
509.38	428.32
509.55	465.77
509.73	334.70
509.90	397.89
510.08	463.43
510.25	470.45
510.42	461.09
510.60	365.12
510.77	444.70
510.95	425.98
511.12	369.80
511.30	447.04
511.47	407.25
511.64	444.70
511.82	451.72
511.99	362.78
512.17	360.44
512.34	437.68
512.51	397.89
512.69	451.72
512.86	458.74
513.04	400.23
513.21	444.70
513.38	414.27
513.56	440.02
513.73	456.40
513.90	383.85
514.08	367.46
514.25	435.34
514.43	414.27
514.60	416.62
514.77	449.38
514.95	388.53
515.12	407.25
515.29	411.93
515.47	430.66
515.64	416.62
515.81	386.19
515.99	430.66
516.16	421.30
516.33	482.15
516.51	327.68
516.68	477.47
516.85	444.70
517.03	444.70
517.20	379.17
517.37	418.96
517.54	447.04
517.72	470.45
517.89	482.15
518.06	454.06
518.24	449.38
518.41	456.40
518.58	400.23
518.75	395.55
518.93	325.33
519.10	409.59
519.27	404.91
519.45	351.08
519.62	416.62
519.79	376.83
519.96	409.59
520.14	407.25
520.31	416.62
520.48	400.23
520.65	430.66
520.83	409.59
521.00	496.19
521.17	444.70
521.34	383.85
521.52	428.32
521.69	374.49
521.86	423.64
522.03	458.74
522.20	379.17
522.38	397.89
522.55	433.00
522.72	423.64
522.89	468.11
523.07	414.27
523.24	423.64
523.41	393.21
523.58	421.30
523.75	421.30
523.92	484.49
524.10	397.89
524.27	449.38
524.44	433.00
524.61	498.53
524.78	437.68
524.96	491.51
525.13	496.19
525.30	407.25
525.47	484.49
525.64	397.89
525.81	379.17
525.98	430.66
526.16	414.27
526.33	493.85
526.50	482.15
526.67	468.11
526.84	334.70
527.01	332.36
527.18	442.36
527.36	437.68
527.53	416.62
527.70	428.32
527.87	388.53
528.04	484.49
528.21	365.12
528.38	461.09
528.55	437.68
528.72	519.60
528.89	465.77
529.07	416.62
529.24	519.60
529.41	468.11
529.58	416.62
529.75	461.09
529.92	390.87
530.09	365.12
530.26	440.02
530.43	430.66
530.60	379.17
530.77	416.62
530.94	421.30
531.11	325.33
531.28	400.23
531.46	376.83
531.63	400.23
531.80	362.78
531.97	407.25
532.14	397.89
532.31	440.02
532.48	433.00
532.65	463.43
532.82	411.93
532.99	393.21
533.16	393.21
533.33	428.32
533.50	423.64
533.67	404.91
533.84	435.34
534.01	372.15
534.18	458.74
534.35	393.21
534.52	395.55
534.69	416.62
534.86	414.27
535.03	477.47
535.20	411.93
535.37	383.85
535.54	449.38
535.71	428.32
535.88	564.07
536.05	351.08
536.22	430.66
536.38	465.77
536.55	390.87
536.72	425.98
536.89	402.57
537.06	430.66
537.23	400.23
537.40	346.40
537.57	334.70
537.74	416.62
537.91	479.81
538.08	407.25
538.25	449.38
538.42	451.72
538.59	437.68
538.75	409.59
538.92	437.68
539.09	423.64
539.26	393.21
539.43	402.57
539.60	437.68
539.77	423.64
539.94	437.68
540.11	435.34
540.28	360.44
540.44	423.64
540.61	440.02
540.78	390.87
540.95	390.87
541.12	423.64
541.29	433.00
541.46	444.70
541.62	444.70
541.79	386.19
541.96	454.06
542.13	444.70
542.30	330.02
542.47	355.76
542.63	409.59
542.80	372.15
542.97	447.04
543.14	430.66
543.31	440.02
543.48	444.70
543.64	397.89
543.81	425.98
543.98	430.66
544.15	397.89
544.32	351.08
544.48	454.06
544.65	355.76
544.82	397.89
544.99	404.91
545.16	451.72
545.32	355.76
545.49	428.32
545.66	397.89
545.83	348.74
546.00	440.02
546.16	355.76
546.33	416.62
546.50	395.55
546.67	437.68
546.83	440.02
547.00	454.06
547.17	400.23
547.34	348.74
547.50	393.21
547.67	428.32
547.84	491.51
548.00	374.49
548.17	425.98
548.34	358.10
548.51	362.78
548.67	477.47
548.84	379.17
549.01	367.46
549.18	456.40
549.34	407.25
549.51	484.49
549.68	437.68
549.84	507.90
550.01	407.25
550.18	489.17
550.34	456.40
550.51	484.49
550.68	428.32
550.84	449.38
551.01	461.09
551.18	444.70
551.34	376.83
551.51	355.76
551.68	355.76
551.84	449.38
552.01	379.17
552.18	397.89
552.34	388.53
552.51	449.38
552.68	411.93
552.84	470.45
553.01	409.59
553.18	428.32
553.34	390.87
553.51	409.59
553.67	472.79
553.84	404.91
554.01	414.27
554.17	440.02
554.34	425.98
554.51	444.70
554.67	374.49
554.84	433.00
555.00	454.06
555.17	365.12
555.33	437.68
555.50	418.96
555.67	435.34
555.83	308.95
556.00	421.30
556.16	582.79
556.33	454.06
556.50	372.15
556.66	470.45
556.83	411.93
556.99	423.64
557.16	393.21
557.32	376.83
557.49	360.44
557.65	449.38
557.82	381.51
557.98	437.68
558.15	440.02
558.32	430.66
558.48	416.62
558.65	407.25
558.81	397.89
558.98	402.57
559.14	393.21
559.31	393.21
559.47	428.32
559.64	358.10
559.80	472.79
559.97	465.77
560.13	411.93
560.30	409.59
560.46	465.77
560.63	388.53
560.79	517.26
560.96	402.57
561.12	365.12
561.29	498.53
561.45	430.66
561.61	414.27
561.78	491.51
561.94	383.85
562.11	486.83
562.27	386.19
562.44	337.04
562.60	409.59
562.77	374.49
562.93	425.98
563.10	463.43
563.26	447.04
563.42	423.64
563.59	372.15
563.75	451.72
563.92	475.13
564.08	440.02
564.24	449.38
564.41	470.45
564.57	409.59
564.74	430.66
564.90	486.83
565.07	449.38
565.23	472.79
565.39	407.25
565.56	388.53
565.72	454.06
565.88	421.30
566.05	451.72
566.21	388.53
566.38	393.21
566.54	409.59
566.70	416.62
566.87	435.34
567.03	430.66
567.19	400.23
567.36	416.62
567.52	402.57
567.68	367.46
567.85	430.66
568.01	428.32
568.17	423.64
568.34	407.25
568.50	449.38
568.66	369.80
568.83	505.56
568.99	442.36
569.15	409.59
569.32	388.53
569.48	407.25
569.64	550.03
569.81	447.04
569.97	402.57
570.13	404.91
570.30	447.04
570.46	344.06
570.62	505.56
570.78	484.49
570.95	332.36
571.11	491.51
571.27	402.57
571.43	341.72
571.60	379.17
571.76	416.62
571.92	400.23
572.09	423.64
572.25	414.27
572.41	425.98
572.57	400.23
572.74	535.98
572.90	388.53
573.06	397.89
573.22	463.43
573.38	456.40
573.55	447.04
573.71	451.72
573.87	430.66
574.03	332.36
574.20	351.08
574.36	404.91
574.52	423.64
574.68	449.38
574.84	360.44
575.01	362.78
575.17	479.81
575.33	458.74
575.49	416.62
575.65	383.85
575.82	369.80
575.98	477.47
576.14	397.89
576.30	365.12
576.46	449.38
576.62	416.62
576.79	400.23
576.95	482.15
577.11	372.15
577.27	416.62
577.43	390.87
577.59	402.57
577.75	395.55
577.92	479.81
578.08	435.34
578.24	407.25
578.40	463.43
578.56	425.98
578.72	498.53
578.88	407.25
579.04	402.57
579.21	463.43
579.37	468.11
579.53	442.36
579.69	447.04
579.85	423.64
580.01	353.42
580.17	404.91
580.33	428.32
580.49	435.34
580.65	386.19
580.82	437.68
580.98	465.77
581.14	414.27
581.30	498.53
581.46	411.93
581.62	447.04
581.78	414.27
581.94	425.98
582.10	402.57
582.26	465.77
582.42	383.85
582.58	519.60
582.74	407.25
582.90	472.79
583.06	348.74
583.22	355.76
583.38	447.04
583.54	418.96
583.70	390.87
583.86	386.19
584.02	440.02
584.18	379.17
584.34	381.51
584.50	353.42
584.66	397.89
584.82	407.25
584.98	440.02
585.14	454.06
585.30	435.34
585.46	444.70
585.62	442.36
585.78	458.74
585.94	365.12
586.10	421.30
586.26	444.70
586.42	472.79
586.58	444.70
586.74	407.25
586.90	397.89
587.06	458.74
587.22	491.51
587.38	505.56
587.54	484.49
587.70	510.24
587.86	470.45
588.02	395.55
588.18	461.09
588.34	411.93
588.49	437.68
588.65	418.96
588.81	458.74
588.97	402.57
589.13	461.09
589.29	437.68
589.45	447.04
589.61	435.34
589.77	491.51
589.93	404.91
590.08	353.42
590.24	397.89
590.40	428.32
590.56	383.85
590.72	484.49
590.88	365.12
591.04	428.32
591.20	423.64
591.35	383.85
591.51	437.68
591.67	369.80
591.83	400.23
591.99	498.53
592.15	463.43
592.31	416.62
592.46	362.78
592.62	414.27
592.78	418.96
592.94	440.02
593.10	390.87
593.26	430.66
593.41	428.32
593.57	404.91
593.73	374.49
593.89	421.30
594.05	353.42
594.20	407.25
594.36	444.70
594.52	360.44
594.68	437.68
594.84	411.93
594.99	437.68
595.15	428.32
595.31	404.91
595.47	449.38
595.62	411.93
595.78	440.02
595.94	388.53
596.10	449.38
596.25	393.21
596.41	407.25
596.57	418.96
596.73	416.62
596.88	414.27
597.04	322.99
597.20	465.77
597.36	461.09
597.51	337.04
597.67	292.57
597.83	376.83
597.99	376.83
598.14	386.19
598.30	498.53
598.46	367.46
598.61	449.38
598.77	425.98
598.93	470.45
599.09	458.74
599.24	475.13
599.40	379.17
599.56	407.25
599.71	435.34
599.87	397.89
600.03	444.70
600.18	374.49
600.34	435.34
600.50	402.57
600.65	407.25
600.81	435.34
600.97	475.13
601.12	442.36
601.28	442.36
601.44	416.62
601.59	344.06
601.75	381.51
601.91	447.04
602.06	411.93
602.22	498.53
602.37	393.21
602.53	430.66
602.69	498.53
602.84	402.57
603.00	402.57
603.16	416.62
603.31	388.53
603.47	372.15
603.62	409.59
603.78	414.27
603.94	409.59
604.09	395.55
604.25	411.93
604.40	404.91
604.56	423.64
604.71	444.70
604.87	397.89
605.03	351.08
605.18	390.87
605.34	449.38
605.49	491.51
605.65	430.66
605.80	416.62
605.96	395.55
606.12	379.17
606.27	451.72
606.43	416.62
606.58	435.34
606.74	379.17
606.89	393.21
607.05	454.06
607.20	435.34
607.36	423.64
607.51	400.23
607.67	468.11
607.82	435.34
607.98	484.49
608.13	437.68
608.29	397.89
608.44	437.68
608.60	407.25
608.75	430.66
608.91	409.59
609.06	447.04
609.22	475.13
609.37	404.91
609.53	409.59
609.68	437.68
609.84	393.21
609.99	395.55
610.15	374.49
