SpectraSuite Data File
++++++++++++++++++++++++++++++++++++
Date: Fri Oct 25 12:10:35 EDT 2013
User: price-jones
Dark Spectrum Present: No
Reference Spectrum Present: No
Number of Sampled Component Spectra: 1
Spectrometers: USB2+H05261
Integration Time (usec): 100000 (USB2+H05261)
Spectra Averaged: 1 (USB2+H05261)
Boxcar Smoothing: 0 (USB2+H05261)
Correct for Electrical Dark: No (USB2+H05261)
Strobe/Lamp Enabled: No (USB2+H05261)
Correct for Detector Non-linearity: No (USB2+H05261)
Correct for Stray Light: No (USB2+H05261)
Number of Pixels in Processed Spectrum: 2048
>>>>>Begin Processed Spectral Data<<<<<
365.73	383.85
365.92	383.85
366.12	383.85
366.32	248.10
366.52	257.46
366.72	280.86
366.91	215.33
367.11	210.65
367.31	208.31
367.51	271.50
367.70	220.01
367.90	311.29
368.10	203.63
368.30	215.33
368.49	243.42
368.69	252.78
368.89	196.60
369.09	236.39
369.28	271.50
369.48	320.65
369.68	224.69
369.87	334.70
370.07	301.93
370.27	257.46
370.47	327.68
370.66	301.93
370.86	241.08
371.06	318.31
371.25	402.57
371.45	334.70
371.65	400.23
371.84	409.59
372.04	348.74
372.24	325.33
372.44	393.21
372.63	376.83
372.83	376.83
373.03	433.00
373.22	430.66
373.42	414.27
373.62	416.62
373.81	416.62
374.01	507.90
374.21	386.19
374.40	423.64
374.60	465.77
374.79	458.74
374.99	395.55
375.19	388.53
375.38	435.34
375.58	442.36
375.78	468.11
375.97	390.87
376.17	468.11
376.37	447.04
376.56	402.57
376.76	367.46
376.95	365.12
377.15	449.38
377.35	421.30
377.54	444.70
377.74	416.62
377.93	411.93
378.13	404.91
378.33	393.21
378.52	411.93
378.72	421.30
378.91	435.34
379.11	393.21
379.31	428.32
379.50	346.40
379.70	449.38
379.89	383.85
380.09	376.83
380.28	428.32
380.48	393.21
380.68	351.08
380.87	369.80
381.07	388.53
381.26	393.21
381.46	393.21
381.65	404.91
381.85	430.66
382.04	414.27
382.24	360.44
382.43	397.89
382.63	372.15
382.83	386.19
383.02	346.40
383.22	440.02
383.41	442.36
383.61	374.49
383.80	358.10
384.00	365.12
384.19	304.27
384.39	365.12
384.58	320.65
384.78	379.17
384.97	440.02
385.17	458.74
385.36	430.66
385.56	397.89
385.75	337.04
385.95	440.02
386.14	433.00
386.34	428.32
386.53	456.40
386.72	379.17
386.92	381.51
387.11	440.02
387.31	414.27
387.50	423.64
387.70	404.91
387.89	395.55
388.09	346.40
388.28	409.59
388.48	330.02
388.67	440.02
388.86	390.87
389.06	379.17
389.25	341.72
389.45	397.89
389.64	374.49
389.84	400.23
390.03	388.53
390.22	369.80
390.42	416.62
390.61	330.02
390.81	416.62
391.00	425.98
391.19	440.02
391.39	369.80
391.58	435.34
391.78	404.91
391.97	337.04
392.16	374.49
392.36	430.66
392.55	362.78
392.75	390.87
392.94	411.93
393.13	404.91
393.33	332.36
393.52	463.43
393.71	435.34
393.91	407.25
394.10	393.21
394.29	395.55
394.49	374.49
394.68	447.04
394.88	395.55
395.07	414.27
395.26	468.11
395.46	447.04
395.65	440.02
395.84	351.08
396.04	533.64
396.23	447.04
396.42	407.25
396.62	421.30
396.81	456.40
397.00	367.46
397.19	489.17
397.39	334.70
397.58	454.06
397.77	411.93
397.97	435.34
398.16	376.83
398.35	379.17
398.55	409.59
398.74	386.19
398.93	353.42
399.12	433.00
399.32	381.51
399.51	425.98
399.70	395.55
399.90	397.89
400.09	482.15
400.28	409.59
400.47	367.46
400.67	465.77
400.86	390.87
401.05	475.13
401.24	430.66
401.44	433.00
401.63	430.66
401.82	451.72
402.01	386.19
402.21	409.59
402.40	376.83
402.59	414.27
402.78	369.80
402.97	372.15
403.17	454.06
403.36	404.91
403.55	435.34
403.74	400.23
403.93	393.21
404.13	376.83
404.32	386.19
404.51	418.96
404.70	372.15
404.89	479.81
405.09	437.68
405.28	442.36
405.47	433.00
405.66	409.59
405.85	493.85
406.05	463.43
406.24	433.00
406.43	381.51
406.62	454.06
406.81	449.38
407.00	423.64
407.20	442.36
407.39	395.55
407.58	430.66
407.77	472.79
407.96	449.38
408.15	400.23
408.34	433.00
408.54	449.38
408.73	355.76
408.92	365.12
409.11	430.66
409.30	423.64
409.49	416.62
409.68	416.62
409.87	418.96
410.07	341.72
410.26	409.59
410.45	381.51
410.64	383.85
410.83	374.49
411.02	404.91
411.21	388.53
411.40	390.87
411.59	325.33
411.78	414.27
411.98	351.08
412.17	358.10
412.36	400.23
412.55	388.53
412.74	465.77
412.93	428.32
413.12	416.62
413.31	411.93
413.50	348.74
413.69	341.72
413.88	411.93
414.07	390.87
414.26	428.32
414.45	451.72
414.64	477.47
414.83	442.36
415.02	379.17
415.22	428.32
415.41	454.06
415.60	421.30
415.79	411.93
415.98	437.68
416.17	339.38
416.36	369.80
416.55	447.04
416.74	374.49
416.93	433.00
417.12	433.00
417.31	461.09
417.50	458.74
417.69	372.15
417.88	390.87
418.07	416.62
418.26	376.83
418.45	416.62
418.64	360.44
418.83	358.10
419.02	402.57
419.21	376.83
419.39	435.34
419.58	416.62
419.77	411.93
419.96	442.36
420.15	458.74
420.34	404.91
420.53	421.30
420.72	435.34
420.91	428.32
421.10	418.96
421.29	433.00
421.48	423.64
421.67	411.93
421.86	383.85
422.05	409.59
422.24	320.65
422.43	388.53
422.61	433.00
422.80	416.62
422.99	411.93
423.18	362.78
423.37	397.89
423.56	411.93
423.75	425.98
423.94	416.62
424.13	388.53
424.32	390.87
424.50	461.09
424.69	393.21
424.88	435.34
425.07	348.74
425.26	339.38
425.45	454.06
425.64	414.27
425.83	400.23
426.01	393.21
426.20	421.30
426.39	383.85
426.58	393.21
426.77	388.53
426.96	362.78
427.15	372.15
427.33	348.74
427.52	416.62
427.71	440.02
427.90	411.93
428.09	379.17
428.28	358.10
428.46	390.87
428.65	411.93
428.84	386.19
429.03	421.30
429.22	339.38
429.40	435.34
429.59	388.53
429.78	397.89
429.97	393.21
430.16	395.55
430.34	386.19
430.53	475.13
430.72	404.91
430.91	468.11
431.10	435.34
431.28	400.23
431.47	440.02
431.66	334.70
431.85	381.51
432.03	416.62
432.22	423.64
432.41	393.21
432.60	451.72
432.79	461.09
432.97	470.45
433.16	421.30
433.35	414.27
433.54	425.98
433.72	418.96
433.91	486.83
434.10	458.74
434.28	381.51
434.47	360.44
434.66	425.98
434.85	428.32
435.03	388.53
435.22	407.25
435.41	372.15
435.59	470.45
435.78	449.38
435.97	468.11
436.16	472.79
436.34	367.46
436.53	440.02
436.72	465.77
436.90	407.25
437.09	440.02
437.28	475.13
437.46	383.85
437.65	437.68
437.84	454.06
438.02	456.40
438.21	411.93
438.40	388.53
438.58	346.40
438.77	418.96
438.96	496.19
439.14	334.70
439.33	456.40
439.52	414.27
439.70	397.89
439.89	400.23
440.08	407.25
440.26	409.59
440.45	402.57
440.63	437.68
440.82	400.23
441.01	458.74
441.19	440.02
441.38	327.68
441.57	393.21
441.75	418.96
441.94	479.81
442.12	435.34
442.31	397.89
442.50	395.55
442.68	447.04
442.87	442.36
443.05	437.68
443.24	461.09
443.43	395.55
443.61	362.78
443.80	414.27
443.98	440.02
444.17	273.84
444.35	386.19
444.54	414.27
444.73	400.23
444.91	465.77
445.10	355.76
445.28	407.25
445.47	400.23
445.65	449.38
445.84	334.70
446.02	435.34
446.21	388.53
446.39	367.46
446.58	355.76
446.77	477.47
446.95	379.17
447.14	393.21
447.32	433.00
447.51	507.90
447.69	383.85
447.88	472.79
448.06	369.80
448.25	456.40
448.43	425.98
448.62	390.87
448.80	362.78
448.99	461.09
449.17	397.89
449.36	362.78
449.54	339.38
449.73	372.15
449.91	440.02
450.10	395.55
450.28	440.02
450.46	421.30
450.65	486.83
450.83	355.76
451.02	404.91
451.20	393.21
451.39	430.66
451.57	369.80
451.76	351.08
451.94	430.66
452.13	430.66
452.31	425.98
452.49	379.17
452.68	393.21
452.86	365.12
453.05	447.04
453.23	395.55
453.42	430.66
453.60	386.19
453.78	461.09
453.97	372.15
454.15	332.36
454.34	477.47
454.52	386.19
454.70	440.02
454.89	463.43
455.07	411.93
455.26	386.19
455.44	416.62
455.62	400.23
455.81	470.45
455.99	348.74
456.17	376.83
456.36	369.80
456.54	435.34
456.73	397.89
456.91	318.31
457.09	411.93
457.28	421.30
457.46	437.68
457.64	393.21
457.83	369.80
458.01	397.89
458.19	437.68
458.38	414.27
458.56	407.25
458.74	425.98
458.93	404.91
459.11	440.02
459.29	440.02
459.48	414.27
459.66	437.68
459.84	407.25
460.03	475.13
460.21	383.85
460.39	407.25
460.57	423.64
460.76	376.83
460.94	421.30
461.12	428.32
461.31	388.53
461.49	390.87
461.67	374.49
461.85	433.00
462.04	379.17
462.22	842.59
462.40	482.15
462.59	503.22
462.77	369.80
462.95	402.57
463.13	468.11
463.32	454.06
463.50	367.46
463.68	372.15
463.86	376.83
464.05	414.27
464.23	423.64
464.41	521.94
464.59	414.27
464.78	402.57
464.96	339.38
465.14	433.00
465.32	360.44
465.50	433.00
465.69	484.49
465.87	423.64
466.05	421.30
466.23	409.59
466.41	327.68
466.60	400.23
466.78	404.91
466.96	379.17
467.14	447.04
467.32	440.02
467.51	404.91
467.69	402.57
467.87	449.38
468.05	374.49
468.23	365.12
468.41	376.83
468.60	379.17
468.78	355.76
468.96	447.04
469.14	402.57
469.32	372.15
469.50	444.70
469.69	400.23
469.87	395.55
470.05	435.34
470.23	433.00
470.41	360.44
470.59	376.83
470.77	463.43
470.95	433.00
471.14	442.36
471.32	461.09
471.50	428.32
471.68	421.30
471.86	393.21
472.04	470.45
472.22	421.30
472.40	369.80
472.58	376.83
472.77	416.62
472.95	404.91
473.13	395.55
473.31	503.22
473.49	397.89
473.67	393.21
473.85	376.83
474.03	407.25
474.21	400.23
474.39	376.83
474.57	414.27
474.75	416.62
474.93	430.66
475.12	358.10
475.30	416.62
475.48	400.23
475.66	407.25
475.84	479.81
476.02	402.57
476.20	437.68
476.38	379.17
476.56	440.02
476.74	379.17
476.92	475.13
477.10	397.89
477.28	404.91
477.46	461.09
477.64	447.04
477.82	402.57
478.00	444.70
478.18	437.68
478.36	449.38
478.54	404.91
478.72	437.68
478.90	388.53
479.08	423.64
479.26	409.59
479.44	393.21
479.62	362.78
479.80	362.78
479.98	376.83
480.16	507.90
480.34	360.44
480.52	407.25
480.70	465.77
480.88	449.38
481.06	386.19
481.24	376.83
481.41	458.74
481.59	435.34
481.77	393.21
481.95	435.34
482.13	479.81
482.31	440.02
482.49	461.09
482.67	409.59
482.85	423.64
483.03	402.57
483.21	430.66
483.39	360.44
483.57	409.59
483.74	484.49
483.92	463.43
484.10	414.27
484.28	437.68
484.46	472.79
484.64	409.59
484.82	351.08
485.00	365.12
485.18	444.70
485.35	381.51
485.53	365.12
485.71	468.11
485.89	402.57
486.07	388.53
486.25	437.68
486.43	411.93
486.61	430.66
486.78	383.85
486.96	397.89
487.14	390.87
487.32	451.72
487.50	390.87
487.68	454.06
487.85	351.08
488.03	496.19
488.21	484.49
488.39	379.17
488.57	449.38
488.75	444.70
488.92	484.49
489.10	362.78
489.28	444.70
489.46	376.83
489.64	383.85
489.81	346.40
489.99	444.70
490.17	440.02
490.35	463.43
490.53	451.72
490.70	409.59
490.88	390.87
491.06	374.49
491.24	423.64
491.41	407.25
491.59	355.76
491.77	409.59
491.95	433.00
492.13	447.04
492.30	416.62
492.48	407.25
492.66	402.57
492.84	383.85
493.01	475.13
493.19	416.62
493.37	475.13
493.54	468.11
493.72	472.79
493.90	404.91
494.08	435.34
494.25	440.02
494.43	449.38
494.61	369.80
494.79	418.96
494.96	430.66
495.14	458.74
495.32	381.51
495.49	416.62
495.67	433.00
495.85	404.91
496.02	433.00
496.20	498.53
496.38	538.32
496.55	472.79
496.73	482.15
496.91	376.83
497.09	425.98
497.26	416.62
497.44	395.55
497.62	442.36
497.79	421.30
497.97	418.96
498.14	346.40
498.32	411.93
498.50	330.02
498.67	411.93
498.85	327.68
499.03	379.17
499.20	463.43
499.38	395.55
499.56	351.08
499.73	454.06
499.91	395.55
500.08	463.43
500.26	355.76
500.44	397.89
500.61	341.72
500.79	435.34
500.97	381.51
501.14	449.38
501.32	435.34
501.49	390.87
501.67	327.68
501.84	458.74
502.02	365.12
502.20	407.25
502.37	435.34
502.55	414.27
502.72	374.49
502.90	468.11
503.07	482.15
503.25	458.74
503.43	386.19
503.60	362.78
503.78	430.66
503.95	435.34
504.13	400.23
504.30	414.27
504.48	421.30
504.65	418.96
504.83	493.85
505.01	414.27
505.18	468.11
505.36	390.87
505.53	402.57
505.71	433.00
505.88	397.89
506.06	418.96
506.23	416.62
506.41	423.64
506.58	454.06
506.76	414.27
506.93	433.00
507.11	430.66
507.28	418.96
507.46	374.49
507.63	390.87
507.81	402.57
507.98	358.10
508.16	430.66
508.33	416.62
508.50	386.19
508.68	379.17
508.85	461.09
509.03	374.49
509.20	416.62
509.38	374.49
509.55	421.30
509.73	393.21
509.90	475.13
510.08	383.85
510.25	428.32
510.42	402.57
510.60	369.80
510.77	386.19
510.95	465.77
511.12	388.53
511.30	442.36
511.47	430.66
511.64	458.74
511.82	423.64
511.99	423.64
512.17	355.76
512.34	327.68
512.51	367.46
512.69	437.68
512.86	381.51
513.04	395.55
513.21	369.80
513.38	348.74
513.56	400.23
513.73	433.00
513.90	430.66
514.08	407.25
514.25	367.46
514.43	437.68
514.60	416.62
514.77	447.04
514.95	395.55
515.12	358.10
515.29	379.17
515.47	369.80
515.64	376.83
515.81	416.62
515.99	465.77
516.16	463.43
516.33	503.22
516.51	388.53
516.68	397.89
516.85	395.55
517.03	358.10
517.20	447.04
517.37	477.47
517.54	454.06
517.72	388.53
517.89	440.02
518.06	367.46
518.24	411.93
518.41	447.04
518.58	421.30
518.75	362.78
518.93	411.93
519.10	428.32
519.27	437.68
519.45	447.04
519.62	400.23
519.79	383.85
519.96	362.78
520.14	416.62
520.31	402.57
520.48	468.11
520.65	428.32
520.83	348.74
521.00	458.74
521.17	397.89
521.34	430.66
521.52	418.96
521.69	388.53
521.86	444.70
522.03	341.72
522.20	428.32
522.38	489.17
522.55	425.98
522.72	414.27
522.89	489.17
523.07	493.85
523.24	402.57
523.41	425.98
523.58	390.87
523.75	388.53
523.92	318.31
524.10	318.31
524.27	475.13
524.44	489.17
524.61	390.87
524.78	435.34
524.96	376.83
525.13	472.79
525.30	468.11
525.47	489.17
525.64	416.62
525.81	365.12
525.98	395.55
526.16	423.64
526.33	425.98
526.50	397.89
526.67	456.40
526.84	365.12
527.01	404.91
527.18	421.30
527.36	430.66
527.53	440.02
527.70	381.51
527.87	360.44
528.04	521.94
528.21	372.15
528.38	447.04
528.55	430.66
528.72	395.55
528.89	479.81
529.07	444.70
529.24	355.76
529.41	442.36
529.58	411.93
529.75	461.09
529.92	409.59
530.09	383.85
530.26	381.51
530.43	414.27
530.60	393.21
530.77	374.49
530.94	425.98
531.11	381.51
531.28	393.21
531.46	320.65
531.63	402.57
531.80	423.64
531.97	411.93
532.14	400.23
532.31	390.87
532.48	486.83
532.65	486.83
532.82	376.83
532.99	414.27
533.16	442.36
533.33	411.93
533.50	416.62
533.67	416.62
533.84	381.51
534.01	409.59
534.18	411.93
534.35	421.30
534.52	456.40
534.69	472.79
534.86	388.53
535.03	449.38
535.20	416.62
535.37	381.51
535.54	433.00
535.71	383.85
535.88	447.04
536.05	416.62
536.22	390.87
536.38	416.62
536.55	472.79
536.72	402.57
536.89	433.00
537.06	374.49
537.23	444.70
537.40	344.06
537.57	430.66
537.74	463.43
537.91	402.57
538.08	461.09
538.25	430.66
538.42	400.23
538.59	498.53
538.75	468.11
538.92	402.57
539.09	423.64
539.26	388.53
539.43	353.42
539.60	447.04
539.77	437.68
539.94	402.57
540.11	411.93
540.28	440.02
540.44	369.80
540.61	454.06
540.78	367.46
540.95	428.32
541.12	440.02
541.29	388.53
541.46	421.30
541.62	477.47
541.79	454.06
541.96	397.89
542.13	390.87
542.30	411.93
542.47	397.89
542.63	386.19
542.80	400.23
542.97	500.87
543.14	374.49
543.31	388.53
543.48	397.89
543.64	407.25
543.81	472.79
543.98	365.12
544.15	360.44
544.32	337.04
544.48	435.34
544.65	454.06
544.82	365.12
544.99	383.85
545.16	489.17
545.32	433.00
545.49	489.17
545.66	423.64
545.83	395.55
546.00	374.49
546.16	428.32
546.33	397.89
546.50	423.64
546.67	416.62
546.83	500.87
547.00	442.36
547.17	407.25
547.34	444.70
547.50	311.29
547.67	379.17
547.84	360.44
548.00	428.32
548.17	390.87
548.34	365.12
548.51	489.17
548.67	461.09
548.84	435.34
549.01	409.59
549.18	449.38
549.34	374.49
549.51	383.85
549.68	369.80
549.84	447.04
550.01	409.59
550.18	500.87
550.34	503.22
550.51	423.64
550.68	397.89
550.84	425.98
551.01	383.85
551.18	430.66
551.34	379.17
551.51	425.98
551.68	358.10
551.84	454.06
552.01	472.79
552.18	477.47
552.34	433.00
552.51	437.68
552.68	470.45
552.84	433.00
553.01	400.23
553.18	425.98
553.34	451.72
553.51	435.34
553.67	425.98
553.84	503.22
554.01	454.06
554.17	496.19
554.34	433.00
554.51	458.74
554.67	416.62
554.84	484.49
555.00	416.62
555.17	440.02
555.33	456.40
555.50	414.27
555.67	402.57
555.83	411.93
556.00	395.55
556.16	531.30
556.33	433.00
556.50	409.59
556.66	390.87
556.83	456.40
556.99	425.98
557.16	433.00
557.32	433.00
557.49	395.55
557.65	400.23
557.82	348.74
557.98	376.83
558.15	409.59
558.32	393.21
558.48	374.49
558.65	433.00
558.81	444.70
558.98	367.46
559.14	418.96
559.31	517.26
559.47	407.25
559.64	367.46
559.80	428.32
559.97	423.64
560.13	414.27
560.30	358.10
560.46	400.23
560.63	367.46
560.79	397.89
560.96	362.78
561.12	409.59
561.29	482.15
561.45	395.55
561.61	435.34
561.78	503.22
561.94	447.04
562.11	388.53
562.27	393.21
562.44	435.34
562.60	360.44
562.77	379.17
562.93	409.59
563.10	411.93
563.26	362.78
563.42	402.57
563.59	411.93
563.75	411.93
563.92	423.64
564.08	428.32
564.24	393.21
564.41	433.00
564.57	425.98
564.74	451.72
564.90	491.51
565.07	437.68
565.23	423.64
565.39	404.91
565.56	437.68
565.72	330.02
565.88	393.21
566.05	447.04
566.21	470.45
566.38	440.02
566.54	454.06
566.70	402.57
566.87	393.21
567.03	421.30
567.19	418.96
567.36	463.43
567.52	428.32
567.68	397.89
567.85	451.72
568.01	383.85
568.17	397.89
568.34	355.76
568.50	465.77
568.66	433.00
568.83	395.55
568.99	416.62
569.15	388.53
569.32	435.34
569.48	454.06
569.64	414.27
569.81	444.70
569.97	402.57
570.13	456.40
570.30	351.08
570.46	395.55
570.62	421.30
570.78	418.96
570.95	393.21
571.11	423.64
571.27	376.83
571.43	414.27
571.60	425.98
571.76	411.93
571.92	423.64
572.09	444.70
572.25	489.17
572.41	449.38
572.57	454.06
572.74	416.62
572.90	311.29
573.06	442.36
573.22	456.40
573.38	416.62
573.55	390.87
573.71	341.72
573.87	409.59
574.03	425.98
574.20	407.25
574.36	458.74
574.52	409.59
574.68	397.89
574.84	416.62
575.01	395.55
575.17	430.66
575.33	440.02
575.49	416.62
575.65	409.59
575.82	423.64
575.98	376.83
576.14	435.34
576.30	411.93
576.46	355.76
576.62	444.70
576.79	332.36
576.95	358.10
577.11	421.30
577.27	341.72
577.43	379.17
577.59	507.90
577.75	440.02
577.92	458.74
578.08	437.68
578.24	365.12
578.40	449.38
578.56	461.09
578.72	468.11
578.88	383.85
579.04	353.42
579.21	421.30
579.37	440.02
579.53	440.02
579.69	400.23
579.85	297.25
580.01	468.11
580.17	390.87
580.33	449.38
580.49	421.30
580.65	416.62
580.82	454.06
580.98	386.19
581.14	423.64
581.30	423.64
581.46	404.91
581.62	444.70
581.78	444.70
581.94	381.51
582.10	334.70
582.26	381.51
582.42	430.66
582.58	472.79
582.74	416.62
582.90	308.95
583.06	395.55
583.22	416.62
583.38	365.12
583.54	393.21
583.70	430.66
583.86	400.23
584.02	472.79
584.18	440.02
584.34	365.12
584.50	407.25
584.66	381.51
584.82	461.09
584.98	416.62
585.14	425.98
585.30	428.32
585.46	435.34
585.62	397.89
585.78	512.58
585.94	447.04
586.10	465.77
586.26	404.91
586.42	444.70
586.58	393.21
586.74	458.74
586.90	411.93
587.06	374.49
587.22	367.46
587.38	348.74
587.54	369.80
587.70	383.85
587.86	386.19
588.02	409.59
588.18	411.93
588.34	475.13
588.49	390.87
588.65	379.17
588.81	381.51
588.97	418.96
589.13	332.36
589.29	428.32
589.45	386.19
589.61	423.64
589.77	409.59
589.93	463.43
590.08	437.68
590.24	428.32
590.40	416.62
590.56	447.04
590.72	409.59
590.88	437.68
591.04	418.96
591.20	442.36
591.35	407.25
591.51	428.32
591.67	418.96
591.83	341.72
591.99	451.72
592.15	372.15
592.31	409.59
592.46	423.64
592.62	444.70
592.78	402.57
592.94	404.91
593.10	318.31
593.26	440.02
593.41	416.62
593.57	472.79
593.73	414.27
593.89	472.79
594.05	447.04
594.20	411.93
594.36	475.13
594.52	388.53
594.68	421.30
594.84	447.04
594.99	458.74
595.15	468.11
595.31	440.02
595.47	496.19
595.62	374.49
595.78	393.21
595.94	416.62
596.10	472.79
596.25	447.04
596.41	418.96
596.57	374.49
596.73	442.36
596.88	407.25
597.04	470.45
597.20	390.87
597.36	456.40
597.51	454.06
597.67	402.57
597.83	395.55
597.99	404.91
598.14	425.98
598.30	402.57
598.46	430.66
598.61	470.45
598.77	425.98
598.93	451.72
599.09	437.68
599.24	463.43
599.40	376.83
599.56	437.68
599.71	358.10
599.87	365.12
600.03	428.32
600.18	463.43
600.34	346.40
600.50	390.87
600.65	475.13
600.81	425.98
600.97	428.32
601.12	400.23
601.28	433.00
601.44	393.21
601.59	395.55
601.75	440.02
601.91	421.30
602.06	376.83
602.22	535.98
602.37	447.04
602.53	411.93
602.69	348.74
602.84	407.25
603.00	379.17
603.16	425.98
603.31	451.72
603.47	411.93
603.62	365.12
603.78	454.06
603.94	449.38
604.09	423.64
604.25	437.68
604.40	397.89
604.56	390.87
604.71	421.30
604.87	381.51
605.03	458.74
605.18	395.55
605.34	330.02
605.49	463.43
605.65	332.36
605.80	409.59
605.96	440.02
606.12	341.72
606.27	465.77
606.43	383.85
606.58	451.72
606.74	372.15
606.89	418.96
607.05	465.77
607.20	395.55
607.36	470.45
607.51	416.62
607.67	400.23
607.82	386.19
607.98	444.70
608.13	428.32
608.29	433.00
608.44	423.64
608.60	372.15
608.75	475.13
608.91	437.68
609.06	433.00
609.22	388.53
609.37	400.23
609.53	383.85
609.68	482.15
609.84	367.46
609.99	358.10
610.15	404.91
