SpectraSuite Data File
++++++++++++++++++++++++++++++++++++
Date: Fri Oct 25 12:10:44 EDT 2013
User: price-jones
Dark Spectrum Present: No
Reference Spectrum Present: No
Number of Sampled Component Spectra: 1
Spectrometers: USB2+H05261
Integration Time (usec): 100000 (USB2+H05261)
Spectra Averaged: 1 (USB2+H05261)
Boxcar Smoothing: 0 (USB2+H05261)
Correct for Electrical Dark: No (USB2+H05261)
Strobe/Lamp Enabled: No (USB2+H05261)
Correct for Detector Non-linearity: No (USB2+H05261)
Correct for Stray Light: No (USB2+H05261)
Number of Pixels in Processed Spectrum: 2048
>>>>>Begin Processed Spectral Data<<<<<
365.73	327.68
365.92	327.68
366.12	327.68
366.32	245.76
366.52	292.57
366.72	287.89
366.91	243.42
367.11	266.82
367.31	224.69
367.51	308.95
367.70	290.23
367.90	224.69
368.10	241.08
368.30	262.14
368.49	212.99
368.69	248.10
368.89	243.42
369.09	217.67
369.28	297.25
369.48	306.61
369.68	313.63
369.87	318.31
370.07	372.15
370.27	369.80
370.47	421.30
370.66	383.85
370.86	337.04
371.06	402.57
371.25	409.59
371.45	414.27
371.65	383.85
371.84	365.12
372.04	402.57
372.24	388.53
372.44	294.91
372.63	372.15
372.83	400.23
373.03	369.80
373.22	341.72
373.42	383.85
373.62	362.78
373.81	496.19
374.01	400.23
374.21	433.00
374.40	440.02
374.60	454.06
374.79	472.79
374.99	421.30
375.19	313.63
375.38	423.64
375.58	447.04
375.78	416.62
375.97	411.93
376.17	428.32
376.37	407.25
376.56	388.53
376.76	390.87
376.95	383.85
377.15	447.04
377.35	470.45
377.54	433.00
377.74	400.23
377.93	425.98
378.13	360.44
378.33	409.59
378.52	360.44
378.72	402.57
378.91	421.30
379.11	372.15
379.31	402.57
379.50	397.89
379.70	404.91
379.89	454.06
380.09	381.51
380.28	318.31
380.48	414.27
380.68	355.76
380.87	425.98
381.07	442.36
381.26	435.34
381.46	388.53
381.65	379.17
381.85	416.62
382.04	365.12
382.24	374.49
382.43	433.00
382.63	433.00
382.83	395.55
383.02	425.98
383.22	407.25
383.41	311.29
383.61	411.93
383.80	433.00
384.00	381.51
384.19	404.91
384.39	421.30
384.58	418.96
384.78	449.38
384.97	383.85
385.17	334.70
385.36	381.51
385.56	395.55
385.75	390.87
385.95	463.43
386.14	362.78
386.34	423.64
386.53	395.55
386.72	418.96
386.92	374.49
387.11	381.51
387.31	451.72
387.50	414.27
387.70	390.87
387.89	400.23
388.09	397.89
388.28	362.78
388.48	421.30
388.67	416.62
388.86	425.98
389.06	318.31
389.25	430.66
389.45	411.93
389.64	486.83
389.84	416.62
390.03	444.70
390.22	369.80
390.42	458.74
390.61	402.57
390.81	351.08
391.00	451.72
391.19	440.02
391.39	423.64
391.58	451.72
391.78	472.79
391.97	379.17
392.16	458.74
392.36	390.87
392.55	362.78
392.75	416.62
392.94	346.40
393.13	482.15
393.33	376.83
393.52	390.87
393.71	486.83
393.91	409.59
394.10	362.78
394.29	379.17
394.49	374.49
394.68	369.80
394.88	416.62
395.07	425.98
395.26	400.23
395.46	425.98
395.65	367.46
395.84	418.96
396.04	491.51
396.23	365.12
396.42	337.04
396.62	346.40
396.81	374.49
397.00	334.70
397.19	383.85
397.39	428.32
397.58	416.62
397.77	318.31
397.97	367.46
398.16	369.80
398.35	407.25
398.55	416.62
398.74	348.74
398.93	383.85
399.12	390.87
399.32	411.93
399.51	425.98
399.70	414.27
399.90	395.55
400.09	404.91
400.28	430.66
400.47	411.93
400.67	411.93
400.86	397.89
401.05	437.68
401.24	437.68
401.44	411.93
401.63	433.00
401.82	402.57
402.01	383.85
402.21	383.85
402.40	374.49
402.59	451.72
402.78	428.32
402.97	433.00
403.17	470.45
403.36	409.59
403.55	367.46
403.74	383.85
403.93	440.02
404.13	414.27
404.32	330.02
404.51	400.23
404.70	468.11
404.89	351.08
405.09	358.10
405.28	360.44
405.47	346.40
405.66	404.91
405.85	379.17
406.05	444.70
406.24	400.23
406.43	440.02
406.62	484.49
406.81	447.04
407.00	418.96
407.20	337.04
407.39	444.70
407.58	388.53
407.77	477.47
407.96	456.40
408.15	447.04
408.34	386.19
408.54	404.91
408.73	395.55
408.92	461.09
409.11	344.06
409.30	421.30
409.49	393.21
409.68	360.44
409.87	442.36
410.07	418.96
410.26	393.21
410.45	393.21
410.64	358.10
410.83	449.38
411.02	435.34
411.21	421.30
411.40	430.66
411.59	437.68
411.78	367.46
411.98	437.68
412.17	407.25
412.36	461.09
412.55	470.45
412.74	484.49
412.93	435.34
413.12	393.21
413.31	395.55
413.50	418.96
413.69	407.25
413.88	458.74
414.07	388.53
414.26	423.64
414.45	423.64
414.64	463.43
414.83	376.83
415.02	344.06
415.22	423.64
415.41	386.19
415.60	428.32
415.79	425.98
415.98	468.11
416.17	376.83
416.36	449.38
416.55	449.38
416.74	381.51
416.93	437.68
417.12	388.53
417.31	447.04
417.50	411.93
417.69	475.13
417.88	402.57
418.07	355.76
418.26	465.77
418.45	393.21
418.64	463.43
418.83	435.34
419.02	400.23
419.21	397.89
419.39	425.98
419.58	374.49
419.77	447.04
419.96	418.96
420.15	433.00
420.34	416.62
420.53	390.87
420.72	421.30
420.91	418.96
421.10	395.55
421.29	461.09
421.48	428.32
421.67	447.04
421.86	404.91
422.05	407.25
422.24	358.10
422.43	449.38
422.61	409.59
422.80	386.19
422.99	454.06
423.18	397.89
423.37	447.04
423.56	402.57
423.75	393.21
423.94	390.87
424.13	468.11
424.32	465.77
424.50	411.93
424.69	369.80
424.88	376.83
425.07	505.56
425.26	461.09
425.45	379.17
425.64	414.27
425.83	404.91
426.01	386.19
426.20	482.15
426.39	360.44
426.58	362.78
426.77	407.25
426.96	416.62
427.15	414.27
427.33	400.23
427.52	433.00
427.71	397.89
427.90	463.43
428.09	428.32
428.28	390.87
428.46	365.12
428.65	416.62
428.84	414.27
429.03	418.96
429.22	376.83
429.40	339.38
429.59	425.98
429.78	386.19
429.97	440.02
430.16	362.78
430.34	437.68
430.53	433.00
430.72	379.17
430.91	421.30
431.10	379.17
431.28	395.55
431.47	430.66
431.66	423.64
431.85	374.49
432.03	433.00
432.22	479.81
432.41	407.25
432.60	435.34
432.79	353.42
432.97	430.66
433.16	470.45
433.35	475.13
433.54	440.02
433.72	376.83
433.91	397.89
434.10	318.31
434.28	390.87
434.47	390.87
434.66	402.57
434.85	346.40
435.03	372.15
435.22	433.00
435.41	435.34
435.59	423.64
435.78	374.49
435.97	409.59
436.16	393.21
436.34	400.23
436.53	465.77
436.72	423.64
436.90	393.21
437.09	386.19
437.28	470.45
437.46	376.83
437.65	386.19
437.84	372.15
438.02	440.02
438.21	379.17
438.40	332.36
438.58	447.04
438.77	442.36
438.96	449.38
439.14	388.53
439.33	365.12
439.52	397.89
439.70	435.34
439.89	458.74
440.08	425.98
440.26	418.96
440.45	435.34
440.63	440.02
440.82	355.76
441.01	383.85
441.19	376.83
441.38	374.49
441.57	461.09
441.75	411.93
441.94	458.74
442.12	337.04
442.31	355.76
442.50	348.74
442.68	383.85
442.87	435.34
443.05	386.19
443.24	390.87
443.43	388.53
443.61	381.51
443.80	421.30
443.98	355.76
444.17	411.93
444.35	379.17
444.54	425.98
444.73	458.74
444.91	402.57
445.10	397.89
445.28	362.78
445.47	381.51
445.65	435.34
445.84	425.98
446.02	414.27
446.21	383.85
446.39	397.89
446.58	390.87
446.77	416.62
446.95	404.91
447.14	386.19
447.32	461.09
447.51	383.85
447.69	479.81
447.88	376.83
448.06	498.53
448.25	383.85
448.43	411.93
448.62	447.04
448.80	421.30
448.99	451.72
449.17	308.95
449.36	315.97
449.54	358.10
449.73	379.17
449.91	447.04
450.10	383.85
450.28	416.62
450.46	472.79
450.65	435.34
450.83	383.85
451.02	386.19
451.20	388.53
451.39	463.43
451.57	369.80
451.76	484.49
451.94	374.49
452.13	433.00
452.31	430.66
452.49	449.38
452.68	437.68
452.86	418.96
453.05	517.26
453.23	411.93
453.42	451.72
453.60	404.91
453.78	330.02
453.97	442.36
454.15	472.79
454.34	421.30
454.52	400.23
454.70	461.09
454.89	381.51
455.07	348.74
455.26	447.04
455.44	362.78
455.62	327.68
455.81	416.62
455.99	430.66
456.17	430.66
456.36	409.59
456.54	374.49
456.73	472.79
456.91	458.74
457.09	418.96
457.28	397.89
457.46	458.74
457.64	451.72
457.83	390.87
458.01	433.00
458.19	383.85
458.38	400.23
458.56	346.40
458.74	418.96
458.93	404.91
459.11	386.19
459.29	435.34
459.48	470.45
459.66	430.66
459.84	484.49
460.03	449.38
460.21	374.49
460.39	421.30
460.57	435.34
460.76	411.93
460.94	440.02
461.12	463.43
461.31	423.64
461.49	339.38
461.67	433.00
461.85	383.85
462.04	475.13
462.22	772.38
462.40	442.36
462.59	351.08
462.77	414.27
462.95	470.45
463.13	451.72
463.32	447.04
463.50	365.12
463.68	430.66
463.86	360.44
464.05	388.53
464.23	477.47
464.41	388.53
464.59	400.23
464.78	433.00
464.96	454.06
465.14	395.55
465.32	388.53
465.50	400.23
465.69	421.30
465.87	407.25
466.05	433.00
466.23	348.74
466.41	397.89
466.60	397.89
466.78	367.46
466.96	383.85
467.14	449.38
467.32	423.64
467.51	376.83
467.69	428.32
467.87	444.70
468.05	351.08
468.23	449.38
468.41	397.89
468.60	449.38
468.78	421.30
468.96	463.43
469.14	437.68
469.32	416.62
469.50	416.62
469.69	404.91
469.87	404.91
470.05	374.49
470.23	430.66
470.41	360.44
470.59	425.98
470.77	454.06
470.95	395.55
471.14	388.53
471.32	444.70
471.50	451.72
471.68	379.17
471.86	402.57
472.04	414.27
472.22	393.21
472.40	397.89
472.58	379.17
472.77	388.53
472.95	433.00
473.13	557.05
473.31	407.25
473.49	374.49
473.67	393.21
473.85	360.44
474.03	372.15
474.21	360.44
474.39	489.17
474.57	430.66
474.75	477.47
474.93	463.43
475.12	400.23
475.30	407.25
475.48	381.51
475.66	458.74
475.84	449.38
476.02	463.43
476.20	437.68
476.38	428.32
476.56	493.85
476.74	458.74
476.92	397.89
477.10	383.85
477.28	425.98
477.46	447.04
477.64	376.83
477.82	423.64
478.00	470.45
478.18	402.57
478.36	379.17
478.54	362.78
478.72	402.57
478.90	442.36
479.08	472.79
479.26	409.59
479.44	458.74
479.62	489.17
479.80	444.70
479.98	320.65
480.16	404.91
480.34	435.34
480.52	468.11
480.70	397.89
480.88	381.51
481.06	409.59
481.24	433.00
481.41	416.62
481.59	390.87
481.77	456.40
481.95	428.32
482.13	407.25
482.31	376.83
482.49	325.33
482.67	416.62
482.85	402.57
483.03	423.64
483.21	440.02
483.39	456.40
483.57	407.25
483.74	435.34
483.92	437.68
484.10	400.23
484.28	409.59
484.46	510.24
484.64	442.36
484.82	393.21
485.00	472.79
485.18	435.34
485.35	463.43
485.53	433.00
485.71	519.60
485.89	372.15
486.07	400.23
486.25	404.91
486.43	475.13
486.61	425.98
486.78	409.59
486.96	334.70
487.14	397.89
487.32	400.23
487.50	411.93
487.68	346.40
487.85	348.74
488.03	435.34
488.21	411.93
488.39	418.96
488.57	418.96
488.75	365.12
488.92	503.22
489.10	402.57
489.28	437.68
489.46	386.19
489.64	428.32
489.81	512.58
489.99	414.27
490.17	393.21
490.35	491.51
490.53	463.43
490.70	430.66
490.88	435.34
491.06	348.74
491.24	449.38
491.41	500.87
491.59	475.13
491.77	409.59
491.95	461.09
492.13	390.87
492.30	400.23
492.48	498.53
492.66	383.85
492.84	442.36
493.01	423.64
493.19	433.00
493.37	484.49
493.54	430.66
493.72	372.15
493.90	355.76
494.08	444.70
494.25	475.13
494.43	435.34
494.61	402.57
494.79	332.36
494.96	379.17
495.14	374.49
495.32	367.46
495.49	437.68
495.67	360.44
495.85	433.00
496.02	355.76
496.20	397.89
496.38	416.62
496.55	463.43
496.73	470.45
496.91	372.15
497.09	397.89
497.26	442.36
497.44	442.36
497.62	374.49
497.79	381.51
497.97	386.19
498.14	447.04
498.32	416.62
498.50	322.99
498.67	456.40
498.85	407.25
499.03	418.96
499.20	472.79
499.38	414.27
499.56	411.93
499.73	510.24
499.91	451.72
500.08	430.66
500.26	458.74
500.44	379.17
500.61	505.56
500.79	386.19
500.97	482.15
501.14	500.87
501.32	433.00
501.49	433.00
501.67	484.49
501.84	395.55
502.02	440.02
502.20	423.64
502.37	435.34
502.55	444.70
502.72	414.27
502.90	442.36
503.07	447.04
503.25	409.59
503.43	390.87
503.60	449.38
503.78	456.40
503.95	409.59
504.13	400.23
504.30	442.36
504.48	423.64
504.65	442.36
504.83	409.59
505.01	428.32
505.18	416.62
505.36	461.09
505.53	390.87
505.71	489.17
505.88	437.68
506.06	390.87
506.23	379.17
506.41	360.44
506.58	358.10
506.76	374.49
506.93	437.68
507.11	503.22
507.28	418.96
507.46	421.30
507.63	379.17
507.81	395.55
507.98	367.46
508.16	393.21
508.33	367.46
508.50	470.45
508.68	374.49
508.85	442.36
509.03	430.66
509.20	381.51
509.38	358.10
509.55	451.72
509.73	428.32
509.90	475.13
510.08	447.04
510.25	437.68
510.42	411.93
510.60	393.21
510.77	376.83
510.95	465.77
511.12	470.45
511.30	447.04
511.47	404.91
511.64	388.53
511.82	386.19
511.99	477.47
512.17	433.00
512.34	416.62
512.51	383.85
512.69	411.93
512.86	440.02
513.04	402.57
513.21	355.76
513.38	447.04
513.56	418.96
513.73	379.17
513.90	369.80
514.08	404.91
514.25	388.53
514.43	341.72
514.60	386.19
514.77	414.27
514.95	454.06
515.12	409.59
515.29	362.78
515.47	393.21
515.64	435.34
515.81	386.19
515.99	463.43
516.16	416.62
516.33	409.59
516.51	444.70
516.68	447.04
516.85	447.04
517.03	383.85
517.20	479.81
517.37	416.62
517.54	395.55
517.72	395.55
517.89	400.23
518.06	416.62
518.24	428.32
518.41	447.04
518.58	362.78
518.75	404.91
518.93	411.93
519.10	535.98
519.27	444.70
519.45	411.93
519.62	430.66
519.79	470.45
519.96	346.40
520.14	390.87
520.31	461.09
520.48	379.17
520.65	414.27
520.83	409.59
521.00	397.89
521.17	390.87
521.34	341.72
521.52	381.51
521.69	435.34
521.86	430.66
522.03	425.98
522.20	500.87
522.38	379.17
522.55	447.04
522.72	376.83
522.89	486.83
523.07	493.85
523.24	423.64
523.41	447.04
523.58	390.87
523.75	425.98
523.92	418.96
524.10	397.89
524.27	414.27
524.44	449.38
524.61	472.79
524.78	372.15
524.96	416.62
525.13	414.27
525.30	409.59
525.47	423.64
525.64	407.25
525.81	416.62
525.98	418.96
526.16	433.00
526.33	428.32
526.50	437.68
526.67	407.25
526.84	365.12
527.01	428.32
527.18	425.98
527.36	435.34
527.53	418.96
527.70	418.96
527.87	367.46
528.04	397.89
528.21	365.12
528.38	458.74
528.55	440.02
528.72	372.15
528.89	355.76
529.07	411.93
529.24	404.91
529.41	444.70
529.58	339.38
529.75	435.34
529.92	423.64
530.09	411.93
530.26	393.21
530.43	367.46
530.60	409.59
530.77	355.76
530.94	428.32
531.11	393.21
531.28	400.23
531.46	418.96
531.63	404.91
531.80	395.55
531.97	400.23
532.14	411.93
532.31	388.53
532.48	430.66
532.65	449.38
532.82	472.79
532.99	428.32
533.16	428.32
533.33	416.62
533.50	393.21
533.67	362.78
533.84	440.02
534.01	440.02
534.18	374.49
534.35	470.45
534.52	421.30
534.69	383.85
534.86	416.62
535.03	386.19
535.20	390.87
535.37	409.59
535.54	322.99
535.71	397.89
535.88	360.44
536.05	393.21
536.22	435.34
536.38	383.85
536.55	461.09
536.72	470.45
536.89	372.15
537.06	433.00
537.23	423.64
537.40	447.04
537.57	444.70
537.74	512.58
537.91	386.19
538.08	433.00
538.25	425.98
538.42	414.27
538.59	388.53
538.75	400.23
538.92	428.32
539.09	440.02
539.26	411.93
539.43	430.66
539.60	411.93
539.77	383.85
539.94	390.87
540.11	402.57
540.28	409.59
540.44	393.21
540.61	397.89
540.78	470.45
540.95	404.91
541.12	400.23
541.29	454.06
541.46	472.79
541.62	461.09
541.79	421.30
541.96	507.90
542.13	440.02
542.30	402.57
542.47	472.79
542.63	393.21
542.80	381.51
542.97	440.02
543.14	411.93
543.31	458.74
543.48	423.64
543.64	402.57
543.81	367.46
543.98	395.55
544.15	362.78
544.32	379.17
544.48	425.98
544.65	416.62
544.82	390.87
544.99	435.34
545.16	477.47
545.32	451.72
545.49	416.62
545.66	482.15
545.83	383.85
546.00	393.21
546.16	379.17
546.33	367.46
546.50	376.83
546.67	416.62
546.83	418.96
547.00	454.06
547.17	381.51
547.34	404.91
547.50	421.30
547.67	414.27
547.84	458.74
548.00	493.85
548.17	388.53
548.34	365.12
548.51	433.00
548.67	416.62
548.84	421.30
549.01	348.74
549.18	416.62
549.34	458.74
549.51	341.72
549.68	390.87
549.84	451.72
550.01	404.91
550.18	451.72
550.34	454.06
550.51	428.32
550.68	400.23
550.84	390.87
551.01	381.51
551.18	465.77
551.34	435.34
551.51	372.15
551.68	416.62
551.84	430.66
552.01	428.32
552.18	416.62
552.34	416.62
552.51	449.38
552.68	496.19
552.84	360.44
553.01	418.96
553.18	458.74
553.34	468.11
553.51	346.40
553.67	395.55
553.84	421.30
554.01	383.85
554.17	393.21
554.34	346.40
554.51	451.72
554.67	475.13
554.84	397.89
555.00	360.44
555.17	409.59
555.33	411.93
555.50	390.87
555.67	397.89
555.83	425.98
556.00	407.25
556.16	503.22
556.33	425.98
556.50	411.93
556.66	374.49
556.83	407.25
556.99	379.17
557.16	397.89
557.32	428.32
557.49	414.27
557.65	381.51
557.82	416.62
557.98	381.51
558.15	461.09
558.32	369.80
558.48	482.15
558.65	404.91
558.81	482.15
558.98	414.27
559.14	437.68
559.31	444.70
559.47	372.15
559.64	379.17
559.80	442.36
559.97	386.19
560.13	458.74
560.30	423.64
560.46	447.04
560.63	425.98
560.79	414.27
560.96	423.64
561.12	414.27
561.29	451.72
561.45	407.25
561.61	440.02
561.78	447.04
561.94	383.85
562.11	418.96
562.27	465.77
562.44	433.00
562.60	395.55
562.77	393.21
562.93	400.23
563.10	470.45
563.26	376.83
563.42	425.98
563.59	463.43
563.75	421.30
563.92	531.30
564.08	475.13
564.24	418.96
564.41	402.57
564.57	414.27
564.74	367.46
564.90	505.56
565.07	437.68
565.23	444.70
565.39	393.21
565.56	407.25
565.72	400.23
565.88	402.57
566.05	435.34
566.21	388.53
566.38	386.19
566.54	369.80
566.70	423.64
566.87	411.93
567.03	372.15
567.19	451.72
567.36	444.70
567.52	451.72
567.68	416.62
567.85	510.24
568.01	411.93
568.17	510.24
568.34	447.04
568.50	440.02
568.66	379.17
568.83	397.89
568.99	433.00
569.15	400.23
569.32	486.83
569.48	388.53
569.64	454.06
569.81	472.79
569.97	397.89
570.13	458.74
570.30	470.45
570.46	444.70
570.62	461.09
570.78	493.85
570.95	365.12
571.11	425.98
571.27	493.85
571.43	414.27
571.60	449.38
571.76	381.51
571.92	372.15
572.09	418.96
572.25	433.00
572.41	437.68
572.57	388.53
572.74	475.13
572.90	489.17
573.06	423.64
573.22	395.55
573.38	418.96
573.55	454.06
573.71	411.93
573.87	423.64
574.03	440.02
574.20	330.02
574.36	465.77
574.52	430.66
574.68	425.98
574.84	404.91
575.01	444.70
575.17	425.98
575.33	444.70
575.49	390.87
575.65	477.47
575.82	404.91
575.98	437.68
576.14	440.02
576.30	425.98
576.46	402.57
576.62	458.74
576.79	395.55
576.95	400.23
577.11	322.99
577.27	407.25
577.43	390.87
577.59	475.13
577.75	472.79
577.92	388.53
578.08	440.02
578.24	404.91
578.40	479.81
578.56	428.32
578.72	496.19
578.88	475.13
579.04	360.44
579.21	451.72
579.37	449.38
579.53	339.38
579.69	449.38
579.85	404.91
580.01	425.98
580.17	367.46
580.33	444.70
580.49	449.38
580.65	407.25
580.82	404.91
580.98	402.57
581.14	353.42
581.30	435.34
581.46	423.64
581.62	437.68
581.78	390.87
581.94	407.25
582.10	369.80
582.26	353.42
582.42	461.09
582.58	430.66
582.74	386.19
582.90	472.79
583.06	395.55
583.22	365.12
583.38	423.64
583.54	468.11
583.70	447.04
583.86	442.36
584.02	409.59
584.18	486.83
584.34	449.38
584.50	367.46
584.66	372.15
584.82	437.68
584.98	470.45
585.14	447.04
585.30	381.51
585.46	402.57
585.62	449.38
585.78	360.44
585.94	454.06
586.10	454.06
586.26	402.57
586.42	425.98
586.58	400.23
586.74	383.85
586.90	374.49
587.06	388.53
587.22	428.32
587.38	383.85
587.54	449.38
587.70	414.27
587.86	456.40
588.02	461.09
588.18	489.17
588.34	421.30
588.49	402.57
588.65	386.19
588.81	421.30
588.97	411.93
589.13	390.87
589.29	482.15
589.45	358.10
589.61	428.32
589.77	411.93
589.93	451.72
590.08	418.96
590.24	421.30
590.40	376.83
590.56	407.25
590.72	379.17
590.88	414.27
591.04	395.55
591.20	444.70
591.35	444.70
591.51	414.27
591.67	374.49
591.83	397.89
591.99	337.04
592.15	369.80
592.31	367.46
592.46	339.38
592.62	479.81
592.78	444.70
592.94	414.27
593.10	355.76
593.26	372.15
593.41	425.98
593.57	351.08
593.73	390.87
593.89	418.96
594.05	433.00
594.20	456.40
594.36	404.91
594.52	400.23
594.68	411.93
594.84	451.72
594.99	414.27
595.15	402.57
595.31	437.68
595.47	475.13
595.62	472.79
595.78	461.09
595.94	383.85
596.10	393.21
596.25	447.04
596.41	433.00
596.57	374.49
596.73	367.46
596.88	367.46
597.04	416.62
597.20	418.96
597.36	442.36
597.51	435.34
597.67	400.23
597.83	440.02
597.99	423.64
598.14	416.62
598.30	440.02
598.46	390.87
598.61	395.55
598.77	374.49
598.93	388.53
599.09	400.23
599.24	442.36
599.40	402.57
599.56	374.49
599.71	423.64
599.87	428.32
600.03	376.83
600.18	423.64
600.34	383.85
600.50	493.85
600.65	514.92
600.81	454.06
600.97	358.10
601.12	472.79
601.28	496.19
601.44	447.04
601.59	421.30
601.75	484.49
601.91	414.27
602.06	428.32
602.22	519.60
602.37	386.19
602.53	360.44
602.69	381.51
602.84	440.02
603.00	409.59
603.16	472.79
603.31	416.62
603.47	435.34
603.62	430.66
603.78	421.30
603.94	388.53
604.09	433.00
604.25	374.49
604.40	369.80
604.56	472.79
604.71	454.06
604.87	458.74
605.03	428.32
605.18	407.25
605.34	423.64
605.49	402.57
605.65	367.46
605.80	355.76
605.96	416.62
606.12	423.64
606.27	440.02
606.43	416.62
606.58	341.72
606.74	442.36
606.89	381.51
607.05	372.15
607.20	386.19
607.36	433.00
607.51	376.83
607.67	404.91
607.82	449.38
607.98	456.40
608.13	414.27
608.29	402.57
608.44	451.72
608.60	372.15
608.75	451.72
608.91	435.34
609.06	421.30
609.22	430.66
609.37	430.66
609.53	386.19
609.68	463.43
609.84	393.21
609.99	472.79
610.15	440.02
