SpectraSuite Data File
++++++++++++++++++++++++++++++++++++
Date: Fri Oct 25 12:10:37 EDT 2013
User: price-jones
Dark Spectrum Present: No
Reference Spectrum Present: No
Number of Sampled Component Spectra: 1
Spectrometers: USB2+H05261
Integration Time (usec): 100000 (USB2+H05261)
Spectra Averaged: 1 (USB2+H05261)
Boxcar Smoothing: 0 (USB2+H05261)
Correct for Electrical Dark: No (USB2+H05261)
Strobe/Lamp Enabled: No (USB2+H05261)
Correct for Detector Non-linearity: No (USB2+H05261)
Correct for Stray Light: No (USB2+H05261)
Number of Pixels in Processed Spectrum: 2048
>>>>>Begin Processed Spectral Data<<<<<
365.73	381.51
365.92	381.51
366.12	381.51
366.32	255.12
366.52	248.10
366.72	234.05
366.91	252.78
367.11	285.55
367.31	250.44
367.51	180.22
367.70	222.35
367.90	285.55
368.10	217.67
368.30	257.46
368.49	236.39
368.69	271.50
368.89	238.73
369.09	287.89
369.28	285.55
369.48	334.70
369.68	229.37
369.87	241.08
370.07	283.20
370.27	259.80
370.47	313.63
370.66	358.10
370.86	339.38
371.06	358.10
371.25	341.72
371.45	264.48
371.65	341.72
371.84	355.76
372.04	376.83
372.24	418.96
372.44	437.68
372.63	395.55
372.83	358.10
373.03	414.27
373.22	416.62
373.42	404.91
373.62	372.15
373.81	486.83
374.01	421.30
374.21	500.87
374.40	440.02
374.60	435.34
374.79	365.12
374.99	388.53
375.19	465.77
375.38	409.59
375.58	409.59
375.78	393.21
375.97	458.74
376.17	503.22
376.37	355.76
376.56	402.57
376.76	339.38
376.95	365.12
377.15	456.40
377.35	311.29
377.54	479.81
377.74	411.93
377.93	414.27
378.13	430.66
378.33	379.17
378.52	337.04
378.72	461.09
378.91	418.96
379.11	456.40
379.31	365.12
379.50	388.53
379.70	414.27
379.89	430.66
380.09	454.06
380.28	442.36
380.48	400.23
380.68	374.49
380.87	421.30
381.07	444.70
381.26	407.25
381.46	369.80
381.65	433.00
381.85	367.46
382.04	421.30
382.24	416.62
382.43	372.15
382.63	421.30
382.83	407.25
383.02	341.72
383.22	409.59
383.41	379.17
383.61	383.85
383.80	348.74
384.00	423.64
384.19	409.59
384.39	447.04
384.58	376.83
384.78	402.57
384.97	390.87
385.17	444.70
385.36	341.72
385.56	407.25
385.75	411.93
385.95	388.53
386.14	400.23
386.34	376.83
386.53	425.98
386.72	369.80
386.92	423.64
387.11	433.00
387.31	339.38
387.50	414.27
387.70	365.12
387.89	351.08
388.09	433.00
388.28	393.21
388.48	379.17
388.67	355.76
388.86	381.51
389.06	425.98
389.25	379.17
389.45	430.66
389.64	365.12
389.84	395.55
390.03	390.87
390.22	379.17
390.42	479.81
390.61	372.15
390.81	353.42
391.00	433.00
391.19	465.77
391.39	411.93
391.58	437.68
391.78	437.68
391.97	433.00
392.16	365.12
392.36	388.53
392.55	416.62
392.75	411.93
392.94	372.15
393.13	458.74
393.33	421.30
393.52	447.04
393.71	414.27
393.91	388.53
394.10	461.09
394.29	383.85
394.49	353.42
394.68	355.76
394.88	379.17
395.07	351.08
395.26	425.98
395.46	386.19
395.65	423.64
395.84	397.89
396.04	454.06
396.23	397.89
396.42	374.49
396.62	400.23
396.81	428.32
397.00	334.70
397.19	390.87
397.39	407.25
397.58	454.06
397.77	425.98
397.97	409.59
398.16	409.59
398.35	451.72
398.55	330.02
398.74	393.21
398.93	341.72
399.12	313.63
399.32	388.53
399.51	416.62
399.70	479.81
399.90	372.15
400.09	409.59
400.28	428.32
400.47	339.38
400.67	374.49
400.86	409.59
401.05	484.49
401.24	442.36
401.44	381.51
401.63	397.89
401.82	362.78
402.01	355.76
402.21	404.91
402.40	425.98
402.59	381.51
402.78	390.87
402.97	437.68
403.17	376.83
403.36	416.62
403.55	479.81
403.74	421.30
403.93	376.83
404.13	393.21
404.32	402.57
404.51	423.64
404.70	376.83
404.89	430.66
405.09	430.66
405.28	444.70
405.47	442.36
405.66	332.36
405.85	381.51
406.05	386.19
406.24	376.83
406.43	430.66
406.62	461.09
406.81	456.40
407.00	388.53
407.20	383.85
407.39	360.44
407.58	402.57
407.77	475.13
407.96	414.27
408.15	463.43
408.34	425.98
408.54	444.70
408.73	500.87
408.92	423.64
409.11	386.19
409.30	437.68
409.49	418.96
409.68	428.32
409.87	327.68
410.07	407.25
410.26	411.93
410.45	514.92
410.64	404.91
410.83	376.83
411.02	437.68
411.21	386.19
411.40	493.85
411.59	339.38
411.78	388.53
411.98	348.74
412.17	362.78
412.36	395.55
412.55	423.64
412.74	414.27
412.93	442.36
413.12	404.91
413.31	440.02
413.50	395.55
413.69	386.19
413.88	433.00
414.07	367.46
414.26	423.64
414.45	418.96
414.64	444.70
414.83	325.33
415.02	442.36
415.22	465.77
415.41	402.57
415.60	407.25
415.79	440.02
415.98	435.34
416.17	402.57
416.36	348.74
416.55	362.78
416.74	386.19
416.93	423.64
417.12	388.53
417.31	388.53
417.50	423.64
417.69	437.68
417.88	442.36
418.07	313.63
418.26	418.96
418.45	442.36
418.64	388.53
418.83	383.85
419.02	397.89
419.21	418.96
419.39	414.27
419.58	383.85
419.77	353.42
419.96	430.66
420.15	418.96
420.34	390.87
420.53	421.30
420.72	447.04
420.91	402.57
421.10	397.89
421.29	402.57
421.48	388.53
421.67	381.51
421.86	351.08
422.05	430.66
422.24	404.91
422.43	411.93
422.61	369.80
422.80	428.32
422.99	409.59
423.18	379.17
423.37	433.00
423.56	430.66
423.75	437.68
423.94	386.19
424.13	425.98
424.32	402.57
424.50	388.53
424.69	376.83
424.88	404.91
425.07	482.15
425.26	365.12
425.45	409.59
425.64	351.08
425.83	404.91
426.01	550.03
426.20	433.00
426.39	390.87
426.58	374.49
426.77	374.49
426.96	393.21
427.15	461.09
427.33	428.32
427.52	507.90
427.71	421.30
427.90	402.57
428.09	334.70
428.28	362.78
428.46	362.78
428.65	388.53
428.84	416.62
429.03	416.62
429.22	402.57
429.40	390.87
429.59	416.62
429.78	449.38
429.97	407.25
430.16	327.68
430.34	383.85
430.53	451.72
430.72	334.70
430.91	414.27
431.10	360.44
431.28	425.98
431.47	423.64
431.66	456.40
431.85	397.89
432.03	404.91
432.22	468.11
432.41	397.89
432.60	367.46
432.79	414.27
432.97	416.62
433.16	423.64
433.35	418.96
433.54	447.04
433.72	379.17
433.91	416.62
434.10	344.06
434.28	404.91
434.47	421.30
434.66	463.43
434.85	440.02
435.03	409.59
435.22	486.83
435.41	390.87
435.59	411.93
435.78	355.76
435.97	367.46
436.16	444.70
436.34	388.53
436.53	339.38
436.72	421.30
436.90	472.79
437.09	423.64
437.28	435.34
437.46	463.43
437.65	388.53
437.84	383.85
438.02	458.74
438.21	440.02
438.40	358.10
438.58	383.85
438.77	421.30
438.96	400.23
439.14	320.65
439.33	416.62
439.52	388.53
439.70	402.57
439.89	449.38
440.08	402.57
440.26	430.66
440.45	433.00
440.63	561.73
440.82	393.21
441.01	482.15
441.19	423.64
441.38	423.64
441.57	430.66
441.75	435.34
441.94	472.79
442.12	435.34
442.31	395.55
442.50	355.76
442.68	360.44
442.87	456.40
443.05	358.10
443.24	456.40
443.43	416.62
443.61	444.70
443.80	362.78
443.98	454.06
444.17	411.93
444.35	435.34
444.54	360.44
444.73	402.57
444.91	447.04
445.10	346.40
445.28	402.57
445.47	425.98
445.65	376.83
445.84	374.49
446.02	421.30
446.21	400.23
446.39	411.93
446.58	360.44
446.77	376.83
446.95	372.15
447.14	505.56
447.32	470.45
447.51	430.66
447.69	372.15
447.88	456.40
448.06	447.04
448.25	381.51
448.43	454.06
448.62	425.98
448.80	425.98
448.99	395.55
449.17	440.02
449.36	390.87
449.54	435.34
449.73	376.83
449.91	430.66
450.10	402.57
450.28	486.83
450.46	498.53
450.65	477.47
450.83	451.72
451.02	369.80
451.20	447.04
451.39	407.25
451.57	393.21
451.76	416.62
451.94	458.74
452.13	449.38
452.31	437.68
452.49	409.59
452.68	397.89
452.86	379.17
453.05	468.11
453.23	435.34
453.42	414.27
453.60	404.91
453.78	362.78
453.97	369.80
454.15	376.83
454.34	351.08
454.52	442.36
454.70	435.34
454.89	468.11
455.07	397.89
455.26	421.30
455.44	428.32
455.62	388.53
455.81	341.72
455.99	461.09
456.17	447.04
456.36	458.74
456.54	374.49
456.73	416.62
456.91	444.70
457.09	416.62
457.28	456.40
457.46	372.15
457.64	433.00
457.83	418.96
458.01	407.25
458.19	433.00
458.38	425.98
458.56	428.32
458.74	444.70
458.93	442.36
459.11	421.30
459.29	409.59
459.48	376.83
459.66	491.51
459.84	435.34
460.03	440.02
460.21	456.40
460.39	449.38
460.57	425.98
460.76	379.17
460.94	407.25
461.12	425.98
461.31	388.53
461.49	442.36
461.67	489.17
461.85	449.38
462.04	386.19
462.22	737.27
462.40	507.90
462.59	449.38
462.77	423.64
462.95	414.27
463.13	372.15
463.32	381.51
463.50	358.10
463.68	397.89
463.86	374.49
464.05	456.40
464.23	444.70
464.41	423.64
464.59	409.59
464.78	386.19
464.96	409.59
465.14	416.62
465.32	479.81
465.50	472.79
465.69	477.47
465.87	360.44
466.05	475.13
466.23	437.68
466.41	437.68
466.60	449.38
466.78	353.42
466.96	475.13
467.14	346.40
467.32	358.10
467.51	472.79
467.69	444.70
467.87	458.74
468.05	442.36
468.23	472.79
468.41	461.09
468.60	397.89
468.78	348.74
468.96	388.53
469.14	451.72
469.32	407.25
469.50	372.15
469.69	407.25
469.87	360.44
470.05	367.46
470.23	421.30
470.41	379.17
470.59	442.36
470.77	360.44
470.95	374.49
471.14	449.38
471.32	454.06
471.50	379.17
471.68	379.17
471.86	475.13
472.04	451.72
472.22	449.38
472.40	374.49
472.58	402.57
472.77	325.33
472.95	379.17
473.13	451.72
473.31	449.38
473.49	381.51
473.67	379.17
473.85	416.62
474.03	470.45
474.21	414.27
474.39	393.21
474.57	435.34
474.75	433.00
474.93	463.43
475.12	435.34
475.30	353.42
475.48	421.30
475.66	475.13
475.84	353.42
476.02	358.10
476.20	444.70
476.38	433.00
476.56	407.25
476.74	381.51
476.92	477.47
477.10	421.30
477.28	421.30
477.46	440.02
477.64	425.98
477.82	379.17
478.00	414.27
478.18	447.04
478.36	390.87
478.54	479.81
478.72	454.06
478.90	416.62
479.08	355.76
479.26	440.02
479.44	437.68
479.62	489.17
479.80	393.21
479.98	416.62
480.16	337.04
480.34	451.72
480.52	393.21
480.70	411.93
480.88	367.46
481.06	444.70
481.24	388.53
481.41	355.76
481.59	367.46
481.77	407.25
481.95	376.83
482.13	425.98
482.31	444.70
482.49	395.55
482.67	409.59
482.85	468.11
483.03	479.81
483.21	393.21
483.39	404.91
483.57	423.64
483.74	477.47
483.92	367.46
484.10	386.19
484.28	421.30
484.46	395.55
484.64	418.96
484.82	454.06
485.00	433.00
485.18	402.57
485.35	355.76
485.53	388.53
485.71	472.79
485.89	381.51
486.07	332.36
486.25	465.77
486.43	409.59
486.61	461.09
486.78	437.68
486.96	421.30
487.14	428.32
487.32	433.00
487.50	421.30
487.68	461.09
487.85	433.00
488.03	461.09
488.21	362.78
488.39	404.91
488.57	346.40
488.75	402.57
488.92	521.94
489.10	451.72
489.28	500.87
489.46	369.80
489.64	437.68
489.81	433.00
489.99	465.77
490.17	421.30
490.35	458.74
490.53	442.36
490.70	365.12
490.88	402.57
491.06	379.17
491.24	442.36
491.41	411.93
491.59	397.89
491.77	383.85
491.95	379.17
492.13	416.62
492.30	433.00
492.48	369.80
492.66	383.85
492.84	351.08
493.01	430.66
493.19	423.64
493.37	416.62
493.54	463.43
493.72	477.47
493.90	330.02
494.08	407.25
494.25	449.38
494.43	454.06
494.61	428.32
494.79	402.57
494.96	400.23
495.14	430.66
495.32	372.15
495.49	472.79
495.67	327.68
495.85	416.62
496.02	402.57
496.20	381.51
496.38	407.25
496.55	433.00
496.73	454.06
496.91	381.51
497.09	332.36
497.26	379.17
497.44	374.49
497.62	397.89
497.79	397.89
497.97	461.09
498.14	388.53
498.32	416.62
498.50	404.91
498.67	393.21
498.85	423.64
499.03	351.08
499.20	468.11
499.38	409.59
499.56	341.72
499.73	458.74
499.91	421.30
500.08	423.64
500.26	397.89
500.44	484.49
500.61	409.59
500.79	381.51
500.97	486.83
501.14	428.32
501.32	393.21
501.49	416.62
501.67	416.62
501.84	376.83
502.02	327.68
502.20	381.51
502.37	395.55
502.55	486.83
502.72	395.55
502.90	351.08
503.07	428.32
503.25	470.45
503.43	421.30
503.60	376.83
503.78	479.81
503.95	407.25
504.13	468.11
504.30	468.11
504.48	451.72
504.65	479.81
504.83	393.21
505.01	313.63
505.18	339.38
505.36	449.38
505.53	423.64
505.71	379.17
505.88	440.02
506.06	423.64
506.23	465.77
506.41	510.24
506.58	425.98
506.76	407.25
506.93	395.55
507.11	379.17
507.28	437.68
507.46	397.89
507.63	449.38
507.81	404.91
507.98	433.00
508.16	416.62
508.33	358.10
508.50	397.89
508.68	353.42
508.85	440.02
509.03	383.85
509.20	397.89
509.38	421.30
509.55	493.85
509.73	351.08
509.90	433.00
510.08	400.23
510.25	437.68
510.42	367.46
510.60	491.51
510.77	423.64
510.95	428.32
511.12	442.36
511.30	484.49
511.47	374.49
511.64	411.93
511.82	416.62
511.99	421.30
512.17	404.91
512.34	421.30
512.51	430.66
512.69	465.77
512.86	416.62
513.04	362.78
513.21	400.23
513.38	386.19
513.56	418.96
513.73	428.32
513.90	386.19
514.08	418.96
514.25	395.55
514.43	421.30
514.60	433.00
514.77	297.25
514.95	477.47
515.12	440.02
515.29	491.51
515.47	325.33
515.64	486.83
515.81	346.40
515.99	395.55
516.16	435.34
516.33	440.02
516.51	444.70
516.68	428.32
516.85	472.79
517.03	472.79
517.20	411.93
517.37	388.53
517.54	505.56
517.72	395.55
517.89	397.89
518.06	421.30
518.24	402.57
518.41	433.00
518.58	365.12
518.75	383.85
518.93	402.57
519.10	423.64
519.27	379.17
519.45	435.34
519.62	402.57
519.79	425.98
519.96	425.98
520.14	449.38
520.31	477.47
520.48	397.89
520.65	447.04
520.83	440.02
521.00	456.40
521.17	390.87
521.34	421.30
521.52	381.51
521.69	367.46
521.86	386.19
522.03	414.27
522.20	433.00
522.38	435.34
522.55	416.62
522.72	444.70
522.89	395.55
523.07	449.38
523.24	327.68
523.41	421.30
523.58	390.87
523.75	416.62
523.92	461.09
524.10	416.62
524.27	376.83
524.44	451.72
524.61	416.62
524.78	447.04
524.96	369.80
525.13	435.34
525.30	407.25
525.47	477.47
525.64	386.19
525.81	440.02
525.98	535.98
526.16	414.27
526.33	390.87
526.50	470.45
526.67	358.10
526.84	475.13
527.01	416.62
527.18	402.57
527.36	416.62
527.53	461.09
527.70	428.32
527.87	437.68
528.04	435.34
528.21	372.15
528.38	386.19
528.55	397.89
528.72	451.72
528.89	482.15
529.07	416.62
529.24	393.21
529.41	451.72
529.58	376.83
529.75	447.04
529.92	430.66
530.09	442.36
530.26	493.85
530.43	395.55
530.60	400.23
530.77	442.36
530.94	423.64
531.11	411.93
531.28	428.32
531.46	393.21
531.63	390.87
531.80	454.06
531.97	463.43
532.14	416.62
532.31	395.55
532.48	423.64
532.65	468.11
532.82	409.59
532.99	435.34
533.16	346.40
533.33	458.74
533.50	367.46
533.67	397.89
533.84	400.23
534.01	407.25
534.18	362.78
534.35	444.70
534.52	390.87
534.69	458.74
534.86	407.25
535.03	365.12
535.20	423.64
535.37	447.04
535.54	369.80
535.71	395.55
535.88	451.72
536.05	449.38
536.22	435.34
536.38	376.83
536.55	440.02
536.72	372.15
536.89	388.53
537.06	397.89
537.23	472.79
537.40	444.70
537.57	416.62
537.74	440.02
537.91	395.55
538.08	449.38
538.25	393.21
538.42	414.27
538.59	425.98
538.75	388.53
538.92	337.04
539.09	425.98
539.26	390.87
539.43	428.32
539.60	407.25
539.77	500.87
539.94	383.85
540.11	393.21
540.28	416.62
540.44	440.02
540.61	383.85
540.78	465.77
540.95	475.13
541.12	472.79
541.29	360.44
541.46	510.24
541.62	411.93
541.79	437.68
541.96	461.09
542.13	397.89
542.30	416.62
542.47	411.93
542.63	381.51
542.80	381.51
542.97	383.85
543.14	353.42
543.31	393.21
543.48	404.91
543.64	407.25
543.81	465.77
543.98	390.87
544.15	423.64
544.32	433.00
544.48	475.13
544.65	407.25
544.82	407.25
544.99	411.93
545.16	414.27
545.32	409.59
545.49	337.04
545.66	400.23
545.83	486.83
546.00	407.25
546.16	411.93
546.33	390.87
546.50	358.10
546.67	505.56
546.83	402.57
547.00	463.43
547.17	395.55
547.34	407.25
547.50	381.51
547.67	470.45
547.84	395.55
548.00	425.98
548.17	430.66
548.34	348.74
548.51	421.30
548.67	430.66
548.84	437.68
549.01	395.55
549.18	418.96
549.34	425.98
549.51	442.36
549.68	465.77
549.84	418.96
550.01	386.19
550.18	507.90
550.34	500.87
550.51	451.72
550.68	465.77
550.84	447.04
551.01	379.17
551.18	421.30
551.34	409.59
551.51	421.30
551.68	400.23
551.84	433.00
552.01	341.72
552.18	397.89
552.34	397.89
552.51	428.32
552.68	393.21
552.84	369.80
553.01	341.72
553.18	409.59
553.34	519.60
553.51	376.83
553.67	505.56
553.84	486.83
554.01	416.62
554.17	421.30
554.34	423.64
554.51	397.89
554.67	442.36
554.84	465.77
555.00	423.64
555.17	397.89
555.33	442.36
555.50	442.36
555.67	400.23
555.83	386.19
556.00	374.49
556.16	528.96
556.33	468.11
556.50	395.55
556.66	395.55
556.83	458.74
556.99	440.02
557.16	423.64
557.32	379.17
557.49	423.64
557.65	421.30
557.82	435.34
557.98	362.78
558.15	442.36
558.32	411.93
558.48	449.38
558.65	388.53
558.81	428.32
558.98	472.79
559.14	404.91
559.31	407.25
559.47	519.60
559.64	353.42
559.80	397.89
559.97	465.77
560.13	383.85
560.30	407.25
560.46	362.78
560.63	407.25
560.79	397.89
560.96	444.70
561.12	376.83
561.29	423.64
561.45	404.91
561.61	374.49
561.78	374.49
561.94	425.98
562.11	411.93
562.27	421.30
562.44	423.64
562.60	449.38
562.77	397.89
562.93	486.83
563.10	390.87
563.26	393.21
563.42	484.49
563.59	472.79
563.75	381.51
563.92	423.64
564.08	425.98
564.24	428.32
564.41	414.27
564.57	447.04
564.74	409.59
564.90	411.93
565.07	437.68
565.23	416.62
565.39	341.72
565.56	435.34
565.72	468.11
565.88	404.91
566.05	381.51
566.21	456.40
566.38	435.34
566.54	353.42
566.70	449.38
566.87	388.53
567.03	383.85
567.19	477.47
567.36	400.23
567.52	447.04
567.68	433.00
567.85	444.70
568.01	421.30
568.17	482.15
568.34	463.43
568.50	433.00
568.66	386.19
568.83	425.98
568.99	433.00
569.15	414.27
569.32	383.85
569.48	447.04
569.64	400.23
569.81	433.00
569.97	381.51
570.13	365.12
570.30	360.44
570.46	395.55
570.62	437.68
570.78	400.23
570.95	369.80
571.11	447.04
571.27	416.62
571.43	435.34
571.60	458.74
571.76	344.06
571.92	423.64
572.09	430.66
572.25	353.42
572.41	449.38
572.57	383.85
572.74	435.34
572.90	407.25
573.06	395.55
573.22	463.43
573.38	524.28
573.55	435.34
573.71	437.68
573.87	416.62
574.03	458.74
574.20	461.09
574.36	442.36
574.52	482.15
574.68	421.30
574.84	451.72
575.01	437.68
575.17	465.77
575.33	320.65
575.49	447.04
575.65	395.55
575.82	451.72
575.98	456.40
576.14	440.02
576.30	447.04
576.46	414.27
576.62	386.19
576.79	437.68
576.95	470.45
577.11	470.45
577.27	374.49
577.43	444.70
577.59	458.74
577.75	428.32
577.92	374.49
578.08	458.74
578.24	402.57
578.40	407.25
578.56	433.00
578.72	411.93
578.88	367.46
579.04	421.30
579.21	383.85
579.37	376.83
579.53	402.57
579.69	477.47
579.85	451.72
580.01	428.32
580.17	308.95
580.33	423.64
580.49	428.32
580.65	442.36
580.82	393.21
580.98	465.77
581.14	468.11
581.30	369.80
581.46	435.34
581.62	414.27
581.78	386.19
581.94	442.36
582.10	407.25
582.26	461.09
582.42	472.79
582.58	404.91
582.74	414.27
582.90	458.74
583.06	416.62
583.22	379.17
583.38	358.10
583.54	447.04
583.70	465.77
583.86	400.23
584.02	416.62
584.18	355.76
584.34	383.85
584.50	379.17
584.66	428.32
584.82	407.25
584.98	348.74
585.14	423.64
585.30	458.74
585.46	409.59
585.62	428.32
585.78	365.12
585.94	430.66
586.10	430.66
586.26	447.04
586.42	461.09
586.58	416.62
586.74	374.49
586.90	437.68
587.06	407.25
587.22	402.57
587.38	454.06
587.54	477.47
587.70	402.57
587.86	376.83
588.02	416.62
588.18	327.68
588.34	388.53
588.49	454.06
588.65	374.49
588.81	421.30
588.97	381.51
589.13	390.87
589.29	435.34
589.45	411.93
589.61	463.43
589.77	393.21
589.93	400.23
590.08	381.51
590.24	428.32
590.40	442.36
590.56	404.91
590.72	397.89
590.88	388.53
591.04	425.98
591.20	358.10
591.35	486.83
591.51	409.59
591.67	395.55
591.83	421.30
591.99	411.93
592.15	372.15
592.31	433.00
592.46	379.17
592.62	369.80
592.78	442.36
592.94	491.51
593.10	374.49
593.26	390.87
593.41	383.85
593.57	409.59
593.73	442.36
593.89	477.47
594.05	379.17
594.20	374.49
594.36	435.34
594.52	374.49
594.68	496.19
594.84	493.85
594.99	449.38
595.15	407.25
595.31	416.62
595.47	500.87
595.62	409.59
595.78	416.62
595.94	437.68
596.10	411.93
596.25	517.26
596.41	454.06
596.57	397.89
596.73	376.83
596.88	475.13
597.04	330.02
597.20	346.40
597.36	327.68
597.51	421.30
597.67	397.89
597.83	407.25
597.99	472.79
598.14	400.23
598.30	423.64
598.46	428.32
598.61	360.44
598.77	315.97
598.93	414.27
599.09	393.21
599.24	465.77
599.40	449.38
599.56	440.02
599.71	369.80
599.87	421.30
600.03	421.30
600.18	407.25
600.34	465.77
600.50	458.74
600.65	374.49
600.81	388.53
600.97	425.98
601.12	454.06
601.28	442.36
601.44	421.30
601.59	400.23
601.75	388.53
601.91	449.38
602.06	348.74
602.22	484.49
602.37	444.70
602.53	393.21
602.69	411.93
602.84	393.21
603.00	463.43
603.16	393.21
603.31	407.25
603.47	468.11
603.62	395.55
603.78	461.09
603.94	395.55
604.09	402.57
604.25	425.98
604.40	470.45
604.56	521.94
604.71	395.55
604.87	404.91
605.03	383.85
605.18	379.17
605.34	493.85
605.49	451.72
605.65	376.83
605.80	358.10
605.96	402.57
606.12	437.68
606.27	437.68
606.43	376.83
606.58	388.53
606.74	334.70
606.89	379.17
607.05	463.43
607.20	468.11
607.36	402.57
607.51	374.49
607.67	409.59
607.82	425.98
607.98	411.93
608.13	386.19
608.29	360.44
608.44	421.30
608.60	411.93
608.75	393.21
608.91	425.98
609.06	454.06
609.22	388.53
609.37	472.79
609.53	400.23
609.68	379.17
609.84	416.62
609.99	409.59
610.15	447.04
