SpectraSuite Data File
++++++++++++++++++++++++++++++++++++
Date: Fri Oct 25 12:10:11 EDT 2013
User: price-jones
Dark Spectrum Present: No
Reference Spectrum Present: No
Number of Sampled Component Spectra: 1
Spectrometers: USB2+H05261
Integration Time (usec): 100000 (USB2+H05261)
Spectra Averaged: 1 (USB2+H05261)
Boxcar Smoothing: 0 (USB2+H05261)
Correct for Electrical Dark: No (USB2+H05261)
Strobe/Lamp Enabled: No (USB2+H05261)
Correct for Detector Non-linearity: No (USB2+H05261)
Correct for Stray Light: No (USB2+H05261)
Number of Pixels in Processed Spectrum: 2048
>>>>>Begin Processed Spectral Data<<<<<
365.73	353.42
365.92	353.42
366.12	353.42
366.32	257.46
366.52	280.86
366.72	231.71
366.91	250.44
367.11	149.79
367.31	241.08
367.51	308.95
367.70	220.01
367.90	266.82
368.10	238.73
368.30	308.95
368.49	248.10
368.69	280.86
368.89	273.84
369.09	222.35
369.28	255.12
369.48	294.91
369.68	287.89
369.87	313.63
370.07	283.20
370.27	337.04
370.47	381.51
370.66	351.08
370.86	308.95
371.06	322.99
371.25	383.85
371.45	379.17
371.65	388.53
371.84	365.12
372.04	402.57
372.24	404.91
372.44	383.85
372.63	365.12
372.83	400.23
373.03	454.06
373.22	376.83
373.42	374.49
373.62	428.32
373.81	447.04
374.01	425.98
374.21	442.36
374.40	411.93
374.60	468.11
374.79	435.34
374.99	423.64
375.19	388.53
375.38	479.81
375.58	411.93
375.78	477.47
375.97	456.40
376.17	503.22
376.37	388.53
376.56	428.32
376.76	458.74
376.95	369.80
377.15	423.64
377.35	444.70
377.54	390.87
377.74	402.57
377.93	355.76
378.13	367.46
378.33	423.64
378.52	376.83
378.72	493.85
378.91	472.79
379.11	358.10
379.31	383.85
379.50	423.64
379.70	372.15
379.89	386.19
380.09	390.87
380.28	433.00
380.48	402.57
380.68	409.59
380.87	353.42
381.07	402.57
381.26	404.91
381.46	362.78
381.65	449.38
381.85	425.98
382.04	379.17
382.24	369.80
382.43	372.15
382.63	433.00
382.83	351.08
383.02	428.32
383.22	477.47
383.41	346.40
383.61	390.87
383.80	454.06
384.00	454.06
384.19	346.40
384.39	400.23
384.58	353.42
384.78	430.66
384.97	421.30
385.17	341.72
385.36	414.27
385.56	386.19
385.75	383.85
385.95	395.55
386.14	435.34
386.34	386.19
386.53	425.98
386.72	351.08
386.92	362.78
387.11	381.51
387.31	468.11
387.50	425.98
387.70	379.17
387.89	397.89
388.09	395.55
388.28	360.44
388.48	386.19
388.67	367.46
388.86	360.44
389.06	386.19
389.25	444.70
389.45	393.21
389.64	416.62
389.84	463.43
390.03	393.21
390.22	360.44
390.42	362.78
390.61	423.64
390.81	365.12
391.00	418.96
391.19	360.44
391.39	425.98
391.58	379.17
391.78	372.15
391.97	393.21
392.16	416.62
392.36	346.40
392.55	425.98
392.75	311.29
392.94	285.55
393.13	433.00
393.33	367.46
393.52	365.12
393.71	397.89
393.91	402.57
394.10	383.85
394.29	505.56
394.49	430.66
394.68	381.51
394.88	409.59
395.07	362.78
395.26	395.55
395.46	437.68
395.65	430.66
395.84	369.80
396.04	437.68
396.23	418.96
396.42	421.30
396.62	379.17
396.81	428.32
397.00	365.12
397.19	465.77
397.39	458.74
397.58	400.23
397.77	430.66
397.97	437.68
398.16	423.64
398.35	468.11
398.55	383.85
398.74	433.00
398.93	454.06
399.12	395.55
399.32	393.21
399.51	435.34
399.70	444.70
399.90	528.96
400.09	435.34
400.28	447.04
400.47	416.62
400.67	421.30
400.86	334.70
401.05	374.49
401.24	435.34
401.44	447.04
401.63	390.87
401.82	442.36
402.01	386.19
402.21	379.17
402.40	376.83
402.59	423.64
402.78	428.32
402.97	433.00
403.17	440.02
403.36	365.12
403.55	362.78
403.74	372.15
403.93	440.02
404.13	428.32
404.32	388.53
404.51	423.64
404.70	440.02
404.89	451.72
405.09	433.00
405.28	362.78
405.47	386.19
405.66	428.32
405.85	475.13
406.05	407.25
406.24	477.47
406.43	386.19
406.62	390.87
406.81	493.85
407.00	444.70
407.20	493.85
407.39	458.74
407.58	416.62
407.77	442.36
407.96	472.79
408.15	472.79
408.34	472.79
408.54	376.83
408.73	395.55
408.92	442.36
409.11	423.64
409.30	315.97
409.49	440.02
409.68	360.44
409.87	355.76
410.07	383.85
410.26	416.62
410.45	428.32
410.64	365.12
410.83	423.64
411.02	390.87
411.21	393.21
411.40	400.23
411.59	374.49
411.78	407.25
411.98	458.74
412.17	411.93
412.36	386.19
412.55	397.89
412.74	428.32
412.93	437.68
413.12	414.27
413.31	416.62
413.50	411.93
413.69	402.57
413.88	334.70
414.07	397.89
414.26	348.74
414.45	435.34
414.64	362.78
414.83	411.93
415.02	423.64
415.22	430.66
415.41	447.04
415.60	430.66
415.79	468.11
415.98	409.59
416.17	458.74
416.36	353.42
416.55	451.72
416.74	465.77
416.93	470.45
417.12	311.29
417.31	430.66
417.50	365.12
417.69	418.96
417.88	379.17
418.07	390.87
418.26	440.02
418.45	409.59
418.64	444.70
418.83	414.27
419.02	423.64
419.21	407.25
419.39	383.85
419.58	393.21
419.77	472.79
419.96	362.78
420.15	468.11
420.34	430.66
420.53	433.00
420.72	425.98
420.91	421.30
421.10	369.80
421.29	353.42
421.48	407.25
421.67	442.36
421.86	496.19
422.05	409.59
422.24	421.30
422.43	411.93
422.61	397.89
422.80	362.78
422.99	409.59
423.18	374.49
423.37	367.46
423.56	414.27
423.75	386.19
423.94	299.59
424.13	451.72
424.32	339.38
424.50	388.53
424.69	425.98
424.88	440.02
425.07	411.93
425.26	365.12
425.45	365.12
425.64	369.80
425.83	472.79
426.01	430.66
426.20	433.00
426.39	437.68
426.58	472.79
426.77	400.23
426.96	411.93
427.15	388.53
427.33	390.87
427.52	386.19
427.71	402.57
427.90	393.21
428.09	325.33
428.28	369.80
428.46	360.44
428.65	402.57
428.84	418.96
429.03	435.34
429.22	416.62
429.40	395.55
429.59	433.00
429.78	433.00
429.97	374.49
430.16	456.40
430.34	440.02
430.53	393.21
430.72	437.68
430.91	414.27
431.10	397.89
431.28	367.46
431.47	425.98
431.66	435.34
431.85	463.43
432.03	416.62
432.22	503.22
432.41	397.89
432.60	435.34
432.79	482.15
432.97	362.78
433.16	339.38
433.35	351.08
433.54	386.19
433.72	337.04
433.91	458.74
434.10	351.08
434.28	440.02
434.47	369.80
434.66	369.80
434.85	404.91
435.03	444.70
435.22	505.56
435.41	440.02
435.59	376.83
435.78	402.57
435.97	367.46
436.16	407.25
436.34	407.25
436.53	374.49
436.72	444.70
436.90	493.85
437.09	397.89
437.28	409.59
437.46	397.89
437.65	468.11
437.84	414.27
438.02	404.91
438.21	451.72
438.40	381.51
438.58	358.10
438.77	425.98
438.96	477.47
439.14	421.30
439.33	484.49
439.52	341.72
439.70	358.10
439.89	433.00
440.08	421.30
440.26	440.02
440.45	372.15
440.63	442.36
440.82	404.91
441.01	454.06
441.19	360.44
441.38	409.59
441.57	421.30
441.75	512.58
441.94	416.62
442.12	418.96
442.31	339.38
442.50	423.64
442.68	454.06
442.87	390.87
443.05	395.55
443.24	407.25
443.43	440.02
443.61	470.45
443.80	416.62
443.98	348.74
444.17	411.93
444.35	454.06
444.54	369.80
444.73	388.53
444.91	433.00
445.10	360.44
445.28	428.32
445.47	451.72
445.65	409.59
445.84	379.17
446.02	416.62
446.21	411.93
446.39	435.34
446.58	475.13
446.77	409.59
446.95	411.93
447.14	351.08
447.32	386.19
447.51	397.89
447.69	400.23
447.88	400.23
448.06	388.53
448.25	414.27
448.43	365.12
448.62	423.64
448.80	390.87
448.99	430.66
449.17	430.66
449.36	449.38
449.54	414.27
449.73	362.78
449.91	362.78
450.10	351.08
450.28	477.47
450.46	461.09
450.65	461.09
450.83	468.11
451.02	416.62
451.20	421.30
451.39	465.77
451.57	425.98
451.76	372.15
451.94	365.12
452.13	407.25
452.31	442.36
452.49	451.72
452.68	407.25
452.86	334.70
453.05	447.04
453.23	393.21
453.42	418.96
453.60	437.68
453.78	440.02
453.97	360.44
454.15	395.55
454.34	465.77
454.52	393.21
454.70	454.06
454.89	437.68
455.07	372.15
455.26	437.68
455.44	407.25
455.62	461.09
455.81	393.21
455.99	435.34
456.17	435.34
456.36	404.91
456.54	390.87
456.73	418.96
456.91	425.98
457.09	454.06
457.28	379.17
457.46	379.17
457.64	355.76
457.83	447.04
458.01	461.09
458.19	418.96
458.38	411.93
458.56	404.91
458.74	451.72
458.93	463.43
459.11	376.83
459.29	428.32
459.48	430.66
459.66	458.74
459.84	477.47
460.03	465.77
460.21	341.72
460.39	461.09
460.57	418.96
460.76	430.66
460.94	292.57
461.12	444.70
461.31	423.64
461.49	440.02
461.67	383.85
461.85	404.91
462.04	418.96
462.22	709.18
462.40	442.36
462.59	500.87
462.77	388.53
462.95	451.72
463.13	418.96
463.32	540.66
463.50	365.12
463.68	447.04
463.86	409.59
464.05	470.45
464.23	425.98
464.41	299.59
464.59	402.57
464.78	374.49
464.96	411.93
465.14	423.64
465.32	423.64
465.50	440.02
465.69	414.27
465.87	404.91
466.05	409.59
466.23	351.08
466.41	411.93
466.60	386.19
466.78	414.27
466.96	414.27
467.14	358.10
467.32	337.04
467.51	367.46
467.69	404.91
467.87	437.68
468.05	423.64
468.23	447.04
468.41	456.40
468.60	369.80
468.78	416.62
468.96	404.91
469.14	369.80
469.32	411.93
469.50	381.51
469.69	393.21
469.87	430.66
470.05	411.93
470.23	390.87
470.41	421.30
470.59	395.55
470.77	447.04
470.95	372.15
471.14	444.70
471.32	428.32
471.50	458.74
471.68	451.72
471.86	409.59
472.04	402.57
472.22	360.44
472.40	337.04
472.58	402.57
472.77	381.51
472.95	393.21
473.13	458.74
473.31	440.02
473.49	362.78
473.67	365.12
473.85	437.68
474.03	484.49
474.21	351.08
474.39	475.13
474.57	449.38
474.75	353.42
474.93	337.04
475.12	442.36
475.30	461.09
475.48	425.98
475.66	440.02
475.84	451.72
476.02	463.43
476.20	491.51
476.38	411.93
476.56	440.02
476.74	440.02
476.92	500.87
477.10	418.96
477.28	451.72
477.46	416.62
477.64	423.64
477.82	400.23
478.00	360.44
478.18	400.23
478.36	379.17
478.54	444.70
478.72	442.36
478.90	437.68
479.08	381.51
479.26	444.70
479.44	330.02
479.62	400.23
479.80	395.55
479.98	430.66
480.16	425.98
480.34	440.02
480.52	358.10
480.70	484.49
480.88	400.23
481.06	409.59
481.24	388.53
481.41	447.04
481.59	390.87
481.77	360.44
481.95	365.12
482.13	484.49
482.31	358.10
482.49	388.53
482.67	379.17
482.85	451.72
483.03	416.62
483.21	376.83
483.39	411.93
483.57	428.32
483.74	447.04
483.92	416.62
484.10	379.17
484.28	397.89
484.46	482.15
484.64	409.59
484.82	409.59
485.00	407.25
485.18	353.42
485.35	482.15
485.53	351.08
485.71	411.93
485.89	397.89
486.07	407.25
486.25	458.74
486.43	442.36
486.61	407.25
486.78	411.93
486.96	383.85
487.14	341.72
487.32	430.66
487.50	458.74
487.68	437.68
487.85	397.89
488.03	414.27
488.21	454.06
488.39	468.11
488.57	428.32
488.75	351.08
488.92	521.94
489.10	428.32
489.28	454.06
489.46	458.74
489.64	416.62
489.81	418.96
489.99	430.66
490.17	416.62
490.35	449.38
490.53	367.46
490.70	374.49
490.88	421.30
491.06	411.93
491.24	491.51
491.41	437.68
491.59	425.98
491.77	505.56
491.95	409.59
492.13	367.46
492.30	393.21
492.48	423.64
492.66	418.96
492.84	330.02
493.01	388.53
493.19	440.02
493.37	479.81
493.54	442.36
493.72	458.74
493.90	388.53
494.08	379.17
494.25	400.23
494.43	440.02
494.61	423.64
494.79	407.25
494.96	456.40
495.14	411.93
495.32	479.81
495.49	414.27
495.67	409.59
495.85	402.57
496.02	297.25
496.20	379.17
496.38	374.49
496.55	379.17
496.73	376.83
496.91	444.70
497.09	482.15
497.26	456.40
497.44	390.87
497.62	404.91
497.79	444.70
497.97	407.25
498.14	430.66
498.32	416.62
498.50	486.83
498.67	414.27
498.85	397.89
499.03	449.38
499.20	468.11
499.38	433.00
499.56	365.12
499.73	475.13
499.91	404.91
500.08	423.64
500.26	402.57
500.44	430.66
500.61	414.27
500.79	397.89
500.97	407.25
501.14	503.22
501.32	433.00
501.49	491.51
501.67	437.68
501.84	465.77
502.02	381.51
502.20	521.94
502.37	386.19
502.55	404.91
502.72	404.91
502.90	477.47
503.07	447.04
503.25	430.66
503.43	447.04
503.60	341.72
503.78	379.17
503.95	409.59
504.13	428.32
504.30	423.64
504.48	435.34
504.65	489.17
504.83	397.89
505.01	409.59
505.18	458.74
505.36	496.19
505.53	421.30
505.71	400.23
505.88	381.51
506.06	379.17
506.23	402.57
506.41	362.78
506.58	397.89
506.76	421.30
506.93	362.78
507.11	458.74
507.28	423.64
507.46	411.93
507.63	416.62
507.81	374.49
507.98	362.78
508.16	454.06
508.33	458.74
508.50	407.25
508.68	444.70
508.85	440.02
509.03	390.87
509.20	430.66
509.38	442.36
509.55	423.64
509.73	505.56
509.90	374.49
510.08	390.87
510.25	386.19
510.42	430.66
510.60	409.59
510.77	451.72
510.95	402.57
511.12	362.78
511.30	397.89
511.47	463.43
511.64	428.32
511.82	379.17
511.99	418.96
512.17	395.55
512.34	383.85
512.51	409.59
512.69	390.87
512.86	475.13
513.04	472.79
513.21	383.85
513.38	416.62
513.56	395.55
513.73	402.57
513.90	376.83
514.08	425.98
514.25	344.06
514.43	456.40
514.60	400.23
514.77	381.51
514.95	400.23
515.12	355.76
515.29	411.93
515.47	411.93
515.64	456.40
515.81	393.21
515.99	484.49
516.16	433.00
516.33	416.62
516.51	402.57
516.68	430.66
516.85	425.98
517.03	479.81
517.20	409.59
517.37	425.98
517.54	348.74
517.72	381.51
517.89	409.59
518.06	320.65
518.24	365.12
518.41	407.25
518.58	393.21
518.75	442.36
518.93	444.70
519.10	409.59
519.27	397.89
519.45	411.93
519.62	360.44
519.79	454.06
519.96	423.64
520.14	376.83
520.31	533.64
520.48	365.12
520.65	425.98
520.83	400.23
521.00	430.66
521.17	407.25
521.34	346.40
521.52	358.10
521.69	372.15
521.86	374.49
522.03	437.68
522.20	447.04
522.38	383.85
522.55	425.98
522.72	397.89
522.89	397.89
523.07	433.00
523.24	451.72
523.41	437.68
523.58	414.27
523.75	428.32
523.92	390.87
524.10	470.45
524.27	418.96
524.44	425.98
524.61	425.98
524.78	428.32
524.96	484.49
525.13	393.21
525.30	447.04
525.47	430.66
525.64	447.04
525.81	463.43
525.98	409.59
526.16	456.40
526.33	407.25
526.50	348.74
526.67	383.85
526.84	351.08
527.01	334.70
527.18	404.91
527.36	423.64
527.53	395.55
527.70	388.53
527.87	404.91
528.04	383.85
528.21	313.63
528.38	381.51
528.55	379.17
528.72	468.11
528.89	512.58
529.07	393.21
529.24	360.44
529.41	482.15
529.58	447.04
529.75	400.23
529.92	472.79
530.09	423.64
530.26	433.00
530.43	423.64
530.60	428.32
530.77	444.70
530.94	458.74
531.11	400.23
531.28	433.00
531.46	395.55
531.63	400.23
531.80	393.21
531.97	418.96
532.14	397.89
532.31	430.66
532.48	458.74
532.65	425.98
532.82	407.25
532.99	465.77
533.16	360.44
533.33	393.21
533.50	414.27
533.67	479.81
533.84	519.60
534.01	425.98
534.18	393.21
534.35	379.17
534.52	451.72
534.69	454.06
534.86	381.51
535.03	360.44
535.20	425.98
535.37	433.00
535.54	461.09
535.71	367.46
535.88	313.63
536.05	344.06
536.22	444.70
536.38	395.55
536.55	472.79
536.72	418.96
536.89	435.34
537.06	428.32
537.23	397.89
537.40	376.83
537.57	421.30
537.74	482.15
537.91	437.68
538.08	442.36
538.25	390.87
538.42	358.10
538.59	379.17
538.75	444.70
538.92	353.42
539.09	456.40
539.26	440.02
539.43	416.62
539.60	411.93
539.77	435.34
539.94	388.53
540.11	397.89
540.28	397.89
540.44	416.62
540.61	404.91
540.78	365.12
540.95	339.38
541.12	472.79
541.29	353.42
541.46	428.32
541.62	407.25
541.79	407.25
541.96	425.98
542.13	449.38
542.30	393.21
542.47	477.47
542.63	259.80
542.80	365.12
542.97	418.96
543.14	423.64
543.31	416.62
543.48	407.25
543.64	547.69
543.81	440.02
543.98	381.51
544.15	397.89
544.32	440.02
544.48	358.10
544.65	437.68
544.82	327.68
544.99	344.06
545.16	409.59
545.32	449.38
545.49	395.55
545.66	383.85
545.83	411.93
546.00	407.25
546.16	390.87
546.33	444.70
546.50	425.98
546.67	479.81
546.83	299.59
547.00	386.19
547.17	454.06
547.34	386.19
547.50	360.44
547.67	334.70
547.84	447.04
548.00	510.24
548.17	390.87
548.34	397.89
548.51	461.09
548.67	404.91
548.84	358.10
549.01	404.91
549.18	355.76
549.34	477.47
549.51	414.27
549.68	379.17
549.84	369.80
550.01	367.46
550.18	421.30
550.34	440.02
550.51	411.93
550.68	451.72
550.84	423.64
551.01	454.06
551.18	430.66
551.34	404.91
551.51	416.62
551.68	416.62
551.84	402.57
552.01	334.70
552.18	435.34
552.34	400.23
552.51	393.21
552.68	381.51
552.84	376.83
553.01	344.06
553.18	376.83
553.34	414.27
553.51	423.64
553.67	423.64
553.84	472.79
554.01	496.19
554.17	397.89
554.34	418.96
554.51	407.25
554.67	468.11
554.84	418.96
555.00	383.85
555.17	376.83
555.33	421.30
555.50	337.04
555.67	425.98
555.83	374.49
556.00	447.04
556.16	538.32
556.33	479.81
556.50	402.57
556.66	383.85
556.83	311.29
556.99	463.43
557.16	470.45
557.32	442.36
557.49	353.42
557.65	430.66
557.82	435.34
557.98	365.12
558.15	449.38
558.32	428.32
558.48	390.87
558.65	318.31
558.81	423.64
558.98	402.57
559.14	454.06
559.31	440.02
559.47	451.72
559.64	437.68
559.80	397.89
559.97	418.96
560.13	411.93
560.30	461.09
560.46	503.22
560.63	425.98
560.79	362.78
560.96	454.06
561.12	477.47
561.29	379.17
561.45	458.74
561.61	386.19
561.78	489.17
561.94	435.34
562.11	416.62
562.27	454.06
562.44	447.04
562.60	435.34
562.77	435.34
562.93	428.32
563.10	388.53
563.26	425.98
563.42	458.74
563.59	425.98
563.75	437.68
563.92	372.15
564.08	425.98
564.24	444.70
564.41	428.32
564.57	409.59
564.74	381.51
564.90	435.34
565.07	447.04
565.23	461.09
565.39	451.72
565.56	433.00
565.72	402.57
565.88	449.38
566.05	411.93
566.21	456.40
566.38	430.66
566.54	416.62
566.70	407.25
566.87	447.04
567.03	416.62
567.19	390.87
567.36	402.57
567.52	411.93
567.68	538.32
567.85	425.98
568.01	400.23
568.17	304.27
568.34	433.00
568.50	461.09
568.66	430.66
568.83	428.32
568.99	402.57
569.15	444.70
569.32	428.32
569.48	400.23
569.64	404.91
569.81	383.85
569.97	386.19
570.13	440.02
570.30	430.66
570.46	479.81
570.62	428.32
570.78	411.93
570.95	414.27
571.11	440.02
571.27	475.13
571.43	440.02
571.60	383.85
571.76	451.72
571.92	381.51
572.09	477.47
572.25	496.19
572.41	386.19
572.57	409.59
572.74	414.27
572.90	498.53
573.06	421.30
573.22	451.72
573.38	454.06
573.55	414.27
573.71	479.81
573.87	454.06
574.03	421.30
574.20	442.36
574.36	454.06
574.52	365.12
574.68	418.96
574.84	526.62
575.01	418.96
575.17	407.25
575.33	397.89
575.49	456.40
575.65	454.06
575.82	414.27
575.98	482.15
576.14	400.23
576.30	442.36
576.46	447.04
576.62	407.25
576.79	381.51
576.95	451.72
577.11	376.83
577.27	374.49
577.43	423.64
577.59	402.57
577.75	468.11
577.92	409.59
578.08	393.21
578.24	360.44
578.40	425.98
578.56	435.34
578.72	444.70
578.88	428.32
579.04	400.23
579.21	390.87
579.37	400.23
579.53	425.98
579.69	390.87
579.85	358.10
580.01	444.70
580.17	379.17
580.33	418.96
580.49	428.32
580.65	393.21
580.82	386.19
580.98	362.78
581.14	400.23
581.30	397.89
581.46	423.64
581.62	470.45
581.78	442.36
581.94	418.96
582.10	360.44
582.26	397.89
582.42	479.81
582.58	461.09
582.74	437.68
582.90	472.79
583.06	458.74
583.22	404.91
583.38	421.30
583.54	414.27
583.70	414.27
583.86	383.85
584.02	423.64
584.18	482.15
584.34	379.17
584.50	395.55
584.66	393.21
584.82	372.15
584.98	395.55
585.14	435.34
585.30	507.90
585.46	411.93
585.62	425.98
585.78	447.04
585.94	472.79
586.10	374.49
586.26	381.51
586.42	463.43
586.58	435.34
586.74	358.10
586.90	379.17
587.06	367.46
587.22	341.72
587.38	362.78
587.54	388.53
587.70	451.72
587.86	444.70
588.02	442.36
588.18	468.11
588.34	430.66
588.49	386.19
588.65	437.68
588.81	430.66
588.97	379.17
589.13	465.77
589.29	425.98
589.45	440.02
589.61	395.55
589.77	433.00
589.93	404.91
590.08	411.93
590.24	376.83
590.40	386.19
590.56	465.77
590.72	393.21
590.88	369.80
591.04	362.78
591.20	461.09
591.35	458.74
591.51	442.36
591.67	381.51
591.83	411.93
591.99	404.91
592.15	388.53
592.31	458.74
592.46	402.57
592.62	430.66
592.78	425.98
592.94	461.09
593.10	437.68
593.26	418.96
593.41	421.30
593.57	447.04
593.73	395.55
593.89	433.00
594.05	383.85
594.20	477.47
594.36	444.70
594.52	479.81
594.68	449.38
594.84	381.51
594.99	444.70
595.15	404.91
595.31	404.91
595.47	423.64
595.62	456.40
595.78	437.68
595.94	447.04
596.10	451.72
596.25	440.02
596.41	475.13
596.57	416.62
596.73	421.30
596.88	374.49
597.04	409.59
597.20	355.76
597.36	463.43
597.51	346.40
597.67	383.85
597.83	407.25
597.99	470.45
598.14	435.34
598.30	444.70
598.46	346.40
598.61	425.98
598.77	395.55
598.93	416.62
599.09	456.40
599.24	421.30
599.40	440.02
599.56	376.83
599.71	374.49
599.87	411.93
600.03	369.80
600.18	463.43
600.34	404.91
600.50	454.06
600.65	456.40
600.81	423.64
600.97	409.59
601.12	416.62
601.28	400.23
601.44	503.22
601.59	365.12
601.75	407.25
601.91	402.57
602.06	461.09
602.22	521.94
602.37	407.25
602.53	430.66
602.69	365.12
602.84	400.23
603.00	395.55
603.16	444.70
603.31	444.70
603.47	397.89
603.62	369.80
603.78	447.04
603.94	362.78
604.09	409.59
604.25	479.81
604.40	449.38
604.56	397.89
604.71	409.59
604.87	395.55
605.03	428.32
605.18	435.34
605.34	416.62
605.49	435.34
605.65	402.57
605.80	386.19
605.96	428.32
606.12	358.10
606.27	421.30
606.43	374.49
606.58	411.93
606.74	346.40
606.89	395.55
607.05	393.21
607.20	489.17
607.36	379.17
607.51	416.62
607.67	468.11
607.82	463.43
607.98	414.27
608.13	425.98
608.29	444.70
608.44	411.93
608.60	386.19
608.75	458.74
608.91	421.30
609.06	433.00
609.22	362.78
609.37	372.15
609.53	421.30
609.68	451.72
609.84	334.70
609.99	472.79
610.15	433.00
