SpectraSuite Data File
++++++++++++++++++++++++++++++++++++
Date: Fri Oct 25 12:11:10 EDT 2013
User: price-jones
Dark Spectrum Present: No
Reference Spectrum Present: No
Number of Sampled Component Spectra: 1
Spectrometers: USB2+H05261
Integration Time (usec): 100000 (USB2+H05261)
Spectra Averaged: 1 (USB2+H05261)
Boxcar Smoothing: 0 (USB2+H05261)
Correct for Electrical Dark: No (USB2+H05261)
Strobe/Lamp Enabled: No (USB2+H05261)
Correct for Detector Non-linearity: No (USB2+H05261)
Correct for Stray Light: No (USB2+H05261)
Number of Pixels in Processed Spectrum: 2048
>>>>>Begin Processed Spectral Data<<<<<
365.73	341.72
365.92	341.72
366.12	341.72
366.32	301.93
366.52	266.82
366.72	224.69
366.91	203.63
367.11	257.46
367.31	273.84
367.51	250.44
367.70	229.37
367.90	271.50
368.10	266.82
368.30	241.08
368.49	269.16
368.69	203.63
368.89	224.69
369.09	220.01
369.28	322.99
369.48	224.69
369.68	308.95
369.87	262.14
370.07	299.59
370.27	388.53
370.47	318.31
370.66	353.42
370.86	311.29
371.06	294.91
371.25	379.17
371.45	337.04
371.65	306.61
371.84	374.49
372.04	339.38
372.24	341.72
372.44	379.17
372.63	348.74
372.83	409.59
373.03	418.96
373.22	482.15
373.42	351.08
373.62	418.96
373.81	388.53
374.01	411.93
374.21	393.21
374.40	472.79
374.60	477.47
374.79	423.64
374.99	376.83
375.19	372.15
375.38	379.17
375.58	454.06
375.78	472.79
375.97	433.00
376.17	397.89
376.37	440.02
376.56	416.62
376.76	362.78
376.95	430.66
377.15	379.17
377.35	362.78
377.54	430.66
377.74	449.38
377.93	367.46
378.13	393.21
378.33	418.96
378.52	437.68
378.72	393.21
378.91	418.96
379.11	353.42
379.31	348.74
379.50	360.44
379.70	407.25
379.89	344.06
380.09	440.02
380.28	374.49
380.48	358.10
380.68	353.42
380.87	402.57
381.07	433.00
381.26	400.23
381.46	428.32
381.65	442.36
381.85	433.00
382.04	418.96
382.24	383.85
382.43	395.55
382.63	421.30
382.83	411.93
383.02	402.57
383.22	442.36
383.41	358.10
383.61	374.49
383.80	428.32
384.00	409.59
384.19	416.62
384.39	404.91
384.58	381.51
384.78	477.47
384.97	397.89
385.17	353.42
385.36	440.02
385.56	451.72
385.75	409.59
385.95	414.27
386.14	397.89
386.34	367.46
386.53	465.77
386.72	444.70
386.92	376.83
387.11	411.93
387.31	390.87
387.50	341.72
387.70	306.61
387.89	414.27
388.09	360.44
388.28	339.38
388.48	400.23
388.67	383.85
388.86	468.11
389.06	407.25
389.25	395.55
389.45	407.25
389.64	393.21
389.84	435.34
390.03	451.72
390.22	421.30
390.42	447.04
390.61	306.61
390.81	339.38
391.00	358.10
391.19	386.19
391.39	430.66
391.58	397.89
391.78	437.68
391.97	372.15
392.16	430.66
392.36	454.06
392.55	477.47
392.75	435.34
392.94	421.30
393.13	433.00
393.33	397.89
393.52	482.15
393.71	435.34
393.91	374.49
394.10	510.24
394.29	372.15
394.49	372.15
394.68	444.70
394.88	411.93
395.07	423.64
395.26	442.36
395.46	376.83
395.65	442.36
395.84	383.85
396.04	404.91
396.23	397.89
396.42	360.44
396.62	418.96
396.81	376.83
397.00	397.89
397.19	400.23
397.39	381.51
397.58	437.68
397.77	407.25
397.97	390.87
398.16	402.57
398.35	369.80
398.55	330.02
398.74	379.17
398.93	442.36
399.12	428.32
399.32	433.00
399.51	425.98
399.70	374.49
399.90	397.89
400.09	393.21
400.28	411.93
400.47	379.17
400.67	423.64
400.86	388.53
401.05	416.62
401.24	423.64
401.44	444.70
401.63	393.21
401.82	414.27
402.01	414.27
402.21	423.64
402.40	294.91
402.59	505.56
402.78	465.77
402.97	365.12
403.17	435.34
403.36	411.93
403.55	393.21
403.74	393.21
403.93	411.93
404.13	388.53
404.32	423.64
404.51	475.13
404.70	372.15
404.89	339.38
405.09	491.51
405.28	407.25
405.47	411.93
405.66	425.98
405.85	454.06
406.05	465.77
406.24	397.89
406.43	367.46
406.62	407.25
406.81	435.34
407.00	428.32
407.20	425.98
407.39	444.70
407.58	365.12
407.77	463.43
407.96	430.66
408.15	428.32
408.34	444.70
408.54	447.04
408.73	386.19
408.92	433.00
409.11	369.80
409.30	454.06
409.49	423.64
409.68	449.38
409.87	411.93
410.07	418.96
410.26	367.46
410.45	379.17
410.64	365.12
410.83	425.98
411.02	486.83
411.21	444.70
411.40	463.43
411.59	383.85
411.78	433.00
411.98	365.12
412.17	430.66
412.36	409.59
412.55	463.43
412.74	351.08
412.93	447.04
413.12	393.21
413.31	369.80
413.50	428.32
413.69	355.76
413.88	440.02
414.07	383.85
414.26	386.19
414.45	444.70
414.64	379.17
414.83	393.21
415.02	486.83
415.22	447.04
415.41	430.66
415.60	423.64
415.79	456.40
415.98	444.70
416.17	444.70
416.36	411.93
416.55	372.15
416.74	468.11
416.93	430.66
417.12	482.15
417.31	435.34
417.50	444.70
417.69	442.36
417.88	472.79
418.07	402.57
418.26	386.19
418.45	348.74
418.64	444.70
418.83	376.83
419.02	414.27
419.21	318.31
419.39	444.70
419.58	383.85
419.77	362.78
419.96	407.25
420.15	437.68
420.34	421.30
420.53	332.36
420.72	407.25
420.91	390.87
421.10	351.08
421.29	423.64
421.48	407.25
421.67	400.23
421.86	369.80
422.05	421.30
422.24	404.91
422.43	456.40
422.61	369.80
422.80	418.96
422.99	344.06
423.18	409.59
423.37	454.06
423.56	433.00
423.75	374.49
423.94	407.25
424.13	472.79
424.32	348.74
424.50	400.23
424.69	376.83
424.88	423.64
425.07	461.09
425.26	442.36
425.45	393.21
425.64	428.32
425.83	404.91
426.01	435.34
426.20	409.59
426.39	397.89
426.58	444.70
426.77	372.15
426.96	407.25
427.15	433.00
427.33	430.66
427.52	414.27
427.71	379.17
427.90	365.12
428.09	416.62
428.28	360.44
428.46	514.92
428.65	365.12
428.84	404.91
429.03	428.32
429.22	402.57
429.40	430.66
429.59	430.66
429.78	425.98
429.97	416.62
430.16	425.98
430.34	435.34
430.53	376.83
430.72	407.25
430.91	416.62
431.10	428.32
431.28	367.46
431.47	386.19
431.66	409.59
431.85	444.70
432.03	423.64
432.22	493.85
432.41	416.62
432.60	428.32
432.79	475.13
432.97	461.09
433.16	367.46
433.35	386.19
433.54	341.72
433.72	468.11
433.91	383.85
434.10	411.93
434.28	475.13
434.47	402.57
434.66	465.77
434.85	365.12
435.03	376.83
435.22	465.77
435.41	468.11
435.59	409.59
435.78	404.91
435.97	383.85
436.16	428.32
436.34	397.89
436.53	393.21
436.72	437.68
436.90	402.57
437.09	463.43
437.28	400.23
437.46	428.32
437.65	407.25
437.84	404.91
438.02	454.06
438.21	503.22
438.40	411.93
438.58	318.31
438.77	360.44
438.96	395.55
439.14	404.91
439.33	433.00
439.52	358.10
439.70	454.06
439.89	456.40
440.08	407.25
440.26	367.46
440.45	407.25
440.63	479.81
440.82	418.96
441.01	341.72
441.19	360.44
441.38	393.21
441.57	437.68
441.75	465.77
441.94	430.66
442.12	376.83
442.31	362.78
442.50	388.53
442.68	449.38
442.87	409.59
443.05	362.78
443.24	404.91
443.43	407.25
443.61	451.72
443.80	430.66
443.98	407.25
444.17	390.87
444.35	503.22
444.54	393.21
444.73	381.51
444.91	435.34
445.10	344.06
445.28	362.78
445.47	437.68
445.65	421.30
445.84	362.78
446.02	374.49
446.21	393.21
446.39	461.09
446.58	411.93
446.77	393.21
446.95	430.66
447.14	365.12
447.32	451.72
447.51	386.19
447.69	393.21
447.88	421.30
448.06	456.40
448.25	437.68
448.43	381.51
448.62	423.64
448.80	449.38
448.99	461.09
449.17	374.49
449.36	409.59
449.54	433.00
449.73	374.49
449.91	456.40
450.10	390.87
450.28	416.62
450.46	416.62
450.65	418.96
450.83	463.43
451.02	395.55
451.20	395.55
451.39	372.15
451.57	428.32
451.76	411.93
451.94	411.93
452.13	435.34
452.31	433.00
452.49	414.27
452.68	390.87
452.86	395.55
453.05	456.40
453.23	414.27
453.42	341.72
453.60	379.17
453.78	423.64
453.97	397.89
454.15	416.62
454.34	414.27
454.52	383.85
454.70	472.79
454.89	456.40
455.07	383.85
455.26	407.25
455.44	381.51
455.62	454.06
455.81	402.57
455.99	411.93
456.17	381.51
456.36	416.62
456.54	416.62
456.73	414.27
456.91	372.15
457.09	428.32
457.28	472.79
457.46	383.85
457.64	454.06
457.83	383.85
458.01	390.87
458.19	372.15
458.38	346.40
458.56	407.25
458.74	395.55
458.93	458.74
459.11	393.21
459.29	325.33
459.48	409.59
459.66	411.93
459.84	400.23
460.03	503.22
460.21	484.49
460.39	395.55
460.57	376.83
460.76	423.64
460.94	433.00
461.12	475.13
461.31	416.62
461.49	397.89
461.67	458.74
461.85	428.32
462.04	411.93
462.22	765.36
462.40	428.32
462.59	372.15
462.77	404.91
462.95	444.70
463.13	433.00
463.32	435.34
463.50	379.17
463.68	468.11
463.86	360.44
464.05	449.38
464.23	503.22
464.41	440.02
464.59	433.00
464.78	416.62
464.96	433.00
465.14	430.66
465.32	416.62
465.50	430.66
465.69	395.55
465.87	400.23
466.05	465.77
466.23	409.59
466.41	409.59
466.60	322.99
466.78	465.77
466.96	388.53
467.14	423.64
467.32	470.45
467.51	477.47
467.69	388.53
467.87	418.96
468.05	390.87
468.23	519.60
468.41	416.62
468.60	404.91
468.78	482.15
468.96	430.66
469.14	393.21
469.32	444.70
469.50	367.46
469.69	381.51
469.87	423.64
470.05	414.27
470.23	404.91
470.41	416.62
470.59	425.98
470.77	407.25
470.95	454.06
471.14	423.64
471.32	367.46
471.50	430.66
471.68	451.72
471.86	381.51
472.04	407.25
472.22	306.61
472.40	407.25
472.58	334.70
472.77	390.87
472.95	407.25
473.13	400.23
473.31	341.72
473.49	484.49
473.67	430.66
473.85	423.64
474.03	397.89
474.21	456.40
474.39	444.70
474.57	545.34
474.75	418.96
474.93	395.55
475.12	379.17
475.30	360.44
475.48	433.00
475.66	397.89
475.84	318.31
476.02	388.53
476.20	444.70
476.38	411.93
476.56	468.11
476.74	416.62
476.92	358.10
477.10	416.62
477.28	477.47
477.46	381.51
477.64	435.34
477.82	414.27
478.00	505.56
478.18	461.09
478.36	416.62
478.54	362.78
478.72	418.96
478.90	418.96
479.08	433.00
479.26	351.08
479.44	447.04
479.62	390.87
479.80	437.68
479.98	355.76
480.16	397.89
480.34	425.98
480.52	404.91
480.70	383.85
480.88	367.46
481.06	454.06
481.24	386.19
481.41	421.30
481.59	479.81
481.77	411.93
481.95	428.32
482.13	479.81
482.31	489.17
482.49	465.77
482.67	533.64
482.85	458.74
483.03	409.59
483.21	390.87
483.39	418.96
483.57	442.36
483.74	421.30
483.92	383.85
484.10	414.27
484.28	425.98
484.46	376.83
484.64	463.43
484.82	454.06
485.00	484.49
485.18	514.92
485.35	514.92
485.53	390.87
485.71	451.72
485.89	341.72
486.07	468.11
486.25	451.72
486.43	367.46
486.61	397.89
486.78	358.10
486.96	348.74
487.14	411.93
487.32	369.80
487.50	376.83
487.68	482.15
487.85	409.59
488.03	409.59
488.21	430.66
488.39	407.25
488.57	484.49
488.75	425.98
488.92	519.60
489.10	407.25
489.28	423.64
489.46	360.44
489.64	421.30
489.81	414.27
489.99	444.70
490.17	341.72
490.35	561.73
490.53	404.91
490.70	383.85
490.88	416.62
491.06	402.57
491.24	421.30
491.41	442.36
491.59	444.70
491.77	397.89
491.95	393.21
492.13	374.49
492.30	379.17
492.48	447.04
492.66	421.30
492.84	447.04
493.01	397.89
493.19	430.66
493.37	395.55
493.54	416.62
493.72	430.66
493.90	369.80
494.08	465.77
494.25	482.15
494.43	433.00
494.61	379.17
494.79	414.27
494.96	400.23
495.14	418.96
495.32	381.51
495.49	423.64
495.67	433.00
495.85	355.76
496.02	440.02
496.20	465.77
496.38	395.55
496.55	430.66
496.73	395.55
496.91	484.49
497.09	339.38
497.26	440.02
497.44	400.23
497.62	348.74
497.79	418.96
497.97	447.04
498.14	418.96
498.32	482.15
498.50	395.55
498.67	409.59
498.85	468.11
499.03	414.27
499.20	418.96
499.38	400.23
499.56	358.10
499.73	454.06
499.91	395.55
500.08	423.64
500.26	383.85
500.44	390.87
500.61	397.89
500.79	395.55
500.97	393.21
501.14	388.53
501.32	454.06
501.49	428.32
501.67	416.62
501.84	444.70
502.02	454.06
502.20	444.70
502.37	435.34
502.55	423.64
502.72	442.36
502.90	472.79
503.07	407.25
503.25	362.78
503.43	381.51
503.60	461.09
503.78	425.98
503.95	423.64
504.13	428.32
504.30	421.30
504.48	416.62
504.65	409.59
504.83	442.36
505.01	381.51
505.18	433.00
505.36	393.21
505.53	433.00
505.71	451.72
505.88	458.74
506.06	365.12
506.23	468.11
506.41	444.70
506.58	386.19
506.76	388.53
506.93	433.00
507.11	418.96
507.28	430.66
507.46	318.31
507.63	425.98
507.81	409.59
507.98	402.57
508.16	444.70
508.33	400.23
508.50	397.89
508.68	444.70
508.85	339.38
509.03	407.25
509.20	351.08
509.38	402.57
509.55	477.47
509.73	456.40
509.90	454.06
510.08	409.59
510.25	393.21
510.42	440.02
510.60	393.21
510.77	395.55
510.95	454.06
511.12	451.72
511.30	400.23
511.47	404.91
511.64	416.62
511.82	386.19
511.99	475.13
512.17	390.87
512.34	433.00
512.51	425.98
512.69	353.42
512.86	456.40
513.04	374.49
513.21	365.12
513.38	386.19
513.56	440.02
513.73	369.80
513.90	365.12
514.08	372.15
514.25	437.68
514.43	454.06
514.60	425.98
514.77	468.11
514.95	421.30
515.12	400.23
515.29	367.46
515.47	468.11
515.64	461.09
515.81	374.49
515.99	379.17
516.16	374.49
516.33	444.70
516.51	437.68
516.68	386.19
516.85	430.66
517.03	435.34
517.20	397.89
517.37	418.96
517.54	486.83
517.72	454.06
517.89	423.64
518.06	404.91
518.24	402.57
518.41	489.17
518.58	435.34
518.75	379.17
518.93	418.96
519.10	444.70
519.27	468.11
519.45	430.66
519.62	430.66
519.79	379.17
519.96	437.68
520.14	444.70
520.31	472.79
520.48	418.96
520.65	479.81
520.83	430.66
521.00	461.09
521.17	416.62
521.34	423.64
521.52	404.91
521.69	400.23
521.86	390.87
522.03	475.13
522.20	493.85
522.38	475.13
522.55	456.40
522.72	376.83
522.89	461.09
523.07	486.83
523.24	332.36
523.41	404.91
523.58	400.23
523.75	388.53
523.92	433.00
524.10	479.81
524.27	437.68
524.44	458.74
524.61	456.40
524.78	433.00
524.96	421.30
525.13	386.19
525.30	440.02
525.47	451.72
525.64	428.32
525.81	358.10
525.98	362.78
526.16	379.17
526.33	395.55
526.50	386.19
526.67	430.66
526.84	339.38
527.01	489.17
527.18	440.02
527.36	458.74
527.53	440.02
527.70	407.25
527.87	379.17
528.04	479.81
528.21	390.87
528.38	430.66
528.55	475.13
528.72	423.64
528.89	498.53
529.07	369.80
529.24	365.12
529.41	510.24
529.58	390.87
529.75	409.59
529.92	479.81
530.09	484.49
530.26	409.59
530.43	358.10
530.60	421.30
530.77	388.53
530.94	355.76
531.11	428.32
531.28	381.51
531.46	433.00
531.63	416.62
531.80	425.98
531.97	393.21
532.14	479.81
532.31	409.59
532.48	414.27
532.65	454.06
532.82	500.87
532.99	416.62
533.16	468.11
533.33	421.30
533.50	435.34
533.67	454.06
533.84	416.62
534.01	472.79
534.18	360.44
534.35	414.27
534.52	442.36
534.69	418.96
534.86	355.76
535.03	428.32
535.20	348.74
535.37	423.64
535.54	390.87
535.71	348.74
535.88	477.47
536.05	400.23
536.22	344.06
536.38	355.76
536.55	440.02
536.72	425.98
536.89	461.09
537.06	390.87
537.23	355.76
537.40	411.93
537.57	339.38
537.74	458.74
537.91	451.72
538.08	388.53
538.25	414.27
538.42	482.15
538.59	468.11
538.75	449.38
538.92	470.45
539.09	458.74
539.26	402.57
539.43	435.34
539.60	437.68
539.77	407.25
539.94	454.06
540.11	489.17
540.28	489.17
540.44	425.98
540.61	449.38
540.78	447.04
540.95	393.21
541.12	423.64
541.29	425.98
541.46	416.62
541.62	440.02
541.79	365.12
541.96	528.96
542.13	428.32
542.30	414.27
542.47	414.27
542.63	383.85
542.80	355.76
542.97	400.23
543.14	449.38
543.31	444.70
543.48	447.04
543.64	433.00
543.81	372.15
543.98	393.21
544.15	470.45
544.32	381.51
544.48	360.44
544.65	381.51
544.82	376.83
544.99	442.36
545.16	416.62
545.32	369.80
545.49	425.98
545.66	416.62
545.83	447.04
546.00	437.68
546.16	404.91
546.33	367.46
546.50	381.51
546.67	475.13
546.83	383.85
547.00	440.02
547.17	461.09
547.34	386.19
547.50	395.55
547.67	386.19
547.84	374.49
548.00	402.57
548.17	411.93
548.34	421.30
548.51	400.23
548.67	425.98
548.84	411.93
549.01	365.12
549.18	437.68
549.34	416.62
549.51	430.66
549.68	444.70
549.84	465.77
550.01	355.76
550.18	514.92
550.34	435.34
550.51	374.49
550.68	414.27
550.84	430.66
551.01	367.46
551.18	440.02
551.34	479.81
551.51	447.04
551.68	411.93
551.84	454.06
552.01	407.25
552.18	341.72
552.34	369.80
552.51	376.83
552.68	411.93
552.84	339.38
553.01	442.36
553.18	456.40
553.34	430.66
553.51	451.72
553.67	430.66
553.84	484.49
554.01	386.19
554.17	435.34
554.34	369.80
554.51	475.13
554.67	404.91
554.84	411.93
555.00	472.79
555.17	404.91
555.33	440.02
555.50	376.83
555.67	421.30
555.83	379.17
556.00	381.51
556.16	500.87
556.33	416.62
556.50	421.30
556.66	449.38
556.83	421.30
556.99	411.93
557.16	367.46
557.32	442.36
557.49	365.12
557.65	379.17
557.82	402.57
557.98	465.77
558.15	346.40
558.32	390.87
558.48	411.93
558.65	498.53
558.81	428.32
558.98	433.00
559.14	489.17
559.31	435.34
559.47	545.34
559.64	362.78
559.80	404.91
559.97	433.00
560.13	475.13
560.30	379.17
560.46	355.76
560.63	433.00
560.79	376.83
560.96	418.96
561.12	407.25
561.29	346.40
561.45	414.27
561.61	395.55
561.78	440.02
561.94	435.34
562.11	423.64
562.27	433.00
562.44	411.93
562.60	414.27
562.77	397.89
562.93	458.74
563.10	386.19
563.26	482.15
563.42	400.23
563.59	397.89
563.75	430.66
563.92	486.83
564.08	414.27
564.24	468.11
564.41	461.09
564.57	442.36
564.74	334.70
564.90	468.11
565.07	510.24
565.23	435.34
565.39	435.34
565.56	456.40
565.72	425.98
565.88	388.53
566.05	395.55
566.21	444.70
566.38	442.36
566.54	486.83
566.70	418.96
566.87	351.08
567.03	402.57
567.19	461.09
567.36	397.89
567.52	383.85
567.68	414.27
567.85	442.36
568.01	458.74
568.17	344.06
568.34	421.30
568.50	407.25
568.66	468.11
568.83	519.60
568.99	400.23
569.15	493.85
569.32	449.38
569.48	393.21
569.64	379.17
569.81	449.38
569.97	409.59
570.13	451.72
570.30	430.66
570.46	416.62
570.62	393.21
570.78	346.40
570.95	383.85
571.11	435.34
571.27	402.57
571.43	360.44
571.60	461.09
571.76	358.10
571.92	421.30
572.09	416.62
572.25	451.72
572.41	390.87
572.57	435.34
572.74	447.04
572.90	519.60
573.06	400.23
573.22	440.02
573.38	383.85
573.55	414.27
573.71	402.57
573.87	458.74
574.03	447.04
574.20	369.80
574.36	468.11
574.52	358.10
574.68	411.93
574.84	433.00
575.01	437.68
575.17	437.68
575.33	416.62
575.49	479.81
575.65	421.30
575.82	440.02
575.98	435.34
576.14	404.91
576.30	414.27
576.46	360.44
576.62	425.98
576.79	433.00
576.95	423.64
577.11	423.64
577.27	437.68
577.43	447.04
577.59	397.89
577.75	482.15
577.92	351.08
578.08	411.93
578.24	423.64
578.40	454.06
578.56	421.30
578.72	444.70
578.88	461.09
579.04	397.89
579.21	454.06
579.37	440.02
579.53	386.19
579.69	465.77
579.85	379.17
580.01	435.34
580.17	383.85
580.33	456.40
580.49	416.62
580.65	362.78
580.82	479.81
580.98	409.59
581.14	395.55
581.30	423.64
581.46	418.96
581.62	435.34
581.78	369.80
581.94	397.89
582.10	393.21
582.26	395.55
582.42	421.30
582.58	465.77
582.74	393.21
582.90	456.40
583.06	379.17
583.22	395.55
583.38	404.91
583.54	393.21
583.70	379.17
583.86	461.09
584.02	411.93
584.18	383.85
584.34	414.27
584.50	475.13
584.66	447.04
584.82	390.87
584.98	411.93
585.14	437.68
585.30	430.66
585.46	409.59
585.62	454.06
585.78	407.25
585.94	379.17
586.10	407.25
586.26	482.15
586.42	430.66
586.58	395.55
586.74	376.83
586.90	393.21
587.06	428.32
587.22	376.83
587.38	365.12
587.54	437.68
587.70	421.30
587.86	428.32
588.02	402.57
588.18	409.59
588.34	404.91
588.49	433.00
588.65	388.53
588.81	374.49
588.97	388.53
589.13	447.04
589.29	397.89
589.45	503.22
589.61	486.83
589.77	409.59
589.93	479.81
590.08	421.30
590.24	404.91
590.40	425.98
590.56	444.70
590.72	428.32
590.88	472.79
591.04	444.70
591.20	327.68
591.35	428.32
591.51	482.15
591.67	407.25
591.83	395.55
591.99	402.57
592.15	369.80
592.31	416.62
592.46	346.40
592.62	409.59
592.78	447.04
592.94	397.89
593.10	428.32
593.26	409.59
593.41	402.57
593.57	411.93
593.73	362.78
593.89	416.62
594.05	437.68
594.20	407.25
594.36	442.36
594.52	416.62
594.68	393.21
594.84	475.13
594.99	477.47
595.15	388.53
595.31	437.68
595.47	510.24
595.62	374.49
595.78	433.00
595.94	395.55
596.10	381.51
596.25	447.04
596.41	465.77
596.57	440.02
596.73	456.40
596.88	360.44
597.04	362.78
597.20	383.85
597.36	435.34
597.51	433.00
597.67	402.57
597.83	393.21
597.99	365.12
598.14	421.30
598.30	468.11
598.46	447.04
598.61	447.04
598.77	550.03
598.93	435.34
599.09	430.66
599.24	416.62
599.40	451.72
599.56	376.83
599.71	390.87
599.87	451.72
600.03	304.27
600.18	447.04
600.34	454.06
600.50	390.87
600.65	416.62
600.81	479.81
600.97	449.38
601.12	416.62
601.28	430.66
601.44	365.12
601.59	351.08
601.75	437.68
601.91	386.19
602.06	425.98
602.22	535.98
602.37	482.15
602.53	423.64
602.69	421.30
602.84	475.13
603.00	362.78
603.16	461.09
603.31	477.47
603.47	421.30
603.62	397.89
603.78	456.40
603.94	421.30
604.09	397.89
604.25	390.87
604.40	388.53
604.56	407.25
604.71	430.66
604.87	365.12
605.03	477.47
605.18	393.21
605.34	437.68
605.49	402.57
605.65	376.83
605.80	461.09
605.96	402.57
606.12	503.22
606.27	372.15
606.43	414.27
606.58	414.27
606.74	372.15
606.89	425.98
607.05	447.04
607.20	470.45
607.36	470.45
607.51	320.65
607.67	425.98
607.82	327.68
607.98	465.77
608.13	475.13
608.29	383.85
608.44	379.17
608.60	435.34
608.75	458.74
608.91	456.40
609.06	428.32
609.22	463.43
609.37	451.72
609.53	472.79
609.68	428.32
609.84	416.62
609.99	437.68
610.15	404.91
