SpectraSuite Data File
++++++++++++++++++++++++++++++++++++
Date: Fri Oct 25 12:10:05 EDT 2013
User: price-jones
Dark Spectrum Present: No
Reference Spectrum Present: No
Number of Sampled Component Spectra: 1
Spectrometers: USB2+H05261
Integration Time (usec): 100000 (USB2+H05261)
Spectra Averaged: 1 (USB2+H05261)
Boxcar Smoothing: 0 (USB2+H05261)
Correct for Electrical Dark: No (USB2+H05261)
Strobe/Lamp Enabled: No (USB2+H05261)
Correct for Detector Non-linearity: No (USB2+H05261)
Correct for Stray Light: No (USB2+H05261)
Number of Pixels in Processed Spectrum: 2048
>>>>>Begin Processed Spectral Data<<<<<
365.73	330.02
365.92	330.02
366.12	330.02
366.32	257.46
366.52	243.42
366.72	259.80
366.91	234.05
367.11	198.95
367.31	236.39
367.51	175.54
367.70	243.42
367.90	243.42
368.10	196.60
368.30	229.37
368.49	208.31
368.69	264.48
368.89	280.86
369.09	255.12
369.28	318.31
369.48	271.50
369.68	250.44
369.87	330.02
370.07	299.59
370.27	388.53
370.47	360.44
370.66	334.70
370.86	383.85
371.06	379.17
371.25	339.38
371.45	325.33
371.65	360.44
371.84	383.85
372.04	369.80
372.24	461.09
372.44	358.10
372.63	440.02
372.83	388.53
373.03	381.51
373.22	360.44
373.42	369.80
373.62	421.30
373.81	397.89
374.01	407.25
374.21	451.72
374.40	451.72
374.60	468.11
374.79	475.13
374.99	428.32
375.19	397.89
375.38	435.34
375.58	428.32
375.78	423.64
375.97	395.55
376.17	390.87
376.37	409.59
376.56	395.55
376.76	428.32
376.95	486.83
377.15	451.72
377.35	437.68
377.54	337.04
377.74	381.51
377.93	376.83
378.13	444.70
378.33	386.19
378.52	395.55
378.72	440.02
378.91	418.96
379.11	421.30
379.31	348.74
379.50	381.51
379.70	423.64
379.89	341.72
380.09	437.68
380.28	416.62
380.48	437.68
380.68	414.27
380.87	393.21
381.07	337.04
381.26	524.28
381.46	376.83
381.65	400.23
381.85	351.08
382.04	376.83
382.24	372.15
382.43	430.66
382.63	444.70
382.83	447.04
383.02	395.55
383.22	379.17
383.41	428.32
383.61	388.53
383.80	386.19
384.00	388.53
384.19	430.66
384.39	404.91
384.58	421.30
384.78	463.43
384.97	433.00
385.17	435.34
385.36	425.98
385.56	402.57
385.75	379.17
385.95	477.47
386.14	423.64
386.34	414.27
386.53	416.62
386.72	367.46
386.92	418.96
387.11	430.66
387.31	465.77
387.50	339.38
387.70	404.91
387.89	423.64
388.09	416.62
388.28	407.25
388.48	341.72
388.67	418.96
388.86	430.66
389.06	404.91
389.25	470.45
389.45	418.96
389.64	383.85
389.84	430.66
390.03	358.10
390.22	404.91
390.42	353.42
390.61	360.44
390.81	425.98
391.00	369.80
391.19	411.93
391.39	381.51
391.58	409.59
391.78	414.27
391.97	400.23
392.16	409.59
392.36	423.64
392.55	393.21
392.75	468.11
392.94	327.68
393.13	395.55
393.33	444.70
393.52	353.42
393.71	358.10
393.91	437.68
394.10	379.17
394.29	402.57
394.49	416.62
394.68	400.23
394.88	440.02
395.07	376.83
395.26	411.93
395.46	402.57
395.65	489.17
395.84	390.87
396.04	465.77
396.23	344.06
396.42	395.55
396.62	409.59
396.81	461.09
397.00	351.08
397.19	411.93
397.39	489.17
397.58	447.04
397.77	458.74
397.97	430.66
398.16	409.59
398.35	451.72
398.55	369.80
398.74	365.12
398.93	416.62
399.12	402.57
399.32	416.62
399.51	383.85
399.70	454.06
399.90	400.23
400.09	402.57
400.28	332.36
400.47	353.42
400.67	437.68
400.86	414.27
401.05	367.46
401.24	416.62
401.44	383.85
401.63	449.38
401.82	372.15
402.01	386.19
402.21	383.85
402.40	355.76
402.59	435.34
402.78	344.06
402.97	383.85
403.17	416.62
403.36	414.27
403.55	369.80
403.74	369.80
403.93	421.30
404.13	449.38
404.32	383.85
404.51	383.85
404.70	388.53
404.89	386.19
405.09	496.19
405.28	404.91
405.47	428.32
405.66	463.43
405.85	425.98
406.05	421.30
406.24	369.80
406.43	423.64
406.62	418.96
406.81	451.72
407.00	407.25
407.20	386.19
407.39	416.62
407.58	435.34
407.77	402.57
407.96	454.06
408.15	402.57
408.34	348.74
408.54	388.53
408.73	421.30
408.92	475.13
409.11	430.66
409.30	409.59
409.49	472.79
409.68	430.66
409.87	351.08
410.07	430.66
410.26	447.04
410.45	428.32
410.64	409.59
410.83	407.25
411.02	372.15
411.21	430.66
411.40	418.96
411.59	388.53
411.78	484.49
411.98	360.44
412.17	435.34
412.36	337.04
412.55	332.36
412.74	388.53
412.93	418.96
413.12	440.02
413.31	482.15
413.50	461.09
413.69	365.12
413.88	454.06
414.07	386.19
414.26	482.15
414.45	456.40
414.64	411.93
414.83	418.96
415.02	395.55
415.22	461.09
415.41	367.46
415.60	320.65
415.79	425.98
415.98	407.25
416.17	414.27
416.36	407.25
416.55	411.93
416.74	430.66
416.93	447.04
417.12	454.06
417.31	449.38
417.50	395.55
417.69	414.27
417.88	306.61
418.07	339.38
418.26	383.85
418.45	409.59
418.64	451.72
418.83	465.77
419.02	435.34
419.21	428.32
419.39	393.21
419.58	367.46
419.77	393.21
419.96	376.83
420.15	397.89
420.34	386.19
420.53	435.34
420.72	407.25
420.91	376.83
421.10	372.15
421.29	365.12
421.48	402.57
421.67	362.78
421.86	402.57
422.05	374.49
422.24	407.25
422.43	383.85
422.61	456.40
422.80	440.02
422.99	393.21
423.18	402.57
423.37	395.55
423.56	397.89
423.75	435.34
423.94	400.23
424.13	430.66
424.32	311.29
424.50	449.38
424.69	369.80
424.88	484.49
425.07	418.96
425.26	386.19
425.45	421.30
425.64	376.83
425.83	360.44
426.01	451.72
426.20	386.19
426.39	355.76
426.58	491.51
426.77	402.57
426.96	346.40
427.15	402.57
427.33	344.06
427.52	362.78
427.71	397.89
427.90	402.57
428.09	437.68
428.28	395.55
428.46	402.57
428.65	454.06
428.84	402.57
429.03	470.45
429.22	390.87
429.40	379.17
429.59	409.59
429.78	383.85
429.97	414.27
430.16	421.30
430.34	400.23
430.53	404.91
430.72	475.13
430.91	411.93
431.10	365.12
431.28	409.59
431.47	390.87
431.66	374.49
431.85	430.66
432.03	360.44
432.22	545.34
432.41	414.27
432.60	397.89
432.79	388.53
432.97	372.15
433.16	353.42
433.35	395.55
433.54	365.12
433.72	442.36
433.91	393.21
434.10	491.51
434.28	367.46
434.47	400.23
434.66	454.06
434.85	428.32
435.03	433.00
435.22	444.70
435.41	442.36
435.59	465.77
435.78	372.15
435.97	425.98
436.16	451.72
436.34	435.34
436.53	362.78
436.72	479.81
436.90	416.62
437.09	416.62
437.28	348.74
437.46	376.83
437.65	425.98
437.84	369.80
438.02	407.25
438.21	521.94
438.40	372.15
438.58	390.87
438.77	454.06
438.96	414.27
439.14	381.51
439.33	428.32
439.52	400.23
439.70	447.04
439.89	418.96
440.08	507.90
440.26	472.79
440.45	423.64
440.63	454.06
440.82	400.23
441.01	386.19
441.19	430.66
441.38	388.53
441.57	404.91
441.75	414.27
441.94	435.34
442.12	435.34
442.31	386.19
442.50	374.49
442.68	362.78
442.87	444.70
443.05	430.66
443.24	458.74
443.43	416.62
443.61	395.55
443.80	383.85
443.98	379.17
444.17	447.04
444.35	423.64
444.54	482.15
444.73	374.49
444.91	484.49
445.10	442.36
445.28	411.93
445.47	414.27
445.65	414.27
445.84	383.85
446.02	360.44
446.21	393.21
446.39	374.49
446.58	411.93
446.77	430.66
446.95	344.06
447.14	414.27
447.32	456.40
447.51	416.62
447.69	421.30
447.88	449.38
448.06	449.38
448.25	409.59
448.43	447.04
448.62	372.15
448.80	414.27
448.99	468.11
449.17	362.78
449.36	442.36
449.54	447.04
449.73	390.87
449.91	430.66
450.10	388.53
450.28	491.51
450.46	447.04
450.65	435.34
450.83	414.27
451.02	461.09
451.20	404.91
451.39	407.25
451.57	334.70
451.76	411.93
451.94	472.79
452.13	416.62
452.31	372.15
452.49	421.30
452.68	416.62
452.86	379.17
453.05	442.36
453.23	409.59
453.42	390.87
453.60	390.87
453.78	393.21
453.97	383.85
454.15	423.64
454.34	360.44
454.52	414.27
454.70	496.19
454.89	348.74
455.07	411.93
455.26	456.40
455.44	418.96
455.62	337.04
455.81	402.57
455.99	414.27
456.17	423.64
456.36	458.74
456.54	418.96
456.73	404.91
456.91	320.65
457.09	435.34
457.28	414.27
457.46	414.27
457.64	390.87
457.83	449.38
458.01	400.23
458.19	365.12
458.38	407.25
458.56	472.79
458.74	435.34
458.93	416.62
459.11	414.27
459.29	442.36
459.48	393.21
459.66	444.70
459.84	449.38
460.03	489.17
460.21	440.02
460.39	418.96
460.57	449.38
460.76	491.51
460.94	451.72
461.12	421.30
461.31	430.66
461.49	418.96
461.67	400.23
461.85	425.98
462.04	451.72
462.22	786.42
462.40	451.72
462.59	468.11
462.77	390.87
462.95	433.00
463.13	360.44
463.32	463.43
463.50	365.12
463.68	458.74
463.86	437.68
464.05	433.00
464.23	470.45
464.41	397.89
464.59	454.06
464.78	372.15
464.96	402.57
465.14	454.06
465.32	428.32
465.50	397.89
465.69	423.64
465.87	358.10
466.05	381.51
466.23	381.51
466.41	397.89
466.60	409.59
466.78	374.49
466.96	407.25
467.14	468.11
467.32	440.02
467.51	379.17
467.69	433.00
467.87	442.36
468.05	458.74
468.23	447.04
468.41	458.74
468.60	435.34
468.78	482.15
468.96	491.51
469.14	379.17
469.32	447.04
469.50	367.46
469.69	482.15
469.87	430.66
470.05	461.09
470.23	437.68
470.41	404.91
470.59	393.21
470.77	379.17
470.95	381.51
471.14	433.00
471.32	454.06
471.50	493.85
471.68	444.70
471.86	517.26
472.04	388.53
472.22	425.98
472.40	442.36
472.58	414.27
472.77	374.49
472.95	386.19
473.13	416.62
473.31	379.17
473.49	395.55
473.67	346.40
473.85	414.27
474.03	397.89
474.21	461.09
474.39	461.09
474.57	395.55
474.75	458.74
474.93	440.02
475.12	423.64
475.30	463.43
475.48	442.36
475.66	407.25
475.84	360.44
476.02	390.87
476.20	395.55
476.38	430.66
476.56	472.79
476.74	416.62
476.92	444.70
477.10	388.53
477.28	451.72
477.46	470.45
477.64	383.85
477.82	423.64
478.00	402.57
478.18	430.66
478.36	425.98
478.54	383.85
478.72	374.49
478.90	470.45
479.08	322.99
479.26	416.62
479.44	421.30
479.62	393.21
479.80	383.85
479.98	379.17
480.16	402.57
480.34	498.53
480.52	383.85
480.70	369.80
480.88	334.70
481.06	472.79
481.24	409.59
481.41	388.53
481.59	404.91
481.77	397.89
481.95	397.89
482.13	402.57
482.31	358.10
482.49	379.17
482.67	449.38
482.85	416.62
483.03	411.93
483.21	360.44
483.39	362.78
483.57	325.33
483.74	496.19
483.92	423.64
484.10	383.85
484.28	458.74
484.46	470.45
484.64	390.87
484.82	409.59
485.00	428.32
485.18	409.59
485.35	491.51
485.53	407.25
485.71	411.93
485.89	397.89
486.07	388.53
486.25	447.04
486.43	397.89
486.61	454.06
486.78	442.36
486.96	355.76
487.14	416.62
487.32	404.91
487.50	341.72
487.68	365.12
487.85	418.96
488.03	472.79
488.21	489.17
488.39	423.64
488.57	409.59
488.75	362.78
488.92	514.92
489.10	437.68
489.28	496.19
489.46	425.98
489.64	390.87
489.81	334.70
489.99	470.45
490.17	418.96
490.35	477.47
490.53	437.68
490.70	407.25
490.88	468.11
491.06	393.21
491.24	400.23
491.41	444.70
491.59	421.30
491.77	414.27
491.95	421.30
492.13	381.51
492.30	386.19
492.48	409.59
492.66	362.78
492.84	468.11
493.01	442.36
493.19	379.17
493.37	461.09
493.54	493.85
493.72	451.72
493.90	411.93
494.08	463.43
494.25	425.98
494.43	332.36
494.61	393.21
494.79	425.98
494.96	409.59
495.14	402.57
495.32	388.53
495.49	402.57
495.67	435.34
495.85	447.04
496.02	449.38
496.20	454.06
496.38	435.34
496.55	362.78
496.73	440.02
496.91	442.36
497.09	418.96
497.26	435.34
497.44	421.30
497.62	449.38
497.79	456.40
497.97	376.83
498.14	458.74
498.32	414.27
498.50	379.17
498.67	489.17
498.85	407.25
499.03	390.87
499.20	397.89
499.38	440.02
499.56	442.36
499.73	421.30
499.91	428.32
500.08	428.32
500.26	390.87
500.44	421.30
500.61	383.85
500.79	423.64
500.97	421.30
501.14	390.87
501.32	369.80
501.49	444.70
501.67	397.89
501.84	517.26
502.02	353.42
502.20	351.08
502.37	454.06
502.55	414.27
502.72	428.32
502.90	418.96
503.07	402.57
503.25	379.17
503.43	404.91
503.60	442.36
503.78	402.57
503.95	372.15
504.13	468.11
504.30	421.30
504.48	416.62
504.65	418.96
504.83	393.21
505.01	402.57
505.18	416.62
505.36	433.00
505.53	411.93
505.71	468.11
505.88	407.25
506.06	472.79
506.23	437.68
506.41	437.68
506.58	423.64
506.76	402.57
506.93	348.74
507.11	454.06
507.28	369.80
507.46	435.34
507.63	397.89
507.81	376.83
507.98	444.70
508.16	433.00
508.33	421.30
508.50	423.64
508.68	418.96
508.85	414.27
509.03	341.72
509.20	421.30
509.38	416.62
509.55	496.19
509.73	425.98
509.90	414.27
510.08	421.30
510.25	458.74
510.42	376.83
510.60	400.23
510.77	425.98
510.95	444.70
511.12	379.17
511.30	393.21
511.47	421.30
511.64	404.91
511.82	421.30
511.99	332.36
512.17	376.83
512.34	379.17
512.51	456.40
512.69	433.00
512.86	367.46
513.04	376.83
513.21	447.04
513.38	358.10
513.56	397.89
513.73	390.87
513.90	421.30
514.08	404.91
514.25	433.00
514.43	313.63
514.60	430.66
514.77	362.78
514.95	402.57
515.12	435.34
515.29	449.38
515.47	430.66
515.64	367.46
515.81	369.80
515.99	388.53
516.16	477.47
516.33	456.40
516.51	433.00
516.68	414.27
516.85	444.70
517.03	416.62
517.20	404.91
517.37	465.77
517.54	421.30
517.72	374.49
517.89	409.59
518.06	414.27
518.24	533.64
518.41	503.22
518.58	440.02
518.75	388.53
518.93	411.93
519.10	447.04
519.27	435.34
519.45	433.00
519.62	444.70
519.79	409.59
519.96	388.53
520.14	393.21
520.31	456.40
520.48	411.93
520.65	428.32
520.83	463.43
521.00	388.53
521.17	386.19
521.34	402.57
521.52	388.53
521.69	470.45
521.86	444.70
522.03	428.32
522.20	461.09
522.38	425.98
522.55	428.32
522.72	454.06
522.89	425.98
523.07	444.70
523.24	409.59
523.41	374.49
523.58	442.36
523.75	456.40
523.92	414.27
524.10	388.53
524.27	435.34
524.44	393.21
524.61	440.02
524.78	418.96
524.96	407.25
525.13	421.30
525.30	402.57
525.47	409.59
525.64	362.78
525.81	468.11
525.98	463.43
526.16	395.55
526.33	383.85
526.50	416.62
526.67	367.46
526.84	402.57
527.01	369.80
527.18	444.70
527.36	400.23
527.53	397.89
527.70	404.91
527.87	341.72
528.04	404.91
528.21	386.19
528.38	489.17
528.55	409.59
528.72	425.98
528.89	458.74
529.07	400.23
529.24	376.83
529.41	397.89
529.58	362.78
529.75	395.55
529.92	470.45
530.09	437.68
530.26	351.08
530.43	482.15
530.60	351.08
530.77	418.96
530.94	388.53
531.11	341.72
531.28	411.93
531.46	400.23
531.63	416.62
531.80	447.04
531.97	409.59
532.14	402.57
532.31	376.83
532.48	416.62
532.65	458.74
532.82	477.47
532.99	454.06
533.16	437.68
533.33	390.87
533.50	390.87
533.67	379.17
533.84	456.40
534.01	444.70
534.18	407.25
534.35	383.85
534.52	322.99
534.69	411.93
534.86	435.34
535.03	386.19
535.20	402.57
535.37	381.51
535.54	376.83
535.71	372.15
535.88	421.30
536.05	416.62
536.22	468.11
536.38	402.57
536.55	308.95
536.72	379.17
536.89	388.53
537.06	428.32
537.23	449.38
537.40	470.45
537.57	461.09
537.74	472.79
537.91	416.62
538.08	458.74
538.25	395.55
538.42	411.93
538.59	409.59
538.75	411.93
538.92	416.62
539.09	512.58
539.26	416.62
539.43	484.49
539.60	425.98
539.77	454.06
539.94	381.51
540.11	498.53
540.28	458.74
540.44	454.06
540.61	449.38
540.78	397.89
540.95	390.87
541.12	409.59
541.29	379.17
541.46	573.43
541.62	334.70
541.79	454.06
541.96	465.77
542.13	337.04
542.30	400.23
542.47	465.77
542.63	472.79
542.80	393.21
542.97	402.57
543.14	428.32
543.31	411.93
543.48	411.93
543.64	355.76
543.81	437.68
543.98	454.06
544.15	372.15
544.32	407.25
544.48	395.55
544.65	367.46
544.82	386.19
544.99	409.59
545.16	461.09
545.32	472.79
545.49	407.25
545.66	461.09
545.83	407.25
546.00	397.89
546.16	388.53
546.33	423.64
546.50	440.02
546.67	440.02
546.83	416.62
547.00	390.87
547.17	425.98
547.34	407.25
547.50	458.74
547.67	430.66
547.84	393.21
548.00	503.22
548.17	383.85
548.34	435.34
548.51	407.25
548.67	428.32
548.84	400.23
549.01	362.78
549.18	365.12
549.34	433.00
549.51	442.36
549.68	437.68
549.84	411.93
550.01	470.45
550.18	451.72
550.34	526.62
550.51	423.64
550.68	475.13
550.84	390.87
551.01	318.31
551.18	437.68
551.34	407.25
551.51	451.72
551.68	386.19
551.84	425.98
552.01	365.12
552.18	498.53
552.34	351.08
552.51	390.87
552.68	447.04
552.84	351.08
553.01	407.25
553.18	425.98
553.34	388.53
553.51	451.72
553.67	428.32
553.84	440.02
554.01	500.87
554.17	498.53
554.34	472.79
554.51	449.38
554.67	489.17
554.84	407.25
555.00	435.34
555.17	393.21
555.33	475.13
555.50	456.40
555.67	498.53
555.83	468.11
556.00	444.70
556.16	519.60
556.33	416.62
556.50	351.08
556.66	395.55
556.83	374.49
556.99	348.74
557.16	388.53
557.32	463.43
557.49	440.02
557.65	351.08
557.82	374.49
557.98	430.66
558.15	353.42
558.32	416.62
558.48	367.46
558.65	430.66
558.81	454.06
558.98	409.59
559.14	400.23
559.31	411.93
559.47	423.64
559.64	381.51
559.80	423.64
559.97	390.87
560.13	395.55
560.30	341.72
560.46	411.93
560.63	449.38
560.79	376.83
560.96	428.32
561.12	463.43
561.29	491.51
561.45	397.89
561.61	425.98
561.78	400.23
561.94	428.32
562.11	360.44
562.27	372.15
562.44	390.87
562.60	411.93
562.77	489.17
562.93	433.00
563.10	411.93
563.26	418.96
563.42	428.32
563.59	435.34
563.75	409.59
563.92	447.04
564.08	498.53
564.24	390.87
564.41	444.70
564.57	365.12
564.74	341.72
564.90	433.00
565.07	400.23
565.23	386.19
565.39	383.85
565.56	411.93
565.72	362.78
565.88	444.70
566.05	369.80
566.21	411.93
566.38	409.59
566.54	437.68
566.70	358.10
566.87	402.57
567.03	428.32
567.19	388.53
567.36	383.85
567.52	402.57
567.68	442.36
567.85	458.74
568.01	372.15
568.17	400.23
568.34	454.06
568.50	458.74
568.66	444.70
568.83	486.83
568.99	388.53
569.15	423.64
569.32	440.02
569.48	435.34
569.64	430.66
569.81	411.93
569.97	486.83
570.13	390.87
570.30	390.87
570.46	411.93
570.62	461.09
570.78	365.12
570.95	430.66
571.11	463.43
571.27	390.87
571.43	440.02
571.60	409.59
571.76	365.12
571.92	381.51
572.09	442.36
572.25	402.57
572.41	414.27
572.57	465.77
572.74	428.32
572.90	416.62
573.06	444.70
573.22	381.51
573.38	514.92
573.55	334.70
573.71	484.49
573.87	447.04
574.03	444.70
574.20	416.62
574.36	411.93
574.52	411.93
574.68	421.30
574.84	430.66
575.01	414.27
575.17	444.70
575.33	428.32
575.49	418.96
575.65	454.06
575.82	451.72
575.98	505.56
576.14	447.04
576.30	430.66
576.46	449.38
576.62	418.96
576.79	360.44
576.95	362.78
577.11	388.53
577.27	369.80
577.43	402.57
577.59	428.32
577.75	390.87
577.92	367.46
578.08	433.00
578.24	451.72
578.40	367.46
578.56	402.57
578.72	447.04
578.88	346.40
579.04	327.68
579.21	437.68
579.37	390.87
579.53	440.02
579.69	393.21
579.85	416.62
580.01	332.36
580.17	404.91
580.33	402.57
580.49	423.64
580.65	393.21
580.82	341.72
580.98	444.70
581.14	435.34
581.30	369.80
581.46	484.49
581.62	365.12
581.78	388.53
581.94	421.30
582.10	423.64
582.26	416.62
582.42	374.49
582.58	353.42
582.74	463.43
582.90	365.12
583.06	383.85
583.22	468.11
583.38	390.87
583.54	372.15
583.70	418.96
583.86	386.19
584.02	334.70
584.18	472.79
584.34	374.49
584.50	407.25
584.66	470.45
584.82	383.85
584.98	351.08
585.14	346.40
585.30	383.85
585.46	355.76
585.62	386.19
585.78	407.25
585.94	444.70
586.10	390.87
586.26	437.68
586.42	465.77
586.58	425.98
586.74	393.21
586.90	341.72
587.06	458.74
587.22	428.32
587.38	367.46
587.54	428.32
587.70	444.70
587.86	423.64
588.02	365.12
588.18	358.10
588.34	374.49
588.49	353.42
588.65	472.79
588.81	451.72
588.97	372.15
589.13	414.27
589.29	463.43
589.45	400.23
589.61	484.49
589.77	418.96
589.93	397.89
590.08	411.93
590.24	362.78
590.40	430.66
590.56	393.21
590.72	505.56
590.88	482.15
591.04	393.21
591.20	435.34
591.35	510.24
591.51	404.91
591.67	428.32
591.83	386.19
591.99	440.02
592.15	514.92
592.31	369.80
592.46	369.80
592.62	393.21
592.78	393.21
592.94	414.27
593.10	489.17
593.26	341.72
593.41	430.66
593.57	358.10
593.73	381.51
593.89	430.66
594.05	372.15
594.20	414.27
594.36	423.64
594.52	414.27
594.68	379.17
594.84	397.89
594.99	425.98
595.15	440.02
595.31	388.53
595.47	418.96
595.62	402.57
595.78	383.85
595.94	418.96
596.10	496.19
596.25	482.15
596.41	454.06
596.57	416.62
596.73	393.21
596.88	423.64
597.04	433.00
597.20	472.79
597.36	428.32
597.51	440.02
597.67	404.91
597.83	390.87
597.99	400.23
598.14	435.34
598.30	447.04
598.46	418.96
598.61	383.85
598.77	421.30
598.93	447.04
599.09	365.12
599.24	404.91
599.40	423.64
599.56	386.19
599.71	472.79
599.87	454.06
600.03	418.96
600.18	458.74
600.34	428.32
600.50	404.91
600.65	451.72
600.81	374.49
600.97	519.60
601.12	440.02
601.28	477.47
601.44	369.80
601.59	416.62
601.75	472.79
601.91	374.49
602.06	433.00
602.22	543.00
602.37	388.53
602.53	442.36
602.69	409.59
602.84	421.30
603.00	430.66
603.16	449.38
603.31	383.85
603.47	428.32
603.62	332.36
603.78	433.00
603.94	414.27
604.09	369.80
604.25	456.40
604.40	409.59
604.56	376.83
604.71	386.19
604.87	433.00
605.03	400.23
605.18	470.45
605.34	437.68
605.49	369.80
605.65	435.34
605.80	360.44
605.96	493.85
606.12	327.68
606.27	486.83
606.43	376.83
606.58	414.27
606.74	440.02
606.89	376.83
607.05	351.08
607.20	425.98
607.36	416.62
607.51	425.98
607.67	430.66
607.82	404.91
607.98	379.17
608.13	397.89
608.29	454.06
608.44	418.96
608.60	470.45
608.75	489.17
608.91	374.49
609.06	458.74
609.22	442.36
609.37	425.98
609.53	442.36
609.68	402.57
609.84	409.59
609.99	421.30
610.15	425.98
