SpectraSuite Data File
++++++++++++++++++++++++++++++++++++
Date: Fri Oct 25 12:10:14 EDT 2013
User: price-jones
Dark Spectrum Present: No
Reference Spectrum Present: No
Number of Sampled Component Spectra: 1
Spectrometers: USB2+H05261
Integration Time (usec): 100000 (USB2+H05261)
Spectra Averaged: 1 (USB2+H05261)
Boxcar Smoothing: 0 (USB2+H05261)
Correct for Electrical Dark: No (USB2+H05261)
Strobe/Lamp Enabled: No (USB2+H05261)
Correct for Detector Non-linearity: No (USB2+H05261)
Correct for Stray Light: No (USB2+H05261)
Number of Pixels in Processed Spectrum: 2048
>>>>>Begin Processed Spectral Data<<<<<
365.73	346.40
365.92	346.40
366.12	346.40
366.32	196.60
366.52	250.44
366.72	287.89
366.91	259.80
367.11	257.46
367.31	229.37
367.51	201.29
367.70	224.69
367.90	170.86
368.10	203.63
368.30	271.50
368.49	266.82
368.69	262.14
368.89	229.37
369.09	257.46
369.28	304.27
369.48	238.73
369.68	325.33
369.87	264.48
370.07	313.63
370.27	325.33
370.47	332.36
370.66	393.21
370.86	344.06
371.06	386.19
371.25	346.40
371.45	397.89
371.65	397.89
371.84	442.36
372.04	330.02
372.24	346.40
372.44	327.68
372.63	433.00
372.83	404.91
373.03	409.59
373.22	435.34
373.42	423.64
373.62	425.98
373.81	418.96
374.01	407.25
374.21	425.98
374.40	395.55
374.60	437.68
374.79	388.53
374.99	526.62
375.19	531.30
375.38	393.21
375.58	332.36
375.78	472.79
375.97	414.27
376.17	437.68
376.37	435.34
376.56	428.32
376.76	339.38
376.95	383.85
377.15	472.79
377.35	381.51
377.54	416.62
377.74	355.76
377.93	444.70
378.13	430.66
378.33	437.68
378.52	376.83
378.72	390.87
378.91	418.96
379.11	418.96
379.31	292.57
379.50	374.49
379.70	458.74
379.89	416.62
380.09	440.02
380.28	376.83
380.48	433.00
380.68	404.91
380.87	358.10
381.07	381.51
381.26	421.30
381.46	348.74
381.65	379.17
381.85	400.23
382.04	393.21
382.24	376.83
382.43	435.34
382.63	454.06
382.83	430.66
383.02	383.85
383.22	435.34
383.41	400.23
383.61	383.85
383.80	351.08
384.00	393.21
384.19	397.89
384.39	379.17
384.58	411.93
384.78	400.23
384.97	400.23
385.17	367.46
385.36	393.21
385.56	330.02
385.75	425.98
385.95	496.19
386.14	416.62
386.34	444.70
386.53	376.83
386.72	463.43
386.92	416.62
387.11	372.15
387.31	355.76
387.50	374.49
387.70	397.89
387.89	374.49
388.09	383.85
388.28	344.06
388.48	411.93
388.67	404.91
388.86	402.57
389.06	397.89
389.25	327.68
389.45	358.10
389.64	390.87
389.84	477.47
390.03	423.64
390.22	372.15
390.42	402.57
390.61	381.51
390.81	402.57
391.00	449.38
391.19	430.66
391.39	475.13
391.58	440.02
391.78	468.11
391.97	409.59
392.16	425.98
392.36	367.46
392.55	372.15
392.75	388.53
392.94	395.55
393.13	416.62
393.33	397.89
393.52	379.17
393.71	449.38
393.91	435.34
394.10	414.27
394.29	388.53
394.49	416.62
394.68	442.36
394.88	444.70
395.07	418.96
395.26	437.68
395.46	479.81
395.65	404.91
395.84	416.62
396.04	463.43
396.23	390.87
396.42	433.00
396.62	428.32
396.81	409.59
397.00	421.30
397.19	400.23
397.39	411.93
397.58	390.87
397.77	404.91
397.97	386.19
398.16	355.76
398.35	414.27
398.55	379.17
398.74	395.55
398.93	425.98
399.12	358.10
399.32	360.44
399.51	437.68
399.70	442.36
399.90	407.25
400.09	437.68
400.28	416.62
400.47	376.83
400.67	395.55
400.86	374.49
401.05	397.89
401.24	365.12
401.44	393.21
401.63	435.34
401.82	386.19
402.01	409.59
402.21	381.51
402.40	479.81
402.59	423.64
402.78	388.53
402.97	430.66
403.17	379.17
403.36	430.66
403.55	447.04
403.74	428.32
403.93	346.40
404.13	393.21
404.32	409.59
404.51	397.89
404.70	433.00
404.89	423.64
405.09	390.87
405.28	433.00
405.47	332.36
405.66	376.83
405.85	388.53
406.05	411.93
406.24	337.04
406.43	468.11
406.62	435.34
406.81	437.68
407.00	395.55
407.20	477.47
407.39	374.49
407.58	444.70
407.77	404.91
407.96	440.02
408.15	400.23
408.34	379.17
408.54	433.00
408.73	395.55
408.92	372.15
409.11	470.45
409.30	496.19
409.49	383.85
409.68	395.55
409.87	423.64
410.07	381.51
410.26	437.68
410.45	395.55
410.64	367.46
410.83	388.53
411.02	411.93
411.21	400.23
411.40	507.90
411.59	451.72
411.78	407.25
411.98	442.36
412.17	414.27
412.36	320.65
412.55	411.93
412.74	416.62
412.93	451.72
413.12	493.85
413.31	402.57
413.50	421.30
413.69	358.10
413.88	451.72
414.07	390.87
414.26	362.78
414.45	461.09
414.64	451.72
414.83	418.96
415.02	397.89
415.22	428.32
415.41	416.62
415.60	414.27
415.79	362.78
415.98	428.32
416.17	330.02
416.36	423.64
416.55	440.02
416.74	437.68
416.93	470.45
417.12	437.68
417.31	376.83
417.50	400.23
417.69	433.00
417.88	397.89
418.07	423.64
418.26	465.77
418.45	440.02
418.64	440.02
418.83	437.68
419.02	416.62
419.21	414.27
419.39	402.57
419.58	418.96
419.77	351.08
419.96	444.70
420.15	447.04
420.34	425.98
420.53	404.91
420.72	362.78
420.91	468.11
421.10	402.57
421.29	421.30
421.48	400.23
421.67	388.53
421.86	418.96
422.05	379.17
422.24	376.83
422.43	362.78
422.61	327.68
422.80	440.02
422.99	411.93
423.18	367.46
423.37	463.43
423.56	374.49
423.75	456.40
423.94	411.93
424.13	465.77
424.32	454.06
424.50	489.17
424.69	430.66
424.88	468.11
425.07	339.38
425.26	409.59
425.45	418.96
425.64	477.47
425.83	386.19
426.01	390.87
426.20	341.72
426.39	334.70
426.58	423.64
426.77	367.46
426.96	454.06
427.15	421.30
427.33	397.89
427.52	344.06
427.71	430.66
427.90	468.11
428.09	475.13
428.28	393.21
428.46	372.15
428.65	400.23
428.84	407.25
429.03	435.34
429.22	409.59
429.40	381.51
429.59	444.70
429.78	444.70
429.97	355.76
430.16	414.27
430.34	442.36
430.53	437.68
430.72	456.40
430.91	433.00
431.10	454.06
431.28	339.38
431.47	456.40
431.66	379.17
431.85	372.15
432.03	393.21
432.22	479.81
432.41	433.00
432.60	381.51
432.79	353.42
432.97	301.93
433.16	404.91
433.35	362.78
433.54	374.49
433.72	337.04
433.91	433.00
434.10	395.55
434.28	428.32
434.47	402.57
434.66	393.21
434.85	414.27
435.03	402.57
435.22	379.17
435.41	454.06
435.59	425.98
435.78	465.77
435.97	365.12
436.16	416.62
436.34	397.89
436.53	407.25
436.72	407.25
436.90	372.15
437.09	395.55
437.28	409.59
437.46	430.66
437.65	421.30
437.84	362.78
438.02	416.62
438.21	388.53
438.40	414.27
438.58	430.66
438.77	409.59
438.96	344.06
439.14	390.87
439.33	456.40
439.52	322.99
439.70	425.98
439.89	365.12
440.08	404.91
440.26	411.93
440.45	425.98
440.63	423.64
440.82	407.25
441.01	444.70
441.19	322.99
441.38	383.85
441.57	440.02
441.75	425.98
441.94	390.87
442.12	388.53
442.31	433.00
442.50	360.44
442.68	397.89
442.87	390.87
443.05	404.91
443.24	465.77
443.43	376.83
443.61	463.43
443.80	454.06
443.98	435.34
444.17	440.02
444.35	447.04
444.54	425.98
444.73	346.40
444.91	454.06
445.10	393.21
445.28	397.89
445.47	493.85
445.65	383.85
445.84	332.36
446.02	468.11
446.21	489.17
446.39	468.11
446.58	418.96
446.77	334.70
446.95	528.96
447.14	379.17
447.32	461.09
447.51	381.51
447.69	425.98
447.88	414.27
448.06	407.25
448.25	447.04
448.43	407.25
448.62	369.80
448.80	341.72
448.99	367.46
449.17	393.21
449.36	409.59
449.54	402.57
449.73	390.87
449.91	411.93
450.10	397.89
450.28	444.70
450.46	383.85
450.65	477.47
450.83	397.89
451.02	339.38
451.20	379.17
451.39	416.62
451.57	409.59
451.76	365.12
451.94	362.78
452.13	390.87
452.31	456.40
452.49	472.79
452.68	376.83
452.86	423.64
453.05	475.13
453.23	423.64
453.42	425.98
453.60	437.68
453.78	402.57
453.97	404.91
454.15	376.83
454.34	320.65
454.52	430.66
454.70	393.21
454.89	400.23
455.07	430.66
455.26	440.02
455.44	407.25
455.62	425.98
455.81	465.77
455.99	416.62
456.17	418.96
456.36	440.02
456.54	484.49
456.73	404.91
456.91	397.89
457.09	381.51
457.28	393.21
457.46	360.44
457.64	428.32
457.83	409.59
458.01	367.46
458.19	454.06
458.38	430.66
458.56	447.04
458.74	397.89
458.93	383.85
459.11	397.89
459.29	461.09
459.48	472.79
459.66	451.72
459.84	468.11
460.03	575.77
460.21	468.11
460.39	393.21
460.57	386.19
460.76	414.27
460.94	416.62
461.12	416.62
461.31	381.51
461.49	407.25
461.67	353.42
461.85	395.55
462.04	456.40
462.22	727.91
462.40	320.65
462.59	388.53
462.77	442.36
462.95	418.96
463.13	369.80
463.32	407.25
463.50	376.83
463.68	334.70
463.86	395.55
464.05	390.87
464.23	402.57
464.41	383.85
464.59	421.30
464.78	318.31
464.96	376.83
465.14	320.65
465.32	409.59
465.50	416.62
465.69	411.93
465.87	477.47
466.05	402.57
466.23	425.98
466.41	411.93
466.60	388.53
466.78	365.12
466.96	444.70
467.14	437.68
467.32	383.85
467.51	428.32
467.69	496.19
467.87	381.51
468.05	475.13
468.23	496.19
468.41	498.53
468.60	418.96
468.78	386.19
468.96	414.27
469.14	486.83
469.32	393.21
469.50	355.76
469.69	390.87
469.87	414.27
470.05	404.91
470.23	500.87
470.41	470.45
470.59	393.21
470.77	430.66
470.95	383.85
471.14	423.64
471.32	430.66
471.50	440.02
471.68	388.53
471.86	418.96
472.04	458.74
472.22	440.02
472.40	374.49
472.58	425.98
472.77	379.17
472.95	449.38
473.13	454.06
473.31	421.30
473.49	479.81
473.67	360.44
473.85	430.66
474.03	440.02
474.21	489.17
474.39	395.55
474.57	404.91
474.75	400.23
474.93	383.85
475.12	390.87
475.30	411.93
475.48	440.02
475.66	379.17
475.84	404.91
476.02	351.08
476.20	421.30
476.38	353.42
476.56	430.66
476.74	397.89
476.92	388.53
477.10	386.19
477.28	404.91
477.46	374.49
477.64	425.98
477.82	421.30
478.00	397.89
478.18	468.11
478.36	362.78
478.54	379.17
478.72	463.43
478.90	376.83
479.08	379.17
479.26	367.46
479.44	433.00
479.62	325.33
479.80	472.79
479.98	365.12
480.16	358.10
480.34	379.17
480.52	337.04
480.70	454.06
480.88	416.62
481.06	381.51
481.24	397.89
481.41	390.87
481.59	430.66
481.77	416.62
481.95	423.64
482.13	390.87
482.31	376.83
482.49	418.96
482.67	454.06
482.85	442.36
483.03	367.46
483.21	404.91
483.39	428.32
483.57	435.34
483.74	423.64
483.92	442.36
484.10	341.72
484.28	491.51
484.46	435.34
484.64	444.70
484.82	421.30
485.00	442.36
485.18	404.91
485.35	482.15
485.53	461.09
485.71	369.80
485.89	395.55
486.07	416.62
486.25	451.72
486.43	428.32
486.61	444.70
486.78	433.00
486.96	381.51
487.14	285.55
487.32	395.55
487.50	353.42
487.68	393.21
487.85	418.96
488.03	407.25
488.21	500.87
488.39	390.87
488.57	458.74
488.75	388.53
488.92	524.28
489.10	425.98
489.28	400.23
489.46	449.38
489.64	421.30
489.81	411.93
489.99	418.96
490.17	407.25
490.35	458.74
490.53	425.98
490.70	358.10
490.88	433.00
491.06	390.87
491.24	496.19
491.41	374.49
491.59	444.70
491.77	372.15
491.95	383.85
492.13	430.66
492.30	440.02
492.48	416.62
492.66	416.62
492.84	355.76
493.01	437.68
493.19	435.34
493.37	416.62
493.54	409.59
493.72	409.59
493.90	416.62
494.08	315.97
494.25	447.04
494.43	468.11
494.61	454.06
494.79	372.15
494.96	440.02
495.14	428.32
495.32	421.30
495.49	409.59
495.67	430.66
495.85	407.25
496.02	411.93
496.20	433.00
496.38	454.06
496.55	444.70
496.73	404.91
496.91	395.55
497.09	428.32
497.26	407.25
497.44	425.98
497.62	437.68
497.79	435.34
497.97	409.59
498.14	416.62
498.32	402.57
498.50	383.85
498.67	360.44
498.85	395.55
499.03	442.36
499.20	367.46
499.38	407.25
499.56	390.87
499.73	428.32
499.91	458.74
500.08	346.40
500.26	367.46
500.44	407.25
500.61	322.99
500.79	374.49
500.97	440.02
501.14	428.32
501.32	418.96
501.49	475.13
501.67	388.53
501.84	414.27
502.02	374.49
502.20	442.36
502.37	440.02
502.55	454.06
502.72	348.74
502.90	418.96
503.07	449.38
503.25	381.51
503.43	334.70
503.60	456.40
503.78	362.78
503.95	337.04
504.13	402.57
504.30	456.40
504.48	465.77
504.65	381.51
504.83	362.78
505.01	416.62
505.18	348.74
505.36	411.93
505.53	479.81
505.71	416.62
505.88	451.72
506.06	442.36
506.23	414.27
506.41	369.80
506.58	475.13
506.76	444.70
506.93	416.62
507.11	358.10
507.28	416.62
507.46	358.10
507.63	444.70
507.81	358.10
507.98	416.62
508.16	411.93
508.33	402.57
508.50	402.57
508.68	458.74
508.85	465.77
509.03	437.68
509.20	425.98
509.38	372.15
509.55	428.32
509.73	437.68
509.90	482.15
510.08	400.23
510.25	414.27
510.42	416.62
510.60	395.55
510.77	397.89
510.95	440.02
511.12	414.27
511.30	510.24
511.47	411.93
511.64	484.49
511.82	402.57
511.99	428.32
512.17	437.68
512.34	327.68
512.51	447.04
512.69	468.11
512.86	414.27
513.04	390.87
513.21	425.98
513.38	388.53
513.56	374.49
513.73	433.00
513.90	423.64
514.08	365.12
514.25	435.34
514.43	421.30
514.60	454.06
514.77	428.32
514.95	372.15
515.12	407.25
515.29	451.72
515.47	369.80
515.64	470.45
515.81	440.02
515.99	376.83
516.16	442.36
516.33	440.02
516.51	414.27
516.68	414.27
516.85	397.89
517.03	428.32
517.20	535.98
517.37	393.21
517.54	447.04
517.72	393.21
517.89	428.32
518.06	418.96
518.24	491.51
518.41	430.66
518.58	463.43
518.75	430.66
518.93	456.40
519.10	372.15
519.27	360.44
519.45	379.17
519.62	423.64
519.79	500.87
519.96	358.10
520.14	425.98
520.31	437.68
520.48	395.55
520.65	442.36
520.83	428.32
521.00	395.55
521.17	397.89
521.34	491.51
521.52	440.02
521.69	414.27
521.86	362.78
522.03	449.38
522.20	444.70
522.38	423.64
522.55	397.89
522.72	437.68
522.89	444.70
523.07	470.45
523.24	437.68
523.41	388.53
523.58	390.87
523.75	383.85
523.92	390.87
524.10	477.47
524.27	421.30
524.44	400.23
524.61	362.78
524.78	402.57
524.96	404.91
525.13	374.49
525.30	435.34
525.47	397.89
525.64	425.98
525.81	472.79
525.98	454.06
526.16	456.40
526.33	372.15
526.50	400.23
526.67	397.89
526.84	358.10
527.01	367.46
527.18	390.87
527.36	430.66
527.53	388.53
527.70	409.59
527.87	402.57
528.04	468.11
528.21	369.80
528.38	449.38
528.55	449.38
528.72	449.38
528.89	411.93
529.07	421.30
529.24	414.27
529.41	482.15
529.58	451.72
529.75	341.72
529.92	416.62
530.09	402.57
530.26	388.53
530.43	423.64
530.60	400.23
530.77	381.51
530.94	416.62
531.11	433.00
531.28	397.89
531.46	407.25
531.63	421.30
531.80	390.87
531.97	374.49
532.14	397.89
532.31	442.36
532.48	388.53
532.65	430.66
532.82	397.89
532.99	444.70
533.16	407.25
533.33	451.72
533.50	435.34
533.67	407.25
533.84	407.25
534.01	418.96
534.18	433.00
534.35	435.34
534.52	423.64
534.69	451.72
534.86	461.09
535.03	407.25
535.20	351.08
535.37	402.57
535.54	517.26
535.71	346.40
535.88	472.79
536.05	440.02
536.22	437.68
536.38	407.25
536.55	421.30
536.72	416.62
536.89	376.83
537.06	430.66
537.23	411.93
537.40	437.68
537.57	374.49
537.74	468.11
537.91	465.77
538.08	407.25
538.25	442.36
538.42	400.23
538.59	407.25
538.75	341.72
538.92	425.98
539.09	428.32
539.26	388.53
539.43	447.04
539.60	428.32
539.77	358.10
539.94	433.00
540.11	395.55
540.28	447.04
540.44	386.19
540.61	447.04
540.78	411.93
540.95	416.62
541.12	461.09
541.29	437.68
541.46	400.23
541.62	400.23
541.79	425.98
541.96	456.40
542.13	393.21
542.30	383.85
542.47	365.12
542.63	456.40
542.80	376.83
542.97	451.72
543.14	379.17
543.31	456.40
543.48	421.30
543.64	437.68
543.81	535.98
543.98	486.83
544.15	381.51
544.32	397.89
544.48	451.72
544.65	425.98
544.82	418.96
544.99	395.55
545.16	428.32
545.32	395.55
545.49	388.53
545.66	407.25
545.83	414.27
546.00	470.45
546.16	456.40
546.33	444.70
546.50	444.70
546.67	484.49
546.83	475.13
547.00	416.62
547.17	421.30
547.34	404.91
547.50	414.27
547.67	440.02
547.84	369.80
548.00	449.38
548.17	404.91
548.34	386.19
548.51	468.11
548.67	468.11
548.84	440.02
549.01	428.32
549.18	449.38
549.34	437.68
549.51	407.25
549.68	360.44
549.84	421.30
550.01	444.70
550.18	498.53
550.34	463.43
550.51	383.85
550.68	468.11
550.84	416.62
551.01	435.34
551.18	440.02
551.34	397.89
551.51	404.91
551.68	381.51
551.84	376.83
552.01	416.62
552.18	440.02
552.34	456.40
552.51	454.06
552.68	435.34
552.84	411.93
553.01	442.36
553.18	486.83
553.34	376.83
553.51	442.36
553.67	454.06
553.84	339.38
554.01	435.34
554.17	402.57
554.34	355.76
554.51	404.91
554.67	425.98
554.84	484.49
555.00	458.74
555.17	421.30
555.33	414.27
555.50	404.91
555.67	421.30
555.83	348.74
556.00	379.17
556.16	470.45
556.33	425.98
556.50	381.51
556.66	395.55
556.83	440.02
556.99	437.68
557.16	428.32
557.32	449.38
557.49	430.66
557.65	503.22
557.82	388.53
557.98	447.04
558.15	435.34
558.32	465.77
558.48	402.57
558.65	428.32
558.81	442.36
558.98	433.00
559.14	376.83
559.31	376.83
559.47	423.64
559.64	430.66
559.80	362.78
559.97	395.55
560.13	409.59
560.30	444.70
560.46	451.72
560.63	447.04
560.79	395.55
560.96	341.72
561.12	437.68
561.29	395.55
561.45	397.89
561.61	374.49
561.78	489.17
561.94	388.53
562.11	411.93
562.27	423.64
562.44	404.91
562.60	461.09
562.77	416.62
562.93	475.13
563.10	418.96
563.26	444.70
563.42	409.59
563.59	418.96
563.75	379.17
563.92	500.87
564.08	409.59
564.24	393.21
564.41	430.66
564.57	458.74
564.74	409.59
564.90	428.32
565.07	390.87
565.23	442.36
565.39	409.59
565.56	404.91
565.72	411.93
565.88	425.98
566.05	407.25
566.21	437.68
566.38	425.98
566.54	463.43
566.70	381.51
566.87	409.59
567.03	454.06
567.19	386.19
567.36	458.74
567.52	484.49
567.68	437.68
567.85	348.74
568.01	447.04
568.17	456.40
568.34	421.30
568.50	479.81
568.66	465.77
568.83	388.53
568.99	358.10
569.15	461.09
569.32	418.96
569.48	465.77
569.64	402.57
569.81	400.23
569.97	390.87
570.13	437.68
570.30	421.30
570.46	447.04
570.62	383.85
570.78	402.57
570.95	376.83
571.11	414.27
571.27	397.89
571.43	402.57
571.60	433.00
571.76	503.22
571.92	433.00
572.09	400.23
572.25	416.62
572.41	381.51
572.57	376.83
572.74	430.66
572.90	458.74
573.06	372.15
573.22	365.12
573.38	463.43
573.55	433.00
573.71	470.45
573.87	386.19
574.03	397.89
574.20	355.76
574.36	365.12
574.52	449.38
574.68	463.43
574.84	407.25
575.01	416.62
575.17	454.06
575.33	456.40
575.49	322.99
575.65	393.21
575.82	374.49
575.98	414.27
576.14	425.98
576.30	430.66
576.46	390.87
576.62	482.15
576.79	395.55
576.95	386.19
577.11	414.27
577.27	468.11
577.43	421.30
577.59	461.09
577.75	369.80
577.92	421.30
578.08	409.59
578.24	425.98
578.40	505.56
578.56	454.06
578.72	456.40
578.88	421.30
579.04	454.06
579.21	540.66
579.37	433.00
579.53	418.96
579.69	416.62
579.85	386.19
580.01	437.68
580.17	437.68
580.33	407.25
580.49	283.20
580.65	407.25
580.82	449.38
580.98	404.91
581.14	381.51
581.30	388.53
581.46	404.91
581.62	468.11
581.78	430.66
581.94	475.13
582.10	322.99
582.26	411.93
582.42	486.83
582.58	430.66
582.74	409.59
582.90	381.51
583.06	423.64
583.22	372.15
583.38	339.38
583.54	414.27
583.70	393.21
583.86	416.62
584.02	433.00
584.18	400.23
584.34	430.66
584.50	381.51
584.66	407.25
584.82	400.23
584.98	402.57
585.14	390.87
585.30	447.04
585.46	440.02
585.62	411.93
585.78	442.36
585.94	468.11
586.10	369.80
586.26	437.68
586.42	491.51
586.58	423.64
586.74	440.02
586.90	430.66
587.06	400.23
587.22	409.59
587.38	360.44
587.54	404.91
587.70	365.12
587.86	470.45
588.02	381.51
588.18	461.09
588.34	449.38
588.49	416.62
588.65	435.34
588.81	397.89
588.97	369.80
589.13	425.98
589.29	430.66
589.45	475.13
589.61	425.98
589.77	418.96
589.93	414.27
590.08	376.83
590.24	365.12
590.40	458.74
590.56	421.30
590.72	456.40
590.88	500.87
591.04	327.68
591.20	322.99
591.35	430.66
591.51	358.10
591.67	440.02
591.83	381.51
591.99	402.57
592.15	435.34
592.31	374.49
592.46	421.30
592.62	397.89
592.78	449.38
592.94	372.15
593.10	428.32
593.26	393.21
593.41	416.62
593.57	374.49
593.73	395.55
593.89	437.68
594.05	404.91
594.20	355.76
594.36	395.55
594.52	388.53
594.68	447.04
594.84	447.04
594.99	428.32
595.15	358.10
595.31	414.27
595.47	482.15
595.62	482.15
595.78	379.17
595.94	425.98
596.10	423.64
596.25	416.62
596.41	451.72
596.57	465.77
596.73	362.78
596.88	390.87
597.04	404.91
597.20	388.53
597.36	379.17
597.51	355.76
597.67	411.93
597.83	428.32
597.99	538.32
598.14	456.40
598.30	461.09
598.46	425.98
598.61	449.38
598.77	404.91
598.93	355.76
599.09	440.02
599.24	393.21
599.40	428.32
599.56	430.66
599.71	500.87
599.87	428.32
600.03	397.89
600.18	322.99
600.34	489.17
600.50	407.25
600.65	395.55
600.81	402.57
600.97	451.72
601.12	369.80
601.28	395.55
601.44	395.55
601.59	322.99
601.75	369.80
601.91	416.62
602.06	421.30
602.22	517.26
602.37	386.19
602.53	400.23
602.69	367.46
602.84	395.55
603.00	372.15
603.16	447.04
603.31	435.34
603.47	388.53
603.62	395.55
603.78	411.93
603.94	433.00
604.09	414.27
604.25	421.30
604.40	428.32
604.56	468.11
604.71	393.21
604.87	418.96
605.03	393.21
605.18	451.72
605.34	397.89
605.49	489.17
605.65	505.56
605.80	339.38
605.96	346.40
606.12	423.64
606.27	430.66
606.43	456.40
606.58	423.64
606.74	407.25
606.89	454.06
607.05	458.74
607.20	379.17
607.36	463.43
607.51	433.00
607.67	421.30
607.82	297.25
607.98	421.30
608.13	362.78
608.29	440.02
608.44	454.06
608.60	437.68
608.75	447.04
608.91	498.53
609.06	360.44
609.22	409.59
609.37	444.70
609.53	430.66
609.68	461.09
609.84	423.64
609.99	498.53
610.15	379.17
