SpectraSuite Data File
++++++++++++++++++++++++++++++++++++
Date: Fri Oct 25 12:11:33 EDT 2013
User: price-jones
Dark Spectrum Present: No
Reference Spectrum Present: No
Number of Sampled Component Spectra: 1
Spectrometers: USB2+H05261
Integration Time (usec): 100000 (USB2+H05261)
Spectra Averaged: 1 (USB2+H05261)
Boxcar Smoothing: 0 (USB2+H05261)
Correct for Electrical Dark: No (USB2+H05261)
Strobe/Lamp Enabled: No (USB2+H05261)
Correct for Detector Non-linearity: No (USB2+H05261)
Correct for Stray Light: No (USB2+H05261)
Number of Pixels in Processed Spectrum: 2048
>>>>>Begin Processed Spectral Data<<<<<
365.73	383.85
365.92	383.85
366.12	383.85
366.32	217.67
366.52	220.01
366.72	280.86
366.91	271.50
367.11	271.50
367.31	189.58
367.51	205.97
367.70	217.67
367.90	283.20
368.10	224.69
368.30	250.44
368.49	271.50
368.69	276.18
368.89	236.39
369.09	278.52
369.28	231.71
369.48	301.93
369.68	315.97
369.87	271.50
370.07	285.55
370.27	301.93
370.47	344.06
370.66	320.65
370.86	348.74
371.06	395.55
371.25	367.46
371.45	402.57
371.65	433.00
371.84	355.76
372.04	409.59
372.24	423.64
372.44	421.30
372.63	444.70
372.83	402.57
373.03	397.89
373.22	393.21
373.42	463.43
373.62	360.44
373.81	369.80
374.01	416.62
374.21	411.93
374.40	454.06
374.60	463.43
374.79	393.21
374.99	437.68
375.19	447.04
375.38	468.11
375.58	353.42
375.78	479.81
375.97	390.87
376.17	428.32
376.37	442.36
376.56	447.04
376.76	416.62
376.95	383.85
377.15	451.72
377.35	498.53
377.54	458.74
377.74	454.06
377.93	381.51
378.13	425.98
378.33	433.00
378.52	397.89
378.72	418.96
378.91	430.66
379.11	402.57
379.31	470.45
379.50	428.32
379.70	383.85
379.89	477.47
380.09	390.87
380.28	322.99
380.48	409.59
380.68	411.93
380.87	379.17
381.07	407.25
381.26	463.43
381.46	430.66
381.65	414.27
381.85	360.44
382.04	383.85
382.24	428.32
382.43	367.46
382.63	409.59
382.83	409.59
383.02	444.70
383.22	339.38
383.41	339.38
383.61	383.85
383.80	425.98
384.00	395.55
384.19	447.04
384.39	397.89
384.58	451.72
384.78	463.43
384.97	423.64
385.17	390.87
385.36	409.59
385.56	404.91
385.75	409.59
385.95	390.87
386.14	461.09
386.34	351.08
386.53	468.11
386.72	425.98
386.92	360.44
387.11	451.72
387.31	414.27
387.50	444.70
387.70	421.30
387.89	416.62
388.09	454.06
388.28	369.80
388.48	416.62
388.67	428.32
388.86	386.19
389.06	414.27
389.25	409.59
389.45	332.36
389.64	447.04
389.84	416.62
390.03	414.27
390.22	440.02
390.42	442.36
390.61	334.70
390.81	367.46
391.00	395.55
391.19	402.57
391.39	376.83
391.58	444.70
391.78	416.62
391.97	470.45
392.16	423.64
392.36	437.68
392.55	437.68
392.75	444.70
392.94	327.68
393.13	425.98
393.33	367.46
393.52	341.72
393.71	414.27
393.91	388.53
394.10	404.91
394.29	381.51
394.49	337.04
394.68	411.93
394.88	402.57
395.07	409.59
395.26	339.38
395.46	355.76
395.65	409.59
395.84	402.57
396.04	514.92
396.23	386.19
396.42	390.87
396.62	400.23
396.81	463.43
397.00	449.38
397.19	381.51
397.39	355.76
397.58	334.70
397.77	397.89
397.97	414.27
398.16	491.51
398.35	409.59
398.55	379.17
398.74	374.49
398.93	444.70
399.12	332.36
399.32	421.30
399.51	451.72
399.70	400.23
399.90	440.02
400.09	383.85
400.28	386.19
400.47	407.25
400.67	451.72
400.86	327.68
401.05	379.17
401.24	423.64
401.44	456.40
401.63	451.72
401.82	451.72
402.01	381.51
402.21	383.85
402.40	386.19
402.59	372.15
402.78	407.25
402.97	390.87
403.17	418.96
403.36	390.87
403.55	383.85
403.74	451.72
403.93	409.59
404.13	468.11
404.32	397.89
404.51	397.89
404.70	381.51
404.89	400.23
405.09	372.15
405.28	416.62
405.47	418.96
405.66	440.02
405.85	421.30
406.05	390.87
406.24	444.70
406.43	376.83
406.62	421.30
406.81	435.34
407.00	416.62
407.20	442.36
407.39	414.27
407.58	369.80
407.77	395.55
407.96	430.66
408.15	414.27
408.34	465.77
408.54	423.64
408.73	341.72
408.92	341.72
409.11	379.17
409.30	360.44
409.49	402.57
409.68	395.55
409.87	425.98
410.07	386.19
410.26	416.62
410.45	423.64
410.64	369.80
410.83	428.32
411.02	379.17
411.21	423.64
411.40	444.70
411.59	397.89
411.78	423.64
411.98	301.93
412.17	454.06
412.36	374.49
412.55	458.74
412.74	418.96
412.93	400.23
413.12	421.30
413.31	411.93
413.50	348.74
413.69	341.72
413.88	503.22
414.07	416.62
414.26	435.34
414.45	428.32
414.64	423.64
414.83	395.55
415.02	400.23
415.22	362.78
415.41	383.85
415.60	435.34
415.79	381.51
415.98	440.02
416.17	428.32
416.36	491.51
416.55	409.59
416.74	351.08
416.93	407.25
417.12	437.68
417.31	407.25
417.50	414.27
417.69	468.11
417.88	416.62
418.07	367.46
418.26	383.85
418.45	433.00
418.64	468.11
418.83	318.31
419.02	442.36
419.21	461.09
419.39	327.68
419.58	414.27
419.77	400.23
419.96	376.83
420.15	381.51
420.34	409.59
420.53	360.44
420.72	374.49
420.91	341.72
421.10	418.96
421.29	390.87
421.48	404.91
421.67	409.59
421.86	397.89
422.05	402.57
422.24	428.32
422.43	395.55
422.61	381.51
422.80	526.62
422.99	451.72
423.18	411.93
423.37	414.27
423.56	454.06
423.75	360.44
423.94	400.23
424.13	393.21
424.32	456.40
424.50	482.15
424.69	423.64
424.88	465.77
425.07	351.08
425.26	433.00
425.45	353.42
425.64	393.21
425.83	395.55
426.01	470.45
426.20	362.78
426.39	423.64
426.58	397.89
426.77	344.06
426.96	435.34
427.15	489.17
427.33	447.04
427.52	416.62
427.71	463.43
427.90	416.62
428.09	390.87
428.28	440.02
428.46	430.66
428.65	477.47
428.84	435.34
429.03	440.02
429.22	388.53
429.40	383.85
429.59	379.17
429.78	461.09
429.97	433.00
430.16	411.93
430.34	493.85
430.53	435.34
430.72	409.59
430.91	496.19
431.10	315.97
431.28	372.15
431.47	425.98
431.66	458.74
431.85	365.12
432.03	365.12
432.22	423.64
432.41	451.72
432.60	376.83
432.79	318.31
432.97	369.80
433.16	407.25
433.35	425.98
433.54	449.38
433.72	451.72
433.91	437.68
434.10	414.27
434.28	456.40
434.47	451.72
434.66	456.40
434.85	390.87
435.03	414.27
435.22	440.02
435.41	468.11
435.59	472.79
435.78	402.57
435.97	395.55
436.16	388.53
436.34	423.64
436.53	369.80
436.72	421.30
436.90	430.66
437.09	454.06
437.28	407.25
437.46	358.10
437.65	463.43
437.84	463.43
438.02	423.64
438.21	442.36
438.40	414.27
438.58	470.45
438.77	397.89
438.96	428.32
439.14	355.76
439.33	435.34
439.52	395.55
439.70	381.51
439.89	411.93
440.08	437.68
440.26	433.00
440.45	390.87
440.63	454.06
440.82	477.47
441.01	407.25
441.19	423.64
441.38	397.89
441.57	468.11
441.75	430.66
441.94	430.66
442.12	418.96
442.31	425.98
442.50	423.64
442.68	444.70
442.87	376.83
443.05	374.49
443.24	390.87
443.43	355.76
443.61	369.80
443.80	465.77
443.98	409.59
444.17	458.74
444.35	428.32
444.54	383.85
444.73	374.49
444.91	402.57
445.10	383.85
445.28	418.96
445.47	409.59
445.65	397.89
445.84	402.57
446.02	407.25
446.21	393.21
446.39	442.36
446.58	400.23
446.77	355.76
446.95	404.91
447.14	418.96
447.32	388.53
447.51	400.23
447.69	442.36
447.88	456.40
448.06	435.34
448.25	423.64
448.43	386.19
448.62	376.83
448.80	440.02
448.99	423.64
449.17	397.89
449.36	334.70
449.54	435.34
449.73	421.30
449.91	360.44
450.10	355.76
450.28	414.27
450.46	437.68
450.65	393.21
450.83	454.06
451.02	463.43
451.20	397.89
451.39	395.55
451.57	468.11
451.76	390.87
451.94	430.66
452.13	390.87
452.31	400.23
452.49	442.36
452.68	411.93
452.86	402.57
453.05	425.98
453.23	388.53
453.42	353.42
453.60	374.49
453.78	411.93
453.97	435.34
454.15	470.45
454.34	400.23
454.52	468.11
454.70	465.77
454.89	383.85
455.07	344.06
455.26	404.91
455.44	416.62
455.62	418.96
455.81	428.32
455.99	409.59
456.17	388.53
456.36	325.33
456.54	404.91
456.73	440.02
456.91	360.44
457.09	360.44
457.28	367.46
457.46	374.49
457.64	430.66
457.83	411.93
458.01	447.04
458.19	482.15
458.38	421.30
458.56	447.04
458.74	449.38
458.93	376.83
459.11	437.68
459.29	421.30
459.48	407.25
459.66	437.68
459.84	393.21
460.03	456.40
460.21	395.55
460.39	400.23
460.57	423.64
460.76	465.77
460.94	400.23
461.12	503.22
461.31	512.58
461.49	416.62
461.67	425.98
461.85	393.21
462.04	383.85
462.22	795.78
462.40	433.00
462.59	440.02
462.77	404.91
462.95	416.62
463.13	449.38
463.32	409.59
463.50	440.02
463.68	404.91
463.86	418.96
464.05	362.78
464.23	505.56
464.41	430.66
464.59	465.77
464.78	379.17
464.96	428.32
465.14	409.59
465.32	386.19
465.50	402.57
465.69	388.53
465.87	440.02
466.05	407.25
466.23	390.87
466.41	400.23
466.60	409.59
466.78	409.59
466.96	416.62
467.14	421.30
467.32	435.34
467.51	475.13
467.69	395.55
467.87	332.36
468.05	374.49
468.23	461.09
468.41	332.36
468.60	355.76
468.78	463.43
468.96	496.19
469.14	470.45
469.32	376.83
469.50	421.30
469.69	390.87
469.87	334.70
470.05	353.42
470.23	489.17
470.41	430.66
470.59	421.30
470.77	435.34
470.95	425.98
471.14	416.62
471.32	435.34
471.50	465.77
471.68	423.64
471.86	397.89
472.04	395.55
472.22	465.77
472.40	390.87
472.58	407.25
472.77	407.25
472.95	388.53
473.13	425.98
473.31	433.00
473.49	407.25
473.67	433.00
473.85	458.74
474.03	393.21
474.21	390.87
474.39	400.23
474.57	475.13
474.75	402.57
474.93	383.85
475.12	442.36
475.30	372.15
475.48	404.91
475.66	458.74
475.84	447.04
476.02	430.66
476.20	458.74
476.38	374.49
476.56	411.93
476.74	407.25
476.92	454.06
477.10	428.32
477.28	348.74
477.46	365.12
477.64	463.43
477.82	458.74
478.00	341.72
478.18	400.23
478.36	372.15
478.54	404.91
478.72	383.85
478.90	437.68
479.08	428.32
479.26	456.40
479.44	409.59
479.62	407.25
479.80	484.49
479.98	414.27
480.16	428.32
480.34	447.04
480.52	402.57
480.70	404.91
480.88	468.11
481.06	425.98
481.24	379.17
481.41	409.59
481.59	383.85
481.77	440.02
481.95	470.45
482.13	496.19
482.31	458.74
482.49	447.04
482.67	393.21
482.85	369.80
483.03	386.19
483.21	332.36
483.39	475.13
483.57	390.87
483.74	409.59
483.92	374.49
484.10	379.17
484.28	421.30
484.46	395.55
484.64	428.32
484.82	425.98
485.00	395.55
485.18	472.79
485.35	365.12
485.53	437.68
485.71	442.36
485.89	468.11
486.07	433.00
486.25	454.06
486.43	461.09
486.61	416.62
486.78	447.04
486.96	395.55
487.14	479.81
487.32	430.66
487.50	386.19
487.68	418.96
487.85	423.64
488.03	470.45
488.21	411.93
488.39	437.68
488.57	418.96
488.75	341.72
488.92	433.00
489.10	395.55
489.28	409.59
489.46	447.04
489.64	428.32
489.81	325.33
489.99	440.02
490.17	386.19
490.35	430.66
490.53	379.17
490.70	388.53
490.88	418.96
491.06	372.15
491.24	393.21
491.41	479.81
491.59	407.25
491.77	402.57
491.95	411.93
492.13	430.66
492.30	451.72
492.48	498.53
492.66	400.23
492.84	468.11
493.01	421.30
493.19	465.77
493.37	381.51
493.54	365.12
493.72	402.57
493.90	393.21
494.08	449.38
494.25	451.72
494.43	404.91
494.61	395.55
494.79	440.02
494.96	430.66
495.14	454.06
495.32	447.04
495.49	414.27
495.67	437.68
495.85	428.32
496.02	358.10
496.20	425.98
496.38	444.70
496.55	376.83
496.73	423.64
496.91	451.72
497.09	397.89
497.26	463.43
497.44	346.40
497.62	411.93
497.79	418.96
497.97	409.59
498.14	351.08
498.32	437.68
498.50	442.36
498.67	444.70
498.85	372.15
499.03	433.00
499.20	454.06
499.38	374.49
499.56	423.64
499.73	400.23
499.91	411.93
500.08	461.09
500.26	346.40
500.44	493.85
500.61	458.74
500.79	433.00
500.97	416.62
501.14	395.55
501.32	374.49
501.49	458.74
501.67	367.46
501.84	393.21
502.02	421.30
502.20	458.74
502.37	475.13
502.55	418.96
502.72	402.57
502.90	379.17
503.07	400.23
503.25	442.36
503.43	379.17
503.60	386.19
503.78	454.06
503.95	409.59
504.13	447.04
504.30	486.83
504.48	397.89
504.65	489.17
504.83	365.12
505.01	365.12
505.18	449.38
505.36	388.53
505.53	358.10
505.71	346.40
505.88	337.04
506.06	395.55
506.23	414.27
506.41	491.51
506.58	362.78
506.76	411.93
506.93	423.64
507.11	470.45
507.28	421.30
507.46	437.68
507.63	449.38
507.81	428.32
507.98	395.55
508.16	365.12
508.33	477.47
508.50	411.93
508.68	414.27
508.85	402.57
509.03	454.06
509.20	428.32
509.38	379.17
509.55	379.17
509.73	416.62
509.90	526.62
510.08	437.68
510.25	353.42
510.42	351.08
510.60	400.23
510.77	397.89
510.95	472.79
511.12	451.72
511.30	397.89
511.47	437.68
511.64	479.81
511.82	409.59
511.99	355.76
512.17	430.66
512.34	437.68
512.51	390.87
512.69	407.25
512.86	423.64
513.04	461.09
513.21	430.66
513.38	414.27
513.56	482.15
513.73	433.00
513.90	367.46
514.08	425.98
514.25	454.06
514.43	404.91
514.60	376.83
514.77	418.96
514.95	440.02
515.12	416.62
515.29	423.64
515.47	435.34
515.64	416.62
515.81	470.45
515.99	484.49
516.16	475.13
516.33	421.30
516.51	306.61
516.68	397.89
516.85	489.17
517.03	404.91
517.20	416.62
517.37	451.72
517.54	379.17
517.72	477.47
517.89	393.21
518.06	418.96
518.24	376.83
518.41	519.60
518.58	451.72
518.75	479.81
518.93	402.57
519.10	512.58
519.27	430.66
519.45	388.53
519.62	351.08
519.79	428.32
519.96	367.46
520.14	418.96
520.31	540.66
520.48	477.47
520.65	435.34
520.83	376.83
521.00	402.57
521.17	411.93
521.34	374.49
521.52	433.00
521.69	337.04
521.86	421.30
522.03	416.62
522.20	475.13
522.38	339.38
522.55	379.17
522.72	374.49
522.89	451.72
523.07	393.21
523.24	381.51
523.41	433.00
523.58	358.10
523.75	365.12
523.92	421.30
524.10	393.21
524.27	447.04
524.44	440.02
524.61	498.53
524.78	470.45
524.96	393.21
525.13	388.53
525.30	386.19
525.47	444.70
525.64	395.55
525.81	435.34
525.98	482.15
526.16	435.34
526.33	390.87
526.50	339.38
526.67	348.74
526.84	404.91
527.01	454.06
527.18	461.09
527.36	416.62
527.53	404.91
527.70	365.12
527.87	402.57
528.04	397.89
528.21	425.98
528.38	463.43
528.55	383.85
528.72	372.15
528.89	479.81
529.07	430.66
529.24	451.72
529.41	465.77
529.58	433.00
529.75	390.87
529.92	435.34
530.09	362.78
530.26	517.26
530.43	379.17
530.60	418.96
530.77	346.40
530.94	428.32
531.11	451.72
531.28	365.12
531.46	390.87
531.63	440.02
531.80	451.72
531.97	421.30
532.14	486.83
532.31	428.32
532.48	409.59
532.65	330.02
532.82	447.04
532.99	400.23
533.16	418.96
533.33	411.93
533.50	372.15
533.67	390.87
533.84	353.42
534.01	404.91
534.18	402.57
534.35	447.04
534.52	395.55
534.69	388.53
534.86	416.62
535.03	374.49
535.20	437.68
535.37	465.77
535.54	442.36
535.71	416.62
535.88	430.66
536.05	348.74
536.22	388.53
536.38	376.83
536.55	519.60
536.72	461.09
536.89	435.34
537.06	360.44
537.23	447.04
537.40	472.79
537.57	407.25
537.74	461.09
537.91	358.10
538.08	451.72
538.25	465.77
538.42	409.59
538.59	444.70
538.75	430.66
538.92	437.68
539.09	444.70
539.26	383.85
539.43	468.11
539.60	454.06
539.77	425.98
539.94	374.49
540.11	411.93
540.28	470.45
540.44	407.25
540.61	418.96
540.78	440.02
540.95	407.25
541.12	461.09
541.29	440.02
541.46	421.30
541.62	390.87
541.79	395.55
541.96	416.62
542.13	461.09
542.30	463.43
542.47	456.40
542.63	393.21
542.80	433.00
542.97	463.43
543.14	348.74
543.31	428.32
543.48	433.00
543.64	468.11
543.81	402.57
543.98	411.93
544.15	447.04
544.32	395.55
544.48	341.72
544.65	407.25
544.82	400.23
544.99	463.43
545.16	433.00
545.32	435.34
545.49	372.15
545.66	430.66
545.83	433.00
546.00	397.89
546.16	381.51
546.33	428.32
546.50	402.57
546.67	390.87
546.83	395.55
547.00	360.44
547.17	477.47
547.34	367.46
547.50	395.55
547.67	351.08
547.84	496.19
548.00	440.02
548.17	402.57
548.34	369.80
548.51	418.96
548.67	444.70
548.84	407.25
549.01	402.57
549.18	379.17
549.34	416.62
549.51	379.17
549.68	470.45
549.84	418.96
550.01	454.06
550.18	468.11
550.34	484.49
550.51	428.32
550.68	395.55
550.84	482.15
551.01	437.68
551.18	407.25
551.34	379.17
551.51	430.66
551.68	447.04
551.84	411.93
552.01	395.55
552.18	461.09
552.34	433.00
552.51	437.68
552.68	484.49
552.84	428.32
553.01	339.38
553.18	461.09
553.34	381.51
553.51	369.80
553.67	388.53
553.84	496.19
554.01	423.64
554.17	440.02
554.34	390.87
554.51	428.32
554.67	411.93
554.84	376.83
555.00	437.68
555.17	390.87
555.33	442.36
555.50	365.12
555.67	379.17
555.83	416.62
556.00	386.19
556.16	531.30
556.33	423.64
556.50	414.27
556.66	416.62
556.83	360.44
556.99	404.91
557.16	512.58
557.32	442.36
557.49	393.21
557.65	421.30
557.82	365.12
557.98	423.64
558.15	498.53
558.32	397.89
558.48	418.96
558.65	461.09
558.81	428.32
558.98	428.32
559.14	409.59
559.31	411.93
559.47	374.49
559.64	409.59
559.80	393.21
559.97	458.74
560.13	437.68
560.30	423.64
560.46	449.38
560.63	411.93
560.79	367.46
560.96	454.06
561.12	381.51
561.29	404.91
561.45	440.02
561.61	423.64
561.78	414.27
561.94	482.15
562.11	374.49
562.27	451.72
562.44	421.30
562.60	381.51
562.77	397.89
562.93	524.28
563.10	444.70
563.26	390.87
563.42	372.15
563.59	442.36
563.75	437.68
563.92	355.76
564.08	479.81
564.24	463.43
564.41	458.74
564.57	393.21
564.74	358.10
564.90	416.62
565.07	411.93
565.23	435.34
565.39	362.78
565.56	425.98
565.72	458.74
565.88	418.96
566.05	430.66
566.21	430.66
566.38	512.58
566.54	447.04
566.70	404.91
566.87	463.43
567.03	400.23
567.19	433.00
567.36	395.55
567.52	414.27
567.68	355.76
567.85	374.49
568.01	414.27
568.17	416.62
568.34	423.64
568.50	468.11
568.66	388.53
568.83	465.77
568.99	416.62
569.15	454.06
569.32	414.27
569.48	416.62
569.64	369.80
569.81	435.34
569.97	376.83
570.13	465.77
570.30	374.49
570.46	451.72
570.62	447.04
570.78	442.36
570.95	395.55
571.11	512.58
571.27	451.72
571.43	425.98
571.60	383.85
571.76	409.59
571.92	353.42
572.09	395.55
572.25	383.85
572.41	390.87
572.57	430.66
572.74	493.85
572.90	407.25
573.06	433.00
573.22	311.29
573.38	407.25
573.55	402.57
573.71	433.00
573.87	358.10
574.03	339.38
574.20	374.49
574.36	449.38
574.52	444.70
574.68	433.00
574.84	451.72
575.01	395.55
575.17	465.77
575.33	465.77
575.49	512.58
575.65	421.30
575.82	465.77
575.98	463.43
576.14	383.85
576.30	421.30
576.46	486.83
576.62	468.11
576.79	437.68
576.95	449.38
577.11	397.89
577.27	390.87
577.43	489.17
577.59	440.02
577.75	447.04
577.92	428.32
578.08	468.11
578.24	421.30
578.40	470.45
578.56	465.77
578.72	430.66
578.88	442.36
579.04	423.64
579.21	489.17
579.37	397.89
579.53	442.36
579.69	543.00
579.85	395.55
580.01	383.85
580.17	397.89
580.33	390.87
580.49	402.57
580.65	461.09
580.82	386.19
580.98	435.34
581.14	327.68
581.30	390.87
581.46	470.45
581.62	444.70
581.78	435.34
581.94	491.51
582.10	404.91
582.26	404.91
582.42	393.21
582.58	465.77
582.74	425.98
582.90	369.80
583.06	470.45
583.22	383.85
583.38	458.74
583.54	365.12
583.70	425.98
583.86	468.11
584.02	388.53
584.18	428.32
584.34	447.04
584.50	418.96
584.66	416.62
584.82	400.23
584.98	390.87
585.14	402.57
585.30	397.89
585.46	425.98
585.62	369.80
585.78	444.70
585.94	470.45
586.10	416.62
586.26	479.81
586.42	411.93
586.58	390.87
586.74	402.57
586.90	440.02
587.06	362.78
587.22	433.00
587.38	435.34
587.54	423.64
587.70	409.59
587.86	482.15
588.02	402.57
588.18	449.38
588.34	381.51
588.49	374.49
588.65	454.06
588.81	315.97
588.97	421.30
589.13	437.68
589.29	421.30
589.45	442.36
589.61	388.53
589.77	416.62
589.93	355.76
590.08	423.64
590.24	393.21
590.40	386.19
590.56	451.72
590.72	381.51
590.88	327.68
591.04	435.34
591.20	456.40
591.35	411.93
591.51	454.06
591.67	428.32
591.83	322.99
591.99	407.25
592.15	538.32
592.31	395.55
592.46	407.25
592.62	376.83
592.78	414.27
592.94	397.89
593.10	425.98
593.26	367.46
593.41	409.59
593.57	472.79
593.73	376.83
593.89	407.25
594.05	400.23
594.20	486.83
594.36	425.98
594.52	404.91
594.68	435.34
594.84	395.55
594.99	472.79
595.15	397.89
595.31	447.04
595.47	411.93
595.62	397.89
595.78	346.40
595.94	383.85
596.10	409.59
596.25	496.19
596.41	411.93
596.57	425.98
596.73	449.38
596.88	372.15
597.04	468.11
597.20	503.22
597.36	402.57
597.51	362.78
597.67	425.98
597.83	425.98
597.99	451.72
598.14	409.59
598.30	447.04
598.46	435.34
598.61	416.62
598.77	451.72
598.93	430.66
599.09	437.68
599.24	358.10
599.40	409.59
599.56	383.85
599.71	423.64
599.87	416.62
600.03	402.57
600.18	437.68
600.34	351.08
600.50	397.89
600.65	362.78
600.81	440.02
600.97	386.19
601.12	416.62
601.28	409.59
601.44	390.87
601.59	451.72
601.75	400.23
601.91	400.23
602.06	423.64
602.22	458.74
602.37	458.74
602.53	458.74
602.69	479.81
602.84	428.32
603.00	437.68
603.16	400.23
603.31	449.38
603.47	414.27
603.62	428.32
603.78	395.55
603.94	435.34
604.09	407.25
604.25	468.11
604.40	425.98
604.56	355.76
604.71	404.91
604.87	414.27
605.03	454.06
605.18	421.30
605.34	458.74
605.49	461.09
605.65	512.58
605.80	397.89
605.96	425.98
606.12	423.64
606.27	465.77
606.43	407.25
606.58	376.83
606.74	463.43
606.89	449.38
607.05	465.77
607.20	421.30
607.36	414.27
607.51	451.72
607.67	404.91
607.82	440.02
607.98	440.02
608.13	472.79
608.29	449.38
608.44	500.87
608.60	374.49
608.75	461.09
608.91	418.96
609.06	440.02
609.22	433.00
609.37	346.40
609.53	383.85
609.68	379.17
609.84	425.98
609.99	411.93
610.15	381.51
