SpectraSuite Data File
++++++++++++++++++++++++++++++++++++
Date: Fri Oct 25 12:11:25 EDT 2013
User: price-jones
Dark Spectrum Present: No
Reference Spectrum Present: No
Number of Sampled Component Spectra: 1
Spectrometers: USB2+H05261
Integration Time (usec): 100000 (USB2+H05261)
Spectra Averaged: 1 (USB2+H05261)
Boxcar Smoothing: 0 (USB2+H05261)
Correct for Electrical Dark: No (USB2+H05261)
Strobe/Lamp Enabled: No (USB2+H05261)
Correct for Detector Non-linearity: No (USB2+H05261)
Correct for Stray Light: No (USB2+H05261)
Number of Pixels in Processed Spectrum: 2048
>>>>>Begin Processed Spectral Data<<<<<
365.73	348.74
365.92	348.74
366.12	348.74
366.32	264.48
366.52	227.03
366.72	306.61
366.91	259.80
367.11	238.73
367.31	257.46
367.51	198.95
367.70	238.73
367.90	227.03
368.10	184.90
368.30	252.78
368.49	224.69
368.69	299.59
368.89	259.80
369.09	259.80
369.28	255.12
369.48	266.82
369.68	224.69
369.87	355.76
370.07	266.82
370.27	334.70
370.47	341.72
370.66	308.95
370.86	383.85
371.06	339.38
371.25	409.59
371.45	360.44
371.65	435.34
371.84	411.93
372.04	390.87
372.24	322.99
372.44	367.46
372.63	407.25
372.83	395.55
373.03	421.30
373.22	369.80
373.42	390.87
373.62	461.09
373.81	472.79
374.01	442.36
374.21	402.57
374.40	433.00
374.60	482.15
374.79	414.27
374.99	409.59
375.19	456.40
375.38	449.38
375.58	425.98
375.78	379.17
375.97	475.13
376.17	428.32
376.37	358.10
376.56	444.70
376.76	348.74
376.95	395.55
377.15	411.93
377.35	383.85
377.54	404.91
377.74	421.30
377.93	425.98
378.13	400.23
378.33	407.25
378.52	402.57
378.72	395.55
378.91	411.93
379.11	444.70
379.31	444.70
379.50	423.64
379.70	482.15
379.89	524.28
380.09	355.76
380.28	369.80
380.48	400.23
380.68	374.49
380.87	425.98
381.07	358.10
381.26	402.57
381.46	374.49
381.65	428.32
381.85	374.49
382.04	379.17
382.24	393.21
382.43	470.45
382.63	365.12
382.83	379.17
383.02	425.98
383.22	489.17
383.41	393.21
383.61	372.15
383.80	440.02
384.00	444.70
384.19	365.12
384.39	458.74
384.58	397.89
384.78	376.83
384.97	353.42
385.17	468.11
385.36	383.85
385.56	372.15
385.75	421.30
385.95	402.57
386.14	411.93
386.34	409.59
386.53	421.30
386.72	383.85
386.92	468.11
387.11	416.62
387.31	433.00
387.50	411.93
387.70	351.08
387.89	353.42
388.09	376.83
388.28	402.57
388.48	365.12
388.67	484.49
388.86	365.12
389.06	390.87
389.25	360.44
389.45	355.76
389.64	358.10
389.84	430.66
390.03	416.62
390.22	404.91
390.42	447.04
390.61	358.10
390.81	388.53
391.00	393.21
391.19	512.58
391.39	414.27
391.58	423.64
391.78	381.51
391.97	346.40
392.16	428.32
392.36	430.66
392.55	416.62
392.75	416.62
392.94	416.62
393.13	444.70
393.33	346.40
393.52	395.55
393.71	454.06
393.91	390.87
394.10	374.49
394.29	404.91
394.49	407.25
394.68	388.53
394.88	475.13
395.07	402.57
395.26	365.12
395.46	367.46
395.65	442.36
395.84	486.83
396.04	491.51
396.23	428.32
396.42	393.21
396.62	465.77
396.81	395.55
397.00	407.25
397.19	395.55
397.39	397.89
397.58	463.43
397.77	388.53
397.97	409.59
398.16	411.93
398.35	390.87
398.55	414.27
398.74	386.19
398.93	414.27
399.12	411.93
399.32	395.55
399.51	390.87
399.70	393.21
399.90	388.53
400.09	451.72
400.28	461.09
400.47	451.72
400.67	411.93
400.86	416.62
401.05	381.51
401.24	449.38
401.44	397.89
401.63	407.25
401.82	472.79
402.01	369.80
402.21	451.72
402.40	449.38
402.59	461.09
402.78	379.17
402.97	423.64
403.17	341.72
403.36	411.93
403.55	423.64
403.74	444.70
403.93	402.57
404.13	468.11
404.32	358.10
404.51	433.00
404.70	397.89
404.89	400.23
405.09	465.77
405.28	463.43
405.47	425.98
405.66	447.04
405.85	416.62
406.05	376.83
406.24	386.19
406.43	367.46
406.62	433.00
406.81	430.66
407.00	472.79
407.20	292.57
407.39	409.59
407.58	362.78
407.77	425.98
407.96	440.02
408.15	409.59
408.34	407.25
408.54	519.60
408.73	402.57
408.92	409.59
409.11	411.93
409.30	397.89
409.49	376.83
409.68	402.57
409.87	440.02
410.07	421.30
410.26	430.66
410.45	447.04
410.64	367.46
410.83	418.96
411.02	404.91
411.21	447.04
411.40	409.59
411.59	414.27
411.78	475.13
411.98	376.83
412.17	402.57
412.36	327.68
412.55	447.04
412.74	388.53
412.93	491.51
413.12	430.66
413.31	423.64
413.50	409.59
413.69	407.25
413.88	433.00
414.07	395.55
414.26	372.15
414.45	425.98
414.64	407.25
414.83	461.09
415.02	393.21
415.22	447.04
415.41	383.85
415.60	449.38
415.79	433.00
415.98	437.68
416.17	421.30
416.36	470.45
416.55	346.40
416.74	418.96
416.93	433.00
417.12	423.64
417.31	414.27
417.50	421.30
417.69	458.74
417.88	440.02
418.07	409.59
418.26	341.72
418.45	374.49
418.64	397.89
418.83	451.72
419.02	449.38
419.21	463.43
419.39	428.32
419.58	428.32
419.77	358.10
419.96	397.89
420.15	397.89
420.34	414.27
420.53	411.93
420.72	402.57
420.91	461.09
421.10	421.30
421.29	372.15
421.48	397.89
421.67	428.32
421.86	409.59
422.05	428.32
422.24	395.55
422.43	444.70
422.61	428.32
422.80	395.55
422.99	440.02
423.18	388.53
423.37	433.00
423.56	421.30
423.75	468.11
423.94	440.02
424.13	437.68
424.32	332.36
424.50	402.57
424.69	418.96
424.88	416.62
425.07	397.89
425.26	400.23
425.45	400.23
425.64	393.21
425.83	402.57
426.01	404.91
426.20	379.17
426.39	390.87
426.58	407.25
426.77	433.00
426.96	414.27
427.15	353.42
427.33	327.68
427.52	423.64
427.71	428.32
427.90	360.44
428.09	423.64
428.28	418.96
428.46	334.70
428.65	461.09
428.84	461.09
429.03	514.92
429.22	397.89
429.40	383.85
429.59	442.36
429.78	407.25
429.97	407.25
430.16	390.87
430.34	454.06
430.53	409.59
430.72	379.17
430.91	421.30
431.10	386.19
431.28	414.27
431.47	383.85
431.66	402.57
431.85	440.02
432.03	486.83
432.22	484.49
432.41	397.89
432.60	423.64
432.79	407.25
432.97	430.66
433.16	416.62
433.35	416.62
433.54	435.34
433.72	437.68
433.91	337.04
434.10	430.66
434.28	468.11
434.47	451.72
434.66	397.89
434.85	440.02
435.03	402.57
435.22	465.77
435.41	451.72
435.59	372.15
435.78	402.57
435.97	386.19
436.16	475.13
436.34	435.34
436.53	454.06
436.72	503.22
436.90	484.49
437.09	449.38
437.28	365.12
437.46	393.21
437.65	458.74
437.84	386.19
438.02	393.21
438.21	440.02
438.40	355.76
438.58	355.76
438.77	428.32
438.96	437.68
439.14	369.80
439.33	374.49
439.52	341.72
439.70	421.30
439.89	444.70
440.08	454.06
440.26	482.15
440.45	479.81
440.63	386.19
440.82	353.42
441.01	404.91
441.19	383.85
441.38	421.30
441.57	360.44
441.75	407.25
441.94	421.30
442.12	402.57
442.31	397.89
442.50	435.34
442.68	440.02
442.87	451.72
443.05	451.72
443.24	456.40
443.43	409.59
443.61	461.09
443.80	442.36
443.98	433.00
444.17	376.83
444.35	425.98
444.54	386.19
444.73	423.64
444.91	435.34
445.10	397.89
445.28	388.53
445.47	397.89
445.65	386.19
445.84	379.17
446.02	390.87
446.21	397.89
446.39	428.32
446.58	472.79
446.77	383.85
446.95	444.70
447.14	500.87
447.32	433.00
447.51	458.74
447.69	353.42
447.88	421.30
448.06	390.87
448.25	451.72
448.43	433.00
448.62	447.04
448.80	437.68
448.99	430.66
449.17	372.15
449.36	362.78
449.54	414.27
449.73	482.15
449.91	484.49
450.10	404.91
450.28	477.47
450.46	454.06
450.65	372.15
450.83	369.80
451.02	418.96
451.20	503.22
451.39	482.15
451.57	458.74
451.76	414.27
451.94	440.02
452.13	468.11
452.31	390.87
452.49	465.77
452.68	411.93
452.86	421.30
453.05	409.59
453.23	416.62
453.42	435.34
453.60	395.55
453.78	395.55
453.97	395.55
454.15	393.21
454.34	440.02
454.52	395.55
454.70	421.30
454.89	416.62
455.07	437.68
455.26	402.57
455.44	374.49
455.62	430.66
455.81	468.11
455.99	407.25
456.17	418.96
456.36	447.04
456.54	383.85
456.73	414.27
456.91	477.47
457.09	414.27
457.28	454.06
457.46	369.80
457.64	423.64
457.83	383.85
458.01	437.68
458.19	447.04
458.38	346.40
458.56	409.59
458.74	388.53
458.93	449.38
459.11	381.51
459.29	397.89
459.48	395.55
459.66	421.30
459.84	425.98
460.03	498.53
460.21	407.25
460.39	383.85
460.57	435.34
460.76	442.36
460.94	365.12
461.12	421.30
461.31	402.57
461.49	435.34
461.67	393.21
461.85	425.98
462.04	379.17
462.22	648.33
462.40	397.89
462.59	470.45
462.77	402.57
462.95	404.91
463.13	395.55
463.32	477.47
463.50	423.64
463.68	433.00
463.86	444.70
464.05	414.27
464.23	416.62
464.41	379.17
464.59	428.32
464.78	435.34
464.96	386.19
465.14	379.17
465.32	365.12
465.50	421.30
465.69	379.17
465.87	376.83
466.05	388.53
466.23	320.65
466.41	383.85
466.60	428.32
466.78	437.68
466.96	444.70
467.14	447.04
467.32	390.87
467.51	430.66
467.69	416.62
467.87	425.98
468.05	374.49
468.23	449.38
468.41	402.57
468.60	409.59
468.78	376.83
468.96	428.32
469.14	430.66
469.32	374.49
469.50	381.51
469.69	437.68
469.87	379.17
470.05	346.40
470.23	463.43
470.41	472.79
470.59	337.04
470.77	425.98
470.95	386.19
471.14	461.09
471.32	442.36
471.50	458.74
471.68	407.25
471.86	430.66
472.04	374.49
472.22	332.36
472.40	353.42
472.58	421.30
472.77	374.49
472.95	386.19
473.13	425.98
473.31	428.32
473.49	397.89
473.67	397.89
473.85	416.62
474.03	397.89
474.21	386.19
474.39	423.64
474.57	479.81
474.75	435.34
474.93	423.64
475.12	386.19
475.30	475.13
475.48	428.32
475.66	407.25
475.84	418.96
476.02	428.32
476.20	369.80
476.38	449.38
476.56	482.15
476.74	463.43
476.92	383.85
477.10	416.62
477.28	381.51
477.46	407.25
477.64	461.09
477.82	388.53
478.00	411.93
478.18	425.98
478.36	395.55
478.54	442.36
478.72	425.98
478.90	421.30
479.08	402.57
479.26	409.59
479.44	409.59
479.62	425.98
479.80	409.59
479.98	386.19
480.16	435.34
480.34	451.72
480.52	376.83
480.70	365.12
480.88	376.83
481.06	376.83
481.24	442.36
481.41	435.34
481.59	503.22
481.77	454.06
481.95	423.64
482.13	418.96
482.31	390.87
482.49	390.87
482.67	435.34
482.85	383.85
483.03	393.21
483.21	449.38
483.39	411.93
483.57	444.70
483.74	475.13
483.92	423.64
484.10	442.36
484.28	430.66
484.46	498.53
484.64	397.89
484.82	433.00
485.00	409.59
485.18	421.30
485.35	388.53
485.53	400.23
485.71	402.57
485.89	344.06
486.07	402.57
486.25	421.30
486.43	444.70
486.61	428.32
486.78	465.77
486.96	390.87
487.14	407.25
487.32	390.87
487.50	383.85
487.68	383.85
487.85	475.13
488.03	395.55
488.21	433.00
488.39	379.17
488.57	433.00
488.75	330.02
488.92	444.70
489.10	440.02
489.28	409.59
489.46	409.59
489.64	397.89
489.81	428.32
489.99	409.59
490.17	433.00
490.35	500.87
490.53	444.70
490.70	386.19
490.88	390.87
491.06	423.64
491.24	444.70
491.41	482.15
491.59	477.47
491.77	327.68
491.95	444.70
492.13	447.04
492.30	472.79
492.48	418.96
492.66	386.19
492.84	400.23
493.01	449.38
493.19	414.27
493.37	395.55
493.54	407.25
493.72	390.87
493.90	376.83
494.08	400.23
494.25	433.00
494.43	400.23
494.61	435.34
494.79	390.87
494.96	381.51
495.14	400.23
495.32	397.89
495.49	404.91
495.67	463.43
495.85	337.04
496.02	470.45
496.20	386.19
496.38	404.91
496.55	442.36
496.73	470.45
496.91	468.11
497.09	425.98
497.26	414.27
497.44	428.32
497.62	442.36
497.79	421.30
497.97	430.66
498.14	449.38
498.32	381.51
498.50	383.85
498.67	386.19
498.85	507.90
499.03	351.08
499.20	360.44
499.38	423.64
499.56	425.98
499.73	468.11
499.91	444.70
500.08	437.68
500.26	388.53
500.44	444.70
500.61	407.25
500.79	482.15
500.97	372.15
501.14	341.72
501.32	435.34
501.49	456.40
501.67	386.19
501.84	402.57
502.02	386.19
502.20	351.08
502.37	402.57
502.55	365.12
502.72	355.76
502.90	482.15
503.07	428.32
503.25	393.21
503.43	379.17
503.60	418.96
503.78	402.57
503.95	388.53
504.13	367.46
504.30	447.04
504.48	386.19
504.65	416.62
504.83	337.04
505.01	449.38
505.18	425.98
505.36	327.68
505.53	322.99
505.71	463.43
505.88	430.66
506.06	414.27
506.23	383.85
506.41	425.98
506.58	425.98
506.76	468.11
506.93	369.80
507.11	430.66
507.28	348.74
507.46	461.09
507.63	442.36
507.81	425.98
507.98	454.06
508.16	437.68
508.33	409.59
508.50	411.93
508.68	397.89
508.85	411.93
509.03	386.19
509.20	393.21
509.38	444.70
509.55	400.23
509.73	440.02
509.90	500.87
510.08	379.17
510.25	430.66
510.42	404.91
510.60	430.66
510.77	458.74
510.95	393.21
511.12	425.98
511.30	437.68
511.47	440.02
511.64	503.22
511.82	400.23
511.99	355.76
512.17	404.91
512.34	379.17
512.51	388.53
512.69	386.19
512.86	442.36
513.04	355.76
513.21	465.77
513.38	435.34
513.56	421.30
513.73	425.98
513.90	386.19
514.08	346.40
514.25	409.59
514.43	395.55
514.60	369.80
514.77	519.60
514.95	402.57
515.12	374.49
515.29	418.96
515.47	454.06
515.64	433.00
515.81	351.08
515.99	414.27
516.16	461.09
516.33	397.89
516.51	390.87
516.68	304.27
516.85	423.64
517.03	461.09
517.20	386.19
517.37	393.21
517.54	407.25
517.72	463.43
517.89	374.49
518.06	442.36
518.24	437.68
518.41	496.19
518.58	381.51
518.75	383.85
518.93	425.98
519.10	428.32
519.27	430.66
519.45	365.12
519.62	423.64
519.79	479.81
519.96	409.59
520.14	428.32
520.31	425.98
520.48	472.79
520.65	433.00
520.83	444.70
521.00	461.09
521.17	433.00
521.34	409.59
521.52	428.32
521.69	383.85
521.86	421.30
522.03	430.66
522.20	423.64
522.38	351.08
522.55	435.34
522.72	383.85
522.89	388.53
523.07	465.77
523.24	428.32
523.41	409.59
523.58	458.74
523.75	400.23
523.92	388.53
524.10	395.55
524.27	397.89
524.44	402.57
524.61	444.70
524.78	416.62
524.96	402.57
525.13	425.98
525.30	465.77
525.47	411.93
525.64	374.49
525.81	418.96
525.98	421.30
526.16	463.43
526.33	383.85
526.50	461.09
526.67	444.70
526.84	414.27
527.01	409.59
527.18	425.98
527.36	404.91
527.53	397.89
527.70	475.13
527.87	395.55
528.04	451.72
528.21	376.83
528.38	477.47
528.55	351.08
528.72	437.68
528.89	482.15
529.07	468.11
529.24	416.62
529.41	447.04
529.58	440.02
529.75	409.59
529.92	390.87
530.09	397.89
530.26	404.91
530.43	425.98
530.60	407.25
530.77	440.02
530.94	372.15
531.11	425.98
531.28	416.62
531.46	444.70
531.63	435.34
531.80	423.64
531.97	402.57
532.14	404.91
532.31	416.62
532.48	430.66
532.65	353.42
532.82	447.04
532.99	458.74
533.16	425.98
533.33	348.74
533.50	374.49
533.67	451.72
533.84	449.38
534.01	421.30
534.18	500.87
534.35	517.26
534.52	428.32
534.69	456.40
534.86	348.74
535.03	395.55
535.20	390.87
535.37	423.64
535.54	404.91
535.71	400.23
535.88	433.00
536.05	337.04
536.22	458.74
536.38	418.96
536.55	353.42
536.72	437.68
536.89	496.19
537.06	451.72
537.23	482.15
537.40	365.12
537.57	433.00
537.74	421.30
537.91	470.45
538.08	447.04
538.25	414.27
538.42	456.40
538.59	442.36
538.75	416.62
538.92	390.87
539.09	468.11
539.26	358.10
539.43	447.04
539.60	409.59
539.77	465.77
539.94	388.53
540.11	400.23
540.28	458.74
540.44	458.74
540.61	376.83
540.78	442.36
540.95	362.78
541.12	409.59
541.29	383.85
541.46	423.64
541.62	322.99
541.79	444.70
541.96	376.83
542.13	400.23
542.30	344.06
542.47	472.79
542.63	393.21
542.80	444.70
542.97	442.36
543.14	538.32
543.31	416.62
543.48	372.15
543.64	430.66
543.81	456.40
543.98	414.27
544.15	353.42
544.32	430.66
544.48	517.26
544.65	374.49
544.82	468.11
544.99	379.17
545.16	393.21
545.32	447.04
545.49	430.66
545.66	433.00
545.83	390.87
546.00	353.42
546.16	379.17
546.33	449.38
546.50	397.89
546.67	482.15
546.83	388.53
547.00	404.91
547.17	379.17
547.34	381.51
547.50	428.32
547.67	472.79
547.84	449.38
548.00	470.45
548.17	428.32
548.34	301.93
548.51	472.79
548.67	425.98
548.84	390.87
549.01	411.93
549.18	468.11
549.34	444.70
549.51	353.42
549.68	425.98
549.84	454.06
550.01	388.53
550.18	482.15
550.34	477.47
550.51	475.13
550.68	433.00
550.84	381.51
551.01	425.98
551.18	505.56
551.34	358.10
551.51	374.49
551.68	437.68
551.84	388.53
552.01	386.19
552.18	402.57
552.34	369.80
552.51	468.11
552.68	386.19
552.84	337.04
553.01	409.59
553.18	437.68
553.34	393.21
553.51	404.91
553.67	447.04
553.84	470.45
554.01	402.57
554.17	465.77
554.34	451.72
554.51	521.94
554.67	475.13
554.84	390.87
555.00	428.32
555.17	433.00
555.33	449.38
555.50	489.17
555.67	402.57
555.83	386.19
556.00	454.06
556.16	540.66
556.33	526.62
556.50	414.27
556.66	442.36
556.83	409.59
556.99	369.80
557.16	514.92
557.32	404.91
557.49	444.70
557.65	393.21
557.82	388.53
557.98	433.00
558.15	360.44
558.32	421.30
558.48	393.21
558.65	360.44
558.81	383.85
558.98	362.78
559.14	430.66
559.31	386.19
559.47	372.15
559.64	388.53
559.80	418.96
559.97	381.51
560.13	465.77
560.30	411.93
560.46	379.17
560.63	430.66
560.79	451.72
560.96	433.00
561.12	425.98
561.29	456.40
561.45	461.09
561.61	421.30
561.78	454.06
561.94	454.06
562.11	449.38
562.27	390.87
562.44	353.42
562.60	402.57
562.77	411.93
562.93	477.47
563.10	407.25
563.26	423.64
563.42	433.00
563.59	404.91
563.75	425.98
563.92	477.47
564.08	393.21
564.24	367.46
564.41	388.53
564.57	388.53
564.74	430.66
564.90	491.51
565.07	526.62
565.23	425.98
565.39	425.98
565.56	430.66
565.72	440.02
565.88	456.40
566.05	362.78
566.21	397.89
566.38	505.56
566.54	411.93
566.70	425.98
566.87	414.27
567.03	468.11
567.19	409.59
567.36	514.92
567.52	451.72
567.68	418.96
567.85	433.00
568.01	451.72
568.17	395.55
568.34	451.72
568.50	465.77
568.66	397.89
568.83	507.90
568.99	425.98
569.15	449.38
569.32	416.62
569.48	322.99
569.64	418.96
569.81	456.40
569.97	414.27
570.13	465.77
570.30	402.57
570.46	376.83
570.62	367.46
570.78	458.74
570.95	425.98
571.11	444.70
571.27	528.96
571.43	437.68
571.60	479.81
571.76	423.64
571.92	390.87
572.09	374.49
572.25	454.06
572.41	425.98
572.57	386.19
572.74	428.32
572.90	435.34
573.06	430.66
573.22	381.51
573.38	423.64
573.55	482.15
573.71	477.47
573.87	374.49
574.03	442.36
574.20	440.02
574.36	407.25
574.52	358.10
574.68	423.64
574.84	444.70
575.01	479.81
575.17	440.02
575.33	397.89
575.49	482.15
575.65	418.96
575.82	468.11
575.98	418.96
576.14	362.78
576.30	440.02
576.46	458.74
576.62	442.36
576.79	447.04
576.95	397.89
577.11	374.49
577.27	486.83
577.43	468.11
577.59	428.32
577.75	395.55
577.92	414.27
578.08	442.36
578.24	461.09
578.40	423.64
578.56	463.43
578.72	395.55
578.88	409.59
579.04	369.80
579.21	430.66
579.37	449.38
579.53	358.10
579.69	425.98
579.85	351.08
580.01	400.23
580.17	477.47
580.33	463.43
580.49	404.91
580.65	468.11
580.82	353.42
580.98	454.06
581.14	381.51
581.30	484.49
581.46	498.53
581.62	402.57
581.78	451.72
581.94	381.51
582.10	433.00
582.26	353.42
582.42	425.98
582.58	433.00
582.74	374.49
582.90	397.89
583.06	421.30
583.22	407.25
583.38	451.72
583.54	358.10
583.70	489.17
583.86	400.23
584.02	423.64
584.18	486.83
584.34	433.00
584.50	388.53
584.66	458.74
584.82	402.57
584.98	433.00
585.14	496.19
585.30	416.62
585.46	444.70
585.62	447.04
585.78	456.40
585.94	414.27
586.10	381.51
586.26	428.32
586.42	425.98
586.58	456.40
586.74	411.93
586.90	454.06
587.06	465.77
587.22	367.46
587.38	411.93
587.54	430.66
587.70	440.02
587.86	451.72
588.02	461.09
588.18	409.59
588.34	407.25
588.49	409.59
588.65	404.91
588.81	407.25
588.97	362.78
589.13	418.96
589.29	451.72
589.45	355.76
589.61	404.91
589.77	404.91
589.93	388.53
590.08	435.34
590.24	404.91
590.40	407.25
590.56	430.66
590.72	407.25
590.88	442.36
591.04	447.04
591.20	430.66
591.35	437.68
591.51	458.74
591.67	411.93
591.83	381.51
591.99	365.12
592.15	362.78
592.31	491.51
592.46	437.68
592.62	463.43
592.78	388.53
592.94	395.55
593.10	393.21
593.26	409.59
593.41	425.98
593.57	498.53
593.73	465.77
593.89	425.98
594.05	437.68
594.20	395.55
594.36	437.68
594.52	353.42
594.68	430.66
594.84	442.36
594.99	472.79
595.15	444.70
595.31	425.98
595.47	461.09
595.62	433.00
595.78	447.04
595.94	393.21
596.10	442.36
596.25	407.25
596.41	402.57
596.57	386.19
596.73	379.17
596.88	393.21
597.04	411.93
597.20	418.96
597.36	454.06
597.51	433.00
597.67	374.49
597.83	381.51
597.99	421.30
598.14	423.64
598.30	461.09
598.46	393.21
598.61	423.64
598.77	454.06
598.93	411.93
599.09	379.17
599.24	498.53
599.40	341.72
599.56	468.11
599.71	339.38
599.87	409.59
600.03	484.49
600.18	381.51
600.34	449.38
600.50	315.97
600.65	437.68
600.81	496.19
600.97	421.30
601.12	425.98
601.28	498.53
601.44	379.17
601.59	411.93
601.75	407.25
601.91	404.91
602.06	433.00
602.22	425.98
602.37	383.85
602.53	388.53
602.69	491.51
602.84	433.00
603.00	390.87
603.16	514.92
603.31	440.02
603.47	463.43
603.62	407.25
603.78	465.77
603.94	463.43
604.09	372.15
604.25	430.66
604.40	409.59
604.56	437.68
604.71	430.66
604.87	341.72
605.03	433.00
605.18	407.25
605.34	435.34
605.49	433.00
605.65	414.27
605.80	409.59
605.96	409.59
606.12	393.21
606.27	533.64
606.43	374.49
606.58	397.89
606.74	449.38
606.89	421.30
607.05	393.21
607.20	449.38
607.36	355.76
607.51	404.91
607.67	475.13
607.82	503.22
607.98	416.62
608.13	433.00
608.29	388.53
608.44	411.93
608.60	437.68
608.75	470.45
608.91	395.55
609.06	447.04
609.22	470.45
609.37	353.42
609.53	358.10
609.68	390.87
609.84	425.98
609.99	484.49
610.15	468.11
