SpectraSuite Data File
++++++++++++++++++++++++++++++++++++
Date: Fri Oct 25 12:11:18 EDT 2013
User: price-jones
Dark Spectrum Present: No
Reference Spectrum Present: No
Number of Sampled Component Spectra: 1
Spectrometers: USB2+H05261
Integration Time (usec): 100000 (USB2+H05261)
Spectra Averaged: 1 (USB2+H05261)
Boxcar Smoothing: 0 (USB2+H05261)
Correct for Electrical Dark: No (USB2+H05261)
Strobe/Lamp Enabled: No (USB2+H05261)
Correct for Detector Non-linearity: No (USB2+H05261)
Correct for Stray Light: No (USB2+H05261)
Number of Pixels in Processed Spectrum: 2048
>>>>>Begin Processed Spectral Data<<<<<
365.73	271.50
365.92	271.50
366.12	271.50
366.32	318.31
366.52	227.03
366.72	262.14
366.91	252.78
367.11	252.78
367.31	198.95
367.51	245.76
367.70	283.20
367.90	266.82
368.10	243.42
368.30	266.82
368.49	229.37
368.69	266.82
368.89	287.89
369.09	252.78
369.28	203.63
369.48	278.52
369.68	262.14
369.87	341.72
370.07	234.05
370.27	332.36
370.47	332.36
370.66	348.74
370.86	360.44
371.06	381.51
371.25	369.80
371.45	395.55
371.65	313.63
371.84	397.89
372.04	383.85
372.24	418.96
372.44	337.04
372.63	341.72
372.83	435.34
373.03	341.72
373.22	421.30
373.42	388.53
373.62	433.00
373.81	402.57
374.01	407.25
374.21	454.06
374.40	388.53
374.60	505.56
374.79	423.64
374.99	383.85
375.19	444.70
375.38	458.74
375.58	482.15
375.78	470.45
375.97	404.91
376.17	416.62
376.37	402.57
376.56	388.53
376.76	440.02
376.95	395.55
377.15	435.34
377.35	437.68
377.54	397.89
377.74	454.06
377.93	414.27
378.13	447.04
378.33	313.63
378.52	423.64
378.72	423.64
378.91	330.02
379.11	372.15
379.31	411.93
379.50	442.36
379.70	362.78
379.89	423.64
380.09	402.57
380.28	386.19
380.48	416.62
380.68	402.57
380.87	409.59
381.07	372.15
381.26	369.80
381.46	404.91
381.65	372.15
381.85	355.76
382.04	358.10
382.24	461.09
382.43	404.91
382.63	348.74
382.83	372.15
383.02	365.12
383.22	393.21
383.41	430.66
383.61	409.59
383.80	449.38
384.00	428.32
384.19	330.02
384.39	440.02
384.58	433.00
384.78	435.34
384.97	447.04
385.17	423.64
385.36	390.87
385.56	393.21
385.75	435.34
385.95	433.00
386.14	407.25
386.34	423.64
386.53	458.74
386.72	386.19
386.92	376.83
387.11	411.93
387.31	418.96
387.50	416.62
387.70	374.49
387.89	400.23
388.09	379.17
388.28	423.64
388.48	404.91
388.67	444.70
388.86	437.68
389.06	383.85
389.25	374.49
389.45	386.19
389.64	311.29
389.84	404.91
390.03	411.93
390.22	414.27
390.42	411.93
390.61	423.64
390.81	353.42
391.00	421.30
391.19	393.21
391.39	393.21
391.58	386.19
391.78	425.98
391.97	409.59
392.16	411.93
392.36	500.87
392.55	400.23
392.75	414.27
392.94	397.89
393.13	374.49
393.33	358.10
393.52	400.23
393.71	451.72
393.91	416.62
394.10	395.55
394.29	435.34
394.49	421.30
394.68	358.10
394.88	365.12
395.07	428.32
395.26	414.27
395.46	404.91
395.65	358.10
395.84	458.74
396.04	475.13
396.23	325.33
396.42	468.11
396.62	418.96
396.81	430.66
397.00	440.02
397.19	433.00
397.39	421.30
397.58	339.38
397.77	437.68
397.97	414.27
398.16	372.15
398.35	402.57
398.55	325.33
398.74	451.72
398.93	386.19
399.12	416.62
399.32	381.51
399.51	351.08
399.70	447.04
399.90	442.36
400.09	397.89
400.28	454.06
400.47	465.77
400.67	395.55
400.86	433.00
401.05	430.66
401.24	367.46
401.44	386.19
401.63	465.77
401.82	463.43
402.01	414.27
402.21	435.34
402.40	355.76
402.59	346.40
402.78	404.91
402.97	355.76
403.17	414.27
403.36	365.12
403.55	379.17
403.74	447.04
403.93	414.27
404.13	402.57
404.32	386.19
404.51	418.96
404.70	416.62
404.89	404.91
405.09	393.21
405.28	500.87
405.47	372.15
405.66	416.62
405.85	348.74
406.05	402.57
406.24	383.85
406.43	458.74
406.62	428.32
406.81	475.13
407.00	416.62
407.20	442.36
407.39	414.27
407.58	407.25
407.77	440.02
407.96	440.02
408.15	414.27
408.34	395.55
408.54	395.55
408.73	369.80
408.92	386.19
409.11	440.02
409.30	411.93
409.49	383.85
409.68	456.40
409.87	404.91
410.07	374.49
410.26	383.85
410.45	404.91
410.64	358.10
410.83	418.96
411.02	372.15
411.21	454.06
411.40	376.83
411.59	437.68
411.78	437.68
411.98	458.74
412.17	355.76
412.36	379.17
412.55	346.40
412.74	468.11
412.93	503.22
413.12	393.21
413.31	381.51
413.50	397.89
413.69	444.70
413.88	428.32
414.07	416.62
414.26	428.32
414.45	414.27
414.64	486.83
414.83	423.64
415.02	346.40
415.22	461.09
415.41	498.53
415.60	423.64
415.79	428.32
415.98	440.02
416.17	433.00
416.36	362.78
416.55	376.83
416.74	397.89
416.93	407.25
417.12	362.78
417.31	367.46
417.50	400.23
417.69	374.49
417.88	397.89
418.07	390.87
418.26	418.96
418.45	381.51
418.64	449.38
418.83	404.91
419.02	390.87
419.21	369.80
419.39	463.43
419.58	496.19
419.77	381.51
419.96	423.64
420.15	440.02
420.34	435.34
420.53	449.38
420.72	428.32
420.91	430.66
421.10	454.06
421.29	397.89
421.48	374.49
421.67	456.40
421.86	421.30
422.05	437.68
422.24	360.44
422.43	451.72
422.61	458.74
422.80	475.13
422.99	442.36
423.18	409.59
423.37	369.80
423.56	395.55
423.75	355.76
423.94	304.27
424.13	383.85
424.32	423.64
424.50	428.32
424.69	433.00
424.88	456.40
425.07	395.55
425.26	372.15
425.45	414.27
425.64	416.62
425.83	447.04
426.01	404.91
426.20	425.98
426.39	379.17
426.58	425.98
426.77	386.19
426.96	456.40
427.15	402.57
427.33	472.79
427.52	482.15
427.71	447.04
427.90	465.77
428.09	395.55
428.28	393.21
428.46	440.02
428.65	416.62
428.84	351.08
429.03	437.68
429.22	369.80
429.40	437.68
429.59	486.83
429.78	365.12
429.97	367.46
430.16	425.98
430.34	437.68
430.53	416.62
430.72	353.42
430.91	400.23
431.10	346.40
431.28	402.57
431.47	552.37
431.66	402.57
431.85	374.49
432.03	407.25
432.22	442.36
432.41	444.70
432.60	444.70
432.79	416.62
432.97	421.30
433.16	425.98
433.35	482.15
433.54	435.34
433.72	360.44
433.91	393.21
434.10	379.17
434.28	379.17
434.47	369.80
434.66	465.77
434.85	416.62
435.03	444.70
435.22	489.17
435.41	510.24
435.59	393.21
435.78	362.78
435.97	428.32
436.16	414.27
436.34	442.36
436.53	475.13
436.72	507.90
436.90	433.00
437.09	421.30
437.28	465.77
437.46	407.25
437.65	411.93
437.84	447.04
438.02	421.30
438.21	435.34
438.40	402.57
438.58	374.49
438.77	425.98
438.96	468.11
439.14	383.85
439.33	372.15
439.52	376.83
439.70	376.83
439.89	435.34
440.08	402.57
440.26	461.09
440.45	353.42
440.63	362.78
440.82	416.62
441.01	358.10
441.19	404.91
441.38	388.53
441.57	454.06
441.75	407.25
441.94	404.91
442.12	397.89
442.31	425.98
442.50	447.04
442.68	353.42
442.87	433.00
443.05	416.62
443.24	482.15
443.43	386.19
443.61	383.85
443.80	414.27
443.98	444.70
444.17	423.64
444.35	493.85
444.54	458.74
444.73	407.25
444.91	451.72
445.10	430.66
445.28	341.72
445.47	416.62
445.65	454.06
445.84	346.40
446.02	449.38
446.21	463.43
446.39	409.59
446.58	468.11
446.77	418.96
446.95	442.36
447.14	456.40
447.32	414.27
447.51	395.55
447.69	435.34
447.88	381.51
448.06	437.68
448.25	425.98
448.43	428.32
448.62	393.21
448.80	418.96
448.99	421.30
449.17	409.59
449.36	339.38
449.54	440.02
449.73	365.12
449.91	374.49
450.10	346.40
450.28	484.49
450.46	397.89
450.65	372.15
450.83	418.96
451.02	388.53
451.20	325.33
451.39	472.79
451.57	435.34
451.76	440.02
451.94	404.91
452.13	425.98
452.31	468.11
452.49	411.93
452.68	346.40
452.86	369.80
453.05	421.30
453.23	388.53
453.42	421.30
453.60	421.30
453.78	393.21
453.97	383.85
454.15	362.78
454.34	376.83
454.52	386.19
454.70	512.58
454.89	402.57
455.07	374.49
455.26	418.96
455.44	458.74
455.62	442.36
455.81	393.21
455.99	416.62
456.17	444.70
456.36	395.55
456.54	383.85
456.73	393.21
456.91	423.64
457.09	367.46
457.28	409.59
457.46	390.87
457.64	409.59
457.83	388.53
458.01	454.06
458.19	449.38
458.38	367.46
458.56	470.45
458.74	379.17
458.93	451.72
459.11	423.64
459.29	374.49
459.48	409.59
459.66	435.34
459.84	414.27
460.03	447.04
460.21	383.85
460.39	451.72
460.57	496.19
460.76	367.46
460.94	475.13
461.12	447.04
461.31	444.70
461.49	418.96
461.67	416.62
461.85	442.36
462.04	414.27
462.22	779.40
462.40	379.17
462.59	414.27
462.77	463.43
462.95	397.89
463.13	435.34
463.32	468.11
463.50	444.70
463.68	421.30
463.86	393.21
464.05	395.55
464.23	423.64
464.41	507.90
464.59	390.87
464.78	400.23
464.96	390.87
465.14	444.70
465.32	404.91
465.50	421.30
465.69	428.32
465.87	388.53
466.05	404.91
466.23	362.78
466.41	449.38
466.60	397.89
466.78	444.70
466.96	428.32
467.14	472.79
467.32	425.98
467.51	414.27
467.69	360.44
467.87	414.27
468.05	353.42
468.23	411.93
468.41	393.21
468.60	353.42
468.78	430.66
468.96	521.94
469.14	360.44
469.32	428.32
469.50	327.68
469.69	362.78
469.87	411.93
470.05	407.25
470.23	437.68
470.41	369.80
470.59	341.72
470.77	465.77
470.95	395.55
471.14	418.96
471.32	402.57
471.50	425.98
471.68	423.64
471.86	507.90
472.04	400.23
472.22	435.34
472.40	344.06
472.58	458.74
472.77	418.96
472.95	416.62
473.13	358.10
473.31	416.62
473.49	465.77
473.67	395.55
473.85	390.87
474.03	407.25
474.21	463.43
474.39	379.17
474.57	400.23
474.75	437.68
474.93	388.53
475.12	425.98
475.30	433.00
475.48	479.81
475.66	414.27
475.84	395.55
476.02	402.57
476.20	416.62
476.38	404.91
476.56	477.47
476.74	472.79
476.92	360.44
477.10	372.15
477.28	447.04
477.46	388.53
477.64	369.80
477.82	388.53
478.00	430.66
478.18	383.85
478.36	425.98
478.54	334.70
478.72	454.06
478.90	383.85
479.08	472.79
479.26	404.91
479.44	435.34
479.62	395.55
479.80	442.36
479.98	353.42
480.16	372.15
480.34	393.21
480.52	489.17
480.70	451.72
480.88	465.77
481.06	365.12
481.24	341.72
481.41	435.34
481.59	383.85
481.77	484.49
481.95	397.89
482.13	491.51
482.31	414.27
482.49	386.19
482.67	397.89
482.85	402.57
483.03	395.55
483.21	414.27
483.39	425.98
483.57	435.34
483.74	470.45
483.92	433.00
484.10	372.15
484.28	465.77
484.46	482.15
484.64	428.32
484.82	381.51
485.00	433.00
485.18	409.59
485.35	430.66
485.53	388.53
485.71	433.00
485.89	397.89
486.07	379.17
486.25	414.27
486.43	447.04
486.61	402.57
486.78	414.27
486.96	414.27
487.14	437.68
487.32	409.59
487.50	444.70
487.68	475.13
487.85	374.49
488.03	470.45
488.21	395.55
488.39	355.76
488.57	393.21
488.75	423.64
488.92	451.72
489.10	444.70
489.28	442.36
489.46	372.15
489.64	444.70
489.81	383.85
489.99	442.36
490.17	468.11
490.35	561.73
490.53	407.25
490.70	390.87
490.88	411.93
491.06	409.59
491.24	428.32
491.41	470.45
491.59	407.25
491.77	440.02
491.95	414.27
492.13	411.93
492.30	456.40
492.48	437.68
492.66	376.83
492.84	435.34
493.01	428.32
493.19	308.95
493.37	475.13
493.54	411.93
493.72	418.96
493.90	447.04
494.08	414.27
494.25	491.51
494.43	507.90
494.61	423.64
494.79	386.19
494.96	372.15
495.14	503.22
495.32	418.96
495.49	421.30
495.67	440.02
495.85	437.68
496.02	400.23
496.20	365.12
496.38	433.00
496.55	388.53
496.73	404.91
496.91	397.89
497.09	491.51
497.26	386.19
497.44	372.15
497.62	390.87
497.79	428.32
497.97	344.06
498.14	409.59
498.32	400.23
498.50	433.00
498.67	440.02
498.85	447.04
499.03	404.91
499.20	379.17
499.38	409.59
499.56	477.47
499.73	456.40
499.91	409.59
500.08	414.27
500.26	454.06
500.44	404.91
500.61	388.53
500.79	442.36
500.97	402.57
501.14	395.55
501.32	442.36
501.49	444.70
501.67	433.00
501.84	456.40
502.02	400.23
502.20	456.40
502.37	379.17
502.55	461.09
502.72	425.98
502.90	498.53
503.07	411.93
503.25	484.49
503.43	362.78
503.60	414.27
503.78	482.15
503.95	369.80
504.13	404.91
504.30	463.43
504.48	416.62
504.65	456.40
504.83	369.80
505.01	435.34
505.18	451.72
505.36	388.53
505.53	367.46
505.71	381.51
505.88	449.38
506.06	397.89
506.23	386.19
506.41	330.02
506.58	353.42
506.76	360.44
506.93	381.51
507.11	458.74
507.28	430.66
507.46	465.77
507.63	407.25
507.81	334.70
507.98	430.66
508.16	386.19
508.33	379.17
508.50	433.00
508.68	428.32
508.85	465.77
509.03	409.59
509.20	421.30
509.38	416.62
509.55	416.62
509.73	421.30
509.90	430.66
510.08	437.68
510.25	416.62
510.42	390.87
510.60	444.70
510.77	486.83
510.95	461.09
511.12	393.21
511.30	451.72
511.47	418.96
511.64	482.15
511.82	484.49
511.99	402.57
512.17	468.11
512.34	365.12
512.51	397.89
512.69	421.30
512.86	444.70
513.04	423.64
513.21	444.70
513.38	416.62
513.56	376.83
513.73	400.23
513.90	428.32
514.08	411.93
514.25	449.38
514.43	411.93
514.60	421.30
514.77	372.15
514.95	353.42
515.12	344.06
515.29	402.57
515.47	449.38
515.64	393.21
515.81	437.68
515.99	486.83
516.16	463.43
516.33	383.85
516.51	395.55
516.68	390.87
516.85	404.91
517.03	425.98
517.20	477.47
517.37	463.43
517.54	416.62
517.72	479.81
517.89	430.66
518.06	505.56
518.24	423.64
518.41	444.70
518.58	484.49
518.75	416.62
518.93	433.00
519.10	402.57
519.27	393.21
519.45	421.30
519.62	337.04
519.79	507.90
519.96	386.19
520.14	447.04
520.31	458.74
520.48	369.80
520.65	447.04
520.83	428.32
521.00	468.11
521.17	416.62
521.34	447.04
521.52	390.87
521.69	416.62
521.86	400.23
522.03	372.15
522.20	447.04
522.38	454.06
522.55	425.98
522.72	400.23
522.89	386.19
523.07	496.19
523.24	437.68
523.41	400.23
523.58	407.25
523.75	425.98
523.92	425.98
524.10	458.74
524.27	409.59
524.44	400.23
524.61	404.91
524.78	393.21
524.96	386.19
525.13	414.27
525.30	484.49
525.47	421.30
525.64	386.19
525.81	404.91
525.98	386.19
526.16	454.06
526.33	374.49
526.50	463.43
526.67	376.83
526.84	423.64
527.01	414.27
527.18	444.70
527.36	358.10
527.53	416.62
527.70	369.80
527.87	482.15
528.04	496.19
528.21	425.98
528.38	458.74
528.55	409.59
528.72	470.45
528.89	395.55
529.07	433.00
529.24	437.68
529.41	430.66
529.58	397.89
529.75	451.72
529.92	442.36
530.09	418.96
530.26	484.49
530.43	402.57
530.60	454.06
530.77	449.38
530.94	411.93
531.11	369.80
531.28	386.19
531.46	404.91
531.63	397.89
531.80	449.38
531.97	463.43
532.14	447.04
532.31	416.62
532.48	468.11
532.65	444.70
532.82	407.25
532.99	393.21
533.16	428.32
533.33	369.80
533.50	353.42
533.67	393.21
533.84	468.11
534.01	400.23
534.18	486.83
534.35	421.30
534.52	423.64
534.69	383.85
534.86	447.04
535.03	393.21
535.20	416.62
535.37	397.89
535.54	447.04
535.71	425.98
535.88	386.19
536.05	421.30
536.22	475.13
536.38	486.83
536.55	411.93
536.72	451.72
536.89	447.04
537.06	421.30
537.23	386.19
537.40	367.46
537.57	376.83
537.74	507.90
537.91	411.93
538.08	360.44
538.25	418.96
538.42	330.02
538.59	423.64
538.75	402.57
538.92	451.72
539.09	423.64
539.26	395.55
539.43	425.98
539.60	461.09
539.77	411.93
539.94	451.72
540.11	353.42
540.28	484.49
540.44	411.93
540.61	423.64
540.78	433.00
540.95	351.08
541.12	503.22
541.29	344.06
541.46	421.30
541.62	465.77
541.79	442.36
541.96	437.68
542.13	442.36
542.30	421.30
542.47	404.91
542.63	423.64
542.80	362.78
542.97	461.09
543.14	430.66
543.31	456.40
543.48	421.30
543.64	416.62
543.81	400.23
543.98	365.12
544.15	433.00
544.32	468.11
544.48	442.36
544.65	383.85
544.82	400.23
544.99	433.00
545.16	475.13
545.32	393.21
545.49	425.98
545.66	414.27
545.83	400.23
546.00	425.98
546.16	334.70
546.33	442.36
546.50	376.83
546.67	404.91
546.83	428.32
547.00	365.12
547.17	374.49
547.34	390.87
547.50	407.25
547.67	393.21
547.84	404.91
548.00	372.15
548.17	433.00
548.34	435.34
548.51	447.04
548.67	362.78
548.84	365.12
549.01	475.13
549.18	416.62
549.34	411.93
549.51	451.72
549.68	461.09
549.84	430.66
550.01	423.64
550.18	479.81
550.34	430.66
550.51	425.98
550.68	454.06
550.84	386.19
551.01	433.00
551.18	465.77
551.34	346.40
551.51	374.49
551.68	395.55
551.84	418.96
552.01	435.34
552.18	395.55
552.34	477.47
552.51	447.04
552.68	393.21
552.84	400.23
553.01	416.62
553.18	411.93
553.34	447.04
553.51	376.83
553.67	472.79
553.84	402.57
554.01	358.10
554.17	447.04
554.34	414.27
554.51	428.32
554.67	477.47
554.84	430.66
555.00	400.23
555.17	381.51
555.33	458.74
555.50	447.04
555.67	425.98
555.83	411.93
556.00	395.55
556.16	580.45
556.33	428.32
556.50	360.44
556.66	524.28
556.83	454.06
556.99	456.40
557.16	409.59
557.32	418.96
557.49	430.66
557.65	421.30
557.82	418.96
557.98	428.32
558.15	496.19
558.32	433.00
558.48	395.55
558.65	372.15
558.81	421.30
558.98	484.49
559.14	383.85
559.31	461.09
559.47	440.02
559.64	421.30
559.80	397.89
559.97	418.96
560.13	421.30
560.30	451.72
560.46	430.66
560.63	348.74
560.79	358.10
560.96	433.00
561.12	397.89
561.29	360.44
561.45	346.40
561.61	402.57
561.78	451.72
561.94	477.47
562.11	451.72
562.27	348.74
562.44	435.34
562.60	409.59
562.77	465.77
562.93	477.47
563.10	379.17
563.26	433.00
563.42	437.68
563.59	435.34
563.75	369.80
563.92	454.06
564.08	498.53
564.24	428.32
564.41	433.00
564.57	390.87
564.74	458.74
564.90	355.76
565.07	458.74
565.23	423.64
565.39	409.59
565.56	418.96
565.72	395.55
565.88	416.62
566.05	395.55
566.21	404.91
566.38	369.80
566.54	428.32
566.70	428.32
566.87	437.68
567.03	430.66
567.19	351.08
567.36	433.00
567.52	383.85
567.68	386.19
567.85	409.59
568.01	437.68
568.17	355.76
568.34	484.49
568.50	428.32
568.66	500.87
568.83	482.15
568.99	376.83
569.15	458.74
569.32	393.21
569.48	442.36
569.64	425.98
569.81	390.87
569.97	414.27
570.13	407.25
570.30	411.93
570.46	442.36
570.62	425.98
570.78	365.12
570.95	393.21
571.11	503.22
571.27	472.79
571.43	414.27
571.60	444.70
571.76	407.25
571.92	397.89
572.09	477.47
572.25	425.98
572.41	395.55
572.57	442.36
572.74	458.74
572.90	447.04
573.06	461.09
573.22	442.36
573.38	433.00
573.55	447.04
573.71	449.38
573.87	428.32
574.03	416.62
574.20	400.23
574.36	491.51
574.52	327.68
574.68	423.64
574.84	334.70
575.01	346.40
575.17	444.70
575.33	414.27
575.49	388.53
575.65	393.21
575.82	421.30
575.98	416.62
576.14	414.27
576.30	376.83
576.46	435.34
576.62	430.66
576.79	463.43
576.95	479.81
577.11	475.13
577.27	430.66
577.43	482.15
577.59	447.04
577.75	475.13
577.92	400.23
578.08	442.36
578.24	463.43
578.40	435.34
578.56	423.64
578.72	437.68
578.88	479.81
579.04	416.62
579.21	418.96
579.37	435.34
579.53	435.34
579.69	430.66
579.85	358.10
580.01	433.00
580.17	463.43
580.33	327.68
580.49	404.91
580.65	454.06
580.82	393.21
580.98	411.93
581.14	418.96
581.30	358.10
581.46	437.68
581.62	465.77
581.78	451.72
581.94	393.21
582.10	355.76
582.26	440.02
582.42	365.12
582.58	400.23
582.74	442.36
582.90	381.51
583.06	484.49
583.22	376.83
583.38	435.34
583.54	463.43
583.70	442.36
583.86	348.74
584.02	402.57
584.18	449.38
584.34	339.38
584.50	440.02
584.66	505.56
584.82	386.19
584.98	425.98
585.14	444.70
585.30	442.36
585.46	472.79
585.62	425.98
585.78	437.68
585.94	437.68
586.10	433.00
586.26	388.53
586.42	433.00
586.58	447.04
586.74	393.21
586.90	393.21
587.06	411.93
587.22	365.12
587.38	393.21
587.54	468.11
587.70	418.96
587.86	505.56
588.02	374.49
588.18	407.25
588.34	447.04
588.49	400.23
588.65	451.72
588.81	397.89
588.97	444.70
589.13	444.70
589.29	402.57
589.45	489.17
589.61	404.91
589.77	475.13
589.93	407.25
590.08	442.36
590.24	372.15
590.40	510.24
590.56	409.59
590.72	418.96
590.88	397.89
591.04	414.27
591.20	379.17
591.35	463.43
591.51	395.55
591.67	390.87
591.83	365.12
591.99	327.68
592.15	451.72
592.31	416.62
592.46	379.17
592.62	369.80
592.78	407.25
592.94	395.55
593.10	386.19
593.26	362.78
593.41	411.93
593.57	461.09
593.73	458.74
593.89	454.06
594.05	437.68
594.20	402.57
594.36	388.53
594.52	451.72
594.68	400.23
594.84	433.00
594.99	395.55
595.15	428.32
595.31	437.68
595.47	409.59
595.62	404.91
595.78	407.25
595.94	416.62
596.10	461.09
596.25	404.91
596.41	461.09
596.57	435.34
596.73	390.87
596.88	407.25
597.04	320.65
597.20	383.85
597.36	425.98
597.51	430.66
597.67	425.98
597.83	428.32
597.99	451.72
598.14	463.43
598.30	372.15
598.46	395.55
598.61	423.64
598.77	409.59
598.93	440.02
599.09	425.98
599.24	477.47
599.40	489.17
599.56	355.76
599.71	475.13
599.87	411.93
600.03	395.55
600.18	395.55
600.34	442.36
600.50	423.64
600.65	421.30
600.81	486.83
600.97	416.62
601.12	416.62
601.28	470.45
601.44	386.19
601.59	411.93
601.75	461.09
601.91	397.89
602.06	388.53
602.22	472.79
602.37	470.45
602.53	437.68
602.69	447.04
602.84	395.55
603.00	437.68
603.16	442.36
603.31	425.98
603.47	449.38
603.62	397.89
603.78	435.34
603.94	404.91
604.09	463.43
604.25	433.00
604.40	449.38
604.56	348.74
604.71	418.96
604.87	404.91
605.03	442.36
605.18	489.17
605.34	456.40
605.49	416.62
605.65	416.62
605.80	369.80
605.96	414.27
606.12	444.70
606.27	414.27
606.43	376.83
606.58	468.11
606.74	388.53
606.89	461.09
607.05	447.04
607.20	430.66
607.36	454.06
607.51	449.38
607.67	486.83
607.82	454.06
607.98	470.45
608.13	360.44
608.29	442.36
608.44	482.15
608.60	456.40
608.75	486.83
608.91	454.06
609.06	428.32
609.22	472.79
609.37	351.08
609.53	381.51
609.68	381.51
609.84	397.89
609.99	428.32
610.15	418.96
