SpectraSuite Data File
++++++++++++++++++++++++++++++++++++
Date: Fri Oct 25 12:11:12 EDT 2013
User: price-jones
Dark Spectrum Present: No
Reference Spectrum Present: No
Number of Sampled Component Spectra: 1
Spectrometers: USB2+H05261
Integration Time (usec): 100000 (USB2+H05261)
Spectra Averaged: 1 (USB2+H05261)
Boxcar Smoothing: 0 (USB2+H05261)
Correct for Electrical Dark: No (USB2+H05261)
Strobe/Lamp Enabled: No (USB2+H05261)
Correct for Detector Non-linearity: No (USB2+H05261)
Correct for Stray Light: No (USB2+H05261)
Number of Pixels in Processed Spectrum: 2048
>>>>>Begin Processed Spectral Data<<<<<
365.73	367.46
365.92	367.46
366.12	367.46
366.32	308.95
366.52	248.10
366.72	308.95
366.91	128.73
367.11	271.50
367.31	227.03
367.51	222.35
367.70	280.86
367.90	299.59
368.10	252.78
368.30	259.80
368.49	259.80
368.69	227.03
368.89	196.60
369.09	238.73
369.28	332.36
369.48	203.63
369.68	337.04
369.87	330.02
370.07	262.14
370.27	297.25
370.47	297.25
370.66	294.91
370.86	360.44
371.06	395.55
371.25	381.51
371.45	442.36
371.65	425.98
371.84	334.70
372.04	442.36
372.24	388.53
372.44	402.57
372.63	353.42
372.83	435.34
373.03	407.25
373.22	383.85
373.42	418.96
373.62	428.32
373.81	468.11
374.01	421.30
374.21	407.25
374.40	433.00
374.60	407.25
374.79	449.38
374.99	444.70
375.19	362.78
375.38	423.64
375.58	428.32
375.78	512.58
375.97	421.30
376.17	409.59
376.37	418.96
376.56	421.30
376.76	491.51
376.95	437.68
377.15	404.91
377.35	449.38
377.54	444.70
377.74	344.06
377.93	397.89
378.13	402.57
378.33	355.76
378.52	388.53
378.72	472.79
378.91	416.62
379.11	402.57
379.31	423.64
379.50	355.76
379.70	416.62
379.89	456.40
380.09	440.02
380.28	461.09
380.48	388.53
380.68	393.21
380.87	355.76
381.07	348.74
381.26	367.46
381.46	442.36
381.65	458.74
381.85	353.42
382.04	440.02
382.24	416.62
382.43	374.49
382.63	325.33
382.83	409.59
383.02	411.93
383.22	360.44
383.41	407.25
383.61	390.87
383.80	421.30
384.00	407.25
384.19	346.40
384.39	386.19
384.58	395.55
384.78	423.64
384.97	283.20
385.17	411.93
385.36	421.30
385.56	383.85
385.75	344.06
385.95	367.46
386.14	379.17
386.34	334.70
386.53	425.98
386.72	334.70
386.92	442.36
387.11	383.85
387.31	440.02
387.50	430.66
387.70	365.12
387.89	404.91
388.09	486.83
388.28	376.83
388.48	386.19
388.67	353.42
388.86	475.13
389.06	411.93
389.25	440.02
389.45	393.21
389.64	397.89
389.84	418.96
390.03	414.27
390.22	418.96
390.42	383.85
390.61	414.27
390.81	374.49
391.00	397.89
391.19	388.53
391.39	376.83
391.58	500.87
391.78	395.55
391.97	421.30
392.16	435.34
392.36	358.10
392.55	468.11
392.75	402.57
392.94	376.83
393.13	470.45
393.33	379.17
393.52	334.70
393.71	388.53
393.91	365.12
394.10	376.83
394.29	383.85
394.49	414.27
394.68	442.36
394.88	444.70
395.07	423.64
395.26	416.62
395.46	475.13
395.65	376.83
395.84	416.62
396.04	477.47
396.23	482.15
396.42	355.76
396.62	402.57
396.81	374.49
397.00	451.72
397.19	416.62
397.39	346.40
397.58	484.49
397.77	388.53
397.97	388.53
398.16	428.32
398.35	433.00
398.55	362.78
398.74	381.51
398.93	397.89
399.12	383.85
399.32	404.91
399.51	397.89
399.70	339.38
399.90	435.34
400.09	388.53
400.28	397.89
400.47	425.98
400.67	517.26
400.86	348.74
401.05	451.72
401.24	418.96
401.44	409.59
401.63	383.85
401.82	346.40
402.01	416.62
402.21	447.04
402.40	367.46
402.59	388.53
402.78	383.85
402.97	344.06
403.17	372.15
403.36	397.89
403.55	388.53
403.74	402.57
403.93	390.87
404.13	365.12
404.32	418.96
404.51	390.87
404.70	407.25
404.89	355.76
405.09	400.23
405.28	337.04
405.47	327.68
405.66	475.13
405.85	496.19
406.05	367.46
406.24	425.98
406.43	423.64
406.62	386.19
406.81	477.47
407.00	404.91
407.20	475.13
407.39	383.85
407.58	440.02
407.77	397.89
407.96	414.27
408.15	435.34
408.34	458.74
408.54	472.79
408.73	449.38
408.92	470.45
409.11	442.36
409.30	430.66
409.49	437.68
409.68	379.17
409.87	376.83
410.07	379.17
410.26	400.23
410.45	475.13
410.64	435.34
410.83	365.12
411.02	409.59
411.21	304.27
411.40	360.44
411.59	369.80
411.78	402.57
411.98	358.10
412.17	456.40
412.36	381.51
412.55	404.91
412.74	353.42
412.93	433.00
413.12	437.68
413.31	421.30
413.50	440.02
413.69	430.66
413.88	423.64
414.07	430.66
414.26	376.83
414.45	442.36
414.64	440.02
414.83	479.81
415.02	383.85
415.22	447.04
415.41	486.83
415.60	416.62
415.79	416.62
415.98	407.25
416.17	376.83
416.36	358.10
416.55	353.42
416.74	409.59
416.93	465.77
417.12	491.51
417.31	463.43
417.50	390.87
417.69	447.04
417.88	388.53
418.07	433.00
418.26	402.57
418.45	402.57
418.64	411.93
418.83	397.89
419.02	409.59
419.21	416.62
419.39	444.70
419.58	454.06
419.77	416.62
419.96	500.87
420.15	519.60
420.34	472.79
420.53	374.49
420.72	465.77
420.91	468.11
421.10	428.32
421.29	444.70
421.48	381.51
421.67	414.27
421.86	386.19
422.05	381.51
422.24	390.87
422.43	365.12
422.61	381.51
422.80	418.96
422.99	463.43
423.18	407.25
423.37	327.68
423.56	402.57
423.75	411.93
423.94	374.49
424.13	372.15
424.32	430.66
424.50	440.02
424.69	404.91
424.88	447.04
425.07	447.04
425.26	451.72
425.45	411.93
425.64	465.77
425.83	360.44
426.01	393.21
426.20	395.55
426.39	414.27
426.58	383.85
426.77	440.02
426.96	428.32
427.15	390.87
427.33	407.25
427.52	355.76
427.71	358.10
427.90	344.06
428.09	360.44
428.28	400.23
428.46	421.30
428.65	386.19
428.84	404.91
429.03	351.08
429.22	416.62
429.40	416.62
429.59	372.15
429.78	463.43
429.97	332.36
430.16	430.66
430.34	447.04
430.53	475.13
430.72	407.25
430.91	425.98
431.10	458.74
431.28	397.89
431.47	425.98
431.66	414.27
431.85	390.87
432.03	393.21
432.22	409.59
432.41	489.17
432.60	430.66
432.79	402.57
432.97	383.85
433.16	423.64
433.35	372.15
433.54	386.19
433.72	402.57
433.91	397.89
434.10	400.23
434.28	365.12
434.47	418.96
434.66	442.36
434.85	374.49
435.03	437.68
435.22	407.25
435.41	430.66
435.59	421.30
435.78	477.47
435.97	351.08
436.16	407.25
436.34	397.89
436.53	451.72
436.72	423.64
436.90	358.10
437.09	433.00
437.28	433.00
437.46	463.43
437.65	418.96
437.84	447.04
438.02	351.08
438.21	388.53
438.40	484.49
438.58	489.17
438.77	388.53
438.96	404.91
439.14	388.53
439.33	407.25
439.52	400.23
439.70	449.38
439.89	493.85
440.08	423.64
440.26	428.32
440.45	472.79
440.63	337.04
440.82	477.47
441.01	379.17
441.19	369.80
441.38	440.02
441.57	404.91
441.75	465.77
441.94	458.74
442.12	397.89
442.31	383.85
442.50	358.10
442.68	440.02
442.87	416.62
443.05	386.19
443.24	360.44
443.43	416.62
443.61	381.51
443.80	390.87
443.98	465.77
444.17	423.64
444.35	454.06
444.54	390.87
444.73	409.59
444.91	461.09
445.10	451.72
445.28	393.21
445.47	423.64
445.65	407.25
445.84	451.72
446.02	397.89
446.21	451.72
446.39	379.17
446.58	461.09
446.77	461.09
446.95	395.55
447.14	468.11
447.32	451.72
447.51	451.72
447.69	365.12
447.88	430.66
448.06	451.72
448.25	444.70
448.43	458.74
448.62	362.78
448.80	379.17
448.99	449.38
449.17	393.21
449.36	409.59
449.54	411.93
449.73	362.78
449.91	458.74
450.10	386.19
450.28	475.13
450.46	360.44
450.65	451.72
450.83	390.87
451.02	376.83
451.20	367.46
451.39	425.98
451.57	444.70
451.76	430.66
451.94	491.51
452.13	477.47
452.31	402.57
452.49	397.89
452.68	465.77
452.86	430.66
453.05	362.78
453.23	489.17
453.42	440.02
453.60	430.66
453.78	489.17
453.97	386.19
454.15	376.83
454.34	414.27
454.52	404.91
454.70	425.98
454.89	449.38
455.07	369.80
455.26	442.36
455.44	454.06
455.62	407.25
455.81	379.17
455.99	421.30
456.17	351.08
456.36	461.09
456.54	402.57
456.73	449.38
456.91	397.89
457.09	421.30
457.28	402.57
457.46	463.43
457.64	477.47
457.83	475.13
458.01	414.27
458.19	421.30
458.38	341.72
458.56	362.78
458.74	393.21
458.93	402.57
459.11	428.32
459.29	442.36
459.48	475.13
459.66	414.27
459.84	449.38
460.03	440.02
460.21	475.13
460.39	447.04
460.57	435.34
460.76	433.00
460.94	454.06
461.12	472.79
461.31	444.70
461.49	444.70
461.67	425.98
461.85	374.49
462.04	456.40
462.22	786.42
462.40	461.09
462.59	454.06
462.77	322.99
462.95	409.59
463.13	479.81
463.32	348.74
463.50	395.55
463.68	458.74
463.86	458.74
464.05	395.55
464.23	435.34
464.41	404.91
464.59	414.27
464.78	433.00
464.96	395.55
465.14	437.68
465.32	472.79
465.50	433.00
465.69	430.66
465.87	362.78
466.05	437.68
466.23	433.00
466.41	381.51
466.60	416.62
466.78	376.83
466.96	482.15
467.14	463.43
467.32	451.72
467.51	444.70
467.69	414.27
467.87	411.93
468.05	421.30
468.23	496.19
468.41	461.09
468.60	447.04
468.78	365.12
468.96	379.17
469.14	425.98
469.32	369.80
469.50	430.66
469.69	414.27
469.87	355.76
470.05	404.91
470.23	428.32
470.41	390.87
470.59	409.59
470.77	433.00
470.95	425.98
471.14	470.45
471.32	379.17
471.50	383.85
471.68	425.98
471.86	379.17
472.04	416.62
472.22	365.12
472.40	386.19
472.58	393.21
472.77	447.04
472.95	451.72
473.13	463.43
473.31	395.55
473.49	414.27
473.67	409.59
473.85	430.66
474.03	484.49
474.21	465.77
474.39	407.25
474.57	489.17
474.75	465.77
474.93	404.91
475.12	430.66
475.30	454.06
475.48	407.25
475.66	386.19
475.84	423.64
476.02	416.62
476.20	337.04
476.38	435.34
476.56	397.89
476.74	454.06
476.92	463.43
477.10	411.93
477.28	463.43
477.46	442.36
477.64	390.87
477.82	355.76
478.00	493.85
478.18	386.19
478.36	461.09
478.54	409.59
478.72	428.32
478.90	449.38
479.08	454.06
479.26	402.57
479.44	358.10
479.62	374.49
479.80	421.30
479.98	367.46
480.16	423.64
480.34	451.72
480.52	435.34
480.70	458.74
480.88	430.66
481.06	383.85
481.24	428.32
481.41	362.78
481.59	444.70
481.77	388.53
481.95	383.85
482.13	496.19
482.31	397.89
482.49	393.21
482.67	461.09
482.85	458.74
483.03	414.27
483.21	425.98
483.39	397.89
483.57	409.59
483.74	409.59
483.92	383.85
484.10	425.98
484.28	397.89
484.46	447.04
484.64	374.49
484.82	393.21
485.00	409.59
485.18	444.70
485.35	425.98
485.53	344.06
485.71	409.59
485.89	407.25
486.07	451.72
486.25	444.70
486.43	407.25
486.61	454.06
486.78	465.77
486.96	334.70
487.14	435.34
487.32	449.38
487.50	374.49
487.68	386.19
487.85	440.02
488.03	411.93
488.21	437.68
488.39	407.25
488.57	400.23
488.75	418.96
488.92	498.53
489.10	433.00
489.28	416.62
489.46	411.93
489.64	470.45
489.81	355.76
489.99	416.62
490.17	425.98
490.35	498.53
490.53	414.27
490.70	470.45
490.88	428.32
491.06	470.45
491.24	451.72
491.41	428.32
491.59	376.83
491.77	327.68
491.95	414.27
492.13	409.59
492.30	308.95
492.48	404.91
492.66	440.02
492.84	411.93
493.01	348.74
493.19	369.80
493.37	482.15
493.54	360.44
493.72	353.42
493.90	440.02
494.08	425.98
494.25	454.06
494.43	365.12
494.61	411.93
494.79	425.98
494.96	379.17
495.14	484.49
495.32	430.66
495.49	393.21
495.67	390.87
495.85	421.30
496.02	491.51
496.20	456.40
496.38	463.43
496.55	433.00
496.73	386.19
496.91	358.10
497.09	425.98
497.26	468.11
497.44	386.19
497.62	344.06
497.79	440.02
497.97	393.21
498.14	433.00
498.32	374.49
498.50	447.04
498.67	421.30
498.85	369.80
499.03	437.68
499.20	454.06
499.38	379.17
499.56	418.96
499.73	433.00
499.91	315.97
500.08	416.62
500.26	444.70
500.44	447.04
500.61	433.00
500.79	437.68
500.97	437.68
501.14	472.79
501.32	404.91
501.49	388.53
501.67	491.51
501.84	435.34
502.02	388.53
502.20	449.38
502.37	402.57
502.55	451.72
502.72	465.77
502.90	416.62
503.07	503.22
503.25	402.57
503.43	393.21
503.60	421.30
503.78	440.02
503.95	442.36
504.13	421.30
504.30	472.79
504.48	400.23
504.65	482.15
504.83	475.13
505.01	411.93
505.18	353.42
505.36	388.53
505.53	451.72
505.71	397.89
505.88	428.32
506.06	514.92
506.23	365.12
506.41	407.25
506.58	482.15
506.76	505.56
506.93	365.12
507.11	425.98
507.28	444.70
507.46	444.70
507.63	376.83
507.81	430.66
507.98	390.87
508.16	470.45
508.33	444.70
508.50	400.23
508.68	491.51
508.85	388.53
509.03	402.57
509.20	339.38
509.38	320.65
509.55	463.43
509.73	379.17
509.90	475.13
510.08	416.62
510.25	444.70
510.42	454.06
510.60	463.43
510.77	447.04
510.95	402.57
511.12	386.19
511.30	386.19
511.47	409.59
511.64	390.87
511.82	458.74
511.99	454.06
512.17	421.30
512.34	451.72
512.51	418.96
512.69	372.15
512.86	468.11
513.04	458.74
513.21	404.91
513.38	440.02
513.56	383.85
513.73	442.36
513.90	430.66
514.08	423.64
514.25	458.74
514.43	418.96
514.60	505.56
514.77	397.89
514.95	402.57
515.12	369.80
515.29	374.49
515.47	430.66
515.64	421.30
515.81	397.89
515.99	479.81
516.16	447.04
516.33	428.32
516.51	423.64
516.68	416.62
516.85	397.89
517.03	381.51
517.20	425.98
517.37	437.68
517.54	409.59
517.72	451.72
517.89	365.12
518.06	463.43
518.24	484.49
518.41	524.28
518.58	421.30
518.75	449.38
518.93	472.79
519.10	416.62
519.27	458.74
519.45	425.98
519.62	400.23
519.79	388.53
519.96	421.30
520.14	365.12
520.31	512.58
520.48	456.40
520.65	383.85
520.83	470.45
521.00	470.45
521.17	433.00
521.34	379.17
521.52	444.70
521.69	418.96
521.86	458.74
522.03	435.34
522.20	407.25
522.38	365.12
522.55	425.98
522.72	428.32
522.89	437.68
523.07	484.49
523.24	393.21
523.41	386.19
523.58	360.44
523.75	351.08
523.92	486.83
524.10	430.66
524.27	383.85
524.44	376.83
524.61	409.59
524.78	407.25
524.96	322.99
525.13	397.89
525.30	479.81
525.47	379.17
525.64	402.57
525.81	395.55
525.98	383.85
526.16	454.06
526.33	447.04
526.50	421.30
526.67	451.72
526.84	376.83
527.01	430.66
527.18	407.25
527.36	400.23
527.53	311.29
527.70	372.15
527.87	437.68
528.04	486.83
528.21	517.26
528.38	383.85
528.55	414.27
528.72	456.40
528.89	468.11
529.07	425.98
529.24	454.06
529.41	351.08
529.58	358.10
529.75	461.09
529.92	430.66
530.09	381.51
530.26	449.38
530.43	395.55
530.60	348.74
530.77	388.53
530.94	428.32
531.11	449.38
531.28	397.89
531.46	369.80
531.63	451.72
531.80	407.25
531.97	395.55
532.14	489.17
532.31	423.64
532.48	428.32
532.65	425.98
532.82	404.91
532.99	395.55
533.16	414.27
533.33	428.32
533.50	430.66
533.67	393.21
533.84	465.77
534.01	442.36
534.18	400.23
534.35	409.59
534.52	442.36
534.69	444.70
534.86	414.27
535.03	428.32
535.20	421.30
535.37	468.11
535.54	500.87
535.71	423.64
535.88	512.58
536.05	383.85
536.22	430.66
536.38	395.55
536.55	425.98
536.72	416.62
536.89	407.25
537.06	348.74
537.23	423.64
537.40	433.00
537.57	430.66
537.74	444.70
537.91	442.36
538.08	482.15
538.25	468.11
538.42	395.55
538.59	400.23
538.75	355.76
538.92	500.87
539.09	463.43
539.26	407.25
539.43	458.74
539.60	381.51
539.77	458.74
539.94	376.83
540.11	379.17
540.28	496.19
540.44	472.79
540.61	451.72
540.78	440.02
540.95	454.06
541.12	454.06
541.29	418.96
541.46	470.45
541.62	421.30
541.79	447.04
541.96	416.62
542.13	423.64
542.30	437.68
542.47	472.79
542.63	400.23
542.80	404.91
542.97	507.90
543.14	369.80
543.31	428.32
543.48	425.98
543.64	400.23
543.81	416.62
543.98	428.32
544.15	395.55
544.32	386.19
544.48	360.44
544.65	330.02
544.82	397.89
544.99	400.23
545.16	451.72
545.32	402.57
545.49	482.15
545.66	402.57
545.83	379.17
546.00	472.79
546.16	484.49
546.33	465.77
546.50	468.11
546.67	395.55
546.83	463.43
547.00	454.06
547.17	388.53
547.34	507.90
547.50	454.06
547.67	461.09
547.84	360.44
548.00	444.70
548.17	362.78
548.34	407.25
548.51	416.62
548.67	456.40
548.84	404.91
549.01	451.72
549.18	362.78
549.34	447.04
549.51	425.98
549.68	418.96
549.84	365.12
550.01	416.62
550.18	472.79
550.34	470.45
550.51	425.98
550.68	500.87
550.84	390.87
551.01	470.45
551.18	440.02
551.34	386.19
551.51	362.78
551.68	416.62
551.84	540.66
552.01	430.66
552.18	472.79
552.34	442.36
552.51	425.98
552.68	437.68
552.84	465.77
553.01	447.04
553.18	447.04
553.34	447.04
553.51	376.83
553.67	430.66
553.84	433.00
554.01	440.02
554.17	468.11
554.34	372.15
554.51	355.76
554.67	437.68
554.84	447.04
555.00	507.90
555.17	421.30
555.33	458.74
555.50	369.80
555.67	395.55
555.83	418.96
556.00	461.09
556.16	535.98
556.33	440.02
556.50	353.42
556.66	411.93
556.83	360.44
556.99	435.34
557.16	482.15
557.32	440.02
557.49	409.59
557.65	416.62
557.82	362.78
557.98	425.98
558.15	393.21
558.32	435.34
558.48	386.19
558.65	456.40
558.81	358.10
558.98	397.89
559.14	411.93
559.31	428.32
559.47	367.46
559.64	458.74
559.80	449.38
559.97	458.74
560.13	493.85
560.30	404.91
560.46	416.62
560.63	376.83
560.79	433.00
560.96	388.53
561.12	383.85
561.29	505.56
561.45	344.06
561.61	402.57
561.78	456.40
561.94	437.68
562.11	409.59
562.27	395.55
562.44	365.12
562.60	433.00
562.77	440.02
562.93	400.23
563.10	416.62
563.26	505.56
563.42	463.43
563.59	411.93
563.75	397.89
563.92	463.43
564.08	386.19
564.24	479.81
564.41	463.43
564.57	353.42
564.74	496.19
564.90	442.36
565.07	409.59
565.23	475.13
565.39	447.04
565.56	388.53
565.72	440.02
565.88	454.06
566.05	400.23
566.21	458.74
566.38	472.79
566.54	444.70
566.70	346.40
566.87	414.27
567.03	360.44
567.19	379.17
567.36	442.36
567.52	435.34
567.68	390.87
567.85	402.57
568.01	353.42
568.17	339.38
568.34	423.64
568.50	451.72
568.66	397.89
568.83	444.70
568.99	402.57
569.15	470.45
569.32	386.19
569.48	402.57
569.64	430.66
569.81	428.32
569.97	489.17
570.13	428.32
570.30	402.57
570.46	442.36
570.62	517.26
570.78	444.70
570.95	353.42
571.11	486.83
571.27	484.49
571.43	388.53
571.60	421.30
571.76	454.06
571.92	388.53
572.09	402.57
572.25	341.72
572.41	425.98
572.57	395.55
572.74	468.11
572.90	430.66
573.06	423.64
573.22	425.98
573.38	444.70
573.55	355.76
573.71	442.36
573.87	472.79
574.03	437.68
574.20	440.02
574.36	461.09
574.52	376.83
574.68	435.34
574.84	379.17
575.01	433.00
575.17	496.19
575.33	456.40
575.49	477.47
575.65	397.89
575.82	386.19
575.98	409.59
576.14	418.96
576.30	341.72
576.46	360.44
576.62	449.38
576.79	369.80
576.95	407.25
577.11	400.23
577.27	358.10
577.43	442.36
577.59	430.66
577.75	458.74
577.92	407.25
578.08	390.87
578.24	400.23
578.40	379.17
578.56	440.02
578.72	411.93
578.88	404.91
579.04	386.19
579.21	475.13
579.37	486.83
579.53	346.40
579.69	442.36
579.85	374.49
580.01	409.59
580.17	374.49
580.33	416.62
580.49	393.21
580.65	416.62
580.82	351.08
580.98	367.46
581.14	388.53
581.30	402.57
581.46	362.78
581.62	381.51
581.78	461.09
581.94	407.25
582.10	437.68
582.26	397.89
582.42	407.25
582.58	437.68
582.74	348.74
582.90	421.30
583.06	489.17
583.22	383.85
583.38	353.42
583.54	425.98
583.70	472.79
583.86	447.04
584.02	376.83
584.18	451.72
584.34	425.98
584.50	365.12
584.66	435.34
584.82	486.83
584.98	400.23
585.14	395.55
585.30	444.70
585.46	390.87
585.62	493.85
585.78	411.93
585.94	428.32
586.10	421.30
586.26	421.30
586.42	442.36
586.58	390.87
586.74	433.00
586.90	381.51
587.06	425.98
587.22	430.66
587.38	430.66
587.54	379.17
587.70	442.36
587.86	388.53
588.02	454.06
588.18	475.13
588.34	402.57
588.49	468.11
588.65	491.51
588.81	472.79
588.97	402.57
589.13	397.89
589.29	430.66
589.45	503.22
589.61	437.68
589.77	369.80
589.93	388.53
590.08	437.68
590.24	381.51
590.40	404.91
590.56	386.19
590.72	374.49
590.88	423.64
591.04	421.30
591.20	423.64
591.35	482.15
591.51	456.40
591.67	444.70
591.83	393.21
591.99	463.43
592.15	456.40
592.31	402.57
592.46	449.38
592.62	463.43
592.78	397.89
592.94	388.53
593.10	440.02
593.26	393.21
593.41	444.70
593.57	404.91
593.73	386.19
593.89	425.98
594.05	423.64
594.20	416.62
594.36	449.38
594.52	409.59
594.68	428.32
594.84	393.21
594.99	418.96
595.15	404.91
595.31	433.00
595.47	456.40
595.62	425.98
595.78	433.00
595.94	428.32
596.10	393.21
596.25	393.21
596.41	444.70
596.57	407.25
596.73	372.15
596.88	402.57
597.04	416.62
597.20	404.91
597.36	461.09
597.51	393.21
597.67	433.00
597.83	425.98
597.99	463.43
598.14	369.80
598.30	423.64
598.46	421.30
598.61	430.66
598.77	416.62
598.93	430.66
599.09	402.57
599.24	355.76
599.40	362.78
599.56	468.11
599.71	400.23
599.87	311.29
600.03	433.00
600.18	386.19
600.34	430.66
600.50	381.51
600.65	351.08
600.81	465.77
600.97	414.27
601.12	461.09
601.28	442.36
601.44	479.81
601.59	430.66
601.75	440.02
601.91	449.38
602.06	507.90
602.22	482.15
602.37	411.93
602.53	442.36
602.69	411.93
602.84	435.34
603.00	383.85
603.16	430.66
603.31	397.89
603.47	440.02
603.62	393.21
603.78	461.09
603.94	435.34
604.09	472.79
604.25	444.70
604.40	393.21
604.56	400.23
604.71	433.00
604.87	404.91
605.03	388.53
605.18	379.17
605.34	435.34
605.49	449.38
605.65	486.83
605.80	463.43
605.96	421.30
606.12	409.59
606.27	437.68
606.43	454.06
606.58	430.66
606.74	393.21
606.89	348.74
607.05	414.27
607.20	425.98
607.36	395.55
607.51	423.64
607.67	341.72
607.82	428.32
607.98	447.04
608.13	383.85
608.29	404.91
608.44	447.04
608.60	451.72
608.75	407.25
608.91	444.70
609.06	447.04
609.22	456.40
609.37	435.34
609.53	416.62
609.68	404.91
609.84	369.80
609.99	421.30
610.15	484.49
