SpectraSuite Data File
++++++++++++++++++++++++++++++++++++
Date: Fri Oct 25 12:10:29 EDT 2013
User: price-jones
Dark Spectrum Present: No
Reference Spectrum Present: No
Number of Sampled Component Spectra: 1
Spectrometers: USB2+H05261
Integration Time (usec): 100000 (USB2+H05261)
Spectra Averaged: 1 (USB2+H05261)
Boxcar Smoothing: 0 (USB2+H05261)
Correct for Electrical Dark: No (USB2+H05261)
Strobe/Lamp Enabled: No (USB2+H05261)
Correct for Detector Non-linearity: No (USB2+H05261)
Correct for Stray Light: No (USB2+H05261)
Number of Pixels in Processed Spectrum: 2048
>>>>>Begin Processed Spectral Data<<<<<
365.73	404.91
365.92	404.91
366.12	404.91
366.32	339.38
366.52	224.69
366.72	194.26
366.91	248.10
367.11	257.46
367.31	215.33
367.51	224.69
367.70	264.48
367.90	231.71
368.10	173.20
368.30	259.80
368.49	264.48
368.69	269.16
368.89	318.31
369.09	224.69
369.28	224.69
369.48	236.39
369.68	236.39
369.87	330.02
370.07	255.12
370.27	330.02
370.47	395.55
370.66	358.10
370.86	313.63
371.06	339.38
371.25	407.25
371.45	355.76
371.65	339.38
371.84	360.44
372.04	325.33
372.24	346.40
372.44	418.96
372.63	423.64
372.83	355.76
373.03	383.85
373.22	383.85
373.42	458.74
373.62	383.85
373.81	379.17
374.01	393.21
374.21	442.36
374.40	414.27
374.60	430.66
374.79	409.59
374.99	418.96
375.19	486.83
375.38	409.59
375.58	423.64
375.78	414.27
375.97	428.32
376.17	397.89
376.37	379.17
376.56	360.44
376.76	423.64
376.95	374.49
377.15	395.55
377.35	397.89
377.54	442.36
377.74	379.17
377.93	421.30
378.13	475.13
378.33	390.87
378.52	381.51
378.72	423.64
378.91	442.36
379.11	402.57
379.31	404.91
379.50	388.53
379.70	447.04
379.89	414.27
380.09	355.76
380.28	461.09
380.48	341.72
380.68	416.62
380.87	442.36
381.07	374.49
381.26	393.21
381.46	404.91
381.65	465.77
381.85	437.68
382.04	383.85
382.24	358.10
382.43	379.17
382.63	374.49
382.83	428.32
383.02	484.49
383.22	400.23
383.41	423.64
383.61	437.68
383.80	475.13
384.00	435.34
384.19	330.02
384.39	348.74
384.58	456.40
384.78	402.57
384.97	428.32
385.17	454.06
385.36	472.79
385.56	425.98
385.75	428.32
385.95	449.38
386.14	433.00
386.34	402.57
386.53	423.64
386.72	360.44
386.92	437.68
387.11	418.96
387.31	447.04
387.50	369.80
387.70	369.80
387.89	444.70
388.09	418.96
388.28	390.87
388.48	332.36
388.67	444.70
388.86	374.49
389.06	402.57
389.25	360.44
389.45	442.36
389.64	465.77
389.84	507.90
390.03	425.98
390.22	461.09
390.42	386.19
390.61	344.06
390.81	358.10
391.00	369.80
391.19	395.55
391.39	435.34
391.58	383.85
391.78	395.55
391.97	325.33
392.16	369.80
392.36	400.23
392.55	407.25
392.75	444.70
392.94	386.19
393.13	411.93
393.33	379.17
393.52	421.30
393.71	498.53
393.91	367.46
394.10	409.59
394.29	451.72
394.49	360.44
394.68	418.96
394.88	393.21
395.07	402.57
395.26	402.57
395.46	407.25
395.65	454.06
395.84	447.04
396.04	510.24
396.23	444.70
396.42	400.23
396.62	383.85
396.81	411.93
397.00	337.04
397.19	447.04
397.39	341.72
397.58	472.79
397.77	454.06
397.97	367.46
398.16	404.91
398.35	449.38
398.55	369.80
398.74	444.70
398.93	440.02
399.12	451.72
399.32	468.11
399.51	409.59
399.70	409.59
399.90	414.27
400.09	428.32
400.28	456.40
400.47	390.87
400.67	491.51
400.86	376.83
401.05	388.53
401.24	449.38
401.44	433.00
401.63	465.77
401.82	372.15
402.01	411.93
402.21	409.59
402.40	423.64
402.59	437.68
402.78	484.49
402.97	290.23
403.17	407.25
403.36	355.76
403.55	381.51
403.74	428.32
403.93	421.30
404.13	367.46
404.32	348.74
404.51	430.66
404.70	458.74
404.89	320.65
405.09	442.36
405.28	360.44
405.47	428.32
405.66	358.10
405.85	404.91
406.05	468.11
406.24	423.64
406.43	472.79
406.62	425.98
406.81	414.27
407.00	451.72
407.20	397.89
407.39	435.34
407.58	358.10
407.77	348.74
407.96	465.77
408.15	524.28
408.34	416.62
408.54	456.40
408.73	374.49
408.92	381.51
409.11	407.25
409.30	430.66
409.49	414.27
409.68	402.57
409.87	416.62
410.07	402.57
410.26	442.36
410.45	423.64
410.64	337.04
410.83	449.38
411.02	437.68
411.21	369.80
411.40	444.70
411.59	407.25
411.78	381.51
411.98	479.81
412.17	393.21
412.36	416.62
412.55	372.15
412.74	311.29
412.93	418.96
413.12	423.64
413.31	418.96
413.50	421.30
413.69	416.62
413.88	444.70
414.07	463.43
414.26	451.72
414.45	355.76
414.64	421.30
414.83	442.36
415.02	418.96
415.22	393.21
415.41	411.93
415.60	411.93
415.79	456.40
415.98	496.19
416.17	383.85
416.36	367.46
416.55	449.38
416.74	440.02
416.93	433.00
417.12	454.06
417.31	444.70
417.50	407.25
417.69	418.96
417.88	440.02
418.07	379.17
418.26	390.87
418.45	402.57
418.64	430.66
418.83	365.12
419.02	435.34
419.21	421.30
419.39	344.06
419.58	421.30
419.77	451.72
419.96	409.59
420.15	447.04
420.34	463.43
420.53	374.49
420.72	433.00
420.91	409.59
421.10	404.91
421.29	418.96
421.48	512.58
421.67	386.19
421.86	404.91
422.05	402.57
422.24	365.12
422.43	470.45
422.61	374.49
422.80	400.23
422.99	390.87
423.18	362.78
423.37	330.02
423.56	430.66
423.75	404.91
423.94	383.85
424.13	397.89
424.32	360.44
424.50	376.83
424.69	409.59
424.88	456.40
425.07	374.49
425.26	440.02
425.45	407.25
425.64	372.15
425.83	442.36
426.01	470.45
426.20	514.92
426.39	372.15
426.58	430.66
426.77	320.65
426.96	440.02
427.15	442.36
427.33	437.68
427.52	376.83
427.71	423.64
427.90	402.57
428.09	379.17
428.28	397.89
428.46	383.85
428.65	358.10
428.84	393.21
429.03	465.77
429.22	383.85
429.40	437.68
429.59	379.17
429.78	482.15
429.97	411.93
430.16	341.72
430.34	395.55
430.53	395.55
430.72	388.53
430.91	358.10
431.10	407.25
431.28	393.21
431.47	358.10
431.66	376.83
431.85	362.78
432.03	430.66
432.22	430.66
432.41	372.15
432.60	411.93
432.79	421.30
432.97	423.64
433.16	517.26
433.35	451.72
433.54	404.91
433.72	376.83
433.91	430.66
434.10	421.30
434.28	404.91
434.47	461.09
434.66	332.36
434.85	435.34
435.03	440.02
435.22	423.64
435.41	484.49
435.59	458.74
435.78	442.36
435.97	372.15
436.16	430.66
436.34	355.76
436.53	433.00
436.72	397.89
436.90	404.91
437.09	360.44
437.28	388.53
437.46	409.59
437.65	440.02
437.84	435.34
438.02	447.04
438.21	388.53
438.40	428.32
438.58	360.44
438.77	451.72
438.96	346.40
439.14	461.09
439.33	458.74
439.52	367.46
439.70	440.02
439.89	447.04
440.08	409.59
440.26	390.87
440.45	433.00
440.63	411.93
440.82	393.21
441.01	451.72
441.19	397.89
441.38	456.40
441.57	465.77
441.75	435.34
441.94	374.49
442.12	437.68
442.31	390.87
442.50	482.15
442.68	381.51
442.87	472.79
443.05	456.40
443.24	411.93
443.43	449.38
443.61	369.80
443.80	393.21
443.98	372.15
444.17	416.62
444.35	386.19
444.54	351.08
444.73	397.89
444.91	425.98
445.10	379.17
445.28	407.25
445.47	365.12
445.65	360.44
445.84	409.59
446.02	395.55
446.21	362.78
446.39	390.87
446.58	416.62
446.77	430.66
446.95	402.57
447.14	454.06
447.32	402.57
447.51	461.09
447.69	444.70
447.88	395.55
448.06	414.27
448.25	425.98
448.43	374.49
448.62	456.40
448.80	313.63
448.99	472.79
449.17	390.87
449.36	358.10
449.54	381.51
449.73	353.42
449.91	400.23
450.10	437.68
450.28	430.66
450.46	383.85
450.65	428.32
450.83	358.10
451.02	393.21
451.20	374.49
451.39	388.53
451.57	397.89
451.76	423.64
451.94	390.87
452.13	435.34
452.31	383.85
452.49	475.13
452.68	440.02
452.86	425.98
453.05	440.02
453.23	451.72
453.42	404.91
453.60	468.11
453.78	418.96
453.97	341.72
454.15	386.19
454.34	404.91
454.52	337.04
454.70	358.10
454.89	468.11
455.07	365.12
455.26	388.53
455.44	407.25
455.62	498.53
455.81	472.79
455.99	430.66
456.17	423.64
456.36	454.06
456.54	458.74
456.73	353.42
456.91	425.98
457.09	444.70
457.28	414.27
457.46	430.66
457.64	444.70
457.83	407.25
458.01	388.53
458.19	402.57
458.38	402.57
458.56	454.06
458.74	358.10
458.93	472.79
459.11	435.34
459.29	437.68
459.48	337.04
459.66	395.55
459.84	407.25
460.03	442.36
460.21	428.32
460.39	421.30
460.57	489.17
460.76	425.98
460.94	407.25
461.12	437.68
461.31	379.17
461.49	418.96
461.67	435.34
461.85	386.19
462.04	425.98
462.22	739.61
462.40	407.25
462.59	430.66
462.77	428.32
462.95	393.21
463.13	404.91
463.32	458.74
463.50	489.17
463.68	475.13
463.86	421.30
464.05	484.49
464.23	327.68
464.41	454.06
464.59	465.77
464.78	374.49
464.96	430.66
465.14	423.64
465.32	456.40
465.50	404.91
465.69	416.62
465.87	351.08
466.05	369.80
466.23	381.51
466.41	337.04
466.60	444.70
466.78	423.64
466.96	409.59
467.14	472.79
467.32	407.25
467.51	395.55
467.69	369.80
467.87	416.62
468.05	437.68
468.23	416.62
468.41	500.87
468.60	390.87
468.78	479.81
468.96	440.02
469.14	416.62
469.32	404.91
469.50	374.49
469.69	416.62
469.87	437.68
470.05	472.79
470.23	496.19
470.41	418.96
470.59	435.34
470.77	404.91
470.95	451.72
471.14	440.02
471.32	386.19
471.50	433.00
471.68	404.91
471.86	463.43
472.04	416.62
472.22	397.89
472.40	442.36
472.58	404.91
472.77	451.72
472.95	379.17
473.13	484.49
473.31	468.11
473.49	358.10
473.67	409.59
473.85	442.36
474.03	418.96
474.21	425.98
474.39	428.32
474.57	404.91
474.75	414.27
474.93	358.10
475.12	454.06
475.30	369.80
475.48	379.17
475.66	372.15
475.84	465.77
476.02	421.30
476.20	390.87
476.38	444.70
476.56	479.81
476.74	383.85
476.92	444.70
477.10	418.96
477.28	395.55
477.46	395.55
477.64	395.55
477.82	379.17
478.00	393.21
478.18	461.09
478.36	440.02
478.54	369.80
478.72	451.72
478.90	402.57
479.08	348.74
479.26	393.21
479.44	414.27
479.62	416.62
479.80	409.59
479.98	351.08
480.16	418.96
480.34	407.25
480.52	358.10
480.70	402.57
480.88	449.38
481.06	409.59
481.24	409.59
481.41	367.46
481.59	409.59
481.77	479.81
481.95	444.70
482.13	507.90
482.31	379.17
482.49	416.62
482.67	468.11
482.85	440.02
483.03	376.83
483.21	411.93
483.39	463.43
483.57	418.96
483.74	407.25
483.92	411.93
484.10	404.91
484.28	416.62
484.46	423.64
484.64	376.83
484.82	461.09
485.00	287.89
485.18	414.27
485.35	461.09
485.53	400.23
485.71	435.34
485.89	425.98
486.07	404.91
486.25	402.57
486.43	414.27
486.61	416.62
486.78	376.83
486.96	395.55
487.14	358.10
487.32	386.19
487.50	376.83
487.68	451.72
487.85	379.17
488.03	353.42
488.21	411.93
488.39	381.51
488.57	404.91
488.75	353.42
488.92	517.26
489.10	372.15
489.28	463.43
489.46	369.80
489.64	477.47
489.81	411.93
489.99	442.36
490.17	341.72
490.35	379.17
490.53	414.27
490.70	423.64
490.88	397.89
491.06	423.64
491.24	308.95
491.41	486.83
491.59	486.83
491.77	386.19
491.95	465.77
492.13	395.55
492.30	442.36
492.48	397.89
492.66	388.53
492.84	454.06
493.01	437.68
493.19	386.19
493.37	489.17
493.54	444.70
493.72	449.38
493.90	388.53
494.08	372.15
494.25	400.23
494.43	486.83
494.61	381.51
494.79	386.19
494.96	365.12
495.14	505.56
495.32	369.80
495.49	423.64
495.67	517.26
495.85	386.19
496.02	456.40
496.20	374.49
496.38	397.89
496.55	430.66
496.73	454.06
496.91	395.55
497.09	407.25
497.26	418.96
497.44	383.85
497.62	437.68
497.79	404.91
497.97	423.64
498.14	449.38
498.32	458.74
498.50	433.00
498.67	440.02
498.85	383.85
499.03	435.34
499.20	369.80
499.38	388.53
499.56	418.96
499.73	437.68
499.91	421.30
500.08	470.45
500.26	430.66
500.44	395.55
500.61	402.57
500.79	395.55
500.97	414.27
501.14	409.59
501.32	400.23
501.49	444.70
501.67	372.15
501.84	395.55
502.02	425.98
502.20	437.68
502.37	397.89
502.55	383.85
502.72	369.80
502.90	372.15
503.07	407.25
503.25	367.46
503.43	425.98
503.60	402.57
503.78	479.81
503.95	404.91
504.13	374.49
504.30	397.89
504.48	397.89
504.65	425.98
504.83	505.56
505.01	444.70
505.18	421.30
505.36	344.06
505.53	381.51
505.71	369.80
505.88	411.93
506.06	454.06
506.23	423.64
506.41	447.04
506.58	423.64
506.76	421.30
506.93	416.62
507.11	414.27
507.28	372.15
507.46	367.46
507.63	411.93
507.81	421.30
507.98	402.57
508.16	423.64
508.33	440.02
508.50	430.66
508.68	395.55
508.85	421.30
509.03	463.43
509.20	393.21
509.38	421.30
509.55	465.77
509.73	362.78
509.90	447.04
510.08	409.59
510.25	435.34
510.42	425.98
510.60	418.96
510.77	416.62
510.95	437.68
511.12	491.51
511.30	458.74
511.47	468.11
511.64	449.38
511.82	327.68
511.99	395.55
512.17	442.36
512.34	423.64
512.51	365.12
512.69	430.66
512.86	407.25
513.04	393.21
513.21	402.57
513.38	376.83
513.56	440.02
513.73	472.79
513.90	383.85
514.08	468.11
514.25	449.38
514.43	444.70
514.60	430.66
514.77	479.81
514.95	465.77
515.12	454.06
515.29	454.06
515.47	346.40
515.64	409.59
515.81	383.85
515.99	351.08
516.16	465.77
516.33	435.34
516.51	486.83
516.68	386.19
516.85	386.19
517.03	360.44
517.20	390.87
517.37	409.59
517.54	388.53
517.72	463.43
517.89	521.94
518.06	414.27
518.24	451.72
518.41	458.74
518.58	433.00
518.75	395.55
518.93	447.04
519.10	461.09
519.27	376.83
519.45	557.05
519.62	414.27
519.79	397.89
519.96	386.19
520.14	362.78
520.31	472.79
520.48	447.04
520.65	400.23
520.83	416.62
521.00	416.62
521.17	416.62
521.34	369.80
521.52	461.09
521.69	369.80
521.86	442.36
522.03	503.22
522.20	510.24
522.38	421.30
522.55	440.02
522.72	409.59
522.89	393.21
523.07	468.11
523.24	425.98
523.41	479.81
523.58	395.55
523.75	362.78
523.92	339.38
524.10	407.25
524.27	362.78
524.44	346.40
524.61	414.27
524.78	376.83
524.96	381.51
525.13	393.21
525.30	442.36
525.47	472.79
525.64	367.46
525.81	383.85
525.98	367.46
526.16	379.17
526.33	416.62
526.50	414.27
526.67	407.25
526.84	362.78
527.01	304.27
527.18	411.93
527.36	355.76
527.53	447.04
527.70	491.51
527.87	337.04
528.04	465.77
528.21	470.45
528.38	414.27
528.55	482.15
528.72	440.02
528.89	374.49
529.07	458.74
529.24	454.06
529.41	451.72
529.58	411.93
529.75	447.04
529.92	484.49
530.09	381.51
530.26	383.85
530.43	393.21
530.60	397.89
530.77	367.46
530.94	528.96
531.11	367.46
531.28	397.89
531.46	409.59
531.63	381.51
531.80	379.17
531.97	369.80
532.14	397.89
532.31	360.44
532.48	400.23
532.65	369.80
532.82	379.17
532.99	442.36
533.16	421.30
533.33	418.96
533.50	418.96
533.67	402.57
533.84	407.25
534.01	454.06
534.18	411.93
534.35	376.83
534.52	402.57
534.69	421.30
534.86	395.55
535.03	407.25
535.20	381.51
535.37	484.49
535.54	440.02
535.71	465.77
535.88	500.87
536.05	395.55
536.22	369.80
536.38	369.80
536.55	418.96
536.72	440.02
536.89	372.15
537.06	386.19
537.23	430.66
537.40	388.53
537.57	390.87
537.74	388.53
537.91	458.74
538.08	440.02
538.25	418.96
538.42	390.87
538.59	447.04
538.75	397.89
538.92	407.25
539.09	425.98
539.26	421.30
539.43	493.85
539.60	402.57
539.77	416.62
539.94	395.55
540.11	421.30
540.28	344.06
540.44	456.40
540.61	451.72
540.78	435.34
540.95	393.21
541.12	440.02
541.29	341.72
541.46	430.66
541.62	397.89
541.79	449.38
541.96	365.12
542.13	393.21
542.30	470.45
542.47	461.09
542.63	425.98
542.80	479.81
542.97	465.77
543.14	458.74
543.31	418.96
543.48	390.87
543.64	365.12
543.81	400.23
543.98	440.02
544.15	423.64
544.32	395.55
544.48	355.76
544.65	390.87
544.82	421.30
544.99	390.87
545.16	372.15
545.32	425.98
545.49	407.25
545.66	374.49
545.83	423.64
546.00	355.76
546.16	358.10
546.33	409.59
546.50	351.08
546.67	465.77
546.83	430.66
547.00	433.00
547.17	386.19
547.34	435.34
547.50	442.36
547.67	341.72
547.84	404.91
548.00	400.23
548.17	411.93
548.34	381.51
548.51	458.74
548.67	428.32
548.84	430.66
549.01	414.27
549.18	360.44
549.34	374.49
549.51	444.70
549.68	416.62
549.84	360.44
550.01	409.59
550.18	468.11
550.34	496.19
550.51	383.85
550.68	461.09
550.84	437.68
551.01	400.23
551.18	444.70
551.34	395.55
551.51	372.15
551.68	386.19
551.84	358.10
552.01	332.36
552.18	397.89
552.34	505.56
552.51	433.00
552.68	435.34
552.84	449.38
553.01	381.51
553.18	418.96
553.34	397.89
553.51	447.04
553.67	400.23
553.84	521.94
554.01	402.57
554.17	458.74
554.34	404.91
554.51	404.91
554.67	440.02
554.84	447.04
555.00	414.27
555.17	440.02
555.33	423.64
555.50	411.93
555.67	381.51
555.83	437.68
556.00	437.68
556.16	564.07
556.33	477.47
556.50	407.25
556.66	386.19
556.83	383.85
556.99	458.74
557.16	451.72
557.32	360.44
557.49	325.33
557.65	358.10
557.82	456.40
557.98	390.87
558.15	374.49
558.32	489.17
558.48	376.83
558.65	395.55
558.81	451.72
558.98	397.89
559.14	395.55
559.31	491.51
559.47	425.98
559.64	454.06
559.80	362.78
559.97	393.21
560.13	381.51
560.30	440.02
560.46	409.59
560.63	388.53
560.79	386.19
560.96	383.85
561.12	397.89
561.29	463.43
561.45	430.66
561.61	374.49
561.78	519.60
561.94	400.23
562.11	355.76
562.27	341.72
562.44	451.72
562.60	393.21
562.77	386.19
562.93	498.53
563.10	444.70
563.26	365.12
563.42	444.70
563.59	454.06
563.75	395.55
563.92	489.17
564.08	430.66
564.24	414.27
564.41	456.40
564.57	330.02
564.74	400.23
564.90	428.32
565.07	454.06
565.23	428.32
565.39	346.40
565.56	411.93
565.72	433.00
565.88	456.40
566.05	458.74
566.21	479.81
566.38	428.32
566.54	402.57
566.70	435.34
566.87	491.51
567.03	407.25
567.19	393.21
567.36	376.83
567.52	418.96
567.68	484.49
567.85	472.79
568.01	353.42
568.17	353.42
568.34	404.91
568.50	423.64
568.66	390.87
568.83	500.87
568.99	411.93
569.15	486.83
569.32	404.91
569.48	411.93
569.64	397.89
569.81	472.79
569.97	411.93
570.13	477.47
570.30	470.45
570.46	367.46
570.62	430.66
570.78	421.30
570.95	383.85
571.11	451.72
571.27	484.49
571.43	395.55
571.60	353.42
571.76	365.12
571.92	475.13
572.09	418.96
572.25	447.04
572.41	421.30
572.57	461.09
572.74	418.96
572.90	517.26
573.06	404.91
573.22	461.09
573.38	404.91
573.55	407.25
573.71	470.45
573.87	477.47
574.03	365.12
574.20	409.59
574.36	482.15
574.52	440.02
574.68	409.59
574.84	479.81
575.01	402.57
575.17	365.12
575.33	425.98
575.49	423.64
575.65	411.93
575.82	404.91
575.98	423.64
576.14	290.23
576.30	355.76
576.46	454.06
576.62	409.59
576.79	463.43
576.95	475.13
577.11	435.34
577.27	456.40
577.43	498.53
577.59	470.45
577.75	440.02
577.92	510.24
578.08	482.15
578.24	496.19
578.40	433.00
578.56	470.45
578.72	470.45
578.88	407.25
579.04	390.87
579.21	421.30
579.37	397.89
579.53	451.72
579.69	477.47
579.85	416.62
580.01	365.12
580.17	425.98
580.33	447.04
580.49	402.57
580.65	379.17
580.82	374.49
580.98	428.32
581.14	451.72
581.30	421.30
581.46	397.89
581.62	428.32
581.78	416.62
581.94	374.49
582.10	461.09
582.26	393.21
582.42	491.51
582.58	477.47
582.74	444.70
582.90	372.15
583.06	372.15
583.22	470.45
583.38	461.09
583.54	388.53
583.70	482.15
583.86	430.66
584.02	423.64
584.18	486.83
584.34	397.89
584.50	425.98
584.66	395.55
584.82	348.74
584.98	435.34
585.14	397.89
585.30	409.59
585.46	397.89
585.62	440.02
585.78	402.57
585.94	472.79
586.10	437.68
586.26	479.81
586.42	437.68
586.58	411.93
586.74	346.40
586.90	479.81
587.06	409.59
587.22	454.06
587.38	372.15
587.54	407.25
587.70	402.57
587.86	470.45
588.02	407.25
588.18	449.38
588.34	468.11
588.49	425.98
588.65	479.81
588.81	418.96
588.97	407.25
589.13	409.59
589.29	402.57
589.45	437.68
589.61	463.43
589.77	454.06
589.93	465.77
590.08	444.70
590.24	414.27
590.40	477.47
590.56	416.62
590.72	409.59
590.88	407.25
591.04	475.13
591.20	337.04
591.35	451.72
591.51	414.27
591.67	477.47
591.83	407.25
591.99	421.30
592.15	421.30
592.31	447.04
592.46	409.59
592.62	447.04
592.78	428.32
592.94	400.23
593.10	360.44
593.26	346.40
593.41	461.09
593.57	425.98
593.73	468.11
593.89	409.59
594.05	437.68
594.20	393.21
594.36	348.74
594.52	411.93
594.68	430.66
594.84	414.27
594.99	451.72
595.15	440.02
595.31	421.30
595.47	421.30
595.62	402.57
595.78	294.91
595.94	360.44
596.10	425.98
596.25	451.72
596.41	428.32
596.57	351.08
596.73	416.62
596.88	330.02
597.04	414.27
597.20	416.62
597.36	409.59
597.51	416.62
597.67	374.49
597.83	411.93
597.99	425.98
598.14	393.21
598.30	468.11
598.46	365.12
598.61	477.47
598.77	400.23
598.93	402.57
599.09	362.78
599.24	372.15
599.40	414.27
599.56	400.23
599.71	468.11
599.87	395.55
600.03	463.43
600.18	437.68
600.34	348.74
600.50	425.98
600.65	409.59
600.81	362.78
600.97	402.57
601.12	447.04
601.28	383.85
601.44	407.25
601.59	442.36
601.75	402.57
601.91	416.62
602.06	442.36
602.22	503.22
602.37	421.30
602.53	369.80
602.69	407.25
602.84	416.62
603.00	407.25
603.16	315.97
603.31	421.30
603.47	475.13
603.62	407.25
603.78	372.15
603.94	376.83
604.09	351.08
604.25	423.64
604.40	433.00
604.56	383.85
604.71	430.66
604.87	397.89
605.03	444.70
605.18	365.12
605.34	409.59
605.49	435.34
605.65	444.70
605.80	379.17
605.96	484.49
606.12	390.87
606.27	430.66
606.43	440.02
606.58	369.80
606.74	447.04
606.89	407.25
607.05	404.91
607.20	365.12
607.36	418.96
607.51	372.15
607.67	404.91
607.82	477.47
607.98	442.36
608.13	393.21
608.29	383.85
608.44	327.68
608.60	442.36
608.75	451.72
608.91	414.27
609.06	442.36
609.22	400.23
609.37	355.76
609.53	386.19
609.68	395.55
609.84	393.21
609.99	433.00
610.15	507.90
