SpectraSuite Data File
++++++++++++++++++++++++++++++++++++
Date: Fri Oct 25 12:10:11 EDT 2013
User: price-jones
Dark Spectrum Present: No
Reference Spectrum Present: No
Number of Sampled Component Spectra: 1
Spectrometers: USB2+H05261
Integration Time (usec): 100000 (USB2+H05261)
Spectra Averaged: 1 (USB2+H05261)
Boxcar Smoothing: 0 (USB2+H05261)
Correct for Electrical Dark: No (USB2+H05261)
Strobe/Lamp Enabled: No (USB2+H05261)
Correct for Detector Non-linearity: No (USB2+H05261)
Correct for Stray Light: No (USB2+H05261)
Number of Pixels in Processed Spectrum: 2048
>>>>>Begin Processed Spectral Data<<<<<
365.73	376.83
365.92	376.83
366.12	376.83
366.32	252.78
366.52	299.59
366.72	252.78
366.91	212.99
367.11	222.35
367.31	220.01
367.51	276.18
367.70	278.52
367.90	241.08
368.10	238.73
368.30	203.63
368.49	147.45
368.69	294.91
368.89	287.89
369.09	266.82
369.28	241.08
369.48	255.12
369.68	210.65
369.87	280.86
370.07	330.02
370.27	353.42
370.47	376.83
370.66	362.78
370.86	325.33
371.06	379.17
371.25	360.44
371.45	327.68
371.65	425.98
371.84	465.77
372.04	339.38
372.24	402.57
372.44	369.80
372.63	393.21
372.83	374.49
373.03	402.57
373.22	423.64
373.42	379.17
373.62	444.70
373.81	449.38
374.01	477.47
374.21	435.34
374.40	362.78
374.60	437.68
374.79	418.96
374.99	435.34
375.19	435.34
375.38	414.27
375.58	414.27
375.78	463.43
375.97	435.34
376.17	503.22
376.37	430.66
376.56	395.55
376.76	393.21
376.95	451.72
377.15	442.36
377.35	379.17
377.54	444.70
377.74	322.99
377.93	425.98
378.13	423.64
378.33	414.27
378.52	423.64
378.72	482.15
378.91	451.72
379.11	447.04
379.31	404.91
379.50	404.91
379.70	409.59
379.89	430.66
380.09	444.70
380.28	397.89
380.48	447.04
380.68	383.85
380.87	407.25
381.07	440.02
381.26	421.30
381.46	397.89
381.65	440.02
381.85	355.76
382.04	390.87
382.24	440.02
382.43	440.02
382.63	472.79
382.83	454.06
383.02	409.59
383.22	411.93
383.41	390.87
383.61	418.96
383.80	416.62
384.00	386.19
384.19	416.62
384.39	456.40
384.58	421.30
384.78	421.30
384.97	344.06
385.17	341.72
385.36	470.45
385.56	421.30
385.75	346.40
385.95	437.68
386.14	404.91
386.34	374.49
386.53	369.80
386.72	386.19
386.92	430.66
387.11	491.51
387.31	437.68
387.50	379.17
387.70	433.00
387.89	435.34
388.09	395.55
388.28	409.59
388.48	365.12
388.67	374.49
388.86	402.57
389.06	465.77
389.25	344.06
389.45	414.27
389.64	447.04
389.84	470.45
390.03	477.47
390.22	395.55
390.42	423.64
390.61	461.09
390.81	395.55
391.00	454.06
391.19	461.09
391.39	421.30
391.58	440.02
391.78	362.78
391.97	423.64
392.16	372.15
392.36	433.00
392.55	468.11
392.75	369.80
392.94	416.62
393.13	407.25
393.33	416.62
393.52	365.12
393.71	458.74
393.91	393.21
394.10	322.99
394.29	411.93
394.49	456.40
394.68	327.68
394.88	425.98
395.07	402.57
395.26	388.53
395.46	374.49
395.65	397.89
395.84	383.85
396.04	421.30
396.23	433.00
396.42	355.76
396.62	428.32
396.81	442.36
397.00	451.72
397.19	444.70
397.39	416.62
397.58	414.27
397.77	393.21
397.97	440.02
398.16	421.30
398.35	425.98
398.55	393.21
398.74	407.25
398.93	407.25
399.12	362.78
399.32	421.30
399.51	339.38
399.70	404.91
399.90	381.51
400.09	440.02
400.28	451.72
400.47	376.83
400.67	346.40
400.86	351.08
401.05	421.30
401.24	381.51
401.44	409.59
401.63	425.98
401.82	395.55
402.01	390.87
402.21	390.87
402.40	416.62
402.59	379.17
402.78	383.85
402.97	433.00
403.17	400.23
403.36	374.49
403.55	430.66
403.74	418.96
403.93	416.62
404.13	472.79
404.32	416.62
404.51	414.27
404.70	416.62
404.89	346.40
405.09	409.59
405.28	367.46
405.47	418.96
405.66	437.68
405.85	395.55
406.05	402.57
406.24	372.15
406.43	294.91
406.62	362.78
406.81	470.45
407.00	458.74
407.20	437.68
407.39	479.81
407.58	348.74
407.77	493.85
407.96	407.25
408.15	372.15
408.34	395.55
408.54	318.31
408.73	451.72
408.92	458.74
409.11	468.11
409.30	369.80
409.49	411.93
409.68	351.08
409.87	390.87
410.07	395.55
410.26	341.72
410.45	416.62
410.64	337.04
410.83	458.74
411.02	395.55
411.21	360.44
411.40	402.57
411.59	402.57
411.78	465.77
411.98	411.93
412.17	395.55
412.36	416.62
412.55	381.51
412.74	425.98
412.93	470.45
413.12	393.21
413.31	468.11
413.50	362.78
413.69	372.15
413.88	386.19
414.07	358.10
414.26	365.12
414.45	418.96
414.64	463.43
414.83	486.83
415.02	421.30
415.22	390.87
415.41	388.53
415.60	458.74
415.79	397.89
415.98	383.85
416.17	332.36
416.36	423.64
416.55	496.19
416.74	393.21
416.93	456.40
417.12	341.72
417.31	400.23
417.50	407.25
417.69	444.70
417.88	421.30
418.07	355.76
418.26	468.11
418.45	367.46
418.64	365.12
418.83	437.68
419.02	397.89
419.21	421.30
419.39	348.74
419.58	360.44
419.77	374.49
419.96	425.98
420.15	461.09
420.34	458.74
420.53	409.59
420.72	339.38
420.91	388.53
421.10	386.19
421.29	376.83
421.48	479.81
421.67	388.53
421.86	379.17
422.05	407.25
422.24	365.12
422.43	362.78
422.61	311.29
422.80	442.36
422.99	409.59
423.18	372.15
423.37	395.55
423.56	367.46
423.75	435.34
423.94	425.98
424.13	404.91
424.32	435.34
424.50	383.85
424.69	400.23
424.88	458.74
425.07	367.46
425.26	411.93
425.45	423.64
425.64	395.55
425.83	404.91
426.01	414.27
426.20	514.92
426.39	409.59
426.58	428.32
426.77	463.43
426.96	435.34
427.15	433.00
427.33	400.23
427.52	454.06
427.71	379.17
427.90	374.49
428.09	390.87
428.28	447.04
428.46	351.08
428.65	416.62
428.84	449.38
429.03	437.68
429.22	337.04
429.40	423.64
429.59	409.59
429.78	465.77
429.97	383.85
430.16	477.47
430.34	395.55
430.53	414.27
430.72	409.59
430.91	430.66
431.10	367.46
431.28	395.55
431.47	472.79
431.66	395.55
431.85	346.40
432.03	390.87
432.22	479.81
432.41	428.32
432.60	423.64
432.79	411.93
432.97	386.19
433.16	404.91
433.35	306.61
433.54	397.89
433.72	463.43
433.91	440.02
434.10	372.15
434.28	341.72
434.47	397.89
434.66	423.64
434.85	416.62
435.03	346.40
435.22	416.62
435.41	390.87
435.59	402.57
435.78	381.51
435.97	416.62
436.16	414.27
436.34	463.43
436.53	376.83
436.72	468.11
436.90	428.32
437.09	458.74
437.28	435.34
437.46	430.66
437.65	416.62
437.84	468.11
438.02	407.25
438.21	397.89
438.40	428.32
438.58	416.62
438.77	449.38
438.96	423.64
439.14	447.04
439.33	470.45
439.52	416.62
439.70	435.34
439.89	482.15
440.08	482.15
440.26	437.68
440.45	388.53
440.63	365.12
440.82	355.76
441.01	470.45
441.19	456.40
441.38	414.27
441.57	449.38
441.75	461.09
441.94	493.85
442.12	430.66
442.31	379.17
442.50	411.93
442.68	374.49
442.87	388.53
443.05	360.44
443.24	456.40
443.43	437.68
443.61	428.32
443.80	414.27
443.98	463.43
444.17	468.11
444.35	451.72
444.54	444.70
444.73	416.62
444.91	390.87
445.10	425.98
445.28	365.12
445.47	416.62
445.65	444.70
445.84	411.93
446.02	418.96
446.21	421.30
446.39	461.09
446.58	421.30
446.77	461.09
446.95	386.19
447.14	435.34
447.32	433.00
447.51	458.74
447.69	369.80
447.88	482.15
448.06	463.43
448.25	449.38
448.43	372.15
448.62	348.74
448.80	308.95
448.99	383.85
449.17	416.62
449.36	402.57
449.54	444.70
449.73	393.21
449.91	383.85
450.10	379.17
450.28	531.30
450.46	395.55
450.65	472.79
450.83	437.68
451.02	397.89
451.20	433.00
451.39	437.68
451.57	461.09
451.76	421.30
451.94	381.51
452.13	416.62
452.31	400.23
452.49	475.13
452.68	407.25
452.86	423.64
453.05	458.74
453.23	402.57
453.42	327.68
453.60	442.36
453.78	430.66
453.97	428.32
454.15	435.34
454.34	355.76
454.52	395.55
454.70	430.66
454.89	416.62
455.07	353.42
455.26	397.89
455.44	402.57
455.62	416.62
455.81	489.17
455.99	433.00
456.17	428.32
456.36	407.25
456.54	400.23
456.73	423.64
456.91	358.10
457.09	440.02
457.28	402.57
457.46	430.66
457.64	463.43
457.83	402.57
458.01	376.83
458.19	428.32
458.38	411.93
458.56	402.57
458.74	388.53
458.93	404.91
459.11	444.70
459.29	458.74
459.48	449.38
459.66	449.38
459.84	423.64
460.03	442.36
460.21	430.66
460.39	388.53
460.57	447.04
460.76	374.49
460.94	409.59
461.12	423.64
461.31	397.89
461.49	454.06
461.67	360.44
461.85	390.87
462.04	322.99
462.22	763.01
462.40	440.02
462.59	407.25
462.77	395.55
462.95	421.30
463.13	379.17
463.32	348.74
463.50	465.77
463.68	463.43
463.86	517.26
464.05	479.81
464.23	437.68
464.41	418.96
464.59	386.19
464.78	428.32
464.96	402.57
465.14	423.64
465.32	351.08
465.50	402.57
465.69	369.80
465.87	437.68
466.05	421.30
466.23	428.32
466.41	388.53
466.60	367.46
466.78	418.96
466.96	379.17
467.14	404.91
467.32	379.17
467.51	416.62
467.69	372.15
467.87	543.00
468.05	358.10
468.23	437.68
468.41	404.91
468.60	395.55
468.78	404.91
468.96	458.74
469.14	456.40
469.32	454.06
469.50	400.23
469.69	348.74
469.87	440.02
470.05	381.51
470.23	423.64
470.41	430.66
470.59	463.43
470.77	348.74
470.95	386.19
471.14	447.04
471.32	369.80
471.50	482.15
471.68	500.87
471.86	381.51
472.04	397.89
472.22	409.59
472.40	409.59
472.58	407.25
472.77	367.46
472.95	435.34
473.13	440.02
473.31	517.26
473.49	404.91
473.67	400.23
473.85	411.93
474.03	348.74
474.21	400.23
474.39	463.43
474.57	435.34
474.75	395.55
474.93	425.98
475.12	393.21
475.30	411.93
475.48	372.15
475.66	451.72
475.84	477.47
476.02	468.11
476.20	454.06
476.38	362.78
476.56	425.98
476.74	381.51
476.92	435.34
477.10	386.19
477.28	409.59
477.46	444.70
477.64	437.68
477.82	346.40
478.00	386.19
478.18	280.86
478.36	381.51
478.54	430.66
478.72	423.64
478.90	400.23
479.08	374.49
479.26	430.66
479.44	440.02
479.62	397.89
479.80	341.72
479.98	456.40
480.16	400.23
480.34	468.11
480.52	337.04
480.70	409.59
480.88	449.38
481.06	472.79
481.24	437.68
481.41	407.25
481.59	379.17
481.77	362.78
481.95	428.32
482.13	498.53
482.31	388.53
482.49	346.40
482.67	397.89
482.85	479.81
483.03	425.98
483.21	416.62
483.39	337.04
483.57	355.76
483.74	482.15
483.92	379.17
484.10	383.85
484.28	470.45
484.46	418.96
484.64	472.79
484.82	423.64
485.00	341.72
485.18	414.27
485.35	369.80
485.53	437.68
485.71	493.85
485.89	402.57
486.07	393.21
486.25	421.30
486.43	367.46
486.61	404.91
486.78	418.96
486.96	318.31
487.14	433.00
487.32	425.98
487.50	447.04
487.68	428.32
487.85	395.55
488.03	369.80
488.21	428.32
488.39	386.19
488.57	447.04
488.75	411.93
488.92	505.56
489.10	425.98
489.28	433.00
489.46	411.93
489.64	344.06
489.81	409.59
489.99	365.12
490.17	423.64
490.35	472.79
490.53	397.89
490.70	414.27
490.88	369.80
491.06	365.12
491.24	449.38
491.41	461.09
491.59	454.06
491.77	402.57
491.95	421.30
492.13	409.59
492.30	344.06
492.48	381.51
492.66	407.25
492.84	351.08
493.01	395.55
493.19	334.70
493.37	444.70
493.54	416.62
493.72	397.89
493.90	409.59
494.08	400.23
494.25	365.12
494.43	435.34
494.61	451.72
494.79	447.04
494.96	355.76
495.14	435.34
495.32	400.23
495.49	388.53
495.67	428.32
495.85	449.38
496.02	435.34
496.20	423.64
496.38	423.64
496.55	376.83
496.73	423.64
496.91	358.10
497.09	414.27
497.26	395.55
497.44	440.02
497.62	393.21
497.79	386.19
497.97	475.13
498.14	418.96
498.32	402.57
498.50	484.49
498.67	433.00
498.85	428.32
499.03	435.34
499.20	430.66
499.38	372.15
499.56	339.38
499.73	360.44
499.91	437.68
500.08	416.62
500.26	362.78
500.44	404.91
500.61	402.57
500.79	451.72
500.97	358.10
501.14	418.96
501.32	461.09
501.49	388.53
501.67	444.70
501.84	386.19
502.02	393.21
502.20	468.11
502.37	475.13
502.55	381.51
502.72	465.77
502.90	395.55
503.07	411.93
503.25	407.25
503.43	393.21
503.60	407.25
503.78	353.42
503.95	369.80
504.13	482.15
504.30	397.89
504.48	486.83
504.65	440.02
504.83	407.25
505.01	493.85
505.18	454.06
505.36	402.57
505.53	400.23
505.71	344.06
505.88	461.09
506.06	479.81
506.23	458.74
506.41	386.19
506.58	402.57
506.76	397.89
506.93	451.72
507.11	486.83
507.28	404.91
507.46	465.77
507.63	390.87
507.81	400.23
507.98	428.32
508.16	437.68
508.33	411.93
508.50	440.02
508.68	400.23
508.85	374.49
509.03	409.59
509.20	430.66
509.38	341.72
509.55	433.00
509.73	449.38
509.90	447.04
510.08	404.91
510.25	442.36
510.42	397.89
510.60	411.93
510.77	451.72
510.95	503.22
511.12	407.25
511.30	383.85
511.47	383.85
511.64	484.49
511.82	411.93
511.99	437.68
512.17	379.17
512.34	297.25
512.51	376.83
512.69	421.30
512.86	489.17
513.04	447.04
513.21	449.38
513.38	456.40
513.56	395.55
513.73	444.70
513.90	376.83
514.08	381.51
514.25	421.30
514.43	397.89
514.60	386.19
514.77	418.96
514.95	372.15
515.12	369.80
515.29	388.53
515.47	404.91
515.64	369.80
515.81	433.00
515.99	475.13
516.16	526.62
516.33	407.25
516.51	362.78
516.68	393.21
516.85	383.85
517.03	402.57
517.20	341.72
517.37	496.19
517.54	428.32
517.72	332.36
517.89	322.99
518.06	447.04
518.24	437.68
518.41	482.15
518.58	400.23
518.75	433.00
518.93	472.79
519.10	367.46
519.27	423.64
519.45	358.10
519.62	372.15
519.79	379.17
519.96	388.53
520.14	428.32
520.31	404.91
520.48	430.66
520.65	477.47
520.83	449.38
521.00	390.87
521.17	477.47
521.34	400.23
521.52	360.44
521.69	423.64
521.86	475.13
522.03	414.27
522.20	451.72
522.38	388.53
522.55	461.09
522.72	430.66
522.89	456.40
523.07	449.38
523.24	449.38
523.41	449.38
523.58	435.34
523.75	411.93
523.92	411.93
524.10	348.74
524.27	379.17
524.44	416.62
524.61	416.62
524.78	367.46
524.96	444.70
525.13	416.62
525.30	383.85
525.47	404.91
525.64	376.83
525.81	465.77
525.98	477.47
526.16	390.87
526.33	428.32
526.50	428.32
526.67	393.21
526.84	393.21
527.01	430.66
527.18	369.80
527.36	451.72
527.53	388.53
527.70	489.17
527.87	376.83
528.04	470.45
528.21	381.51
528.38	437.68
528.55	447.04
528.72	451.72
528.89	465.77
529.07	430.66
529.24	442.36
529.41	428.32
529.58	425.98
529.75	397.89
529.92	414.27
530.09	428.32
530.26	482.15
530.43	351.08
530.60	416.62
530.77	416.62
530.94	397.89
531.11	376.83
531.28	376.83
531.46	407.25
531.63	400.23
531.80	369.80
531.97	425.98
532.14	416.62
532.31	418.96
532.48	463.43
532.65	461.09
532.82	376.83
532.99	433.00
533.16	374.49
533.33	376.83
533.50	416.62
533.67	393.21
533.84	409.59
534.01	379.17
534.18	437.68
534.35	484.49
534.52	395.55
534.69	416.62
534.86	351.08
535.03	383.85
535.20	386.19
535.37	444.70
535.54	395.55
535.71	418.96
535.88	393.21
536.05	393.21
536.22	390.87
536.38	407.25
536.55	463.43
536.72	416.62
536.89	411.93
537.06	395.55
537.23	475.13
537.40	435.34
537.57	409.59
537.74	470.45
537.91	414.27
538.08	475.13
538.25	383.85
538.42	374.49
538.59	414.27
538.75	447.04
538.92	400.23
539.09	454.06
539.26	454.06
539.43	444.70
539.60	514.92
539.77	381.51
539.94	341.72
540.11	449.38
540.28	400.23
540.44	456.40
540.61	425.98
540.78	390.87
540.95	320.65
541.12	437.68
541.29	510.24
541.46	517.26
541.62	477.47
541.79	421.30
541.96	472.79
542.13	409.59
542.30	397.89
542.47	444.70
542.63	407.25
542.80	454.06
542.97	400.23
543.14	479.81
543.31	400.23
543.48	393.21
543.64	423.64
543.81	379.17
543.98	454.06
544.15	447.04
544.32	390.87
544.48	402.57
544.65	372.15
544.82	327.68
544.99	376.83
545.16	437.68
545.32	475.13
545.49	444.70
545.66	456.40
545.83	381.51
546.00	313.63
546.16	435.34
546.33	402.57
546.50	395.55
546.67	390.87
546.83	437.68
547.00	451.72
547.17	388.53
547.34	449.38
547.50	416.62
547.67	388.53
547.84	355.76
548.00	418.96
548.17	421.30
548.34	423.64
548.51	400.23
548.67	388.53
548.84	376.83
549.01	428.32
549.18	423.64
549.34	475.13
549.51	433.00
549.68	465.77
549.84	425.98
550.01	379.17
550.18	444.70
550.34	451.72
550.51	339.38
550.68	444.70
550.84	407.25
551.01	442.36
551.18	379.17
551.34	447.04
551.51	421.30
551.68	320.65
551.84	444.70
552.01	437.68
552.18	433.00
552.34	395.55
552.51	437.68
552.68	503.22
552.84	372.15
553.01	449.38
553.18	397.89
553.34	416.62
553.51	379.17
553.67	430.66
553.84	496.19
554.01	374.49
554.17	428.32
554.34	348.74
554.51	433.00
554.67	379.17
554.84	407.25
555.00	437.68
555.17	376.83
555.33	437.68
555.50	463.43
555.67	355.76
555.83	362.78
556.00	451.72
556.16	521.94
556.33	390.87
556.50	411.93
556.66	404.91
556.83	437.68
556.99	475.13
557.16	425.98
557.32	393.21
557.49	437.68
557.65	416.62
557.82	362.78
557.98	416.62
558.15	355.76
558.32	442.36
558.48	451.72
558.65	425.98
558.81	423.64
558.98	416.62
559.14	416.62
559.31	430.66
559.47	351.08
559.64	306.61
559.80	418.96
559.97	397.89
560.13	393.21
560.30	372.15
560.46	449.38
560.63	428.32
560.79	430.66
560.96	407.25
561.12	404.91
561.29	493.85
561.45	456.40
561.61	400.23
561.78	512.58
561.94	411.93
562.11	360.44
562.27	374.49
562.44	449.38
562.60	395.55
562.77	407.25
562.93	437.68
563.10	393.21
563.26	383.85
563.42	365.12
563.59	458.74
563.75	395.55
563.92	414.27
564.08	416.62
564.24	437.68
564.41	437.68
564.57	444.70
564.74	442.36
564.90	425.98
565.07	444.70
565.23	456.40
565.39	388.53
565.56	456.40
565.72	425.98
565.88	379.17
566.05	449.38
566.21	418.96
566.38	468.11
566.54	353.42
566.70	404.91
566.87	400.23
567.03	435.34
567.19	428.32
567.36	463.43
567.52	442.36
567.68	433.00
567.85	390.87
568.01	367.46
568.17	383.85
568.34	402.57
568.50	465.77
568.66	418.96
568.83	465.77
568.99	435.34
569.15	465.77
569.32	409.59
569.48	421.30
569.64	411.93
569.81	365.12
569.97	404.91
570.13	472.79
570.30	306.61
570.46	362.78
570.62	320.65
570.78	428.32
570.95	402.57
571.11	454.06
571.27	433.00
571.43	397.89
571.60	390.87
571.76	393.21
571.92	360.44
572.09	395.55
572.25	484.49
572.41	498.53
572.57	416.62
572.74	533.64
572.90	365.12
573.06	411.93
573.22	433.00
573.38	475.13
573.55	400.23
573.71	437.68
573.87	418.96
574.03	393.21
574.20	393.21
574.36	451.72
574.52	400.23
574.68	381.51
574.84	360.44
575.01	400.23
575.17	465.77
575.33	404.91
575.49	348.74
575.65	442.36
575.82	395.55
575.98	379.17
576.14	416.62
576.30	386.19
576.46	416.62
576.62	449.38
576.79	395.55
576.95	435.34
577.11	433.00
577.27	421.30
577.43	484.49
577.59	447.04
577.75	411.93
577.92	437.68
578.08	416.62
578.24	390.87
578.40	395.55
578.56	461.09
578.72	461.09
578.88	416.62
579.04	423.64
579.21	486.83
579.37	390.87
579.53	397.89
579.69	425.98
579.85	381.51
580.01	447.04
580.17	421.30
580.33	411.93
580.49	404.91
580.65	440.02
580.82	348.74
580.98	379.17
581.14	383.85
581.30	493.85
581.46	383.85
581.62	458.74
581.78	418.96
581.94	496.19
582.10	423.64
582.26	367.46
582.42	374.49
582.58	442.36
582.74	386.19
582.90	402.57
583.06	332.36
583.22	514.92
583.38	470.45
583.54	418.96
583.70	425.98
583.86	423.64
584.02	430.66
584.18	388.53
584.34	472.79
584.50	470.45
584.66	397.89
584.82	407.25
584.98	411.93
585.14	346.40
585.30	444.70
585.46	454.06
585.62	423.64
585.78	351.08
585.94	430.66
586.10	407.25
586.26	400.23
586.42	407.25
586.58	409.59
586.74	411.93
586.90	407.25
587.06	353.42
587.22	449.38
587.38	397.89
587.54	372.15
587.70	440.02
587.86	388.53
588.02	388.53
588.18	395.55
588.34	416.62
588.49	409.59
588.65	383.85
588.81	386.19
588.97	404.91
589.13	440.02
589.29	435.34
589.45	505.56
589.61	411.93
589.77	456.40
589.93	395.55
590.08	463.43
590.24	379.17
590.40	376.83
590.56	465.77
590.72	402.57
590.88	334.70
591.04	369.80
591.20	440.02
591.35	425.98
591.51	365.12
591.67	428.32
591.83	449.38
591.99	383.85
592.15	428.32
592.31	379.17
592.46	447.04
592.62	416.62
592.78	428.32
592.94	454.06
593.10	421.30
593.26	491.51
593.41	402.57
593.57	437.68
593.73	395.55
593.89	463.43
594.05	477.47
594.20	395.55
594.36	435.34
594.52	449.38
594.68	454.06
594.84	433.00
594.99	440.02
595.15	353.42
595.31	449.38
595.47	475.13
595.62	393.21
595.78	414.27
595.94	337.04
596.10	418.96
596.25	416.62
596.41	442.36
596.57	425.98
596.73	400.23
596.88	428.32
597.04	416.62
597.20	430.66
597.36	358.10
597.51	449.38
597.67	416.62
597.83	456.40
597.99	489.17
598.14	433.00
598.30	404.91
598.46	411.93
598.61	407.25
598.77	465.77
598.93	365.12
599.09	416.62
599.24	472.79
599.40	433.00
599.56	479.81
599.71	425.98
599.87	435.34
600.03	362.78
600.18	372.15
600.34	418.96
600.50	395.55
600.65	388.53
600.81	437.68
600.97	435.34
601.12	414.27
601.28	433.00
601.44	397.89
601.59	381.51
601.75	411.93
601.91	402.57
602.06	402.57
602.22	458.74
602.37	468.11
602.53	449.38
602.69	425.98
602.84	507.90
603.00	395.55
603.16	393.21
603.31	411.93
603.47	435.34
603.62	388.53
603.78	411.93
603.94	402.57
604.09	409.59
604.25	463.43
604.40	421.30
604.56	358.10
604.71	397.89
604.87	409.59
605.03	379.17
605.18	397.89
605.34	393.21
605.49	311.29
605.65	454.06
605.80	372.15
605.96	376.83
606.12	475.13
606.27	404.91
606.43	388.53
606.58	411.93
606.74	463.43
606.89	381.51
607.05	458.74
607.20	414.27
607.36	425.98
607.51	353.42
607.67	386.19
607.82	411.93
607.98	444.70
608.13	416.62
608.29	381.51
608.44	416.62
608.60	437.68
608.75	435.34
608.91	374.49
609.06	416.62
609.22	482.15
609.37	421.30
609.53	383.85
609.68	409.59
609.84	440.02
609.99	444.70
610.15	425.98
