SpectraSuite Data File
++++++++++++++++++++++++++++++++++++
Date: Fri Oct 25 12:11:39 EDT 2013
User: price-jones
Dark Spectrum Present: No
Reference Spectrum Present: No
Number of Sampled Component Spectra: 1
Spectrometers: USB2+H05261
Integration Time (usec): 100000 (USB2+H05261)
Spectra Averaged: 1 (USB2+H05261)
Boxcar Smoothing: 0 (USB2+H05261)
Correct for Electrical Dark: No (USB2+H05261)
Strobe/Lamp Enabled: No (USB2+H05261)
Correct for Detector Non-linearity: No (USB2+H05261)
Correct for Stray Light: No (USB2+H05261)
Number of Pixels in Processed Spectrum: 2048
>>>>>Begin Processed Spectral Data<<<<<
365.73	283.20
365.92	283.20
366.12	283.20
366.32	236.39
366.52	250.44
366.72	276.18
366.91	245.76
367.11	238.73
367.31	187.24
367.51	290.23
367.70	227.03
367.90	203.63
368.10	154.48
368.30	241.08
368.49	236.39
368.69	250.44
368.89	320.65
369.09	250.44
369.28	273.84
369.48	341.72
369.68	294.91
369.87	358.10
370.07	369.80
370.27	341.72
370.47	264.48
370.66	325.33
370.86	327.68
371.06	386.19
371.25	440.02
371.45	301.93
371.65	416.62
371.84	301.93
372.04	425.98
372.24	411.93
372.44	351.08
372.63	402.57
372.83	433.00
373.03	395.55
373.22	437.68
373.42	454.06
373.62	374.49
373.81	451.72
374.01	425.98
374.21	402.57
374.40	486.83
374.60	477.47
374.79	503.22
374.99	512.58
375.19	428.32
375.38	367.46
375.58	465.77
375.78	484.49
375.97	425.98
376.17	461.09
376.37	404.91
376.56	428.32
376.76	388.53
376.95	344.06
377.15	428.32
377.35	383.85
377.54	400.23
377.74	435.34
377.93	442.36
378.13	458.74
378.33	400.23
378.52	322.99
378.72	411.93
378.91	440.02
379.11	344.06
379.31	416.62
379.50	320.65
379.70	430.66
379.89	421.30
380.09	435.34
380.28	404.91
380.48	376.83
380.68	416.62
380.87	411.93
381.07	400.23
381.26	416.62
381.46	430.66
381.65	383.85
381.85	435.34
382.04	496.19
382.24	383.85
382.43	421.30
382.63	353.42
382.83	470.45
383.02	425.98
383.22	421.30
383.41	440.02
383.61	428.32
383.80	360.44
384.00	379.17
384.19	397.89
384.39	444.70
384.58	456.40
384.78	409.59
384.97	456.40
385.17	395.55
385.36	421.30
385.56	437.68
385.75	360.44
385.95	418.96
386.14	418.96
386.34	416.62
386.53	393.21
386.72	381.51
386.92	407.25
387.11	383.85
387.31	407.25
387.50	416.62
387.70	409.59
387.89	360.44
388.09	365.12
388.28	334.70
388.48	447.04
388.67	421.30
388.86	489.17
389.06	444.70
389.25	390.87
389.45	369.80
389.64	442.36
389.84	404.91
390.03	468.11
390.22	416.62
390.42	390.87
390.61	374.49
390.81	388.53
391.00	503.22
391.19	425.98
391.39	425.98
391.58	458.74
391.78	451.72
391.97	433.00
392.16	411.93
392.36	346.40
392.55	395.55
392.75	397.89
392.94	337.04
393.13	444.70
393.33	395.55
393.52	404.91
393.71	437.68
393.91	376.83
394.10	433.00
394.29	423.64
394.49	358.10
394.68	449.38
394.88	444.70
395.07	505.56
395.26	435.34
395.46	409.59
395.65	458.74
395.84	365.12
396.04	440.02
396.23	435.34
396.42	360.44
396.62	451.72
396.81	421.30
397.00	433.00
397.19	447.04
397.39	421.30
397.58	386.19
397.77	442.36
397.97	339.38
398.16	449.38
398.35	409.59
398.55	416.62
398.74	390.87
398.93	409.59
399.12	503.22
399.32	390.87
399.51	454.06
399.70	447.04
399.90	458.74
400.09	465.77
400.28	388.53
400.47	395.55
400.67	339.38
400.86	402.57
401.05	418.96
401.24	360.44
401.44	465.77
401.63	440.02
401.82	409.59
402.01	351.08
402.21	362.78
402.40	475.13
402.59	442.36
402.78	409.59
402.97	388.53
403.17	423.64
403.36	414.27
403.55	447.04
403.74	402.57
403.93	362.78
404.13	369.80
404.32	348.74
404.51	367.46
404.70	437.68
404.89	332.36
405.09	409.59
405.28	517.26
405.47	365.12
405.66	425.98
405.85	435.34
406.05	397.89
406.24	390.87
406.43	400.23
406.62	435.34
406.81	447.04
407.00	477.47
407.20	414.27
407.39	444.70
407.58	498.53
407.77	402.57
407.96	416.62
408.15	493.85
408.34	379.17
408.54	477.47
408.73	437.68
408.92	383.85
409.11	409.59
409.30	388.53
409.49	358.10
409.68	409.59
409.87	404.91
410.07	414.27
410.26	355.76
410.45	421.30
410.64	425.98
410.83	388.53
411.02	358.10
411.21	397.89
411.40	409.59
411.59	383.85
411.78	379.17
411.98	374.49
412.17	421.30
412.36	430.66
412.55	468.11
412.74	496.19
412.93	493.85
413.12	346.40
413.31	421.30
413.50	425.98
413.69	458.74
413.88	447.04
414.07	379.17
414.26	395.55
414.45	430.66
414.64	442.36
414.83	395.55
415.02	404.91
415.22	397.89
415.41	388.53
415.60	435.34
415.79	430.66
415.98	379.17
416.17	440.02
416.36	451.72
416.55	461.09
416.74	395.55
416.93	395.55
417.12	411.93
417.31	428.32
417.50	475.13
417.69	435.34
417.88	486.83
418.07	411.93
418.26	425.98
418.45	374.49
418.64	418.96
418.83	365.12
419.02	397.89
419.21	388.53
419.39	468.11
419.58	428.32
419.77	407.25
419.96	414.27
420.15	402.57
420.34	388.53
420.53	400.23
420.72	437.68
420.91	409.59
421.10	367.46
421.29	433.00
421.48	440.02
421.67	435.34
421.86	393.21
422.05	365.12
422.24	465.77
422.43	451.72
422.61	393.21
422.80	435.34
422.99	376.83
423.18	418.96
423.37	444.70
423.56	397.89
423.75	451.72
423.94	482.15
424.13	379.17
424.32	421.30
424.50	393.21
424.69	379.17
424.88	465.77
425.07	411.93
425.26	425.98
425.45	472.79
425.64	421.30
425.83	325.33
426.01	461.09
426.20	440.02
426.39	365.12
426.58	397.89
426.77	526.62
426.96	449.38
427.15	463.43
427.33	400.23
427.52	365.12
427.71	344.06
427.90	423.64
428.09	435.34
428.28	428.32
428.46	372.15
428.65	404.91
428.84	435.34
429.03	454.06
429.22	369.80
429.40	409.59
429.59	351.08
429.78	458.74
429.97	404.91
430.16	346.40
430.34	360.44
430.53	425.98
430.72	447.04
430.91	397.89
431.10	409.59
431.28	440.02
431.47	355.76
431.66	355.76
431.85	376.83
432.03	458.74
432.22	381.51
432.41	430.66
432.60	433.00
432.79	355.76
432.97	461.09
433.16	463.43
433.35	411.93
433.54	388.53
433.72	395.55
433.91	372.15
434.10	430.66
434.28	454.06
434.47	430.66
434.66	489.17
434.85	418.96
435.03	425.98
435.22	465.77
435.41	468.11
435.59	458.74
435.78	435.34
435.97	376.83
436.16	454.06
436.34	407.25
436.53	404.91
436.72	514.92
436.90	440.02
437.09	500.87
437.28	404.91
437.46	395.55
437.65	418.96
437.84	451.72
438.02	411.93
438.21	414.27
438.40	444.70
438.58	435.34
438.77	411.93
438.96	425.98
439.14	362.78
439.33	383.85
439.52	381.51
439.70	411.93
439.89	404.91
440.08	423.64
440.26	409.59
440.45	423.64
440.63	447.04
440.82	388.53
441.01	393.21
441.19	334.70
441.38	411.93
441.57	444.70
441.75	308.95
441.94	442.36
442.12	458.74
442.31	409.59
442.50	425.98
442.68	362.78
442.87	346.40
443.05	418.96
443.24	477.47
443.43	461.09
443.61	416.62
443.80	447.04
443.98	447.04
444.17	402.57
444.35	372.15
444.54	355.76
444.73	355.76
444.91	414.27
445.10	433.00
445.28	435.34
445.47	386.19
445.65	397.89
445.84	397.89
446.02	463.43
446.21	411.93
446.39	510.24
446.58	433.00
446.77	409.59
446.95	479.81
447.14	458.74
447.32	428.32
447.51	369.80
447.69	465.77
447.88	390.87
448.06	402.57
448.25	416.62
448.43	369.80
448.62	433.00
448.80	437.68
448.99	386.19
449.17	491.51
449.36	435.34
449.54	400.23
449.73	374.49
449.91	425.98
450.10	290.23
450.28	479.81
450.46	468.11
450.65	376.83
450.83	463.43
451.02	395.55
451.20	409.59
451.39	407.25
451.57	421.30
451.76	390.87
451.94	454.06
452.13	414.27
452.31	383.85
452.49	402.57
452.68	451.72
452.86	425.98
453.05	437.68
453.23	440.02
453.42	440.02
453.60	388.53
453.78	442.36
453.97	374.49
454.15	379.17
454.34	454.06
454.52	355.76
454.70	461.09
454.89	449.38
455.07	330.02
455.26	411.93
455.44	411.93
455.62	414.27
455.81	447.04
455.99	397.89
456.17	475.13
456.36	337.04
456.54	425.98
456.73	470.45
456.91	362.78
457.09	421.30
457.28	440.02
457.46	374.49
457.64	430.66
457.83	456.40
458.01	381.51
458.19	442.36
458.38	393.21
458.56	440.02
458.74	437.68
458.93	395.55
459.11	397.89
459.29	327.68
459.48	489.17
459.66	447.04
459.84	477.47
460.03	468.11
460.21	397.89
460.39	404.91
460.57	500.87
460.76	383.85
460.94	416.62
461.12	498.53
461.31	482.15
461.49	383.85
461.67	409.59
461.85	475.13
462.04	327.68
462.22	725.57
462.40	472.79
462.59	407.25
462.77	428.32
462.95	433.00
463.13	470.45
463.32	407.25
463.50	393.21
463.68	353.42
463.86	447.04
464.05	409.59
464.23	430.66
464.41	433.00
464.59	449.38
464.78	407.25
464.96	416.62
465.14	358.10
465.32	374.49
465.50	386.19
465.69	414.27
465.87	475.13
466.05	374.49
466.23	423.64
466.41	348.74
466.60	383.85
466.78	407.25
466.96	379.17
467.14	409.59
467.32	442.36
467.51	388.53
467.69	388.53
467.87	404.91
468.05	390.87
468.23	386.19
468.41	414.27
468.60	425.98
468.78	369.80
468.96	489.17
469.14	512.58
469.32	388.53
469.50	430.66
469.69	428.32
469.87	416.62
470.05	468.11
470.23	519.60
470.41	383.85
470.59	456.40
470.77	386.19
470.95	386.19
471.14	409.59
471.32	416.62
471.50	461.09
471.68	433.00
471.86	388.53
472.04	365.12
472.22	503.22
472.40	353.42
472.58	449.38
472.77	414.27
472.95	400.23
473.13	421.30
473.31	435.34
473.49	376.83
473.67	409.59
473.85	411.93
474.03	451.72
474.21	407.25
474.39	475.13
474.57	416.62
474.75	411.93
474.93	458.74
475.12	442.36
475.30	355.76
475.48	411.93
475.66	379.17
475.84	442.36
476.02	379.17
476.20	493.85
476.38	414.27
476.56	472.79
476.74	393.21
476.92	442.36
477.10	381.51
477.28	451.72
477.46	458.74
477.64	423.64
477.82	416.62
478.00	376.83
478.18	444.70
478.36	461.09
478.54	395.55
478.72	390.87
478.90	397.89
479.08	451.72
479.26	407.25
479.44	428.32
479.62	416.62
479.80	400.23
479.98	372.15
480.16	397.89
480.34	449.38
480.52	362.78
480.70	409.59
480.88	414.27
481.06	395.55
481.24	428.32
481.41	386.19
481.59	433.00
481.77	423.64
481.95	362.78
482.13	425.98
482.31	367.46
482.49	355.76
482.67	433.00
482.85	407.25
483.03	402.57
483.21	388.53
483.39	395.55
483.57	458.74
483.74	437.68
483.92	383.85
484.10	301.93
484.28	402.57
484.46	465.77
484.64	421.30
484.82	463.43
485.00	407.25
485.18	411.93
485.35	428.32
485.53	425.98
485.71	461.09
485.89	430.66
486.07	444.70
486.25	496.19
486.43	447.04
486.61	435.34
486.78	449.38
486.96	414.27
487.14	393.21
487.32	381.51
487.50	362.78
487.68	425.98
487.85	369.80
488.03	409.59
488.21	463.43
488.39	416.62
488.57	447.04
488.75	461.09
488.92	484.49
489.10	421.30
489.28	416.62
489.46	402.57
489.64	430.66
489.81	367.46
489.99	472.79
490.17	395.55
490.35	440.02
490.53	435.34
490.70	393.21
490.88	449.38
491.06	475.13
491.24	411.93
491.41	433.00
491.59	390.87
491.77	456.40
491.95	430.66
492.13	414.27
492.30	418.96
492.48	421.30
492.66	461.09
492.84	425.98
493.01	346.40
493.19	388.53
493.37	395.55
493.54	433.00
493.72	447.04
493.90	400.23
494.08	503.22
494.25	479.81
494.43	423.64
494.61	395.55
494.79	430.66
494.96	381.51
495.14	477.47
495.32	362.78
495.49	421.30
495.67	379.17
495.85	423.64
496.02	416.62
496.20	465.77
496.38	395.55
496.55	454.06
496.73	397.89
496.91	416.62
497.09	433.00
497.26	409.59
497.44	440.02
497.62	362.78
497.79	388.53
497.97	465.77
498.14	470.45
498.32	362.78
498.50	444.70
498.67	475.13
498.85	369.80
499.03	440.02
499.20	440.02
499.38	418.96
499.56	435.34
499.73	447.04
499.91	479.81
500.08	444.70
500.26	393.21
500.44	421.30
500.61	395.55
500.79	475.13
500.97	425.98
501.14	390.87
501.32	451.72
501.49	449.38
501.67	353.42
501.84	407.25
502.02	393.21
502.20	397.89
502.37	402.57
502.55	383.85
502.72	418.96
502.90	409.59
503.07	416.62
503.25	388.53
503.43	390.87
503.60	425.98
503.78	388.53
503.95	355.76
504.13	444.70
504.30	404.91
504.48	437.68
504.65	440.02
504.83	463.43
505.01	348.74
505.18	400.23
505.36	468.11
505.53	437.68
505.71	365.12
505.88	393.21
506.06	334.70
506.23	421.30
506.41	479.81
506.58	442.36
506.76	365.12
506.93	369.80
507.11	355.76
507.28	404.91
507.46	365.12
507.63	411.93
507.81	435.34
507.98	362.78
508.16	409.59
508.33	468.11
508.50	416.62
508.68	360.44
508.85	351.08
509.03	386.19
509.20	491.51
509.38	404.91
509.55	421.30
509.73	393.21
509.90	470.45
510.08	397.89
510.25	376.83
510.42	418.96
510.60	484.49
510.77	463.43
510.95	400.23
511.12	435.34
511.30	400.23
511.47	472.79
511.64	395.55
511.82	367.46
511.99	423.64
512.17	411.93
512.34	425.98
512.51	393.21
512.69	433.00
512.86	402.57
513.04	327.68
513.21	433.00
513.38	477.47
513.56	442.36
513.73	374.49
513.90	393.21
514.08	393.21
514.25	414.27
514.43	386.19
514.60	407.25
514.77	475.13
514.95	428.32
515.12	430.66
515.29	423.64
515.47	376.83
515.64	411.93
515.81	374.49
515.99	425.98
516.16	358.10
516.33	423.64
516.51	423.64
516.68	388.53
516.85	430.66
517.03	367.46
517.20	451.72
517.37	493.85
517.54	407.25
517.72	386.19
517.89	393.21
518.06	393.21
518.24	458.74
518.41	451.72
518.58	496.19
518.75	358.10
518.93	463.43
519.10	418.96
519.27	409.59
519.45	381.51
519.62	423.64
519.79	458.74
519.96	372.15
520.14	414.27
520.31	472.79
520.48	430.66
520.65	451.72
520.83	437.68
521.00	397.89
521.17	395.55
521.34	393.21
521.52	423.64
521.69	383.85
521.86	418.96
522.03	458.74
522.20	437.68
522.38	402.57
522.55	451.72
522.72	465.77
522.89	418.96
523.07	430.66
523.24	454.06
523.41	482.15
523.58	379.17
523.75	379.17
523.92	358.10
524.10	519.60
524.27	383.85
524.44	442.36
524.61	425.98
524.78	383.85
524.96	407.25
525.13	442.36
525.30	435.34
525.47	428.32
525.64	461.09
525.81	463.43
525.98	411.93
526.16	383.85
526.33	435.34
526.50	461.09
526.67	435.34
526.84	440.02
527.01	409.59
527.18	425.98
527.36	425.98
527.53	381.51
527.70	402.57
527.87	430.66
528.04	463.43
528.21	358.10
528.38	367.46
528.55	449.38
528.72	465.77
528.89	458.74
529.07	386.19
529.24	421.30
529.41	437.68
529.58	346.40
529.75	407.25
529.92	337.04
530.09	407.25
530.26	374.49
530.43	372.15
530.60	482.15
530.77	416.62
530.94	447.04
531.11	472.79
531.28	493.85
531.46	407.25
531.63	383.85
531.80	393.21
531.97	411.93
532.14	505.56
532.31	390.87
532.48	442.36
532.65	449.38
532.82	367.46
532.99	407.25
533.16	381.51
533.33	428.32
533.50	393.21
533.67	498.53
533.84	374.49
534.01	400.23
534.18	421.30
534.35	458.74
534.52	369.80
534.69	407.25
534.86	411.93
535.03	418.96
535.20	423.64
535.37	461.09
535.54	390.87
535.71	344.06
535.88	486.83
536.05	433.00
536.22	402.57
536.38	440.02
536.55	454.06
536.72	400.23
536.89	416.62
537.06	444.70
537.23	402.57
537.40	407.25
537.57	416.62
537.74	491.51
537.91	433.00
538.08	409.59
538.25	521.94
538.42	372.15
538.59	425.98
538.75	411.93
538.92	407.25
539.09	475.13
539.26	407.25
539.43	411.93
539.60	341.72
539.77	411.93
539.94	404.91
540.11	397.89
540.28	472.79
540.44	402.57
540.61	397.89
540.78	430.66
540.95	358.10
541.12	372.15
541.29	390.87
541.46	470.45
541.62	447.04
541.79	404.91
541.96	304.27
542.13	416.62
542.30	379.17
542.47	409.59
542.63	332.36
542.80	395.55
542.97	430.66
543.14	400.23
543.31	416.62
543.48	404.91
543.64	461.09
543.81	397.89
543.98	430.66
544.15	395.55
544.32	416.62
544.48	421.30
544.65	411.93
544.82	379.17
544.99	407.25
545.16	435.34
545.32	428.32
545.49	470.45
545.66	440.02
545.83	500.87
546.00	388.53
546.16	486.83
546.33	397.89
546.50	418.96
546.67	449.38
546.83	465.77
547.00	397.89
547.17	397.89
547.34	440.02
547.50	435.34
547.67	475.13
547.84	393.21
548.00	463.43
548.17	433.00
548.34	409.59
548.51	451.72
548.67	444.70
548.84	425.98
549.01	402.57
549.18	456.40
549.34	421.30
549.51	447.04
549.68	404.91
549.84	440.02
550.01	360.44
550.18	440.02
550.34	430.66
550.51	430.66
550.68	461.09
550.84	442.36
551.01	433.00
551.18	444.70
551.34	372.15
551.51	397.89
551.68	430.66
551.84	489.17
552.01	395.55
552.18	390.87
552.34	444.70
552.51	379.17
552.68	395.55
552.84	433.00
553.01	418.96
553.18	425.98
553.34	416.62
553.51	374.49
553.67	414.27
553.84	472.79
554.01	484.49
554.17	433.00
554.34	409.59
554.51	486.83
554.67	533.64
554.84	444.70
555.00	519.60
555.17	411.93
555.33	388.53
555.50	348.74
555.67	444.70
555.83	428.32
556.00	376.83
556.16	543.00
556.33	433.00
556.50	404.91
556.66	475.13
556.83	388.53
556.99	442.36
557.16	430.66
557.32	402.57
557.49	454.06
557.65	400.23
557.82	498.53
557.98	440.02
558.15	402.57
558.32	393.21
558.48	458.74
558.65	379.17
558.81	365.12
558.98	423.64
559.14	386.19
559.31	393.21
559.47	388.53
559.64	414.27
559.80	390.87
559.97	390.87
560.13	416.62
560.30	418.96
560.46	402.57
560.63	400.23
560.79	456.40
560.96	416.62
561.12	440.02
561.29	517.26
561.45	433.00
561.61	395.55
561.78	451.72
561.94	437.68
562.11	388.53
562.27	421.30
562.44	498.53
562.60	421.30
562.77	484.49
562.93	479.81
563.10	461.09
563.26	472.79
563.42	404.91
563.59	367.46
563.75	456.40
563.92	372.15
564.08	454.06
564.24	463.43
564.41	477.47
564.57	362.78
564.74	458.74
564.90	416.62
565.07	461.09
565.23	437.68
565.39	416.62
565.56	477.47
565.72	407.25
565.88	358.10
566.05	472.79
566.21	447.04
566.38	414.27
566.54	351.08
566.70	407.25
566.87	477.47
567.03	463.43
567.19	409.59
567.36	437.68
567.52	425.98
567.68	444.70
567.85	461.09
568.01	433.00
568.17	421.30
568.34	461.09
568.50	463.43
568.66	369.80
568.83	470.45
568.99	402.57
569.15	390.87
569.32	409.59
569.48	463.43
569.64	449.38
569.81	440.02
569.97	433.00
570.13	491.51
570.30	433.00
570.46	458.74
570.62	397.89
570.78	367.46
570.95	369.80
571.11	461.09
571.27	451.72
571.43	376.83
571.60	440.02
571.76	411.93
571.92	430.66
572.09	433.00
572.25	379.17
572.41	416.62
572.57	463.43
572.74	465.77
572.90	433.00
573.06	423.64
573.22	440.02
573.38	496.19
573.55	507.90
573.71	442.36
573.87	402.57
574.03	383.85
574.20	407.25
574.36	421.30
574.52	362.78
574.68	362.78
574.84	423.64
575.01	416.62
575.17	463.43
575.33	400.23
575.49	414.27
575.65	425.98
575.82	430.66
575.98	433.00
576.14	428.32
576.30	360.44
576.46	416.62
576.62	383.85
576.79	496.19
576.95	388.53
577.11	409.59
577.27	367.46
577.43	383.85
577.59	381.51
577.75	425.98
577.92	425.98
578.08	428.32
578.24	435.34
578.40	409.59
578.56	425.98
578.72	456.40
578.88	461.09
579.04	416.62
579.21	482.15
579.37	493.85
579.53	381.51
579.69	454.06
579.85	458.74
580.01	367.46
580.17	428.32
580.33	449.38
580.49	477.47
580.65	456.40
580.82	383.85
580.98	383.85
581.14	411.93
581.30	557.05
581.46	465.77
581.62	388.53
581.78	332.36
581.94	402.57
582.10	367.46
582.26	449.38
582.42	411.93
582.58	489.17
582.74	404.91
582.90	449.38
583.06	435.34
583.22	381.51
583.38	397.89
583.54	395.55
583.70	468.11
583.86	381.51
584.02	402.57
584.18	475.13
584.34	355.76
584.50	381.51
584.66	379.17
584.82	423.64
584.98	484.49
585.14	400.23
585.30	388.53
585.46	395.55
585.62	444.70
585.78	402.57
585.94	425.98
586.10	428.32
586.26	472.79
586.42	437.68
586.58	411.93
586.74	447.04
586.90	395.55
587.06	447.04
587.22	381.51
587.38	472.79
587.54	463.43
587.70	372.15
587.86	353.42
588.02	423.64
588.18	425.98
588.34	456.40
588.49	397.89
588.65	358.10
588.81	444.70
588.97	489.17
589.13	400.23
589.29	322.99
589.45	505.56
589.61	402.57
589.77	416.62
589.93	346.40
590.08	437.68
590.24	404.91
590.40	498.53
590.56	423.64
590.72	397.89
590.88	435.34
591.04	414.27
591.20	397.89
591.35	416.62
591.51	465.77
591.67	390.87
591.83	374.49
591.99	416.62
592.15	418.96
592.31	435.34
592.46	428.32
592.62	393.21
592.78	390.87
592.94	451.72
593.10	367.46
593.26	402.57
593.41	440.02
593.57	362.78
593.73	397.89
593.89	404.91
594.05	388.53
594.20	400.23
594.36	451.72
594.52	344.06
594.68	355.76
594.84	414.27
594.99	393.21
595.15	486.83
595.31	421.30
595.47	404.91
595.62	318.31
595.78	379.17
595.94	374.49
596.10	388.53
596.25	393.21
596.41	369.80
596.57	414.27
596.73	444.70
596.88	393.21
597.04	437.68
597.20	440.02
597.36	435.34
597.51	325.33
597.67	414.27
597.83	451.72
597.99	388.53
598.14	421.30
598.30	442.36
598.46	409.59
598.61	367.46
598.77	397.89
598.93	395.55
599.09	444.70
599.24	440.02
599.40	472.79
599.56	411.93
599.71	381.51
599.87	395.55
600.03	451.72
600.18	423.64
600.34	440.02
600.50	440.02
600.65	451.72
600.81	468.11
600.97	454.06
601.12	414.27
601.28	421.30
601.44	409.59
601.59	433.00
601.75	421.30
601.91	400.23
602.06	407.25
602.22	491.51
602.37	418.96
602.53	423.64
602.69	447.04
602.84	393.21
603.00	444.70
603.16	442.36
603.31	440.02
603.47	418.96
603.62	437.68
603.78	465.77
603.94	489.17
604.09	404.91
604.25	526.62
604.40	383.85
604.56	416.62
604.71	395.55
604.87	440.02
605.03	444.70
605.18	395.55
605.34	397.89
605.49	409.59
605.65	423.64
605.80	430.66
605.96	346.40
606.12	351.08
606.27	444.70
606.43	386.19
606.58	442.36
606.74	449.38
606.89	411.93
607.05	339.38
607.20	428.32
607.36	372.15
607.51	381.51
607.67	411.93
607.82	491.51
607.98	465.77
608.13	458.74
608.29	440.02
608.44	440.02
608.60	458.74
608.75	468.11
608.91	414.27
609.06	482.15
609.22	475.13
609.37	475.13
609.53	346.40
609.68	395.55
609.84	409.59
609.99	337.04
610.15	447.04
