SpectraSuite Data File
++++++++++++++++++++++++++++++++++++
Date: Fri Oct 25 12:11:37 EDT 2013
User: price-jones
Dark Spectrum Present: No
Reference Spectrum Present: No
Number of Sampled Component Spectra: 1
Spectrometers: USB2+H05261
Integration Time (usec): 100000 (USB2+H05261)
Spectra Averaged: 1 (USB2+H05261)
Boxcar Smoothing: 0 (USB2+H05261)
Correct for Electrical Dark: No (USB2+H05261)
Strobe/Lamp Enabled: No (USB2+H05261)
Correct for Detector Non-linearity: No (USB2+H05261)
Correct for Stray Light: No (USB2+H05261)
Number of Pixels in Processed Spectrum: 2048
>>>>>Begin Processed Spectral Data<<<<<
365.73	411.93
365.92	411.93
366.12	411.93
366.32	234.05
366.52	283.20
366.72	154.48
366.91	229.37
367.11	220.01
367.31	222.35
367.51	292.57
367.70	283.20
367.90	283.20
368.10	248.10
368.30	266.82
368.49	299.59
368.69	266.82
368.89	255.12
369.09	278.52
369.28	280.86
369.48	222.35
369.68	276.18
369.87	315.97
370.07	290.23
370.27	346.40
370.47	358.10
370.66	355.76
370.86	353.42
371.06	409.59
371.25	407.25
371.45	322.99
371.65	411.93
371.84	369.80
372.04	362.78
372.24	402.57
372.44	379.17
372.63	423.64
372.83	337.04
373.03	425.98
373.22	327.68
373.42	402.57
373.62	339.38
373.81	449.38
374.01	463.43
374.21	397.89
374.40	435.34
374.60	489.17
374.79	407.25
374.99	414.27
375.19	463.43
375.38	367.46
375.58	390.87
375.78	339.38
375.97	409.59
376.17	475.13
376.37	341.72
376.56	404.91
376.76	355.76
376.95	322.99
377.15	379.17
377.35	407.25
377.54	409.59
377.74	444.70
377.93	402.57
378.13	376.83
378.33	444.70
378.52	411.93
378.72	390.87
378.91	425.98
379.11	468.11
379.31	428.32
379.50	367.46
379.70	423.64
379.89	437.68
380.09	376.83
380.28	425.98
380.48	367.46
380.68	379.17
380.87	393.21
381.07	369.80
381.26	456.40
381.46	425.98
381.65	479.81
381.85	369.80
382.04	341.72
382.24	451.72
382.43	428.32
382.63	402.57
382.83	390.87
383.02	355.76
383.22	472.79
383.41	362.78
383.61	365.12
383.80	376.83
384.00	308.95
384.19	458.74
384.39	362.78
384.58	430.66
384.78	465.77
384.97	461.09
385.17	423.64
385.36	379.17
385.56	388.53
385.75	402.57
385.95	402.57
386.14	393.21
386.34	395.55
386.53	435.34
386.72	376.83
386.92	463.43
387.11	433.00
387.31	465.77
387.50	402.57
387.70	355.76
387.89	393.21
388.09	449.38
388.28	379.17
388.48	393.21
388.67	400.23
388.86	402.57
389.06	393.21
389.25	416.62
389.45	315.97
389.64	437.68
389.84	421.30
390.03	493.85
390.22	409.59
390.42	442.36
390.61	374.49
390.81	418.96
391.00	360.44
391.19	456.40
391.39	383.85
391.58	402.57
391.78	442.36
391.97	428.32
392.16	360.44
392.36	397.89
392.55	414.27
392.75	397.89
392.94	414.27
393.13	372.15
393.33	339.38
393.52	444.70
393.71	428.32
393.91	348.74
394.10	376.83
394.29	315.97
394.49	386.19
394.68	411.93
394.88	322.99
395.07	437.68
395.26	360.44
395.46	407.25
395.65	428.32
395.84	386.19
396.04	496.19
396.23	444.70
396.42	440.02
396.62	344.06
396.81	451.72
397.00	362.78
397.19	491.51
397.39	402.57
397.58	397.89
397.77	458.74
397.97	397.89
398.16	442.36
398.35	435.34
398.55	397.89
398.74	369.80
398.93	437.68
399.12	407.25
399.32	451.72
399.51	362.78
399.70	411.93
399.90	444.70
400.09	362.78
400.28	332.36
400.47	402.57
400.67	372.15
400.86	383.85
401.05	390.87
401.24	372.15
401.44	461.09
401.63	418.96
401.82	407.25
402.01	470.45
402.21	360.44
402.40	451.72
402.59	421.30
402.78	397.89
402.97	437.68
403.17	465.77
403.36	395.55
403.55	365.12
403.74	430.66
403.93	416.62
404.13	479.81
404.32	416.62
404.51	437.68
404.70	442.36
404.89	386.19
405.09	411.93
405.28	393.21
405.47	374.49
405.66	418.96
405.85	355.76
406.05	386.19
406.24	430.66
406.43	496.19
406.62	341.72
406.81	458.74
407.00	379.17
407.20	428.32
407.39	468.11
407.58	409.59
407.77	397.89
407.96	411.93
408.15	435.34
408.34	503.22
408.54	433.00
408.73	449.38
408.92	428.32
409.11	386.19
409.30	491.51
409.49	332.36
409.68	397.89
409.87	386.19
410.07	346.40
410.26	414.27
410.45	428.32
410.64	414.27
410.83	454.06
411.02	353.42
411.21	423.64
411.40	411.93
411.59	418.96
411.78	440.02
411.98	475.13
412.17	404.91
412.36	472.79
412.55	360.44
412.74	393.21
412.93	430.66
413.12	407.25
413.31	418.96
413.50	423.64
413.69	430.66
413.88	498.53
414.07	400.23
414.26	344.06
414.45	423.64
414.64	374.49
414.83	386.19
415.02	411.93
415.22	449.38
415.41	411.93
415.60	411.93
415.79	311.29
415.98	418.96
416.17	447.04
416.36	365.12
416.55	372.15
416.74	472.79
416.93	519.60
417.12	486.83
417.31	379.17
417.50	409.59
417.69	395.55
417.88	451.72
418.07	416.62
418.26	393.21
418.45	440.02
418.64	418.96
418.83	442.36
419.02	437.68
419.21	369.80
419.39	440.02
419.58	330.02
419.77	409.59
419.96	421.30
420.15	369.80
420.34	444.70
420.53	393.21
420.72	472.79
420.91	395.55
421.10	428.32
421.29	437.68
421.48	456.40
421.67	404.91
421.86	409.59
422.05	386.19
422.24	393.21
422.43	416.62
422.61	421.30
422.80	341.72
422.99	400.23
423.18	421.30
423.37	416.62
423.56	428.32
423.75	477.47
423.94	400.23
424.13	369.80
424.32	400.23
424.50	351.08
424.69	423.64
424.88	425.98
425.07	404.91
425.26	425.98
425.45	498.53
425.64	369.80
425.83	379.17
426.01	360.44
426.20	451.72
426.39	372.15
426.58	397.89
426.77	404.91
426.96	423.64
427.15	435.34
427.33	411.93
427.52	447.04
427.71	362.78
427.90	425.98
428.09	430.66
428.28	461.09
428.46	372.15
428.65	428.32
428.84	362.78
429.03	470.45
429.22	442.36
429.40	348.74
429.59	440.02
429.78	425.98
429.97	423.64
430.16	430.66
430.34	444.70
430.53	428.32
430.72	369.80
430.91	388.53
431.10	360.44
431.28	414.27
431.47	451.72
431.66	381.51
431.85	390.87
432.03	404.91
432.22	486.83
432.41	402.57
432.60	454.06
432.79	365.12
432.97	381.51
433.16	404.91
433.35	376.83
433.54	444.70
433.72	458.74
433.91	435.34
434.10	472.79
434.28	482.15
434.47	402.57
434.66	425.98
434.85	374.49
435.03	456.40
435.22	440.02
435.41	479.81
435.59	433.00
435.78	388.53
435.97	409.59
436.16	498.53
436.34	407.25
436.53	423.64
436.72	395.55
436.90	374.49
437.09	374.49
437.28	369.80
437.46	402.57
437.65	348.74
437.84	433.00
438.02	428.32
438.21	458.74
438.40	383.85
438.58	351.08
438.77	461.09
438.96	423.64
439.14	433.00
439.33	390.87
439.52	376.83
439.70	433.00
439.89	341.72
440.08	388.53
440.26	416.62
440.45	397.89
440.63	325.33
440.82	388.53
441.01	344.06
441.19	425.98
441.38	498.53
441.57	379.17
441.75	442.36
441.94	404.91
442.12	367.46
442.31	353.42
442.50	416.62
442.68	437.68
442.87	444.70
443.05	472.79
443.24	416.62
443.43	498.53
443.61	454.06
443.80	428.32
443.98	444.70
444.17	425.98
444.35	367.46
444.54	376.83
444.73	402.57
444.91	528.96
445.10	437.68
445.28	346.40
445.47	451.72
445.65	451.72
445.84	390.87
446.02	421.30
446.21	397.89
446.39	365.12
446.58	397.89
446.77	395.55
446.95	437.68
447.14	458.74
447.32	498.53
447.51	486.83
447.69	365.12
447.88	409.59
448.06	449.38
448.25	489.17
448.43	472.79
448.62	374.49
448.80	447.04
448.99	454.06
449.17	416.62
449.36	447.04
449.54	479.81
449.73	402.57
449.91	430.66
450.10	379.17
450.28	374.49
450.46	421.30
450.65	374.49
450.83	449.38
451.02	376.83
451.20	468.11
451.39	379.17
451.57	362.78
451.76	355.76
451.94	337.04
452.13	472.79
452.31	430.66
452.49	376.83
452.68	374.49
452.86	454.06
453.05	468.11
453.23	461.09
453.42	414.27
453.60	407.25
453.78	477.47
453.97	388.53
454.15	437.68
454.34	390.87
454.52	376.83
454.70	484.49
454.89	498.53
455.07	454.06
455.26	409.59
455.44	500.87
455.62	461.09
455.81	383.85
455.99	447.04
456.17	409.59
456.36	468.11
456.54	411.93
456.73	418.96
456.91	418.96
457.09	451.72
457.28	500.87
457.46	395.55
457.64	379.17
457.83	337.04
458.01	407.25
458.19	477.47
458.38	451.72
458.56	374.49
458.74	414.27
458.93	421.30
459.11	341.72
459.29	369.80
459.48	400.23
459.66	440.02
459.84	435.34
460.03	463.43
460.21	400.23
460.39	390.87
460.57	395.55
460.76	433.00
460.94	395.55
461.12	521.94
461.31	482.15
461.49	449.38
461.67	428.32
461.85	428.32
462.04	449.38
462.22	809.83
462.40	484.49
462.59	491.51
462.77	423.64
462.95	425.98
463.13	444.70
463.32	430.66
463.50	397.89
463.68	470.45
463.86	404.91
464.05	393.21
464.23	374.49
464.41	407.25
464.59	374.49
464.78	383.85
464.96	428.32
465.14	367.46
465.32	365.12
465.50	414.27
465.69	470.45
465.87	360.44
466.05	379.17
466.23	484.49
466.41	458.74
466.60	320.65
466.78	517.26
466.96	416.62
467.14	425.98
467.32	414.27
467.51	407.25
467.69	475.13
467.87	498.53
468.05	421.30
468.23	486.83
468.41	421.30
468.60	397.89
468.78	430.66
468.96	463.43
469.14	430.66
469.32	315.97
469.50	315.97
469.69	372.15
469.87	409.59
470.05	404.91
470.23	388.53
470.41	421.30
470.59	418.96
470.77	411.93
470.95	456.40
471.14	425.98
471.32	454.06
471.50	463.43
471.68	451.72
471.86	414.27
472.04	346.40
472.22	437.68
472.40	425.98
472.58	393.21
472.77	388.53
472.95	416.62
473.13	416.62
473.31	425.98
473.49	411.93
473.67	421.30
473.85	430.66
474.03	400.23
474.21	463.43
474.39	498.53
474.57	402.57
474.75	507.90
474.93	440.02
475.12	332.36
475.30	400.23
475.48	421.30
475.66	451.72
475.84	421.30
476.02	379.17
476.20	444.70
476.38	397.89
476.56	442.36
476.74	397.89
476.92	491.51
477.10	507.90
477.28	423.64
477.46	353.42
477.64	423.64
477.82	404.91
478.00	397.89
478.18	468.11
478.36	402.57
478.54	404.91
478.72	379.17
478.90	374.49
479.08	397.89
479.26	374.49
479.44	381.51
479.62	430.66
479.80	479.81
479.98	411.93
480.16	482.15
480.34	430.66
480.52	449.38
480.70	386.19
480.88	411.93
481.06	435.34
481.24	416.62
481.41	402.57
481.59	433.00
481.77	428.32
481.95	451.72
482.13	472.79
482.31	365.12
482.49	379.17
482.67	390.87
482.85	458.74
483.03	454.06
483.21	428.32
483.39	477.47
483.57	428.32
483.74	454.06
483.92	421.30
484.10	334.70
484.28	489.17
484.46	430.66
484.64	318.31
484.82	454.06
485.00	449.38
485.18	367.46
485.35	435.34
485.53	393.21
485.71	411.93
485.89	346.40
486.07	482.15
486.25	444.70
486.43	486.83
486.61	496.19
486.78	397.89
486.96	425.98
487.14	416.62
487.32	421.30
487.50	411.93
487.68	456.40
487.85	353.42
488.03	414.27
488.21	500.87
488.39	430.66
488.57	409.59
488.75	383.85
488.92	535.98
489.10	409.59
489.28	486.83
489.46	355.76
489.64	416.62
489.81	404.91
489.99	423.64
490.17	383.85
490.35	414.27
490.53	376.83
490.70	447.04
490.88	360.44
491.06	344.06
491.24	440.02
491.41	475.13
491.59	388.53
491.77	440.02
491.95	353.42
492.13	435.34
492.30	456.40
492.48	465.77
492.66	379.17
492.84	416.62
493.01	421.30
493.19	463.43
493.37	430.66
493.54	381.51
493.72	472.79
493.90	383.85
494.08	442.36
494.25	463.43
494.43	456.40
494.61	362.78
494.79	418.96
494.96	348.74
495.14	376.83
495.32	418.96
495.49	397.89
495.67	381.51
495.85	437.68
496.02	369.80
496.20	472.79
496.38	402.57
496.55	449.38
496.73	430.66
496.91	458.74
497.09	404.91
497.26	451.72
497.44	465.77
497.62	332.36
497.79	353.42
497.97	430.66
498.14	447.04
498.32	383.85
498.50	404.91
498.67	435.34
498.85	416.62
499.03	351.08
499.20	449.38
499.38	388.53
499.56	390.87
499.73	463.43
499.91	383.85
500.08	393.21
500.26	456.40
500.44	416.62
500.61	423.64
500.79	407.25
500.97	409.59
501.14	421.30
501.32	416.62
501.49	479.81
501.67	442.36
501.84	437.68
502.02	367.46
502.20	484.49
502.37	451.72
502.55	440.02
502.72	421.30
502.90	451.72
503.07	472.79
503.25	484.49
503.43	402.57
503.60	423.64
503.78	318.31
503.95	404.91
504.13	407.25
504.30	369.80
504.48	409.59
504.65	479.81
504.83	423.64
505.01	402.57
505.18	397.89
505.36	402.57
505.53	409.59
505.71	440.02
505.88	409.59
506.06	404.91
506.23	423.64
506.41	400.23
506.58	444.70
506.76	484.49
506.93	463.43
507.11	463.43
507.28	496.19
507.46	395.55
507.63	463.43
507.81	447.04
507.98	418.96
508.16	425.98
508.33	451.72
508.50	418.96
508.68	451.72
508.85	425.98
509.03	346.40
509.20	407.25
509.38	425.98
509.55	486.83
509.73	416.62
509.90	454.06
510.08	360.44
510.25	407.25
510.42	397.89
510.60	454.06
510.77	461.09
510.95	407.25
511.12	423.64
511.30	440.02
511.47	456.40
511.64	416.62
511.82	397.89
511.99	437.68
512.17	397.89
512.34	376.83
512.51	425.98
512.69	414.27
512.86	470.45
513.04	435.34
513.21	461.09
513.38	400.23
513.56	407.25
513.73	390.87
513.90	383.85
514.08	461.09
514.25	404.91
514.43	477.47
514.60	393.21
514.77	390.87
514.95	400.23
515.12	388.53
515.29	449.38
515.47	395.55
515.64	393.21
515.81	383.85
515.99	423.64
516.16	440.02
516.33	416.62
516.51	383.85
516.68	451.72
516.85	393.21
517.03	397.89
517.20	430.66
517.37	461.09
517.54	430.66
517.72	421.30
517.89	421.30
518.06	402.57
518.24	486.83
518.41	421.30
518.58	337.04
518.75	397.89
518.93	447.04
519.10	330.02
519.27	337.04
519.45	330.02
519.62	437.68
519.79	402.57
519.96	421.30
520.14	327.68
520.31	421.30
520.48	411.93
520.65	444.70
520.83	468.11
521.00	372.15
521.17	477.47
521.34	395.55
521.52	379.17
521.69	414.27
521.86	475.13
522.03	348.74
522.20	425.98
522.38	362.78
522.55	421.30
522.72	465.77
522.89	393.21
523.07	468.11
523.24	351.08
523.41	425.98
523.58	435.34
523.75	421.30
523.92	430.66
524.10	407.25
524.27	416.62
524.44	397.89
524.61	451.72
524.78	425.98
524.96	416.62
525.13	395.55
525.30	454.06
525.47	395.55
525.64	407.25
525.81	463.43
525.98	388.53
526.16	489.17
526.33	484.49
526.50	409.59
526.67	395.55
526.84	442.36
527.01	355.76
527.18	414.27
527.36	451.72
527.53	414.27
527.70	358.10
527.87	461.09
528.04	386.19
528.21	437.68
528.38	407.25
528.55	512.58
528.72	376.83
528.89	404.91
529.07	411.93
529.24	416.62
529.41	423.64
529.58	447.04
529.75	437.68
529.92	447.04
530.09	393.21
530.26	437.68
530.43	428.32
530.60	358.10
530.77	393.21
530.94	468.11
531.11	386.19
531.28	442.36
531.46	416.62
531.63	470.45
531.80	416.62
531.97	447.04
532.14	381.51
532.31	411.93
532.48	395.55
532.65	468.11
532.82	421.30
532.99	442.36
533.16	397.89
533.33	397.89
533.50	437.68
533.67	421.30
533.84	437.68
534.01	470.45
534.18	402.57
534.35	386.19
534.52	498.53
534.69	435.34
534.86	456.40
535.03	461.09
535.20	437.68
535.37	416.62
535.54	491.51
535.71	430.66
535.88	458.74
536.05	372.15
536.22	519.60
536.38	428.32
536.55	353.42
536.72	442.36
536.89	468.11
537.06	381.51
537.23	430.66
537.40	414.27
537.57	414.27
537.74	458.74
537.91	458.74
538.08	444.70
538.25	402.57
538.42	482.15
538.59	437.68
538.75	400.23
538.92	423.64
539.09	416.62
539.26	477.47
539.43	423.64
539.60	379.17
539.77	409.59
539.94	395.55
540.11	442.36
540.28	437.68
540.44	428.32
540.61	409.59
540.78	402.57
540.95	475.13
541.12	503.22
541.29	353.42
541.46	428.32
541.62	390.87
541.79	442.36
541.96	376.83
542.13	409.59
542.30	374.49
542.47	416.62
542.63	348.74
542.80	465.77
542.97	425.98
543.14	524.28
543.31	376.83
543.48	451.72
543.64	425.98
543.81	397.89
543.98	407.25
544.15	444.70
544.32	421.30
544.48	376.83
544.65	409.59
544.82	430.66
544.99	409.59
545.16	454.06
545.32	449.38
545.49	482.15
545.66	423.64
545.83	346.40
546.00	416.62
546.16	409.59
546.33	456.40
546.50	491.51
546.67	440.02
546.83	440.02
547.00	463.43
547.17	470.45
547.34	428.32
547.50	489.17
547.67	416.62
547.84	381.51
548.00	489.17
548.17	351.08
548.34	430.66
548.51	423.64
548.67	383.85
548.84	425.98
549.01	383.85
549.18	407.25
549.34	463.43
549.51	372.15
549.68	365.12
549.84	393.21
550.01	358.10
550.18	430.66
550.34	456.40
550.51	449.38
550.68	498.53
550.84	383.85
551.01	407.25
551.18	440.02
551.34	444.70
551.51	447.04
551.68	423.64
551.84	416.62
552.01	367.46
552.18	367.46
552.34	341.72
552.51	409.59
552.68	484.49
552.84	507.90
553.01	456.40
553.18	451.72
553.34	360.44
553.51	416.62
553.67	397.89
553.84	479.81
554.01	414.27
554.17	451.72
554.34	381.51
554.51	381.51
554.67	472.79
554.84	411.93
555.00	477.47
555.17	425.98
555.33	423.64
555.50	395.55
555.67	447.04
555.83	379.17
556.00	393.21
556.16	580.45
556.33	545.34
556.50	440.02
556.66	388.53
556.83	407.25
556.99	397.89
557.16	376.83
557.32	409.59
557.49	423.64
557.65	414.27
557.82	376.83
557.98	423.64
558.15	390.87
558.32	435.34
558.48	454.06
558.65	435.34
558.81	353.42
558.98	376.83
559.14	449.38
559.31	454.06
559.47	400.23
559.64	362.78
559.80	470.45
559.97	409.59
560.13	348.74
560.30	447.04
560.46	379.17
560.63	339.38
560.79	479.81
560.96	411.93
561.12	465.77
561.29	447.04
561.45	482.15
561.61	437.68
561.78	503.22
561.94	390.87
562.11	425.98
562.27	423.64
562.44	416.62
562.60	411.93
562.77	388.53
562.93	421.30
563.10	456.40
563.26	400.23
563.42	411.93
563.59	472.79
563.75	383.85
563.92	500.87
564.08	442.36
564.24	411.93
564.41	465.77
564.57	428.32
564.74	428.32
564.90	425.98
565.07	428.32
565.23	400.23
565.39	397.89
565.56	379.17
565.72	313.63
565.88	400.23
566.05	365.12
566.21	416.62
566.38	489.17
566.54	423.64
566.70	454.06
566.87	416.62
567.03	353.42
567.19	421.30
567.36	449.38
567.52	489.17
567.68	482.15
567.85	379.17
568.01	369.80
568.17	421.30
568.34	430.66
568.50	479.81
568.66	437.68
568.83	442.36
568.99	503.22
569.15	512.58
569.32	454.06
569.48	456.40
569.64	470.45
569.81	421.30
569.97	418.96
570.13	381.51
570.30	454.06
570.46	395.55
570.62	444.70
570.78	425.98
570.95	381.51
571.11	484.49
571.27	463.43
571.43	416.62
571.60	381.51
571.76	449.38
571.92	491.51
572.09	411.93
572.25	388.53
572.41	407.25
572.57	423.64
572.74	433.00
572.90	519.60
573.06	472.79
573.22	414.27
573.38	435.34
573.55	421.30
573.71	437.68
573.87	402.57
574.03	327.68
574.20	395.55
574.36	437.68
574.52	330.02
574.68	447.04
574.84	395.55
575.01	383.85
575.17	463.43
575.33	425.98
575.49	346.40
575.65	449.38
575.82	444.70
575.98	491.51
576.14	397.89
576.30	444.70
576.46	386.19
576.62	397.89
576.79	454.06
576.95	526.62
577.11	423.64
577.27	386.19
577.43	489.17
577.59	414.27
577.75	463.43
577.92	428.32
578.08	409.59
578.24	423.64
578.40	456.40
578.56	435.34
578.72	411.93
578.88	456.40
579.04	491.51
579.21	435.34
579.37	390.87
579.53	418.96
579.69	440.02
579.85	400.23
580.01	489.17
580.17	440.02
580.33	447.04
580.49	503.22
580.65	414.27
580.82	421.30
580.98	449.38
581.14	390.87
581.30	386.19
581.46	414.27
581.62	428.32
581.78	388.53
581.94	423.64
582.10	355.76
582.26	418.96
582.42	498.53
582.58	381.51
582.74	407.25
582.90	393.21
583.06	367.46
583.22	379.17
583.38	348.74
583.54	440.02
583.70	425.98
583.86	463.43
584.02	358.10
584.18	477.47
584.34	430.66
584.50	423.64
584.66	416.62
584.82	404.91
584.98	440.02
585.14	486.83
585.30	369.80
585.46	444.70
585.62	367.46
585.78	425.98
585.94	458.74
586.10	404.91
586.26	414.27
586.42	475.13
586.58	444.70
586.74	404.91
586.90	402.57
587.06	456.40
587.22	428.32
587.38	449.38
587.54	379.17
587.70	428.32
587.86	425.98
588.02	470.45
588.18	421.30
588.34	388.53
588.49	390.87
588.65	437.68
588.81	442.36
588.97	386.19
589.13	355.76
589.29	348.74
589.45	447.04
589.61	428.32
589.77	344.06
589.93	365.12
590.08	407.25
590.24	421.30
590.40	449.38
590.56	477.47
590.72	404.91
590.88	461.09
591.04	477.47
591.20	470.45
591.35	383.85
591.51	425.98
591.67	425.98
591.83	379.17
591.99	407.25
592.15	372.15
592.31	451.72
592.46	386.19
592.62	463.43
592.78	376.83
592.94	393.21
593.10	400.23
593.26	381.51
593.41	365.12
593.57	414.27
593.73	470.45
593.89	475.13
594.05	379.17
594.20	358.10
594.36	372.15
594.52	425.98
594.68	430.66
594.84	435.34
594.99	458.74
595.15	397.89
595.31	400.23
595.47	479.81
595.62	465.77
595.78	430.66
595.94	379.17
596.10	374.49
596.25	437.68
596.41	463.43
596.57	407.25
596.73	369.80
596.88	435.34
597.04	400.23
597.20	435.34
597.36	358.10
597.51	430.66
597.67	421.30
597.83	383.85
597.99	526.62
598.14	404.91
598.30	395.55
598.46	374.49
598.61	461.09
598.77	498.53
598.93	374.49
599.09	430.66
599.24	397.89
599.40	437.68
599.56	402.57
599.71	395.55
599.87	454.06
600.03	430.66
600.18	330.02
600.34	444.70
600.50	440.02
600.65	362.78
600.81	423.64
600.97	416.62
601.12	496.19
601.28	444.70
601.44	463.43
601.59	425.98
601.75	390.87
601.91	407.25
602.06	472.79
602.22	510.24
602.37	440.02
602.53	334.70
602.69	421.30
602.84	404.91
603.00	479.81
603.16	519.60
603.31	388.53
603.47	468.11
603.62	381.51
603.78	374.49
603.94	414.27
604.09	447.04
604.25	425.98
604.40	447.04
604.56	447.04
604.71	430.66
604.87	465.77
605.03	435.34
605.18	425.98
605.34	416.62
605.49	423.64
605.65	428.32
605.80	353.42
605.96	397.89
606.12	505.56
606.27	479.81
606.43	395.55
606.58	484.49
606.74	400.23
606.89	470.45
607.05	444.70
607.20	423.64
607.36	447.04
607.51	376.83
607.67	414.27
607.82	416.62
607.98	409.59
608.13	458.74
608.29	325.33
608.44	365.12
608.60	411.93
608.75	390.87
608.91	390.87
609.06	411.93
609.22	397.89
609.37	458.74
609.53	334.70
609.68	404.91
609.84	409.59
609.99	440.02
610.15	442.36
