SpectraSuite Data File
++++++++++++++++++++++++++++++++++++
Date: Fri Oct 25 12:11:26 EDT 2013
User: price-jones
Dark Spectrum Present: No
Reference Spectrum Present: No
Number of Sampled Component Spectra: 1
Spectrometers: USB2+H05261
Integration Time (usec): 100000 (USB2+H05261)
Spectra Averaged: 1 (USB2+H05261)
Boxcar Smoothing: 0 (USB2+H05261)
Correct for Electrical Dark: No (USB2+H05261)
Strobe/Lamp Enabled: No (USB2+H05261)
Correct for Detector Non-linearity: No (USB2+H05261)
Correct for Stray Light: No (USB2+H05261)
Number of Pixels in Processed Spectrum: 2048
>>>>>Begin Processed Spectral Data<<<<<
365.73	301.93
365.92	301.93
366.12	301.93
366.32	248.10
366.52	243.42
366.72	245.76
366.91	255.12
367.11	259.80
367.31	203.63
367.51	271.50
367.70	271.50
367.90	222.35
368.10	231.71
368.30	238.73
368.49	255.12
368.69	259.80
368.89	248.10
369.09	269.16
369.28	278.52
369.48	334.70
369.68	301.93
369.87	344.06
370.07	308.95
370.27	325.33
370.47	348.74
370.66	360.44
370.86	290.23
371.06	379.17
371.25	411.93
371.45	397.89
371.65	402.57
371.84	395.55
372.04	400.23
372.24	400.23
372.44	351.08
372.63	393.21
372.83	360.44
373.03	400.23
373.22	379.17
373.42	395.55
373.62	414.27
373.81	414.27
374.01	414.27
374.21	418.96
374.40	409.59
374.60	416.62
374.79	339.38
374.99	367.46
375.19	433.00
375.38	407.25
375.58	498.53
375.78	423.64
375.97	423.64
376.17	449.38
376.37	409.59
376.56	425.98
376.76	388.53
376.95	339.38
377.15	390.87
377.35	428.32
377.54	365.12
377.74	346.40
377.93	386.19
378.13	388.53
378.33	456.40
378.52	395.55
378.72	435.34
378.91	404.91
379.11	444.70
379.31	407.25
379.50	332.36
379.70	407.25
379.89	465.77
380.09	400.23
380.28	400.23
380.48	381.51
380.68	334.70
380.87	449.38
381.07	433.00
381.26	475.13
381.46	337.04
381.65	400.23
381.85	404.91
382.04	400.23
382.24	374.49
382.43	330.02
382.63	402.57
382.83	353.42
383.02	369.80
383.22	393.21
383.41	381.51
383.61	477.47
383.80	404.91
384.00	407.25
384.19	437.68
384.39	423.64
384.58	454.06
384.78	376.83
384.97	444.70
385.17	374.49
385.36	435.34
385.56	479.81
385.75	454.06
385.95	383.85
386.14	451.72
386.34	430.66
386.53	376.83
386.72	430.66
386.92	477.47
387.11	451.72
387.31	407.25
387.50	491.51
387.70	411.93
387.89	388.53
388.09	325.33
388.28	355.76
388.48	409.59
388.67	409.59
388.86	383.85
389.06	423.64
389.25	402.57
389.45	456.40
389.64	383.85
389.84	402.57
390.03	372.15
390.22	416.62
390.42	395.55
390.61	409.59
390.81	379.17
391.00	444.70
391.19	411.93
391.39	381.51
391.58	433.00
391.78	393.21
391.97	435.34
392.16	393.21
392.36	388.53
392.55	496.19
392.75	407.25
392.94	472.79
393.13	461.09
393.33	414.27
393.52	409.59
393.71	421.30
393.91	397.89
394.10	409.59
394.29	461.09
394.49	407.25
394.68	365.12
394.88	362.78
395.07	437.68
395.26	402.57
395.46	346.40
395.65	461.09
395.84	458.74
396.04	468.11
396.23	386.19
396.42	386.19
396.62	365.12
396.81	393.21
397.00	470.45
397.19	454.06
397.39	346.40
397.58	383.85
397.77	407.25
397.97	437.68
398.16	456.40
398.35	454.06
398.55	351.08
398.74	390.87
398.93	374.49
399.12	369.80
399.32	386.19
399.51	351.08
399.70	355.76
399.90	433.00
400.09	330.02
400.28	372.15
400.47	428.32
400.67	430.66
400.86	430.66
401.05	440.02
401.24	374.49
401.44	381.51
401.63	418.96
401.82	381.51
402.01	355.76
402.21	381.51
402.40	308.95
402.59	470.45
402.78	400.23
402.97	381.51
403.17	369.80
403.36	395.55
403.55	423.64
403.74	451.72
403.93	409.59
404.13	477.47
404.32	404.91
404.51	390.87
404.70	407.25
404.89	411.93
405.09	454.06
405.28	355.76
405.47	395.55
405.66	407.25
405.85	507.90
406.05	449.38
406.24	461.09
406.43	346.40
406.62	379.17
406.81	449.38
407.00	435.34
407.20	447.04
407.39	369.80
407.58	433.00
407.77	472.79
407.96	407.25
408.15	465.77
408.34	440.02
408.54	437.68
408.73	334.70
408.92	362.78
409.11	383.85
409.30	498.53
409.49	416.62
409.68	409.59
409.87	482.15
410.07	379.17
410.26	428.32
410.45	468.11
410.64	418.96
410.83	447.04
411.02	388.53
411.21	458.74
411.40	454.06
411.59	444.70
411.78	383.85
411.98	395.55
412.17	372.15
412.36	369.80
412.55	421.30
412.74	440.02
412.93	395.55
413.12	423.64
413.31	383.85
413.50	430.66
413.69	322.99
413.88	425.98
414.07	395.55
414.26	381.51
414.45	395.55
414.64	360.44
414.83	388.53
415.02	397.89
415.22	475.13
415.41	390.87
415.60	402.57
415.79	381.51
415.98	400.23
416.17	440.02
416.36	344.06
416.55	362.78
416.74	386.19
416.93	376.83
417.12	393.21
417.31	358.10
417.50	386.19
417.69	479.81
417.88	386.19
418.07	365.12
418.26	456.40
418.45	414.27
418.64	390.87
418.83	390.87
419.02	416.62
419.21	393.21
419.39	423.64
419.58	435.34
419.77	430.66
419.96	402.57
420.15	358.10
420.34	404.91
420.53	428.32
420.72	407.25
420.91	430.66
421.10	400.23
421.29	334.70
421.48	425.98
421.67	451.72
421.86	379.17
422.05	416.62
422.24	402.57
422.43	517.26
422.61	315.97
422.80	379.17
422.99	433.00
423.18	414.27
423.37	484.49
423.56	437.68
423.75	463.43
423.94	358.10
424.13	374.49
424.32	414.27
424.50	397.89
424.69	442.36
424.88	360.44
425.07	393.21
425.26	458.74
425.45	428.32
425.64	421.30
425.83	407.25
426.01	372.15
426.20	475.13
426.39	414.27
426.58	425.98
426.77	362.78
426.96	400.23
427.15	435.34
427.33	465.77
427.52	437.68
427.71	353.42
427.90	449.38
428.09	404.91
428.28	409.59
428.46	404.91
428.65	367.46
428.84	414.27
429.03	451.72
429.22	344.06
429.40	400.23
429.59	397.89
429.78	465.77
429.97	465.77
430.16	428.32
430.34	430.66
430.53	437.68
430.72	383.85
430.91	395.55
431.10	383.85
431.28	402.57
431.47	395.55
431.66	411.93
431.85	346.40
432.03	416.62
432.22	388.53
432.41	440.02
432.60	463.43
432.79	318.31
432.97	348.74
433.16	397.89
433.35	404.91
433.54	365.12
433.72	421.30
433.91	470.45
434.10	423.64
434.28	416.62
434.47	353.42
434.66	372.15
434.85	376.83
435.03	468.11
435.22	425.98
435.41	360.44
435.59	393.21
435.78	430.66
435.97	390.87
436.16	395.55
436.34	341.72
436.53	428.32
436.72	365.12
436.90	402.57
437.09	524.28
437.28	465.77
437.46	381.51
437.65	447.04
437.84	418.96
438.02	393.21
438.21	461.09
438.40	299.59
438.58	423.64
438.77	440.02
438.96	425.98
439.14	367.46
439.33	425.98
439.52	365.12
439.70	372.15
439.89	451.72
440.08	425.98
440.26	489.17
440.45	404.91
440.63	437.68
440.82	433.00
441.01	475.13
441.19	444.70
441.38	341.72
441.57	390.87
441.75	470.45
441.94	390.87
442.12	472.79
442.31	435.34
442.50	383.85
442.68	442.36
442.87	409.59
443.05	479.81
443.24	372.15
443.43	407.25
443.61	437.68
443.80	388.53
443.98	395.55
444.17	397.89
444.35	456.40
444.54	337.04
444.73	449.38
444.91	404.91
445.10	381.51
445.28	477.47
445.47	470.45
445.65	409.59
445.84	404.91
446.02	458.74
446.21	383.85
446.39	315.97
446.58	449.38
446.77	344.06
446.95	402.57
447.14	383.85
447.32	430.66
447.51	409.59
447.69	430.66
447.88	383.85
448.06	472.79
448.25	500.87
448.43	365.12
448.62	360.44
448.80	400.23
448.99	411.93
449.17	397.89
449.36	437.68
449.54	463.43
449.73	390.87
449.91	388.53
450.10	437.68
450.28	425.98
450.46	428.32
450.65	365.12
450.83	393.21
451.02	489.17
451.20	435.34
451.39	437.68
451.57	416.62
451.76	409.59
451.94	355.76
452.13	404.91
452.31	507.90
452.49	428.32
452.68	421.30
452.86	456.40
453.05	402.57
453.23	402.57
453.42	367.46
453.60	411.93
453.78	472.79
453.97	381.51
454.15	346.40
454.34	435.34
454.52	461.09
454.70	479.81
454.89	425.98
455.07	400.23
455.26	416.62
455.44	433.00
455.62	362.78
455.81	369.80
455.99	358.10
456.17	444.70
456.36	435.34
456.54	409.59
456.73	390.87
456.91	414.27
457.09	404.91
457.28	470.45
457.46	425.98
457.64	409.59
457.83	463.43
458.01	372.15
458.19	400.23
458.38	421.30
458.56	404.91
458.74	381.51
458.93	416.62
459.11	369.80
459.29	397.89
459.48	451.72
459.66	407.25
459.84	418.96
460.03	482.15
460.21	409.59
460.39	423.64
460.57	430.66
460.76	425.98
460.94	430.66
461.12	421.30
461.31	479.81
461.49	425.98
461.67	351.08
461.85	402.57
462.04	437.68
462.22	795.78
462.40	444.70
462.59	416.62
462.77	409.59
462.95	416.62
463.13	388.53
463.32	428.32
463.50	440.02
463.68	416.62
463.86	390.87
464.05	430.66
464.23	468.11
464.41	414.27
464.59	475.13
464.78	320.65
464.96	411.93
465.14	491.51
465.32	470.45
465.50	433.00
465.69	435.34
465.87	411.93
466.05	418.96
466.23	435.34
466.41	470.45
466.60	440.02
466.78	454.06
466.96	416.62
467.14	423.64
467.32	400.23
467.51	447.04
467.69	451.72
467.87	397.89
468.05	430.66
468.23	458.74
468.41	456.40
468.60	358.10
468.78	414.27
468.96	386.19
469.14	346.40
469.32	447.04
469.50	369.80
469.69	411.93
469.87	440.02
470.05	390.87
470.23	442.36
470.41	416.62
470.59	318.31
470.77	369.80
470.95	369.80
471.14	435.34
471.32	489.17
471.50	428.32
471.68	362.78
471.86	421.30
472.04	444.70
472.22	388.53
472.40	397.89
472.58	367.46
472.77	407.25
472.95	362.78
473.13	451.72
473.31	507.90
473.49	416.62
473.67	404.91
473.85	397.89
474.03	440.02
474.21	402.57
474.39	444.70
474.57	461.09
474.75	393.21
474.93	409.59
475.12	381.51
475.30	423.64
475.48	435.34
475.66	421.30
475.84	475.13
476.02	463.43
476.20	489.17
476.38	463.43
476.56	388.53
476.74	388.53
476.92	500.87
477.10	440.02
477.28	447.04
477.46	421.30
477.64	451.72
477.82	414.27
478.00	449.38
478.18	351.08
478.36	423.64
478.54	344.06
478.72	461.09
478.90	402.57
479.08	409.59
479.26	365.12
479.44	344.06
479.62	437.68
479.80	484.49
479.98	388.53
480.16	407.25
480.34	355.76
480.52	313.63
480.70	386.19
480.88	348.74
481.06	421.30
481.24	353.42
481.41	430.66
481.59	444.70
481.77	386.19
481.95	416.62
482.13	503.22
482.31	383.85
482.49	365.12
482.67	425.98
482.85	360.44
483.03	416.62
483.21	437.68
483.39	383.85
483.57	447.04
483.74	463.43
483.92	411.93
484.10	386.19
484.28	374.49
484.46	491.51
484.64	468.11
484.82	440.02
485.00	360.44
485.18	395.55
485.35	442.36
485.53	348.74
485.71	440.02
485.89	428.32
486.07	444.70
486.25	498.53
486.43	395.55
486.61	442.36
486.78	430.66
486.96	390.87
487.14	433.00
487.32	390.87
487.50	440.02
487.68	353.42
487.85	400.23
488.03	411.93
488.21	472.79
488.39	397.89
488.57	458.74
488.75	451.72
488.92	489.17
489.10	423.64
489.28	486.83
489.46	454.06
489.64	390.87
489.81	402.57
489.99	470.45
490.17	365.12
490.35	472.79
490.53	404.91
490.70	362.78
490.88	390.87
491.06	465.77
491.24	334.70
491.41	533.64
491.59	472.79
491.77	440.02
491.95	334.70
492.13	430.66
492.30	411.93
492.48	397.89
492.66	334.70
492.84	454.06
493.01	411.93
493.19	402.57
493.37	489.17
493.54	425.98
493.72	381.51
493.90	425.98
494.08	315.97
494.25	428.32
494.43	411.93
494.61	402.57
494.79	383.85
494.96	451.72
495.14	465.77
495.32	372.15
495.49	381.51
495.67	418.96
495.85	447.04
496.02	423.64
496.20	386.19
496.38	372.15
496.55	456.40
496.73	374.49
496.91	376.83
497.09	435.34
497.26	365.12
497.44	409.59
497.62	444.70
497.79	421.30
497.97	456.40
498.14	400.23
498.32	444.70
498.50	472.79
498.67	428.32
498.85	472.79
499.03	418.96
499.20	327.68
499.38	447.04
499.56	416.62
499.73	454.06
499.91	449.38
500.08	381.51
500.26	414.27
500.44	440.02
500.61	425.98
500.79	404.91
500.97	437.68
501.14	411.93
501.32	360.44
501.49	421.30
501.67	491.51
501.84	465.77
502.02	393.21
502.20	407.25
502.37	477.47
502.55	425.98
502.72	409.59
502.90	418.96
503.07	444.70
503.25	428.32
503.43	416.62
503.60	447.04
503.78	491.51
503.95	367.46
504.13	351.08
504.30	404.91
504.48	428.32
504.65	423.64
504.83	402.57
505.01	411.93
505.18	433.00
505.36	430.66
505.53	437.68
505.71	400.23
505.88	470.45
506.06	442.36
506.23	416.62
506.41	418.96
506.58	395.55
506.76	524.28
506.93	374.49
507.11	409.59
507.28	425.98
507.46	421.30
507.63	374.49
507.81	400.23
507.98	479.81
508.16	351.08
508.33	430.66
508.50	414.27
508.68	404.91
508.85	435.34
509.03	404.91
509.20	425.98
509.38	416.62
509.55	477.47
509.73	428.32
509.90	451.72
510.08	383.85
510.25	458.74
510.42	383.85
510.60	423.64
510.77	402.57
510.95	428.32
511.12	418.96
511.30	416.62
511.47	421.30
511.64	458.74
511.82	376.83
511.99	341.72
512.17	390.87
512.34	440.02
512.51	414.27
512.69	428.32
512.86	414.27
513.04	400.23
513.21	440.02
513.38	341.72
513.56	341.72
513.73	381.51
513.90	409.59
514.08	379.17
514.25	423.64
514.43	423.64
514.60	372.15
514.77	383.85
514.95	383.85
515.12	388.53
515.29	365.12
515.47	383.85
515.64	411.93
515.81	423.64
515.99	440.02
516.16	465.77
516.33	505.56
516.51	388.53
516.68	463.43
516.85	407.25
517.03	414.27
517.20	428.32
517.37	381.51
517.54	477.47
517.72	447.04
517.89	428.32
518.06	416.62
518.24	402.57
518.41	414.27
518.58	458.74
518.75	442.36
518.93	421.30
519.10	362.78
519.27	379.17
519.45	383.85
519.62	369.80
519.79	425.98
519.96	346.40
520.14	379.17
520.31	456.40
520.48	442.36
520.65	442.36
520.83	381.51
521.00	461.09
521.17	351.08
521.34	379.17
521.52	381.51
521.69	430.66
521.86	425.98
522.03	381.51
522.20	449.38
522.38	411.93
522.55	465.77
522.72	409.59
522.89	496.19
523.07	440.02
523.24	435.34
523.41	330.02
523.58	458.74
523.75	404.91
523.92	339.38
524.10	407.25
524.27	418.96
524.44	402.57
524.61	404.91
524.78	383.85
524.96	458.74
525.13	454.06
525.30	407.25
525.47	444.70
525.64	411.93
525.81	407.25
525.98	433.00
526.16	409.59
526.33	411.93
526.50	381.51
526.67	411.93
526.84	456.40
527.01	411.93
527.18	367.46
527.36	416.62
527.53	416.62
527.70	409.59
527.87	383.85
528.04	447.04
528.21	442.36
528.38	365.12
528.55	400.23
528.72	468.11
528.89	407.25
529.07	433.00
529.24	397.89
529.41	404.91
529.58	386.19
529.75	395.55
529.92	425.98
530.09	444.70
530.26	461.09
530.43	449.38
530.60	425.98
530.77	411.93
530.94	463.43
531.11	430.66
531.28	404.91
531.46	402.57
531.63	442.36
531.80	355.76
531.97	404.91
532.14	421.30
532.31	425.98
532.48	390.87
532.65	514.92
532.82	358.10
532.99	414.27
533.16	386.19
533.33	440.02
533.50	374.49
533.67	463.43
533.84	376.83
534.01	411.93
534.18	486.83
534.35	355.76
534.52	358.10
534.69	430.66
534.86	421.30
535.03	379.17
535.20	472.79
535.37	397.89
535.54	390.87
535.71	353.42
535.88	461.09
536.05	430.66
536.22	365.12
536.38	430.66
536.55	409.59
536.72	465.77
536.89	454.06
537.06	374.49
537.23	407.25
537.40	449.38
537.57	418.96
537.74	388.53
537.91	444.70
538.08	304.27
538.25	407.25
538.42	400.23
538.59	435.34
538.75	454.06
538.92	409.59
539.09	454.06
539.26	409.59
539.43	397.89
539.60	456.40
539.77	402.57
539.94	395.55
540.11	433.00
540.28	538.32
540.44	374.49
540.61	393.21
540.78	402.57
540.95	491.51
541.12	447.04
541.29	409.59
541.46	475.13
541.62	447.04
541.79	428.32
541.96	418.96
542.13	433.00
542.30	430.66
542.47	512.58
542.63	486.83
542.80	451.72
542.97	393.21
543.14	463.43
543.31	397.89
543.48	355.76
543.64	423.64
543.81	393.21
543.98	414.27
544.15	444.70
544.32	486.83
544.48	388.53
544.65	386.19
544.82	407.25
544.99	416.62
545.16	397.89
545.32	397.89
545.49	386.19
545.66	381.51
545.83	442.36
546.00	381.51
546.16	372.15
546.33	421.30
546.50	362.78
546.67	383.85
546.83	374.49
547.00	381.51
547.17	397.89
547.34	449.38
547.50	339.38
547.67	346.40
547.84	411.93
548.00	454.06
548.17	430.66
548.34	437.68
548.51	475.13
548.67	404.91
548.84	456.40
549.01	433.00
549.18	365.12
549.34	423.64
549.51	402.57
549.68	463.43
549.84	416.62
550.01	379.17
550.18	425.98
550.34	472.79
550.51	400.23
550.68	383.85
550.84	428.32
551.01	409.59
551.18	425.98
551.34	421.30
551.51	390.87
551.68	475.13
551.84	397.89
552.01	425.98
552.18	477.47
552.34	425.98
552.51	411.93
552.68	493.85
552.84	362.78
553.01	418.96
553.18	409.59
553.34	425.98
553.51	414.27
553.67	386.19
553.84	465.77
554.01	428.32
554.17	402.57
554.34	388.53
554.51	430.66
554.67	428.32
554.84	456.40
555.00	365.12
555.17	411.93
555.33	381.51
555.50	465.77
555.67	418.96
555.83	381.51
556.00	416.62
556.16	533.64
556.33	393.21
556.50	379.17
556.66	463.43
556.83	400.23
556.99	463.43
557.16	402.57
557.32	433.00
557.49	386.19
557.65	414.27
557.82	353.42
557.98	411.93
558.15	409.59
558.32	418.96
558.48	430.66
558.65	397.89
558.81	386.19
558.98	454.06
559.14	348.74
559.31	430.66
559.47	440.02
559.64	390.87
559.80	461.09
559.97	444.70
560.13	383.85
560.30	339.38
560.46	444.70
560.63	386.19
560.79	442.36
560.96	430.66
561.12	322.99
561.29	435.34
561.45	411.93
561.61	465.77
561.78	484.49
561.94	386.19
562.11	433.00
562.27	421.30
562.44	461.09
562.60	388.53
562.77	475.13
562.93	421.30
563.10	475.13
563.26	425.98
563.42	407.25
563.59	395.55
563.75	447.04
563.92	524.28
564.08	400.23
564.24	421.30
564.41	482.15
564.57	386.19
564.74	409.59
564.90	355.76
565.07	414.27
565.23	500.87
565.39	423.64
565.56	411.93
565.72	395.55
565.88	430.66
566.05	390.87
566.21	341.72
566.38	383.85
566.54	416.62
566.70	428.32
566.87	400.23
567.03	463.43
567.19	442.36
567.36	435.34
567.52	496.19
567.68	435.34
567.85	416.62
568.01	435.34
568.17	402.57
568.34	411.93
568.50	430.66
568.66	397.89
568.83	470.45
568.99	390.87
569.15	479.81
569.32	475.13
569.48	313.63
569.64	430.66
569.81	430.66
569.97	351.08
570.13	358.10
570.30	379.17
570.46	351.08
570.62	407.25
570.78	470.45
570.95	423.64
571.11	482.15
571.27	397.89
571.43	402.57
571.60	416.62
571.76	477.47
571.92	400.23
572.09	470.45
572.25	400.23
572.41	397.89
572.57	425.98
572.74	447.04
572.90	404.91
573.06	470.45
573.22	442.36
573.38	470.45
573.55	465.77
573.71	435.34
573.87	414.27
574.03	433.00
574.20	447.04
574.36	395.55
574.52	454.06
574.68	423.64
574.84	372.15
575.01	461.09
575.17	465.77
575.33	353.42
575.49	362.78
575.65	484.49
575.82	411.93
575.98	388.53
576.14	372.15
576.30	379.17
576.46	437.68
576.62	468.11
576.79	344.06
576.95	425.98
577.11	383.85
577.27	411.93
577.43	468.11
577.59	449.38
577.75	400.23
577.92	369.80
578.08	430.66
578.24	423.64
578.40	390.87
578.56	444.70
578.72	477.47
578.88	393.21
579.04	465.77
579.21	458.74
579.37	442.36
579.53	458.74
579.69	463.43
579.85	386.19
580.01	425.98
580.17	421.30
580.33	390.87
580.49	447.04
580.65	444.70
580.82	437.68
580.98	433.00
581.14	393.21
581.30	388.53
581.46	421.30
581.62	425.98
581.78	362.78
581.94	374.49
582.10	409.59
582.26	407.25
582.42	407.25
582.58	458.74
582.74	418.96
582.90	463.43
583.06	437.68
583.22	360.44
583.38	461.09
583.54	332.36
583.70	421.30
583.86	407.25
584.02	465.77
584.18	421.30
584.34	402.57
584.50	407.25
584.66	416.62
584.82	428.32
584.98	409.59
585.14	339.38
585.30	433.00
585.46	423.64
585.62	407.25
585.78	414.27
585.94	477.47
586.10	447.04
586.26	437.68
586.42	423.64
586.58	489.17
586.74	393.21
586.90	444.70
587.06	444.70
587.22	498.53
587.38	381.51
587.54	409.59
587.70	393.21
587.86	468.11
588.02	341.72
588.18	461.09
588.34	482.15
588.49	451.72
588.65	510.24
588.81	461.09
588.97	447.04
589.13	318.31
589.29	411.93
589.45	472.79
589.61	463.43
589.77	458.74
589.93	451.72
590.08	376.83
590.24	433.00
590.40	430.66
590.56	461.09
590.72	486.83
590.88	393.21
591.04	421.30
591.20	458.74
591.35	437.68
591.51	411.93
591.67	458.74
591.83	393.21
591.99	400.23
592.15	418.96
592.31	489.17
592.46	475.13
592.62	461.09
592.78	423.64
592.94	407.25
593.10	411.93
593.26	447.04
593.41	454.06
593.57	409.59
593.73	440.02
593.89	461.09
594.05	404.91
594.20	367.46
594.36	395.55
594.52	386.19
594.68	416.62
594.84	428.32
594.99	428.32
595.15	414.27
595.31	472.79
595.47	486.83
595.62	442.36
595.78	470.45
595.94	437.68
596.10	475.13
596.25	418.96
596.41	447.04
596.57	362.78
596.73	440.02
596.88	390.87
597.04	400.23
597.20	433.00
597.36	440.02
597.51	500.87
597.67	461.09
597.83	404.91
597.99	447.04
598.14	475.13
598.30	507.90
598.46	491.51
598.61	418.96
598.77	451.72
598.93	318.31
599.09	489.17
599.24	388.53
599.40	390.87
599.56	395.55
599.71	376.83
599.87	400.23
600.03	491.51
600.18	468.11
600.34	510.24
600.50	379.17
600.65	423.64
600.81	447.04
600.97	425.98
601.12	404.91
601.28	376.83
601.44	440.02
601.59	423.64
601.75	414.27
601.91	367.46
602.06	388.53
602.22	435.34
602.37	498.53
602.53	416.62
602.69	414.27
602.84	358.10
603.00	411.93
603.16	421.30
603.31	414.27
603.47	498.53
603.62	407.25
603.78	386.19
603.94	437.68
604.09	416.62
604.25	428.32
604.40	470.45
604.56	400.23
604.71	428.32
604.87	430.66
605.03	449.38
605.18	465.77
605.34	468.11
605.49	367.46
605.65	379.17
605.80	362.78
605.96	404.91
606.12	433.00
606.27	395.55
606.43	440.02
606.58	475.13
606.74	470.45
606.89	423.64
607.05	461.09
607.20	461.09
607.36	468.11
607.51	435.34
607.67	397.89
607.82	442.36
607.98	468.11
608.13	484.49
608.29	376.83
608.44	418.96
608.60	409.59
608.75	491.51
608.91	425.98
609.06	367.46
609.22	475.13
609.37	407.25
609.53	397.89
609.68	360.44
609.84	351.08
609.99	421.30
610.15	374.49
