SpectraSuite Data File
++++++++++++++++++++++++++++++++++++
Date: Fri Oct 25 12:11:23 EDT 2013
User: price-jones
Dark Spectrum Present: No
Reference Spectrum Present: No
Number of Sampled Component Spectra: 1
Spectrometers: USB2+H05261
Integration Time (usec): 100000 (USB2+H05261)
Spectra Averaged: 1 (USB2+H05261)
Boxcar Smoothing: 0 (USB2+H05261)
Correct for Electrical Dark: No (USB2+H05261)
Strobe/Lamp Enabled: No (USB2+H05261)
Correct for Detector Non-linearity: No (USB2+H05261)
Correct for Stray Light: No (USB2+H05261)
Number of Pixels in Processed Spectrum: 2048
>>>>>Begin Processed Spectral Data<<<<<
365.73	330.02
365.92	330.02
366.12	330.02
366.32	292.57
366.52	238.73
366.72	283.20
366.91	292.57
367.11	177.88
367.31	278.52
367.51	234.05
367.70	224.69
367.90	280.86
368.10	301.93
368.30	236.39
368.49	191.92
368.69	189.58
368.89	229.37
369.09	304.27
369.28	313.63
369.48	320.65
369.68	327.68
369.87	308.95
370.07	271.50
370.27	313.63
370.47	369.80
370.66	369.80
370.86	337.04
371.06	437.68
371.25	454.06
371.45	428.32
371.65	353.42
371.84	341.72
372.04	416.62
372.24	339.38
372.44	386.19
372.63	358.10
372.83	390.87
373.03	423.64
373.22	437.68
373.42	454.06
373.62	379.17
373.81	475.13
374.01	468.11
374.21	484.49
374.40	407.25
374.60	390.87
374.79	423.64
374.99	430.66
375.19	402.57
375.38	365.12
375.58	386.19
375.78	447.04
375.97	435.34
376.17	493.85
376.37	325.33
376.56	444.70
376.76	367.46
376.95	379.17
377.15	486.83
377.35	433.00
377.54	433.00
377.74	355.76
377.93	388.53
378.13	430.66
378.33	484.49
378.52	451.72
378.72	444.70
378.91	388.53
379.11	414.27
379.31	313.63
379.50	388.53
379.70	454.06
379.89	367.46
380.09	355.76
380.28	383.85
380.48	444.70
380.68	442.36
380.87	447.04
381.07	449.38
381.26	395.55
381.46	386.19
381.65	449.38
381.85	376.83
382.04	435.34
382.24	416.62
382.43	386.19
382.63	397.89
382.83	435.34
383.02	416.62
383.22	404.91
383.41	355.76
383.61	447.04
383.80	425.98
384.00	374.49
384.19	372.15
384.39	433.00
384.58	442.36
384.78	461.09
384.97	472.79
385.17	402.57
385.36	430.66
385.56	395.55
385.75	360.44
385.95	358.10
386.14	423.64
386.34	372.15
386.53	437.68
386.72	360.44
386.92	428.32
387.11	435.34
387.31	376.83
387.50	416.62
387.70	402.57
387.89	374.49
388.09	437.68
388.28	411.93
388.48	351.08
388.67	381.51
388.86	414.27
389.06	400.23
389.25	435.34
389.45	362.78
389.64	461.09
389.84	447.04
390.03	390.87
390.22	435.34
390.42	402.57
390.61	411.93
390.81	470.45
391.00	447.04
391.19	507.90
391.39	374.49
391.58	418.96
391.78	409.59
391.97	367.46
392.16	400.23
392.36	461.09
392.55	365.12
392.75	409.59
392.94	339.38
393.13	435.34
393.33	360.44
393.52	407.25
393.71	372.15
393.91	390.87
394.10	433.00
394.29	430.66
394.49	339.38
394.68	402.57
394.88	440.02
395.07	442.36
395.26	430.66
395.46	442.36
395.65	447.04
395.84	393.21
396.04	435.34
396.23	472.79
396.42	435.34
396.62	418.96
396.81	449.38
397.00	393.21
397.19	528.96
397.39	393.21
397.58	444.70
397.77	353.42
397.97	362.78
398.16	348.74
398.35	381.51
398.55	372.15
398.74	374.49
398.93	409.59
399.12	444.70
399.32	397.89
399.51	400.23
399.70	400.23
399.90	402.57
400.09	458.74
400.28	358.10
400.47	418.96
400.67	404.91
400.86	353.42
401.05	409.59
401.24	365.12
401.44	407.25
401.63	428.32
401.82	397.89
402.01	367.46
402.21	355.76
402.40	379.17
402.59	332.36
402.78	369.80
402.97	353.42
403.17	369.80
403.36	369.80
403.55	381.51
403.74	433.00
403.93	477.47
404.13	447.04
404.32	458.74
404.51	395.55
404.70	372.15
404.89	433.00
405.09	421.30
405.28	397.89
405.47	348.74
405.66	411.93
405.85	332.36
406.05	395.55
406.24	433.00
406.43	423.64
406.62	468.11
406.81	491.51
407.00	461.09
407.20	491.51
407.39	465.77
407.58	367.46
407.77	397.89
407.96	433.00
408.15	409.59
408.34	449.38
408.54	372.15
408.73	454.06
408.92	379.17
409.11	447.04
409.30	451.72
409.49	428.32
409.68	386.19
409.87	458.74
410.07	423.64
410.26	360.44
410.45	381.51
410.64	383.85
410.83	451.72
411.02	423.64
411.21	451.72
411.40	379.17
411.59	388.53
411.78	409.59
411.98	402.57
412.17	400.23
412.36	484.49
412.55	390.87
412.74	454.06
412.93	428.32
413.12	379.17
413.31	442.36
413.50	353.42
413.69	400.23
413.88	451.72
414.07	372.15
414.26	444.70
414.45	437.68
414.64	367.46
414.83	381.51
415.02	390.87
415.22	472.79
415.41	360.44
415.60	444.70
415.79	449.38
415.98	435.34
416.17	388.53
416.36	421.30
416.55	374.49
416.74	400.23
416.93	482.15
417.12	365.12
417.31	381.51
417.50	318.31
417.69	428.32
417.88	454.06
418.07	381.51
418.26	411.93
418.45	433.00
418.64	475.13
418.83	451.72
419.02	423.64
419.21	428.32
419.39	421.30
419.58	425.98
419.77	416.62
419.96	435.34
420.15	465.77
420.34	433.00
420.53	379.17
420.72	402.57
420.91	425.98
421.10	332.36
421.29	519.60
421.48	468.11
421.67	397.89
421.86	400.23
422.05	435.34
422.24	395.55
422.43	411.93
422.61	390.87
422.80	472.79
422.99	407.25
423.18	376.83
423.37	430.66
423.56	430.66
423.75	442.36
423.94	435.34
424.13	407.25
424.32	379.17
424.50	346.40
424.69	390.87
424.88	397.89
425.07	463.43
425.26	407.25
425.45	414.27
425.64	386.19
425.83	479.81
426.01	425.98
426.20	390.87
426.39	423.64
426.58	418.96
426.77	472.79
426.96	503.22
427.15	409.59
427.33	465.77
427.52	454.06
427.71	390.87
427.90	388.53
428.09	367.46
428.28	400.23
428.46	351.08
428.65	367.46
428.84	458.74
429.03	449.38
429.22	395.55
429.40	402.57
429.59	341.72
429.78	411.93
429.97	411.93
430.16	367.46
430.34	416.62
430.53	404.91
430.72	458.74
430.91	362.78
431.10	425.98
431.28	404.91
431.47	475.13
431.66	463.43
431.85	393.21
432.03	421.30
432.22	447.04
432.41	430.66
432.60	411.93
432.79	404.91
432.97	388.53
433.16	444.70
433.35	414.27
433.54	437.68
433.72	360.44
433.91	414.27
434.10	397.89
434.28	449.38
434.47	360.44
434.66	454.06
434.85	433.00
435.03	414.27
435.22	451.72
435.41	409.59
435.59	444.70
435.78	423.64
435.97	315.97
436.16	472.79
436.34	404.91
436.53	416.62
436.72	442.36
436.90	482.15
437.09	418.96
437.28	456.40
437.46	402.57
437.65	409.59
437.84	463.43
438.02	388.53
438.21	451.72
438.40	393.21
438.58	400.23
438.77	425.98
438.96	414.27
439.14	386.19
439.33	425.98
439.52	402.57
439.70	397.89
439.89	500.87
440.08	440.02
440.26	428.32
440.45	416.62
440.63	376.83
440.82	486.83
441.01	402.57
441.19	458.74
441.38	421.30
441.57	379.17
441.75	479.81
441.94	367.46
442.12	440.02
442.31	435.34
442.50	444.70
442.68	402.57
442.87	430.66
443.05	440.02
443.24	367.46
443.43	395.55
443.61	433.00
443.80	365.12
443.98	376.83
444.17	454.06
444.35	397.89
444.54	463.43
444.73	428.32
444.91	493.85
445.10	362.78
445.28	454.06
445.47	435.34
445.65	393.21
445.84	414.27
446.02	510.24
446.21	458.74
446.39	358.10
446.58	463.43
446.77	402.57
446.95	465.77
447.14	463.43
447.32	433.00
447.51	407.25
447.69	407.25
447.88	423.64
448.06	437.68
448.25	390.87
448.43	346.40
448.62	421.30
448.80	381.51
448.99	414.27
449.17	421.30
449.36	400.23
449.54	440.02
449.73	311.29
449.91	409.59
450.10	386.19
450.28	440.02
450.46	437.68
450.65	482.15
450.83	351.08
451.02	463.43
451.20	414.27
451.39	397.89
451.57	379.17
451.76	381.51
451.94	395.55
452.13	393.21
452.31	442.36
452.49	484.49
452.68	454.06
452.86	461.09
453.05	442.36
453.23	376.83
453.42	414.27
453.60	472.79
453.78	456.40
453.97	344.06
454.15	390.87
454.34	475.13
454.52	393.21
454.70	451.72
454.89	402.57
455.07	337.04
455.26	383.85
455.44	381.51
455.62	416.62
455.81	444.70
455.99	449.38
456.17	390.87
456.36	400.23
456.54	362.78
456.73	402.57
456.91	416.62
457.09	411.93
457.28	383.85
457.46	374.49
457.64	400.23
457.83	414.27
458.01	381.51
458.19	409.59
458.38	402.57
458.56	472.79
458.74	435.34
458.93	440.02
459.11	416.62
459.29	404.91
459.48	386.19
459.66	458.74
459.84	416.62
460.03	468.11
460.21	414.27
460.39	423.64
460.57	374.49
460.76	358.10
460.94	393.21
461.12	400.23
461.31	423.64
461.49	358.10
461.67	379.17
461.85	386.19
462.04	365.12
462.22	737.27
462.40	386.19
462.59	369.80
462.77	395.55
462.95	390.87
463.13	409.59
463.32	425.98
463.50	395.55
463.68	421.30
463.86	365.12
464.05	442.36
464.23	442.36
464.41	395.55
464.59	325.33
464.78	479.81
464.96	400.23
465.14	449.38
465.32	411.93
465.50	461.09
465.69	451.72
465.87	418.96
466.05	447.04
466.23	365.12
466.41	388.53
466.60	411.93
466.78	437.68
466.96	362.78
467.14	451.72
467.32	423.64
467.51	430.66
467.69	369.80
467.87	407.25
468.05	484.49
468.23	451.72
468.41	423.64
468.60	362.78
468.78	444.70
468.96	468.11
469.14	346.40
469.32	402.57
469.50	411.93
469.69	418.96
469.87	444.70
470.05	397.89
470.23	500.87
470.41	423.64
470.59	386.19
470.77	428.32
470.95	444.70
471.14	411.93
471.32	409.59
471.50	400.23
471.68	418.96
471.86	433.00
472.04	414.27
472.22	421.30
472.40	447.04
472.58	341.72
472.77	444.70
472.95	468.11
473.13	437.68
473.31	507.90
473.49	402.57
473.67	390.87
473.85	454.06
474.03	369.80
474.21	400.23
474.39	397.89
474.57	477.47
474.75	386.19
474.93	435.34
475.12	355.76
475.30	381.51
475.48	374.49
475.66	435.34
475.84	421.30
476.02	409.59
476.20	437.68
476.38	461.09
476.56	430.66
476.74	423.64
476.92	379.17
477.10	428.32
477.28	496.19
477.46	461.09
477.64	456.40
477.82	470.45
478.00	365.12
478.18	411.93
478.36	418.96
478.54	381.51
478.72	386.19
478.90	423.64
479.08	447.04
479.26	423.64
479.44	409.59
479.62	367.46
479.80	374.49
479.98	409.59
480.16	444.70
480.34	479.81
480.52	430.66
480.70	393.21
480.88	397.89
481.06	411.93
481.24	402.57
481.41	395.55
481.59	428.32
481.77	428.32
481.95	437.68
482.13	440.02
482.31	484.49
482.49	395.55
482.67	440.02
482.85	468.11
483.03	358.10
483.21	472.79
483.39	360.44
483.57	402.57
483.74	435.34
483.92	430.66
484.10	341.72
484.28	444.70
484.46	479.81
484.64	397.89
484.82	358.10
485.00	440.02
485.18	386.19
485.35	437.68
485.53	404.91
485.71	454.06
485.89	451.72
486.07	440.02
486.25	395.55
486.43	376.83
486.61	456.40
486.78	498.53
486.96	306.61
487.14	416.62
487.32	341.72
487.50	425.98
487.68	407.25
487.85	341.72
488.03	449.38
488.21	519.60
488.39	395.55
488.57	395.55
488.75	442.36
488.92	514.92
489.10	404.91
489.28	425.98
489.46	418.96
489.64	404.91
489.81	461.09
489.99	418.96
490.17	365.12
490.35	505.56
490.53	418.96
490.70	362.78
490.88	397.89
491.06	409.59
491.24	360.44
491.41	402.57
491.59	475.13
491.77	435.34
491.95	348.74
492.13	442.36
492.30	470.45
492.48	372.15
492.66	418.96
492.84	376.83
493.01	355.76
493.19	411.93
493.37	421.30
493.54	444.70
493.72	400.23
493.90	320.65
494.08	463.43
494.25	416.62
494.43	456.40
494.61	440.02
494.79	393.21
494.96	393.21
495.14	442.36
495.32	390.87
495.49	383.85
495.67	437.68
495.85	409.59
496.02	428.32
496.20	456.40
496.38	470.45
496.55	388.53
496.73	437.68
496.91	397.89
497.09	390.87
497.26	442.36
497.44	414.27
497.62	454.06
497.79	430.66
497.97	479.81
498.14	442.36
498.32	414.27
498.50	360.44
498.67	435.34
498.85	425.98
499.03	458.74
499.20	362.78
499.38	461.09
499.56	423.64
499.73	414.27
499.91	472.79
500.08	414.27
500.26	409.59
500.44	388.53
500.61	414.27
500.79	409.59
500.97	402.57
501.14	407.25
501.32	425.98
501.49	447.04
501.67	383.85
501.84	454.06
502.02	437.68
502.20	404.91
502.37	428.32
502.55	365.12
502.72	379.17
502.90	437.68
503.07	383.85
503.25	463.43
503.43	374.49
503.60	428.32
503.78	411.93
503.95	355.76
504.13	416.62
504.30	393.21
504.48	440.02
504.65	414.27
504.83	407.25
505.01	351.08
505.18	468.11
505.36	425.98
505.53	411.93
505.71	306.61
505.88	451.72
506.06	447.04
506.23	433.00
506.41	484.49
506.58	454.06
506.76	484.49
506.93	400.23
507.11	362.78
507.28	360.44
507.46	411.93
507.63	428.32
507.81	351.08
507.98	407.25
508.16	409.59
508.33	418.96
508.50	465.77
508.68	339.38
508.85	358.10
509.03	390.87
509.20	416.62
509.38	339.38
509.55	447.04
509.73	440.02
509.90	418.96
510.08	512.58
510.25	411.93
510.42	409.59
510.60	482.15
510.77	390.87
510.95	425.98
511.12	465.77
511.30	409.59
511.47	374.49
511.64	447.04
511.82	376.83
511.99	397.89
512.17	444.70
512.34	440.02
512.51	454.06
512.69	400.23
512.86	472.79
513.04	444.70
513.21	428.32
513.38	444.70
513.56	376.83
513.73	386.19
513.90	404.91
514.08	383.85
514.25	374.49
514.43	451.72
514.60	423.64
514.77	456.40
514.95	386.19
515.12	449.38
515.29	411.93
515.47	433.00
515.64	425.98
515.81	407.25
515.99	447.04
516.16	414.27
516.33	489.17
516.51	386.19
516.68	444.70
516.85	442.36
517.03	421.30
517.20	477.47
517.37	400.23
517.54	386.19
517.72	409.59
517.89	386.19
518.06	411.93
518.24	425.98
518.41	491.51
518.58	428.32
518.75	395.55
518.93	418.96
519.10	414.27
519.27	386.19
519.45	454.06
519.62	486.83
519.79	421.30
519.96	430.66
520.14	461.09
520.31	397.89
520.48	484.49
520.65	433.00
520.83	475.13
521.00	449.38
521.17	411.93
521.34	433.00
521.52	423.64
521.69	498.53
521.86	330.02
522.03	362.78
522.20	444.70
522.38	491.51
522.55	386.19
522.72	369.80
522.89	444.70
523.07	477.47
523.24	397.89
523.41	379.17
523.58	376.83
523.75	400.23
523.92	479.81
524.10	425.98
524.27	358.10
524.44	379.17
524.61	442.36
524.78	430.66
524.96	437.68
525.13	397.89
525.30	463.43
525.47	456.40
525.64	444.70
525.81	388.53
525.98	437.68
526.16	416.62
526.33	425.98
526.50	360.44
526.67	388.53
526.84	454.06
527.01	468.11
527.18	416.62
527.36	409.59
527.53	435.34
527.70	421.30
527.87	344.06
528.04	507.90
528.21	475.13
528.38	503.22
528.55	447.04
528.72	404.91
528.89	461.09
529.07	447.04
529.24	409.59
529.41	463.43
529.58	395.55
529.75	379.17
529.92	409.59
530.09	404.91
530.26	477.47
530.43	425.98
530.60	468.11
530.77	456.40
530.94	451.72
531.11	470.45
531.28	421.30
531.46	465.77
531.63	444.70
531.80	433.00
531.97	393.21
532.14	365.12
532.31	381.51
532.48	463.43
532.65	435.34
532.82	372.15
532.99	400.23
533.16	411.93
533.33	337.04
533.50	421.30
533.67	407.25
533.84	404.91
534.01	477.47
534.18	376.83
534.35	437.68
534.52	430.66
534.69	437.68
534.86	430.66
535.03	435.34
535.20	411.93
535.37	430.66
535.54	496.19
535.71	390.87
535.88	479.81
536.05	425.98
536.22	418.96
536.38	433.00
536.55	454.06
536.72	341.72
536.89	433.00
537.06	374.49
537.23	491.51
537.40	454.06
537.57	346.40
537.74	470.45
537.91	425.98
538.08	372.15
538.25	402.57
538.42	402.57
538.59	425.98
538.75	393.21
538.92	503.22
539.09	479.81
539.26	388.53
539.43	482.15
539.60	360.44
539.77	367.46
539.94	458.74
540.11	414.27
540.28	404.91
540.44	386.19
540.61	428.32
540.78	372.15
540.95	503.22
541.12	421.30
541.29	435.34
541.46	475.13
541.62	404.91
541.79	430.66
541.96	416.62
542.13	423.64
542.30	428.32
542.47	404.91
542.63	440.02
542.80	444.70
542.97	505.56
543.14	414.27
543.31	491.51
543.48	395.55
543.64	409.59
543.81	402.57
543.98	379.17
544.15	414.27
544.32	379.17
544.48	435.34
544.65	449.38
544.82	444.70
544.99	372.15
545.16	447.04
545.32	341.72
545.49	442.36
545.66	369.80
545.83	402.57
546.00	337.04
546.16	355.76
546.33	407.25
546.50	397.89
546.67	379.17
546.83	372.15
547.00	456.40
547.17	355.76
547.34	393.21
547.50	482.15
547.67	383.85
547.84	425.98
548.00	397.89
548.17	383.85
548.34	390.87
548.51	404.91
548.67	428.32
548.84	397.89
549.01	404.91
549.18	395.55
549.34	383.85
549.51	388.53
549.68	397.89
549.84	365.12
550.01	421.30
550.18	470.45
550.34	440.02
550.51	463.43
550.68	503.22
550.84	355.76
551.01	367.46
551.18	400.23
551.34	435.34
551.51	456.40
551.68	367.46
551.84	437.68
552.01	379.17
552.18	397.89
552.34	409.59
552.51	362.78
552.68	447.04
552.84	409.59
553.01	367.46
553.18	435.34
553.34	409.59
553.51	479.81
553.67	409.59
553.84	393.21
554.01	365.12
554.17	374.49
554.34	411.93
554.51	402.57
554.67	458.74
554.84	458.74
555.00	402.57
555.17	421.30
555.33	433.00
555.50	383.85
555.67	444.70
555.83	440.02
556.00	390.87
556.16	531.30
556.33	482.15
556.50	496.19
556.66	379.17
556.83	355.76
556.99	421.30
557.16	393.21
557.32	468.11
557.49	388.53
557.65	442.36
557.82	372.15
557.98	435.34
558.15	423.64
558.32	477.47
558.48	376.83
558.65	430.66
558.81	409.59
558.98	400.23
559.14	449.38
559.31	423.64
559.47	414.27
559.64	369.80
559.80	451.72
559.97	379.17
560.13	496.19
560.30	526.62
560.46	355.76
560.63	442.36
560.79	442.36
560.96	423.64
561.12	411.93
561.29	470.45
561.45	423.64
561.61	463.43
561.78	442.36
561.94	423.64
562.11	418.96
562.27	374.49
562.44	318.31
562.60	379.17
562.77	393.21
562.93	479.81
563.10	468.11
563.26	395.55
563.42	475.13
563.59	355.76
563.75	381.51
563.92	428.32
564.08	442.36
564.24	365.12
564.41	379.17
564.57	414.27
564.74	402.57
564.90	423.64
565.07	402.57
565.23	465.77
565.39	500.87
565.56	451.72
565.72	440.02
565.88	465.77
566.05	451.72
566.21	390.87
566.38	374.49
566.54	444.70
566.70	407.25
566.87	318.31
567.03	404.91
567.19	425.98
567.36	416.62
567.52	390.87
567.68	355.76
567.85	440.02
568.01	397.89
568.17	449.38
568.34	407.25
568.50	456.40
568.66	442.36
568.83	493.85
568.99	390.87
569.15	407.25
569.32	470.45
569.48	430.66
569.64	365.12
569.81	379.17
569.97	395.55
570.13	381.51
570.30	482.15
570.46	442.36
570.62	461.09
570.78	402.57
570.95	379.17
571.11	482.15
571.27	489.17
571.43	402.57
571.60	409.59
571.76	496.19
571.92	414.27
572.09	400.23
572.25	458.74
572.41	353.42
572.57	416.62
572.74	465.77
572.90	428.32
573.06	425.98
573.22	440.02
573.38	388.53
573.55	465.77
573.71	423.64
573.87	402.57
574.03	428.32
574.20	444.70
574.36	435.34
574.52	421.30
574.68	423.64
574.84	365.12
575.01	402.57
575.17	383.85
575.33	339.38
575.49	411.93
575.65	440.02
575.82	451.72
575.98	369.80
576.14	454.06
576.30	440.02
576.46	381.51
576.62	414.27
576.79	440.02
576.95	472.79
577.11	423.64
577.27	425.98
577.43	409.59
577.59	444.70
577.75	423.64
577.92	397.89
578.08	358.10
578.24	425.98
578.40	414.27
578.56	442.36
578.72	479.81
578.88	353.42
579.04	425.98
579.21	395.55
579.37	418.96
579.53	430.66
579.69	454.06
579.85	468.11
580.01	374.49
580.17	458.74
580.33	334.70
580.49	421.30
580.65	465.77
580.82	444.70
580.98	425.98
581.14	425.98
581.30	430.66
581.46	470.45
581.62	421.30
581.78	470.45
581.94	404.91
582.10	390.87
582.26	334.70
582.42	418.96
582.58	484.49
582.74	421.30
582.90	435.34
583.06	451.72
583.22	376.83
583.38	404.91
583.54	472.79
583.70	437.68
583.86	543.00
584.02	416.62
584.18	423.64
584.34	463.43
584.50	397.89
584.66	393.21
584.82	313.63
584.98	379.17
585.14	444.70
585.30	477.47
585.46	423.64
585.62	423.64
585.78	447.04
585.94	447.04
586.10	477.47
586.26	425.98
586.42	470.45
586.58	381.51
586.74	360.44
586.90	390.87
587.06	444.70
587.22	414.27
587.38	341.72
587.54	409.59
587.70	449.38
587.86	456.40
588.02	468.11
588.18	386.19
588.34	418.96
588.49	348.74
588.65	407.25
588.81	390.87
588.97	341.72
589.13	444.70
589.29	386.19
589.45	397.89
589.61	416.62
589.77	449.38
589.93	486.83
590.08	437.68
590.24	386.19
590.40	437.68
590.56	491.51
590.72	451.72
590.88	381.51
591.04	430.66
591.20	404.91
591.35	458.74
591.51	451.72
591.67	330.02
591.83	393.21
591.99	395.55
592.15	397.89
592.31	449.38
592.46	442.36
592.62	484.49
592.78	472.79
592.94	411.93
593.10	421.30
593.26	386.19
593.41	395.55
593.57	447.04
593.73	369.80
593.89	458.74
594.05	414.27
594.20	440.02
594.36	360.44
594.52	306.61
594.68	339.38
594.84	365.12
594.99	383.85
595.15	454.06
595.31	379.17
595.47	437.68
595.62	428.32
595.78	383.85
595.94	374.49
596.10	470.45
596.25	479.81
596.41	510.24
596.57	395.55
596.73	409.59
596.88	358.10
597.04	407.25
597.20	407.25
597.36	407.25
597.51	489.17
597.67	418.96
597.83	416.62
597.99	404.91
598.14	421.30
598.30	402.57
598.46	411.93
598.61	486.83
598.77	418.96
598.93	425.98
599.09	430.66
599.24	390.87
599.40	355.76
599.56	381.51
599.71	430.66
599.87	461.09
600.03	407.25
600.18	409.59
600.34	390.87
600.50	447.04
600.65	486.83
600.81	437.68
600.97	390.87
601.12	339.38
601.28	444.70
601.44	435.34
601.59	411.93
601.75	456.40
601.91	388.53
602.06	442.36
602.22	514.92
602.37	393.21
602.53	404.91
602.69	416.62
602.84	442.36
603.00	395.55
603.16	407.25
603.31	423.64
603.47	479.81
603.62	435.34
603.78	414.27
603.94	421.30
604.09	451.72
604.25	386.19
604.40	386.19
604.56	414.27
604.71	430.66
604.87	461.09
605.03	468.11
605.18	409.59
605.34	440.02
605.49	442.36
605.65	447.04
605.80	428.32
605.96	386.19
606.12	400.23
606.27	428.32
606.43	428.32
606.58	423.64
606.74	386.19
606.89	386.19
607.05	496.19
607.20	449.38
607.36	416.62
607.51	386.19
607.67	400.23
607.82	418.96
607.98	404.91
608.13	390.87
608.29	414.27
608.44	458.74
608.60	362.78
608.75	442.36
608.91	514.92
609.06	393.21
609.22	397.89
609.37	447.04
609.53	442.36
609.68	425.98
609.84	418.96
609.99	444.70
610.15	395.55
