SpectraSuite Data File
++++++++++++++++++++++++++++++++++++
Date: Fri Oct 25 12:10:47 EDT 2013
User: price-jones
Dark Spectrum Present: No
Reference Spectrum Present: No
Number of Sampled Component Spectra: 1
Spectrometers: USB2+H05261
Integration Time (usec): 100000 (USB2+H05261)
Spectra Averaged: 1 (USB2+H05261)
Boxcar Smoothing: 0 (USB2+H05261)
Correct for Electrical Dark: No (USB2+H05261)
Strobe/Lamp Enabled: No (USB2+H05261)
Correct for Detector Non-linearity: No (USB2+H05261)
Correct for Stray Light: No (USB2+H05261)
Number of Pixels in Processed Spectrum: 2048
>>>>>Begin Processed Spectral Data<<<<<
365.73	346.40
365.92	346.40
366.12	346.40
366.32	238.73
366.52	182.56
366.72	248.10
366.91	227.03
367.11	227.03
367.31	269.16
367.51	252.78
367.70	250.44
367.90	299.59
368.10	224.69
368.30	264.48
368.49	196.60
368.69	280.86
368.89	201.29
369.09	238.73
369.28	313.63
369.48	245.76
369.68	362.78
369.87	308.95
370.07	341.72
370.27	278.52
370.47	330.02
370.66	334.70
370.86	425.98
371.06	404.91
371.25	402.57
371.45	362.78
371.65	365.12
371.84	369.80
372.04	332.36
372.24	458.74
372.44	470.45
372.63	416.62
372.83	414.27
373.03	442.36
373.22	425.98
373.42	381.51
373.62	456.40
373.81	411.93
374.01	447.04
374.21	397.89
374.40	437.68
374.60	430.66
374.79	383.85
374.99	437.68
375.19	437.68
375.38	491.51
375.58	458.74
375.78	440.02
375.97	437.68
376.17	482.15
376.37	425.98
376.56	404.91
376.76	400.23
376.95	348.74
377.15	414.27
377.35	449.38
377.54	451.72
377.74	383.85
377.93	355.76
378.13	346.40
378.33	458.74
378.52	383.85
378.72	491.51
378.91	423.64
379.11	447.04
379.31	456.40
379.50	315.97
379.70	463.43
379.89	463.43
380.09	369.80
380.28	351.08
380.48	386.19
380.68	407.25
380.87	402.57
381.07	418.96
381.26	482.15
381.46	433.00
381.65	437.68
381.85	372.15
382.04	388.53
382.24	337.04
382.43	390.87
382.63	372.15
382.83	400.23
383.02	372.15
383.22	440.02
383.41	348.74
383.61	407.25
383.80	428.32
384.00	463.43
384.19	348.74
384.39	383.85
384.58	393.21
384.78	395.55
384.97	379.17
385.17	383.85
385.36	367.46
385.56	362.78
385.75	402.57
385.95	496.19
386.14	383.85
386.34	411.93
386.53	433.00
386.72	477.47
386.92	533.64
387.11	409.59
387.31	355.76
387.50	344.06
387.70	388.53
387.89	390.87
388.09	341.72
388.28	374.49
388.48	358.10
388.67	482.15
388.86	395.55
389.06	407.25
389.25	411.93
389.45	383.85
389.64	362.78
389.84	449.38
390.03	425.98
390.22	404.91
390.42	423.64
390.61	381.51
390.81	374.49
391.00	372.15
391.19	407.25
391.39	395.55
391.58	440.02
391.78	402.57
391.97	379.17
392.16	409.59
392.36	409.59
392.55	444.70
392.75	334.70
392.94	435.34
393.13	472.79
393.33	416.62
393.52	456.40
393.71	409.59
393.91	449.38
394.10	407.25
394.29	376.83
394.49	435.34
394.68	423.64
394.88	421.30
395.07	458.74
395.26	421.30
395.46	451.72
395.65	433.00
395.84	390.87
396.04	521.94
396.23	433.00
396.42	376.83
396.62	486.83
396.81	400.23
397.00	425.98
397.19	451.72
397.39	414.27
397.58	372.15
397.77	402.57
397.97	358.10
398.16	376.83
398.35	381.51
398.55	388.53
398.74	360.44
398.93	468.11
399.12	416.62
399.32	461.09
399.51	454.06
399.70	379.17
399.90	418.96
400.09	376.83
400.28	458.74
400.47	397.89
400.67	475.13
400.86	440.02
401.05	449.38
401.24	407.25
401.44	383.85
401.63	430.66
401.82	437.68
402.01	374.49
402.21	418.96
402.40	381.51
402.59	451.72
402.78	475.13
402.97	421.30
403.17	475.13
403.36	458.74
403.55	365.12
403.74	383.85
403.93	341.72
404.13	418.96
404.32	395.55
404.51	327.68
404.70	437.68
404.89	411.93
405.09	461.09
405.28	416.62
405.47	367.46
405.66	358.10
405.85	393.21
406.05	365.12
406.24	390.87
406.43	341.72
406.62	418.96
406.81	421.30
407.00	437.68
407.20	395.55
407.39	369.80
407.58	397.89
407.77	376.83
407.96	461.09
408.15	308.95
408.34	440.02
408.54	393.21
408.73	440.02
408.92	428.32
409.11	435.34
409.30	416.62
409.49	395.55
409.68	390.87
409.87	393.21
410.07	374.49
410.26	404.91
410.45	428.32
410.64	425.98
410.83	423.64
411.02	376.83
411.21	393.21
411.40	444.70
411.59	397.89
411.78	390.87
411.98	435.34
412.17	407.25
412.36	395.55
412.55	402.57
412.74	425.98
412.93	477.47
413.12	365.12
413.31	334.70
413.50	404.91
413.69	416.62
413.88	433.00
414.07	421.30
414.26	409.59
414.45	390.87
414.64	376.83
414.83	435.34
415.02	447.04
415.22	409.59
415.41	337.04
415.60	346.40
415.79	463.43
415.98	433.00
416.17	442.36
416.36	454.06
416.55	454.06
416.74	285.55
416.93	491.51
417.12	416.62
417.31	433.00
417.50	365.12
417.69	493.85
417.88	423.64
418.07	339.38
418.26	376.83
418.45	395.55
418.64	437.68
418.83	395.55
419.02	451.72
419.21	416.62
419.39	351.08
419.58	369.80
419.77	381.51
419.96	486.83
420.15	409.59
420.34	372.15
420.53	447.04
420.72	423.64
420.91	470.45
421.10	388.53
421.29	400.23
421.48	416.62
421.67	414.27
421.86	388.53
422.05	437.68
422.24	402.57
422.43	400.23
422.61	325.33
422.80	397.89
422.99	341.72
423.18	435.34
423.37	423.64
423.56	479.81
423.75	437.68
423.94	388.53
424.13	367.46
424.32	397.89
424.50	456.40
424.69	395.55
424.88	510.24
425.07	411.93
425.26	414.27
425.45	447.04
425.64	402.57
425.83	442.36
426.01	447.04
426.20	435.34
426.39	447.04
426.58	355.76
426.77	374.49
426.96	400.23
427.15	461.09
427.33	393.21
427.52	367.46
427.71	428.32
427.90	423.64
428.09	404.91
428.28	440.02
428.46	414.27
428.65	425.98
428.84	451.72
429.03	451.72
429.22	475.13
429.40	442.36
429.59	442.36
429.78	393.21
429.97	433.00
430.16	383.85
430.34	355.76
430.53	411.93
430.72	423.64
430.91	458.74
431.10	379.17
431.28	402.57
431.47	397.89
431.66	400.23
431.85	400.23
432.03	456.40
432.22	447.04
432.41	374.49
432.60	416.62
432.79	395.55
432.97	346.40
433.16	437.68
433.35	402.57
433.54	379.17
433.72	390.87
433.91	444.70
434.10	395.55
434.28	404.91
434.47	418.96
434.66	341.72
434.85	421.30
435.03	346.40
435.22	381.51
435.41	416.62
435.59	435.34
435.78	433.00
435.97	409.59
436.16	400.23
436.34	395.55
436.53	365.12
436.72	376.83
436.90	421.30
437.09	414.27
437.28	407.25
437.46	411.93
437.65	414.27
437.84	461.09
438.02	418.96
438.21	458.74
438.40	355.76
438.58	428.32
438.77	362.78
438.96	435.34
439.14	374.49
439.33	397.89
439.52	386.19
439.70	381.51
439.89	386.19
440.08	414.27
440.26	449.38
440.45	428.32
440.63	435.34
440.82	365.12
441.01	444.70
441.19	423.64
441.38	397.89
441.57	416.62
441.75	447.04
441.94	383.85
442.12	376.83
442.31	379.17
442.50	418.96
442.68	451.72
442.87	325.33
443.05	428.32
443.24	428.32
443.43	444.70
443.61	517.26
443.80	416.62
443.98	346.40
444.17	327.68
444.35	374.49
444.54	346.40
444.73	411.93
444.91	428.32
445.10	383.85
445.28	440.02
445.47	400.23
445.65	447.04
445.84	421.30
446.02	421.30
446.21	416.62
446.39	400.23
446.58	444.70
446.77	444.70
446.95	451.72
447.14	482.15
447.32	365.12
447.51	430.66
447.69	414.27
447.88	379.17
448.06	430.66
448.25	416.62
448.43	409.59
448.62	433.00
448.80	442.36
448.99	393.21
449.17	393.21
449.36	362.78
449.54	409.59
449.73	341.72
449.91	404.91
450.10	430.66
450.28	456.40
450.46	449.38
450.65	449.38
450.83	442.36
451.02	383.85
451.20	456.40
451.39	435.34
451.57	449.38
451.76	411.93
451.94	402.57
452.13	402.57
452.31	435.34
452.49	491.51
452.68	454.06
452.86	374.49
453.05	451.72
453.23	390.87
453.42	437.68
453.60	449.38
453.78	435.34
453.97	365.12
454.15	365.12
454.34	416.62
454.52	423.64
454.70	470.45
454.89	433.00
455.07	353.42
455.26	444.70
455.44	465.77
455.62	451.72
455.81	362.78
455.99	463.43
456.17	400.23
456.36	386.19
456.54	479.81
456.73	423.64
456.91	386.19
457.09	484.49
457.28	430.66
457.46	313.63
457.64	440.02
457.83	435.34
458.01	400.23
458.19	444.70
458.38	395.55
458.56	381.51
458.74	344.06
458.93	374.49
459.11	437.68
459.29	472.79
459.48	430.66
459.66	514.92
459.84	381.51
460.03	468.11
460.21	463.43
460.39	411.93
460.57	442.36
460.76	397.89
460.94	402.57
461.12	442.36
461.31	444.70
461.49	437.68
461.67	379.17
461.85	416.62
462.04	320.65
462.22	812.17
462.40	421.30
462.59	437.68
462.77	397.89
462.95	440.02
463.13	404.91
463.32	365.12
463.50	449.38
463.68	472.79
463.86	390.87
464.05	458.74
464.23	379.17
464.41	430.66
464.59	440.02
464.78	425.98
464.96	440.02
465.14	374.49
465.32	400.23
465.50	440.02
465.69	423.64
465.87	402.57
466.05	388.53
466.23	367.46
466.41	428.32
466.60	372.15
466.78	367.46
466.96	514.92
467.14	290.23
467.32	430.66
467.51	390.87
467.69	425.98
467.87	440.02
468.05	355.76
468.23	423.64
468.41	430.66
468.60	404.91
468.78	374.49
468.96	463.43
469.14	461.09
469.32	416.62
469.50	442.36
469.69	479.81
469.87	418.96
470.05	423.64
470.23	411.93
470.41	451.72
470.59	374.49
470.77	458.74
470.95	348.74
471.14	470.45
471.32	437.68
471.50	510.24
471.68	416.62
471.86	435.34
472.04	365.12
472.22	383.85
472.40	421.30
472.58	346.40
472.77	411.93
472.95	416.62
473.13	437.68
473.31	409.59
473.49	372.15
473.67	402.57
473.85	388.53
474.03	449.38
474.21	418.96
474.39	440.02
474.57	374.49
474.75	416.62
474.93	383.85
475.12	421.30
475.30	447.04
475.48	472.79
475.66	433.00
475.84	358.10
476.02	444.70
476.20	449.38
476.38	421.30
476.56	461.09
476.74	365.12
476.92	423.64
477.10	461.09
477.28	468.11
477.46	395.55
477.64	339.38
477.82	433.00
478.00	433.00
478.18	428.32
478.36	430.66
478.54	423.64
478.72	484.49
478.90	423.64
479.08	493.85
479.26	465.77
479.44	418.96
479.62	425.98
479.80	425.98
479.98	409.59
480.16	339.38
480.34	390.87
480.52	423.64
480.70	454.06
480.88	430.66
481.06	397.89
481.24	418.96
481.41	411.93
481.59	409.59
481.77	337.04
481.95	407.25
482.13	463.43
482.31	390.87
482.49	348.74
482.67	409.59
482.85	454.06
483.03	430.66
483.21	456.40
483.39	404.91
483.57	437.68
483.74	425.98
483.92	383.85
484.10	411.93
484.28	404.91
484.46	470.45
484.64	383.85
484.82	468.11
485.00	362.78
485.18	355.76
485.35	393.21
485.53	442.36
485.71	510.24
485.89	400.23
486.07	416.62
486.25	479.81
486.43	404.91
486.61	414.27
486.78	437.68
486.96	407.25
487.14	400.23
487.32	397.89
487.50	433.00
487.68	388.53
487.85	477.47
488.03	447.04
488.21	433.00
488.39	449.38
488.57	437.68
488.75	421.30
488.92	517.26
489.10	383.85
489.28	425.98
489.46	381.51
489.64	388.53
489.81	430.66
489.99	451.72
490.17	461.09
490.35	447.04
490.53	458.74
490.70	435.34
490.88	463.43
491.06	379.17
491.24	383.85
491.41	454.06
491.59	386.19
491.77	355.76
491.95	388.53
492.13	320.65
492.30	486.83
492.48	362.78
492.66	327.68
492.84	348.74
493.01	346.40
493.19	369.80
493.37	451.72
493.54	472.79
493.72	447.04
493.90	388.53
494.08	397.89
494.25	428.32
494.43	411.93
494.61	369.80
494.79	360.44
494.96	404.91
495.14	456.40
495.32	421.30
495.49	437.68
495.67	374.49
495.85	379.17
496.02	390.87
496.20	465.77
496.38	472.79
496.55	421.30
496.73	407.25
496.91	409.59
497.09	379.17
497.26	463.43
497.44	404.91
497.62	362.78
497.79	386.19
497.97	414.27
498.14	447.04
498.32	493.85
498.50	353.42
498.67	470.45
498.85	442.36
499.03	409.59
499.20	428.32
499.38	421.30
499.56	397.89
499.73	449.38
499.91	451.72
500.08	486.83
500.26	414.27
500.44	383.85
500.61	500.87
500.79	461.09
500.97	451.72
501.14	428.32
501.32	402.57
501.49	437.68
501.67	381.51
501.84	425.98
502.02	414.27
502.20	451.72
502.37	423.64
502.55	409.59
502.72	327.68
502.90	374.49
503.07	449.38
503.25	433.00
503.43	358.10
503.60	465.77
503.78	404.91
503.95	409.59
504.13	435.34
504.30	489.17
504.48	458.74
504.65	383.85
504.83	414.27
505.01	379.17
505.18	442.36
505.36	381.51
505.53	425.98
505.71	447.04
505.88	362.78
506.06	395.55
506.23	376.83
506.41	397.89
506.58	456.40
506.76	444.70
506.93	418.96
507.11	379.17
507.28	414.27
507.46	442.36
507.63	414.27
507.81	402.57
507.98	404.91
508.16	435.34
508.33	418.96
508.50	337.04
508.68	346.40
508.85	461.09
509.03	346.40
509.20	393.21
509.38	430.66
509.55	454.06
509.73	421.30
509.90	411.93
510.08	395.55
510.25	449.38
510.42	407.25
510.60	400.23
510.77	421.30
510.95	381.51
511.12	416.62
511.30	440.02
511.47	489.17
511.64	475.13
511.82	425.98
511.99	456.40
512.17	372.15
512.34	402.57
512.51	428.32
512.69	421.30
512.86	418.96
513.04	367.46
513.21	421.30
513.38	416.62
513.56	416.62
513.73	397.89
513.90	404.91
514.08	418.96
514.25	381.51
514.43	365.12
514.60	367.46
514.77	402.57
514.95	400.23
515.12	402.57
515.29	381.51
515.47	456.40
515.64	407.25
515.81	423.64
515.99	472.79
516.16	463.43
516.33	407.25
516.51	442.36
516.68	425.98
516.85	388.53
517.03	435.34
517.20	456.40
517.37	444.70
517.54	475.13
517.72	390.87
517.89	407.25
518.06	386.19
518.24	477.47
518.41	411.93
518.58	458.74
518.75	437.68
518.93	407.25
519.10	498.53
519.27	463.43
519.45	416.62
519.62	442.36
519.79	411.93
519.96	451.72
520.14	421.30
520.31	472.79
520.48	470.45
520.65	414.27
520.83	397.89
521.00	383.85
521.17	374.49
521.34	379.17
521.52	418.96
521.69	510.24
521.86	383.85
522.03	332.36
522.20	437.68
522.38	360.44
522.55	395.55
522.72	451.72
522.89	397.89
523.07	418.96
523.24	458.74
523.41	409.59
523.58	425.98
523.75	418.96
523.92	435.34
524.10	418.96
524.27	388.53
524.44	510.24
524.61	475.13
524.78	376.83
524.96	414.27
525.13	372.15
525.30	411.93
525.47	381.51
525.64	400.23
525.81	395.55
525.98	421.30
526.16	514.92
526.33	376.83
526.50	418.96
526.67	411.93
526.84	423.64
527.01	433.00
527.18	470.45
527.36	390.87
527.53	365.12
527.70	463.43
527.87	442.36
528.04	463.43
528.21	428.32
528.38	447.04
528.55	393.21
528.72	451.72
528.89	421.30
529.07	407.25
529.24	468.11
529.41	386.19
529.58	404.91
529.75	402.57
529.92	451.72
530.09	475.13
530.26	348.74
530.43	444.70
530.60	397.89
530.77	402.57
530.94	428.32
531.11	454.06
531.28	433.00
531.46	468.11
531.63	472.79
531.80	454.06
531.97	418.96
532.14	421.30
532.31	430.66
532.48	409.59
532.65	472.79
532.82	451.72
532.99	402.57
533.16	416.62
533.33	433.00
533.50	425.98
533.67	456.40
533.84	470.45
534.01	416.62
534.18	440.02
534.35	346.40
534.52	435.34
534.69	435.34
534.86	430.66
535.03	421.30
535.20	390.87
535.37	367.46
535.54	407.25
535.71	407.25
535.88	477.47
536.05	440.02
536.22	461.09
536.38	388.53
536.55	404.91
536.72	414.27
536.89	505.56
537.06	437.68
537.23	388.53
537.40	379.17
537.57	306.61
537.74	484.49
537.91	482.15
538.08	404.91
538.25	444.70
538.42	414.27
538.59	346.40
538.75	400.23
538.92	397.89
539.09	461.09
539.26	440.02
539.43	444.70
539.60	404.91
539.77	440.02
539.94	421.30
540.11	437.68
540.28	451.72
540.44	444.70
540.61	374.49
540.78	383.85
540.95	393.21
541.12	416.62
541.29	404.91
541.46	397.89
541.62	372.15
541.79	430.66
541.96	409.59
542.13	472.79
542.30	407.25
542.47	447.04
542.63	430.66
542.80	456.40
542.97	475.13
543.14	393.21
543.31	411.93
543.48	344.06
543.64	472.79
543.81	451.72
543.98	416.62
544.15	404.91
544.32	372.15
544.48	383.85
544.65	454.06
544.82	402.57
544.99	428.32
545.16	484.49
545.32	411.93
545.49	367.46
545.66	451.72
545.83	423.64
546.00	444.70
546.16	433.00
546.33	442.36
546.50	430.66
546.67	414.27
546.83	386.19
547.00	372.15
547.17	404.91
547.34	411.93
547.50	447.04
547.67	374.49
547.84	360.44
548.00	472.79
548.17	379.17
548.34	379.17
548.51	376.83
548.67	463.43
548.84	454.06
549.01	440.02
549.18	416.62
549.34	367.46
549.51	421.30
549.68	437.68
549.84	367.46
550.01	400.23
550.18	475.13
550.34	463.43
550.51	400.23
550.68	456.40
550.84	334.70
551.01	407.25
551.18	430.66
551.34	393.21
551.51	402.57
551.68	428.32
551.84	411.93
552.01	383.85
552.18	409.59
552.34	484.49
552.51	512.58
552.68	428.32
552.84	383.85
553.01	444.70
553.18	428.32
553.34	381.51
553.51	447.04
553.67	421.30
553.84	442.36
554.01	437.68
554.17	447.04
554.34	463.43
554.51	418.96
554.67	353.42
554.84	430.66
555.00	414.27
555.17	386.19
555.33	402.57
555.50	407.25
555.67	418.96
555.83	463.43
556.00	437.68
556.16	496.19
556.33	437.68
556.50	437.68
556.66	496.19
556.83	463.43
556.99	395.55
557.16	365.12
557.32	411.93
557.49	400.23
557.65	409.59
557.82	397.89
557.98	479.81
558.15	484.49
558.32	456.40
558.48	423.64
558.65	451.72
558.81	454.06
558.98	414.27
559.14	395.55
559.31	397.89
559.47	468.11
559.64	411.93
559.80	447.04
559.97	463.43
560.13	397.89
560.30	367.46
560.46	383.85
560.63	374.49
560.79	362.78
560.96	409.59
561.12	423.64
561.29	367.46
561.45	381.51
561.61	433.00
561.78	472.79
561.94	433.00
562.11	376.83
562.27	397.89
562.44	414.27
562.60	416.62
562.77	320.65
562.93	507.90
563.10	440.02
563.26	322.99
563.42	451.72
563.59	433.00
563.75	423.64
563.92	510.24
564.08	493.85
564.24	393.21
564.41	463.43
564.57	407.25
564.74	400.23
564.90	395.55
565.07	393.21
565.23	444.70
565.39	388.53
565.56	428.32
565.72	376.83
565.88	442.36
566.05	458.74
566.21	425.98
566.38	433.00
566.54	409.59
566.70	360.44
566.87	397.89
567.03	411.93
567.19	458.74
567.36	409.59
567.52	407.25
567.68	428.32
567.85	428.32
568.01	411.93
568.17	390.87
568.34	458.74
568.50	449.38
568.66	390.87
568.83	468.11
568.99	388.53
569.15	444.70
569.32	423.64
569.48	458.74
569.64	461.09
569.81	425.98
569.97	397.89
570.13	444.70
570.30	437.68
570.46	421.30
570.62	409.59
570.78	390.87
570.95	468.11
571.11	491.51
571.27	482.15
571.43	447.04
571.60	418.96
571.76	435.34
571.92	383.85
572.09	430.66
572.25	381.51
572.41	421.30
572.57	404.91
572.74	454.06
572.90	440.02
573.06	332.36
573.22	451.72
573.38	381.51
573.55	456.40
573.71	463.43
573.87	435.34
574.03	383.85
574.20	524.28
574.36	472.79
574.52	423.64
574.68	423.64
574.84	393.21
575.01	369.80
575.17	430.66
575.33	407.25
575.49	390.87
575.65	407.25
575.82	482.15
575.98	374.49
576.14	458.74
576.30	388.53
576.46	358.10
576.62	428.32
576.79	355.76
576.95	414.27
577.11	428.32
577.27	414.27
577.43	477.47
577.59	461.09
577.75	400.23
577.92	447.04
578.08	407.25
578.24	386.19
578.40	442.36
578.56	458.74
578.72	465.77
578.88	517.26
579.04	409.59
579.21	421.30
579.37	418.96
579.53	425.98
579.69	433.00
579.85	339.38
580.01	433.00
580.17	360.44
580.33	358.10
580.49	425.98
580.65	456.40
580.82	444.70
580.98	428.32
581.14	388.53
581.30	433.00
581.46	379.17
581.62	470.45
581.78	456.40
581.94	395.55
582.10	374.49
582.26	402.57
582.42	383.85
582.58	449.38
582.74	444.70
582.90	458.74
583.06	430.66
583.22	411.93
583.38	397.89
583.54	339.38
583.70	416.62
583.86	423.64
584.02	421.30
584.18	493.85
584.34	416.62
584.50	470.45
584.66	411.93
584.82	411.93
584.98	400.23
585.14	430.66
585.30	404.91
585.46	442.36
585.62	435.34
585.78	353.42
585.94	388.53
586.10	411.93
586.26	533.64
586.42	440.02
586.58	458.74
586.74	365.12
586.90	390.87
587.06	477.47
587.22	402.57
587.38	393.21
587.54	433.00
587.70	510.24
587.86	484.49
588.02	390.87
588.18	468.11
588.34	369.80
588.49	491.51
588.65	496.19
588.81	372.15
588.97	416.62
589.13	395.55
589.29	414.27
589.45	484.49
589.61	470.45
589.77	458.74
589.93	379.17
590.08	379.17
590.24	395.55
590.40	390.87
590.56	407.25
590.72	430.66
590.88	433.00
591.04	383.85
591.20	400.23
591.35	447.04
591.51	404.91
591.67	414.27
591.83	322.99
591.99	428.32
592.15	461.09
592.31	395.55
592.46	461.09
592.62	395.55
592.78	442.36
592.94	423.64
593.10	372.15
593.26	444.70
593.41	449.38
593.57	397.89
593.73	423.64
593.89	437.68
594.05	386.19
594.20	458.74
594.36	454.06
594.52	362.78
594.68	442.36
594.84	411.93
594.99	479.81
595.15	393.21
595.31	500.87
595.47	433.00
595.62	404.91
595.78	418.96
595.94	440.02
596.10	414.27
596.25	402.57
596.41	414.27
596.57	358.10
596.73	315.97
596.88	465.77
597.04	442.36
597.20	393.21
597.36	407.25
597.51	383.85
597.67	362.78
597.83	437.68
597.99	437.68
598.14	428.32
598.30	425.98
598.46	437.68
598.61	454.06
598.77	411.93
598.93	421.30
599.09	381.51
599.24	407.25
599.40	463.43
599.56	402.57
599.71	440.02
599.87	386.19
600.03	489.17
600.18	308.95
600.34	472.79
600.50	425.98
600.65	416.62
600.81	477.47
600.97	449.38
601.12	430.66
601.28	421.30
601.44	416.62
601.59	425.98
601.75	388.53
601.91	402.57
602.06	337.04
602.22	561.73
602.37	400.23
602.53	421.30
602.69	510.24
602.84	454.06
603.00	454.06
603.16	433.00
603.31	470.45
603.47	414.27
603.62	486.83
603.78	433.00
603.94	440.02
604.09	428.32
604.25	470.45
604.40	404.91
604.56	463.43
604.71	404.91
604.87	421.30
605.03	425.98
605.18	486.83
605.34	374.49
605.49	416.62
605.65	381.51
605.80	362.78
605.96	372.15
606.12	409.59
606.27	409.59
606.43	393.21
606.58	454.06
606.74	440.02
606.89	411.93
607.05	430.66
607.20	414.27
607.36	404.91
607.51	411.93
607.67	444.70
607.82	386.19
607.98	304.27
608.13	360.44
608.29	376.83
608.44	507.90
608.60	409.59
608.75	468.11
608.91	402.57
609.06	447.04
609.22	454.06
609.37	404.91
609.53	418.96
609.68	372.15
609.84	379.17
609.99	397.89
610.15	433.00
