SpectraSuite Data File
++++++++++++++++++++++++++++++++++++
Date: Fri Oct 25 12:10:38 EDT 2013
User: price-jones
Dark Spectrum Present: No
Reference Spectrum Present: No
Number of Sampled Component Spectra: 1
Spectrometers: USB2+H05261
Integration Time (usec): 100000 (USB2+H05261)
Spectra Averaged: 1 (USB2+H05261)
Boxcar Smoothing: 0 (USB2+H05261)
Correct for Electrical Dark: No (USB2+H05261)
Strobe/Lamp Enabled: No (USB2+H05261)
Correct for Detector Non-linearity: No (USB2+H05261)
Correct for Stray Light: No (USB2+H05261)
Number of Pixels in Processed Spectrum: 2048
>>>>>Begin Processed Spectral Data<<<<<
365.73	351.08
365.92	351.08
366.12	351.08
366.32	255.12
366.52	238.73
366.72	301.93
366.91	170.86
367.11	222.35
367.31	166.18
367.51	184.90
367.70	301.93
367.90	215.33
368.10	238.73
368.30	276.18
368.49	278.52
368.69	271.50
368.89	287.89
369.09	330.02
369.28	301.93
369.48	327.68
369.68	271.50
369.87	351.08
370.07	334.70
370.27	365.12
370.47	297.25
370.66	372.15
370.86	315.97
371.06	334.70
371.25	367.46
371.45	404.91
371.65	318.31
371.84	334.70
372.04	437.68
372.24	430.66
372.44	416.62
372.63	407.25
372.83	407.25
373.03	397.89
373.22	367.46
373.42	498.53
373.62	447.04
373.81	456.40
374.01	402.57
374.21	404.91
374.40	374.49
374.60	456.40
374.79	379.17
374.99	428.32
375.19	444.70
375.38	435.34
375.58	386.19
375.78	416.62
375.97	449.38
376.17	500.87
376.37	458.74
376.56	428.32
376.76	411.93
376.95	475.13
377.15	433.00
377.35	397.89
377.54	423.64
377.74	414.27
377.93	397.89
378.13	414.27
378.33	416.62
378.52	491.51
378.72	423.64
378.91	430.66
379.11	416.62
379.31	346.40
379.50	334.70
379.70	386.19
379.89	369.80
380.09	362.78
380.28	402.57
380.48	376.83
380.68	416.62
380.87	425.98
381.07	430.66
381.26	458.74
381.46	283.20
381.65	444.70
381.85	433.00
382.04	428.32
382.24	348.74
382.43	337.04
382.63	411.93
382.83	400.23
383.02	437.68
383.22	416.62
383.41	425.98
383.61	404.91
383.80	440.02
384.00	372.15
384.19	430.66
384.39	418.96
384.58	418.96
384.78	437.68
384.97	416.62
385.17	397.89
385.36	369.80
385.56	456.40
385.75	369.80
385.95	447.04
386.14	397.89
386.34	486.83
386.53	500.87
386.72	351.08
386.92	407.25
387.11	421.30
387.31	397.89
387.50	337.04
387.70	351.08
387.89	386.19
388.09	397.89
388.28	423.64
388.48	449.38
388.67	449.38
388.86	433.00
389.06	444.70
389.25	444.70
389.45	421.30
389.64	346.40
389.84	444.70
390.03	411.93
390.22	430.66
390.42	383.85
390.61	433.00
390.81	311.29
391.00	402.57
391.19	383.85
391.39	386.19
391.58	393.21
391.78	479.81
391.97	402.57
392.16	360.44
392.36	383.85
392.55	465.77
392.75	395.55
392.94	461.09
393.13	407.25
393.33	442.36
393.52	437.68
393.71	421.30
393.91	442.36
394.10	388.53
394.29	383.85
394.49	390.87
394.68	346.40
394.88	475.13
395.07	390.87
395.26	395.55
395.46	430.66
395.65	425.98
395.84	402.57
396.04	491.51
396.23	407.25
396.42	381.51
396.62	360.44
396.81	400.23
397.00	341.72
397.19	402.57
397.39	472.79
397.58	510.24
397.77	383.85
397.97	355.76
398.16	409.59
398.35	442.36
398.55	461.09
398.74	344.06
398.93	451.72
399.12	404.91
399.32	395.55
399.51	454.06
399.70	449.38
399.90	440.02
400.09	407.25
400.28	381.51
400.47	435.34
400.67	397.89
400.86	344.06
401.05	470.45
401.24	428.32
401.44	407.25
401.63	468.11
401.82	404.91
402.01	383.85
402.21	416.62
402.40	395.55
402.59	447.04
402.78	451.72
402.97	383.85
403.17	393.21
403.36	449.38
403.55	418.96
403.74	461.09
403.93	393.21
404.13	430.66
404.32	428.32
404.51	383.85
404.70	376.83
404.89	327.68
405.09	381.51
405.28	423.64
405.47	414.27
405.66	447.04
405.85	358.10
406.05	444.70
406.24	404.91
406.43	360.44
406.62	365.12
406.81	386.19
407.00	449.38
407.20	440.02
407.39	379.17
407.58	334.70
407.77	418.96
407.96	414.27
408.15	397.89
408.34	379.17
408.54	404.91
408.73	440.02
408.92	423.64
409.11	311.29
409.30	472.79
409.49	397.89
409.68	367.46
409.87	414.27
410.07	416.62
410.26	339.38
410.45	367.46
410.64	449.38
410.83	395.55
411.02	376.83
411.21	388.53
411.40	414.27
411.59	423.64
411.78	440.02
411.98	311.29
412.17	358.10
412.36	423.64
412.55	358.10
412.74	489.17
412.93	442.36
413.12	390.87
413.31	386.19
413.50	393.21
413.69	449.38
413.88	465.77
414.07	379.17
414.26	386.19
414.45	407.25
414.64	395.55
414.83	437.68
415.02	400.23
415.22	428.32
415.41	400.23
415.60	447.04
415.79	433.00
415.98	407.25
416.17	482.15
416.36	430.66
416.55	358.10
416.74	411.93
416.93	395.55
417.12	470.45
417.31	440.02
417.50	407.25
417.69	489.17
417.88	430.66
418.07	425.98
418.26	454.06
418.45	425.98
418.64	475.13
418.83	400.23
419.02	461.09
419.21	365.12
419.39	440.02
419.58	362.78
419.77	372.15
419.96	393.21
420.15	451.72
420.34	418.96
420.53	379.17
420.72	395.55
420.91	404.91
421.10	458.74
421.29	461.09
421.48	447.04
421.67	376.83
421.86	367.46
422.05	416.62
422.24	404.91
422.43	411.93
422.61	440.02
422.80	355.76
422.99	416.62
423.18	430.66
423.37	503.22
423.56	390.87
423.75	449.38
423.94	437.68
424.13	362.78
424.32	428.32
424.50	362.78
424.69	461.09
424.88	416.62
425.07	341.72
425.26	376.83
425.45	472.79
425.64	376.83
425.83	421.30
426.01	423.64
426.20	458.74
426.39	376.83
426.58	397.89
426.77	407.25
426.96	430.66
427.15	407.25
427.33	367.46
427.52	430.66
427.71	423.64
427.90	367.46
428.09	358.10
428.28	414.27
428.46	411.93
428.65	538.32
428.84	397.89
429.03	425.98
429.22	365.12
429.40	409.59
429.59	400.23
429.78	411.93
429.97	409.59
430.16	397.89
430.34	400.23
430.53	418.96
430.72	414.27
430.91	425.98
431.10	393.21
431.28	449.38
431.47	360.44
431.66	437.68
431.85	407.25
432.03	353.42
432.22	458.74
432.41	365.12
432.60	430.66
432.79	372.15
432.97	320.65
433.16	435.34
433.35	416.62
433.54	381.51
433.72	402.57
433.91	409.59
434.10	465.77
434.28	383.85
434.47	416.62
434.66	355.76
434.85	367.46
435.03	390.87
435.22	397.89
435.41	454.06
435.59	409.59
435.78	423.64
435.97	461.09
436.16	407.25
436.34	386.19
436.53	447.04
436.72	430.66
436.90	381.51
437.09	472.79
437.28	376.83
437.46	465.77
437.65	388.53
437.84	402.57
438.02	362.78
438.21	423.64
438.40	374.49
438.58	393.21
438.77	379.17
438.96	423.64
439.14	526.62
439.33	400.23
439.52	400.23
439.70	344.06
439.89	442.36
440.08	397.89
440.26	397.89
440.45	440.02
440.63	400.23
440.82	440.02
441.01	477.47
441.19	395.55
441.38	400.23
441.57	379.17
441.75	440.02
441.94	449.38
442.12	381.51
442.31	402.57
442.50	369.80
442.68	393.21
442.87	423.64
443.05	407.25
443.24	447.04
443.43	423.64
443.61	388.53
443.80	458.74
443.98	339.38
444.17	435.34
444.35	430.66
444.54	344.06
444.73	451.72
444.91	418.96
445.10	369.80
445.28	435.34
445.47	379.17
445.65	390.87
445.84	383.85
446.02	484.49
446.21	437.68
446.39	444.70
446.58	437.68
446.77	423.64
446.95	477.47
447.14	388.53
447.32	430.66
447.51	402.57
447.69	362.78
447.88	512.58
448.06	444.70
448.25	425.98
448.43	355.76
448.62	423.64
448.80	325.33
448.99	416.62
449.17	425.98
449.36	365.12
449.54	379.17
449.73	372.15
449.91	400.23
450.10	418.96
450.28	465.77
450.46	550.03
450.65	496.19
450.83	395.55
451.02	407.25
451.20	435.34
451.39	400.23
451.57	425.98
451.76	390.87
451.94	444.70
452.13	428.32
452.31	486.83
452.49	379.17
452.68	369.80
452.86	428.32
453.05	461.09
453.23	449.38
453.42	421.30
453.60	416.62
453.78	416.62
453.97	369.80
454.15	365.12
454.34	454.06
454.52	416.62
454.70	447.04
454.89	428.32
455.07	355.76
455.26	379.17
455.44	407.25
455.62	411.93
455.81	362.78
455.99	425.98
456.17	454.06
456.36	454.06
456.54	355.76
456.73	344.06
456.91	477.47
457.09	374.49
457.28	444.70
457.46	411.93
457.64	425.98
457.83	416.62
458.01	400.23
458.19	475.13
458.38	355.76
458.56	409.59
458.74	383.85
458.93	437.68
459.11	414.27
459.29	376.83
459.48	447.04
459.66	409.59
459.84	411.93
460.03	447.04
460.21	418.96
460.39	358.10
460.57	454.06
460.76	477.47
460.94	468.11
461.12	416.62
461.31	411.93
461.49	381.51
461.67	521.94
461.85	383.85
462.04	477.47
462.22	779.40
462.40	421.30
462.59	433.00
462.77	456.40
462.95	440.02
463.13	393.21
463.32	435.34
463.50	435.34
463.68	404.91
463.86	358.10
464.05	411.93
464.23	383.85
464.41	383.85
464.59	320.65
464.78	430.66
464.96	393.21
465.14	353.42
465.32	393.21
465.50	409.59
465.69	421.30
465.87	381.51
466.05	456.40
466.23	437.68
466.41	402.57
466.60	472.79
466.78	423.64
466.96	458.74
467.14	360.44
467.32	416.62
467.51	425.98
467.69	449.38
467.87	418.96
468.05	423.64
468.23	430.66
468.41	414.27
468.60	393.21
468.78	423.64
468.96	472.79
469.14	353.42
469.32	393.21
469.50	376.83
469.69	461.09
469.87	451.72
470.05	435.34
470.23	454.06
470.41	411.93
470.59	299.59
470.77	386.19
470.95	322.99
471.14	395.55
471.32	402.57
471.50	472.79
471.68	470.45
471.86	418.96
472.04	418.96
472.22	409.59
472.40	451.72
472.58	430.66
472.77	437.68
472.95	416.62
473.13	456.40
473.31	418.96
473.49	407.25
473.67	376.83
473.85	386.19
474.03	454.06
474.21	435.34
474.39	470.45
474.57	461.09
474.75	425.98
474.93	425.98
475.12	383.85
475.30	369.80
475.48	369.80
475.66	421.30
475.84	402.57
476.02	421.30
476.20	486.83
476.38	407.25
476.56	437.68
476.74	397.89
476.92	437.68
477.10	440.02
477.28	470.45
477.46	451.72
477.64	461.09
477.82	386.19
478.00	437.68
478.18	416.62
478.36	440.02
478.54	416.62
478.72	404.91
478.90	430.66
479.08	369.80
479.26	428.32
479.44	318.31
479.62	440.02
479.80	395.55
479.98	355.76
480.16	463.43
480.34	416.62
480.52	346.40
480.70	402.57
480.88	470.45
481.06	435.34
481.24	447.04
481.41	409.59
481.59	418.96
481.77	444.70
481.95	423.64
482.13	388.53
482.31	388.53
482.49	400.23
482.67	442.36
482.85	493.85
483.03	430.66
483.21	461.09
483.39	400.23
483.57	414.27
483.74	507.90
483.92	351.08
484.10	458.74
484.28	418.96
484.46	407.25
484.64	428.32
484.82	404.91
485.00	475.13
485.18	416.62
485.35	425.98
485.53	395.55
485.71	390.87
485.89	411.93
486.07	449.38
486.25	454.06
486.43	381.51
486.61	447.04
486.78	423.64
486.96	411.93
487.14	344.06
487.32	411.93
487.50	442.36
487.68	404.91
487.85	374.49
488.03	451.72
488.21	461.09
488.39	430.66
488.57	465.77
488.75	409.59
488.92	491.51
489.10	404.91
489.28	489.17
489.46	393.21
489.64	428.32
489.81	358.10
489.99	390.87
490.17	393.21
490.35	418.96
490.53	355.76
490.70	393.21
490.88	402.57
491.06	458.74
491.24	402.57
491.41	451.72
491.59	409.59
491.77	374.49
491.95	423.64
492.13	454.06
492.30	388.53
492.48	411.93
492.66	393.21
492.84	372.15
493.01	414.27
493.19	425.98
493.37	454.06
493.54	381.51
493.72	376.83
493.90	451.72
494.08	475.13
494.25	463.43
494.43	430.66
494.61	430.66
494.79	360.44
494.96	400.23
495.14	440.02
495.32	409.59
495.49	376.83
495.67	390.87
495.85	400.23
496.02	395.55
496.20	414.27
496.38	521.94
496.55	311.29
496.73	491.51
496.91	430.66
497.09	397.89
497.26	404.91
497.44	433.00
497.62	435.34
497.79	409.59
497.97	367.46
498.14	418.96
498.32	437.68
498.50	514.92
498.67	355.76
498.85	489.17
499.03	454.06
499.20	444.70
499.38	353.42
499.56	386.19
499.73	465.77
499.91	367.46
500.08	411.93
500.26	411.93
500.44	456.40
500.61	381.51
500.79	416.62
500.97	463.43
501.14	428.32
501.32	418.96
501.49	355.76
501.67	435.34
501.84	369.80
502.02	425.98
502.20	456.40
502.37	409.59
502.55	428.32
502.72	355.76
502.90	482.15
503.07	383.85
503.25	437.68
503.43	313.63
503.60	372.15
503.78	409.59
503.95	414.27
504.13	407.25
504.30	393.21
504.48	475.13
504.65	414.27
504.83	404.91
505.01	372.15
505.18	461.09
505.36	416.62
505.53	402.57
505.71	414.27
505.88	489.17
506.06	440.02
506.23	444.70
506.41	388.53
506.58	428.32
506.76	395.55
506.93	397.89
507.11	388.53
507.28	388.53
507.46	400.23
507.63	437.68
507.81	348.74
507.98	409.59
508.16	348.74
508.33	465.77
508.50	484.49
508.68	395.55
508.85	421.30
509.03	388.53
509.20	418.96
509.38	325.33
509.55	430.66
509.73	472.79
509.90	454.06
510.08	367.46
510.25	390.87
510.42	353.42
510.60	369.80
510.77	425.98
510.95	421.30
511.12	383.85
511.30	404.91
511.47	458.74
511.64	458.74
511.82	374.49
511.99	383.85
512.17	409.59
512.34	465.77
512.51	430.66
512.69	390.87
512.86	454.06
513.04	386.19
513.21	451.72
513.38	367.46
513.56	407.25
513.73	393.21
513.90	369.80
514.08	433.00
514.25	454.06
514.43	386.19
514.60	440.02
514.77	390.87
514.95	346.40
515.12	383.85
515.29	451.72
515.47	440.02
515.64	444.70
515.81	348.74
515.99	381.51
516.16	390.87
516.33	449.38
516.51	372.15
516.68	444.70
516.85	374.49
517.03	440.02
517.20	402.57
517.37	449.38
517.54	418.96
517.72	372.15
517.89	493.85
518.06	416.62
518.24	472.79
518.41	533.64
518.58	386.19
518.75	369.80
518.93	428.32
519.10	423.64
519.27	461.09
519.45	411.93
519.62	346.40
519.79	393.21
519.96	397.89
520.14	390.87
520.31	447.04
520.48	374.49
520.65	414.27
520.83	409.59
521.00	367.46
521.17	472.79
521.34	386.19
521.52	465.77
521.69	449.38
521.86	341.72
522.03	409.59
522.20	479.81
522.38	454.06
522.55	346.40
522.72	337.04
522.89	355.76
523.07	486.83
523.24	428.32
523.41	449.38
523.58	339.38
523.75	376.83
523.92	365.12
524.10	393.21
524.27	461.09
524.44	433.00
524.61	477.47
524.78	395.55
524.96	425.98
525.13	484.49
525.30	491.51
525.47	468.11
525.64	404.91
525.81	404.91
525.98	470.45
526.16	411.93
526.33	411.93
526.50	433.00
526.67	421.30
526.84	360.44
527.01	409.59
527.18	348.74
527.36	402.57
527.53	407.25
527.70	346.40
527.87	395.55
528.04	433.00
528.21	416.62
528.38	425.98
528.55	402.57
528.72	456.40
528.89	458.74
529.07	388.53
529.24	407.25
529.41	484.49
529.58	397.89
529.75	414.27
529.92	472.79
530.09	433.00
530.26	447.04
530.43	454.06
530.60	451.72
530.77	425.98
530.94	390.87
531.11	360.44
531.28	451.72
531.46	325.33
531.63	369.80
531.80	451.72
531.97	437.68
532.14	489.17
532.31	402.57
532.48	330.02
532.65	381.51
532.82	372.15
532.99	444.70
533.16	458.74
533.33	393.21
533.50	475.13
533.67	369.80
533.84	463.43
534.01	444.70
534.18	409.59
534.35	440.02
534.52	416.62
534.69	454.06
534.86	454.06
535.03	421.30
535.20	421.30
535.37	374.49
535.54	425.98
535.71	430.66
535.88	507.90
536.05	433.00
536.22	433.00
536.38	397.89
536.55	418.96
536.72	407.25
536.89	383.85
537.06	461.09
537.23	369.80
537.40	402.57
537.57	393.21
537.74	447.04
537.91	395.55
538.08	411.93
538.25	388.53
538.42	400.23
538.59	503.22
538.75	416.62
538.92	409.59
539.09	381.51
539.26	414.27
539.43	416.62
539.60	388.53
539.77	447.04
539.94	402.57
540.11	416.62
540.28	477.47
540.44	463.43
540.61	442.36
540.78	418.96
540.95	374.49
541.12	428.32
541.29	447.04
541.46	463.43
541.62	482.15
541.79	477.47
541.96	451.72
542.13	402.57
542.30	393.21
542.47	404.91
542.63	433.00
542.80	414.27
542.97	341.72
543.14	348.74
543.31	402.57
543.48	393.21
543.64	484.49
543.81	428.32
543.98	393.21
544.15	435.34
544.32	468.11
544.48	388.53
544.65	365.12
544.82	407.25
544.99	416.62
545.16	440.02
545.32	341.72
545.49	421.30
545.66	491.51
545.83	416.62
546.00	367.46
546.16	381.51
546.33	332.36
546.50	416.62
546.67	362.78
546.83	421.30
547.00	411.93
547.17	482.15
547.34	376.83
547.50	440.02
547.67	393.21
547.84	325.33
548.00	393.21
548.17	388.53
548.34	386.19
548.51	444.70
548.67	444.70
548.84	433.00
549.01	362.78
549.18	390.87
549.34	337.04
549.51	402.57
549.68	409.59
549.84	437.68
550.01	456.40
550.18	447.04
550.34	451.72
550.51	404.91
550.68	482.15
550.84	355.76
551.01	418.96
551.18	435.34
551.34	411.93
551.51	369.80
551.68	428.32
551.84	472.79
552.01	433.00
552.18	372.15
552.34	440.02
552.51	388.53
552.68	440.02
552.84	358.10
553.01	444.70
553.18	400.23
553.34	458.74
553.51	390.87
553.67	407.25
553.84	425.98
554.01	475.13
554.17	463.43
554.34	433.00
554.51	388.53
554.67	442.36
554.84	444.70
555.00	472.79
555.17	393.21
555.33	444.70
555.50	428.32
555.67	440.02
555.83	421.30
556.00	435.34
556.16	498.53
556.33	444.70
556.50	407.25
556.66	512.58
556.83	423.64
556.99	407.25
557.16	454.06
557.32	428.32
557.49	447.04
557.65	486.83
557.82	337.04
557.98	393.21
558.15	489.17
558.32	447.04
558.48	376.83
558.65	404.91
558.81	411.93
558.98	381.51
559.14	381.51
559.31	430.66
559.47	425.98
559.64	383.85
559.80	418.96
559.97	482.15
560.13	425.98
560.30	430.66
560.46	393.21
560.63	381.51
560.79	402.57
560.96	416.62
561.12	433.00
561.29	386.19
561.45	456.40
561.61	451.72
561.78	430.66
561.94	395.55
562.11	463.43
562.27	454.06
562.44	411.93
562.60	407.25
562.77	433.00
562.93	442.36
563.10	348.74
563.26	400.23
563.42	404.91
563.59	475.13
563.75	437.68
563.92	407.25
564.08	353.42
564.24	421.30
564.41	440.02
564.57	404.91
564.74	437.68
564.90	477.47
565.07	433.00
565.23	367.46
565.39	390.87
565.56	414.27
565.72	386.19
565.88	379.17
566.05	376.83
566.21	376.83
566.38	444.70
566.54	409.59
566.70	367.46
566.87	379.17
567.03	409.59
567.19	428.32
567.36	414.27
567.52	376.83
567.68	477.47
567.85	430.66
568.01	468.11
568.17	447.04
568.34	454.06
568.50	482.15
568.66	421.30
568.83	526.62
568.99	470.45
569.15	470.45
569.32	463.43
569.48	423.64
569.64	346.40
569.81	411.93
569.97	369.80
570.13	468.11
570.30	402.57
570.46	411.93
570.62	402.57
570.78	381.51
570.95	334.70
571.11	461.09
571.27	461.09
571.43	409.59
571.60	393.21
571.76	379.17
571.92	404.91
572.09	440.02
572.25	430.66
572.41	444.70
572.57	381.51
572.74	339.38
572.90	428.32
573.06	435.34
573.22	440.02
573.38	472.79
573.55	400.23
573.71	472.79
573.87	482.15
574.03	409.59
574.20	449.38
574.36	421.30
574.52	468.11
574.68	444.70
574.84	416.62
575.01	383.85
575.17	402.57
575.33	404.91
575.49	456.40
575.65	433.00
575.82	425.98
575.98	447.04
576.14	402.57
576.30	411.93
576.46	402.57
576.62	414.27
576.79	411.93
576.95	479.81
577.11	311.29
577.27	388.53
577.43	437.68
577.59	479.81
577.75	440.02
577.92	327.68
578.08	409.59
578.24	444.70
578.40	442.36
578.56	440.02
578.72	442.36
578.88	428.32
579.04	463.43
579.21	397.89
579.37	407.25
579.53	421.30
579.69	456.40
579.85	458.74
580.01	500.87
580.17	437.68
580.33	425.98
580.49	414.27
580.65	390.87
580.82	409.59
580.98	425.98
581.14	381.51
581.30	421.30
581.46	433.00
581.62	461.09
581.78	383.85
581.94	383.85
582.10	383.85
582.26	442.36
582.42	449.38
582.58	388.53
582.74	425.98
582.90	463.43
583.06	435.34
583.22	507.90
583.38	407.25
583.54	327.68
583.70	386.19
583.86	388.53
584.02	360.44
584.18	456.40
584.34	409.59
584.50	404.91
584.66	404.91
584.82	407.25
584.98	381.51
585.14	339.38
585.30	430.66
585.46	393.21
585.62	393.21
585.78	430.66
585.94	463.43
586.10	397.89
586.26	498.53
586.42	435.34
586.58	447.04
586.74	456.40
586.90	369.80
587.06	411.93
587.22	334.70
587.38	383.85
587.54	383.85
587.70	404.91
587.86	479.81
588.02	397.89
588.18	430.66
588.34	486.83
588.49	404.91
588.65	348.74
588.81	404.91
588.97	442.36
589.13	402.57
589.29	374.49
589.45	444.70
589.61	472.79
589.77	477.47
589.93	376.83
590.08	416.62
590.24	390.87
590.40	393.21
590.56	416.62
590.72	503.22
590.88	381.51
591.04	339.38
591.20	402.57
591.35	440.02
591.51	423.64
591.67	468.11
591.83	390.87
591.99	451.72
592.15	402.57
592.31	447.04
592.46	463.43
592.62	407.25
592.78	362.78
592.94	416.62
593.10	393.21
593.26	458.74
593.41	430.66
593.57	341.72
593.73	418.96
593.89	470.45
594.05	451.72
594.20	435.34
594.36	393.21
594.52	440.02
594.68	475.13
594.84	402.57
594.99	430.66
595.15	451.72
595.31	435.34
595.47	435.34
595.62	390.87
595.78	376.83
595.94	435.34
596.10	414.27
596.25	355.76
596.41	451.72
596.57	423.64
596.73	402.57
596.88	353.42
597.04	505.56
597.20	339.38
597.36	416.62
597.51	381.51
597.67	447.04
597.83	416.62
597.99	418.96
598.14	428.32
598.30	465.77
598.46	437.68
598.61	451.72
598.77	437.68
598.93	353.42
599.09	369.80
599.24	388.53
599.40	472.79
599.56	444.70
599.71	491.51
599.87	407.25
600.03	421.30
600.18	395.55
600.34	425.98
600.50	351.08
600.65	440.02
600.81	400.23
600.97	404.91
601.12	421.30
601.28	505.56
601.44	491.51
601.59	433.00
601.75	411.93
601.91	400.23
602.06	440.02
602.22	521.94
602.37	397.89
602.53	428.32
602.69	400.23
602.84	369.80
603.00	456.40
603.16	454.06
603.31	407.25
603.47	397.89
603.62	407.25
603.78	402.57
603.94	386.19
604.09	416.62
604.25	418.96
604.40	454.06
604.56	430.66
604.71	390.87
604.87	337.04
605.03	491.51
605.18	444.70
605.34	475.13
605.49	416.62
605.65	390.87
605.80	421.30
605.96	397.89
606.12	442.36
606.27	479.81
606.43	383.85
606.58	367.46
606.74	395.55
606.89	437.68
607.05	421.30
607.20	433.00
607.36	381.51
607.51	411.93
607.67	411.93
607.82	365.12
607.98	444.70
608.13	390.87
608.29	397.89
608.44	435.34
608.60	430.66
608.75	416.62
608.91	517.26
609.06	395.55
609.22	461.09
609.37	430.66
609.53	402.57
609.68	484.49
609.84	388.53
609.99	360.44
610.15	393.21
