SpectraSuite Data File
++++++++++++++++++++++++++++++++++++
Date: Fri Oct 25 12:10:30 EDT 2013
User: price-jones
Dark Spectrum Present: No
Reference Spectrum Present: No
Number of Sampled Component Spectra: 1
Spectrometers: USB2+H05261
Integration Time (usec): 100000 (USB2+H05261)
Spectra Averaged: 1 (USB2+H05261)
Boxcar Smoothing: 0 (USB2+H05261)
Correct for Electrical Dark: No (USB2+H05261)
Strobe/Lamp Enabled: No (USB2+H05261)
Correct for Detector Non-linearity: No (USB2+H05261)
Correct for Stray Light: No (USB2+H05261)
Number of Pixels in Processed Spectrum: 2048
>>>>>Begin Processed Spectral Data<<<<<
365.73	337.04
365.92	337.04
366.12	337.04
366.32	227.03
366.52	273.84
366.72	271.50
366.91	252.78
367.11	215.33
367.31	210.65
367.51	201.29
367.70	327.68
367.90	210.65
368.10	231.71
368.30	262.14
368.49	308.95
368.69	238.73
368.89	301.93
369.09	229.37
369.28	201.29
369.48	187.24
369.68	294.91
369.87	355.76
370.07	306.61
370.27	299.59
370.47	360.44
370.66	318.31
370.86	217.67
371.06	360.44
371.25	379.17
371.45	355.76
371.65	322.99
371.84	388.53
372.04	367.46
372.24	393.21
372.44	444.70
372.63	402.57
372.83	444.70
373.03	435.34
373.22	458.74
373.42	461.09
373.62	421.30
373.81	440.02
374.01	362.78
374.21	461.09
374.40	351.08
374.60	418.96
374.79	425.98
374.99	411.93
375.19	407.25
375.38	409.59
375.58	463.43
375.78	393.21
375.97	360.44
376.17	411.93
376.37	442.36
376.56	428.32
376.76	346.40
376.95	395.55
377.15	397.89
377.35	386.19
377.54	433.00
377.74	390.87
377.93	388.53
378.13	337.04
378.33	390.87
378.52	454.06
378.72	395.55
378.91	376.83
379.11	374.49
379.31	433.00
379.50	362.78
379.70	416.62
379.89	395.55
380.09	472.79
380.28	367.46
380.48	442.36
380.68	428.32
380.87	381.51
381.07	428.32
381.26	484.49
381.46	421.30
381.65	404.91
381.85	397.89
382.04	416.62
382.24	393.21
382.43	327.68
382.63	313.63
382.83	386.19
383.02	430.66
383.22	390.87
383.41	393.21
383.61	423.64
383.80	470.45
384.00	369.80
384.19	393.21
384.39	383.85
384.58	442.36
384.78	423.64
384.97	442.36
385.17	433.00
385.36	376.83
385.56	447.04
385.75	407.25
385.95	437.68
386.14	404.91
386.34	388.53
386.53	454.06
386.72	414.27
386.92	442.36
387.11	425.98
387.31	393.21
387.50	444.70
387.70	332.36
387.89	393.21
388.09	400.23
388.28	414.27
388.48	390.87
388.67	400.23
388.86	379.17
389.06	423.64
389.25	435.34
389.45	477.47
389.64	374.49
389.84	358.10
390.03	463.43
390.22	411.93
390.42	379.17
390.61	393.21
390.81	304.27
391.00	458.74
391.19	475.13
391.39	458.74
391.58	442.36
391.78	447.04
391.97	444.70
392.16	409.59
392.36	428.32
392.55	433.00
392.75	411.93
392.94	341.72
393.13	442.36
393.33	379.17
393.52	397.89
393.71	376.83
393.91	404.91
394.10	327.68
394.29	379.17
394.49	332.36
394.68	400.23
394.88	341.72
395.07	409.59
395.26	461.09
395.46	435.34
395.65	425.98
395.84	404.91
396.04	465.77
396.23	327.68
396.42	409.59
396.62	435.34
396.81	376.83
397.00	397.89
397.19	348.74
397.39	400.23
397.58	416.62
397.77	379.17
397.97	416.62
398.16	367.46
398.35	451.72
398.55	390.87
398.74	379.17
398.93	454.06
399.12	381.51
399.32	418.96
399.51	400.23
399.70	442.36
399.90	388.53
400.09	407.25
400.28	416.62
400.47	386.19
400.67	465.77
400.86	468.11
401.05	440.02
401.24	435.34
401.44	308.95
401.63	376.83
401.82	386.19
402.01	379.17
402.21	383.85
402.40	379.17
402.59	397.89
402.78	388.53
402.97	386.19
403.17	348.74
403.36	379.17
403.55	341.72
403.74	388.53
403.93	376.83
404.13	409.59
404.32	369.80
404.51	388.53
404.70	381.51
404.89	369.80
405.09	430.66
405.28	449.38
405.47	447.04
405.66	367.46
405.85	421.30
406.05	351.08
406.24	388.53
406.43	418.96
406.62	447.04
406.81	451.72
407.00	470.45
407.20	374.49
407.39	416.62
407.58	407.25
407.77	367.46
407.96	395.55
408.15	435.34
408.34	409.59
408.54	451.72
408.73	402.57
408.92	409.59
409.11	458.74
409.30	418.96
409.49	423.64
409.68	400.23
409.87	386.19
410.07	400.23
410.26	451.72
410.45	379.17
410.64	400.23
410.83	433.00
411.02	414.27
411.21	435.34
411.40	479.81
411.59	433.00
411.78	409.59
411.98	451.72
412.17	393.21
412.36	358.10
412.55	407.25
412.74	425.98
412.93	456.40
413.12	379.17
413.31	470.45
413.50	381.51
413.69	430.66
413.88	447.04
414.07	360.44
414.26	435.34
414.45	416.62
414.64	402.57
414.83	388.53
415.02	397.89
415.22	437.68
415.41	433.00
415.60	327.68
415.79	421.30
415.98	440.02
416.17	397.89
416.36	365.12
416.55	400.23
416.74	395.55
416.93	465.77
417.12	416.62
417.31	355.76
417.50	421.30
417.69	369.80
417.88	414.27
418.07	407.25
418.26	407.25
418.45	435.34
418.64	444.70
418.83	376.83
419.02	409.59
419.21	383.85
419.39	346.40
419.58	411.93
419.77	423.64
419.96	383.85
420.15	449.38
420.34	425.98
420.53	337.04
420.72	451.72
420.91	458.74
421.10	421.30
421.29	421.30
421.48	344.06
421.67	442.36
421.86	390.87
422.05	411.93
422.24	425.98
422.43	402.57
422.61	421.30
422.80	479.81
422.99	409.59
423.18	428.32
423.37	425.98
423.56	411.93
423.75	365.12
423.94	435.34
424.13	421.30
424.32	390.87
424.50	416.62
424.69	454.06
424.88	418.96
425.07	334.70
425.26	395.55
425.45	414.27
425.64	379.17
425.83	484.49
426.01	402.57
426.20	360.44
426.39	365.12
426.58	388.53
426.77	400.23
426.96	425.98
427.15	414.27
427.33	374.49
427.52	465.77
427.71	458.74
427.90	374.49
428.09	458.74
428.28	334.70
428.46	461.09
428.65	358.10
428.84	369.80
429.03	400.23
429.22	444.70
429.40	390.87
429.59	404.91
429.78	489.17
429.97	428.32
430.16	479.81
430.34	447.04
430.53	397.89
430.72	404.91
430.91	444.70
431.10	414.27
431.28	411.93
431.47	440.02
431.66	353.42
431.85	400.23
432.03	407.25
432.22	451.72
432.41	388.53
432.60	475.13
432.79	308.95
432.97	339.38
433.16	386.19
433.35	390.87
433.54	440.02
433.72	393.21
433.91	404.91
434.10	402.57
434.28	397.89
434.47	421.30
434.66	458.74
434.85	456.40
435.03	407.25
435.22	463.43
435.41	404.91
435.59	327.68
435.78	388.53
435.97	365.12
436.16	451.72
436.34	411.93
436.53	423.64
436.72	400.23
436.90	388.53
437.09	376.83
437.28	425.98
437.46	421.30
437.65	468.11
437.84	358.10
438.02	402.57
438.21	411.93
438.40	332.36
438.58	402.57
438.77	409.59
438.96	428.32
439.14	404.91
439.33	414.27
439.52	355.76
439.70	425.98
439.89	437.68
440.08	421.30
440.26	437.68
440.45	416.62
440.63	414.27
440.82	437.68
441.01	444.70
441.19	423.64
441.38	425.98
441.57	423.64
441.75	458.74
441.94	442.36
442.12	411.93
442.31	418.96
442.50	407.25
442.68	461.09
442.87	332.36
443.05	402.57
443.24	388.53
443.43	374.49
443.61	355.76
443.80	414.27
443.98	379.17
444.17	365.12
444.35	414.27
444.54	416.62
444.73	421.30
444.91	409.59
445.10	353.42
445.28	496.19
445.47	414.27
445.65	472.79
445.84	463.43
446.02	332.36
446.21	381.51
446.39	367.46
446.58	435.34
446.77	430.66
446.95	491.51
447.14	395.55
447.32	444.70
447.51	454.06
447.69	454.06
447.88	404.91
448.06	423.64
448.25	442.36
448.43	454.06
448.62	430.66
448.80	475.13
448.99	404.91
449.17	351.08
449.36	421.30
449.54	416.62
449.73	299.59
449.91	386.19
450.10	411.93
450.28	411.93
450.46	503.22
450.65	465.77
450.83	376.83
451.02	313.63
451.20	486.83
451.39	344.06
451.57	337.04
451.76	351.08
451.94	397.89
452.13	421.30
452.31	437.68
452.49	437.68
452.68	388.53
452.86	425.98
453.05	421.30
453.23	442.36
453.42	454.06
453.60	428.32
453.78	341.72
453.97	482.15
454.15	355.76
454.34	369.80
454.52	444.70
454.70	430.66
454.89	407.25
455.07	393.21
455.26	374.49
455.44	404.91
455.62	400.23
455.81	365.12
455.99	428.32
456.17	435.34
456.36	397.89
456.54	404.91
456.73	390.87
456.91	404.91
457.09	407.25
457.28	388.53
457.46	362.78
457.64	348.74
457.83	442.36
458.01	383.85
458.19	353.42
458.38	358.10
458.56	355.76
458.74	358.10
458.93	435.34
459.11	454.06
459.29	421.30
459.48	475.13
459.66	458.74
459.84	404.91
460.03	454.06
460.21	393.21
460.39	423.64
460.57	430.66
460.76	367.46
460.94	411.93
461.12	491.51
461.31	442.36
461.49	411.93
461.67	390.87
461.85	472.79
462.04	367.46
462.22	786.42
462.40	362.78
462.59	414.27
462.77	447.04
462.95	423.64
463.13	402.57
463.32	435.34
463.50	381.51
463.68	416.62
463.86	395.55
464.05	376.83
464.23	454.06
464.41	444.70
464.59	437.68
464.78	390.87
464.96	390.87
465.14	437.68
465.32	402.57
465.50	418.96
465.69	395.55
465.87	397.89
466.05	386.19
466.23	390.87
466.41	435.34
466.60	468.11
466.78	428.32
466.96	465.77
467.14	404.91
467.32	411.93
467.51	390.87
467.69	437.68
467.87	365.12
468.05	442.36
468.23	372.15
468.41	390.87
468.60	433.00
468.78	381.51
468.96	458.74
469.14	400.23
469.32	411.93
469.50	388.53
469.69	435.34
469.87	461.09
470.05	386.19
470.23	435.34
470.41	355.76
470.59	411.93
470.77	423.64
470.95	411.93
471.14	402.57
471.32	484.49
471.50	449.38
471.68	440.02
471.86	393.21
472.04	433.00
472.22	358.10
472.40	332.36
472.58	407.25
472.77	393.21
472.95	470.45
473.13	418.96
473.31	470.45
473.49	369.80
473.67	388.53
473.85	397.89
474.03	365.12
474.21	442.36
474.39	374.49
474.57	458.74
474.75	486.83
474.93	386.19
475.12	437.68
475.30	332.36
475.48	456.40
475.66	421.30
475.84	393.21
476.02	386.19
476.20	425.98
476.38	404.91
476.56	414.27
476.74	421.30
476.92	362.78
477.10	376.83
477.28	442.36
477.46	404.91
477.64	440.02
477.82	433.00
478.00	414.27
478.18	407.25
478.36	433.00
478.54	435.34
478.72	362.78
478.90	468.11
479.08	425.98
479.26	376.83
479.44	372.15
479.62	411.93
479.80	395.55
479.98	411.93
480.16	365.12
480.34	505.56
480.52	358.10
480.70	444.70
480.88	444.70
481.06	383.85
481.24	372.15
481.41	374.49
481.59	435.34
481.77	409.59
481.95	451.72
482.13	421.30
482.31	418.96
482.49	435.34
482.67	409.59
482.85	440.02
483.03	351.08
483.21	409.59
483.39	395.55
483.57	400.23
483.74	369.80
483.92	411.93
484.10	409.59
484.28	421.30
484.46	461.09
484.64	393.21
484.82	433.00
485.00	404.91
485.18	411.93
485.35	440.02
485.53	400.23
485.71	454.06
485.89	425.98
486.07	367.46
486.25	374.49
486.43	414.27
486.61	409.59
486.78	409.59
486.96	430.66
487.14	402.57
487.32	372.15
487.50	454.06
487.68	472.79
487.85	341.72
488.03	442.36
488.21	421.30
488.39	423.64
488.57	376.83
488.75	358.10
488.92	491.51
489.10	372.15
489.28	369.80
489.46	409.59
489.64	404.91
489.81	409.59
489.99	421.30
490.17	418.96
490.35	414.27
490.53	348.74
490.70	409.59
490.88	407.25
491.06	407.25
491.24	348.74
491.41	444.70
491.59	442.36
491.77	397.89
491.95	402.57
492.13	353.42
492.30	404.91
492.48	489.17
492.66	449.38
492.84	461.09
493.01	381.51
493.19	416.62
493.37	433.00
493.54	414.27
493.72	423.64
493.90	358.10
494.08	383.85
494.25	447.04
494.43	507.90
494.61	414.27
494.79	383.85
494.96	390.87
495.14	435.34
495.32	458.74
495.49	425.98
495.67	423.64
495.85	435.34
496.02	355.76
496.20	395.55
496.38	496.19
496.55	376.83
496.73	440.02
496.91	397.89
497.09	435.34
497.26	395.55
497.44	395.55
497.62	416.62
497.79	388.53
497.97	456.40
498.14	369.80
498.32	407.25
498.50	416.62
498.67	390.87
498.85	433.00
499.03	409.59
499.20	449.38
499.38	390.87
499.56	447.04
499.73	428.32
499.91	365.12
500.08	470.45
500.26	397.89
500.44	416.62
500.61	402.57
500.79	423.64
500.97	500.87
501.14	428.32
501.32	346.40
501.49	444.70
501.67	430.66
501.84	463.43
502.02	425.98
502.20	444.70
502.37	442.36
502.55	395.55
502.72	379.17
502.90	433.00
503.07	440.02
503.25	416.62
503.43	449.38
503.60	400.23
503.78	463.43
503.95	425.98
504.13	470.45
504.30	353.42
504.48	468.11
504.65	416.62
504.83	451.72
505.01	414.27
505.18	379.17
505.36	423.64
505.53	365.12
505.71	374.49
505.88	400.23
506.06	425.98
506.23	423.64
506.41	374.49
506.58	454.06
506.76	435.34
506.93	435.34
507.11	404.91
507.28	428.32
507.46	472.79
507.63	423.64
507.81	411.93
507.98	393.21
508.16	458.74
508.33	489.17
508.50	479.81
508.68	369.80
508.85	444.70
509.03	409.59
509.20	393.21
509.38	386.19
509.55	418.96
509.73	414.27
509.90	440.02
510.08	425.98
510.25	428.32
510.42	390.87
510.60	423.64
510.77	447.04
510.95	454.06
511.12	360.44
511.30	442.36
511.47	456.40
511.64	425.98
511.82	418.96
511.99	425.98
512.17	400.23
512.34	451.72
512.51	400.23
512.69	400.23
512.86	442.36
513.04	461.09
513.21	421.30
513.38	397.89
513.56	458.74
513.73	425.98
513.90	379.17
514.08	365.12
514.25	397.89
514.43	348.74
514.60	346.40
514.77	386.19
514.95	395.55
515.12	386.19
515.29	397.89
515.47	451.72
515.64	463.43
515.81	423.64
515.99	346.40
516.16	402.57
516.33	409.59
516.51	388.53
516.68	404.91
516.85	362.78
517.03	388.53
517.20	404.91
517.37	402.57
517.54	454.06
517.72	430.66
517.89	409.59
518.06	437.68
518.24	554.71
518.41	381.51
518.58	435.34
518.75	440.02
518.93	407.25
519.10	458.74
519.27	372.15
519.45	369.80
519.62	409.59
519.79	416.62
519.96	407.25
520.14	449.38
520.31	433.00
520.48	369.80
520.65	395.55
520.83	430.66
521.00	386.19
521.17	447.04
521.34	423.64
521.52	444.70
521.69	362.78
521.86	411.93
522.03	451.72
522.20	440.02
522.38	416.62
522.55	376.83
522.72	428.32
522.89	491.51
523.07	465.77
523.24	386.19
523.41	388.53
523.58	416.62
523.75	440.02
523.92	425.98
524.10	433.00
524.27	500.87
524.44	442.36
524.61	397.89
524.78	428.32
524.96	400.23
525.13	484.49
525.30	461.09
525.47	493.85
525.64	423.64
525.81	407.25
525.98	449.38
526.16	463.43
526.33	430.66
526.50	444.70
526.67	414.27
526.84	411.93
527.01	418.96
527.18	440.02
527.36	407.25
527.53	437.68
527.70	393.21
527.87	365.12
528.04	395.55
528.21	416.62
528.38	503.22
528.55	482.15
528.72	514.92
528.89	500.87
529.07	421.30
529.24	395.55
529.41	458.74
529.58	470.45
529.75	404.91
529.92	423.64
530.09	411.93
530.26	423.64
530.43	360.44
530.60	449.38
530.77	409.59
530.94	411.93
531.11	444.70
531.28	421.30
531.46	463.43
531.63	458.74
531.80	421.30
531.97	449.38
532.14	411.93
532.31	451.72
532.48	472.79
532.65	425.98
532.82	362.78
532.99	442.36
533.16	435.34
533.33	472.79
533.50	449.38
533.67	386.19
533.84	416.62
534.01	416.62
534.18	463.43
534.35	428.32
534.52	470.45
534.69	376.83
534.86	374.49
535.03	444.70
535.20	367.46
535.37	435.34
535.54	454.06
535.71	402.57
535.88	519.60
536.05	458.74
536.22	433.00
536.38	344.06
536.55	379.17
536.72	393.21
536.89	374.49
537.06	369.80
537.23	339.38
537.40	404.91
537.57	344.06
537.74	447.04
537.91	404.91
538.08	400.23
538.25	421.30
538.42	454.06
538.59	306.61
538.75	451.72
538.92	433.00
539.09	449.38
539.26	433.00
539.43	423.64
539.60	425.98
539.77	430.66
539.94	440.02
540.11	498.53
540.28	358.10
540.44	379.17
540.61	414.27
540.78	351.08
540.95	395.55
541.12	365.12
541.29	332.36
541.46	409.59
541.62	447.04
541.79	437.68
541.96	421.30
542.13	407.25
542.30	409.59
542.47	416.62
542.63	463.43
542.80	404.91
542.97	451.72
543.14	379.17
543.31	458.74
543.48	421.30
543.64	395.55
543.81	402.57
543.98	393.21
544.15	416.62
544.32	404.91
544.48	339.38
544.65	440.02
544.82	390.87
544.99	393.21
545.16	381.51
545.32	376.83
545.49	416.62
545.66	456.40
545.83	411.93
546.00	409.59
546.16	414.27
546.33	404.91
546.50	418.96
546.67	437.68
546.83	369.80
547.00	393.21
547.17	320.65
547.34	444.70
547.50	409.59
547.67	351.08
547.84	388.53
548.00	386.19
548.17	421.30
548.34	433.00
548.51	484.49
548.67	418.96
548.84	444.70
549.01	418.96
549.18	367.46
549.34	348.74
549.51	421.30
549.68	456.40
549.84	470.45
550.01	362.78
550.18	411.93
550.34	479.81
550.51	451.72
550.68	465.77
550.84	390.87
551.01	367.46
551.18	414.27
551.34	454.06
551.51	454.06
551.68	407.25
551.84	409.59
552.01	444.70
552.18	395.55
552.34	383.85
552.51	470.45
552.68	376.83
552.84	421.30
553.01	442.36
553.18	374.49
553.34	379.17
553.51	362.78
553.67	423.64
553.84	458.74
554.01	435.34
554.17	386.19
554.34	383.85
554.51	409.59
554.67	386.19
554.84	430.66
555.00	479.81
555.17	376.83
555.33	449.38
555.50	418.96
555.67	479.81
555.83	423.64
556.00	393.21
556.16	489.17
556.33	447.04
556.50	449.38
556.66	379.17
556.83	456.40
556.99	411.93
557.16	442.36
557.32	465.77
557.49	437.68
557.65	395.55
557.82	430.66
557.98	418.96
558.15	425.98
558.32	430.66
558.48	444.70
558.65	428.32
558.81	421.30
558.98	449.38
559.14	437.68
559.31	397.89
559.47	423.64
559.64	416.62
559.80	442.36
559.97	442.36
560.13	491.51
560.30	456.40
560.46	416.62
560.63	374.49
560.79	386.19
560.96	433.00
561.12	358.10
561.29	454.06
561.45	360.44
561.61	425.98
561.78	444.70
561.94	414.27
562.11	444.70
562.27	365.12
562.44	458.74
562.60	416.62
562.77	451.72
562.93	470.45
563.10	456.40
563.26	409.59
563.42	402.57
563.59	428.32
563.75	416.62
563.92	442.36
564.08	421.30
564.24	442.36
564.41	486.83
564.57	395.55
564.74	402.57
564.90	369.80
565.07	456.40
565.23	372.15
565.39	425.98
565.56	421.30
565.72	451.72
565.88	468.11
566.05	386.19
566.21	393.21
566.38	400.23
566.54	484.49
566.70	386.19
566.87	461.09
567.03	411.93
567.19	407.25
567.36	465.77
567.52	414.27
567.68	430.66
567.85	390.87
568.01	369.80
568.17	341.72
568.34	468.11
568.50	440.02
568.66	442.36
568.83	461.09
568.99	404.91
569.15	456.40
569.32	374.49
569.48	505.56
569.64	472.79
569.81	425.98
569.97	402.57
570.13	435.34
570.30	353.42
570.46	381.51
570.62	416.62
570.78	407.25
570.95	402.57
571.11	395.55
571.27	367.46
571.43	425.98
571.60	449.38
571.76	416.62
571.92	423.64
572.09	372.15
572.25	353.42
572.41	475.13
572.57	355.76
572.74	461.09
572.90	468.11
573.06	421.30
573.22	493.85
573.38	435.34
573.55	381.51
573.71	411.93
573.87	418.96
574.03	402.57
574.20	430.66
574.36	430.66
574.52	390.87
574.68	372.15
574.84	517.26
575.01	442.36
575.17	437.68
575.33	447.04
575.49	489.17
575.65	369.80
575.82	433.00
575.98	458.74
576.14	449.38
576.30	383.85
576.46	430.66
576.62	449.38
576.79	447.04
576.95	510.24
577.11	430.66
577.27	407.25
577.43	458.74
577.59	437.68
577.75	308.95
577.92	425.98
578.08	390.87
578.24	423.64
578.40	397.89
578.56	440.02
578.72	430.66
578.88	421.30
579.04	414.27
579.21	442.36
579.37	489.17
579.53	454.06
579.69	465.77
579.85	435.34
580.01	416.62
580.17	475.13
580.33	430.66
580.49	470.45
580.65	440.02
580.82	442.36
580.98	395.55
581.14	404.91
581.30	433.00
581.46	437.68
581.62	442.36
581.78	383.85
581.94	428.32
582.10	344.06
582.26	442.36
582.42	388.53
582.58	496.19
582.74	414.27
582.90	461.09
583.06	451.72
583.22	383.85
583.38	442.36
583.54	397.89
583.70	440.02
583.86	411.93
584.02	381.51
584.18	402.57
584.34	442.36
584.50	388.53
584.66	386.19
584.82	484.49
584.98	444.70
585.14	435.34
585.30	456.40
585.46	437.68
585.62	442.36
585.78	400.23
585.94	404.91
586.10	440.02
586.26	428.32
586.42	430.66
586.58	449.38
586.74	365.12
586.90	381.51
587.06	442.36
587.22	444.70
587.38	383.85
587.54	393.21
587.70	454.06
587.86	402.57
588.02	479.81
588.18	458.74
588.34	407.25
588.49	386.19
588.65	390.87
588.81	376.83
588.97	440.02
589.13	337.04
589.29	411.93
589.45	418.96
589.61	433.00
589.77	425.98
589.93	430.66
590.08	456.40
590.24	320.65
590.40	397.89
590.56	468.11
590.72	425.98
590.88	355.76
591.04	337.04
591.20	344.06
591.35	472.79
591.51	425.98
591.67	425.98
591.83	332.36
591.99	456.40
592.15	388.53
592.31	468.11
592.46	414.27
592.62	465.77
592.78	437.68
592.94	402.57
593.10	383.85
593.26	437.68
593.41	479.81
593.57	442.36
593.73	400.23
593.89	423.64
594.05	388.53
594.20	376.83
594.36	430.66
594.52	395.55
594.68	430.66
594.84	440.02
594.99	465.77
595.15	444.70
595.31	435.34
595.47	482.15
595.62	404.91
595.78	468.11
595.94	421.30
596.10	491.51
596.25	433.00
596.41	421.30
596.57	456.40
596.73	402.57
596.88	409.59
597.04	418.96
597.20	418.96
597.36	423.64
597.51	374.49
597.67	404.91
597.83	418.96
597.99	390.87
598.14	400.23
598.30	451.72
598.46	374.49
598.61	465.77
598.77	395.55
598.93	430.66
599.09	400.23
599.24	414.27
599.40	395.55
599.56	299.59
599.71	423.64
599.87	388.53
600.03	475.13
600.18	409.59
600.34	414.27
600.50	376.83
600.65	388.53
600.81	414.27
600.97	498.53
601.12	421.30
601.28	397.89
601.44	414.27
601.59	451.72
601.75	461.09
601.91	482.15
602.06	465.77
602.22	498.53
602.37	388.53
602.53	372.15
602.69	421.30
602.84	355.76
603.00	418.96
603.16	409.59
603.31	521.94
603.47	463.43
603.62	437.68
603.78	409.59
603.94	395.55
604.09	400.23
604.25	430.66
604.40	454.06
604.56	339.38
604.71	351.08
604.87	440.02
605.03	379.17
605.18	435.34
605.34	418.96
605.49	416.62
605.65	433.00
605.80	386.19
605.96	461.09
606.12	461.09
606.27	444.70
606.43	423.64
606.58	423.64
606.74	418.96
606.89	451.72
607.05	339.38
607.20	388.53
607.36	372.15
607.51	400.23
607.67	407.25
607.82	442.36
607.98	461.09
608.13	423.64
608.29	472.79
608.44	411.93
608.60	428.32
608.75	524.28
608.91	414.27
609.06	393.21
609.22	440.02
609.37	404.91
609.53	379.17
609.68	416.62
609.84	456.40
609.99	461.09
610.15	386.19
