SpectraSuite Data File
++++++++++++++++++++++++++++++++++++
Date: Fri Oct 25 12:11:28 EDT 2013
User: price-jones
Dark Spectrum Present: No
Reference Spectrum Present: No
Number of Sampled Component Spectra: 1
Spectrometers: USB2+H05261
Integration Time (usec): 100000 (USB2+H05261)
Spectra Averaged: 1 (USB2+H05261)
Boxcar Smoothing: 0 (USB2+H05261)
Correct for Electrical Dark: No (USB2+H05261)
Strobe/Lamp Enabled: No (USB2+H05261)
Correct for Detector Non-linearity: No (USB2+H05261)
Correct for Stray Light: No (USB2+H05261)
Number of Pixels in Processed Spectrum: 2048
>>>>>Begin Processed Spectral Data<<<<<
365.73	376.83
365.92	376.83
366.12	376.83
366.32	180.22
366.52	243.42
366.72	220.01
366.91	231.71
367.11	245.76
367.31	208.31
367.51	227.03
367.70	241.08
367.90	238.73
368.10	234.05
368.30	241.08
368.49	238.73
368.69	266.82
368.89	299.59
369.09	255.12
369.28	290.23
369.48	227.03
369.68	294.91
369.87	257.46
370.07	351.08
370.27	409.59
370.47	369.80
370.66	355.76
370.86	353.42
371.06	306.61
371.25	358.10
371.45	416.62
371.65	339.38
371.84	418.96
372.04	437.68
372.24	437.68
372.44	437.68
372.63	381.51
372.83	475.13
373.03	451.72
373.22	442.36
373.42	458.74
373.62	376.83
373.81	425.98
374.01	362.78
374.21	435.34
374.40	435.34
374.60	388.53
374.79	433.00
374.99	451.72
375.19	463.43
375.38	430.66
375.58	440.02
375.78	428.32
375.97	428.32
376.17	418.96
376.37	386.19
376.56	433.00
376.76	365.12
376.95	433.00
377.15	404.91
377.35	369.80
377.54	322.99
377.74	299.59
377.93	355.76
378.13	437.68
378.33	327.68
378.52	482.15
378.72	449.38
378.91	411.93
379.11	411.93
379.31	442.36
379.50	358.10
379.70	388.53
379.89	418.96
380.09	404.91
380.28	444.70
380.48	374.49
380.68	402.57
380.87	353.42
381.07	395.55
381.26	383.85
381.46	458.74
381.65	418.96
381.85	447.04
382.04	341.72
382.24	393.21
382.43	290.23
382.63	383.85
382.83	369.80
383.02	407.25
383.22	402.57
383.41	351.08
383.61	372.15
383.80	447.04
384.00	397.89
384.19	318.31
384.39	395.55
384.58	395.55
384.78	404.91
384.97	402.57
385.17	465.77
385.36	425.98
385.56	407.25
385.75	409.59
385.95	374.49
386.14	428.32
386.34	484.49
386.53	397.89
386.72	409.59
386.92	423.64
387.11	341.72
387.31	433.00
387.50	393.21
387.70	411.93
387.89	397.89
388.09	433.00
388.28	374.49
388.48	379.17
388.67	456.40
388.86	433.00
389.06	449.38
389.25	425.98
389.45	444.70
389.64	379.17
389.84	402.57
390.03	428.32
390.22	372.15
390.42	437.68
390.61	374.49
390.81	425.98
391.00	311.29
391.19	421.30
391.39	407.25
391.58	379.17
391.78	376.83
391.97	372.15
392.16	411.93
392.36	418.96
392.55	402.57
392.75	411.93
392.94	353.42
393.13	418.96
393.33	367.46
393.52	381.51
393.71	421.30
393.91	437.68
394.10	383.85
394.29	444.70
394.49	374.49
394.68	353.42
394.88	456.40
395.07	454.06
395.26	386.19
395.46	400.23
395.65	428.32
395.84	409.59
396.04	489.17
396.23	454.06
396.42	341.72
396.62	388.53
396.81	430.66
397.00	383.85
397.19	367.46
397.39	379.17
397.58	437.68
397.77	397.89
397.97	416.62
398.16	404.91
398.35	376.83
398.55	430.66
398.74	376.83
398.93	348.74
399.12	358.10
399.32	390.87
399.51	435.34
399.70	440.02
399.90	440.02
400.09	416.62
400.28	381.51
400.47	442.36
400.67	425.98
400.86	395.55
401.05	444.70
401.24	430.66
401.44	369.80
401.63	451.72
401.82	402.57
402.01	407.25
402.21	397.89
402.40	395.55
402.59	440.02
402.78	353.42
402.97	348.74
403.17	440.02
403.36	437.68
403.55	421.30
403.74	437.68
403.93	463.43
404.13	421.30
404.32	456.40
404.51	381.51
404.70	395.55
404.89	472.79
405.09	435.34
405.28	358.10
405.47	381.51
405.66	449.38
405.85	421.30
406.05	397.89
406.24	376.83
406.43	409.59
406.62	386.19
406.81	369.80
407.00	395.55
407.20	447.04
407.39	358.10
407.58	449.38
407.77	348.74
407.96	423.64
408.15	351.08
408.34	463.43
408.54	428.32
408.73	458.74
408.92	322.99
409.11	397.89
409.30	449.38
409.49	428.32
409.68	428.32
409.87	388.53
410.07	379.17
410.26	451.72
410.45	449.38
410.64	390.87
410.83	444.70
411.02	418.96
411.21	475.13
411.40	374.49
411.59	421.30
411.78	409.59
411.98	479.81
412.17	374.49
412.36	435.34
412.55	425.98
412.74	369.80
412.93	440.02
413.12	397.89
413.31	414.27
413.50	435.34
413.69	423.64
413.88	425.98
414.07	390.87
414.26	404.91
414.45	404.91
414.64	437.68
414.83	418.96
415.02	454.06
415.22	407.25
415.41	372.15
415.60	362.78
415.79	468.11
415.98	454.06
416.17	433.00
416.36	435.34
416.55	386.19
416.74	404.91
416.93	409.59
417.12	428.32
417.31	355.76
417.50	449.38
417.69	507.90
417.88	430.66
418.07	346.40
418.26	437.68
418.45	360.44
418.64	414.27
418.83	421.30
419.02	428.32
419.21	390.87
419.39	463.43
419.58	360.44
419.77	395.55
419.96	449.38
420.15	440.02
420.34	421.30
420.53	393.21
420.72	451.72
420.91	414.27
421.10	407.25
421.29	421.30
421.48	449.38
421.67	437.68
421.86	440.02
422.05	428.32
422.24	484.49
422.43	393.21
422.61	456.40
422.80	414.27
422.99	407.25
423.18	400.23
423.37	400.23
423.56	379.17
423.75	414.27
423.94	397.89
424.13	435.34
424.32	367.46
424.50	470.45
424.69	479.81
424.88	421.30
425.07	402.57
425.26	470.45
425.45	430.66
425.64	362.78
425.83	397.89
426.01	435.34
426.20	397.89
426.39	442.36
426.58	486.83
426.77	414.27
426.96	442.36
427.15	407.25
427.33	402.57
427.52	404.91
427.71	376.83
427.90	444.70
428.09	454.06
428.28	367.46
428.46	458.74
428.65	397.89
428.84	402.57
429.03	447.04
429.22	458.74
429.40	365.12
429.59	344.06
429.78	360.44
429.97	423.64
430.16	468.11
430.34	374.49
430.53	395.55
430.72	416.62
430.91	435.34
431.10	400.23
431.28	369.80
431.47	397.89
431.66	353.42
431.85	430.66
432.03	491.51
432.22	440.02
432.41	383.85
432.60	376.83
432.79	327.68
432.97	404.91
433.16	381.51
433.35	411.93
433.54	395.55
433.72	367.46
433.91	393.21
434.10	430.66
434.28	409.59
434.47	395.55
434.66	416.62
434.85	404.91
435.03	470.45
435.22	503.22
435.41	442.36
435.59	404.91
435.78	447.04
435.97	393.21
436.16	421.30
436.34	348.74
436.53	395.55
436.72	381.51
436.90	442.36
437.09	444.70
437.28	475.13
437.46	444.70
437.65	388.53
437.84	444.70
438.02	393.21
438.21	397.89
438.40	411.93
438.58	353.42
438.77	444.70
438.96	425.98
439.14	425.98
439.33	461.09
439.52	440.02
439.70	421.30
439.89	414.27
440.08	451.72
440.26	379.17
440.45	395.55
440.63	400.23
440.82	404.91
441.01	397.89
441.19	369.80
441.38	395.55
441.57	433.00
441.75	468.11
441.94	454.06
442.12	491.51
442.31	418.96
442.50	416.62
442.68	402.57
442.87	400.23
443.05	421.30
443.24	407.25
443.43	409.59
443.61	465.77
443.80	411.93
443.98	421.30
444.17	374.49
444.35	442.36
444.54	407.25
444.73	454.06
444.91	440.02
445.10	428.32
445.28	428.32
445.47	472.79
445.65	423.64
445.84	360.44
446.02	374.49
446.21	372.15
446.39	461.09
446.58	327.68
446.77	299.59
446.95	379.17
447.14	411.93
447.32	428.32
447.51	390.87
447.69	491.51
447.88	454.06
448.06	500.87
448.25	440.02
448.43	402.57
448.62	362.78
448.80	423.64
448.99	454.06
449.17	344.06
449.36	369.80
449.54	435.34
449.73	435.34
449.91	379.17
450.10	372.15
450.28	430.66
450.46	500.87
450.65	442.36
450.83	379.17
451.02	381.51
451.20	449.38
451.39	407.25
451.57	301.93
451.76	451.72
451.94	456.40
452.13	482.15
452.31	365.12
452.49	390.87
452.68	470.45
452.86	510.24
453.05	381.51
453.23	351.08
453.42	376.83
453.60	369.80
453.78	416.62
453.97	425.98
454.15	346.40
454.34	404.91
454.52	369.80
454.70	379.17
454.89	414.27
455.07	360.44
455.26	416.62
455.44	437.68
455.62	400.23
455.81	374.49
455.99	411.93
456.17	458.74
456.36	433.00
456.54	414.27
456.73	461.09
456.91	411.93
457.09	454.06
457.28	421.30
457.46	470.45
457.64	470.45
457.83	444.70
458.01	400.23
458.19	400.23
458.38	521.94
458.56	444.70
458.74	425.98
458.93	435.34
459.11	409.59
459.29	355.76
459.48	510.24
459.66	470.45
459.84	449.38
460.03	454.06
460.21	533.64
460.39	454.06
460.57	479.81
460.76	381.51
460.94	397.89
461.12	503.22
461.31	395.55
461.49	428.32
461.67	358.10
461.85	369.80
462.04	407.25
462.22	770.04
462.40	400.23
462.59	435.34
462.77	423.64
462.95	475.13
463.13	433.00
463.32	461.09
463.50	484.49
463.68	442.36
463.86	402.57
464.05	395.55
464.23	433.00
464.41	393.21
464.59	409.59
464.78	461.09
464.96	416.62
465.14	440.02
465.32	334.70
465.50	416.62
465.69	402.57
465.87	411.93
466.05	454.06
466.23	435.34
466.41	360.44
466.60	400.23
466.78	449.38
466.96	418.96
467.14	425.98
467.32	463.43
467.51	444.70
467.69	458.74
467.87	435.34
468.05	444.70
468.23	447.04
468.41	470.45
468.60	388.53
468.78	484.49
468.96	486.83
469.14	475.13
469.32	337.04
469.50	442.36
469.69	447.04
469.87	482.15
470.05	388.53
470.23	449.38
470.41	390.87
470.59	341.72
470.77	386.19
470.95	475.13
471.14	468.11
471.32	451.72
471.50	369.80
471.68	418.96
471.86	433.00
472.04	344.06
472.22	435.34
472.40	454.06
472.58	451.72
472.77	383.85
472.95	414.27
473.13	421.30
473.31	397.89
473.49	390.87
473.67	351.08
473.85	433.00
474.03	489.17
474.21	428.32
474.39	402.57
474.57	411.93
474.75	435.34
474.93	425.98
475.12	390.87
475.30	416.62
475.48	418.96
475.66	404.91
475.84	456.40
476.02	397.89
476.20	461.09
476.38	543.00
476.56	535.98
476.74	369.80
476.92	395.55
477.10	407.25
477.28	449.38
477.46	425.98
477.64	414.27
477.82	376.83
478.00	383.85
478.18	416.62
478.36	397.89
478.54	379.17
478.72	379.17
478.90	397.89
479.08	430.66
479.26	416.62
479.44	390.87
479.62	442.36
479.80	416.62
479.98	465.77
480.16	400.23
480.34	395.55
480.52	404.91
480.70	454.06
480.88	393.21
481.06	430.66
481.24	500.87
481.41	461.09
481.59	416.62
481.77	351.08
481.95	411.93
482.13	379.17
482.31	437.68
482.49	409.59
482.67	402.57
482.85	402.57
483.03	397.89
483.21	404.91
483.39	365.12
483.57	526.62
483.74	477.47
483.92	386.19
484.10	428.32
484.28	416.62
484.46	425.98
484.64	458.74
484.82	411.93
485.00	447.04
485.18	407.25
485.35	465.77
485.53	404.91
485.71	493.85
485.89	418.96
486.07	440.02
486.25	437.68
486.43	447.04
486.61	484.49
486.78	489.17
486.96	444.70
487.14	430.66
487.32	388.53
487.50	409.59
487.68	416.62
487.85	393.21
488.03	444.70
488.21	404.91
488.39	362.78
488.57	430.66
488.75	397.89
488.92	491.51
489.10	458.74
489.28	517.26
489.46	407.25
489.64	505.56
489.81	430.66
489.99	383.85
490.17	428.32
490.35	458.74
490.53	461.09
490.70	381.51
490.88	402.57
491.06	423.64
491.24	477.47
491.41	425.98
491.59	461.09
491.77	379.17
491.95	395.55
492.13	425.98
492.30	440.02
492.48	397.89
492.66	344.06
492.84	430.66
493.01	472.79
493.19	388.53
493.37	442.36
493.54	423.64
493.72	463.43
493.90	421.30
494.08	430.66
494.25	416.62
494.43	449.38
494.61	423.64
494.79	400.23
494.96	397.89
495.14	496.19
495.32	425.98
495.49	428.32
495.67	355.76
495.85	400.23
496.02	400.23
496.20	482.15
496.38	468.11
496.55	472.79
496.73	500.87
496.91	365.12
497.09	365.12
497.26	425.98
497.44	447.04
497.62	447.04
497.79	397.89
497.97	390.87
498.14	404.91
498.32	374.49
498.50	395.55
498.67	416.62
498.85	376.83
499.03	369.80
499.20	376.83
499.38	461.09
499.56	491.51
499.73	414.27
499.91	397.89
500.08	402.57
500.26	402.57
500.44	465.77
500.61	440.02
500.79	411.93
500.97	430.66
501.14	435.34
501.32	468.11
501.49	454.06
501.67	433.00
501.84	418.96
502.02	402.57
502.20	393.21
502.37	421.30
502.55	449.38
502.72	456.40
502.90	465.77
503.07	451.72
503.25	416.62
503.43	433.00
503.60	376.83
503.78	423.64
503.95	388.53
504.13	393.21
504.30	465.77
504.48	470.45
504.65	404.91
504.83	449.38
505.01	379.17
505.18	477.47
505.36	414.27
505.53	425.98
505.71	390.87
505.88	444.70
506.06	348.74
506.23	372.15
506.41	386.19
506.58	407.25
506.76	421.30
506.93	447.04
507.11	449.38
507.28	395.55
507.46	330.02
507.63	423.64
507.81	386.19
507.98	407.25
508.16	433.00
508.33	386.19
508.50	425.98
508.68	404.91
508.85	440.02
509.03	411.93
509.20	407.25
509.38	444.70
509.55	463.43
509.73	465.77
509.90	409.59
510.08	496.19
510.25	477.47
510.42	362.78
510.60	395.55
510.77	435.34
510.95	404.91
511.12	341.72
511.30	465.77
511.47	416.62
511.64	423.64
511.82	400.23
511.99	397.89
512.17	416.62
512.34	409.59
512.51	404.91
512.69	379.17
512.86	428.32
513.04	383.85
513.21	355.76
513.38	379.17
513.56	400.23
513.73	456.40
513.90	404.91
514.08	379.17
514.25	404.91
514.43	470.45
514.60	416.62
514.77	437.68
514.95	421.30
515.12	411.93
515.29	451.72
515.47	400.23
515.64	496.19
515.81	353.42
515.99	449.38
516.16	475.13
516.33	393.21
516.51	358.10
516.68	421.30
516.85	393.21
517.03	367.46
517.20	428.32
517.37	397.89
517.54	388.53
517.72	395.55
517.89	418.96
518.06	451.72
518.24	486.83
518.41	461.09
518.58	447.04
518.75	402.57
518.93	428.32
519.10	423.64
519.27	339.38
519.45	463.43
519.62	428.32
519.79	454.06
519.96	425.98
520.14	351.08
520.31	437.68
520.48	395.55
520.65	374.49
520.83	425.98
521.00	414.27
521.17	416.62
521.34	411.93
521.52	414.27
521.69	435.34
521.86	400.23
522.03	477.47
522.20	472.79
522.38	416.62
522.55	440.02
522.72	400.23
522.89	404.91
523.07	421.30
523.24	393.21
523.41	435.34
523.58	379.17
523.75	400.23
523.92	388.53
524.10	409.59
524.27	402.57
524.44	411.93
524.61	433.00
524.78	397.89
524.96	411.93
525.13	374.49
525.30	440.02
525.47	440.02
525.64	449.38
525.81	393.21
525.98	423.64
526.16	489.17
526.33	442.36
526.50	418.96
526.67	344.06
526.84	411.93
527.01	463.43
527.18	411.93
527.36	440.02
527.53	414.27
527.70	414.27
527.87	381.51
528.04	411.93
528.21	409.59
528.38	414.27
528.55	465.77
528.72	444.70
528.89	477.47
529.07	456.40
529.24	386.19
529.41	409.59
529.58	355.76
529.75	418.96
529.92	475.13
530.09	411.93
530.26	456.40
530.43	402.57
530.60	390.87
530.77	351.08
530.94	435.34
531.11	437.68
531.28	430.66
531.46	451.72
531.63	320.65
531.80	383.85
531.97	437.68
532.14	482.15
532.31	390.87
532.48	423.64
532.65	369.80
532.82	367.46
532.99	400.23
533.16	351.08
533.33	423.64
533.50	404.91
533.67	463.43
533.84	418.96
534.01	418.96
534.18	444.70
534.35	400.23
534.52	409.59
534.69	482.15
534.86	376.83
535.03	397.89
535.20	447.04
535.37	461.09
535.54	411.93
535.71	470.45
535.88	512.58
536.05	372.15
536.22	451.72
536.38	362.78
536.55	449.38
536.72	444.70
536.89	348.74
537.06	458.74
537.23	358.10
537.40	428.32
537.57	442.36
537.74	458.74
537.91	430.66
538.08	400.23
538.25	454.06
538.42	414.27
538.59	388.53
538.75	393.21
538.92	311.29
539.09	444.70
539.26	351.08
539.43	386.19
539.60	451.72
539.77	468.11
539.94	430.66
540.11	418.96
540.28	503.22
540.44	425.98
540.61	482.15
540.78	402.57
540.95	395.55
541.12	353.42
541.29	470.45
541.46	402.57
541.62	444.70
541.79	418.96
541.96	383.85
542.13	461.09
542.30	409.59
542.47	519.60
542.63	393.21
542.80	498.53
542.97	458.74
543.14	414.27
543.31	454.06
543.48	386.19
543.64	381.51
543.81	416.62
543.98	407.25
544.15	301.93
544.32	428.32
544.48	334.70
544.65	390.87
544.82	468.11
544.99	428.32
545.16	493.85
545.32	346.40
545.49	383.85
545.66	376.83
545.83	428.32
546.00	425.98
546.16	388.53
546.33	383.85
546.50	404.91
546.67	440.02
546.83	440.02
547.00	484.49
547.17	418.96
547.34	383.85
547.50	376.83
547.67	451.72
547.84	397.89
548.00	437.68
548.17	435.34
548.34	411.93
548.51	507.90
548.67	423.64
548.84	449.38
549.01	414.27
549.18	404.91
549.34	386.19
549.51	437.68
549.68	416.62
549.84	397.89
550.01	388.53
550.18	468.11
550.34	472.79
550.51	421.30
550.68	451.72
550.84	442.36
551.01	442.36
551.18	404.91
551.34	404.91
551.51	404.91
551.68	433.00
551.84	418.96
552.01	411.93
552.18	383.85
552.34	472.79
552.51	524.28
552.68	437.68
552.84	407.25
553.01	400.23
553.18	454.06
553.34	367.46
553.51	437.68
553.67	416.62
553.84	461.09
554.01	442.36
554.17	402.57
554.34	407.25
554.51	411.93
554.67	454.06
554.84	416.62
555.00	397.89
555.17	468.11
555.33	425.98
555.50	425.98
555.67	435.34
555.83	404.91
556.00	433.00
556.16	519.60
556.33	451.72
556.50	376.83
556.66	390.87
556.83	379.17
556.99	475.13
557.16	433.00
557.32	402.57
557.49	365.12
557.65	442.36
557.82	409.59
557.98	402.57
558.15	421.30
558.32	512.58
558.48	421.30
558.65	428.32
558.81	416.62
558.98	435.34
559.14	397.89
559.31	437.68
559.47	456.40
559.64	418.96
559.80	440.02
559.97	386.19
560.13	465.77
560.30	409.59
560.46	390.87
560.63	374.49
560.79	454.06
560.96	430.66
561.12	435.34
561.29	409.59
561.45	376.83
561.61	428.32
561.78	479.81
561.94	372.15
562.11	390.87
562.27	421.30
562.44	346.40
562.60	360.44
562.77	411.93
562.93	470.45
563.10	386.19
563.26	379.17
563.42	365.12
563.59	444.70
563.75	362.78
563.92	428.32
564.08	416.62
564.24	421.30
564.41	414.27
564.57	449.38
564.74	388.53
564.90	440.02
565.07	505.56
565.23	421.30
565.39	402.57
565.56	376.83
565.72	404.91
565.88	454.06
566.05	430.66
566.21	463.43
566.38	498.53
566.54	437.68
566.70	402.57
566.87	498.53
567.03	395.55
567.19	369.80
567.36	358.10
567.52	433.00
567.68	374.49
567.85	425.98
568.01	437.68
568.17	369.80
568.34	388.53
568.50	447.04
568.66	397.89
568.83	444.70
568.99	404.91
569.15	418.96
569.32	421.30
569.48	388.53
569.64	451.72
569.81	348.74
569.97	458.74
570.13	430.66
570.30	393.21
570.46	461.09
570.62	404.91
570.78	407.25
570.95	367.46
571.11	421.30
571.27	493.85
571.43	433.00
571.60	442.36
571.76	416.62
571.92	458.74
572.09	465.77
572.25	348.74
572.41	322.99
572.57	362.78
572.74	397.89
572.90	425.98
573.06	386.19
573.22	409.59
573.38	430.66
573.55	437.68
573.71	404.91
573.87	358.10
574.03	353.42
574.20	477.47
574.36	409.59
574.52	437.68
574.68	461.09
574.84	327.68
575.01	393.21
575.17	418.96
575.33	407.25
575.49	425.98
575.65	440.02
575.82	451.72
575.98	454.06
576.14	397.89
576.30	372.15
576.46	435.34
576.62	437.68
576.79	414.27
576.95	454.06
577.11	400.23
577.27	435.34
577.43	402.57
577.59	456.40
577.75	472.79
577.92	423.64
578.08	416.62
578.24	355.76
578.40	367.46
578.56	482.15
578.72	451.72
578.88	421.30
579.04	358.10
579.21	470.45
579.37	465.77
579.53	421.30
579.69	477.47
579.85	468.11
580.01	421.30
580.17	351.08
580.33	407.25
580.49	423.64
580.65	390.87
580.82	388.53
580.98	435.34
581.14	414.27
581.30	437.68
581.46	437.68
581.62	526.62
581.78	367.46
581.94	475.13
582.10	381.51
582.26	428.32
582.42	374.49
582.58	400.23
582.74	458.74
582.90	407.25
583.06	425.98
583.22	360.44
583.38	344.06
583.54	418.96
583.70	418.96
583.86	376.83
584.02	430.66
584.18	358.10
584.34	416.62
584.50	451.72
584.66	397.89
584.82	425.98
584.98	425.98
585.14	353.42
585.30	442.36
585.46	463.43
585.62	458.74
585.78	379.17
585.94	454.06
586.10	397.89
586.26	425.98
586.42	414.27
586.58	400.23
586.74	421.30
586.90	360.44
587.06	418.96
587.22	400.23
587.38	468.11
587.54	315.97
587.70	416.62
587.86	383.85
588.02	322.99
588.18	444.70
588.34	442.36
588.49	402.57
588.65	477.47
588.81	388.53
588.97	430.66
589.13	369.80
589.29	390.87
589.45	454.06
589.61	404.91
589.77	491.51
589.93	435.34
590.08	402.57
590.24	372.15
590.40	418.96
590.56	458.74
590.72	397.89
590.88	365.12
591.04	416.62
591.20	376.83
591.35	461.09
591.51	430.66
591.67	437.68
591.83	430.66
591.99	423.64
592.15	416.62
592.31	418.96
592.46	493.85
592.62	393.21
592.78	428.32
592.94	386.19
593.10	428.32
593.26	409.59
593.41	472.79
593.57	430.66
593.73	423.64
593.89	512.58
594.05	395.55
594.20	404.91
594.36	430.66
594.52	414.27
594.68	318.31
594.84	449.38
594.99	447.04
595.15	386.19
595.31	430.66
595.47	468.11
595.62	374.49
595.78	393.21
595.94	402.57
596.10	428.32
596.25	404.91
596.41	449.38
596.57	285.55
596.73	348.74
596.88	437.68
597.04	418.96
597.20	397.89
597.36	402.57
597.51	411.93
597.67	397.89
597.83	390.87
597.99	437.68
598.14	461.09
598.30	496.19
598.46	416.62
598.61	416.62
598.77	447.04
598.93	465.77
599.09	468.11
599.24	393.21
599.40	425.98
599.56	444.70
599.71	407.25
599.87	414.27
600.03	510.24
600.18	486.83
600.34	463.43
600.50	430.66
600.65	404.91
600.81	433.00
600.97	433.00
601.12	393.21
601.28	425.98
601.44	447.04
601.59	397.89
601.75	414.27
601.91	332.36
602.06	447.04
602.22	411.93
602.37	400.23
602.53	355.76
602.69	449.38
602.84	390.87
603.00	407.25
603.16	423.64
603.31	400.23
603.47	463.43
603.62	372.15
603.78	465.77
603.94	491.51
604.09	425.98
604.25	461.09
604.40	423.64
604.56	381.51
604.71	369.80
604.87	407.25
605.03	433.00
605.18	470.45
605.34	437.68
605.49	318.31
605.65	414.27
605.80	393.21
605.96	425.98
606.12	428.32
606.27	454.06
606.43	463.43
606.58	383.85
606.74	477.47
606.89	444.70
607.05	463.43
607.20	514.92
607.36	409.59
607.51	421.30
607.67	353.42
607.82	454.06
607.98	435.34
608.13	430.66
608.29	425.98
608.44	409.59
608.60	430.66
608.75	421.30
608.91	390.87
609.06	463.43
609.22	470.45
609.37	308.95
609.53	348.74
609.68	369.80
609.84	428.32
609.99	409.59
610.15	351.08
