SpectraSuite Data File
++++++++++++++++++++++++++++++++++++
Date: Fri Oct 25 12:10:36 EDT 2013
User: price-jones
Dark Spectrum Present: No
Reference Spectrum Present: No
Number of Sampled Component Spectra: 1
Spectrometers: USB2+H05261
Integration Time (usec): 100000 (USB2+H05261)
Spectra Averaged: 1 (USB2+H05261)
Boxcar Smoothing: 0 (USB2+H05261)
Correct for Electrical Dark: No (USB2+H05261)
Strobe/Lamp Enabled: No (USB2+H05261)
Correct for Detector Non-linearity: No (USB2+H05261)
Correct for Stray Light: No (USB2+H05261)
Number of Pixels in Processed Spectrum: 2048
>>>>>Begin Processed Spectral Data<<<<<
365.73	402.57
365.92	402.57
366.12	402.57
366.32	290.23
366.52	287.89
366.72	234.05
366.91	194.26
367.11	236.39
367.31	241.08
367.51	182.56
367.70	227.03
367.90	245.76
368.10	278.52
368.30	191.92
368.49	203.63
368.69	266.82
368.89	154.48
369.09	222.35
369.28	224.69
369.48	245.76
369.68	308.95
369.87	337.04
370.07	283.20
370.27	322.99
370.47	313.63
370.66	337.04
370.86	327.68
371.06	404.91
371.25	362.78
371.45	383.85
371.65	402.57
371.84	416.62
372.04	367.46
372.24	332.36
372.44	395.55
372.63	433.00
372.83	393.21
373.03	425.98
373.22	414.27
373.42	395.55
373.62	451.72
373.81	381.51
374.01	440.02
374.21	486.83
374.40	348.74
374.60	437.68
374.79	407.25
374.99	428.32
375.19	360.44
375.38	430.66
375.58	402.57
375.78	442.36
375.97	458.74
376.17	337.04
376.37	425.98
376.56	425.98
376.76	435.34
376.95	435.34
377.15	423.64
377.35	421.30
377.54	397.89
377.74	308.95
377.93	451.72
378.13	407.25
378.33	425.98
378.52	353.42
378.72	409.59
378.91	393.21
379.11	374.49
379.31	416.62
379.50	372.15
379.70	454.06
379.89	463.43
380.09	400.23
380.28	444.70
380.48	507.90
380.68	435.34
380.87	414.27
381.07	390.87
381.26	423.64
381.46	388.53
381.65	404.91
381.85	425.98
382.04	397.89
382.24	512.58
382.43	369.80
382.63	451.72
382.83	379.17
383.02	379.17
383.22	390.87
383.41	407.25
383.61	447.04
383.80	423.64
384.00	393.21
384.19	444.70
384.39	433.00
384.58	449.38
384.78	390.87
384.97	444.70
385.17	425.98
385.36	414.27
385.56	418.96
385.75	346.40
385.95	383.85
386.14	425.98
386.34	421.30
386.53	374.49
386.72	395.55
386.92	433.00
387.11	430.66
387.31	381.51
387.50	374.49
387.70	358.10
387.89	447.04
388.09	381.51
388.28	400.23
388.48	425.98
388.67	414.27
388.86	369.80
389.06	430.66
389.25	386.19
389.45	379.17
389.64	404.91
389.84	447.04
390.03	451.72
390.22	428.32
390.42	428.32
390.61	428.32
390.81	470.45
391.00	409.59
391.19	397.89
391.39	367.46
391.58	386.19
391.78	400.23
391.97	397.89
392.16	411.93
392.36	423.64
392.55	449.38
392.75	414.27
392.94	411.93
393.13	428.32
393.33	383.85
393.52	435.34
393.71	362.78
393.91	428.32
394.10	372.15
394.29	386.19
394.49	390.87
394.68	482.15
394.88	433.00
395.07	435.34
395.26	442.36
395.46	393.21
395.65	503.22
395.84	423.64
396.04	477.47
396.23	440.02
396.42	344.06
396.62	416.62
396.81	447.04
397.00	351.08
397.19	411.93
397.39	400.23
397.58	458.74
397.77	341.72
397.97	411.93
398.16	362.78
398.35	423.64
398.55	414.27
398.74	369.80
398.93	411.93
399.12	388.53
399.32	383.85
399.51	372.15
399.70	456.40
399.90	449.38
400.09	433.00
400.28	475.13
400.47	458.74
400.67	425.98
400.86	416.62
401.05	407.25
401.24	409.59
401.44	365.12
401.63	372.15
401.82	404.91
402.01	421.30
402.21	418.96
402.40	393.21
402.59	430.66
402.78	393.21
402.97	451.72
403.17	447.04
403.36	362.78
403.55	313.63
403.74	510.24
403.93	351.08
404.13	526.62
404.32	402.57
404.51	444.70
404.70	449.38
404.89	411.93
405.09	461.09
405.28	423.64
405.47	418.96
405.66	325.33
405.85	421.30
406.05	430.66
406.24	440.02
406.43	416.62
406.62	379.17
406.81	423.64
407.00	468.11
407.20	400.23
407.39	369.80
407.58	337.04
407.77	383.85
407.96	418.96
408.15	411.93
408.34	374.49
408.54	437.68
408.73	454.06
408.92	425.98
409.11	444.70
409.30	465.77
409.49	325.33
409.68	463.43
409.87	358.10
410.07	421.30
410.26	372.15
410.45	390.87
410.64	386.19
410.83	372.15
411.02	355.76
411.21	386.19
411.40	463.43
411.59	430.66
411.78	404.91
411.98	367.46
412.17	416.62
412.36	346.40
412.55	400.23
412.74	400.23
412.93	430.66
413.12	428.32
413.31	341.72
413.50	435.34
413.69	411.93
413.88	435.34
414.07	404.91
414.26	390.87
414.45	367.46
414.64	421.30
414.83	383.85
415.02	456.40
415.22	461.09
415.41	355.76
415.60	400.23
415.79	360.44
415.98	416.62
416.17	365.12
416.36	374.49
416.55	388.53
416.74	411.93
416.93	386.19
417.12	369.80
417.31	404.91
417.50	425.98
417.69	395.55
417.88	444.70
418.07	425.98
418.26	468.11
418.45	425.98
418.64	421.30
418.83	372.15
419.02	395.55
419.21	425.98
419.39	402.57
419.58	376.83
419.77	400.23
419.96	430.66
420.15	421.30
420.34	386.19
420.53	388.53
420.72	404.91
420.91	388.53
421.10	404.91
421.29	358.10
421.48	411.93
421.67	454.06
421.86	409.59
422.05	425.98
422.24	402.57
422.43	425.98
422.61	383.85
422.80	416.62
422.99	369.80
423.18	440.02
423.37	416.62
423.56	418.96
423.75	369.80
423.94	416.62
424.13	402.57
424.32	472.79
424.50	484.49
424.69	383.85
424.88	388.53
425.07	374.49
425.26	433.00
425.45	414.27
425.64	388.53
425.83	425.98
426.01	374.49
426.20	407.25
426.39	411.93
426.58	444.70
426.77	491.51
426.96	339.38
427.15	451.72
427.33	409.59
427.52	407.25
427.71	425.98
427.90	383.85
428.09	421.30
428.28	409.59
428.46	428.32
428.65	409.59
428.84	407.25
429.03	447.04
429.22	355.76
429.40	440.02
429.59	386.19
429.78	444.70
429.97	440.02
430.16	444.70
430.34	416.62
430.53	418.96
430.72	449.38
430.91	372.15
431.10	388.53
431.28	409.59
431.47	416.62
431.66	409.59
431.85	444.70
432.03	447.04
432.22	451.72
432.41	397.89
432.60	454.06
432.79	409.59
432.97	379.17
433.16	381.51
433.35	472.79
433.54	390.87
433.72	425.98
433.91	425.98
434.10	458.74
434.28	381.51
434.47	411.93
434.66	383.85
434.85	475.13
435.03	440.02
435.22	507.90
435.41	437.68
435.59	376.83
435.78	470.45
435.97	397.89
436.16	463.43
436.34	381.51
436.53	404.91
436.72	454.06
436.90	397.89
437.09	454.06
437.28	416.62
437.46	414.27
437.65	437.68
437.84	421.30
438.02	449.38
438.21	397.89
438.40	325.33
438.58	372.15
438.77	428.32
438.96	383.85
439.14	390.87
439.33	397.89
439.52	376.83
439.70	440.02
439.89	297.25
440.08	414.27
440.26	447.04
440.45	397.89
440.63	397.89
440.82	409.59
441.01	414.27
441.19	404.91
441.38	440.02
441.57	498.53
441.75	395.55
441.94	416.62
442.12	395.55
442.31	390.87
442.50	355.76
442.68	393.21
442.87	482.15
443.05	379.17
443.24	407.25
443.43	397.89
443.61	470.45
443.80	437.68
443.98	414.27
444.17	397.89
444.35	500.87
444.54	407.25
444.73	428.32
444.91	425.98
445.10	440.02
445.28	376.83
445.47	430.66
445.65	493.85
445.84	425.98
446.02	465.77
446.21	355.76
446.39	397.89
446.58	386.19
446.77	421.30
446.95	404.91
447.14	470.45
447.32	397.89
447.51	440.02
447.69	414.27
447.88	470.45
448.06	454.06
448.25	388.53
448.43	433.00
448.62	367.46
448.80	421.30
448.99	430.66
449.17	383.85
449.36	402.57
449.54	454.06
449.73	451.72
449.91	414.27
450.10	390.87
450.28	447.04
450.46	390.87
450.65	433.00
450.83	393.21
451.02	367.46
451.20	367.46
451.39	423.64
451.57	388.53
451.76	418.96
451.94	444.70
452.13	428.32
452.31	477.47
452.49	388.53
452.68	341.72
452.86	383.85
453.05	365.12
453.23	404.91
453.42	365.12
453.60	379.17
453.78	374.49
453.97	379.17
454.15	447.04
454.34	447.04
454.52	404.91
454.70	414.27
454.89	372.15
455.07	397.89
455.26	400.23
455.44	393.21
455.62	386.19
455.81	414.27
455.99	393.21
456.17	470.45
456.36	402.57
456.54	365.12
456.73	376.83
456.91	437.68
457.09	425.98
457.28	379.17
457.46	435.34
457.64	383.85
457.83	411.93
458.01	440.02
458.19	404.91
458.38	379.17
458.56	395.55
458.74	430.66
458.93	528.96
459.11	393.21
459.29	440.02
459.48	440.02
459.66	374.49
459.84	414.27
460.03	496.19
460.21	472.79
460.39	409.59
460.57	470.45
460.76	442.36
460.94	437.68
461.12	456.40
461.31	465.77
461.49	409.59
461.67	500.87
461.85	425.98
462.04	395.55
462.22	758.33
462.40	390.87
462.59	418.96
462.77	444.70
462.95	402.57
463.13	414.27
463.32	423.64
463.50	428.32
463.68	498.53
463.86	479.81
464.05	402.57
464.23	493.85
464.41	435.34
464.59	423.64
464.78	425.98
464.96	430.66
465.14	416.62
465.32	386.19
465.50	433.00
465.69	414.27
465.87	388.53
466.05	437.68
466.23	470.45
466.41	421.30
466.60	463.43
466.78	423.64
466.96	367.46
467.14	416.62
467.32	461.09
467.51	433.00
467.69	390.87
467.87	451.72
468.05	430.66
468.23	425.98
468.41	418.96
468.60	353.42
468.78	393.21
468.96	465.77
469.14	433.00
469.32	421.30
469.50	458.74
469.69	430.66
469.87	458.74
470.05	477.47
470.23	428.32
470.41	372.15
470.59	461.09
470.77	418.96
470.95	444.70
471.14	414.27
471.32	390.87
471.50	486.83
471.68	381.51
471.86	404.91
472.04	348.74
472.22	409.59
472.40	369.80
472.58	386.19
472.77	416.62
472.95	416.62
473.13	451.72
473.31	416.62
473.49	411.93
473.67	397.89
473.85	456.40
474.03	411.93
474.21	414.27
474.39	411.93
474.57	468.11
474.75	463.43
474.93	395.55
475.12	390.87
475.30	383.85
475.48	376.83
475.66	472.79
475.84	437.68
476.02	400.23
476.20	437.68
476.38	421.30
476.56	477.47
476.74	430.66
476.92	440.02
477.10	400.23
477.28	411.93
477.46	362.78
477.64	435.34
477.82	404.91
478.00	470.45
478.18	491.51
478.36	393.21
478.54	442.36
478.72	376.83
478.90	383.85
479.08	402.57
479.26	447.04
479.44	355.76
479.62	395.55
479.80	351.08
479.98	395.55
480.16	374.49
480.34	451.72
480.52	372.15
480.70	414.27
480.88	423.64
481.06	381.51
481.24	355.76
481.41	425.98
481.59	449.38
481.77	437.68
481.95	404.91
482.13	390.87
482.31	400.23
482.49	407.25
482.67	400.23
482.85	402.57
483.03	458.74
483.21	456.40
483.39	372.15
483.57	402.57
483.74	510.24
483.92	369.80
484.10	451.72
484.28	435.34
484.46	472.79
484.64	440.02
484.82	421.30
485.00	367.46
485.18	465.77
485.35	484.49
485.53	465.77
485.71	442.36
485.89	411.93
486.07	418.96
486.25	482.15
486.43	397.89
486.61	404.91
486.78	491.51
486.96	374.49
487.14	367.46
487.32	390.87
487.50	423.64
487.68	360.44
487.85	414.27
488.03	421.30
488.21	402.57
488.39	414.27
488.57	428.32
488.75	430.66
488.92	498.53
489.10	433.00
489.28	430.66
489.46	425.98
489.64	400.23
489.81	423.64
489.99	393.21
490.17	449.38
490.35	472.79
490.53	381.51
490.70	416.62
490.88	461.09
491.06	442.36
491.24	379.17
491.41	440.02
491.59	358.10
491.77	409.59
491.95	444.70
492.13	461.09
492.30	444.70
492.48	395.55
492.66	437.68
492.84	379.17
493.01	407.25
493.19	388.53
493.37	376.83
493.54	409.59
493.72	425.98
493.90	369.80
494.08	351.08
494.25	386.19
494.43	454.06
494.61	414.27
494.79	454.06
494.96	418.96
495.14	355.76
495.32	376.83
495.49	411.93
495.67	416.62
495.85	440.02
496.02	344.06
496.20	470.45
496.38	472.79
496.55	358.10
496.73	367.46
496.91	423.64
497.09	383.85
497.26	376.83
497.44	393.21
497.62	395.55
497.79	433.00
497.97	360.44
498.14	376.83
498.32	449.38
498.50	430.66
498.67	383.85
498.85	348.74
499.03	348.74
499.20	407.25
499.38	458.74
499.56	430.66
499.73	383.85
499.91	470.45
500.08	409.59
500.26	423.64
500.44	339.38
500.61	433.00
500.79	414.27
500.97	461.09
501.14	374.49
501.32	433.00
501.49	444.70
501.67	463.43
501.84	395.55
502.02	437.68
502.20	440.02
502.37	430.66
502.55	400.23
502.72	477.47
502.90	465.77
503.07	425.98
503.25	409.59
503.43	416.62
503.60	390.87
503.78	440.02
503.95	369.80
504.13	423.64
504.30	437.68
504.48	468.11
504.65	433.00
504.83	353.42
505.01	423.64
505.18	402.57
505.36	435.34
505.53	418.96
505.71	423.64
505.88	433.00
506.06	365.12
506.23	386.19
506.41	428.32
506.58	355.76
506.76	435.34
506.93	395.55
507.11	418.96
507.28	402.57
507.46	428.32
507.63	390.87
507.81	372.15
507.98	372.15
508.16	393.21
508.33	433.00
508.50	468.11
508.68	402.57
508.85	409.59
509.03	386.19
509.20	456.40
509.38	402.57
509.55	388.53
509.73	414.27
509.90	423.64
510.08	428.32
510.25	386.19
510.42	330.02
510.60	390.87
510.77	430.66
510.95	411.93
511.12	418.96
511.30	379.17
511.47	447.04
511.64	400.23
511.82	355.76
511.99	393.21
512.17	418.96
512.34	421.30
512.51	400.23
512.69	433.00
512.86	475.13
513.04	421.30
513.21	416.62
513.38	437.68
513.56	346.40
513.73	341.72
513.90	407.25
514.08	435.34
514.25	472.79
514.43	435.34
514.60	507.90
514.77	358.10
514.95	472.79
515.12	468.11
515.29	430.66
515.47	374.49
515.64	428.32
515.81	402.57
515.99	390.87
516.16	393.21
516.33	454.06
516.51	351.08
516.68	341.72
516.85	332.36
517.03	376.83
517.20	404.91
517.37	442.36
517.54	454.06
517.72	442.36
517.89	393.21
518.06	428.32
518.24	430.66
518.41	425.98
518.58	433.00
518.75	465.77
518.93	416.62
519.10	444.70
519.27	416.62
519.45	409.59
519.62	421.30
519.79	404.91
519.96	372.15
520.14	407.25
520.31	458.74
520.48	386.19
520.65	433.00
520.83	311.29
521.00	428.32
521.17	442.36
521.34	407.25
521.52	444.70
521.69	374.49
521.86	510.24
522.03	395.55
522.20	409.59
522.38	435.34
522.55	454.06
522.72	397.89
522.89	397.89
523.07	425.98
523.24	381.51
523.41	414.27
523.58	386.19
523.75	383.85
523.92	360.44
524.10	447.04
524.27	454.06
524.44	402.57
524.61	444.70
524.78	365.12
524.96	465.77
525.13	447.04
525.30	414.27
525.47	411.93
525.64	423.64
525.81	444.70
525.98	409.59
526.16	365.12
526.33	503.22
526.50	477.47
526.67	418.96
526.84	411.93
527.01	372.15
527.18	489.17
527.36	442.36
527.53	435.34
527.70	423.64
527.87	355.76
528.04	435.34
528.21	390.87
528.38	379.17
528.55	505.56
528.72	430.66
528.89	395.55
529.07	423.64
529.24	411.93
529.41	416.62
529.58	468.11
529.75	395.55
529.92	421.30
530.09	430.66
530.26	428.32
530.43	411.93
530.60	433.00
530.77	386.19
530.94	386.19
531.11	423.64
531.28	304.27
531.46	414.27
531.63	463.43
531.80	407.25
531.97	435.34
532.14	449.38
532.31	397.89
532.48	379.17
532.65	458.74
532.82	451.72
532.99	475.13
533.16	449.38
533.33	475.13
533.50	425.98
533.67	430.66
533.84	344.06
534.01	444.70
534.18	379.17
534.35	440.02
534.52	444.70
534.69	433.00
534.86	454.06
535.03	407.25
535.20	395.55
535.37	463.43
535.54	418.96
535.71	454.06
535.88	454.06
536.05	390.87
536.22	423.64
536.38	407.25
536.55	447.04
536.72	416.62
536.89	458.74
537.06	416.62
537.23	404.91
537.40	414.27
537.57	362.78
537.74	397.89
537.91	461.09
538.08	416.62
538.25	388.53
538.42	430.66
538.59	400.23
538.75	416.62
538.92	353.42
539.09	505.56
539.26	458.74
539.43	435.34
539.60	402.57
539.77	477.47
539.94	395.55
540.11	428.32
540.28	379.17
540.44	528.96
540.61	477.47
540.78	454.06
540.95	414.27
541.12	365.12
541.29	472.79
541.46	395.55
541.62	407.25
541.79	355.76
541.96	402.57
542.13	372.15
542.30	381.51
542.47	397.89
542.63	418.96
542.80	369.80
542.97	383.85
543.14	456.40
543.31	435.34
543.48	437.68
543.64	463.43
543.81	416.62
543.98	365.12
544.15	402.57
544.32	458.74
544.48	404.91
544.65	393.21
544.82	423.64
544.99	372.15
545.16	344.06
545.32	400.23
545.49	435.34
545.66	407.25
545.83	421.30
546.00	423.64
546.16	383.85
546.33	428.32
546.50	390.87
546.67	456.40
546.83	390.87
547.00	433.00
547.17	458.74
547.34	393.21
547.50	449.38
547.67	461.09
547.84	381.51
548.00	430.66
548.17	358.10
548.34	428.32
548.51	430.66
548.67	435.34
548.84	414.27
549.01	461.09
549.18	421.30
549.34	435.34
549.51	430.66
549.68	437.68
549.84	435.34
550.01	383.85
550.18	440.02
550.34	409.59
550.51	402.57
550.68	369.80
550.84	503.22
551.01	510.24
551.18	379.17
551.34	447.04
551.51	411.93
551.68	449.38
551.84	407.25
552.01	421.30
552.18	418.96
552.34	421.30
552.51	346.40
552.68	451.72
552.84	325.33
553.01	407.25
553.18	437.68
553.34	456.40
553.51	355.76
553.67	479.81
553.84	428.32
554.01	507.90
554.17	416.62
554.34	425.98
554.51	367.46
554.67	407.25
554.84	484.49
555.00	437.68
555.17	400.23
555.33	512.58
555.50	435.34
555.67	367.46
555.83	367.46
556.00	372.15
556.16	521.94
556.33	425.98
556.50	456.40
556.66	482.15
556.83	360.44
556.99	383.85
557.16	472.79
557.32	397.89
557.49	386.19
557.65	435.34
557.82	360.44
557.98	528.96
558.15	449.38
558.32	444.70
558.48	414.27
558.65	477.47
558.81	468.11
558.98	418.96
559.14	470.45
559.31	540.66
559.47	397.89
559.64	465.77
559.80	358.10
559.97	423.64
560.13	416.62
560.30	411.93
560.46	395.55
560.63	421.30
560.79	355.76
560.96	360.44
561.12	465.77
561.29	437.68
561.45	430.66
561.61	390.87
561.78	510.24
561.94	440.02
562.11	437.68
562.27	395.55
562.44	369.80
562.60	435.34
562.77	367.46
562.93	437.68
563.10	400.23
563.26	421.30
563.42	444.70
563.59	425.98
563.75	388.53
563.92	456.40
564.08	386.19
564.24	447.04
564.41	421.30
564.57	318.31
564.74	358.10
564.90	442.36
565.07	411.93
565.23	449.38
565.39	315.97
565.56	395.55
565.72	442.36
565.88	449.38
566.05	362.78
566.21	468.11
566.38	428.32
566.54	402.57
566.70	362.78
566.87	379.17
567.03	402.57
567.19	390.87
567.36	383.85
567.52	393.21
567.68	409.59
567.85	437.68
568.01	493.85
568.17	430.66
568.34	400.23
568.50	374.49
568.66	351.08
568.83	528.96
568.99	477.47
569.15	435.34
569.32	454.06
569.48	360.44
569.64	353.42
569.81	360.44
569.97	348.74
570.13	330.02
570.30	407.25
570.46	395.55
570.62	423.64
570.78	404.91
570.95	360.44
571.11	458.74
571.27	416.62
571.43	411.93
571.60	407.25
571.76	381.51
571.92	372.15
572.09	400.23
572.25	400.23
572.41	458.74
572.57	355.76
572.74	447.04
572.90	491.51
573.06	484.49
573.22	404.91
573.38	411.93
573.55	428.32
573.71	451.72
573.87	397.89
574.03	383.85
574.20	395.55
574.36	430.66
574.52	369.80
574.68	468.11
574.84	358.10
575.01	411.93
575.17	433.00
575.33	475.13
575.49	430.66
575.65	355.76
575.82	376.83
575.98	407.25
576.14	421.30
576.30	423.64
576.46	390.87
576.62	332.36
576.79	449.38
576.95	486.83
577.11	414.27
577.27	388.53
577.43	451.72
577.59	411.93
577.75	440.02
577.92	458.74
578.08	397.89
578.24	468.11
578.40	433.00
578.56	383.85
578.72	442.36
578.88	372.15
579.04	430.66
579.21	433.00
579.37	374.49
579.53	418.96
579.69	358.10
579.85	351.08
580.01	477.47
580.17	475.13
580.33	372.15
580.49	461.09
580.65	421.30
580.82	344.06
580.98	386.19
581.14	362.78
581.30	500.87
581.46	395.55
581.62	477.47
581.78	411.93
581.94	458.74
582.10	435.34
582.26	397.89
582.42	369.80
582.58	381.51
582.74	423.64
582.90	409.59
583.06	447.04
583.22	379.17
583.38	475.13
583.54	365.12
583.70	428.32
583.86	437.68
584.02	425.98
584.18	433.00
584.34	482.15
584.50	383.85
584.66	383.85
584.82	400.23
584.98	367.46
585.14	383.85
585.30	372.15
585.46	442.36
585.62	411.93
585.78	461.09
585.94	407.25
586.10	416.62
586.26	388.53
586.42	477.47
586.58	486.83
586.74	423.64
586.90	393.21
587.06	465.77
587.22	472.79
587.38	421.30
587.54	425.98
587.70	430.66
587.86	409.59
588.02	411.93
588.18	397.89
588.34	428.32
588.49	404.91
588.65	416.62
588.81	484.49
588.97	402.57
589.13	411.93
589.29	414.27
589.45	386.19
589.61	451.72
589.77	409.59
589.93	414.27
590.08	355.76
590.24	390.87
590.40	456.40
590.56	505.56
590.72	433.00
590.88	393.21
591.04	447.04
591.20	454.06
591.35	491.51
591.51	386.19
591.67	393.21
591.83	379.17
591.99	463.43
592.15	425.98
592.31	428.32
592.46	369.80
592.62	458.74
592.78	435.34
592.94	449.38
593.10	348.74
593.26	440.02
593.41	423.64
593.57	346.40
593.73	437.68
593.89	421.30
594.05	397.89
594.20	486.83
594.36	440.02
594.52	428.32
594.68	404.91
594.84	411.93
594.99	440.02
595.15	484.49
595.31	395.55
595.47	362.78
595.62	454.06
595.78	482.15
595.94	425.98
596.10	411.93
596.25	383.85
596.41	444.70
596.57	421.30
596.73	425.98
596.88	400.23
597.04	416.62
597.20	355.76
597.36	404.91
597.51	423.64
597.67	484.49
597.83	411.93
597.99	428.32
598.14	411.93
598.30	414.27
598.46	461.09
598.61	440.02
598.77	367.46
598.93	463.43
599.09	344.06
599.24	313.63
599.40	470.45
599.56	397.89
599.71	468.11
599.87	360.44
600.03	449.38
600.18	400.23
600.34	360.44
600.50	411.93
600.65	414.27
600.81	416.62
600.97	393.21
601.12	402.57
601.28	414.27
601.44	397.89
601.59	437.68
601.75	463.43
601.91	411.93
602.06	425.98
602.22	496.19
602.37	470.45
602.53	437.68
602.69	451.72
602.84	421.30
603.00	383.85
603.16	470.45
603.31	407.25
603.47	351.08
603.62	404.91
603.78	388.53
603.94	444.70
604.09	367.46
604.25	416.62
604.40	402.57
604.56	402.57
604.71	402.57
604.87	416.62
605.03	423.64
605.18	428.32
605.34	458.74
605.49	475.13
605.65	400.23
605.80	388.53
605.96	372.15
606.12	362.78
606.27	440.02
606.43	397.89
606.58	404.91
606.74	465.77
606.89	402.57
607.05	463.43
607.20	404.91
607.36	421.30
607.51	386.19
607.67	433.00
607.82	437.68
607.98	505.56
608.13	472.79
608.29	388.53
608.44	433.00
608.60	365.12
608.75	374.49
608.91	425.98
609.06	451.72
609.22	397.89
609.37	376.83
609.53	433.00
609.68	442.36
609.84	463.43
609.99	447.04
610.15	430.66
