SpectraSuite Data File
++++++++++++++++++++++++++++++++++++
Date: Fri Oct 25 12:10:43 EDT 2013
User: price-jones
Dark Spectrum Present: No
Reference Spectrum Present: No
Number of Sampled Component Spectra: 1
Spectrometers: USB2+H05261
Integration Time (usec): 100000 (USB2+H05261)
Spectra Averaged: 1 (USB2+H05261)
Boxcar Smoothing: 0 (USB2+H05261)
Correct for Electrical Dark: No (USB2+H05261)
Strobe/Lamp Enabled: No (USB2+H05261)
Correct for Detector Non-linearity: No (USB2+H05261)
Correct for Stray Light: No (USB2+H05261)
Number of Pixels in Processed Spectrum: 2048
>>>>>Begin Processed Spectral Data<<<<<
365.73	365.12
365.92	365.12
366.12	365.12
366.32	177.88
366.52	175.54
366.72	257.46
366.91	250.44
367.11	285.55
367.31	236.39
367.51	177.88
367.70	205.97
367.90	280.86
368.10	210.65
368.30	269.16
368.49	196.60
368.69	292.57
368.89	301.93
369.09	266.82
369.28	250.44
369.48	259.80
369.68	222.35
369.87	285.55
370.07	348.74
370.27	341.72
370.47	397.89
370.66	308.95
370.86	271.50
371.06	388.53
371.25	390.87
371.45	339.38
371.65	358.10
371.84	308.95
372.04	304.27
372.24	402.57
372.44	395.55
372.63	376.83
372.83	409.59
373.03	465.77
373.22	437.68
373.42	360.44
373.62	374.49
373.81	365.12
374.01	404.91
374.21	465.77
374.40	400.23
374.60	381.51
374.79	407.25
374.99	388.53
375.19	411.93
375.38	402.57
375.58	414.27
375.78	498.53
375.97	409.59
376.17	500.87
376.37	463.43
376.56	447.04
376.76	428.32
376.95	418.96
377.15	440.02
377.35	376.83
377.54	470.45
377.74	383.85
377.93	414.27
378.13	404.91
378.33	435.34
378.52	395.55
378.72	416.62
378.91	360.44
379.11	341.72
379.31	409.59
379.50	386.19
379.70	393.21
379.89	388.53
380.09	381.51
380.28	390.87
380.48	365.12
380.68	339.38
380.87	416.62
381.07	409.59
381.26	484.49
381.46	404.91
381.65	479.81
381.85	381.51
382.04	402.57
382.24	465.77
382.43	374.49
382.63	414.27
382.83	367.46
383.02	404.91
383.22	531.30
383.41	479.81
383.61	337.04
383.80	346.40
384.00	381.51
384.19	414.27
384.39	416.62
384.58	390.87
384.78	407.25
384.97	477.47
385.17	372.15
385.36	425.98
385.56	433.00
385.75	397.89
385.95	435.34
386.14	393.21
386.34	395.55
386.53	404.91
386.72	418.96
386.92	404.91
387.11	390.87
387.31	430.66
387.50	393.21
387.70	421.30
387.89	374.49
388.09	393.21
388.28	402.57
388.48	400.23
388.67	353.42
388.86	376.83
389.06	409.59
389.25	402.57
389.45	433.00
389.64	388.53
389.84	393.21
390.03	442.36
390.22	355.76
390.42	395.55
390.61	383.85
390.81	386.19
391.00	393.21
391.19	475.13
391.39	400.23
391.58	416.62
391.78	416.62
391.97	456.40
392.16	423.64
392.36	461.09
392.55	442.36
392.75	397.89
392.94	337.04
393.13	407.25
393.33	376.83
393.52	428.32
393.71	447.04
393.91	351.08
394.10	334.70
394.29	425.98
394.49	440.02
394.68	402.57
394.88	416.62
395.07	404.91
395.26	411.93
395.46	397.89
395.65	386.19
395.84	353.42
396.04	442.36
396.23	416.62
396.42	423.64
396.62	503.22
396.81	425.98
397.00	351.08
397.19	407.25
397.39	468.11
397.58	449.38
397.77	388.53
397.97	365.12
398.16	421.30
398.35	372.15
398.55	318.31
398.74	447.04
398.93	440.02
399.12	369.80
399.32	372.15
399.51	374.49
399.70	386.19
399.90	379.17
400.09	479.81
400.28	447.04
400.47	390.87
400.67	402.57
400.86	416.62
401.05	397.89
401.24	411.93
401.44	456.40
401.63	390.87
401.82	418.96
402.01	388.53
402.21	418.96
402.40	388.53
402.59	367.46
402.78	397.89
402.97	468.11
403.17	421.30
403.36	402.57
403.55	346.40
403.74	376.83
403.93	379.17
404.13	397.89
404.32	428.32
404.51	447.04
404.70	468.11
404.89	390.87
405.09	465.77
405.28	416.62
405.47	402.57
405.66	411.93
405.85	433.00
406.05	381.51
406.24	372.15
406.43	351.08
406.62	407.25
406.81	346.40
407.00	444.70
407.20	381.51
407.39	411.93
407.58	444.70
407.77	423.64
407.96	428.32
408.15	418.96
408.34	437.68
408.54	402.57
408.73	447.04
408.92	409.59
409.11	397.89
409.30	358.10
409.49	407.25
409.68	404.91
409.87	482.15
410.07	372.15
410.26	449.38
410.45	411.93
410.64	383.85
410.83	435.34
411.02	425.98
411.21	407.25
411.40	458.74
411.59	421.30
411.78	388.53
411.98	416.62
412.17	414.27
412.36	390.87
412.55	414.27
412.74	355.76
412.93	442.36
413.12	425.98
413.31	477.47
413.50	458.74
413.69	388.53
413.88	379.17
414.07	358.10
414.26	393.21
414.45	440.02
414.64	428.32
414.83	367.46
415.02	367.46
415.22	449.38
415.41	395.55
415.60	397.89
415.79	393.21
415.98	484.49
416.17	351.08
416.36	416.62
416.55	440.02
416.74	418.96
416.93	423.64
417.12	388.53
417.31	297.25
417.50	421.30
417.69	397.89
417.88	369.80
418.07	395.55
418.26	404.91
418.45	369.80
418.64	477.47
418.83	348.74
419.02	423.64
419.21	386.19
419.39	402.57
419.58	337.04
419.77	449.38
419.96	393.21
420.15	418.96
420.34	472.79
420.53	411.93
420.72	475.13
420.91	348.74
421.10	456.40
421.29	428.32
421.48	456.40
421.67	355.76
421.86	404.91
422.05	428.32
422.24	395.55
422.43	376.83
422.61	440.02
422.80	325.33
422.99	346.40
423.18	367.46
423.37	325.33
423.56	374.49
423.75	428.32
423.94	374.49
424.13	411.93
424.32	437.68
424.50	416.62
424.69	418.96
424.88	435.34
425.07	351.08
425.26	433.00
425.45	430.66
425.64	435.34
425.83	444.70
426.01	425.98
426.20	395.55
426.39	425.98
426.58	433.00
426.77	409.59
426.96	418.96
427.15	425.98
427.33	430.66
427.52	397.89
427.71	404.91
427.90	461.09
428.09	444.70
428.28	381.51
428.46	447.04
428.65	425.98
428.84	433.00
429.03	393.21
429.22	449.38
429.40	386.19
429.59	353.42
429.78	409.59
429.97	386.19
430.16	437.68
430.34	402.57
430.53	402.57
430.72	498.53
430.91	390.87
431.10	407.25
431.28	407.25
431.47	428.32
431.66	414.27
431.85	404.91
432.03	428.32
432.22	437.68
432.41	421.30
432.60	458.74
432.79	416.62
432.97	390.87
433.16	400.23
433.35	430.66
433.54	393.21
433.72	416.62
433.91	365.12
434.10	430.66
434.28	383.85
434.47	395.55
434.66	386.19
434.85	400.23
435.03	418.96
435.22	383.85
435.41	409.59
435.59	416.62
435.78	454.06
435.97	409.59
436.16	491.51
436.34	360.44
436.53	395.55
436.72	353.42
436.90	409.59
437.09	421.30
437.28	458.74
437.46	489.17
437.65	444.70
437.84	404.91
438.02	468.11
438.21	437.68
438.40	341.72
438.58	430.66
438.77	395.55
438.96	353.42
439.14	362.78
439.33	390.87
439.52	470.45
439.70	388.53
439.89	402.57
440.08	449.38
440.26	409.59
440.45	418.96
440.63	425.98
440.82	416.62
441.01	428.32
441.19	524.28
441.38	447.04
441.57	435.34
441.75	442.36
441.94	428.32
442.12	379.17
442.31	421.30
442.50	468.11
442.68	369.80
442.87	388.53
443.05	358.10
443.24	447.04
443.43	383.85
443.61	425.98
443.80	454.06
443.98	383.85
444.17	397.89
444.35	440.02
444.54	414.27
444.73	409.59
444.91	386.19
445.10	397.89
445.28	308.95
445.47	465.77
445.65	402.57
445.84	320.65
446.02	367.46
446.21	374.49
446.39	414.27
446.58	437.68
446.77	449.38
446.95	409.59
447.14	433.00
447.32	416.62
447.51	402.57
447.69	404.91
447.88	409.59
448.06	461.09
448.25	367.46
448.43	447.04
448.62	430.66
448.80	442.36
448.99	386.19
449.17	428.32
449.36	404.91
449.54	395.55
449.73	400.23
449.91	456.40
450.10	285.55
450.28	458.74
450.46	472.79
450.65	411.93
450.83	411.93
451.02	379.17
451.20	351.08
451.39	482.15
451.57	388.53
451.76	353.42
451.94	351.08
452.13	442.36
452.31	407.25
452.49	444.70
452.68	409.59
452.86	428.32
453.05	463.43
453.23	390.87
453.42	489.17
453.60	447.04
453.78	372.15
453.97	337.04
454.15	386.19
454.34	449.38
454.52	367.46
454.70	479.81
454.89	425.98
455.07	395.55
455.26	430.66
455.44	376.83
455.62	416.62
455.81	404.91
455.99	458.74
456.17	454.06
456.36	383.85
456.54	402.57
456.73	393.21
456.91	414.27
457.09	430.66
457.28	393.21
457.46	404.91
457.64	407.25
457.83	440.02
458.01	465.77
458.19	507.90
458.38	428.32
458.56	416.62
458.74	365.12
458.93	388.53
459.11	425.98
459.29	348.74
459.48	386.19
459.66	418.96
459.84	400.23
460.03	404.91
460.21	390.87
460.39	383.85
460.57	414.27
460.76	430.66
460.94	360.44
461.12	475.13
461.31	461.09
461.49	486.83
461.67	358.10
461.85	400.23
462.04	369.80
462.22	802.80
462.40	423.64
462.59	414.27
462.77	379.17
462.95	472.79
463.13	458.74
463.32	411.93
463.50	376.83
463.68	386.19
463.86	402.57
464.05	416.62
464.23	435.34
464.41	433.00
464.59	437.68
464.78	358.10
464.96	367.46
465.14	447.04
465.32	409.59
465.50	404.91
465.69	404.91
465.87	355.76
466.05	374.49
466.23	397.89
466.41	407.25
466.60	444.70
466.78	390.87
466.96	388.53
467.14	484.49
467.32	442.36
467.51	395.55
467.69	451.72
467.87	428.32
468.05	362.78
468.23	425.98
468.41	468.11
468.60	489.17
468.78	435.34
468.96	442.36
469.14	367.46
469.32	395.55
469.50	404.91
469.69	425.98
469.87	416.62
470.05	383.85
470.23	404.91
470.41	449.38
470.59	353.42
470.77	425.98
470.95	404.91
471.14	407.25
471.32	416.62
471.50	524.28
471.68	395.55
471.86	402.57
472.04	491.51
472.22	428.32
472.40	475.13
472.58	400.23
472.77	447.04
472.95	433.00
473.13	402.57
473.31	381.51
473.49	435.34
473.67	360.44
473.85	468.11
474.03	433.00
474.21	442.36
474.39	358.10
474.57	444.70
474.75	423.64
474.93	414.27
475.12	360.44
475.30	400.23
475.48	397.89
475.66	369.80
475.84	454.06
476.02	397.89
476.20	381.51
476.38	346.40
476.56	393.21
476.74	393.21
476.92	369.80
477.10	428.32
477.28	372.15
477.46	395.55
477.64	339.38
477.82	372.15
478.00	421.30
478.18	404.91
478.36	395.55
478.54	411.93
478.72	407.25
478.90	301.93
479.08	390.87
479.26	458.74
479.44	390.87
479.62	451.72
479.80	372.15
479.98	456.40
480.16	416.62
480.34	327.68
480.52	407.25
480.70	463.43
480.88	400.23
481.06	397.89
481.24	386.19
481.41	416.62
481.59	351.08
481.77	418.96
481.95	379.17
482.13	379.17
482.31	383.85
482.49	386.19
482.67	414.27
482.85	444.70
483.03	423.64
483.21	435.34
483.39	461.09
483.57	402.57
483.74	433.00
483.92	355.76
484.10	428.32
484.28	428.32
484.46	451.72
484.64	395.55
484.82	444.70
485.00	388.53
485.18	367.46
485.35	454.06
485.53	355.76
485.71	397.89
485.89	372.15
486.07	449.38
486.25	423.64
486.43	386.19
486.61	465.77
486.78	449.38
486.96	330.02
487.14	409.59
487.32	428.32
487.50	421.30
487.68	404.91
487.85	447.04
488.03	358.10
488.21	383.85
488.39	402.57
488.57	395.55
488.75	451.72
488.92	500.87
489.10	409.59
489.28	447.04
489.46	425.98
489.64	381.51
489.81	402.57
489.99	428.32
490.17	341.72
490.35	463.43
490.53	456.40
490.70	330.02
490.88	440.02
491.06	362.78
491.24	428.32
491.41	353.42
491.59	489.17
491.77	449.38
491.95	358.10
492.13	376.83
492.30	388.53
492.48	458.74
492.66	402.57
492.84	402.57
493.01	390.87
493.19	440.02
493.37	463.43
493.54	447.04
493.72	489.17
493.90	454.06
494.08	451.72
494.25	404.91
494.43	341.72
494.61	407.25
494.79	358.10
494.96	435.34
495.14	381.51
495.32	451.72
495.49	428.32
495.67	456.40
495.85	388.53
496.02	351.08
496.20	463.43
496.38	463.43
496.55	348.74
496.73	475.13
496.91	468.11
497.09	416.62
497.26	374.49
497.44	423.64
497.62	414.27
497.79	400.23
497.97	425.98
498.14	447.04
498.32	404.91
498.50	407.25
498.67	409.59
498.85	395.55
499.03	390.87
499.20	407.25
499.38	435.34
499.56	404.91
499.73	463.43
499.91	437.68
500.08	381.51
500.26	437.68
500.44	383.85
500.61	440.02
500.79	458.74
500.97	416.62
501.14	421.30
501.32	404.91
501.49	365.12
501.67	355.76
501.84	411.93
502.02	348.74
502.20	437.68
502.37	411.93
502.55	341.72
502.72	411.93
502.90	435.34
503.07	465.77
503.25	362.78
503.43	397.89
503.60	444.70
503.78	475.13
503.95	339.38
504.13	374.49
504.30	503.22
504.48	383.85
504.65	458.74
504.83	433.00
505.01	381.51
505.18	409.59
505.36	418.96
505.53	393.21
505.71	442.36
505.88	418.96
506.06	437.68
506.23	402.57
506.41	334.70
506.58	458.74
506.76	353.42
506.93	425.98
507.11	409.59
507.28	416.62
507.46	379.17
507.63	390.87
507.81	409.59
507.98	395.55
508.16	404.91
508.33	423.64
508.50	463.43
508.68	463.43
508.85	442.36
509.03	372.15
509.20	465.77
509.38	407.25
509.55	416.62
509.73	388.53
509.90	421.30
510.08	437.68
510.25	435.34
510.42	374.49
510.60	379.17
510.77	388.53
510.95	390.87
511.12	463.43
511.30	456.40
511.47	369.80
511.64	433.00
511.82	423.64
511.99	435.34
512.17	381.51
512.34	465.77
512.51	400.23
512.69	365.12
512.86	437.68
513.04	418.96
513.21	423.64
513.38	409.59
513.56	407.25
513.73	397.89
513.90	430.66
514.08	365.12
514.25	383.85
514.43	461.09
514.60	393.21
514.77	437.68
514.95	442.36
515.12	383.85
515.29	430.66
515.47	456.40
515.64	437.68
515.81	421.30
515.99	395.55
516.16	334.70
516.33	451.72
516.51	479.81
516.68	418.96
516.85	400.23
517.03	393.21
517.20	470.45
517.37	379.17
517.54	386.19
517.72	430.66
517.89	386.19
518.06	386.19
518.24	423.64
518.41	418.96
518.58	423.64
518.75	393.21
518.93	327.68
519.10	454.06
519.27	418.96
519.45	407.25
519.62	409.59
519.79	386.19
519.96	376.83
520.14	365.12
520.31	418.96
520.48	433.00
520.65	463.43
520.83	393.21
521.00	465.77
521.17	440.02
521.34	407.25
521.52	430.66
521.69	402.57
521.86	423.64
522.03	440.02
522.20	376.83
522.38	430.66
522.55	423.64
522.72	468.11
522.89	433.00
523.07	458.74
523.24	451.72
523.41	418.96
523.58	397.89
523.75	472.79
523.92	367.46
524.10	393.21
524.27	332.36
524.44	482.15
524.61	444.70
524.78	365.12
524.96	362.78
525.13	393.21
525.30	444.70
525.47	447.04
525.64	390.87
525.81	458.74
525.98	402.57
526.16	369.80
526.33	428.32
526.50	376.83
526.67	353.42
526.84	381.51
527.01	472.79
527.18	430.66
527.36	390.87
527.53	423.64
527.70	360.44
527.87	400.23
528.04	428.32
528.21	395.55
528.38	447.04
528.55	416.62
528.72	526.62
528.89	465.77
529.07	393.21
529.24	416.62
529.41	500.87
529.58	461.09
529.75	400.23
529.92	402.57
530.09	423.64
530.26	430.66
530.43	393.21
530.60	374.49
530.77	351.08
530.94	418.96
531.11	414.27
531.28	447.04
531.46	376.83
531.63	461.09
531.80	430.66
531.97	461.09
532.14	402.57
532.31	386.19
532.48	437.68
532.65	407.25
532.82	423.64
532.99	402.57
533.16	503.22
533.33	458.74
533.50	346.40
533.67	365.12
533.84	395.55
534.01	444.70
534.18	386.19
534.35	386.19
534.52	444.70
534.69	442.36
534.86	383.85
535.03	404.91
535.20	360.44
535.37	365.12
535.54	418.96
535.71	411.93
535.88	468.11
536.05	437.68
536.22	444.70
536.38	379.17
536.55	425.98
536.72	461.09
536.89	463.43
537.06	463.43
537.23	414.27
537.40	369.80
537.57	442.36
537.74	498.53
537.91	344.06
538.08	477.47
538.25	402.57
538.42	404.91
538.59	435.34
538.75	388.53
538.92	456.40
539.09	421.30
539.26	461.09
539.43	425.98
539.60	425.98
539.77	402.57
539.94	451.72
540.11	449.38
540.28	440.02
540.44	435.34
540.61	454.06
540.78	393.21
540.95	388.53
541.12	390.87
541.29	369.80
541.46	507.90
541.62	395.55
541.79	433.00
541.96	437.68
542.13	416.62
542.30	299.59
542.47	393.21
542.63	411.93
542.80	374.49
542.97	503.22
543.14	428.32
543.31	444.70
543.48	397.89
543.64	353.42
543.81	402.57
543.98	472.79
544.15	444.70
544.32	444.70
544.48	414.27
544.65	404.91
544.82	379.17
544.99	461.09
545.16	425.98
545.32	397.89
545.49	411.93
545.66	381.51
545.83	393.21
546.00	386.19
546.16	390.87
546.33	479.81
546.50	400.23
546.67	456.40
546.83	390.87
547.00	409.59
547.17	395.55
547.34	430.66
547.50	390.87
547.67	393.21
547.84	404.91
548.00	428.32
548.17	414.27
548.34	379.17
548.51	463.43
548.67	386.19
548.84	435.34
549.01	433.00
549.18	433.00
549.34	409.59
549.51	428.32
549.68	503.22
549.84	341.72
550.01	367.46
550.18	498.53
550.34	507.90
550.51	411.93
550.68	386.19
550.84	451.72
551.01	400.23
551.18	479.81
551.34	435.34
551.51	400.23
551.68	444.70
551.84	444.70
552.01	465.77
552.18	404.91
552.34	444.70
552.51	376.83
552.68	367.46
552.84	433.00
553.01	388.53
553.18	512.58
553.34	388.53
553.51	397.89
553.67	423.64
553.84	390.87
554.01	440.02
554.17	505.56
554.34	390.87
554.51	510.24
554.67	456.40
554.84	444.70
555.00	461.09
555.17	444.70
555.33	493.85
555.50	423.64
555.67	407.25
555.83	404.91
556.00	472.79
556.16	531.30
556.33	463.43
556.50	390.87
556.66	447.04
556.83	395.55
556.99	402.57
557.16	411.93
557.32	400.23
557.49	440.02
557.65	395.55
557.82	400.23
557.98	397.89
558.15	444.70
558.32	421.30
558.48	437.68
558.65	400.23
558.81	444.70
558.98	416.62
559.14	449.38
559.31	341.72
559.47	430.66
559.64	421.30
559.80	397.89
559.97	414.27
560.13	400.23
560.30	306.61
560.46	395.55
560.63	381.51
560.79	414.27
560.96	390.87
561.12	397.89
561.29	376.83
561.45	365.12
561.61	437.68
561.78	575.77
561.94	423.64
562.11	355.76
562.27	393.21
562.44	414.27
562.60	341.72
562.77	482.15
562.93	456.40
563.10	409.59
563.26	341.72
563.42	451.72
563.59	458.74
563.75	360.44
563.92	365.12
564.08	358.10
564.24	381.51
564.41	489.17
564.57	421.30
564.74	397.89
564.90	369.80
565.07	463.43
565.23	454.06
565.39	397.89
565.56	463.43
565.72	327.68
565.88	458.74
566.05	425.98
566.21	381.51
566.38	425.98
566.54	437.68
566.70	449.38
566.87	383.85
567.03	386.19
567.19	440.02
567.36	468.11
567.52	355.76
567.68	440.02
567.85	428.32
568.01	414.27
568.17	353.42
568.34	379.17
568.50	414.27
568.66	388.53
568.83	449.38
568.99	465.77
569.15	461.09
569.32	372.15
569.48	423.64
569.64	418.96
569.81	437.68
569.97	332.36
570.13	468.11
570.30	454.06
570.46	437.68
570.62	435.34
570.78	379.17
570.95	411.93
571.11	423.64
571.27	416.62
571.43	449.38
571.60	390.87
571.76	437.68
571.92	372.15
572.09	421.30
572.25	372.15
572.41	423.64
572.57	463.43
572.74	451.72
572.90	456.40
573.06	484.49
573.22	437.68
573.38	451.72
573.55	369.80
573.71	421.30
573.87	440.02
574.03	440.02
574.20	388.53
574.36	416.62
574.52	433.00
574.68	442.36
574.84	409.59
575.01	362.78
575.17	463.43
575.33	423.64
575.49	379.17
575.65	433.00
575.82	332.36
575.98	428.32
576.14	472.79
576.30	421.30
576.46	451.72
576.62	400.23
576.79	395.55
576.95	402.57
577.11	402.57
577.27	395.55
577.43	454.06
577.59	383.85
577.75	421.30
577.92	440.02
578.08	390.87
578.24	449.38
578.40	440.02
578.56	484.49
578.72	449.38
578.88	442.36
579.04	444.70
579.21	414.27
579.37	393.21
579.53	454.06
579.69	437.68
579.85	390.87
580.01	456.40
580.17	416.62
580.33	404.91
580.49	423.64
580.65	388.53
580.82	390.87
580.98	442.36
581.14	407.25
581.30	414.27
581.46	447.04
581.62	486.83
581.78	440.02
581.94	463.43
582.10	379.17
582.26	407.25
582.42	425.98
582.58	451.72
582.74	423.64
582.90	407.25
583.06	393.21
583.22	425.98
583.38	416.62
583.54	372.15
583.70	442.36
583.86	386.19
584.02	423.64
584.18	440.02
584.34	397.89
584.50	430.66
584.66	358.10
584.82	484.49
584.98	402.57
585.14	379.17
585.30	411.93
585.46	416.62
585.62	458.74
585.78	393.21
585.94	442.36
586.10	393.21
586.26	407.25
586.42	402.57
586.58	346.40
586.74	400.23
586.90	442.36
587.06	437.68
587.22	393.21
587.38	397.89
587.54	449.38
587.70	421.30
587.86	367.46
588.02	447.04
588.18	421.30
588.34	454.06
588.49	393.21
588.65	458.74
588.81	458.74
588.97	468.11
589.13	409.59
589.29	416.62
589.45	404.91
589.61	379.17
589.77	449.38
589.93	367.46
590.08	393.21
590.24	407.25
590.40	440.02
590.56	451.72
590.72	470.45
590.88	416.62
591.04	470.45
591.20	437.68
591.35	425.98
591.51	379.17
591.67	407.25
591.83	369.80
591.99	416.62
592.15	416.62
592.31	411.93
592.46	388.53
592.62	425.98
592.78	407.25
592.94	397.89
593.10	411.93
593.26	425.98
593.41	367.46
593.57	346.40
593.73	418.96
593.89	428.32
594.05	397.89
594.20	416.62
594.36	341.72
594.52	423.64
594.68	344.06
594.84	447.04
594.99	409.59
595.15	440.02
595.31	414.27
595.47	421.30
595.62	437.68
595.78	383.85
595.94	397.89
596.10	411.93
596.25	440.02
596.41	425.98
596.57	458.74
596.73	388.53
596.88	388.53
597.04	397.89
597.20	428.32
597.36	465.77
597.51	376.83
597.67	376.83
597.83	393.21
597.99	458.74
598.14	386.19
598.30	472.79
598.46	346.40
598.61	433.00
598.77	416.62
598.93	348.74
599.09	341.72
599.24	360.44
599.40	416.62
599.56	442.36
599.71	442.36
599.87	418.96
600.03	376.83
600.18	491.51
600.34	463.43
600.50	447.04
600.65	430.66
600.81	433.00
600.97	383.85
601.12	421.30
601.28	344.06
601.44	367.46
601.59	447.04
601.75	437.68
601.91	407.25
602.06	353.42
602.22	449.38
602.37	463.43
602.53	414.27
602.69	409.59
602.84	404.91
603.00	379.17
603.16	404.91
603.31	465.77
603.47	386.19
603.62	447.04
603.78	355.76
603.94	395.55
604.09	447.04
604.25	475.13
604.40	393.21
604.56	367.46
604.71	395.55
604.87	447.04
605.03	423.64
605.18	393.21
605.34	496.19
605.49	360.44
605.65	353.42
605.80	330.02
605.96	362.78
606.12	472.79
606.27	376.83
606.43	376.83
606.58	416.62
606.74	346.40
606.89	421.30
607.05	411.93
607.20	369.80
607.36	482.15
607.51	456.40
607.67	381.51
607.82	421.30
607.98	437.68
608.13	397.89
608.29	395.55
608.44	489.17
608.60	433.00
608.75	470.45
608.91	379.17
609.06	421.30
609.22	348.74
609.37	402.57
609.53	461.09
609.68	407.25
609.84	411.93
609.99	421.30
610.15	395.55
