SpectraSuite Data File
++++++++++++++++++++++++++++++++++++
Date: Fri Oct 25 12:10:57 EDT 2013
User: price-jones
Dark Spectrum Present: No
Reference Spectrum Present: No
Number of Sampled Component Spectra: 1
Spectrometers: USB2+H05261
Integration Time (usec): 100000 (USB2+H05261)
Spectra Averaged: 1 (USB2+H05261)
Boxcar Smoothing: 0 (USB2+H05261)
Correct for Electrical Dark: No (USB2+H05261)
Strobe/Lamp Enabled: No (USB2+H05261)
Correct for Detector Non-linearity: No (USB2+H05261)
Correct for Stray Light: No (USB2+H05261)
Number of Pixels in Processed Spectrum: 2048
>>>>>Begin Processed Spectral Data<<<<<
365.73	318.31
365.92	318.31
366.12	318.31
366.32	250.44
366.52	280.86
366.72	273.84
366.91	292.57
367.11	196.60
367.31	241.08
367.51	138.09
367.70	184.90
367.90	301.93
368.10	264.48
368.30	259.80
368.49	220.01
368.69	271.50
368.89	257.46
369.09	283.20
369.28	308.95
369.48	318.31
369.68	287.89
369.87	327.68
370.07	313.63
370.27	376.83
370.47	402.57
370.66	276.18
370.86	322.99
371.06	397.89
371.25	407.25
371.45	322.99
371.65	393.21
371.84	320.65
372.04	341.72
372.24	435.34
372.44	386.19
372.63	400.23
372.83	414.27
373.03	418.96
373.22	374.49
373.42	428.32
373.62	423.64
373.81	388.53
374.01	437.68
374.21	414.27
374.40	421.30
374.60	507.90
374.79	407.25
374.99	346.40
375.19	407.25
375.38	390.87
375.58	454.06
375.78	390.87
375.97	421.30
376.17	503.22
376.37	454.06
376.56	365.12
376.76	447.04
376.95	390.87
377.15	475.13
377.35	379.17
377.54	416.62
377.74	372.15
377.93	402.57
378.13	425.98
378.33	423.64
378.52	369.80
378.72	447.04
378.91	388.53
379.11	433.00
379.31	425.98
379.50	355.76
379.70	416.62
379.89	428.32
380.09	409.59
380.28	360.44
380.48	442.36
380.68	440.02
380.87	374.49
381.07	369.80
381.26	407.25
381.46	381.51
381.65	486.83
381.85	362.78
382.04	437.68
382.24	437.68
382.43	486.83
382.63	360.44
382.83	414.27
383.02	367.46
383.22	411.93
383.41	428.32
383.61	379.17
383.80	461.09
384.00	433.00
384.19	489.17
384.39	437.68
384.58	409.59
384.78	397.89
384.97	397.89
385.17	418.96
385.36	374.49
385.56	470.45
385.75	374.49
385.95	402.57
386.14	372.15
386.34	395.55
386.53	414.27
386.72	395.55
386.92	423.64
387.11	428.32
387.31	456.40
387.50	423.64
387.70	404.91
387.89	465.77
388.09	351.08
388.28	372.15
388.48	393.21
388.67	428.32
388.86	414.27
389.06	449.38
389.25	390.87
389.45	367.46
389.64	388.53
389.84	456.40
390.03	465.77
390.22	409.59
390.42	421.30
390.61	372.15
390.81	351.08
391.00	447.04
391.19	386.19
391.39	423.64
391.58	423.64
391.78	397.89
391.97	425.98
392.16	393.21
392.36	369.80
392.55	418.96
392.75	386.19
392.94	383.85
393.13	454.06
393.33	416.62
393.52	393.21
393.71	435.34
393.91	411.93
394.10	414.27
394.29	430.66
394.49	440.02
394.68	433.00
394.88	386.19
395.07	447.04
395.26	383.85
395.46	374.49
395.65	395.55
395.84	416.62
396.04	449.38
396.23	461.09
396.42	444.70
396.62	362.78
396.81	383.85
397.00	393.21
397.19	418.96
397.39	388.53
397.58	454.06
397.77	294.91
397.97	376.83
398.16	416.62
398.35	383.85
398.55	454.06
398.74	409.59
398.93	381.51
399.12	447.04
399.32	416.62
399.51	416.62
399.70	482.15
399.90	411.93
400.09	444.70
400.28	433.00
400.47	409.59
400.67	407.25
400.86	355.76
401.05	418.96
401.24	404.91
401.44	395.55
401.63	381.51
401.82	409.59
402.01	360.44
402.21	425.98
402.40	400.23
402.59	395.55
402.78	416.62
402.97	393.21
403.17	395.55
403.36	360.44
403.55	404.91
403.74	423.64
403.93	449.38
404.13	454.06
404.32	386.19
404.51	477.47
404.70	440.02
404.89	468.11
405.09	440.02
405.28	423.64
405.47	339.38
405.66	454.06
405.85	435.34
406.05	379.17
406.24	479.81
406.43	376.83
406.62	447.04
406.81	358.10
407.00	442.36
407.20	388.53
407.39	440.02
407.58	376.83
407.77	428.32
407.96	433.00
408.15	374.49
408.34	430.66
408.54	386.19
408.73	404.91
408.92	463.43
409.11	383.85
409.30	437.68
409.49	456.40
409.68	440.02
409.87	351.08
410.07	428.32
410.26	407.25
410.45	404.91
410.64	463.43
410.83	442.36
411.02	444.70
411.21	404.91
411.40	468.11
411.59	475.13
411.78	362.78
411.98	430.66
412.17	376.83
412.36	425.98
412.55	451.72
412.74	461.09
412.93	496.19
413.12	447.04
413.31	479.81
413.50	482.15
413.69	489.17
413.88	484.49
414.07	386.19
414.26	386.19
414.45	425.98
414.64	428.32
414.83	409.59
415.02	421.30
415.22	533.64
415.41	447.04
415.60	411.93
415.79	402.57
415.98	479.81
416.17	414.27
416.36	421.30
416.55	454.06
416.74	322.99
416.93	463.43
417.12	386.19
417.31	362.78
417.50	418.96
417.69	496.19
417.88	379.17
418.07	390.87
418.26	458.74
418.45	437.68
418.64	454.06
418.83	322.99
419.02	353.42
419.21	397.89
419.39	395.55
419.58	404.91
419.77	404.91
419.96	447.04
420.15	451.72
420.34	442.36
420.53	465.77
420.72	381.51
420.91	442.36
421.10	454.06
421.29	430.66
421.48	393.21
421.67	381.51
421.86	421.30
422.05	444.70
422.24	388.53
422.43	463.43
422.61	388.53
422.80	388.53
422.99	491.51
423.18	428.32
423.37	461.09
423.56	435.34
423.75	407.25
423.94	327.68
424.13	407.25
424.32	430.66
424.50	379.17
424.69	376.83
424.88	470.45
425.07	444.70
425.26	440.02
425.45	409.59
425.64	404.91
425.83	400.23
426.01	418.96
426.20	358.10
426.39	379.17
426.58	484.49
426.77	456.40
426.96	433.00
427.15	379.17
427.33	484.49
427.52	404.91
427.71	465.77
427.90	411.93
428.09	496.19
428.28	374.49
428.46	437.68
428.65	337.04
428.84	362.78
429.03	451.72
429.22	395.55
429.40	348.74
429.59	395.55
429.78	482.15
429.97	447.04
430.16	355.76
430.34	381.51
430.53	402.57
430.72	409.59
430.91	496.19
431.10	421.30
431.28	344.06
431.47	428.32
431.66	393.21
431.85	423.64
432.03	437.68
432.22	470.45
432.41	337.04
432.60	369.80
432.79	365.12
432.97	447.04
433.16	442.36
433.35	463.43
433.54	449.38
433.72	428.32
433.91	402.57
434.10	428.32
434.28	409.59
434.47	433.00
434.66	418.96
434.85	430.66
435.03	479.81
435.22	416.62
435.41	369.80
435.59	472.79
435.78	400.23
435.97	472.79
436.16	374.49
436.34	407.25
436.53	470.45
436.72	416.62
436.90	372.15
437.09	411.93
437.28	409.59
437.46	388.53
437.65	355.76
437.84	423.64
438.02	404.91
438.21	433.00
438.40	402.57
438.58	386.19
438.77	402.57
438.96	435.34
439.14	442.36
439.33	500.87
439.52	386.19
439.70	365.12
439.89	383.85
440.08	428.32
440.26	444.70
440.45	407.25
440.63	411.93
440.82	449.38
441.01	433.00
441.19	372.15
441.38	428.32
441.57	444.70
441.75	444.70
441.94	444.70
442.12	409.59
442.31	475.13
442.50	411.93
442.68	435.34
442.87	386.19
443.05	421.30
443.24	430.66
443.43	447.04
443.61	362.78
443.80	416.62
443.98	407.25
444.17	402.57
444.35	428.32
444.54	372.15
444.73	433.00
444.91	456.40
445.10	444.70
445.28	374.49
445.47	440.02
445.65	369.80
445.84	421.30
446.02	362.78
446.21	451.72
446.39	407.25
446.58	433.00
446.77	390.87
446.95	493.85
447.14	407.25
447.32	463.43
447.51	416.62
447.69	351.08
447.88	390.87
448.06	435.34
448.25	470.45
448.43	451.72
448.62	425.98
448.80	428.32
448.99	423.64
449.17	435.34
449.36	386.19
449.54	414.27
449.73	463.43
449.91	393.21
450.10	435.34
450.28	498.53
450.46	503.22
450.65	411.93
450.83	381.51
451.02	395.55
451.20	397.89
451.39	418.96
451.57	388.53
451.76	372.15
451.94	402.57
452.13	477.47
452.31	437.68
452.49	435.34
452.68	393.21
452.86	397.89
453.05	390.87
453.23	409.59
453.42	416.62
453.60	400.23
453.78	447.04
453.97	435.34
454.15	416.62
454.34	395.55
454.52	423.64
454.70	437.68
454.89	411.93
455.07	348.74
455.26	386.19
455.44	433.00
455.62	477.47
455.81	456.40
455.99	505.56
456.17	404.91
456.36	440.02
456.54	456.40
456.73	379.17
456.91	376.83
457.09	458.74
457.28	400.23
457.46	425.98
457.64	463.43
457.83	433.00
458.01	386.19
458.19	374.49
458.38	402.57
458.56	503.22
458.74	365.12
458.93	433.00
459.11	346.40
459.29	400.23
459.48	358.10
459.66	418.96
459.84	442.36
460.03	543.00
460.21	449.38
460.39	353.42
460.57	463.43
460.76	402.57
460.94	458.74
461.12	437.68
461.31	440.02
461.49	400.23
461.67	386.19
461.85	444.70
462.04	435.34
462.22	767.70
462.40	440.02
462.59	440.02
462.77	468.11
462.95	491.51
463.13	402.57
463.32	416.62
463.50	341.72
463.68	341.72
463.86	362.78
464.05	393.21
464.23	390.87
464.41	449.38
464.59	322.99
464.78	393.21
464.96	454.06
465.14	383.85
465.32	447.04
465.50	447.04
465.69	425.98
465.87	360.44
466.05	402.57
466.23	421.30
466.41	388.53
466.60	421.30
466.78	414.27
466.96	407.25
467.14	433.00
467.32	477.47
467.51	411.93
467.69	435.34
467.87	444.70
468.05	430.66
468.23	421.30
468.41	407.25
468.60	344.06
468.78	437.68
468.96	421.30
469.14	468.11
469.32	372.15
469.50	421.30
469.69	430.66
469.87	397.89
470.05	409.59
470.23	447.04
470.41	344.06
470.59	421.30
470.77	449.38
470.95	393.21
471.14	423.64
471.32	407.25
471.50	465.77
471.68	421.30
471.86	444.70
472.04	430.66
472.22	435.34
472.40	404.91
472.58	372.15
472.77	397.89
472.95	437.68
473.13	414.27
473.31	407.25
473.49	381.51
473.67	367.46
473.85	402.57
474.03	461.09
474.21	428.32
474.39	512.58
474.57	461.09
474.75	395.55
474.93	351.08
475.12	449.38
475.30	430.66
475.48	423.64
475.66	468.11
475.84	411.93
476.02	404.91
476.20	486.83
476.38	404.91
476.56	395.55
476.74	402.57
476.92	449.38
477.10	449.38
477.28	425.98
477.46	489.17
477.64	454.06
477.82	395.55
478.00	440.02
478.18	430.66
478.36	400.23
478.54	397.89
478.72	383.85
478.90	447.04
479.08	372.15
479.26	444.70
479.44	416.62
479.62	390.87
479.80	437.68
479.98	458.74
480.16	437.68
480.34	449.38
480.52	327.68
480.70	374.49
480.88	411.93
481.06	365.12
481.24	346.40
481.41	435.34
481.59	437.68
481.77	456.40
481.95	404.91
482.13	416.62
482.31	447.04
482.49	367.46
482.67	470.45
482.85	463.43
483.03	337.04
483.21	372.15
483.39	428.32
483.57	449.38
483.74	451.72
483.92	475.13
484.10	421.30
484.28	468.11
484.46	454.06
484.64	484.49
484.82	388.53
485.00	409.59
485.18	440.02
485.35	376.83
485.53	355.76
485.71	407.25
485.89	351.08
486.07	374.49
486.25	369.80
486.43	437.68
486.61	404.91
486.78	428.32
486.96	407.25
487.14	430.66
487.32	435.34
487.50	397.89
487.68	451.72
487.85	430.66
488.03	430.66
488.21	418.96
488.39	416.62
488.57	397.89
488.75	397.89
488.92	505.56
489.10	369.80
489.28	442.36
489.46	414.27
489.64	470.45
489.81	407.25
489.99	435.34
490.17	416.62
490.35	491.51
490.53	386.19
490.70	442.36
490.88	470.45
491.06	423.64
491.24	477.47
491.41	449.38
491.59	388.53
491.77	449.38
491.95	325.33
492.13	416.62
492.30	411.93
492.48	479.81
492.66	411.93
492.84	440.02
493.01	337.04
493.19	409.59
493.37	458.74
493.54	451.72
493.72	414.27
493.90	444.70
494.08	344.06
494.25	395.55
494.43	425.98
494.61	379.17
494.79	411.93
494.96	451.72
495.14	425.98
495.32	393.21
495.49	365.12
495.67	395.55
495.85	386.19
496.02	388.53
496.20	400.23
496.38	465.77
496.55	421.30
496.73	411.93
496.91	341.72
497.09	402.57
497.26	454.06
497.44	353.42
497.62	376.83
497.79	390.87
497.97	374.49
498.14	444.70
498.32	449.38
498.50	381.51
498.67	395.55
498.85	418.96
499.03	362.78
499.20	400.23
499.38	442.36
499.56	414.27
499.73	444.70
499.91	435.34
500.08	468.11
500.26	430.66
500.44	379.17
500.61	390.87
500.79	451.72
500.97	379.17
501.14	360.44
501.32	376.83
501.49	430.66
501.67	402.57
501.84	433.00
502.02	430.66
502.20	472.79
502.37	435.34
502.55	386.19
502.72	465.77
502.90	376.83
503.07	383.85
503.25	411.93
503.43	360.44
503.60	381.51
503.78	365.12
503.95	400.23
504.13	393.21
504.30	437.68
504.48	433.00
504.65	500.87
504.83	414.27
505.01	383.85
505.18	470.45
505.36	341.72
505.53	414.27
505.71	379.17
505.88	404.91
506.06	440.02
506.23	468.11
506.41	482.15
506.58	379.17
506.76	444.70
506.93	491.51
507.11	430.66
507.28	428.32
507.46	400.23
507.63	444.70
507.81	482.15
507.98	414.27
508.16	447.04
508.33	390.87
508.50	407.25
508.68	423.64
508.85	395.55
509.03	444.70
509.20	409.59
509.38	472.79
509.55	440.02
509.73	517.26
509.90	486.83
510.08	374.49
510.25	416.62
510.42	400.23
510.60	514.92
510.77	388.53
510.95	435.34
511.12	421.30
511.30	447.04
511.47	451.72
511.64	517.26
511.82	421.30
511.99	386.19
512.17	414.27
512.34	397.89
512.51	374.49
512.69	393.21
512.86	454.06
513.04	400.23
513.21	416.62
513.38	437.68
513.56	458.74
513.73	454.06
513.90	379.17
514.08	379.17
514.25	479.81
514.43	409.59
514.60	388.53
514.77	437.68
514.95	388.53
515.12	374.49
515.29	416.62
515.47	409.59
515.64	360.44
515.81	425.98
515.99	425.98
516.16	400.23
516.33	397.89
516.51	404.91
516.68	472.79
516.85	346.40
517.03	433.00
517.20	468.11
517.37	444.70
517.54	456.40
517.72	395.55
517.89	386.19
518.06	451.72
518.24	437.68
518.41	379.17
518.58	402.57
518.75	489.17
518.93	416.62
519.10	320.65
519.27	395.55
519.45	402.57
519.62	435.34
519.79	470.45
519.96	376.83
520.14	430.66
520.31	463.43
520.48	449.38
520.65	440.02
520.83	355.76
521.00	475.13
521.17	454.06
521.34	489.17
521.52	409.59
521.69	435.34
521.86	486.83
522.03	435.34
522.20	421.30
522.38	376.83
522.55	414.27
522.72	409.59
522.89	423.64
523.07	477.47
523.24	430.66
523.41	390.87
523.58	341.72
523.75	425.98
523.92	386.19
524.10	461.09
524.27	388.53
524.44	435.34
524.61	465.77
524.78	461.09
524.96	376.83
525.13	381.51
525.30	461.09
525.47	477.47
525.64	449.38
525.81	407.25
525.98	379.17
526.16	524.28
526.33	477.47
526.50	442.36
526.67	463.43
526.84	383.85
527.01	360.44
527.18	456.40
527.36	454.06
527.53	416.62
527.70	421.30
527.87	425.98
528.04	465.77
528.21	414.27
528.38	374.49
528.55	493.85
528.72	379.17
528.89	440.02
529.07	416.62
529.24	416.62
529.41	510.24
529.58	430.66
529.75	388.53
529.92	414.27
530.09	421.30
530.26	491.51
530.43	425.98
530.60	451.72
530.77	407.25
530.94	386.19
531.11	468.11
531.28	355.76
531.46	456.40
531.63	421.30
531.80	407.25
531.97	425.98
532.14	456.40
532.31	428.32
532.48	390.87
532.65	437.68
532.82	421.30
532.99	449.38
533.16	379.17
533.33	423.64
533.50	454.06
533.67	386.19
533.84	470.45
534.01	407.25
534.18	390.87
534.35	374.49
534.52	365.12
534.69	381.51
534.86	416.62
535.03	407.25
535.20	360.44
535.37	521.94
535.54	435.34
535.71	458.74
535.88	477.47
536.05	444.70
536.22	400.23
536.38	334.70
536.55	372.15
536.72	456.40
536.89	418.96
537.06	435.34
537.23	397.89
537.40	416.62
537.57	393.21
537.74	440.02
537.91	353.42
538.08	334.70
538.25	442.36
538.42	390.87
538.59	393.21
538.75	435.34
538.92	479.81
539.09	402.57
539.26	435.34
539.43	409.59
539.60	409.59
539.77	447.04
539.94	390.87
540.11	505.56
540.28	418.96
540.44	430.66
540.61	362.78
540.78	468.11
540.95	367.46
541.12	514.92
541.29	430.66
541.46	465.77
541.62	409.59
541.79	418.96
541.96	421.30
542.13	381.51
542.30	416.62
542.47	484.49
542.63	379.17
542.80	362.78
542.97	425.98
543.14	362.78
543.31	442.36
543.48	437.68
543.64	442.36
543.81	372.15
543.98	465.77
544.15	372.15
544.32	381.51
544.48	386.19
544.65	376.83
544.82	421.30
544.99	351.08
545.16	486.83
545.32	362.78
545.49	409.59
545.66	367.46
545.83	489.17
546.00	393.21
546.16	381.51
546.33	461.09
546.50	479.81
546.67	468.11
546.83	421.30
547.00	381.51
547.17	423.64
547.34	444.70
547.50	454.06
547.67	388.53
547.84	372.15
548.00	346.40
548.17	409.59
548.34	381.51
548.51	472.79
548.67	442.36
548.84	381.51
549.01	395.55
549.18	407.25
549.34	344.06
549.51	472.79
549.68	451.72
549.84	414.27
550.01	437.68
550.18	519.60
550.34	472.79
550.51	496.19
550.68	500.87
550.84	367.46
551.01	369.80
551.18	430.66
551.34	449.38
551.51	409.59
551.68	423.64
551.84	393.21
552.01	341.72
552.18	400.23
552.34	440.02
552.51	421.30
552.68	414.27
552.84	372.15
553.01	430.66
553.18	428.32
553.34	486.83
553.51	367.46
553.67	451.72
553.84	491.51
554.01	313.63
554.17	388.53
554.34	390.87
554.51	451.72
554.67	383.85
554.84	346.40
555.00	461.09
555.17	451.72
555.33	430.66
555.50	454.06
555.67	369.80
555.83	444.70
556.00	372.15
556.16	533.64
556.33	482.15
556.50	376.83
556.66	442.36
556.83	456.40
556.99	418.96
557.16	414.27
557.32	374.49
557.49	360.44
557.65	428.32
557.82	362.78
557.98	430.66
558.15	386.19
558.32	360.44
558.48	425.98
558.65	430.66
558.81	404.91
558.98	472.79
559.14	435.34
559.31	440.02
559.47	388.53
559.64	379.17
559.80	425.98
559.97	451.72
560.13	442.36
560.30	411.93
560.46	470.45
560.63	414.27
560.79	400.23
560.96	351.08
561.12	374.49
561.29	461.09
561.45	489.17
561.61	407.25
561.78	505.56
561.94	388.53
562.11	503.22
562.27	411.93
562.44	372.15
562.60	433.00
562.77	456.40
562.93	440.02
563.10	461.09
563.26	472.79
563.42	458.74
563.59	451.72
563.75	500.87
563.92	447.04
564.08	437.68
564.24	465.77
564.41	428.32
564.57	411.93
564.74	414.27
564.90	449.38
565.07	435.34
565.23	435.34
565.39	491.51
565.56	437.68
565.72	411.93
565.88	456.40
566.05	437.68
566.21	440.02
566.38	407.25
566.54	447.04
566.70	454.06
566.87	386.19
567.03	456.40
567.19	369.80
567.36	428.32
567.52	379.17
567.68	411.93
567.85	393.21
568.01	365.12
568.17	386.19
568.34	463.43
568.50	425.98
568.66	390.87
568.83	489.17
568.99	358.10
569.15	369.80
569.32	367.46
569.48	322.99
569.64	493.85
569.81	400.23
569.97	346.40
570.13	425.98
570.30	421.30
570.46	409.59
570.62	461.09
570.78	440.02
570.95	372.15
571.11	430.66
571.27	449.38
571.43	416.62
571.60	344.06
571.76	456.40
571.92	447.04
572.09	421.30
572.25	365.12
572.41	447.04
572.57	404.91
572.74	477.47
572.90	400.23
573.06	423.64
573.22	503.22
573.38	444.70
573.55	414.27
573.71	416.62
573.87	456.40
574.03	332.36
574.20	458.74
574.36	430.66
574.52	442.36
574.68	425.98
574.84	430.66
575.01	468.11
575.17	442.36
575.33	447.04
575.49	430.66
575.65	454.06
575.82	358.10
575.98	355.76
576.14	416.62
576.30	351.08
576.46	393.21
576.62	365.12
576.79	468.11
576.95	456.40
577.11	374.49
577.27	411.93
577.43	444.70
577.59	435.34
577.75	461.09
577.92	440.02
578.08	440.02
578.24	367.46
578.40	451.72
578.56	393.21
578.72	444.70
578.88	444.70
579.04	428.32
579.21	465.77
579.37	451.72
579.53	437.68
579.69	437.68
579.85	463.43
580.01	433.00
580.17	421.30
580.33	442.36
580.49	341.72
580.65	500.87
580.82	374.49
580.98	383.85
581.14	411.93
581.30	404.91
581.46	407.25
581.62	468.11
581.78	414.27
581.94	477.47
582.10	430.66
582.26	442.36
582.42	383.85
582.58	402.57
582.74	369.80
582.90	355.76
583.06	395.55
583.22	383.85
583.38	346.40
583.54	409.59
583.70	484.49
583.86	374.49
584.02	416.62
584.18	416.62
584.34	404.91
584.50	425.98
584.66	449.38
584.82	383.85
584.98	433.00
585.14	491.51
585.30	482.15
585.46	407.25
585.62	367.46
585.78	449.38
585.94	475.13
586.10	348.74
586.26	372.15
586.42	454.06
586.58	496.19
586.74	386.19
586.90	393.21
587.06	376.83
587.22	461.09
587.38	414.27
587.54	451.72
587.70	435.34
587.86	449.38
588.02	386.19
588.18	470.45
588.34	447.04
588.49	388.53
588.65	437.68
588.81	423.64
588.97	388.53
589.13	451.72
589.29	390.87
589.45	388.53
589.61	374.49
589.77	526.62
589.93	414.27
590.08	388.53
590.24	383.85
590.40	437.68
590.56	374.49
590.72	372.15
590.88	423.64
591.04	428.32
591.20	376.83
591.35	407.25
591.51	444.70
591.67	395.55
591.83	444.70
591.99	475.13
592.15	416.62
592.31	449.38
592.46	458.74
592.62	435.34
592.78	447.04
592.94	395.55
593.10	447.04
593.26	416.62
593.41	475.13
593.57	437.68
593.73	423.64
593.89	381.51
594.05	383.85
594.20	334.70
594.36	425.98
594.52	423.64
594.68	360.44
594.84	407.25
594.99	437.68
595.15	465.77
595.31	353.42
595.47	409.59
595.62	463.43
595.78	376.83
595.94	451.72
596.10	423.64
596.25	414.27
596.41	435.34
596.57	334.70
596.73	418.96
596.88	479.81
597.04	421.30
597.20	458.74
597.36	381.51
597.51	390.87
597.67	418.96
597.83	430.66
597.99	374.49
598.14	386.19
598.30	444.70
598.46	411.93
598.61	470.45
598.77	374.49
598.93	482.15
599.09	362.78
599.24	414.27
599.40	479.81
599.56	414.27
599.71	454.06
599.87	400.23
600.03	465.77
600.18	449.38
600.34	351.08
600.50	407.25
600.65	465.77
600.81	463.43
600.97	374.49
601.12	337.04
601.28	407.25
601.44	416.62
601.59	393.21
601.75	433.00
601.91	355.76
602.06	451.72
602.22	479.81
602.37	418.96
602.53	430.66
602.69	472.79
602.84	458.74
603.00	397.89
603.16	428.32
603.31	421.30
603.47	437.68
603.62	411.93
603.78	435.34
603.94	440.02
604.09	437.68
604.25	351.08
604.40	423.64
604.56	416.62
604.71	430.66
604.87	390.87
605.03	425.98
605.18	421.30
605.34	430.66
605.49	369.80
605.65	376.83
605.80	397.89
605.96	362.78
606.12	465.77
606.27	458.74
606.43	383.85
606.58	461.09
606.74	404.91
606.89	418.96
607.05	409.59
607.20	369.80
607.36	470.45
607.51	428.32
607.67	444.70
607.82	339.38
607.98	386.19
608.13	411.93
608.29	325.33
608.44	484.49
608.60	440.02
608.75	421.30
608.91	493.85
609.06	489.17
609.22	479.81
609.37	395.55
609.53	400.23
609.68	393.21
609.84	454.06
609.99	463.43
610.15	421.30
