SpectraSuite Data File
++++++++++++++++++++++++++++++++++++
Date: Fri Oct 25 12:11:13 EDT 2013
User: price-jones
Dark Spectrum Present: No
Reference Spectrum Present: No
Number of Sampled Component Spectra: 1
Spectrometers: USB2+H05261
Integration Time (usec): 100000 (USB2+H05261)
Spectra Averaged: 1 (USB2+H05261)
Boxcar Smoothing: 0 (USB2+H05261)
Correct for Electrical Dark: No (USB2+H05261)
Strobe/Lamp Enabled: No (USB2+H05261)
Correct for Detector Non-linearity: No (USB2+H05261)
Correct for Stray Light: No (USB2+H05261)
Number of Pixels in Processed Spectrum: 2048
>>>>>Begin Processed Spectral Data<<<<<
365.73	360.44
365.92	360.44
366.12	360.44
366.32	280.86
366.52	217.67
366.72	327.68
366.91	217.67
367.11	257.46
367.31	271.50
367.51	229.37
367.70	271.50
367.90	255.12
368.10	262.14
368.30	194.26
368.49	198.95
368.69	276.18
368.89	210.65
369.09	184.90
369.28	304.27
369.48	311.29
369.68	304.27
369.87	278.52
370.07	290.23
370.27	332.36
370.47	351.08
370.66	264.48
370.86	442.36
371.06	353.42
371.25	435.34
371.45	276.18
371.65	414.27
371.84	388.53
372.04	369.80
372.24	344.06
372.44	397.89
372.63	369.80
372.83	409.59
373.03	381.51
373.22	423.64
373.42	362.78
373.62	376.83
373.81	425.98
374.01	428.32
374.21	397.89
374.40	400.23
374.60	390.87
374.79	433.00
374.99	388.53
375.19	440.02
375.38	451.72
375.58	447.04
375.78	416.62
375.97	475.13
376.17	411.93
376.37	390.87
376.56	423.64
376.76	372.15
376.95	437.68
377.15	402.57
377.35	440.02
377.54	388.53
377.74	418.96
377.93	475.13
378.13	386.19
378.33	402.57
378.52	304.27
378.72	367.46
378.91	414.27
379.11	390.87
379.31	367.46
379.50	376.83
379.70	423.64
379.89	418.96
380.09	400.23
380.28	379.17
380.48	458.74
380.68	388.53
380.87	376.83
381.07	404.91
381.26	437.68
381.46	407.25
381.65	395.55
381.85	390.87
382.04	362.78
382.24	435.34
382.43	423.64
382.63	346.40
382.83	355.76
383.02	421.30
383.22	411.93
383.41	386.19
383.61	496.19
383.80	454.06
384.00	475.13
384.19	397.89
384.39	409.59
384.58	430.66
384.78	411.93
384.97	362.78
385.17	374.49
385.36	449.38
385.56	447.04
385.75	414.27
385.95	381.51
386.14	447.04
386.34	397.89
386.53	383.85
386.72	409.59
386.92	475.13
387.11	400.23
387.31	425.98
387.50	428.32
387.70	407.25
387.89	374.49
388.09	409.59
388.28	386.19
388.48	402.57
388.67	395.55
388.86	360.44
389.06	442.36
389.25	440.02
389.45	372.15
389.64	409.59
389.84	411.93
390.03	355.76
390.22	374.49
390.42	369.80
390.61	355.76
390.81	456.40
391.00	451.72
391.19	388.53
391.39	409.59
391.58	435.34
391.78	404.91
391.97	437.68
392.16	456.40
392.36	379.17
392.55	433.00
392.75	409.59
392.94	400.23
393.13	365.12
393.33	402.57
393.52	372.15
393.71	465.77
393.91	454.06
394.10	435.34
394.29	381.51
394.49	383.85
394.68	449.38
394.88	463.43
395.07	444.70
395.26	365.12
395.46	423.64
395.65	465.77
395.84	451.72
396.04	435.34
396.23	444.70
396.42	402.57
396.62	414.27
396.81	397.89
397.00	423.64
397.19	353.42
397.39	458.74
397.58	351.08
397.77	435.34
397.97	358.10
398.16	416.62
398.35	411.93
398.55	393.21
398.74	442.36
398.93	440.02
399.12	416.62
399.32	365.12
399.51	468.11
399.70	393.21
399.90	407.25
400.09	423.64
400.28	393.21
400.47	376.83
400.67	344.06
400.86	440.02
401.05	369.80
401.24	440.02
401.44	437.68
401.63	393.21
401.82	390.87
402.01	332.36
402.21	421.30
402.40	383.85
402.59	353.42
402.78	395.55
402.97	376.83
403.17	362.78
403.36	390.87
403.55	369.80
403.74	374.49
403.93	425.98
404.13	449.38
404.32	383.85
404.51	348.74
404.70	463.43
404.89	337.04
405.09	454.06
405.28	437.68
405.47	409.59
405.66	456.40
405.85	437.68
406.05	393.21
406.24	430.66
406.43	407.25
406.62	404.91
406.81	463.43
407.00	409.59
407.20	397.89
407.39	440.02
407.58	400.23
407.77	447.04
407.96	397.89
408.15	344.06
408.34	468.11
408.54	390.87
408.73	362.78
408.92	379.17
409.11	454.06
409.30	430.66
409.49	393.21
409.68	449.38
409.87	411.93
410.07	444.70
410.26	386.19
410.45	376.83
410.64	360.44
410.83	383.85
411.02	449.38
411.21	423.64
411.40	440.02
411.59	421.30
411.78	388.53
411.98	351.08
412.17	407.25
412.36	397.89
412.55	414.27
412.74	444.70
412.93	381.51
413.12	447.04
413.31	430.66
413.50	416.62
413.69	372.15
413.88	395.55
414.07	435.34
414.26	425.98
414.45	411.93
414.64	442.36
414.83	334.70
415.02	397.89
415.22	458.74
415.41	374.49
415.60	411.93
415.79	365.12
415.98	360.44
416.17	468.11
416.36	418.96
416.55	379.17
416.74	454.06
416.93	444.70
417.12	383.85
417.31	498.53
417.50	376.83
417.69	425.98
417.88	430.66
418.07	390.87
418.26	425.98
418.45	451.72
418.64	449.38
418.83	393.21
419.02	353.42
419.21	400.23
419.39	404.91
419.58	400.23
419.77	416.62
419.96	409.59
420.15	355.76
420.34	388.53
420.53	393.21
420.72	404.91
420.91	416.62
421.10	444.70
421.29	425.98
421.48	437.68
421.67	400.23
421.86	425.98
422.05	486.83
422.24	430.66
422.43	393.21
422.61	379.17
422.80	381.51
422.99	456.40
423.18	414.27
423.37	479.81
423.56	430.66
423.75	435.34
423.94	416.62
424.13	458.74
424.32	362.78
424.50	337.04
424.69	372.15
424.88	475.13
425.07	409.59
425.26	376.83
425.45	397.89
425.64	381.51
425.83	447.04
426.01	400.23
426.20	425.98
426.39	430.66
426.58	418.96
426.77	461.09
426.96	393.21
427.15	435.34
427.33	428.32
427.52	404.91
427.71	430.66
427.90	421.30
428.09	381.51
428.28	397.89
428.46	367.46
428.65	423.64
428.84	397.89
429.03	358.10
429.22	325.33
429.40	388.53
429.59	381.51
429.78	444.70
429.97	386.19
430.16	397.89
430.34	407.25
430.53	435.34
430.72	416.62
430.91	461.09
431.10	351.08
431.28	388.53
431.47	418.96
431.66	393.21
431.85	351.08
432.03	468.11
432.22	444.70
432.41	428.32
432.60	449.38
432.79	348.74
432.97	449.38
433.16	369.80
433.35	400.23
433.54	458.74
433.72	355.76
433.91	367.46
434.10	397.89
434.28	367.46
434.47	400.23
434.66	425.98
434.85	454.06
435.03	393.21
435.22	425.98
435.41	414.27
435.59	414.27
435.78	407.25
435.97	440.02
436.16	395.55
436.34	414.27
436.53	437.68
436.72	409.59
436.90	409.59
437.09	379.17
437.28	374.49
437.46	437.68
437.65	418.96
437.84	444.70
438.02	461.09
438.21	433.00
438.40	442.36
438.58	397.89
438.77	414.27
438.96	416.62
439.14	390.87
439.33	428.32
439.52	327.68
439.70	379.17
439.89	388.53
440.08	362.78
440.26	489.17
440.45	444.70
440.63	304.27
440.82	444.70
441.01	386.19
441.19	372.15
441.38	395.55
441.57	402.57
441.75	433.00
441.94	404.91
442.12	409.59
442.31	395.55
442.50	416.62
442.68	423.64
442.87	379.17
443.05	362.78
443.24	395.55
443.43	477.47
443.61	418.96
443.80	393.21
443.98	463.43
444.17	437.68
444.35	407.25
444.54	411.93
444.73	376.83
444.91	458.74
445.10	416.62
445.28	353.42
445.47	428.32
445.65	388.53
445.84	388.53
446.02	372.15
446.21	454.06
446.39	393.21
446.58	404.91
446.77	376.83
446.95	353.42
447.14	449.38
447.32	411.93
447.51	416.62
447.69	531.30
447.88	416.62
448.06	379.17
448.25	472.79
448.43	376.83
448.62	433.00
448.80	383.85
448.99	437.68
449.17	430.66
449.36	362.78
449.54	416.62
449.73	428.32
449.91	486.83
450.10	395.55
450.28	435.34
450.46	505.56
450.65	491.51
450.83	461.09
451.02	423.64
451.20	383.85
451.39	444.70
451.57	390.87
451.76	479.81
451.94	411.93
452.13	456.40
452.31	435.34
452.49	475.13
452.68	414.27
452.86	418.96
453.05	440.02
453.23	423.64
453.42	407.25
453.60	393.21
453.78	411.93
453.97	400.23
454.15	414.27
454.34	454.06
454.52	418.96
454.70	449.38
454.89	404.91
455.07	379.17
455.26	388.53
455.44	458.74
455.62	423.64
455.81	397.89
455.99	435.34
456.17	437.68
456.36	390.87
456.54	430.66
456.73	390.87
456.91	400.23
457.09	465.77
457.28	365.12
457.46	414.27
457.64	423.64
457.83	421.30
458.01	404.91
458.19	367.46
458.38	390.87
458.56	437.68
458.74	348.74
458.93	479.81
459.11	435.34
459.29	365.12
459.48	454.06
459.66	484.49
459.84	409.59
460.03	458.74
460.21	461.09
460.39	437.68
460.57	468.11
460.76	393.21
460.94	376.83
461.12	440.02
461.31	440.02
461.49	402.57
461.67	407.25
461.85	433.00
462.04	383.85
462.22	819.19
462.40	475.13
462.59	440.02
462.77	390.87
462.95	442.36
463.13	393.21
463.32	383.85
463.50	437.68
463.68	372.15
463.86	409.59
464.05	461.09
464.23	421.30
464.41	454.06
464.59	440.02
464.78	411.93
464.96	400.23
465.14	440.02
465.32	390.87
465.50	386.19
465.69	428.32
465.87	449.38
466.05	475.13
466.23	404.91
466.41	411.93
466.60	372.15
466.78	416.62
466.96	358.10
467.14	465.77
467.32	425.98
467.51	430.66
467.69	456.40
467.87	475.13
468.05	449.38
468.23	451.72
468.41	407.25
468.60	421.30
468.78	472.79
468.96	454.06
469.14	428.32
469.32	379.17
469.50	367.46
469.69	386.19
469.87	397.89
470.05	428.32
470.23	411.93
470.41	358.10
470.59	367.46
470.77	374.49
470.95	421.30
471.14	440.02
471.32	468.11
471.50	472.79
471.68	421.30
471.86	465.77
472.04	409.59
472.22	470.45
472.40	374.49
472.58	491.51
472.77	381.51
472.95	395.55
473.13	388.53
473.31	505.56
473.49	449.38
473.67	442.36
473.85	395.55
474.03	400.23
474.21	465.77
474.39	451.72
474.57	393.21
474.75	416.62
474.93	395.55
475.12	414.27
475.30	447.04
475.48	383.85
475.66	402.57
475.84	416.62
476.02	411.93
476.20	437.68
476.38	440.02
476.56	440.02
476.74	454.06
476.92	451.72
477.10	442.36
477.28	472.79
477.46	428.32
477.64	367.46
477.82	411.93
478.00	390.87
478.18	425.98
478.36	383.85
478.54	454.06
478.72	425.98
478.90	475.13
479.08	433.00
479.26	428.32
479.44	393.21
479.62	376.83
479.80	423.64
479.98	383.85
480.16	418.96
480.34	458.74
480.52	414.27
480.70	372.15
480.88	397.89
481.06	409.59
481.24	435.34
481.41	449.38
481.59	353.42
481.77	456.40
481.95	367.46
482.13	447.04
482.31	407.25
482.49	362.78
482.67	444.70
482.85	402.57
483.03	496.19
483.21	486.83
483.39	360.44
483.57	418.96
483.74	411.93
483.92	423.64
484.10	409.59
484.28	498.53
484.46	514.92
484.64	386.19
484.82	367.46
485.00	444.70
485.18	386.19
485.35	390.87
485.53	428.32
485.71	484.49
485.89	444.70
486.07	456.40
486.25	493.85
486.43	435.34
486.61	414.27
486.78	477.47
486.96	383.85
487.14	461.09
487.32	411.93
487.50	369.80
487.68	397.89
487.85	430.66
488.03	449.38
488.21	353.42
488.39	381.51
488.57	353.42
488.75	421.30
488.92	564.07
489.10	428.32
489.28	360.44
489.46	404.91
489.64	397.89
489.81	409.59
489.99	425.98
490.17	463.43
490.35	514.92
490.53	435.34
490.70	433.00
490.88	433.00
491.06	437.68
491.24	437.68
491.41	425.98
491.59	365.12
491.77	362.78
491.95	404.91
492.13	433.00
492.30	435.34
492.48	390.87
492.66	440.02
492.84	423.64
493.01	395.55
493.19	437.68
493.37	421.30
493.54	418.96
493.72	512.58
493.90	421.30
494.08	395.55
494.25	421.30
494.43	411.93
494.61	402.57
494.79	301.93
494.96	367.46
495.14	332.36
495.32	372.15
495.49	395.55
495.67	339.38
495.85	393.21
496.02	381.51
496.20	444.70
496.38	475.13
496.55	423.64
496.73	416.62
496.91	376.83
497.09	435.34
497.26	477.47
497.44	456.40
497.62	402.57
497.79	369.80
497.97	430.66
498.14	470.45
498.32	381.51
498.50	437.68
498.67	425.98
498.85	418.96
499.03	451.72
499.20	397.89
499.38	451.72
499.56	395.55
499.73	447.04
499.91	416.62
500.08	435.34
500.26	390.87
500.44	390.87
500.61	397.89
500.79	444.70
500.97	465.77
501.14	489.17
501.32	456.40
501.49	447.04
501.67	442.36
501.84	411.93
502.02	337.04
502.20	435.34
502.37	470.45
502.55	374.49
502.72	390.87
502.90	442.36
503.07	428.32
503.25	395.55
503.43	428.32
503.60	423.64
503.78	514.92
503.95	360.44
504.13	365.12
504.30	425.98
504.48	358.10
504.65	337.04
504.83	491.51
505.01	365.12
505.18	435.34
505.36	423.64
505.53	353.42
505.71	451.72
505.88	451.72
506.06	381.51
506.23	409.59
506.41	425.98
506.58	409.59
506.76	418.96
506.93	442.36
507.11	435.34
507.28	362.78
507.46	393.21
507.63	451.72
507.81	369.80
507.98	397.89
508.16	447.04
508.33	423.64
508.50	472.79
508.68	395.55
508.85	456.40
509.03	390.87
509.20	437.68
509.38	404.91
509.55	418.96
509.73	444.70
509.90	428.32
510.08	423.64
510.25	428.32
510.42	442.36
510.60	386.19
510.77	421.30
510.95	374.49
511.12	425.98
511.30	440.02
511.47	411.93
511.64	400.23
511.82	449.38
511.99	423.64
512.17	454.06
512.34	440.02
512.51	407.25
512.69	402.57
512.86	498.53
513.04	416.62
513.21	465.77
513.38	313.63
513.56	428.32
513.73	477.47
513.90	449.38
514.08	390.87
514.25	423.64
514.43	369.80
514.60	379.17
514.77	418.96
514.95	444.70
515.12	404.91
515.29	454.06
515.47	435.34
515.64	402.57
515.81	304.27
515.99	388.53
516.16	428.32
516.33	381.51
516.51	395.55
516.68	386.19
516.85	449.38
517.03	428.32
517.20	475.13
517.37	418.96
517.54	402.57
517.72	379.17
517.89	393.21
518.06	421.30
518.24	521.94
518.41	491.51
518.58	372.15
518.75	390.87
518.93	362.78
519.10	428.32
519.27	362.78
519.45	442.36
519.62	390.87
519.79	440.02
519.96	454.06
520.14	395.55
520.31	421.30
520.48	390.87
520.65	416.62
520.83	414.27
521.00	409.59
521.17	440.02
521.34	512.58
521.52	423.64
521.69	418.96
521.86	383.85
522.03	383.85
522.20	388.53
522.38	533.64
522.55	454.06
522.72	301.93
522.89	397.89
523.07	468.11
523.24	477.47
523.41	430.66
523.58	451.72
523.75	407.25
523.92	386.19
524.10	442.36
524.27	416.62
524.44	423.64
524.61	454.06
524.78	440.02
524.96	503.22
525.13	397.89
525.30	358.10
525.47	402.57
525.64	416.62
525.81	470.45
525.98	456.40
526.16	409.59
526.33	430.66
526.50	447.04
526.67	418.96
526.84	421.30
527.01	451.72
527.18	447.04
527.36	374.49
527.53	400.23
527.70	451.72
527.87	468.11
528.04	379.17
528.21	414.27
528.38	470.45
528.55	423.64
528.72	454.06
528.89	489.17
529.07	409.59
529.24	425.98
529.41	489.17
529.58	465.77
529.75	400.23
529.92	421.30
530.09	425.98
530.26	496.19
530.43	376.83
530.60	433.00
530.77	440.02
530.94	379.17
531.11	379.17
531.28	390.87
531.46	425.98
531.63	404.91
531.80	425.98
531.97	376.83
532.14	414.27
532.31	451.72
532.48	348.74
532.65	463.43
532.82	437.68
532.99	386.19
533.16	386.19
533.33	416.62
533.50	409.59
533.67	418.96
533.84	402.57
534.01	381.51
534.18	332.36
534.35	428.32
534.52	491.51
534.69	461.09
534.86	479.81
535.03	447.04
535.20	454.06
535.37	397.89
535.54	477.47
535.71	475.13
535.88	390.87
536.05	315.97
536.22	393.21
536.38	449.38
536.55	444.70
536.72	402.57
536.89	400.23
537.06	425.98
537.23	395.55
537.40	442.36
537.57	411.93
537.74	470.45
537.91	430.66
538.08	442.36
538.25	428.32
538.42	402.57
538.59	479.81
538.75	430.66
538.92	421.30
539.09	447.04
539.26	369.80
539.43	421.30
539.60	351.08
539.77	358.10
539.94	355.76
540.11	430.66
540.28	451.72
540.44	454.06
540.61	421.30
540.78	449.38
540.95	425.98
541.12	465.77
541.29	435.34
541.46	482.15
541.62	416.62
541.79	365.12
541.96	376.83
542.13	428.32
542.30	393.21
542.47	458.74
542.63	414.27
542.80	425.98
542.97	404.91
543.14	447.04
543.31	484.49
543.48	414.27
543.64	442.36
543.81	475.13
543.98	423.64
544.15	402.57
544.32	411.93
544.48	414.27
544.65	383.85
544.82	388.53
544.99	411.93
545.16	437.68
545.32	393.21
545.49	472.79
545.66	519.60
545.83	383.85
546.00	365.12
546.16	416.62
546.33	393.21
546.50	440.02
546.67	414.27
546.83	463.43
547.00	440.02
547.17	433.00
547.34	430.66
547.50	440.02
547.67	444.70
547.84	461.09
548.00	442.36
548.17	411.93
548.34	435.34
548.51	454.06
548.67	425.98
548.84	369.80
549.01	407.25
549.18	472.79
549.34	395.55
549.51	510.24
549.68	423.64
549.84	414.27
550.01	313.63
550.18	440.02
550.34	507.90
550.51	411.93
550.68	482.15
550.84	409.59
551.01	449.38
551.18	470.45
551.34	369.80
551.51	390.87
551.68	404.91
551.84	433.00
552.01	451.72
552.18	461.09
552.34	365.12
552.51	435.34
552.68	444.70
552.84	458.74
553.01	416.62
553.18	393.21
553.34	404.91
553.51	437.68
553.67	383.85
553.84	437.68
554.01	479.81
554.17	493.85
554.34	404.91
554.51	411.93
554.67	493.85
554.84	468.11
555.00	444.70
555.17	461.09
555.33	496.19
555.50	442.36
555.67	475.13
555.83	475.13
556.00	367.46
556.16	451.72
556.33	454.06
556.50	367.46
556.66	465.77
556.83	486.83
556.99	386.19
557.16	395.55
557.32	372.15
557.49	390.87
557.65	510.24
557.82	365.12
557.98	402.57
558.15	416.62
558.32	393.21
558.48	425.98
558.65	472.79
558.81	423.64
558.98	348.74
559.14	430.66
559.31	433.00
559.47	444.70
559.64	433.00
559.80	379.17
559.97	409.59
560.13	456.40
560.30	440.02
560.46	449.38
560.63	390.87
560.79	423.64
560.96	437.68
561.12	435.34
561.29	437.68
561.45	334.70
561.61	409.59
561.78	444.70
561.94	463.43
562.11	437.68
562.27	433.00
562.44	428.32
562.60	327.68
562.77	390.87
562.93	477.47
563.10	458.74
563.26	423.64
563.42	390.87
563.59	337.04
563.75	421.30
563.92	535.98
564.08	395.55
564.24	472.79
564.41	479.81
564.57	393.21
564.74	407.25
564.90	418.96
565.07	472.79
565.23	425.98
565.39	372.15
565.56	397.89
565.72	428.32
565.88	456.40
566.05	358.10
566.21	369.80
566.38	425.98
566.54	404.91
566.70	411.93
566.87	395.55
567.03	433.00
567.19	425.98
567.36	407.25
567.52	416.62
567.68	472.79
567.85	482.15
568.01	456.40
568.17	430.66
568.34	423.64
568.50	397.89
568.66	402.57
568.83	528.96
568.99	428.32
569.15	463.43
569.32	440.02
569.48	437.68
569.64	400.23
569.81	458.74
569.97	404.91
570.13	435.34
570.30	411.93
570.46	339.38
570.62	442.36
570.78	475.13
570.95	404.91
571.11	486.83
571.27	442.36
571.43	449.38
571.60	425.98
571.76	369.80
571.92	407.25
572.09	393.21
572.25	386.19
572.41	351.08
572.57	393.21
572.74	458.74
572.90	468.11
573.06	447.04
573.22	379.17
573.38	341.72
573.55	479.81
573.71	376.83
573.87	454.06
574.03	418.96
574.20	423.64
574.36	388.53
574.52	465.77
574.68	418.96
574.84	500.87
575.01	376.83
575.17	475.13
575.33	456.40
575.49	451.72
575.65	475.13
575.82	393.21
575.98	416.62
576.14	475.13
576.30	428.32
576.46	454.06
576.62	449.38
576.79	468.11
576.95	444.70
577.11	395.55
577.27	428.32
577.43	390.87
577.59	468.11
577.75	437.68
577.92	379.17
578.08	440.02
578.24	411.93
578.40	369.80
578.56	449.38
578.72	449.38
578.88	461.09
579.04	372.15
579.21	388.53
579.37	362.78
579.53	374.49
579.69	451.72
579.85	351.08
580.01	404.91
580.17	465.77
580.33	433.00
580.49	428.32
580.65	484.49
580.82	430.66
580.98	402.57
581.14	386.19
581.30	519.60
581.46	465.77
581.62	404.91
581.78	407.25
581.94	444.70
582.10	409.59
582.26	393.21
582.42	409.59
582.58	315.97
582.74	475.13
582.90	409.59
583.06	468.11
583.22	353.42
583.38	339.38
583.54	411.93
583.70	444.70
583.86	414.27
584.02	456.40
584.18	428.32
584.34	444.70
584.50	458.74
584.66	386.19
584.82	351.08
584.98	353.42
585.14	393.21
585.30	411.93
585.46	341.72
585.62	411.93
585.78	369.80
585.94	381.51
586.10	348.74
586.26	411.93
586.42	451.72
586.58	411.93
586.74	416.62
586.90	334.70
587.06	374.49
587.22	337.04
587.38	418.96
587.54	390.87
587.70	454.06
587.86	393.21
588.02	376.83
588.18	444.70
588.34	386.19
588.49	390.87
588.65	386.19
588.81	381.51
588.97	444.70
589.13	411.93
589.29	409.59
589.45	435.34
589.61	451.72
589.77	435.34
589.93	430.66
590.08	425.98
590.24	388.53
590.40	358.10
590.56	423.64
590.72	393.21
590.88	428.32
591.04	402.57
591.20	379.17
591.35	451.72
591.51	372.15
591.67	449.38
591.83	402.57
591.99	430.66
592.15	465.77
592.31	381.51
592.46	425.98
592.62	472.79
592.78	423.64
592.94	428.32
593.10	416.62
593.26	381.51
593.41	390.87
593.57	369.80
593.73	358.10
593.89	430.66
594.05	376.83
594.20	400.23
594.36	437.68
594.52	367.46
594.68	475.13
594.84	458.74
594.99	437.68
595.15	358.10
595.31	440.02
595.47	472.79
595.62	390.87
595.78	461.09
595.94	418.96
596.10	383.85
596.25	409.59
596.41	346.40
596.57	353.42
596.73	386.19
596.88	407.25
597.04	435.34
597.20	365.12
597.36	461.09
597.51	484.49
597.67	425.98
597.83	484.49
597.99	519.60
598.14	507.90
598.30	421.30
598.46	444.70
598.61	461.09
598.77	411.93
598.93	451.72
599.09	416.62
599.24	416.62
599.40	421.30
599.56	482.15
599.71	386.19
599.87	521.94
600.03	477.47
600.18	334.70
600.34	437.68
600.50	416.62
600.65	454.06
600.81	440.02
600.97	407.25
601.12	472.79
601.28	423.64
601.44	454.06
601.59	454.06
601.75	444.70
601.91	435.34
602.06	461.09
602.22	437.68
602.37	449.38
602.53	423.64
602.69	447.04
602.84	425.98
603.00	393.21
603.16	458.74
603.31	440.02
603.47	362.78
603.62	411.93
603.78	402.57
603.94	463.43
604.09	388.53
604.25	365.12
604.40	454.06
604.56	430.66
604.71	428.32
604.87	358.10
605.03	348.74
605.18	414.27
605.34	500.87
605.49	435.34
605.65	379.17
605.80	440.02
605.96	409.59
606.12	444.70
606.27	416.62
606.43	353.42
606.58	479.81
606.74	482.15
606.89	379.17
607.05	461.09
607.20	472.79
607.36	512.58
607.51	372.15
607.67	500.87
607.82	367.46
607.98	388.53
608.13	440.02
608.29	435.34
608.44	535.98
608.60	341.72
608.75	425.98
608.91	416.62
609.06	430.66
609.22	416.62
609.37	360.44
609.53	407.25
609.68	374.49
609.84	393.21
609.99	435.34
610.15	386.19
