SpectraSuite Data File
++++++++++++++++++++++++++++++++++++
Date: Fri Oct 25 12:11:42 EDT 2013
User: price-jones
Dark Spectrum Present: No
Reference Spectrum Present: No
Number of Sampled Component Spectra: 1
Spectrometers: USB2+H05261
Integration Time (usec): 100000 (USB2+H05261)
Spectra Averaged: 1 (USB2+H05261)
Boxcar Smoothing: 0 (USB2+H05261)
Correct for Electrical Dark: No (USB2+H05261)
Strobe/Lamp Enabled: No (USB2+H05261)
Correct for Detector Non-linearity: No (USB2+H05261)
Correct for Stray Light: No (USB2+H05261)
Number of Pixels in Processed Spectrum: 2048
>>>>>Begin Processed Spectral Data<<<<<
365.73	325.33
365.92	325.33
366.12	325.33
366.32	229.37
366.52	227.03
366.72	287.89
366.91	114.69
367.11	182.56
367.31	210.65
367.51	248.10
367.70	182.56
367.90	224.69
368.10	184.90
368.30	189.58
368.49	257.46
368.69	208.31
368.89	208.31
369.09	234.05
369.28	245.76
369.48	208.31
369.68	220.01
369.87	337.04
370.07	365.12
370.27	320.65
370.47	313.63
370.66	353.42
370.86	318.31
371.06	374.49
371.25	346.40
371.45	358.10
371.65	365.12
371.84	311.29
372.04	400.23
372.24	402.57
372.44	369.80
372.63	430.66
372.83	423.64
373.03	341.72
373.22	379.17
373.42	388.53
373.62	430.66
373.81	423.64
374.01	390.87
374.21	449.38
374.40	440.02
374.60	451.72
374.79	442.36
374.99	449.38
375.19	404.91
375.38	372.15
375.58	444.70
375.78	440.02
375.97	442.36
376.17	423.64
376.37	430.66
376.56	454.06
376.76	468.11
376.95	458.74
377.15	372.15
377.35	468.11
377.54	430.66
377.74	409.59
377.93	430.66
378.13	425.98
378.33	404.91
378.52	327.68
378.72	418.96
378.91	386.19
379.11	409.59
379.31	383.85
379.50	351.08
379.70	482.15
379.89	437.68
380.09	486.83
380.28	374.49
380.48	402.57
380.68	418.96
380.87	379.17
381.07	411.93
381.26	425.98
381.46	416.62
381.65	437.68
381.85	355.76
382.04	386.19
382.24	447.04
382.43	491.51
382.63	428.32
382.83	416.62
383.02	395.55
383.22	395.55
383.41	393.21
383.61	430.66
383.80	334.70
384.00	444.70
384.19	451.72
384.39	421.30
384.58	376.83
384.78	498.53
384.97	376.83
385.17	397.89
385.36	491.51
385.56	379.17
385.75	428.32
385.95	423.64
386.14	395.55
386.34	383.85
386.53	369.80
386.72	505.56
386.92	451.72
387.11	355.76
387.31	430.66
387.50	369.80
387.70	418.96
387.89	444.70
388.09	411.93
388.28	433.00
388.48	395.55
388.67	454.06
388.86	416.62
389.06	437.68
389.25	421.30
389.45	442.36
389.64	454.06
389.84	425.98
390.03	404.91
390.22	440.02
390.42	465.77
390.61	390.87
390.81	374.49
391.00	416.62
391.19	435.34
391.39	449.38
391.58	430.66
391.78	421.30
391.97	390.87
392.16	353.42
392.36	395.55
392.55	435.34
392.75	435.34
392.94	365.12
393.13	470.45
393.33	383.85
393.52	355.76
393.71	416.62
393.91	339.38
394.10	407.25
394.29	437.68
394.49	430.66
394.68	491.51
394.88	400.23
395.07	416.62
395.26	372.15
395.46	440.02
395.65	393.21
395.84	341.72
396.04	498.53
396.23	440.02
396.42	444.70
396.62	526.62
396.81	425.98
397.00	395.55
397.19	482.15
397.39	337.04
397.58	440.02
397.77	393.21
397.97	367.46
398.16	395.55
398.35	407.25
398.55	379.17
398.74	416.62
398.93	421.30
399.12	344.06
399.32	451.72
399.51	400.23
399.70	437.68
399.90	386.19
400.09	388.53
400.28	393.21
400.47	414.27
400.67	360.44
400.86	322.99
401.05	395.55
401.24	416.62
401.44	416.62
401.63	404.91
401.82	390.87
402.01	360.44
402.21	372.15
402.40	383.85
402.59	449.38
402.78	444.70
402.97	397.89
403.17	458.74
403.36	407.25
403.55	386.19
403.74	386.19
403.93	418.96
404.13	341.72
404.32	374.49
404.51	414.27
404.70	411.93
404.89	351.08
405.09	358.10
405.28	493.85
405.47	402.57
405.66	447.04
405.85	390.87
406.05	444.70
406.24	383.85
406.43	390.87
406.62	348.74
406.81	365.12
407.00	388.53
407.20	433.00
407.39	402.57
407.58	353.42
407.77	386.19
407.96	388.53
408.15	461.09
408.34	425.98
408.54	404.91
408.73	388.53
408.92	440.02
409.11	421.30
409.30	355.76
409.49	404.91
409.68	463.43
409.87	425.98
410.07	344.06
410.26	397.89
410.45	402.57
410.64	388.53
410.83	416.62
411.02	409.59
411.21	372.15
411.40	407.25
411.59	444.70
411.78	372.15
411.98	379.17
412.17	400.23
412.36	383.85
412.55	454.06
412.74	411.93
412.93	388.53
413.12	454.06
413.31	411.93
413.50	423.64
413.69	393.21
413.88	440.02
414.07	393.21
414.26	362.78
414.45	381.51
414.64	376.83
414.83	418.96
415.02	372.15
415.22	423.64
415.41	433.00
415.60	397.89
415.79	404.91
415.98	468.11
416.17	339.38
416.36	351.08
416.55	414.27
416.74	365.12
416.93	461.09
417.12	369.80
417.31	395.55
417.50	404.91
417.69	477.47
417.88	365.12
418.07	479.81
418.26	346.40
418.45	423.64
418.64	428.32
418.83	444.70
419.02	486.83
419.21	421.30
419.39	369.80
419.58	311.29
419.77	435.34
419.96	444.70
420.15	451.72
420.34	447.04
420.53	461.09
420.72	461.09
420.91	374.49
421.10	376.83
421.29	402.57
421.48	486.83
421.67	376.83
421.86	440.02
422.05	369.80
422.24	409.59
422.43	454.06
422.61	379.17
422.80	388.53
422.99	367.46
423.18	418.96
423.37	463.43
423.56	362.78
423.75	397.89
423.94	388.53
424.13	409.59
424.32	332.36
424.50	393.21
424.69	353.42
424.88	414.27
425.07	472.79
425.26	433.00
425.45	461.09
425.64	402.57
425.83	423.64
426.01	437.68
426.20	435.34
426.39	383.85
426.58	416.62
426.77	416.62
426.96	470.45
427.15	475.13
427.33	351.08
427.52	416.62
427.71	402.57
427.90	386.19
428.09	456.40
428.28	374.49
428.46	414.27
428.65	461.09
428.84	348.74
429.03	409.59
429.22	416.62
429.40	379.17
429.59	365.12
429.78	395.55
429.97	400.23
430.16	425.98
430.34	365.12
430.53	381.51
430.72	418.96
430.91	376.83
431.10	374.49
431.28	461.09
431.47	428.32
431.66	470.45
431.85	315.97
432.03	358.10
432.22	545.34
432.41	456.40
432.60	451.72
432.79	320.65
432.97	472.79
433.16	440.02
433.35	425.98
433.54	449.38
433.72	334.70
433.91	416.62
434.10	433.00
434.28	470.45
434.47	442.36
434.66	451.72
434.85	376.83
435.03	442.36
435.22	447.04
435.41	397.89
435.59	447.04
435.78	428.32
435.97	395.55
436.16	355.76
436.34	454.06
436.53	383.85
436.72	374.49
436.90	444.70
437.09	468.11
437.28	435.34
437.46	358.10
437.65	451.72
437.84	458.74
438.02	360.44
438.21	381.51
438.40	353.42
438.58	407.25
438.77	369.80
438.96	355.76
439.14	510.24
439.33	379.17
439.52	454.06
439.70	444.70
439.89	388.53
440.08	435.34
440.26	449.38
440.45	393.21
440.63	353.42
440.82	409.59
441.01	447.04
441.19	477.47
441.38	386.19
441.57	423.64
441.75	409.59
441.94	461.09
442.12	369.80
442.31	404.91
442.50	407.25
442.68	388.53
442.87	393.21
443.05	430.66
443.24	390.87
443.43	444.70
443.61	433.00
443.80	418.96
443.98	360.44
444.17	411.93
444.35	519.60
444.54	386.19
444.73	411.93
444.91	372.15
445.10	379.17
445.28	393.21
445.47	440.02
445.65	292.57
445.84	493.85
446.02	421.30
446.21	400.23
446.39	376.83
446.58	491.51
446.77	400.23
446.95	397.89
447.14	411.93
447.32	477.47
447.51	362.78
447.69	365.12
447.88	411.93
448.06	407.25
448.25	451.72
448.43	433.00
448.62	362.78
448.80	463.43
448.99	454.06
449.17	351.08
449.36	397.89
449.54	416.62
449.73	358.10
449.91	451.72
450.10	451.72
450.28	442.36
450.46	428.32
450.65	475.13
450.83	379.17
451.02	461.09
451.20	383.85
451.39	395.55
451.57	362.78
451.76	407.25
451.94	425.98
452.13	414.27
452.31	491.51
452.49	442.36
452.68	430.66
452.86	386.19
453.05	456.40
453.23	313.63
453.42	358.10
453.60	430.66
453.78	379.17
453.97	351.08
454.15	414.27
454.34	365.12
454.52	372.15
454.70	416.62
454.89	339.38
455.07	433.00
455.26	477.47
455.44	428.32
455.62	407.25
455.81	341.72
455.99	409.59
456.17	407.25
456.36	376.83
456.54	369.80
456.73	423.64
456.91	440.02
457.09	386.19
457.28	402.57
457.46	440.02
457.64	411.93
457.83	444.70
458.01	388.53
458.19	430.66
458.38	390.87
458.56	379.17
458.74	393.21
458.93	442.36
459.11	390.87
459.29	330.02
459.48	440.02
459.66	376.83
459.84	332.36
460.03	568.75
460.21	421.30
460.39	440.02
460.57	472.79
460.76	386.19
460.94	407.25
461.12	369.80
461.31	444.70
461.49	411.93
461.67	346.40
461.85	435.34
462.04	397.89
462.22	821.53
462.40	461.09
462.59	428.32
462.77	444.70
462.95	442.36
463.13	461.09
463.32	407.25
463.50	393.21
463.68	327.68
463.86	435.34
464.05	423.64
464.23	465.77
464.41	437.68
464.59	423.64
464.78	374.49
464.96	463.43
465.14	397.89
465.32	348.74
465.50	500.87
465.69	503.22
465.87	423.64
466.05	365.12
466.23	369.80
466.41	435.34
466.60	414.27
466.78	372.15
466.96	437.68
467.14	367.46
467.32	449.38
467.51	463.43
467.69	411.93
467.87	510.24
468.05	374.49
468.23	383.85
468.41	327.68
468.60	395.55
468.78	400.23
468.96	484.49
469.14	395.55
469.32	430.66
469.50	425.98
469.69	400.23
469.87	430.66
470.05	510.24
470.23	414.27
470.41	418.96
470.59	430.66
470.77	379.17
470.95	395.55
471.14	418.96
471.32	409.59
471.50	472.79
471.68	475.13
471.86	390.87
472.04	425.98
472.22	418.96
472.40	440.02
472.58	404.91
472.77	402.57
472.95	386.19
473.13	379.17
473.31	409.59
473.49	386.19
473.67	423.64
473.85	454.06
474.03	430.66
474.21	430.66
474.39	472.79
474.57	458.74
474.75	414.27
474.93	383.85
475.12	393.21
475.30	418.96
475.48	404.91
475.66	440.02
475.84	386.19
476.02	379.17
476.20	486.83
476.38	444.70
476.56	479.81
476.74	447.04
476.92	402.57
477.10	442.36
477.28	383.85
477.46	454.06
477.64	535.98
477.82	479.81
478.00	372.15
478.18	390.87
478.36	463.43
478.54	395.55
478.72	381.51
478.90	458.74
479.08	395.55
479.26	407.25
479.44	397.89
479.62	421.30
479.80	404.91
479.98	423.64
480.16	383.85
480.34	386.19
480.52	414.27
480.70	430.66
480.88	472.79
481.06	449.38
481.24	367.46
481.41	430.66
481.59	491.51
481.77	330.02
481.95	407.25
482.13	447.04
482.31	440.02
482.49	409.59
482.67	433.00
482.85	381.51
483.03	442.36
483.21	388.53
483.39	402.57
483.57	411.93
483.74	451.72
483.92	374.49
484.10	447.04
484.28	447.04
484.46	489.17
484.64	442.36
484.82	447.04
485.00	383.85
485.18	451.72
485.35	411.93
485.53	416.62
485.71	500.87
485.89	402.57
486.07	479.81
486.25	491.51
486.43	353.42
486.61	388.53
486.78	440.02
486.96	447.04
487.14	369.80
487.32	334.70
487.50	407.25
487.68	407.25
487.85	395.55
488.03	437.68
488.21	444.70
488.39	425.98
488.57	367.46
488.75	414.27
488.92	514.92
489.10	512.58
489.28	421.30
489.46	330.02
489.64	430.66
489.81	414.27
489.99	372.15
490.17	428.32
490.35	433.00
490.53	416.62
490.70	388.53
490.88	393.21
491.06	351.08
491.24	411.93
491.41	461.09
491.59	491.51
491.77	423.64
491.95	440.02
492.13	379.17
492.30	484.49
492.48	365.12
492.66	416.62
492.84	414.27
493.01	383.85
493.19	400.23
493.37	468.11
493.54	416.62
493.72	454.06
493.90	322.99
494.08	372.15
494.25	409.59
494.43	461.09
494.61	465.77
494.79	376.83
494.96	493.85
495.14	461.09
495.32	435.34
495.49	416.62
495.67	437.68
495.85	468.11
496.02	423.64
496.20	404.91
496.38	482.15
496.55	402.57
496.73	390.87
496.91	402.57
497.09	362.78
497.26	447.04
497.44	437.68
497.62	435.34
497.79	442.36
497.97	442.36
498.14	472.79
498.32	397.89
498.50	381.51
498.67	383.85
498.85	411.93
499.03	465.77
499.20	428.32
499.38	411.93
499.56	425.98
499.73	440.02
499.91	435.34
500.08	414.27
500.26	428.32
500.44	433.00
500.61	407.25
500.79	311.29
500.97	376.83
501.14	449.38
501.32	383.85
501.49	479.81
501.67	433.00
501.84	418.96
502.02	463.43
502.20	400.23
502.37	381.51
502.55	477.47
502.72	423.64
502.90	423.64
503.07	449.38
503.25	491.51
503.43	372.15
503.60	355.76
503.78	407.25
503.95	440.02
504.13	397.89
504.30	470.45
504.48	468.11
504.65	414.27
504.83	400.23
505.01	372.15
505.18	428.32
505.36	409.59
505.53	428.32
505.71	362.78
505.88	379.17
506.06	388.53
506.23	404.91
506.41	451.72
506.58	430.66
506.76	388.53
506.93	407.25
507.11	402.57
507.28	369.80
507.46	435.34
507.63	425.98
507.81	376.83
507.98	355.76
508.16	395.55
508.33	397.89
508.50	407.25
508.68	416.62
508.85	397.89
509.03	414.27
509.20	440.02
509.38	381.51
509.55	369.80
509.73	430.66
509.90	491.51
510.08	409.59
510.25	411.93
510.42	430.66
510.60	414.27
510.77	348.74
510.95	409.59
511.12	442.36
511.30	477.47
511.47	369.80
511.64	454.06
511.82	393.21
511.99	348.74
512.17	383.85
512.34	486.83
512.51	421.30
512.69	437.68
512.86	449.38
513.04	407.25
513.21	390.87
513.38	433.00
513.56	442.36
513.73	435.34
513.90	400.23
514.08	409.59
514.25	423.64
514.43	435.34
514.60	440.02
514.77	362.78
514.95	437.68
515.12	444.70
515.29	442.36
515.47	381.51
515.64	468.11
515.81	393.21
515.99	381.51
516.16	414.27
516.33	470.45
516.51	447.04
516.68	421.30
516.85	423.64
517.03	456.40
517.20	400.23
517.37	372.15
517.54	440.02
517.72	409.59
517.89	414.27
518.06	463.43
518.24	484.49
518.41	470.45
518.58	383.85
518.75	447.04
518.93	423.64
519.10	390.87
519.27	358.10
519.45	409.59
519.62	365.12
519.79	390.87
519.96	444.70
520.14	421.30
520.31	540.66
520.48	440.02
520.65	440.02
520.83	468.11
521.00	386.19
521.17	362.78
521.34	463.43
521.52	477.47
521.69	423.64
521.86	360.44
522.03	416.62
522.20	463.43
522.38	461.09
522.55	461.09
522.72	386.19
522.89	358.10
523.07	414.27
523.24	444.70
523.41	442.36
523.58	468.11
523.75	393.21
523.92	365.12
524.10	472.79
524.27	404.91
524.44	479.81
524.61	414.27
524.78	362.78
524.96	411.93
525.13	365.12
525.30	418.96
525.47	425.98
525.64	402.57
525.81	444.70
525.98	400.23
526.16	430.66
526.33	376.83
526.50	402.57
526.67	372.15
526.84	402.57
527.01	421.30
527.18	444.70
527.36	397.89
527.53	381.51
527.70	437.68
527.87	428.32
528.04	409.59
528.21	369.80
528.38	472.79
528.55	400.23
528.72	407.25
528.89	397.89
529.07	425.98
529.24	444.70
529.41	468.11
529.58	416.62
529.75	386.19
529.92	397.89
530.09	433.00
530.26	423.64
530.43	433.00
530.60	423.64
530.77	393.21
530.94	386.19
531.11	463.43
531.28	404.91
531.46	407.25
531.63	397.89
531.80	369.80
531.97	493.85
532.14	365.12
532.31	318.31
532.48	409.59
532.65	393.21
532.82	465.77
532.99	451.72
533.16	437.68
533.33	365.12
533.50	428.32
533.67	360.44
533.84	402.57
534.01	449.38
534.18	353.42
534.35	400.23
534.52	407.25
534.69	423.64
534.86	318.31
535.03	425.98
535.20	332.36
535.37	369.80
535.54	367.46
535.71	416.62
535.88	447.04
536.05	414.27
536.22	428.32
536.38	393.21
536.55	411.93
536.72	454.06
536.89	458.74
537.06	351.08
537.23	365.12
537.40	430.66
537.57	407.25
537.74	461.09
537.91	447.04
538.08	421.30
538.25	390.87
538.42	461.09
538.59	433.00
538.75	395.55
538.92	440.02
539.09	400.23
539.26	386.19
539.43	437.68
539.60	407.25
539.77	402.57
539.94	428.32
540.11	463.43
540.28	425.98
540.44	409.59
540.61	388.53
540.78	430.66
540.95	512.58
541.12	435.34
541.29	383.85
541.46	390.87
541.62	390.87
541.79	430.66
541.96	360.44
542.13	416.62
542.30	440.02
542.47	451.72
542.63	433.00
542.80	468.11
542.97	456.40
543.14	437.68
543.31	395.55
543.48	489.17
543.64	339.38
543.81	433.00
543.98	400.23
544.15	381.51
544.32	409.59
544.48	355.76
544.65	428.32
544.82	397.89
544.99	402.57
545.16	369.80
545.32	372.15
545.49	423.64
545.66	393.21
545.83	421.30
546.00	397.89
546.16	404.91
546.33	379.17
546.50	458.74
546.67	454.06
546.83	414.27
547.00	456.40
547.17	388.53
547.34	489.17
547.50	381.51
547.67	337.04
547.84	390.87
548.00	447.04
548.17	346.40
548.34	395.55
548.51	526.62
548.67	411.93
548.84	463.43
549.01	411.93
549.18	421.30
549.34	463.43
549.51	447.04
549.68	423.64
549.84	437.68
550.01	449.38
550.18	477.47
550.34	430.66
550.51	409.59
550.68	430.66
550.84	416.62
551.01	477.47
551.18	372.15
551.34	425.98
551.51	411.93
551.68	414.27
551.84	397.89
552.01	433.00
552.18	404.91
552.34	449.38
552.51	472.79
552.68	444.70
552.84	423.64
553.01	470.45
553.18	423.64
553.34	414.27
553.51	442.36
553.67	407.25
553.84	393.21
554.01	437.68
554.17	421.30
554.34	379.17
554.51	496.19
554.67	428.32
554.84	461.09
555.00	425.98
555.17	416.62
555.33	365.12
555.50	404.91
555.67	400.23
555.83	430.66
556.00	351.08
556.16	500.87
556.33	421.30
556.50	423.64
556.66	482.15
556.83	407.25
556.99	437.68
557.16	351.08
557.32	465.77
557.49	409.59
557.65	442.36
557.82	376.83
557.98	365.12
558.15	372.15
558.32	437.68
558.48	372.15
558.65	313.63
558.81	428.32
558.98	444.70
559.14	447.04
559.31	358.10
559.47	458.74
559.64	470.45
559.80	404.91
559.97	442.36
560.13	461.09
560.30	447.04
560.46	435.34
560.63	512.58
560.79	437.68
560.96	393.21
561.12	400.23
561.29	458.74
561.45	418.96
561.61	379.17
561.78	507.90
561.94	435.34
562.11	397.89
562.27	414.27
562.44	376.83
562.60	449.38
562.77	440.02
562.93	521.94
563.10	442.36
563.26	369.80
563.42	430.66
563.59	372.15
563.75	458.74
563.92	416.62
564.08	416.62
564.24	468.11
564.41	440.02
564.57	367.46
564.74	374.49
564.90	369.80
565.07	498.53
565.23	395.55
565.39	367.46
565.56	444.70
565.72	390.87
565.88	451.72
566.05	458.74
566.21	383.85
566.38	381.51
566.54	404.91
566.70	397.89
566.87	418.96
567.03	447.04
567.19	437.68
567.36	407.25
567.52	425.98
567.68	409.59
567.85	451.72
568.01	369.80
568.17	376.83
568.34	393.21
568.50	444.70
568.66	437.68
568.83	440.02
568.99	372.15
569.15	489.17
569.32	435.34
569.48	383.85
569.64	381.51
569.81	430.66
569.97	376.83
570.13	440.02
570.30	482.15
570.46	395.55
570.62	416.62
570.78	440.02
570.95	355.76
571.11	477.47
571.27	435.34
571.43	423.64
571.60	458.74
571.76	433.00
571.92	386.19
572.09	470.45
572.25	440.02
572.41	435.34
572.57	465.77
572.74	486.83
572.90	458.74
573.06	383.85
573.22	479.81
573.38	475.13
573.55	447.04
573.71	454.06
573.87	411.93
574.03	344.06
574.20	404.91
574.36	484.49
574.52	428.32
574.68	397.89
574.84	374.49
575.01	421.30
575.17	524.28
575.33	374.49
575.49	437.68
575.65	442.36
575.82	402.57
575.98	500.87
576.14	475.13
576.30	238.73
576.46	404.91
576.62	409.59
576.79	369.80
576.95	507.90
577.11	379.17
577.27	428.32
577.43	486.83
577.59	498.53
577.75	449.38
577.92	358.10
578.08	381.51
578.24	407.25
578.40	440.02
578.56	470.45
578.72	397.89
578.88	456.40
579.04	407.25
579.21	365.12
579.37	433.00
579.53	341.72
579.69	451.72
579.85	418.96
580.01	447.04
580.17	369.80
580.33	411.93
580.49	468.11
580.65	367.46
580.82	430.66
580.98	430.66
581.14	447.04
581.30	379.17
581.46	456.40
581.62	454.06
581.78	381.51
581.94	411.93
582.10	379.17
582.26	433.00
582.42	390.87
582.58	409.59
582.74	402.57
582.90	402.57
583.06	468.11
583.22	414.27
583.38	374.49
583.54	383.85
583.70	440.02
583.86	409.59
584.02	421.30
584.18	456.40
584.34	360.44
584.50	479.81
584.66	465.77
584.82	393.21
584.98	360.44
585.14	484.49
585.30	449.38
585.46	383.85
585.62	355.76
585.78	430.66
585.94	491.51
586.10	482.15
586.26	404.91
586.42	430.66
586.58	496.19
586.74	447.04
586.90	386.19
587.06	435.34
587.22	404.91
587.38	374.49
587.54	390.87
587.70	425.98
587.86	500.87
588.02	423.64
588.18	428.32
588.34	444.70
588.49	395.55
588.65	461.09
588.81	465.77
588.97	409.59
589.13	393.21
589.29	402.57
589.45	472.79
589.61	407.25
589.77	425.98
589.93	397.89
590.08	365.12
590.24	360.44
590.40	360.44
590.56	454.06
590.72	409.59
590.88	397.89
591.04	451.72
591.20	402.57
591.35	430.66
591.51	468.11
591.67	409.59
591.83	423.64
591.99	454.06
592.15	416.62
592.31	435.34
592.46	381.51
592.62	407.25
592.78	440.02
592.94	425.98
593.10	393.21
593.26	430.66
593.41	447.04
593.57	470.45
593.73	390.87
593.89	407.25
594.05	433.00
594.20	425.98
594.36	449.38
594.52	393.21
594.68	428.32
594.84	484.49
594.99	442.36
595.15	411.93
595.31	421.30
595.47	482.15
595.62	418.96
595.78	428.32
595.94	407.25
596.10	390.87
596.25	407.25
596.41	379.17
596.57	374.49
596.73	454.06
596.88	383.85
597.04	411.93
597.20	372.15
597.36	421.30
597.51	362.78
597.67	397.89
597.83	379.17
597.99	395.55
598.14	437.68
598.30	358.10
598.46	423.64
598.61	521.94
598.77	433.00
598.93	425.98
599.09	503.22
599.24	397.89
599.40	425.98
599.56	463.43
599.71	425.98
599.87	505.56
600.03	416.62
600.18	311.29
600.34	360.44
600.50	444.70
600.65	402.57
600.81	409.59
600.97	423.64
601.12	411.93
601.28	468.11
601.44	449.38
601.59	388.53
601.75	367.46
601.91	416.62
602.06	383.85
602.22	475.13
602.37	421.30
602.53	318.31
602.69	411.93
602.84	437.68
603.00	479.81
603.16	463.43
603.31	472.79
603.47	388.53
603.62	397.89
603.78	465.77
603.94	400.23
604.09	430.66
604.25	423.64
604.40	444.70
604.56	367.46
604.71	435.34
604.87	468.11
605.03	395.55
605.18	411.93
605.34	505.56
605.49	409.59
605.65	395.55
605.80	477.47
605.96	376.83
606.12	442.36
606.27	482.15
606.43	411.93
606.58	491.51
606.74	416.62
606.89	360.44
607.05	425.98
607.20	402.57
607.36	407.25
607.51	421.30
607.67	379.17
607.82	388.53
607.98	383.85
608.13	428.32
608.29	425.98
608.44	430.66
608.60	421.30
608.75	430.66
608.91	341.72
609.06	458.74
609.22	442.36
609.37	383.85
609.53	355.76
609.68	449.38
609.84	454.06
609.99	416.62
610.15	423.64
