SpectraSuite Data File
++++++++++++++++++++++++++++++++++++
Date: Fri Oct 25 12:11:14 EDT 2013
User: price-jones
Dark Spectrum Present: No
Reference Spectrum Present: No
Number of Sampled Component Spectra: 1
Spectrometers: USB2+H05261
Integration Time (usec): 100000 (USB2+H05261)
Spectra Averaged: 1 (USB2+H05261)
Boxcar Smoothing: 0 (USB2+H05261)
Correct for Electrical Dark: No (USB2+H05261)
Strobe/Lamp Enabled: No (USB2+H05261)
Correct for Detector Non-linearity: No (USB2+H05261)
Correct for Stray Light: No (USB2+H05261)
Number of Pixels in Processed Spectrum: 2048
>>>>>Begin Processed Spectral Data<<<<<
365.73	322.99
365.92	322.99
366.12	322.99
366.32	203.63
366.52	283.20
366.72	257.46
366.91	241.08
367.11	287.89
367.31	248.10
367.51	191.92
367.70	227.03
367.90	313.63
368.10	243.42
368.30	243.42
368.49	189.58
368.69	220.01
368.89	283.20
369.09	250.44
369.28	283.20
369.48	255.12
369.68	252.78
369.87	278.52
370.07	255.12
370.27	322.99
370.47	355.76
370.66	325.33
370.86	369.80
371.06	304.27
371.25	383.85
371.45	344.06
371.65	430.66
371.84	369.80
372.04	381.51
372.24	451.72
372.44	418.96
372.63	416.62
372.83	393.21
373.03	397.89
373.22	351.08
373.42	390.87
373.62	376.83
373.81	444.70
374.01	440.02
374.21	500.87
374.40	433.00
374.60	465.77
374.79	341.72
374.99	456.40
375.19	430.66
375.38	496.19
375.58	463.43
375.78	440.02
375.97	379.17
376.17	503.22
376.37	418.96
376.56	447.04
376.76	402.57
376.95	421.30
377.15	407.25
377.35	369.80
377.54	451.72
377.74	346.40
377.93	449.38
378.13	470.45
378.33	395.55
378.52	444.70
378.72	433.00
378.91	409.59
379.11	400.23
379.31	414.27
379.50	437.68
379.70	334.70
379.89	369.80
380.09	402.57
380.28	425.98
380.48	442.36
380.68	454.06
380.87	444.70
381.07	409.59
381.26	447.04
381.46	341.72
381.65	440.02
381.85	425.98
382.04	479.81
382.24	447.04
382.43	440.02
382.63	346.40
382.83	416.62
383.02	430.66
383.22	386.19
383.41	430.66
383.61	355.76
383.80	449.38
384.00	353.42
384.19	425.98
384.39	414.27
384.58	409.59
384.78	435.34
384.97	470.45
385.17	358.10
385.36	440.02
385.56	461.09
385.75	465.77
385.95	425.98
386.14	428.32
386.34	479.81
386.53	484.49
386.72	435.34
386.92	463.43
387.11	430.66
387.31	386.19
387.50	404.91
387.70	416.62
387.89	390.87
388.09	423.64
388.28	428.32
388.48	444.70
388.67	423.64
388.86	421.30
389.06	461.09
389.25	402.57
389.45	447.04
389.64	416.62
389.84	456.40
390.03	358.10
390.22	465.77
390.42	451.72
390.61	365.12
390.81	390.87
391.00	397.89
391.19	451.72
391.39	404.91
391.58	360.44
391.78	414.27
391.97	388.53
392.16	458.74
392.36	421.30
392.55	379.17
392.75	423.64
392.94	386.19
393.13	395.55
393.33	388.53
393.52	458.74
393.71	428.32
393.91	416.62
394.10	365.12
394.29	365.12
394.49	433.00
394.68	332.36
394.88	437.68
395.07	430.66
395.26	437.68
395.46	379.17
395.65	397.89
395.84	421.30
396.04	444.70
396.23	379.17
396.42	414.27
396.62	442.36
396.81	409.59
397.00	388.53
397.19	423.64
397.39	404.91
397.58	418.96
397.77	386.19
397.97	404.91
398.16	411.93
398.35	306.61
398.55	418.96
398.74	421.30
398.93	376.83
399.12	451.72
399.32	454.06
399.51	409.59
399.70	337.04
399.90	367.46
400.09	507.90
400.28	404.91
400.47	376.83
400.67	433.00
400.86	404.91
401.05	512.58
401.24	468.11
401.44	435.34
401.63	386.19
401.82	440.02
402.01	327.68
402.21	435.34
402.40	409.59
402.59	402.57
402.78	390.87
402.97	456.40
403.17	428.32
403.36	442.36
403.55	414.27
403.74	386.19
403.93	479.81
404.13	372.15
404.32	435.34
404.51	444.70
404.70	386.19
404.89	393.21
405.09	360.44
405.28	430.66
405.47	397.89
405.66	423.64
405.85	454.06
406.05	355.76
406.24	451.72
406.43	404.91
406.62	421.30
406.81	437.68
407.00	442.36
407.20	393.21
407.39	395.55
407.58	402.57
407.77	358.10
407.96	409.59
408.15	369.80
408.34	456.40
408.54	393.21
408.73	390.87
408.92	421.30
409.11	383.85
409.30	425.98
409.49	367.46
409.68	353.42
409.87	425.98
410.07	409.59
410.26	411.93
410.45	425.98
410.64	379.17
410.83	386.19
411.02	360.44
411.21	407.25
411.40	397.89
411.59	416.62
411.78	435.34
411.98	367.46
412.17	344.06
412.36	381.51
412.55	418.96
412.74	437.68
412.93	510.24
413.12	475.13
413.31	407.25
413.50	447.04
413.69	454.06
413.88	463.43
414.07	395.55
414.26	421.30
414.45	365.12
414.64	386.19
414.83	430.66
415.02	388.53
415.22	374.49
415.41	482.15
415.60	383.85
415.79	435.34
415.98	428.32
416.17	496.19
416.36	444.70
416.55	458.74
416.74	365.12
416.93	346.40
417.12	416.62
417.31	447.04
417.50	395.55
417.69	489.17
417.88	409.59
418.07	367.46
418.26	440.02
418.45	456.40
418.64	411.93
418.83	447.04
419.02	409.59
419.21	397.89
419.39	486.83
419.58	500.87
419.77	526.62
419.96	414.27
420.15	444.70
420.34	416.62
420.53	444.70
420.72	435.34
420.91	468.11
421.10	435.34
421.29	404.91
421.48	409.59
421.67	461.09
421.86	376.83
422.05	386.19
422.24	386.19
422.43	390.87
422.61	423.64
422.80	435.34
422.99	423.64
423.18	411.93
423.37	458.74
423.56	414.27
423.75	376.83
423.94	388.53
424.13	463.43
424.32	334.70
424.50	376.83
424.69	486.83
424.88	421.30
425.07	390.87
425.26	425.98
425.45	407.25
425.64	320.65
425.83	458.74
426.01	418.96
426.20	418.96
426.39	369.80
426.58	402.57
426.77	390.87
426.96	409.59
427.15	383.85
427.33	358.10
427.52	404.91
427.71	416.62
427.90	414.27
428.09	414.27
428.28	437.68
428.46	437.68
428.65	456.40
428.84	484.49
429.03	418.96
429.22	369.80
429.40	414.27
429.59	425.98
429.78	374.49
429.97	433.00
430.16	414.27
430.34	421.30
430.53	390.87
430.72	341.72
430.91	447.04
431.10	397.89
431.28	353.42
431.47	449.38
431.66	472.79
431.85	390.87
432.03	461.09
432.22	468.11
432.41	360.44
432.60	465.77
432.79	381.51
432.97	390.87
433.16	376.83
433.35	386.19
433.54	355.76
433.72	395.55
433.91	414.27
434.10	414.27
434.28	463.43
434.47	397.89
434.66	440.02
434.85	411.93
435.03	430.66
435.22	451.72
435.41	463.43
435.59	486.83
435.78	461.09
435.97	334.70
436.16	416.62
436.34	423.64
436.53	374.49
436.72	421.30
436.90	465.77
437.09	444.70
437.28	393.21
437.46	397.89
437.65	425.98
437.84	444.70
438.02	393.21
438.21	390.87
438.40	414.27
438.58	395.55
438.77	386.19
438.96	386.19
439.14	383.85
439.33	435.34
439.52	456.40
439.70	397.89
439.89	411.93
440.08	454.06
440.26	414.27
440.45	437.68
440.63	454.06
440.82	440.02
441.01	407.25
441.19	362.78
441.38	381.51
441.57	400.23
441.75	463.43
441.94	496.19
442.12	407.25
442.31	468.11
442.50	397.89
442.68	444.70
442.87	416.62
443.05	383.85
443.24	423.64
443.43	451.72
443.61	416.62
443.80	407.25
443.98	334.70
444.17	402.57
444.35	437.68
444.54	444.70
444.73	348.74
444.91	416.62
445.10	414.27
445.28	437.68
445.47	337.04
445.65	395.55
445.84	381.51
446.02	376.83
446.21	365.12
446.39	339.38
446.58	397.89
446.77	456.40
446.95	379.17
447.14	458.74
447.32	447.04
447.51	411.93
447.69	390.87
447.88	341.72
448.06	414.27
448.25	388.53
448.43	374.49
448.62	416.62
448.80	402.57
448.99	393.21
449.17	386.19
449.36	381.51
449.54	386.19
449.73	437.68
449.91	428.32
450.10	362.78
450.28	463.43
450.46	503.22
450.65	388.53
450.83	372.15
451.02	442.36
451.20	397.89
451.39	404.91
451.57	397.89
451.76	402.57
451.94	416.62
452.13	395.55
452.31	456.40
452.49	383.85
452.68	428.32
452.86	433.00
453.05	409.59
453.23	416.62
453.42	381.51
453.60	491.51
453.78	386.19
453.97	351.08
454.15	458.74
454.34	425.98
454.52	418.96
454.70	489.17
454.89	461.09
455.07	376.83
455.26	449.38
455.44	442.36
455.62	423.64
455.81	390.87
455.99	463.43
456.17	416.62
456.36	386.19
456.54	414.27
456.73	381.51
456.91	376.83
457.09	409.59
457.28	428.32
457.46	395.55
457.64	428.32
457.83	421.30
458.01	416.62
458.19	440.02
458.38	395.55
458.56	444.70
458.74	397.89
458.93	425.98
459.11	433.00
459.29	402.57
459.48	334.70
459.66	414.27
459.84	425.98
460.03	472.79
460.21	435.34
460.39	430.66
460.57	409.59
460.76	404.91
460.94	489.17
461.12	545.34
461.31	416.62
461.49	379.17
461.67	418.96
461.85	411.93
462.04	407.25
462.22	746.63
462.40	475.13
462.59	393.21
462.77	362.78
462.95	456.40
463.13	374.49
463.32	388.53
463.50	416.62
463.68	477.47
463.86	372.15
464.05	362.78
464.23	414.27
464.41	477.47
464.59	397.89
464.78	421.30
464.96	386.19
465.14	475.13
465.32	454.06
465.50	451.72
465.69	454.06
465.87	395.55
466.05	360.44
466.23	423.64
466.41	395.55
466.60	409.59
466.78	402.57
466.96	348.74
467.14	442.36
467.32	381.51
467.51	423.64
467.69	418.96
467.87	468.11
468.05	372.15
468.23	484.49
468.41	433.00
468.60	397.89
468.78	421.30
468.96	498.53
469.14	416.62
469.32	437.68
469.50	404.91
469.69	402.57
469.87	400.23
470.05	355.76
470.23	388.53
470.41	365.12
470.59	461.09
470.77	395.55
470.95	421.30
471.14	409.59
471.32	376.83
471.50	367.46
471.68	423.64
471.86	435.34
472.04	395.55
472.22	451.72
472.40	344.06
472.58	348.74
472.77	381.51
472.95	402.57
473.13	414.27
473.31	409.59
473.49	381.51
473.67	442.36
473.85	433.00
474.03	435.34
474.21	400.23
474.39	409.59
474.57	484.49
474.75	393.21
474.93	456.40
475.12	369.80
475.30	365.12
475.48	472.79
475.66	407.25
475.84	437.68
476.02	456.40
476.20	379.17
476.38	379.17
476.56	491.51
476.74	407.25
476.92	428.32
477.10	449.38
477.28	407.25
477.46	461.09
477.64	512.58
477.82	376.83
478.00	411.93
478.18	437.68
478.36	404.91
478.54	400.23
478.72	461.09
478.90	411.93
479.08	327.68
479.26	416.62
479.44	397.89
479.62	421.30
479.80	390.87
479.98	327.68
480.16	374.49
480.34	493.85
480.52	465.77
480.70	383.85
480.88	458.74
481.06	332.36
481.24	416.62
481.41	435.34
481.59	402.57
481.77	456.40
481.95	386.19
482.13	454.06
482.31	458.74
482.49	376.83
482.67	374.49
482.85	416.62
483.03	447.04
483.21	381.51
483.39	454.06
483.57	425.98
483.74	390.87
483.92	390.87
484.10	379.17
484.28	440.02
484.46	479.81
484.64	449.38
484.82	360.44
485.00	308.95
485.18	360.44
485.35	489.17
485.53	437.68
485.71	418.96
485.89	421.30
486.07	416.62
486.25	512.58
486.43	428.32
486.61	395.55
486.78	421.30
486.96	362.78
487.14	400.23
487.32	388.53
487.50	482.15
487.68	402.57
487.85	435.34
488.03	447.04
488.21	451.72
488.39	388.53
488.57	402.57
488.75	430.66
488.92	524.28
489.10	489.17
489.28	468.11
489.46	444.70
489.64	456.40
489.81	404.91
489.99	360.44
490.17	423.64
490.35	449.38
490.53	409.59
490.70	472.79
490.88	470.45
491.06	402.57
491.24	456.40
491.41	383.85
491.59	447.04
491.77	418.96
491.95	407.25
492.13	372.15
492.30	414.27
492.48	388.53
492.66	386.19
492.84	472.79
493.01	421.30
493.19	379.17
493.37	505.56
493.54	365.12
493.72	379.17
493.90	351.08
494.08	418.96
494.25	472.79
494.43	458.74
494.61	369.80
494.79	435.34
494.96	428.32
495.14	404.91
495.32	421.30
495.49	470.45
495.67	421.30
495.85	414.27
496.02	395.55
496.20	440.02
496.38	444.70
496.55	433.00
496.73	465.77
496.91	444.70
497.09	496.19
497.26	461.09
497.44	433.00
497.62	360.44
497.79	451.72
497.97	390.87
498.14	423.64
498.32	428.32
498.50	372.15
498.67	482.15
498.85	463.43
499.03	416.62
499.20	390.87
499.38	351.08
499.56	390.87
499.73	409.59
499.91	407.25
500.08	461.09
500.26	435.34
500.44	374.49
500.61	475.13
500.79	461.09
500.97	411.93
501.14	479.81
501.32	374.49
501.49	447.04
501.67	411.93
501.84	477.47
502.02	404.91
502.20	461.09
502.37	374.49
502.55	449.38
502.72	379.17
502.90	390.87
503.07	397.89
503.25	451.72
503.43	404.91
503.60	369.80
503.78	451.72
503.95	409.59
504.13	407.25
504.30	337.04
504.48	369.80
504.65	416.62
504.83	491.51
505.01	465.77
505.18	447.04
505.36	433.00
505.53	440.02
505.71	416.62
505.88	435.34
506.06	383.85
506.23	423.64
506.41	414.27
506.58	442.36
506.76	379.17
506.93	388.53
507.11	395.55
507.28	379.17
507.46	451.72
507.63	411.93
507.81	411.93
507.98	404.91
508.16	428.32
508.33	423.64
508.50	463.43
508.68	472.79
508.85	339.38
509.03	400.23
509.20	388.53
509.38	367.46
509.55	407.25
509.73	472.79
509.90	397.89
510.08	407.25
510.25	393.21
510.42	472.79
510.60	386.19
510.77	414.27
510.95	470.45
511.12	423.64
511.30	444.70
511.47	414.27
511.64	507.90
511.82	479.81
511.99	393.21
512.17	402.57
512.34	404.91
512.51	409.59
512.69	404.91
512.86	414.27
513.04	390.87
513.21	454.06
513.38	383.85
513.56	409.59
513.73	458.74
513.90	423.64
514.08	397.89
514.25	442.36
514.43	362.78
514.60	447.04
514.77	437.68
514.95	407.25
515.12	416.62
515.29	400.23
515.47	440.02
515.64	496.19
515.81	444.70
515.99	390.87
516.16	461.09
516.33	444.70
516.51	414.27
516.68	376.83
516.85	440.02
517.03	367.46
517.20	388.53
517.37	421.30
517.54	411.93
517.72	402.57
517.89	351.08
518.06	346.40
518.24	428.32
518.41	416.62
518.58	386.19
518.75	383.85
518.93	407.25
519.10	400.23
519.27	407.25
519.45	468.11
519.62	486.83
519.79	421.30
519.96	421.30
520.14	437.68
520.31	503.22
520.48	348.74
520.65	475.13
520.83	393.21
521.00	437.68
521.17	451.72
521.34	397.89
521.52	404.91
521.69	433.00
521.86	425.98
522.03	440.02
522.20	414.27
522.38	418.96
522.55	390.87
522.72	423.64
522.89	390.87
523.07	437.68
523.24	402.57
523.41	421.30
523.58	341.72
523.75	400.23
523.92	374.49
524.10	409.59
524.27	374.49
524.44	468.11
524.61	442.36
524.78	409.59
524.96	463.43
525.13	423.64
525.30	449.38
525.47	430.66
525.64	365.12
525.81	449.38
525.98	409.59
526.16	461.09
526.33	430.66
526.50	430.66
526.67	339.38
526.84	409.59
527.01	346.40
527.18	456.40
527.36	454.06
527.53	440.02
527.70	437.68
527.87	383.85
528.04	390.87
528.21	386.19
528.38	416.62
528.55	416.62
528.72	372.15
528.89	463.43
529.07	397.89
529.24	486.83
529.41	421.30
529.58	332.36
529.75	393.21
529.92	393.21
530.09	425.98
530.26	400.23
530.43	351.08
530.60	456.40
530.77	355.76
530.94	409.59
531.11	444.70
531.28	351.08
531.46	435.34
531.63	477.47
531.80	397.89
531.97	489.17
532.14	423.64
532.31	407.25
532.48	479.81
532.65	402.57
532.82	379.17
532.99	390.87
533.16	451.72
533.33	395.55
533.50	367.46
533.67	414.27
533.84	465.77
534.01	423.64
534.18	395.55
534.35	395.55
534.52	374.49
534.69	395.55
534.86	447.04
535.03	456.40
535.20	362.78
535.37	444.70
535.54	395.55
535.71	430.66
535.88	552.37
536.05	416.62
536.22	456.40
536.38	447.04
536.55	369.80
536.72	496.19
536.89	325.33
537.06	458.74
537.23	362.78
537.40	381.51
537.57	376.83
537.74	449.38
537.91	416.62
538.08	437.68
538.25	430.66
538.42	437.68
538.59	388.53
538.75	355.76
538.92	447.04
539.09	374.49
539.26	402.57
539.43	482.15
539.60	425.98
539.77	395.55
539.94	465.77
540.11	421.30
540.28	458.74
540.44	425.98
540.61	463.43
540.78	386.19
540.95	411.93
541.12	517.26
541.29	451.72
541.46	418.96
541.62	388.53
541.79	393.21
541.96	428.32
542.13	442.36
542.30	376.83
542.47	421.30
542.63	404.91
542.80	486.83
542.97	505.56
543.14	444.70
543.31	365.12
543.48	491.51
543.64	322.99
543.81	456.40
543.98	461.09
544.15	470.45
544.32	411.93
544.48	367.46
544.65	416.62
544.82	395.55
544.99	388.53
545.16	372.15
545.32	372.15
545.49	500.87
545.66	381.51
545.83	397.89
546.00	353.42
546.16	360.44
546.33	400.23
546.50	430.66
546.67	435.34
546.83	369.80
547.00	407.25
547.17	367.46
547.34	395.55
547.50	421.30
547.67	416.62
547.84	388.53
548.00	353.42
548.17	397.89
548.34	358.10
548.51	409.59
548.67	454.06
548.84	402.57
549.01	395.55
549.18	414.27
549.34	437.68
549.51	433.00
549.68	465.77
549.84	411.93
550.01	428.32
550.18	458.74
550.34	456.40
550.51	451.72
550.68	437.68
550.84	451.72
551.01	381.51
551.18	428.32
551.34	353.42
551.51	454.06
551.68	463.43
551.84	414.27
552.01	423.64
552.18	353.42
552.34	428.32
552.51	435.34
552.68	411.93
552.84	437.68
553.01	421.30
553.18	428.32
553.34	353.42
553.51	409.59
553.67	472.79
553.84	416.62
554.01	423.64
554.17	491.51
554.34	414.27
554.51	395.55
554.67	428.32
554.84	468.11
555.00	458.74
555.17	390.87
555.33	491.51
555.50	435.34
555.67	367.46
555.83	414.27
556.00	521.94
556.16	496.19
556.33	437.68
556.50	465.77
556.66	418.96
556.83	344.06
556.99	400.23
557.16	440.02
557.32	411.93
557.49	421.30
557.65	425.98
557.82	423.64
557.98	372.15
558.15	430.66
558.32	416.62
558.48	447.04
558.65	397.89
558.81	437.68
558.98	386.19
559.14	414.27
559.31	430.66
559.47	395.55
559.64	393.21
559.80	416.62
559.97	456.40
560.13	409.59
560.30	381.51
560.46	402.57
560.63	393.21
560.79	435.34
560.96	449.38
561.12	407.25
561.29	428.32
561.45	369.80
561.61	435.34
561.78	519.60
561.94	510.24
562.11	430.66
562.27	451.72
562.44	411.93
562.60	395.55
562.77	433.00
562.93	458.74
563.10	390.87
563.26	402.57
563.42	449.38
563.59	372.15
563.75	411.93
563.92	372.15
564.08	449.38
564.24	425.98
564.41	486.83
564.57	433.00
564.74	435.34
564.90	435.34
565.07	444.70
565.23	365.12
565.39	379.17
565.56	379.17
565.72	416.62
565.88	416.62
566.05	416.62
566.21	463.43
566.38	465.77
566.54	407.25
566.70	442.36
566.87	456.40
567.03	308.95
567.19	454.06
567.36	433.00
567.52	428.32
567.68	461.09
567.85	411.93
568.01	360.44
568.17	409.59
568.34	456.40
568.50	479.81
568.66	449.38
568.83	498.53
568.99	437.68
569.15	479.81
569.32	369.80
569.48	379.17
569.64	421.30
569.81	393.21
569.97	433.00
570.13	489.17
570.30	442.36
570.46	500.87
570.62	435.34
570.78	351.08
570.95	369.80
571.11	470.45
571.27	421.30
571.43	388.53
571.60	416.62
571.76	440.02
571.92	451.72
572.09	393.21
572.25	454.06
572.41	449.38
572.57	411.93
572.74	388.53
572.90	423.64
573.06	468.11
573.22	367.46
573.38	421.30
573.55	411.93
573.71	440.02
573.87	468.11
574.03	404.91
574.20	362.78
574.36	437.68
574.52	456.40
574.68	374.49
574.84	416.62
575.01	437.68
575.17	433.00
575.33	341.72
575.49	444.70
575.65	383.85
575.82	437.68
575.98	447.04
576.14	416.62
576.30	407.25
576.46	362.78
576.62	444.70
576.79	400.23
576.95	433.00
577.11	479.81
577.27	360.44
577.43	479.81
577.59	400.23
577.75	386.19
577.92	475.13
578.08	465.77
578.24	440.02
578.40	454.06
578.56	456.40
578.72	465.77
578.88	379.17
579.04	458.74
579.21	411.93
579.37	308.95
579.53	465.77
579.69	418.96
579.85	379.17
580.01	404.91
580.17	379.17
580.33	437.68
580.49	440.02
580.65	404.91
580.82	447.04
580.98	435.34
581.14	322.99
581.30	479.81
581.46	341.72
581.62	484.49
581.78	440.02
581.94	433.00
582.10	451.72
582.26	456.40
582.42	337.04
582.58	437.68
582.74	416.62
582.90	407.25
583.06	461.09
583.22	421.30
583.38	381.51
583.54	397.89
583.70	442.36
583.86	372.15
584.02	458.74
584.18	465.77
584.34	421.30
584.50	430.66
584.66	395.55
584.82	482.15
584.98	423.64
585.14	425.98
585.30	465.77
585.46	383.85
585.62	365.12
585.78	353.42
585.94	454.06
586.10	484.49
586.26	411.93
586.42	463.43
586.58	383.85
586.74	414.27
586.90	409.59
587.06	433.00
587.22	400.23
587.38	304.27
587.54	496.19
587.70	451.72
587.86	414.27
588.02	379.17
588.18	456.40
588.34	395.55
588.49	444.70
588.65	362.78
588.81	411.93
588.97	353.42
589.13	465.77
589.29	449.38
589.45	421.30
589.61	379.17
589.77	442.36
589.93	435.34
590.08	423.64
590.24	414.27
590.40	423.64
590.56	482.15
590.72	402.57
590.88	393.21
591.04	440.02
591.20	390.87
591.35	423.64
591.51	390.87
591.67	376.83
591.83	414.27
591.99	411.93
592.15	386.19
592.31	362.78
592.46	418.96
592.62	433.00
592.78	421.30
592.94	418.96
593.10	341.72
593.26	512.58
593.41	407.25
593.57	404.91
593.73	409.59
593.89	449.38
594.05	383.85
594.20	348.74
594.36	330.02
594.52	365.12
594.68	339.38
594.84	433.00
594.99	433.00
595.15	383.85
595.31	486.83
595.47	433.00
595.62	400.23
595.78	414.27
595.94	442.36
596.10	442.36
596.25	376.83
596.41	425.98
596.57	437.68
596.73	393.21
596.88	465.77
597.04	475.13
597.20	381.51
597.36	390.87
597.51	388.53
597.67	425.98
597.83	510.24
597.99	458.74
598.14	475.13
598.30	451.72
598.46	395.55
598.61	400.23
598.77	433.00
598.93	369.80
599.09	444.70
599.24	322.99
599.40	430.66
599.56	362.78
599.71	327.68
599.87	421.30
600.03	435.34
600.18	482.15
600.34	444.70
600.50	386.19
600.65	367.46
600.81	447.04
600.97	423.64
601.12	414.27
601.28	449.38
601.44	404.91
601.59	360.44
601.75	411.93
601.91	545.34
602.06	372.15
602.22	573.43
602.37	407.25
602.53	421.30
602.69	463.43
602.84	435.34
603.00	486.83
603.16	407.25
603.31	376.83
603.47	472.79
603.62	386.19
603.78	372.15
603.94	404.91
604.09	395.55
604.25	409.59
604.40	386.19
604.56	386.19
604.71	353.42
604.87	386.19
605.03	442.36
605.18	418.96
605.34	409.59
605.49	421.30
605.65	407.25
605.80	468.11
605.96	400.23
606.12	465.77
606.27	404.91
606.43	447.04
606.58	463.43
606.74	465.77
606.89	477.47
607.05	400.23
607.20	414.27
607.36	397.89
607.51	365.12
607.67	374.49
607.82	395.55
607.98	484.49
608.13	423.64
608.29	393.21
608.44	404.91
608.60	409.59
608.75	477.47
608.91	454.06
609.06	456.40
609.22	437.68
609.37	430.66
609.53	355.76
609.68	416.62
609.84	470.45
609.99	369.80
610.15	493.85
