SpectraSuite Data File
++++++++++++++++++++++++++++++++++++
Date: Fri Oct 25 12:11:27 EDT 2013
User: price-jones
Dark Spectrum Present: No
Reference Spectrum Present: No
Number of Sampled Component Spectra: 1
Spectrometers: USB2+H05261
Integration Time (usec): 100000 (USB2+H05261)
Spectra Averaged: 1 (USB2+H05261)
Boxcar Smoothing: 0 (USB2+H05261)
Correct for Electrical Dark: No (USB2+H05261)
Strobe/Lamp Enabled: No (USB2+H05261)
Correct for Detector Non-linearity: No (USB2+H05261)
Correct for Stray Light: No (USB2+H05261)
Number of Pixels in Processed Spectrum: 2048
>>>>>Begin Processed Spectral Data<<<<<
365.73	346.40
365.92	346.40
366.12	346.40
366.32	255.12
366.52	266.82
366.72	276.18
366.91	241.08
367.11	229.37
367.31	201.29
367.51	212.99
367.70	215.33
367.90	201.29
368.10	149.79
368.30	194.26
368.49	180.22
368.69	325.33
368.89	266.82
369.09	285.55
369.28	243.42
369.48	290.23
369.68	250.44
369.87	285.55
370.07	320.65
370.27	308.95
370.47	327.68
370.66	353.42
370.86	308.95
371.06	418.96
371.25	402.57
371.45	407.25
371.65	372.15
371.84	390.87
372.04	402.57
372.24	346.40
372.44	433.00
372.63	397.89
372.83	440.02
373.03	386.19
373.22	416.62
373.42	444.70
373.62	444.70
373.81	418.96
374.01	433.00
374.21	423.64
374.40	395.55
374.60	421.30
374.79	379.17
374.99	393.21
375.19	425.98
375.38	386.19
375.58	470.45
375.78	475.13
375.97	372.15
376.17	479.81
376.37	451.72
376.56	416.62
376.76	402.57
376.95	381.51
377.15	365.12
377.35	423.64
377.54	489.17
377.74	348.74
377.93	433.00
378.13	344.06
378.33	451.72
378.52	461.09
378.72	468.11
378.91	433.00
379.11	400.23
379.31	402.57
379.50	379.17
379.70	468.11
379.89	482.15
380.09	400.23
380.28	355.76
380.48	376.83
380.68	402.57
380.87	376.83
381.07	407.25
381.26	358.10
381.46	330.02
381.65	397.89
381.85	379.17
382.04	400.23
382.24	397.89
382.43	433.00
382.63	409.59
382.83	383.85
383.02	407.25
383.22	346.40
383.41	421.30
383.61	386.19
383.80	491.51
384.00	294.91
384.19	418.96
384.39	360.44
384.58	374.49
384.78	477.47
384.97	390.87
385.17	358.10
385.36	339.38
385.56	372.15
385.75	449.38
385.95	433.00
386.14	423.64
386.34	397.89
386.53	437.68
386.72	365.12
386.92	411.93
387.11	339.38
387.31	472.79
387.50	344.06
387.70	395.55
387.89	430.66
388.09	388.53
388.28	388.53
388.48	362.78
388.67	407.25
388.86	437.68
389.06	421.30
389.25	407.25
389.45	444.70
389.64	430.66
389.84	472.79
390.03	440.02
390.22	341.72
390.42	444.70
390.61	421.30
390.81	360.44
391.00	430.66
391.19	449.38
391.39	416.62
391.58	430.66
391.78	386.19
391.97	376.83
392.16	435.34
392.36	407.25
392.55	479.81
392.75	430.66
392.94	346.40
393.13	400.23
393.33	437.68
393.52	414.27
393.71	456.40
393.91	479.81
394.10	468.11
394.29	430.66
394.49	454.06
394.68	458.74
394.88	442.36
395.07	407.25
395.26	430.66
395.46	416.62
395.65	463.43
395.84	404.91
396.04	425.98
396.23	454.06
396.42	437.68
396.62	468.11
396.81	444.70
397.00	411.93
397.19	416.62
397.39	383.85
397.58	411.93
397.77	372.15
397.97	400.23
398.16	447.04
398.35	437.68
398.55	341.72
398.74	437.68
398.93	388.53
399.12	423.64
399.32	388.53
399.51	332.36
399.70	372.15
399.90	454.06
400.09	440.02
400.28	423.64
400.47	414.27
400.67	484.49
400.86	433.00
401.05	449.38
401.24	468.11
401.44	421.30
401.63	390.87
401.82	365.12
402.01	339.38
402.21	414.27
402.40	409.59
402.59	416.62
402.78	393.21
402.97	418.96
403.17	407.25
403.36	379.17
403.55	425.98
403.74	355.76
403.93	365.12
404.13	423.64
404.32	339.38
404.51	334.70
404.70	449.38
404.89	395.55
405.09	484.49
405.28	379.17
405.47	433.00
405.66	360.44
405.85	369.80
406.05	470.45
406.24	428.32
406.43	425.98
406.62	449.38
406.81	388.53
407.00	442.36
407.20	407.25
407.39	393.21
407.58	465.77
407.77	451.72
407.96	442.36
408.15	411.93
408.34	365.12
408.54	369.80
408.73	423.64
408.92	383.85
409.11	428.32
409.30	440.02
409.49	358.10
409.68	397.89
409.87	402.57
410.07	388.53
410.26	369.80
410.45	395.55
410.64	437.68
410.83	390.87
411.02	437.68
411.21	400.23
411.40	437.68
411.59	351.08
411.78	397.89
411.98	344.06
412.17	334.70
412.36	437.68
412.55	390.87
412.74	442.36
412.93	437.68
413.12	416.62
413.31	411.93
413.50	390.87
413.69	409.59
413.88	421.30
414.07	369.80
414.26	451.72
414.45	433.00
414.64	362.78
414.83	388.53
415.02	383.85
415.22	472.79
415.41	461.09
415.60	458.74
415.79	437.68
415.98	393.21
416.17	395.55
416.36	451.72
416.55	440.02
416.74	379.17
416.93	379.17
417.12	409.59
417.31	402.57
417.50	428.32
417.69	437.68
417.88	489.17
418.07	320.65
418.26	472.79
418.45	376.83
418.64	444.70
418.83	421.30
419.02	428.32
419.21	444.70
419.39	425.98
419.58	428.32
419.77	386.19
419.96	421.30
420.15	477.47
420.34	369.80
420.53	454.06
420.72	454.06
420.91	376.83
421.10	456.40
421.29	433.00
421.48	339.38
421.67	372.15
421.86	404.91
422.05	395.55
422.24	374.49
422.43	428.32
422.61	365.12
422.80	468.11
422.99	369.80
423.18	386.19
423.37	437.68
423.56	374.49
423.75	393.21
423.94	395.55
424.13	367.46
424.32	411.93
424.50	411.93
424.69	468.11
424.88	386.19
425.07	341.72
425.26	407.25
425.45	421.30
425.64	372.15
425.83	447.04
426.01	430.66
426.20	409.59
426.39	414.27
426.58	404.91
426.77	411.93
426.96	411.93
427.15	351.08
427.33	472.79
427.52	402.57
427.71	390.87
427.90	421.30
428.09	416.62
428.28	505.56
428.46	414.27
428.65	411.93
428.84	493.85
429.03	449.38
429.22	397.89
429.40	376.83
429.59	339.38
429.78	461.09
429.97	383.85
430.16	322.99
430.34	369.80
430.53	407.25
430.72	372.15
430.91	458.74
431.10	372.15
431.28	428.32
431.47	383.85
431.66	414.27
431.85	423.64
432.03	374.49
432.22	414.27
432.41	428.32
432.60	393.21
432.79	379.17
432.97	451.72
433.16	430.66
433.35	435.34
433.54	374.49
433.72	423.64
433.91	423.64
434.10	414.27
434.28	440.02
434.47	400.23
434.66	454.06
434.85	440.02
435.03	397.89
435.22	440.02
435.41	454.06
435.59	369.80
435.78	400.23
435.97	397.89
436.16	454.06
436.34	402.57
436.53	381.51
436.72	421.30
436.90	472.79
437.09	444.70
437.28	395.55
437.46	404.91
437.65	440.02
437.84	496.19
438.02	388.53
438.21	454.06
438.40	465.77
438.58	381.51
438.77	397.89
438.96	475.13
439.14	390.87
439.33	456.40
439.52	390.87
439.70	470.45
439.89	442.36
440.08	379.17
440.26	444.70
440.45	449.38
440.63	477.47
440.82	440.02
441.01	425.98
441.19	442.36
441.38	414.27
441.57	376.83
441.75	423.64
441.94	468.11
442.12	454.06
442.31	383.85
442.50	418.96
442.68	374.49
442.87	444.70
443.05	482.15
443.24	351.08
443.43	367.46
443.61	442.36
443.80	381.51
443.98	423.64
444.17	442.36
444.35	423.64
444.54	369.80
444.73	449.38
444.91	395.55
445.10	355.76
445.28	393.21
445.47	475.13
445.65	379.17
445.84	414.27
446.02	442.36
446.21	367.46
446.39	414.27
446.58	418.96
446.77	421.30
446.95	360.44
447.14	397.89
447.32	463.43
447.51	465.77
447.69	402.57
447.88	414.27
448.06	362.78
448.25	451.72
448.43	430.66
448.62	379.17
448.80	390.87
448.99	416.62
449.17	367.46
449.36	442.36
449.54	376.83
449.73	437.68
449.91	367.46
450.10	454.06
450.28	423.64
450.46	461.09
450.65	414.27
450.83	409.59
451.02	428.32
451.20	449.38
451.39	409.59
451.57	418.96
451.76	411.93
451.94	425.98
452.13	365.12
452.31	362.78
452.49	437.68
452.68	430.66
452.86	393.21
453.05	386.19
453.23	372.15
453.42	332.36
453.60	449.38
453.78	437.68
453.97	444.70
454.15	379.17
454.34	416.62
454.52	301.93
454.70	484.49
454.89	360.44
455.07	346.40
455.26	454.06
455.44	397.89
455.62	376.83
455.81	447.04
455.99	423.64
456.17	440.02
456.36	404.91
456.54	404.91
456.73	400.23
456.91	351.08
457.09	400.23
457.28	369.80
457.46	454.06
457.64	435.34
457.83	330.02
458.01	454.06
458.19	383.85
458.38	397.89
458.56	339.38
458.74	404.91
458.93	418.96
459.11	430.66
459.29	440.02
459.48	416.62
459.66	437.68
459.84	402.57
460.03	503.22
460.21	332.36
460.39	409.59
460.57	374.49
460.76	404.91
460.94	388.53
461.12	444.70
461.31	440.02
461.49	393.21
461.67	355.76
461.85	374.49
462.04	388.53
462.22	772.38
462.40	414.27
462.59	465.77
462.77	409.59
462.95	390.87
463.13	437.68
463.32	430.66
463.50	463.43
463.68	463.43
463.86	416.62
464.05	449.38
464.23	456.40
464.41	440.02
464.59	376.83
464.78	421.30
464.96	423.64
465.14	393.21
465.32	456.40
465.50	423.64
465.69	444.70
465.87	437.68
466.05	454.06
466.23	491.51
466.41	390.87
466.60	376.83
466.78	353.42
466.96	428.32
467.14	369.80
467.32	461.09
467.51	468.11
467.69	418.96
467.87	416.62
468.05	437.68
468.23	463.43
468.41	404.91
468.60	442.36
468.78	454.06
468.96	475.13
469.14	433.00
469.32	447.04
469.50	395.55
469.69	362.78
469.87	447.04
470.05	411.93
470.23	360.44
470.41	440.02
470.59	472.79
470.77	437.68
470.95	393.21
471.14	409.59
471.32	369.80
471.50	435.34
471.68	416.62
471.86	454.06
472.04	337.04
472.22	449.38
472.40	437.68
472.58	425.98
472.77	395.55
472.95	390.87
473.13	444.70
473.31	493.85
473.49	390.87
473.67	348.74
473.85	444.70
474.03	369.80
474.21	388.53
474.39	442.36
474.57	428.32
474.75	400.23
474.93	353.42
475.12	411.93
475.30	421.30
475.48	414.27
475.66	404.91
475.84	454.06
476.02	409.59
476.20	449.38
476.38	484.49
476.56	428.32
476.74	440.02
476.92	414.27
477.10	402.57
477.28	470.45
477.46	395.55
477.64	374.49
477.82	332.36
478.00	411.93
478.18	486.83
478.36	451.72
478.54	433.00
478.72	418.96
478.90	388.53
479.08	388.53
479.26	435.34
479.44	444.70
479.62	388.53
479.80	360.44
479.98	374.49
480.16	383.85
480.34	437.68
480.52	468.11
480.70	489.17
480.88	421.30
481.06	409.59
481.24	423.64
481.41	414.27
481.59	472.79
481.77	470.45
481.95	395.55
482.13	437.68
482.31	411.93
482.49	407.25
482.67	433.00
482.85	425.98
483.03	416.62
483.21	367.46
483.39	379.17
483.57	404.91
483.74	472.79
483.92	393.21
484.10	383.85
484.28	444.70
484.46	444.70
484.64	325.33
484.82	454.06
485.00	367.46
485.18	482.15
485.35	425.98
485.53	395.55
485.71	407.25
485.89	433.00
486.07	386.19
486.25	428.32
486.43	402.57
486.61	435.34
486.78	409.59
486.96	498.53
487.14	463.43
487.32	428.32
487.50	400.23
487.68	468.11
487.85	355.76
488.03	456.40
488.21	390.87
488.39	372.15
488.57	400.23
488.75	404.91
488.92	512.58
489.10	430.66
489.28	416.62
489.46	402.57
489.64	456.40
489.81	376.83
489.99	409.59
490.17	447.04
490.35	465.77
490.53	414.27
490.70	393.21
490.88	447.04
491.06	428.32
491.24	418.96
491.41	442.36
491.59	362.78
491.77	360.44
491.95	442.36
492.13	440.02
492.30	390.87
492.48	461.09
492.66	433.00
492.84	418.96
493.01	421.30
493.19	372.15
493.37	472.79
493.54	353.42
493.72	367.46
493.90	440.02
494.08	407.25
494.25	367.46
494.43	409.59
494.61	496.19
494.79	428.32
494.96	388.53
495.14	470.45
495.32	421.30
495.49	437.68
495.67	402.57
495.85	418.96
496.02	418.96
496.20	454.06
496.38	402.57
496.55	411.93
496.73	444.70
496.91	428.32
497.09	470.45
497.26	447.04
497.44	397.89
497.62	416.62
497.79	447.04
497.97	430.66
498.14	388.53
498.32	374.49
498.50	447.04
498.67	372.15
498.85	447.04
499.03	315.97
499.20	440.02
499.38	404.91
499.56	449.38
499.73	444.70
499.91	433.00
500.08	339.38
500.26	421.30
500.44	395.55
500.61	423.64
500.79	437.68
500.97	425.98
501.14	409.59
501.32	388.53
501.49	383.85
501.67	425.98
501.84	400.23
502.02	379.17
502.20	482.15
502.37	379.17
502.55	421.30
502.72	379.17
502.90	437.68
503.07	393.21
503.25	402.57
503.43	411.93
503.60	337.04
503.78	428.32
503.95	400.23
504.13	418.96
504.30	418.96
504.48	402.57
504.65	472.79
504.83	477.47
505.01	421.30
505.18	425.98
505.36	355.76
505.53	404.91
505.71	390.87
505.88	468.11
506.06	404.91
506.23	397.89
506.41	381.51
506.58	486.83
506.76	454.06
506.93	440.02
507.11	367.46
507.28	374.49
507.46	449.38
507.63	447.04
507.81	428.32
507.98	372.15
508.16	376.83
508.33	365.12
508.50	461.09
508.68	423.64
508.85	308.95
509.03	381.51
509.20	372.15
509.38	468.11
509.55	465.77
509.73	393.21
509.90	416.62
510.08	433.00
510.25	486.83
510.42	409.59
510.60	395.55
510.77	430.66
510.95	454.06
511.12	423.64
511.30	440.02
511.47	418.96
511.64	411.93
511.82	353.42
511.99	294.91
512.17	400.23
512.34	409.59
512.51	425.98
512.69	367.46
512.86	365.12
513.04	374.49
513.21	374.49
513.38	365.12
513.56	400.23
513.73	479.81
513.90	381.51
514.08	463.43
514.25	421.30
514.43	449.38
514.60	423.64
514.77	418.96
514.95	411.93
515.12	404.91
515.29	433.00
515.47	372.15
515.64	503.22
515.81	365.12
515.99	390.87
516.16	374.49
516.33	451.72
516.51	407.25
516.68	388.53
516.85	428.32
517.03	416.62
517.20	435.34
517.37	489.17
517.54	409.59
517.72	425.98
517.89	421.30
518.06	376.83
518.24	491.51
518.41	409.59
518.58	454.06
518.75	407.25
518.93	409.59
519.10	411.93
519.27	397.89
519.45	376.83
519.62	379.17
519.79	430.66
519.96	390.87
520.14	435.34
520.31	479.81
520.48	416.62
520.65	475.13
520.83	421.30
521.00	428.32
521.17	393.21
521.34	390.87
521.52	416.62
521.69	341.72
521.86	421.30
522.03	351.08
522.20	428.32
522.38	355.76
522.55	440.02
522.72	386.19
522.89	411.93
523.07	421.30
523.24	463.43
523.41	423.64
523.58	491.51
523.75	402.57
523.92	334.70
524.10	430.66
524.27	351.08
524.44	388.53
524.61	451.72
524.78	376.83
524.96	386.19
525.13	351.08
525.30	428.32
525.47	402.57
525.64	409.59
525.81	425.98
525.98	440.02
526.16	376.83
526.33	367.46
526.50	461.09
526.67	416.62
526.84	402.57
527.01	369.80
527.18	376.83
527.36	465.77
527.53	360.44
527.70	393.21
527.87	433.00
528.04	393.21
528.21	435.34
528.38	390.87
528.55	454.06
528.72	440.02
528.89	442.36
529.07	407.25
529.24	369.80
529.41	437.68
529.58	447.04
529.75	428.32
529.92	395.55
530.09	414.27
530.26	407.25
530.43	414.27
530.60	395.55
530.77	395.55
530.94	435.34
531.11	395.55
531.28	435.34
531.46	402.57
531.63	400.23
531.80	465.77
531.97	477.47
532.14	435.34
532.31	390.87
532.48	402.57
532.65	402.57
532.82	400.23
532.99	449.38
533.16	330.02
533.33	433.00
533.50	414.27
533.67	369.80
533.84	442.36
534.01	449.38
534.18	442.36
534.35	472.79
534.52	449.38
534.69	395.55
534.86	482.15
535.03	390.87
535.20	360.44
535.37	400.23
535.54	440.02
535.71	454.06
535.88	482.15
536.05	428.32
536.22	423.64
536.38	409.59
536.55	423.64
536.72	421.30
536.89	437.68
537.06	379.17
537.23	388.53
537.40	400.23
537.57	423.64
537.74	454.06
537.91	418.96
538.08	447.04
538.25	430.66
538.42	414.27
538.59	444.70
538.75	411.93
538.92	444.70
539.09	540.66
539.26	367.46
539.43	428.32
539.60	456.40
539.77	475.13
539.94	472.79
540.11	425.98
540.28	458.74
540.44	463.43
540.61	400.23
540.78	397.89
540.95	437.68
541.12	430.66
541.29	362.78
541.46	470.45
541.62	395.55
541.79	507.90
541.96	421.30
542.13	465.77
542.30	400.23
542.47	468.11
542.63	437.68
542.80	400.23
542.97	451.72
543.14	465.77
543.31	437.68
543.48	383.85
543.64	362.78
543.81	428.32
543.98	372.15
544.15	388.53
544.32	379.17
544.48	395.55
544.65	416.62
544.82	369.80
544.99	433.00
545.16	425.98
545.32	440.02
545.49	435.34
545.66	414.27
545.83	444.70
546.00	407.25
546.16	418.96
546.33	482.15
546.50	369.80
546.67	374.49
546.83	433.00
547.00	407.25
547.17	376.83
547.34	404.91
547.50	437.68
547.67	423.64
547.84	322.99
548.00	409.59
548.17	425.98
548.34	327.68
548.51	447.04
548.67	414.27
548.84	465.77
549.01	393.21
549.18	374.49
549.34	456.40
549.51	416.62
549.68	465.77
549.84	418.96
550.01	416.62
550.18	456.40
550.34	414.27
550.51	428.32
550.68	454.06
550.84	386.19
551.01	428.32
551.18	411.93
551.34	372.15
551.51	383.85
551.68	437.68
551.84	411.93
552.01	414.27
552.18	390.87
552.34	440.02
552.51	440.02
552.68	409.59
552.84	421.30
553.01	376.83
553.18	430.66
553.34	372.15
553.51	397.89
553.67	386.19
553.84	456.40
554.01	447.04
554.17	423.64
554.34	414.27
554.51	447.04
554.67	400.23
554.84	407.25
555.00	402.57
555.17	353.42
555.33	458.74
555.50	428.32
555.67	383.85
555.83	423.64
556.00	442.36
556.16	512.58
556.33	418.96
556.50	440.02
556.66	440.02
556.83	447.04
556.99	437.68
557.16	414.27
557.32	442.36
557.49	341.72
557.65	407.25
557.82	404.91
557.98	444.70
558.15	386.19
558.32	477.47
558.48	489.17
558.65	400.23
558.81	456.40
558.98	383.85
559.14	390.87
559.31	400.23
559.47	514.92
559.64	465.77
559.80	388.53
559.97	409.59
560.13	414.27
560.30	388.53
560.46	379.17
560.63	444.70
560.79	465.77
560.96	379.17
561.12	430.66
561.29	456.40
561.45	421.30
561.61	442.36
561.78	397.89
561.94	386.19
562.11	379.17
562.27	449.38
562.44	447.04
562.60	493.85
562.77	418.96
562.93	489.17
563.10	421.30
563.26	430.66
563.42	486.83
563.59	423.64
563.75	489.17
563.92	442.36
564.08	360.44
564.24	430.66
564.41	428.32
564.57	437.68
564.74	390.87
564.90	407.25
565.07	468.11
565.23	407.25
565.39	393.21
565.56	451.72
565.72	386.19
565.88	454.06
566.05	421.30
566.21	489.17
566.38	456.40
566.54	414.27
566.70	498.53
566.87	433.00
567.03	411.93
567.19	475.13
567.36	435.34
567.52	416.62
567.68	454.06
567.85	404.91
568.01	381.51
568.17	430.66
568.34	444.70
568.50	451.72
568.66	479.81
568.83	479.81
568.99	507.90
569.15	404.91
569.32	423.64
569.48	402.57
569.64	442.36
569.81	418.96
569.97	472.79
570.13	372.15
570.30	397.89
570.46	374.49
570.62	479.81
570.78	383.85
570.95	449.38
571.11	482.15
571.27	416.62
571.43	407.25
571.60	400.23
571.76	372.15
571.92	465.77
572.09	440.02
572.25	418.96
572.41	344.06
572.57	383.85
572.74	383.85
572.90	449.38
573.06	451.72
573.22	388.53
573.38	414.27
573.55	360.44
573.71	442.36
573.87	376.83
574.03	407.25
574.20	358.10
574.36	374.49
574.52	428.32
574.68	458.74
574.84	402.57
575.01	355.76
575.17	456.40
575.33	376.83
575.49	404.91
575.65	449.38
575.82	402.57
575.98	381.51
576.14	416.62
576.30	418.96
576.46	407.25
576.62	402.57
576.79	442.36
576.95	416.62
577.11	447.04
577.27	367.46
577.43	416.62
577.59	484.49
577.75	379.17
577.92	308.95
578.08	411.93
578.24	458.74
578.40	402.57
578.56	442.36
578.72	444.70
578.88	393.21
579.04	332.36
579.21	479.81
579.37	433.00
579.53	428.32
579.69	435.34
579.85	423.64
580.01	332.36
580.17	358.10
580.33	372.15
580.49	507.90
580.65	440.02
580.82	425.98
580.98	472.79
581.14	447.04
581.30	472.79
581.46	386.19
581.62	418.96
581.78	423.64
581.94	428.32
582.10	444.70
582.26	440.02
582.42	395.55
582.58	390.87
582.74	414.27
582.90	308.95
583.06	447.04
583.22	444.70
583.38	404.91
583.54	416.62
583.70	433.00
583.86	404.91
584.02	463.43
584.18	458.74
584.34	374.49
584.50	461.09
584.66	451.72
584.82	388.53
584.98	482.15
585.14	421.30
585.30	423.64
585.46	454.06
585.62	390.87
585.78	358.10
585.94	447.04
586.10	383.85
586.26	468.11
586.42	437.68
586.58	442.36
586.74	451.72
586.90	407.25
587.06	390.87
587.22	376.83
587.38	414.27
587.54	402.57
587.70	376.83
587.86	411.93
588.02	442.36
588.18	472.79
588.34	414.27
588.49	341.72
588.65	425.98
588.81	440.02
588.97	414.27
589.13	440.02
589.29	411.93
589.45	482.15
589.61	477.47
589.77	472.79
589.93	411.93
590.08	449.38
590.24	404.91
590.40	411.93
590.56	421.30
590.72	472.79
590.88	458.74
591.04	437.68
591.20	414.27
591.35	435.34
591.51	449.38
591.67	374.49
591.83	418.96
591.99	440.02
592.15	418.96
592.31	444.70
592.46	433.00
592.62	395.55
592.78	404.91
592.94	376.83
593.10	437.68
593.26	369.80
593.41	409.59
593.57	404.91
593.73	416.62
593.89	465.77
594.05	409.59
594.20	397.89
594.36	468.11
594.52	418.96
594.68	400.23
594.84	418.96
594.99	428.32
595.15	482.15
595.31	395.55
595.47	414.27
595.62	374.49
595.78	411.93
595.94	372.15
596.10	416.62
596.25	433.00
596.41	425.98
596.57	346.40
596.73	428.32
596.88	418.96
597.04	440.02
597.20	383.85
597.36	440.02
597.51	425.98
597.67	374.49
597.83	416.62
597.99	477.47
598.14	442.36
598.30	411.93
598.46	442.36
598.61	475.13
598.77	383.85
598.93	308.95
599.09	430.66
599.24	482.15
599.40	409.59
599.56	414.27
599.71	484.49
599.87	372.15
600.03	423.64
600.18	423.64
600.34	451.72
600.50	416.62
600.65	376.83
600.81	479.81
600.97	414.27
601.12	416.62
601.28	477.47
601.44	411.93
601.59	479.81
601.75	482.15
601.91	402.57
602.06	468.11
602.22	465.77
602.37	397.89
602.53	428.32
602.69	416.62
602.84	315.97
603.00	407.25
603.16	404.91
603.31	496.19
603.47	404.91
603.62	444.70
603.78	390.87
603.94	388.53
604.09	407.25
604.25	449.38
604.40	463.43
604.56	369.80
604.71	440.02
604.87	435.34
605.03	435.34
605.18	418.96
605.34	369.80
605.49	421.30
605.65	372.15
605.80	409.59
605.96	358.10
606.12	435.34
606.27	423.64
606.43	407.25
606.58	407.25
606.74	423.64
606.89	402.57
607.05	479.81
607.20	484.49
607.36	454.06
607.51	395.55
607.67	442.36
607.82	397.89
607.98	475.13
608.13	414.27
608.29	400.23
608.44	425.98
608.60	449.38
608.75	425.98
608.91	468.11
609.06	440.02
609.22	470.45
609.37	351.08
609.53	374.49
609.68	409.59
609.84	395.55
609.99	465.77
610.15	418.96
