SpectraSuite Data File
++++++++++++++++++++++++++++++++++++
Date: Fri Oct 25 12:10:48 EDT 2013
User: price-jones
Dark Spectrum Present: No
Reference Spectrum Present: No
Number of Sampled Component Spectra: 1
Spectrometers: USB2+H05261
Integration Time (usec): 100000 (USB2+H05261)
Spectra Averaged: 1 (USB2+H05261)
Boxcar Smoothing: 0 (USB2+H05261)
Correct for Electrical Dark: No (USB2+H05261)
Strobe/Lamp Enabled: No (USB2+H05261)
Correct for Detector Non-linearity: No (USB2+H05261)
Correct for Stray Light: No (USB2+H05261)
Number of Pixels in Processed Spectrum: 2048
>>>>>Begin Processed Spectral Data<<<<<
365.73	313.63
365.92	313.63
366.12	313.63
366.32	224.69
366.52	182.56
366.72	276.18
366.91	297.25
367.11	266.82
367.31	126.39
367.51	241.08
367.70	180.22
367.90	266.82
368.10	283.20
368.30	262.14
368.49	287.89
368.69	217.67
368.89	234.05
369.09	201.29
369.28	252.78
369.48	318.31
369.68	255.12
369.87	264.48
370.07	264.48
370.27	360.44
370.47	311.29
370.66	369.80
370.86	362.78
371.06	353.42
371.25	425.98
371.45	428.32
371.65	353.42
371.84	381.51
372.04	358.10
372.24	362.78
372.44	381.51
372.63	367.46
372.83	475.13
373.03	348.74
373.22	397.89
373.42	414.27
373.62	454.06
373.81	407.25
374.01	421.30
374.21	479.81
374.40	456.40
374.60	458.74
374.79	411.93
374.99	348.74
375.19	465.77
375.38	414.27
375.58	451.72
375.78	486.83
375.97	388.53
376.17	430.66
376.37	423.64
376.56	430.66
376.76	402.57
376.95	437.68
377.15	465.77
377.35	437.68
377.54	400.23
377.74	351.08
377.93	468.11
378.13	421.30
378.33	404.91
378.52	433.00
378.72	444.70
378.91	521.94
379.11	472.79
379.31	437.68
379.50	355.76
379.70	500.87
379.89	381.51
380.09	475.13
380.28	393.21
380.48	411.93
380.68	425.98
380.87	355.76
381.07	500.87
381.26	402.57
381.46	425.98
381.65	402.57
381.85	395.55
382.04	409.59
382.24	402.57
382.43	397.89
382.63	404.91
382.83	447.04
383.02	458.74
383.22	447.04
383.41	477.47
383.61	472.79
383.80	416.62
384.00	390.87
384.19	379.17
384.39	386.19
384.58	355.76
384.78	526.62
384.97	433.00
385.17	386.19
385.36	395.55
385.56	425.98
385.75	318.31
385.95	423.64
386.14	402.57
386.34	360.44
386.53	444.70
386.72	383.85
386.92	414.27
387.11	423.64
387.31	404.91
387.50	337.04
387.70	463.43
387.89	400.23
388.09	374.49
388.28	444.70
388.48	430.66
388.67	407.25
388.86	416.62
389.06	440.02
389.25	449.38
389.45	423.64
389.64	454.06
389.84	447.04
390.03	440.02
390.22	402.57
390.42	383.85
390.61	407.25
390.81	390.87
391.00	451.72
391.19	409.59
391.39	402.57
391.58	498.53
391.78	440.02
391.97	416.62
392.16	318.31
392.36	414.27
392.55	458.74
392.75	393.21
392.94	407.25
393.13	395.55
393.33	395.55
393.52	393.21
393.71	369.80
393.91	355.76
394.10	376.83
394.29	465.77
394.49	376.83
394.68	388.53
394.88	465.77
395.07	428.32
395.26	421.30
395.46	362.78
395.65	383.85
395.84	388.53
396.04	503.22
396.23	470.45
396.42	369.80
396.62	386.19
396.81	428.32
397.00	400.23
397.19	409.59
397.39	416.62
397.58	421.30
397.77	386.19
397.97	379.17
398.16	411.93
398.35	395.55
398.55	442.36
398.74	362.78
398.93	449.38
399.12	360.44
399.32	430.66
399.51	428.32
399.70	442.36
399.90	332.36
400.09	407.25
400.28	374.49
400.47	402.57
400.67	346.40
400.86	388.53
401.05	454.06
401.24	447.04
401.44	468.11
401.63	397.89
401.82	339.38
402.01	437.68
402.21	416.62
402.40	437.68
402.59	390.87
402.78	360.44
402.97	435.34
403.17	411.93
403.36	433.00
403.55	451.72
403.74	379.17
403.93	425.98
404.13	433.00
404.32	348.74
404.51	395.55
404.70	416.62
404.89	423.64
405.09	362.78
405.28	425.98
405.47	358.10
405.66	353.42
405.85	449.38
406.05	423.64
406.24	416.62
406.43	430.66
406.62	374.49
406.81	411.93
407.00	472.79
407.20	374.49
407.39	402.57
407.58	374.49
407.77	433.00
407.96	461.09
408.15	447.04
408.34	379.17
408.54	411.93
408.73	433.00
408.92	381.51
409.11	489.17
409.30	433.00
409.49	414.27
409.68	423.64
409.87	416.62
410.07	362.78
410.26	407.25
410.45	428.32
410.64	433.00
410.83	442.36
411.02	388.53
411.21	402.57
411.40	447.04
411.59	402.57
411.78	348.74
411.98	418.96
412.17	402.57
412.36	440.02
412.55	397.89
412.74	472.79
412.93	465.77
413.12	430.66
413.31	458.74
413.50	416.62
413.69	383.85
413.88	376.83
414.07	379.17
414.26	386.19
414.45	400.23
414.64	358.10
414.83	390.87
415.02	423.64
415.22	449.38
415.41	482.15
415.60	447.04
415.79	355.76
415.98	400.23
416.17	404.91
416.36	351.08
416.55	369.80
416.74	444.70
416.93	383.85
417.12	390.87
417.31	386.19
417.50	395.55
417.69	381.51
417.88	409.59
418.07	339.38
418.26	489.17
418.45	416.62
418.64	379.17
418.83	388.53
419.02	386.19
419.21	339.38
419.39	463.43
419.58	458.74
419.77	337.04
419.96	416.62
420.15	428.32
420.34	390.87
420.53	355.76
420.72	351.08
420.91	404.91
421.10	454.06
421.29	400.23
421.48	482.15
421.67	472.79
421.86	414.27
422.05	447.04
422.24	416.62
422.43	458.74
422.61	472.79
422.80	360.44
422.99	404.91
423.18	409.59
423.37	486.83
423.56	428.32
423.75	365.12
423.94	355.76
424.13	430.66
424.32	416.62
424.50	470.45
424.69	416.62
424.88	395.55
425.07	411.93
425.26	482.15
425.45	484.49
425.64	365.12
425.83	414.27
426.01	390.87
426.20	416.62
426.39	376.83
426.58	341.72
426.77	449.38
426.96	425.98
427.15	526.62
427.33	440.02
427.52	461.09
427.71	411.93
427.90	360.44
428.09	423.64
428.28	435.34
428.46	433.00
428.65	418.96
428.84	449.38
429.03	435.34
429.22	444.70
429.40	404.91
429.59	451.72
429.78	449.38
429.97	472.79
430.16	444.70
430.34	418.96
430.53	346.40
430.72	376.83
430.91	470.45
431.10	416.62
431.28	397.89
431.47	407.25
431.66	376.83
431.85	449.38
432.03	397.89
432.22	425.98
432.41	407.25
432.60	449.38
432.79	376.83
432.97	348.74
433.16	425.98
433.35	449.38
433.54	435.34
433.72	358.10
433.91	397.89
434.10	355.76
434.28	374.49
434.47	348.74
434.66	374.49
434.85	435.34
435.03	454.06
435.22	454.06
435.41	442.36
435.59	358.10
435.78	358.10
435.97	369.80
436.16	449.38
436.34	393.21
436.53	423.64
436.72	395.55
436.90	388.53
437.09	411.93
437.28	374.49
437.46	407.25
437.65	451.72
437.84	444.70
438.02	456.40
438.21	454.06
438.40	421.30
438.58	369.80
438.77	360.44
438.96	341.72
439.14	369.80
439.33	372.15
439.52	386.19
439.70	358.10
439.89	414.27
440.08	449.38
440.26	468.11
440.45	383.85
440.63	451.72
440.82	404.91
441.01	404.91
441.19	470.45
441.38	388.53
441.57	414.27
441.75	472.79
441.94	528.96
442.12	388.53
442.31	409.59
442.50	411.93
442.68	440.02
442.87	454.06
443.05	351.08
443.24	395.55
443.43	421.30
443.61	470.45
443.80	369.80
443.98	383.85
444.17	444.70
444.35	390.87
444.54	390.87
444.73	442.36
444.91	376.83
445.10	444.70
445.28	374.49
445.47	430.66
445.65	423.64
445.84	442.36
446.02	428.32
446.21	365.12
446.39	416.62
446.58	418.96
446.77	383.85
446.95	407.25
447.14	414.27
447.32	425.98
447.51	425.98
447.69	449.38
447.88	430.66
448.06	463.43
448.25	496.19
448.43	425.98
448.62	433.00
448.80	447.04
448.99	388.53
449.17	451.72
449.36	388.53
449.54	400.23
449.73	442.36
449.91	421.30
450.10	409.59
450.28	430.66
450.46	456.40
450.65	430.66
450.83	397.89
451.02	351.08
451.20	390.87
451.39	461.09
451.57	425.98
451.76	425.98
451.94	444.70
452.13	442.36
452.31	395.55
452.49	444.70
452.68	360.44
452.86	397.89
453.05	479.81
453.23	430.66
453.42	435.34
453.60	404.91
453.78	458.74
453.97	386.19
454.15	407.25
454.34	437.68
454.52	367.46
454.70	383.85
454.89	435.34
455.07	388.53
455.26	376.83
455.44	397.89
455.62	433.00
455.81	390.87
455.99	451.72
456.17	393.21
456.36	468.11
456.54	365.12
456.73	367.46
456.91	430.66
457.09	437.68
457.28	414.27
457.46	430.66
457.64	374.49
457.83	416.62
458.01	435.34
458.19	486.83
458.38	477.47
458.56	400.23
458.74	423.64
458.93	407.25
459.11	393.21
459.29	423.64
459.48	416.62
459.66	472.79
459.84	379.17
460.03	449.38
460.21	451.72
460.39	414.27
460.57	435.34
460.76	440.02
460.94	428.32
461.12	409.59
461.31	437.68
461.49	402.57
461.67	416.62
461.85	430.66
462.04	418.96
462.22	739.61
462.40	468.11
462.59	435.34
462.77	414.27
462.95	496.19
463.13	468.11
463.32	440.02
463.50	369.80
463.68	454.06
463.86	404.91
464.05	416.62
464.23	353.42
464.41	418.96
464.59	383.85
464.78	416.62
464.96	444.70
465.14	430.66
465.32	409.59
465.50	482.15
465.69	451.72
465.87	416.62
466.05	458.74
466.23	428.32
466.41	454.06
466.60	498.53
466.78	407.25
466.96	430.66
467.14	416.62
467.32	528.96
467.51	402.57
467.69	390.87
467.87	484.49
468.05	416.62
468.23	425.98
468.41	418.96
468.60	437.68
468.78	355.76
468.96	400.23
469.14	451.72
469.32	397.89
469.50	411.93
469.69	383.85
469.87	454.06
470.05	421.30
470.23	344.06
470.41	430.66
470.59	430.66
470.77	435.34
470.95	444.70
471.14	444.70
471.32	383.85
471.50	428.32
471.68	435.34
471.86	437.68
472.04	402.57
472.22	402.57
472.40	351.08
472.58	362.78
472.77	437.68
472.95	386.19
473.13	428.32
473.31	428.32
473.49	369.80
473.67	367.46
473.85	418.96
474.03	397.89
474.21	381.51
474.39	458.74
474.57	433.00
474.75	372.15
474.93	451.72
475.12	447.04
475.30	341.72
475.48	383.85
475.66	468.11
475.84	440.02
476.02	388.53
476.20	355.76
476.38	414.27
476.56	568.75
476.74	407.25
476.92	442.36
477.10	479.81
477.28	531.30
477.46	414.27
477.64	470.45
477.82	421.30
478.00	421.30
478.18	423.64
478.36	451.72
478.54	407.25
478.72	433.00
478.90	383.85
479.08	379.17
479.26	393.21
479.44	414.27
479.62	442.36
479.80	390.87
479.98	456.40
480.16	388.53
480.34	470.45
480.52	428.32
480.70	444.70
480.88	388.53
481.06	421.30
481.24	449.38
481.41	425.98
481.59	423.64
481.77	395.55
481.95	400.23
482.13	428.32
482.31	437.68
482.49	358.10
482.67	437.68
482.85	475.13
483.03	440.02
483.21	433.00
483.39	395.55
483.57	400.23
483.74	423.64
483.92	376.83
484.10	407.25
484.28	456.40
484.46	503.22
484.64	444.70
484.82	395.55
485.00	430.66
485.18	491.51
485.35	404.91
485.53	390.87
485.71	468.11
485.89	425.98
486.07	411.93
486.25	500.87
486.43	470.45
486.61	461.09
486.78	407.25
486.96	442.36
487.14	456.40
487.32	407.25
487.50	486.83
487.68	475.13
487.85	365.12
488.03	447.04
488.21	423.64
488.39	400.23
488.57	468.11
488.75	365.12
488.92	505.56
489.10	400.23
489.28	454.06
489.46	390.87
489.64	442.36
489.81	409.59
489.99	409.59
490.17	395.55
490.35	463.43
490.53	444.70
490.70	362.78
490.88	449.38
491.06	376.83
491.24	418.96
491.41	430.66
491.59	411.93
491.77	428.32
491.95	411.93
492.13	458.74
492.30	444.70
492.48	355.76
492.66	496.19
492.84	435.34
493.01	414.27
493.19	367.46
493.37	500.87
493.54	397.89
493.72	397.89
493.90	402.57
494.08	411.93
494.25	358.10
494.43	489.17
494.61	390.87
494.79	341.72
494.96	404.91
495.14	411.93
495.32	334.70
495.49	407.25
495.67	470.45
495.85	425.98
496.02	322.99
496.20	423.64
496.38	325.33
496.55	339.38
496.73	367.46
496.91	411.93
497.09	458.74
497.26	404.91
497.44	477.47
497.62	409.59
497.79	472.79
497.97	461.09
498.14	440.02
498.32	442.36
498.50	411.93
498.67	404.91
498.85	433.00
499.03	407.25
499.20	423.64
499.38	465.77
499.56	353.42
499.73	421.30
499.91	465.77
500.08	472.79
500.26	379.17
500.44	430.66
500.61	433.00
500.79	437.68
500.97	447.04
501.14	447.04
501.32	428.32
501.49	404.91
501.67	468.11
501.84	404.91
502.02	418.96
502.20	421.30
502.37	425.98
502.55	334.70
502.72	388.53
502.90	409.59
503.07	440.02
503.25	418.96
503.43	430.66
503.60	465.77
503.78	463.43
503.95	430.66
504.13	418.96
504.30	390.87
504.48	402.57
504.65	390.87
504.83	437.68
505.01	468.11
505.18	454.06
505.36	409.59
505.53	374.49
505.71	365.12
505.88	337.04
506.06	435.34
506.23	454.06
506.41	388.53
506.58	491.51
506.76	461.09
506.93	379.17
507.11	383.85
507.28	411.93
507.46	369.80
507.63	463.43
507.81	440.02
507.98	400.23
508.16	486.83
508.33	451.72
508.50	411.93
508.68	468.11
508.85	386.19
509.03	348.74
509.20	346.40
509.38	344.06
509.55	437.68
509.73	402.57
509.90	409.59
510.08	416.62
510.25	444.70
510.42	428.32
510.60	341.72
510.77	493.85
510.95	505.56
511.12	416.62
511.30	416.62
511.47	409.59
511.64	397.89
511.82	451.72
511.99	348.74
512.17	435.34
512.34	388.53
512.51	374.49
512.69	465.77
512.86	486.83
513.04	397.89
513.21	428.32
513.38	507.90
513.56	409.59
513.73	386.19
513.90	351.08
514.08	416.62
514.25	449.38
514.43	388.53
514.60	397.89
514.77	355.76
514.95	472.79
515.12	400.23
515.29	390.87
515.47	388.53
515.64	332.36
515.81	418.96
515.99	451.72
516.16	526.62
516.33	491.51
516.51	428.32
516.68	437.68
516.85	418.96
517.03	358.10
517.20	482.15
517.37	475.13
517.54	512.58
517.72	447.04
517.89	395.55
518.06	388.53
518.24	454.06
518.41	442.36
518.58	491.51
518.75	411.93
518.93	444.70
519.10	393.21
519.27	376.83
519.45	444.70
519.62	458.74
519.79	433.00
519.96	447.04
520.14	465.77
520.31	454.06
520.48	395.55
520.65	397.89
520.83	447.04
521.00	416.62
521.17	400.23
521.34	381.51
521.52	334.70
521.69	449.38
521.86	397.89
522.03	395.55
522.20	421.30
522.38	423.64
522.55	470.45
522.72	435.34
522.89	442.36
523.07	465.77
523.24	397.89
523.41	449.38
523.58	411.93
523.75	388.53
523.92	449.38
524.10	425.98
524.27	425.98
524.44	351.08
524.61	451.72
524.78	425.98
524.96	444.70
525.13	409.59
525.30	388.53
525.47	360.44
525.64	458.74
525.81	421.30
525.98	376.83
526.16	456.40
526.33	484.49
526.50	390.87
526.67	409.59
526.84	421.30
527.01	435.34
527.18	491.51
527.36	383.85
527.53	404.91
527.70	383.85
527.87	418.96
528.04	461.09
528.21	397.89
528.38	397.89
528.55	411.93
528.72	393.21
528.89	493.85
529.07	390.87
529.24	379.17
529.41	486.83
529.58	353.42
529.75	416.62
529.92	437.68
530.09	447.04
530.26	486.83
530.43	465.77
530.60	428.32
530.77	458.74
530.94	456.40
531.11	440.02
531.28	416.62
531.46	447.04
531.63	411.93
531.80	463.43
531.97	440.02
532.14	435.34
532.31	456.40
532.48	435.34
532.65	470.45
532.82	456.40
532.99	421.30
533.16	372.15
533.33	397.89
533.50	409.59
533.67	437.68
533.84	418.96
534.01	477.47
534.18	411.93
534.35	404.91
534.52	393.21
534.69	484.49
534.86	458.74
535.03	397.89
535.20	428.32
535.37	407.25
535.54	440.02
535.71	465.77
535.88	390.87
536.05	416.62
536.22	411.93
536.38	493.85
536.55	383.85
536.72	428.32
536.89	386.19
537.06	430.66
537.23	400.23
537.40	407.25
537.57	330.02
537.74	421.30
537.91	440.02
538.08	440.02
538.25	409.59
538.42	437.68
538.59	451.72
538.75	451.72
538.92	489.17
539.09	458.74
539.26	451.72
539.43	479.81
539.60	461.09
539.77	458.74
539.94	369.80
540.11	390.87
540.28	468.11
540.44	433.00
540.61	444.70
540.78	409.59
540.95	454.06
541.12	486.83
541.29	468.11
541.46	470.45
541.62	472.79
541.79	367.46
541.96	372.15
542.13	372.15
542.30	353.42
542.47	456.40
542.63	402.57
542.80	435.34
542.97	397.89
543.14	348.74
543.31	407.25
543.48	402.57
543.64	428.32
543.81	393.21
543.98	430.66
544.15	407.25
544.32	404.91
544.48	435.34
544.65	444.70
544.82	374.49
544.99	458.74
545.16	372.15
545.32	376.83
545.49	428.32
545.66	407.25
545.83	402.57
546.00	390.87
546.16	458.74
546.33	421.30
546.50	423.64
546.67	433.00
546.83	416.62
547.00	430.66
547.17	425.98
547.34	374.49
547.50	414.27
547.67	479.81
547.84	388.53
548.00	390.87
548.17	379.17
548.34	521.94
548.51	397.89
548.67	505.56
548.84	395.55
549.01	407.25
549.18	425.98
549.34	411.93
549.51	390.87
549.68	393.21
549.84	430.66
550.01	421.30
550.18	479.81
550.34	435.34
550.51	554.71
550.68	468.11
550.84	425.98
551.01	383.85
551.18	339.38
551.34	512.58
551.51	449.38
551.68	411.93
551.84	465.77
552.01	463.43
552.18	449.38
552.34	430.66
552.51	374.49
552.68	521.94
552.84	454.06
553.01	383.85
553.18	376.83
553.34	376.83
553.51	390.87
553.67	330.02
553.84	437.68
554.01	400.23
554.17	461.09
554.34	376.83
554.51	374.49
554.67	456.40
554.84	418.96
555.00	470.45
555.17	388.53
555.33	475.13
555.50	390.87
555.67	491.51
555.83	416.62
556.00	414.27
556.16	500.87
556.33	355.76
556.50	372.15
556.66	395.55
556.83	444.70
556.99	451.72
557.16	458.74
557.32	379.17
557.49	383.85
557.65	404.91
557.82	475.13
557.98	421.30
558.15	458.74
558.32	421.30
558.48	449.38
558.65	463.43
558.81	430.66
558.98	411.93
559.14	440.02
559.31	393.21
559.47	505.56
559.64	388.53
559.80	379.17
559.97	440.02
560.13	407.25
560.30	400.23
560.46	402.57
560.63	376.83
560.79	484.49
560.96	416.62
561.12	358.10
561.29	383.85
561.45	327.68
561.61	395.55
561.78	514.92
561.94	416.62
562.11	423.64
562.27	376.83
562.44	395.55
562.60	393.21
562.77	369.80
562.93	482.15
563.10	418.96
563.26	379.17
563.42	400.23
563.59	414.27
563.75	475.13
563.92	456.40
564.08	482.15
564.24	395.55
564.41	440.02
564.57	414.27
564.74	395.55
564.90	365.12
565.07	444.70
565.23	386.19
565.39	411.93
565.56	454.06
565.72	519.60
565.88	470.45
566.05	397.89
566.21	383.85
566.38	484.49
566.54	437.68
566.70	379.17
566.87	360.44
567.03	372.15
567.19	355.76
567.36	463.43
567.52	381.51
567.68	493.85
567.85	456.40
568.01	442.36
568.17	374.49
568.34	402.57
568.50	440.02
568.66	372.15
568.83	456.40
568.99	496.19
569.15	386.19
569.32	433.00
569.48	491.51
569.64	407.25
569.81	334.70
569.97	362.78
570.13	435.34
570.30	463.43
570.46	465.77
570.62	418.96
570.78	346.40
570.95	362.78
571.11	433.00
571.27	421.30
571.43	414.27
571.60	454.06
571.76	440.02
571.92	416.62
572.09	454.06
572.25	430.66
572.41	416.62
572.57	479.81
572.74	491.51
572.90	390.87
573.06	411.93
573.22	484.49
573.38	414.27
573.55	430.66
573.71	411.93
573.87	395.55
574.03	360.44
574.20	404.91
574.36	435.34
574.52	454.06
574.68	449.38
574.84	489.17
575.01	421.30
575.17	458.74
575.33	423.64
575.49	397.89
575.65	386.19
575.82	418.96
575.98	390.87
576.14	428.32
576.30	409.59
576.46	428.32
576.62	444.70
576.79	388.53
576.95	472.79
577.11	451.72
577.27	447.04
577.43	425.98
577.59	402.57
577.75	451.72
577.92	449.38
578.08	400.23
578.24	379.17
578.40	461.09
578.56	423.64
578.72	498.53
578.88	362.78
579.04	484.49
579.21	376.83
579.37	519.60
579.53	418.96
579.69	421.30
579.85	365.12
580.01	435.34
580.17	451.72
580.33	447.04
580.49	447.04
580.65	421.30
580.82	402.57
580.98	374.49
581.14	395.55
581.30	428.32
581.46	430.66
581.62	369.80
581.78	463.43
581.94	353.42
582.10	440.02
582.26	414.27
582.42	360.44
582.58	421.30
582.74	418.96
582.90	500.87
583.06	423.64
583.22	339.38
583.38	463.43
583.54	461.09
583.70	447.04
583.86	362.78
584.02	383.85
584.18	390.87
584.34	449.38
584.50	400.23
584.66	411.93
584.82	393.21
584.98	454.06
585.14	430.66
585.30	491.51
585.46	489.17
585.62	320.65
585.78	421.30
585.94	463.43
586.10	414.27
586.26	383.85
586.42	458.74
586.58	449.38
586.74	421.30
586.90	465.77
587.06	482.15
587.22	400.23
587.38	484.49
587.54	416.62
587.70	433.00
587.86	428.32
588.02	425.98
588.18	465.77
588.34	360.44
588.49	407.25
588.65	402.57
588.81	435.34
588.97	425.98
589.13	440.02
589.29	421.30
589.45	416.62
589.61	369.80
589.77	463.43
589.93	416.62
590.08	465.77
590.24	390.87
590.40	381.51
590.56	447.04
590.72	425.98
590.88	421.30
591.04	414.27
591.20	383.85
591.35	447.04
591.51	374.49
591.67	416.62
591.83	367.46
591.99	376.83
592.15	440.02
592.31	437.68
592.46	383.85
592.62	449.38
592.78	454.06
592.94	386.19
593.10	383.85
593.26	402.57
593.41	393.21
593.57	400.23
593.73	369.80
593.89	386.19
594.05	383.85
594.20	449.38
594.36	393.21
594.52	344.06
594.68	404.91
594.84	390.87
594.99	444.70
595.15	383.85
595.31	440.02
595.47	433.00
595.62	376.83
595.78	416.62
595.94	435.34
596.10	547.69
596.25	433.00
596.41	442.36
596.57	402.57
596.73	409.59
596.88	456.40
597.04	388.53
597.20	409.59
597.36	435.34
597.51	428.32
597.67	374.49
597.83	479.81
597.99	449.38
598.14	409.59
598.30	470.45
598.46	433.00
598.61	423.64
598.77	454.06
598.93	397.89
599.09	400.23
599.24	353.42
599.40	440.02
599.56	404.91
599.71	369.80
599.87	430.66
600.03	425.98
600.18	458.74
600.34	425.98
600.50	423.64
600.65	418.96
600.81	484.49
600.97	381.51
601.12	425.98
601.28	496.19
601.44	435.34
601.59	421.30
601.75	388.53
601.91	409.59
602.06	442.36
602.22	437.68
602.37	430.66
602.53	402.57
602.69	440.02
602.84	428.32
603.00	461.09
603.16	503.22
603.31	472.79
603.47	372.15
603.62	376.83
603.78	400.23
603.94	402.57
604.09	411.93
604.25	468.11
604.40	484.49
604.56	454.06
604.71	414.27
604.87	435.34
605.03	388.53
605.18	430.66
605.34	451.72
605.49	440.02
605.65	414.27
605.80	423.64
605.96	418.96
606.12	393.21
606.27	421.30
606.43	365.12
606.58	447.04
606.74	444.70
606.89	407.25
607.05	383.85
607.20	428.32
607.36	470.45
607.51	416.62
607.67	414.27
607.82	397.89
607.98	390.87
608.13	411.93
608.29	404.91
608.44	411.93
608.60	397.89
608.75	440.02
608.91	447.04
609.06	440.02
609.22	404.91
609.37	418.96
609.53	388.53
609.68	430.66
609.84	414.27
609.99	407.25
610.15	416.62
