SpectraSuite Data File
++++++++++++++++++++++++++++++++++++
Date: Fri Oct 25 12:10:10 EDT 2013
User: price-jones
Dark Spectrum Present: No
Reference Spectrum Present: No
Number of Sampled Component Spectra: 1
Spectrometers: USB2+H05261
Integration Time (usec): 100000 (USB2+H05261)
Spectra Averaged: 1 (USB2+H05261)
Boxcar Smoothing: 0 (USB2+H05261)
Correct for Electrical Dark: No (USB2+H05261)
Strobe/Lamp Enabled: No (USB2+H05261)
Correct for Detector Non-linearity: No (USB2+H05261)
Correct for Stray Light: No (USB2+H05261)
Number of Pixels in Processed Spectrum: 2048
>>>>>Begin Processed Spectral Data<<<<<
365.73	409.59
365.92	409.59
366.12	409.59
366.32	304.27
366.52	294.91
366.72	252.78
366.91	215.33
367.11	210.65
367.31	262.14
367.51	257.46
367.70	229.37
367.90	205.97
368.10	236.39
368.30	180.22
368.49	273.84
368.69	236.39
368.89	229.37
369.09	166.18
369.28	299.59
369.48	205.97
369.68	327.68
369.87	287.89
370.07	238.73
370.27	334.70
370.47	348.74
370.66	297.25
370.86	355.76
371.06	374.49
371.25	428.32
371.45	388.53
371.65	334.70
371.84	360.44
372.04	395.55
372.24	397.89
372.44	327.68
372.63	416.62
372.83	330.02
373.03	397.89
373.22	390.87
373.42	397.89
373.62	479.81
373.81	430.66
374.01	465.77
374.21	411.93
374.40	360.44
374.60	411.93
374.79	390.87
374.99	374.49
375.19	416.62
375.38	451.72
375.58	451.72
375.78	456.40
375.97	414.27
376.17	479.81
376.37	444.70
376.56	358.10
376.76	425.98
376.95	355.76
377.15	526.62
377.35	348.74
377.54	451.72
377.74	407.25
377.93	381.51
378.13	404.91
378.33	397.89
378.52	355.76
378.72	416.62
378.91	425.98
379.11	369.80
379.31	454.06
379.50	449.38
379.70	367.46
379.89	397.89
380.09	447.04
380.28	442.36
380.48	400.23
380.68	404.91
380.87	351.08
381.07	407.25
381.26	465.77
381.46	484.49
381.65	397.89
381.85	365.12
382.04	383.85
382.24	376.83
382.43	461.09
382.63	397.89
382.83	351.08
383.02	447.04
383.22	479.81
383.41	379.17
383.61	372.15
383.80	442.36
384.00	379.17
384.19	367.46
384.39	379.17
384.58	435.34
384.78	402.57
384.97	395.55
385.17	369.80
385.36	395.55
385.56	409.59
385.75	362.78
385.95	435.34
386.14	421.30
386.34	332.36
386.53	421.30
386.72	388.53
386.92	379.17
387.11	479.81
387.31	395.55
387.50	372.15
387.70	367.46
387.89	458.74
388.09	374.49
388.28	383.85
388.48	421.30
388.67	409.59
388.86	390.87
389.06	400.23
389.25	411.93
389.45	386.19
389.64	360.44
389.84	395.55
390.03	444.70
390.22	421.30
390.42	341.72
390.61	383.85
390.81	421.30
391.00	402.57
391.19	404.91
391.39	414.27
391.58	423.64
391.78	416.62
391.97	482.15
392.16	437.68
392.36	411.93
392.55	421.30
392.75	374.49
392.94	470.45
393.13	477.47
393.33	346.40
393.52	390.87
393.71	388.53
393.91	425.98
394.10	376.83
394.29	430.66
394.49	339.38
394.68	400.23
394.88	402.57
395.07	400.23
395.26	346.40
395.46	454.06
395.65	503.22
395.84	435.34
396.04	454.06
396.23	404.91
396.42	440.02
396.62	390.87
396.81	369.80
397.00	397.89
397.19	360.44
397.39	315.97
397.58	374.49
397.77	411.93
397.97	430.66
398.16	421.30
398.35	414.27
398.55	414.27
398.74	414.27
398.93	437.68
399.12	393.21
399.32	437.68
399.51	372.15
399.70	383.85
399.90	456.40
400.09	423.64
400.28	379.17
400.47	390.87
400.67	461.09
400.86	320.65
401.05	437.68
401.24	372.15
401.44	416.62
401.63	409.59
401.82	444.70
402.01	386.19
402.21	381.51
402.40	383.85
402.59	383.85
402.78	395.55
402.97	341.72
403.17	411.93
403.36	395.55
403.55	376.83
403.74	430.66
403.93	463.43
404.13	418.96
404.32	440.02
404.51	421.30
404.70	449.38
404.89	397.89
405.09	475.13
405.28	414.27
405.47	414.27
405.66	386.19
405.85	390.87
406.05	411.93
406.24	376.83
406.43	414.27
406.62	435.34
406.81	449.38
407.00	407.25
407.20	372.15
407.39	376.83
407.58	433.00
407.77	393.21
407.96	402.57
408.15	411.93
408.34	423.64
408.54	348.74
408.73	390.87
408.92	367.46
409.11	393.21
409.30	409.59
409.49	435.34
409.68	461.09
409.87	437.68
410.07	428.32
410.26	402.57
410.45	423.64
410.64	425.98
410.83	355.76
411.02	442.36
411.21	407.25
411.40	358.10
411.59	433.00
411.78	404.91
411.98	433.00
412.17	451.72
412.36	411.93
412.55	383.85
412.74	475.13
412.93	407.25
413.12	376.83
413.31	458.74
413.50	404.91
413.69	402.57
413.88	465.77
414.07	465.77
414.26	463.43
414.45	372.15
414.64	451.72
414.83	390.87
415.02	393.21
415.22	430.66
415.41	411.93
415.60	341.72
415.79	397.89
415.98	355.76
416.17	365.12
416.36	379.17
416.55	355.76
416.74	423.64
416.93	465.77
417.12	442.36
417.31	416.62
417.50	393.21
417.69	428.32
417.88	414.27
418.07	411.93
418.26	362.78
418.45	449.38
418.64	440.02
418.83	442.36
419.02	479.81
419.21	440.02
419.39	383.85
419.58	425.98
419.77	362.78
419.96	449.38
420.15	409.59
420.34	386.19
420.53	365.12
420.72	454.06
420.91	388.53
421.10	454.06
421.29	428.32
421.48	421.30
421.67	414.27
421.86	376.83
422.05	416.62
422.24	407.25
422.43	458.74
422.61	358.10
422.80	374.49
422.99	442.36
423.18	425.98
423.37	395.55
423.56	390.87
423.75	400.23
423.94	397.89
424.13	402.57
424.32	390.87
424.50	430.66
424.69	428.32
424.88	435.34
425.07	442.36
425.26	414.27
425.45	411.93
425.64	313.63
425.83	468.11
426.01	507.90
426.20	351.08
426.39	440.02
426.58	376.83
426.77	442.36
426.96	395.55
427.15	402.57
427.33	355.76
427.52	416.62
427.71	444.70
427.90	454.06
428.09	517.26
428.28	418.96
428.46	404.91
428.65	414.27
428.84	425.98
429.03	395.55
429.22	346.40
429.40	444.70
429.59	430.66
429.78	468.11
429.97	479.81
430.16	390.87
430.34	397.89
430.53	367.46
430.72	449.38
430.91	409.59
431.10	425.98
431.28	383.85
431.47	449.38
431.66	400.23
431.85	397.89
432.03	425.98
432.22	409.59
432.41	447.04
432.60	390.87
432.79	404.91
432.97	407.25
433.16	449.38
433.35	470.45
433.54	409.59
433.72	393.21
433.91	442.36
434.10	369.80
434.28	388.53
434.47	430.66
434.66	409.59
434.85	360.44
435.03	395.55
435.22	421.30
435.41	444.70
435.59	454.06
435.78	435.34
435.97	330.02
436.16	388.53
436.34	397.89
436.53	472.79
436.72	416.62
436.90	360.44
437.09	390.87
437.28	433.00
437.46	440.02
437.65	489.17
437.84	393.21
438.02	376.83
438.21	444.70
438.40	451.72
438.58	327.68
438.77	444.70
438.96	425.98
439.14	425.98
439.33	393.21
439.52	435.34
439.70	388.53
439.89	327.68
440.08	454.06
440.26	428.32
440.45	414.27
440.63	433.00
440.82	461.09
441.01	341.72
441.19	397.89
441.38	362.78
441.57	407.25
441.75	402.57
441.94	451.72
442.12	421.30
442.31	402.57
442.50	334.70
442.68	435.34
442.87	365.12
443.05	449.38
443.24	395.55
443.43	472.79
443.61	437.68
443.80	383.85
443.98	386.19
444.17	447.04
444.35	341.72
444.54	416.62
444.73	416.62
444.91	489.17
445.10	381.51
445.28	407.25
445.47	416.62
445.65	388.53
445.84	355.76
446.02	421.30
446.21	360.44
446.39	409.59
446.58	409.59
446.77	423.64
446.95	411.93
447.14	411.93
447.32	397.89
447.51	433.00
447.69	425.98
447.88	353.42
448.06	428.32
448.25	330.02
448.43	423.64
448.62	390.87
448.80	475.13
448.99	400.23
449.17	477.47
449.36	454.06
449.54	358.10
449.73	320.65
449.91	416.62
450.10	423.64
450.28	472.79
450.46	456.40
450.65	493.85
450.83	386.19
451.02	414.27
451.20	348.74
451.39	414.27
451.57	367.46
451.76	395.55
451.94	393.21
452.13	425.98
452.31	315.97
452.49	376.83
452.68	411.93
452.86	395.55
453.05	451.72
453.23	355.76
453.42	388.53
453.60	451.72
453.78	386.19
453.97	500.87
454.15	400.23
454.34	428.32
454.52	435.34
454.70	440.02
454.89	416.62
455.07	463.43
455.26	404.91
455.44	437.68
455.62	416.62
455.81	397.89
455.99	435.34
456.17	465.77
456.36	418.96
456.54	416.62
456.73	416.62
456.91	346.40
457.09	442.36
457.28	468.11
457.46	449.38
457.64	416.62
457.83	416.62
458.01	421.30
458.19	479.81
458.38	407.25
458.56	447.04
458.74	386.19
458.93	404.91
459.11	435.34
459.29	421.30
459.48	435.34
459.66	498.53
459.84	390.87
460.03	430.66
460.21	493.85
460.39	416.62
460.57	435.34
460.76	365.12
460.94	421.30
461.12	414.27
461.31	433.00
461.49	402.57
461.67	409.59
461.85	435.34
462.04	376.83
462.22	758.33
462.40	376.83
462.59	337.04
462.77	404.91
462.95	409.59
463.13	330.02
463.32	447.04
463.50	369.80
463.68	416.62
463.86	435.34
464.05	369.80
464.23	447.04
464.41	423.64
464.59	404.91
464.78	393.21
464.96	341.72
465.14	451.72
465.32	358.10
465.50	402.57
465.69	416.62
465.87	334.70
466.05	421.30
466.23	437.68
466.41	383.85
466.60	435.34
466.78	428.32
466.96	454.06
467.14	491.51
467.32	475.13
467.51	383.85
467.69	428.32
467.87	442.36
468.05	407.25
468.23	500.87
468.41	465.77
468.60	388.53
468.78	379.17
468.96	498.53
469.14	393.21
469.32	404.91
469.50	372.15
469.69	404.91
469.87	433.00
470.05	395.55
470.23	346.40
470.41	367.46
470.59	369.80
470.77	479.81
470.95	486.83
471.14	468.11
471.32	440.02
471.50	397.89
471.68	440.02
471.86	442.36
472.04	461.09
472.22	435.34
472.40	402.57
472.58	388.53
472.77	409.59
472.95	440.02
473.13	428.32
473.31	421.30
473.49	418.96
473.67	388.53
473.85	376.83
474.03	421.30
474.21	355.76
474.39	440.02
474.57	477.47
474.75	418.96
474.93	383.85
475.12	379.17
475.30	503.22
475.48	451.72
475.66	390.87
475.84	433.00
476.02	430.66
476.20	411.93
476.38	430.66
476.56	458.74
476.74	472.79
476.92	407.25
477.10	409.59
477.28	414.27
477.46	379.17
477.64	463.43
477.82	430.66
478.00	372.15
478.18	376.83
478.36	381.51
478.54	442.36
478.72	407.25
478.90	433.00
479.08	447.04
479.26	367.46
479.44	393.21
479.62	360.44
479.80	411.93
479.98	470.45
480.16	423.64
480.34	358.10
480.52	435.34
480.70	388.53
480.88	425.98
481.06	425.98
481.24	297.25
481.41	421.30
481.59	402.57
481.77	390.87
481.95	430.66
482.13	416.62
482.31	414.27
482.49	388.53
482.67	402.57
482.85	414.27
483.03	423.64
483.21	400.23
483.39	454.06
483.57	437.68
483.74	521.94
483.92	472.79
484.10	458.74
484.28	404.91
484.46	451.72
484.64	435.34
484.82	433.00
485.00	472.79
485.18	435.34
485.35	407.25
485.53	390.87
485.71	468.11
485.89	353.42
486.07	388.53
486.25	472.79
486.43	477.47
486.61	430.66
486.78	425.98
486.96	407.25
487.14	454.06
487.32	423.64
487.50	414.27
487.68	423.64
487.85	416.62
488.03	358.10
488.21	390.87
488.39	393.21
488.57	418.96
488.75	423.64
488.92	517.26
489.10	428.32
489.28	440.02
489.46	325.33
489.64	409.59
489.81	475.13
489.99	437.68
490.17	395.55
490.35	407.25
490.53	404.91
490.70	393.21
490.88	468.11
491.06	388.53
491.24	479.81
491.41	440.02
491.59	475.13
491.77	393.21
491.95	383.85
492.13	369.80
492.30	376.83
492.48	425.98
492.66	458.74
492.84	454.06
493.01	430.66
493.19	433.00
493.37	421.30
493.54	367.46
493.72	372.15
493.90	404.91
494.08	388.53
494.25	442.36
494.43	411.93
494.61	421.30
494.79	397.89
494.96	388.53
495.14	479.81
495.32	430.66
495.49	458.74
495.67	390.87
495.85	404.91
496.02	407.25
496.20	365.12
496.38	416.62
496.55	461.09
496.73	351.08
496.91	362.78
497.09	423.64
497.26	369.80
497.44	351.08
497.62	400.23
497.79	397.89
497.97	381.51
498.14	425.98
498.32	402.57
498.50	444.70
498.67	416.62
498.85	374.49
499.03	404.91
499.20	418.96
499.38	355.76
499.56	365.12
499.73	463.43
499.91	388.53
500.08	344.06
500.26	418.96
500.44	390.87
500.61	348.74
500.79	425.98
500.97	430.66
501.14	444.70
501.32	447.04
501.49	521.94
501.67	521.94
501.84	425.98
502.02	428.32
502.20	458.74
502.37	383.85
502.55	418.96
502.72	344.06
502.90	388.53
503.07	433.00
503.25	444.70
503.43	435.34
503.60	421.30
503.78	458.74
503.95	397.89
504.13	395.55
504.30	454.06
504.48	440.02
504.65	400.23
504.83	421.30
505.01	341.72
505.18	400.23
505.36	458.74
505.53	461.09
505.71	425.98
505.88	461.09
506.06	409.59
506.23	428.32
506.41	376.83
506.58	421.30
506.76	407.25
506.93	454.06
507.11	407.25
507.28	421.30
507.46	386.19
507.63	355.76
507.81	414.27
507.98	423.64
508.16	442.36
508.33	423.64
508.50	402.57
508.68	430.66
508.85	376.83
509.03	435.34
509.20	421.30
509.38	435.34
509.55	381.51
509.73	393.21
509.90	425.98
510.08	468.11
510.25	407.25
510.42	409.59
510.60	362.78
510.77	465.77
510.95	456.40
511.12	442.36
511.30	425.98
511.47	482.15
511.64	517.26
511.82	458.74
511.99	395.55
512.17	418.96
512.34	395.55
512.51	414.27
512.69	327.68
512.86	393.21
513.04	358.10
513.21	393.21
513.38	447.04
513.56	369.80
513.73	388.53
513.90	348.74
514.08	365.12
514.25	376.83
514.43	454.06
514.60	351.08
514.77	397.89
514.95	437.68
515.12	383.85
515.29	428.32
515.47	430.66
515.64	444.70
515.81	358.10
515.99	433.00
516.16	447.04
516.33	475.13
516.51	437.68
516.68	365.12
516.85	351.08
517.03	421.30
517.20	355.76
517.37	360.44
517.54	381.51
517.72	411.93
517.89	390.87
518.06	344.06
518.24	456.40
518.41	416.62
518.58	463.43
518.75	465.77
518.93	395.55
519.10	355.76
519.27	400.23
519.45	423.64
519.62	425.98
519.79	505.56
519.96	409.59
520.14	442.36
520.31	397.89
520.48	372.15
520.65	440.02
520.83	404.91
521.00	400.23
521.17	409.59
521.34	435.34
521.52	395.55
521.69	418.96
521.86	369.80
522.03	430.66
522.20	472.79
522.38	395.55
522.55	407.25
522.72	346.40
522.89	482.15
523.07	444.70
523.24	428.32
523.41	390.87
523.58	468.11
523.75	435.34
523.92	454.06
524.10	447.04
524.27	437.68
524.44	430.66
524.61	468.11
524.78	407.25
524.96	454.06
525.13	468.11
525.30	414.27
525.47	500.87
525.64	414.27
525.81	379.17
525.98	369.80
526.16	360.44
526.33	376.83
526.50	414.27
526.67	339.38
526.84	456.40
527.01	409.59
527.18	395.55
527.36	463.43
527.53	404.91
527.70	390.87
527.87	435.34
528.04	428.32
528.21	367.46
528.38	428.32
528.55	435.34
528.72	386.19
528.89	362.78
529.07	425.98
529.24	421.30
529.41	444.70
529.58	451.72
529.75	425.98
529.92	458.74
530.09	435.34
530.26	353.42
530.43	388.53
530.60	503.22
530.77	442.36
530.94	444.70
531.11	367.46
531.28	369.80
531.46	383.85
531.63	379.17
531.80	416.62
531.97	421.30
532.14	379.17
532.31	414.27
532.48	416.62
532.65	407.25
532.82	423.64
532.99	430.66
533.16	299.59
533.33	409.59
533.50	397.89
533.67	381.51
533.84	386.19
534.01	339.38
534.18	386.19
534.35	421.30
534.52	416.62
534.69	351.08
534.86	390.87
535.03	386.19
535.20	395.55
535.37	435.34
535.54	411.93
535.71	425.98
535.88	416.62
536.05	358.10
536.22	503.22
536.38	402.57
536.55	430.66
536.72	407.25
536.89	433.00
537.06	465.77
537.23	503.22
537.40	409.59
537.57	430.66
537.74	374.49
537.91	456.40
538.08	402.57
538.25	409.59
538.42	433.00
538.59	477.47
538.75	458.74
538.92	416.62
539.09	402.57
539.26	416.62
539.43	449.38
539.60	472.79
539.77	458.74
539.94	397.89
540.11	388.53
540.28	458.74
540.44	491.51
540.61	437.68
540.78	393.21
540.95	395.55
541.12	524.28
541.29	395.55
541.46	454.06
541.62	376.83
541.79	390.87
541.96	397.89
542.13	442.36
542.30	411.93
542.47	388.53
542.63	409.59
542.80	479.81
542.97	442.36
543.14	393.21
543.31	367.46
543.48	433.00
543.64	470.45
543.81	447.04
543.98	425.98
544.15	381.51
544.32	433.00
544.48	404.91
544.65	332.36
544.82	372.15
544.99	404.91
545.16	475.13
545.32	393.21
545.49	421.30
545.66	437.68
545.83	421.30
546.00	437.68
546.16	400.23
546.33	365.12
546.50	421.30
546.67	458.74
546.83	491.51
547.00	493.85
547.17	351.08
547.34	414.27
547.50	454.06
547.67	465.77
547.84	404.91
548.00	470.45
548.17	404.91
548.34	341.72
548.51	463.43
548.67	447.04
548.84	435.34
549.01	308.95
549.18	440.02
549.34	430.66
549.51	409.59
549.68	463.43
549.84	435.34
550.01	433.00
550.18	498.53
550.34	484.49
550.51	425.98
550.68	456.40
550.84	456.40
551.01	442.36
551.18	444.70
551.34	521.94
551.51	337.04
551.68	423.64
551.84	465.77
552.01	416.62
552.18	383.85
552.34	428.32
552.51	423.64
552.68	421.30
552.84	409.59
553.01	507.90
553.18	390.87
553.34	386.19
553.51	442.36
553.67	379.17
553.84	433.00
554.01	416.62
554.17	524.28
554.34	433.00
554.51	404.91
554.67	418.96
554.84	512.58
555.00	414.27
555.17	435.34
555.33	423.64
555.50	372.15
555.67	435.34
555.83	451.72
556.00	418.96
556.16	554.71
556.33	468.11
556.50	407.25
556.66	416.62
556.83	390.87
556.99	404.91
557.16	477.47
557.32	414.27
557.49	414.27
557.65	386.19
557.82	374.49
557.98	433.00
558.15	489.17
558.32	421.30
558.48	411.93
558.65	425.98
558.81	435.34
558.98	423.64
559.14	421.30
559.31	444.70
559.47	470.45
559.64	327.68
559.80	475.13
559.97	386.19
560.13	400.23
560.30	463.43
560.46	372.15
560.63	451.72
560.79	425.98
560.96	393.21
561.12	383.85
561.29	395.55
561.45	411.93
561.61	433.00
561.78	528.96
561.94	433.00
562.11	437.68
562.27	344.06
562.44	360.44
562.60	484.49
562.77	409.59
562.93	500.87
563.10	430.66
563.26	395.55
563.42	423.64
563.59	421.30
563.75	409.59
563.92	463.43
564.08	468.11
564.24	388.53
564.41	472.79
564.57	407.25
564.74	451.72
564.90	423.64
565.07	353.42
565.23	442.36
565.39	482.15
565.56	416.62
565.72	421.30
565.88	479.81
566.05	397.89
566.21	362.78
566.38	425.98
566.54	428.32
566.70	475.13
566.87	379.17
567.03	409.59
567.19	393.21
567.36	428.32
567.52	388.53
567.68	409.59
567.85	428.32
568.01	386.19
568.17	325.33
568.34	400.23
568.50	491.51
568.66	479.81
568.83	444.70
568.99	386.19
569.15	388.53
569.32	383.85
569.48	414.27
569.64	428.32
569.81	411.93
569.97	400.23
570.13	435.34
570.30	360.44
570.46	444.70
570.62	449.38
570.78	496.19
570.95	400.23
571.11	472.79
571.27	472.79
571.43	402.57
571.60	458.74
571.76	437.68
571.92	425.98
572.09	315.97
572.25	407.25
572.41	428.32
572.57	418.96
572.74	472.79
572.90	379.17
573.06	489.17
573.22	491.51
573.38	447.04
573.55	400.23
573.71	433.00
573.87	468.11
574.03	411.93
574.20	418.96
574.36	400.23
574.52	423.64
574.68	444.70
574.84	449.38
575.01	404.91
575.17	428.32
575.33	393.21
575.49	423.64
575.65	433.00
575.82	449.38
575.98	430.66
576.14	456.40
576.30	442.36
576.46	409.59
576.62	423.64
576.79	496.19
576.95	423.64
577.11	379.17
577.27	404.91
577.43	468.11
577.59	407.25
577.75	454.06
577.92	458.74
578.08	435.34
578.24	407.25
578.40	414.27
578.56	409.59
578.72	430.66
578.88	477.47
579.04	411.93
579.21	411.93
579.37	449.38
579.53	315.97
579.69	458.74
579.85	365.12
580.01	360.44
580.17	463.43
580.33	360.44
580.49	425.98
580.65	393.21
580.82	437.68
580.98	435.34
581.14	332.36
581.30	421.30
581.46	435.34
581.62	458.74
581.78	409.59
581.94	390.87
582.10	393.21
582.26	372.15
582.42	404.91
582.58	418.96
582.74	444.70
582.90	430.66
583.06	430.66
583.22	430.66
583.38	355.76
583.54	379.17
583.70	463.43
583.86	400.23
584.02	458.74
584.18	517.26
584.34	451.72
584.50	421.30
584.66	416.62
584.82	376.83
584.98	437.68
585.14	433.00
585.30	470.45
585.46	458.74
585.62	404.91
585.78	374.49
585.94	414.27
586.10	540.66
586.26	458.74
586.42	440.02
586.58	421.30
586.74	421.30
586.90	388.53
587.06	381.51
587.22	442.36
587.38	404.91
587.54	402.57
587.70	442.36
587.86	482.15
588.02	404.91
588.18	430.66
588.34	444.70
588.49	433.00
588.65	442.36
588.81	414.27
588.97	484.49
589.13	393.21
589.29	463.43
589.45	475.13
589.61	414.27
589.77	477.47
589.93	440.02
590.08	430.66
590.24	379.17
590.40	437.68
590.56	437.68
590.72	409.59
590.88	393.21
591.04	458.74
591.20	386.19
591.35	491.51
591.51	463.43
591.67	442.36
591.83	430.66
591.99	479.81
592.15	437.68
592.31	458.74
592.46	397.89
592.62	423.64
592.78	444.70
592.94	433.00
593.10	407.25
593.26	395.55
593.41	475.13
593.57	475.13
593.73	395.55
593.89	379.17
594.05	416.62
594.20	372.15
594.36	479.81
594.52	362.78
594.68	365.12
594.84	430.66
594.99	500.87
595.15	472.79
595.31	456.40
595.47	498.53
595.62	418.96
595.78	444.70
595.94	440.02
596.10	475.13
596.25	433.00
596.41	472.79
596.57	395.55
596.73	416.62
596.88	421.30
597.04	397.89
597.20	425.98
597.36	489.17
597.51	416.62
597.67	414.27
597.83	358.10
597.99	458.74
598.14	440.02
598.30	444.70
598.46	470.45
598.61	411.93
598.77	367.46
598.93	409.59
599.09	362.78
599.24	411.93
599.40	454.06
599.56	428.32
599.71	425.98
599.87	402.57
600.03	425.98
600.18	395.55
600.34	482.15
600.50	383.85
600.65	454.06
600.81	360.44
600.97	440.02
601.12	461.09
601.28	440.02
601.44	463.43
601.59	383.85
601.75	472.79
601.91	416.62
602.06	404.91
602.22	599.18
602.37	407.25
602.53	461.09
602.69	451.72
602.84	442.36
603.00	360.44
603.16	402.57
603.31	411.93
603.47	442.36
603.62	360.44
603.78	376.83
603.94	458.74
604.09	346.40
604.25	425.98
604.40	442.36
604.56	383.85
604.71	479.81
604.87	414.27
605.03	440.02
605.18	423.64
605.34	435.34
605.49	468.11
605.65	341.72
605.80	407.25
605.96	339.38
606.12	458.74
606.27	484.49
606.43	374.49
606.58	407.25
606.74	390.87
606.89	433.00
607.05	414.27
607.20	418.96
607.36	449.38
607.51	425.98
607.67	402.57
607.82	425.98
607.98	482.15
608.13	390.87
608.29	456.40
608.44	397.89
608.60	379.17
608.75	440.02
608.91	381.51
609.06	409.59
609.22	454.06
609.37	416.62
609.53	409.59
609.68	388.53
609.84	423.64
609.99	454.06
610.15	407.25
