SpectraSuite Data File
++++++++++++++++++++++++++++++++++++
Date: Fri Oct 25 12:10:42 EDT 2013
User: price-jones
Dark Spectrum Present: No
Reference Spectrum Present: No
Number of Sampled Component Spectra: 1
Spectrometers: USB2+H05261
Integration Time (usec): 100000 (USB2+H05261)
Spectra Averaged: 1 (USB2+H05261)
Boxcar Smoothing: 0 (USB2+H05261)
Correct for Electrical Dark: No (USB2+H05261)
Strobe/Lamp Enabled: No (USB2+H05261)
Correct for Detector Non-linearity: No (USB2+H05261)
Correct for Stray Light: No (USB2+H05261)
Number of Pixels in Processed Spectrum: 2048
>>>>>Begin Processed Spectral Data<<<<<
365.73	322.99
365.92	322.99
366.12	322.99
366.32	315.97
366.52	182.56
366.72	224.69
366.91	220.01
367.11	259.80
367.31	227.03
367.51	222.35
367.70	257.46
367.90	201.29
368.10	269.16
368.30	217.67
368.49	259.80
368.69	266.82
368.89	266.82
369.09	276.18
369.28	269.16
369.48	269.16
369.68	266.82
369.87	327.68
370.07	294.91
370.27	257.46
370.47	308.95
370.66	290.23
370.86	337.04
371.06	451.72
371.25	456.40
371.45	346.40
371.65	376.83
371.84	346.40
372.04	355.76
372.24	428.32
372.44	383.85
372.63	388.53
372.83	379.17
373.03	383.85
373.22	409.59
373.42	386.19
373.62	365.12
373.81	428.32
374.01	407.25
374.21	395.55
374.40	425.98
374.60	444.70
374.79	461.09
374.99	416.62
375.19	465.77
375.38	397.89
375.58	430.66
375.78	390.87
375.97	430.66
376.17	461.09
376.37	407.25
376.56	393.21
376.76	503.22
376.95	465.77
377.15	407.25
377.35	404.91
377.54	454.06
377.74	421.30
377.93	402.57
378.13	470.45
378.33	358.10
378.52	351.08
378.72	421.30
378.91	500.87
379.11	524.28
379.31	421.30
379.50	395.55
379.70	367.46
379.89	500.87
380.09	362.78
380.28	358.10
380.48	386.19
380.68	414.27
380.87	400.23
381.07	433.00
381.26	393.21
381.46	397.89
381.65	437.68
381.85	390.87
382.04	451.72
382.24	367.46
382.43	414.27
382.63	388.53
382.83	374.49
383.02	442.36
383.22	468.11
383.41	334.70
383.61	407.25
383.80	362.78
384.00	393.21
384.19	489.17
384.39	388.53
384.58	390.87
384.78	397.89
384.97	397.89
385.17	339.38
385.36	397.89
385.56	402.57
385.75	322.99
385.95	414.27
386.14	404.91
386.34	440.02
386.53	376.83
386.72	358.10
386.92	444.70
387.11	440.02
387.31	479.81
387.50	404.91
387.70	358.10
387.89	393.21
388.09	365.12
388.28	456.40
388.48	418.96
388.67	388.53
388.86	402.57
389.06	388.53
389.25	433.00
389.45	437.68
389.64	362.78
389.84	393.21
390.03	435.34
390.22	456.40
390.42	376.83
390.61	402.57
390.81	381.51
391.00	365.12
391.19	428.32
391.39	475.13
391.58	416.62
391.78	320.65
391.97	418.96
392.16	374.49
392.36	355.76
392.55	381.51
392.75	409.59
392.94	390.87
393.13	358.10
393.33	372.15
393.52	449.38
393.71	421.30
393.91	477.47
394.10	348.74
394.29	416.62
394.49	276.18
394.68	414.27
394.88	383.85
395.07	411.93
395.26	379.17
395.46	407.25
395.65	416.62
395.84	428.32
396.04	510.24
396.23	472.79
396.42	395.55
396.62	374.49
396.81	454.06
397.00	353.42
397.19	458.74
397.39	404.91
397.58	353.42
397.77	346.40
397.97	381.51
398.16	390.87
398.35	414.27
398.55	374.49
398.74	355.76
398.93	491.51
399.12	454.06
399.32	397.89
399.51	383.85
399.70	374.49
399.90	423.64
400.09	421.30
400.28	388.53
400.47	355.76
400.67	418.96
400.86	404.91
401.05	411.93
401.24	454.06
401.44	470.45
401.63	423.64
401.82	435.34
402.01	390.87
402.21	404.91
402.40	402.57
402.59	489.17
402.78	369.80
402.97	315.97
403.17	423.64
403.36	435.34
403.55	379.17
403.74	400.23
403.93	421.30
404.13	400.23
404.32	386.19
404.51	496.19
404.70	400.23
404.89	456.40
405.09	489.17
405.28	409.59
405.47	421.30
405.66	418.96
405.85	423.64
406.05	348.74
406.24	423.64
406.43	463.43
406.62	468.11
406.81	386.19
407.00	437.68
407.20	416.62
407.39	428.32
407.58	341.72
407.77	449.38
407.96	447.04
408.15	435.34
408.34	479.81
408.54	369.80
408.73	496.19
408.92	447.04
409.11	360.44
409.30	374.49
409.49	411.93
409.68	404.91
409.87	402.57
410.07	376.83
410.26	358.10
410.45	425.98
410.64	440.02
410.83	388.53
411.02	428.32
411.21	388.53
411.40	489.17
411.59	430.66
411.78	409.59
411.98	447.04
412.17	409.59
412.36	440.02
412.55	337.04
412.74	451.72
412.93	440.02
413.12	402.57
413.31	409.59
413.50	435.34
413.69	433.00
413.88	454.06
414.07	425.98
414.26	386.19
414.45	416.62
414.64	444.70
414.83	397.89
415.02	362.78
415.22	524.28
415.41	458.74
415.60	472.79
415.79	381.51
415.98	451.72
416.17	425.98
416.36	376.83
416.55	411.93
416.74	451.72
416.93	400.23
417.12	430.66
417.31	341.72
417.50	376.83
417.69	360.44
417.88	407.25
418.07	433.00
418.26	435.34
418.45	418.96
418.64	421.30
418.83	367.46
419.02	381.51
419.21	440.02
419.39	416.62
419.58	287.89
419.77	318.31
419.96	386.19
420.15	395.55
420.34	376.83
420.53	388.53
420.72	414.27
420.91	496.19
421.10	423.64
421.29	416.62
421.48	409.59
421.67	402.57
421.86	358.10
422.05	414.27
422.24	411.93
422.43	430.66
422.61	407.25
422.80	402.57
422.99	416.62
423.18	404.91
423.37	414.27
423.56	374.49
423.75	411.93
423.94	503.22
424.13	374.49
424.32	402.57
424.50	470.45
424.69	430.66
424.88	472.79
425.07	437.68
425.26	463.43
425.45	393.21
425.64	423.64
425.83	416.62
426.01	435.34
426.20	416.62
426.39	381.51
426.58	372.15
426.77	423.64
426.96	468.11
427.15	456.40
427.33	358.10
427.52	388.53
427.71	395.55
427.90	397.89
428.09	395.55
428.28	393.21
428.46	397.89
428.65	463.43
428.84	308.95
429.03	489.17
429.22	411.93
429.40	402.57
429.59	330.02
429.78	435.34
429.97	430.66
430.16	447.04
430.34	292.57
430.53	435.34
430.72	482.15
430.91	428.32
431.10	414.27
431.28	433.00
431.47	393.21
431.66	440.02
431.85	362.78
432.03	411.93
432.22	454.06
432.41	407.25
432.60	496.19
432.79	440.02
432.97	379.17
433.16	397.89
433.35	304.27
433.54	337.04
433.72	376.83
433.91	362.78
434.10	440.02
434.28	451.72
434.47	461.09
434.66	351.08
434.85	369.80
435.03	407.25
435.22	449.38
435.41	435.34
435.59	486.83
435.78	402.57
435.97	428.32
436.16	388.53
436.34	360.44
436.53	381.51
436.72	435.34
436.90	454.06
437.09	383.85
437.28	348.74
437.46	409.59
437.65	428.32
437.84	484.49
438.02	397.89
438.21	428.32
438.40	402.57
438.58	367.46
438.77	416.62
438.96	418.96
439.14	362.78
439.33	421.30
439.52	400.23
439.70	416.62
439.89	414.27
440.08	393.21
440.26	423.64
440.45	442.36
440.63	397.89
440.82	421.30
441.01	423.64
441.19	411.93
441.38	477.47
441.57	386.19
441.75	489.17
441.94	442.36
442.12	437.68
442.31	388.53
442.50	414.27
442.68	454.06
442.87	407.25
443.05	388.53
443.24	447.04
443.43	418.96
443.61	414.27
443.80	404.91
443.98	423.64
444.17	379.17
444.35	337.04
444.54	374.49
444.73	376.83
444.91	374.49
445.10	423.64
445.28	416.62
445.47	435.34
445.65	440.02
445.84	330.02
446.02	411.93
446.21	440.02
446.39	400.23
446.58	409.59
446.77	381.51
446.95	404.91
447.14	479.81
447.32	524.28
447.51	330.02
447.69	458.74
447.88	369.80
448.06	444.70
448.25	461.09
448.43	409.59
448.62	437.68
448.80	381.51
448.99	440.02
449.17	416.62
449.36	397.89
449.54	348.74
449.73	360.44
449.91	379.17
450.10	433.00
450.28	451.72
450.46	524.28
450.65	503.22
450.83	465.77
451.02	376.83
451.20	416.62
451.39	334.70
451.57	339.38
451.76	358.10
451.94	447.04
452.13	456.40
452.31	395.55
452.49	447.04
452.68	334.70
452.86	360.44
453.05	414.27
453.23	383.85
453.42	416.62
453.60	414.27
453.78	379.17
453.97	433.00
454.15	407.25
454.34	369.80
454.52	442.36
454.70	430.66
454.89	470.45
455.07	397.89
455.26	447.04
455.44	465.77
455.62	362.78
455.81	435.34
455.99	435.34
456.17	437.68
456.36	402.57
456.54	423.64
456.73	383.85
456.91	365.12
457.09	386.19
457.28	421.30
457.46	437.68
457.64	442.36
457.83	435.34
458.01	395.55
458.19	397.89
458.38	421.30
458.56	369.80
458.74	390.87
458.93	388.53
459.11	376.83
459.29	320.65
459.48	421.30
459.66	482.15
459.84	435.34
460.03	479.81
460.21	454.06
460.39	374.49
460.57	393.21
460.76	472.79
460.94	435.34
461.12	423.64
461.31	411.93
461.49	330.02
461.67	346.40
461.85	425.98
462.04	454.06
462.22	788.76
462.40	449.38
462.59	437.68
462.77	416.62
462.95	416.62
463.13	388.53
463.32	477.47
463.50	447.04
463.68	355.76
463.86	383.85
464.05	372.15
464.23	477.47
464.41	468.11
464.59	425.98
464.78	367.46
464.96	447.04
465.14	447.04
465.32	355.76
465.50	458.74
465.69	386.19
465.87	334.70
466.05	449.38
466.23	400.23
466.41	318.31
466.60	416.62
466.78	437.68
466.96	425.98
467.14	407.25
467.32	411.93
467.51	409.59
467.69	400.23
467.87	458.74
468.05	390.87
468.23	397.89
468.41	425.98
468.60	435.34
468.78	390.87
468.96	430.66
469.14	447.04
469.32	365.12
469.50	402.57
469.69	348.74
469.87	444.70
470.05	442.36
470.23	442.36
470.41	376.83
470.59	327.68
470.77	496.19
470.95	479.81
471.14	510.24
471.32	397.89
471.50	484.49
471.68	367.46
471.86	444.70
472.04	362.78
472.22	500.87
472.40	386.19
472.58	369.80
472.77	362.78
472.95	395.55
473.13	411.93
473.31	374.49
473.49	423.64
473.67	425.98
473.85	390.87
474.03	411.93
474.21	428.32
474.39	447.04
474.57	400.23
474.75	428.32
474.93	379.17
475.12	414.27
475.30	409.59
475.48	433.00
475.66	365.12
475.84	374.49
476.02	372.15
476.20	442.36
476.38	421.30
476.56	435.34
476.74	456.40
476.92	416.62
477.10	440.02
477.28	456.40
477.46	348.74
477.64	390.87
477.82	479.81
478.00	418.96
478.18	416.62
478.36	381.51
478.54	407.25
478.72	388.53
478.90	376.83
479.08	395.55
479.26	435.34
479.44	437.68
479.62	416.62
479.80	353.42
479.98	411.93
480.16	414.27
480.34	407.25
480.52	355.76
480.70	393.21
480.88	367.46
481.06	351.08
481.24	433.00
481.41	362.78
481.59	407.25
481.77	390.87
481.95	421.30
482.13	421.30
482.31	400.23
482.49	409.59
482.67	301.93
482.85	376.83
483.03	362.78
483.21	330.02
483.39	437.68
483.57	404.91
483.74	416.62
483.92	428.32
484.10	372.15
484.28	425.98
484.46	475.13
484.64	402.57
484.82	393.21
485.00	477.47
485.18	458.74
485.35	397.89
485.53	369.80
485.71	454.06
485.89	430.66
486.07	440.02
486.25	484.49
486.43	383.85
486.61	334.70
486.78	456.40
486.96	386.19
487.14	400.23
487.32	447.04
487.50	416.62
487.68	442.36
487.85	346.40
488.03	428.32
488.21	409.59
488.39	416.62
488.57	402.57
488.75	400.23
488.92	519.60
489.10	465.77
489.28	454.06
489.46	414.27
489.64	397.89
489.81	409.59
489.99	367.46
490.17	500.87
490.35	484.49
490.53	421.30
490.70	390.87
490.88	386.19
491.06	362.78
491.24	411.93
491.41	454.06
491.59	411.93
491.77	376.83
491.95	383.85
492.13	374.49
492.30	372.15
492.48	402.57
492.66	383.85
492.84	440.02
493.01	470.45
493.19	381.51
493.37	482.15
493.54	437.68
493.72	430.66
493.90	437.68
494.08	421.30
494.25	454.06
494.43	442.36
494.61	437.68
494.79	374.49
494.96	437.68
495.14	470.45
495.32	285.55
495.49	400.23
495.67	428.32
495.85	404.91
496.02	390.87
496.20	411.93
496.38	402.57
496.55	395.55
496.73	475.13
496.91	414.27
497.09	449.38
497.26	433.00
497.44	390.87
497.62	489.17
497.79	428.32
497.97	444.70
498.14	421.30
498.32	351.08
498.50	402.57
498.67	437.68
498.85	430.66
499.03	381.51
499.20	416.62
499.38	395.55
499.56	388.53
499.73	425.98
499.91	435.34
500.08	418.96
500.26	449.38
500.44	437.68
500.61	437.68
500.79	365.12
500.97	428.32
501.14	454.06
501.32	393.21
501.49	458.74
501.67	423.64
501.84	414.27
502.02	437.68
502.20	433.00
502.37	411.93
502.55	334.70
502.72	395.55
502.90	423.64
503.07	435.34
503.25	449.38
503.43	428.32
503.60	360.44
503.78	421.30
503.95	402.57
504.13	430.66
504.30	395.55
504.48	414.27
504.65	395.55
504.83	486.83
505.01	411.93
505.18	390.87
505.36	409.59
505.53	437.68
505.71	383.85
505.88	458.74
506.06	390.87
506.23	440.02
506.41	407.25
506.58	390.87
506.76	400.23
506.93	374.49
507.11	442.36
507.28	402.57
507.46	442.36
507.63	416.62
507.81	369.80
507.98	442.36
508.16	360.44
508.33	407.25
508.50	430.66
508.68	442.36
508.85	407.25
509.03	379.17
509.20	414.27
509.38	395.55
509.55	421.30
509.73	388.53
509.90	449.38
510.08	372.15
510.25	379.17
510.42	414.27
510.60	425.98
510.77	418.96
510.95	409.59
511.12	383.85
511.30	447.04
511.47	444.70
511.64	411.93
511.82	411.93
511.99	395.55
512.17	390.87
512.34	437.68
512.51	402.57
512.69	449.38
512.86	416.62
513.04	404.91
513.21	449.38
513.38	461.09
513.56	440.02
513.73	447.04
513.90	353.42
514.08	440.02
514.25	390.87
514.43	407.25
514.60	430.66
514.77	440.02
514.95	433.00
515.12	500.87
515.29	447.04
515.47	447.04
515.64	416.62
515.81	416.62
515.99	376.83
516.16	409.59
516.33	407.25
516.51	409.59
516.68	397.89
516.85	440.02
517.03	447.04
517.20	409.59
517.37	393.21
517.54	444.70
517.72	411.93
517.89	435.34
518.06	416.62
518.24	442.36
518.41	458.74
518.58	444.70
518.75	365.12
518.93	449.38
519.10	390.87
519.27	365.12
519.45	409.59
519.62	411.93
519.79	397.89
519.96	397.89
520.14	435.34
520.31	379.17
520.48	367.46
520.65	465.77
520.83	433.00
521.00	367.46
521.17	416.62
521.34	421.30
521.52	423.64
521.69	428.32
521.86	362.78
522.03	362.78
522.20	440.02
522.38	425.98
522.55	435.34
522.72	411.93
522.89	435.34
523.07	461.09
523.24	440.02
523.41	369.80
523.58	381.51
523.75	444.70
523.92	433.00
524.10	381.51
524.27	404.91
524.44	421.30
524.61	421.30
524.78	341.72
524.96	411.93
525.13	390.87
525.30	430.66
525.47	383.85
525.64	479.81
525.81	461.09
525.98	463.43
526.16	367.46
526.33	402.57
526.50	442.36
526.67	393.21
526.84	465.77
527.01	395.55
527.18	475.13
527.36	433.00
527.53	447.04
527.70	472.79
527.87	400.23
528.04	468.11
528.21	367.46
528.38	489.17
528.55	503.22
528.72	470.45
528.89	428.32
529.07	411.93
529.24	428.32
529.41	500.87
529.58	430.66
529.75	348.74
529.92	390.87
530.09	400.23
530.26	423.64
530.43	440.02
530.60	423.64
530.77	416.62
530.94	362.78
531.11	430.66
531.28	374.49
531.46	440.02
531.63	376.83
531.80	372.15
531.97	479.81
532.14	353.42
532.31	442.36
532.48	386.19
532.65	503.22
532.82	423.64
532.99	442.36
533.16	416.62
533.33	372.15
533.50	386.19
533.67	414.27
533.84	418.96
534.01	337.04
534.18	365.12
534.35	418.96
534.52	423.64
534.69	484.49
534.86	423.64
535.03	414.27
535.20	348.74
535.37	409.59
535.54	379.17
535.71	390.87
535.88	465.77
536.05	421.30
536.22	365.12
536.38	374.49
536.55	351.08
536.72	425.98
536.89	400.23
537.06	479.81
537.23	440.02
537.40	379.17
537.57	421.30
537.74	477.47
537.91	458.74
538.08	409.59
538.25	447.04
538.42	425.98
538.59	386.19
538.75	395.55
538.92	442.36
539.09	421.30
539.26	374.49
539.43	395.55
539.60	407.25
539.77	418.96
539.94	418.96
540.11	409.59
540.28	416.62
540.44	435.34
540.61	425.98
540.78	456.40
540.95	451.72
541.12	435.34
541.29	407.25
541.46	374.49
541.62	416.62
541.79	411.93
541.96	433.00
542.13	470.45
542.30	374.49
542.47	388.53
542.63	423.64
542.80	486.83
542.97	425.98
543.14	397.89
543.31	411.93
543.48	404.91
543.64	442.36
543.81	524.28
543.98	451.72
544.15	355.76
544.32	386.19
544.48	390.87
544.65	381.51
544.82	447.04
544.99	344.06
545.16	425.98
545.32	362.78
545.49	407.25
545.66	411.93
545.83	456.40
546.00	430.66
546.16	393.21
546.33	416.62
546.50	383.85
546.67	461.09
546.83	442.36
547.00	470.45
547.17	372.15
547.34	372.15
547.50	414.27
547.67	423.64
547.84	376.83
548.00	449.38
548.17	421.30
548.34	407.25
548.51	423.64
548.67	484.49
548.84	428.32
549.01	344.06
549.18	388.53
549.34	435.34
549.51	388.53
549.68	437.68
549.84	404.91
550.01	369.80
550.18	435.34
550.34	465.77
550.51	395.55
550.68	507.90
550.84	423.64
551.01	393.21
551.18	458.74
551.34	402.57
551.51	367.46
551.68	465.77
551.84	428.32
552.01	416.62
552.18	461.09
552.34	430.66
552.51	404.91
552.68	454.06
552.84	437.68
553.01	468.11
553.18	437.68
553.34	435.34
553.51	421.30
553.67	418.96
553.84	444.70
554.01	418.96
554.17	418.96
554.34	376.83
554.51	390.87
554.67	470.45
554.84	433.00
555.00	465.77
555.17	433.00
555.33	442.36
555.50	414.27
555.67	470.45
555.83	341.72
556.00	428.32
556.16	491.51
556.33	449.38
556.50	421.30
556.66	458.74
556.83	362.78
556.99	433.00
557.16	423.64
557.32	407.25
557.49	383.85
557.65	442.36
557.82	411.93
557.98	400.23
558.15	379.17
558.32	442.36
558.48	425.98
558.65	390.87
558.81	409.59
558.98	395.55
559.14	451.72
559.31	358.10
559.47	411.93
559.64	416.62
559.80	414.27
559.97	372.15
560.13	416.62
560.30	433.00
560.46	421.30
560.63	411.93
560.79	393.21
560.96	470.45
561.12	435.34
561.29	454.06
561.45	400.23
561.61	390.87
561.78	454.06
561.94	475.13
562.11	437.68
562.27	451.72
562.44	388.53
562.60	418.96
562.77	383.85
562.93	489.17
563.10	512.58
563.26	421.30
563.42	433.00
563.59	423.64
563.75	440.02
563.92	425.98
564.08	383.85
564.24	421.30
564.41	409.59
564.57	355.76
564.74	334.70
564.90	388.53
565.07	454.06
565.23	472.79
565.39	411.93
565.56	435.34
565.72	369.80
565.88	437.68
566.05	421.30
566.21	404.91
566.38	421.30
566.54	425.98
566.70	435.34
566.87	484.49
567.03	339.38
567.19	407.25
567.36	383.85
567.52	444.70
567.68	435.34
567.85	404.91
568.01	402.57
568.17	351.08
568.34	421.30
568.50	449.38
568.66	397.89
568.83	409.59
568.99	440.02
569.15	449.38
569.32	402.57
569.48	468.11
569.64	428.32
569.81	468.11
569.97	379.17
570.13	461.09
570.30	449.38
570.46	397.89
570.62	400.23
570.78	395.55
570.95	372.15
571.11	470.45
571.27	444.70
571.43	414.27
571.60	428.32
571.76	435.34
571.92	339.38
572.09	383.85
572.25	381.51
572.41	407.25
572.57	458.74
572.74	486.83
572.90	449.38
573.06	458.74
573.22	447.04
573.38	433.00
573.55	449.38
573.71	454.06
573.87	376.83
574.03	416.62
574.20	454.06
574.36	440.02
574.52	421.30
574.68	388.53
574.84	425.98
575.01	458.74
575.17	456.40
575.33	435.34
575.49	388.53
575.65	372.15
575.82	381.51
575.98	390.87
576.14	372.15
576.30	327.68
576.46	461.09
576.62	519.60
576.79	472.79
576.95	435.34
577.11	411.93
577.27	353.42
577.43	442.36
577.59	365.12
577.75	461.09
577.92	451.72
578.08	407.25
578.24	360.44
578.40	409.59
578.56	489.17
578.72	383.85
578.88	404.91
579.04	383.85
579.21	381.51
579.37	437.68
579.53	428.32
579.69	444.70
579.85	397.89
580.01	458.74
580.17	409.59
580.33	493.85
580.49	393.21
580.65	437.68
580.82	456.40
580.98	470.45
581.14	428.32
581.30	496.19
581.46	386.19
581.62	486.83
581.78	397.89
581.94	435.34
582.10	414.27
582.26	454.06
582.42	369.80
582.58	381.51
582.74	416.62
582.90	369.80
583.06	461.09
583.22	393.21
583.38	400.23
583.54	414.27
583.70	463.43
583.86	465.77
584.02	332.36
584.18	381.51
584.34	334.70
584.50	355.76
584.66	379.17
584.82	348.74
584.98	421.30
585.14	353.42
585.30	454.06
585.46	425.98
585.62	486.83
585.78	421.30
585.94	395.55
586.10	330.02
586.26	465.77
586.42	367.46
586.58	470.45
586.74	390.87
586.90	423.64
587.06	407.25
587.22	475.13
587.38	386.19
587.54	311.29
587.70	407.25
587.86	407.25
588.02	423.64
588.18	442.36
588.34	404.91
588.49	367.46
588.65	433.00
588.81	491.51
588.97	416.62
589.13	465.77
589.29	369.80
589.45	430.66
589.61	386.19
589.77	376.83
589.93	411.93
590.08	489.17
590.24	454.06
590.40	491.51
590.56	447.04
590.72	456.40
590.88	393.21
591.04	484.49
591.20	344.06
591.35	411.93
591.51	376.83
591.67	498.53
591.83	444.70
591.99	433.00
592.15	451.72
592.31	435.34
592.46	400.23
592.62	447.04
592.78	388.53
592.94	360.44
593.10	383.85
593.26	456.40
593.41	407.25
593.57	381.51
593.73	362.78
593.89	369.80
594.05	414.27
594.20	353.42
594.36	390.87
594.52	428.32
594.68	430.66
594.84	411.93
594.99	437.68
595.15	414.27
595.31	418.96
595.47	414.27
595.62	414.27
595.78	365.12
595.94	365.12
596.10	451.72
596.25	418.96
596.41	381.51
596.57	484.49
596.73	435.34
596.88	425.98
597.04	416.62
597.20	407.25
597.36	430.66
597.51	390.87
597.67	444.70
597.83	369.80
597.99	479.81
598.14	437.68
598.30	463.43
598.46	498.53
598.61	475.13
598.77	409.59
598.93	423.64
599.09	423.64
599.24	447.04
599.40	418.96
599.56	414.27
599.71	435.34
599.87	442.36
600.03	400.23
600.18	355.76
600.34	369.80
600.50	442.36
600.65	360.44
600.81	433.00
600.97	407.25
601.12	428.32
601.28	498.53
601.44	454.06
601.59	355.76
601.75	421.30
601.91	372.15
602.06	507.90
602.22	437.68
602.37	465.77
602.53	423.64
602.69	416.62
602.84	414.27
603.00	430.66
603.16	440.02
603.31	458.74
603.47	430.66
603.62	383.85
603.78	355.76
603.94	430.66
604.09	374.49
604.25	421.30
604.40	402.57
604.56	418.96
604.71	430.66
604.87	461.09
605.03	409.59
605.18	444.70
605.34	465.77
605.49	351.08
605.65	454.06
605.80	327.68
605.96	414.27
606.12	395.55
606.27	395.55
606.43	447.04
606.58	442.36
606.74	463.43
606.89	386.19
607.05	440.02
607.20	348.74
607.36	425.98
607.51	362.78
607.67	444.70
607.82	386.19
607.98	447.04
608.13	449.38
608.29	425.98
608.44	425.98
608.60	358.10
608.75	440.02
608.91	414.27
609.06	468.11
609.22	461.09
609.37	433.00
609.53	381.51
609.68	437.68
609.84	346.40
609.99	386.19
610.15	468.11
