SpectraSuite Data File
++++++++++++++++++++++++++++++++++++
Date: Fri Oct 25 12:10:59 EDT 2013
User: price-jones
Dark Spectrum Present: No
Reference Spectrum Present: No
Number of Sampled Component Spectra: 1
Spectrometers: USB2+H05261
Integration Time (usec): 100000 (USB2+H05261)
Spectra Averaged: 1 (USB2+H05261)
Boxcar Smoothing: 0 (USB2+H05261)
Correct for Electrical Dark: No (USB2+H05261)
Strobe/Lamp Enabled: No (USB2+H05261)
Correct for Detector Non-linearity: No (USB2+H05261)
Correct for Stray Light: No (USB2+H05261)
Number of Pixels in Processed Spectrum: 2048
>>>>>Begin Processed Spectral Data<<<<<
365.73	362.78
365.92	362.78
366.12	362.78
366.32	243.42
366.52	273.84
366.72	264.48
366.91	222.35
367.11	168.52
367.31	259.80
367.51	262.14
367.70	245.76
367.90	250.44
368.10	163.84
368.30	285.55
368.49	238.73
368.69	283.20
368.89	208.31
369.09	262.14
369.28	222.35
369.48	248.10
369.68	297.25
369.87	344.06
370.07	257.46
370.27	346.40
370.47	248.10
370.66	374.49
370.86	393.21
371.06	430.66
371.25	411.93
371.45	374.49
371.65	341.72
371.84	365.12
372.04	404.91
372.24	400.23
372.44	430.66
372.63	435.34
372.83	433.00
373.03	404.91
373.22	449.38
373.42	430.66
373.62	402.57
373.81	407.25
374.01	430.66
374.21	437.68
374.40	461.09
374.60	507.90
374.79	465.77
374.99	425.98
375.19	411.93
375.38	379.17
375.58	433.00
375.78	409.59
375.97	411.93
376.17	468.11
376.37	355.76
376.56	418.96
376.76	411.93
376.95	404.91
377.15	390.87
377.35	386.19
377.54	393.21
377.74	421.30
377.93	393.21
378.13	414.27
378.33	402.57
378.52	360.44
378.72	451.72
378.91	416.62
379.11	388.53
379.31	360.44
379.50	447.04
379.70	442.36
379.89	393.21
380.09	402.57
380.28	409.59
380.48	395.55
380.68	423.64
380.87	365.12
381.07	423.64
381.26	348.74
381.46	428.32
381.65	409.59
381.85	407.25
382.04	414.27
382.24	388.53
382.43	383.85
382.63	430.66
382.83	397.89
383.02	440.02
383.22	451.72
383.41	428.32
383.61	404.91
383.80	425.98
384.00	475.13
384.19	414.27
384.39	383.85
384.58	461.09
384.78	383.85
384.97	393.21
385.17	454.06
385.36	365.12
385.56	428.32
385.75	348.74
385.95	390.87
386.14	451.72
386.34	472.79
386.53	421.30
386.72	477.47
386.92	409.59
387.11	358.10
387.31	390.87
387.50	416.62
387.70	386.19
387.89	437.68
388.09	376.83
388.28	425.98
388.48	332.36
388.67	407.25
388.86	358.10
389.06	374.49
389.25	409.59
389.45	411.93
389.64	313.63
389.84	414.27
390.03	491.51
390.22	355.76
390.42	376.83
390.61	351.08
390.81	416.62
391.00	390.87
391.19	440.02
391.39	372.15
391.58	367.46
391.78	414.27
391.97	437.68
392.16	374.49
392.36	416.62
392.55	433.00
392.75	386.19
392.94	491.51
393.13	388.53
393.33	388.53
393.52	416.62
393.71	435.34
393.91	341.72
394.10	339.38
394.29	379.17
394.49	362.78
394.68	395.55
394.88	423.64
395.07	428.32
395.26	435.34
395.46	273.84
395.65	451.72
395.84	428.32
396.04	512.58
396.23	468.11
396.42	433.00
396.62	454.06
396.81	393.21
397.00	430.66
397.19	416.62
397.39	414.27
397.58	416.62
397.77	369.80
397.97	393.21
398.16	454.06
398.35	362.78
398.55	360.44
398.74	416.62
398.93	393.21
399.12	358.10
399.32	388.53
399.51	351.08
399.70	404.91
399.90	409.59
400.09	418.96
400.28	418.96
400.47	421.30
400.67	430.66
400.86	407.25
401.05	512.58
401.24	351.08
401.44	465.77
401.63	442.36
401.82	425.98
402.01	416.62
402.21	400.23
402.40	367.46
402.59	376.83
402.78	470.45
402.97	402.57
403.17	367.46
403.36	388.53
403.55	414.27
403.74	360.44
403.93	369.80
404.13	383.85
404.32	353.42
404.51	358.10
404.70	360.44
404.89	379.17
405.09	442.36
405.28	400.23
405.47	376.83
405.66	365.12
405.85	386.19
406.05	437.68
406.24	423.64
406.43	411.93
406.62	418.96
406.81	456.40
407.00	390.87
407.20	437.68
407.39	397.89
407.58	367.46
407.77	433.00
407.96	472.79
408.15	397.89
408.34	423.64
408.54	395.55
408.73	353.42
408.92	456.40
409.11	449.38
409.30	414.27
409.49	374.49
409.68	341.72
409.87	458.74
410.07	346.40
410.26	390.87
410.45	379.17
410.64	395.55
410.83	376.83
411.02	447.04
411.21	468.11
411.40	407.25
411.59	463.43
411.78	411.93
411.98	433.00
412.17	362.78
412.36	353.42
412.55	425.98
412.74	421.30
412.93	444.70
413.12	344.06
413.31	362.78
413.50	372.15
413.69	386.19
413.88	458.74
414.07	418.96
414.26	390.87
414.45	402.57
414.64	404.91
414.83	458.74
415.02	395.55
415.22	367.46
415.41	374.49
415.60	442.36
415.79	451.72
415.98	465.77
416.17	414.27
416.36	402.57
416.55	395.55
416.74	418.96
416.93	383.85
417.12	325.33
417.31	433.00
417.50	353.42
417.69	458.74
417.88	388.53
418.07	292.57
418.26	374.49
418.45	409.59
418.64	409.59
418.83	435.34
419.02	379.17
419.21	414.27
419.39	400.23
419.58	351.08
419.77	404.91
419.96	442.36
420.15	447.04
420.34	461.09
420.53	423.64
420.72	402.57
420.91	400.23
421.10	447.04
421.29	442.36
421.48	444.70
421.67	383.85
421.86	416.62
422.05	397.89
422.24	444.70
422.43	374.49
422.61	355.76
422.80	437.68
422.99	447.04
423.18	404.91
423.37	451.72
423.56	353.42
423.75	425.98
423.94	397.89
424.13	435.34
424.32	404.91
424.50	409.59
424.69	463.43
424.88	362.78
425.07	381.51
425.26	414.27
425.45	341.72
425.64	360.44
425.83	367.46
426.01	395.55
426.20	362.78
426.39	449.38
426.58	470.45
426.77	365.12
426.96	444.70
427.15	402.57
427.33	374.49
427.52	393.21
427.71	383.85
427.90	444.70
428.09	390.87
428.28	463.43
428.46	407.25
428.65	442.36
428.84	397.89
429.03	428.32
429.22	344.06
429.40	348.74
429.59	400.23
429.78	463.43
429.97	400.23
430.16	407.25
430.34	414.27
430.53	454.06
430.72	435.34
430.91	435.34
431.10	360.44
431.28	411.93
431.47	444.70
431.66	400.23
431.85	411.93
432.03	416.62
432.22	435.34
432.41	404.91
432.60	418.96
432.79	348.74
432.97	383.85
433.16	304.27
433.35	351.08
433.54	425.98
433.72	390.87
433.91	402.57
434.10	381.51
434.28	365.12
434.47	318.31
434.66	402.57
434.85	409.59
435.03	369.80
435.22	449.38
435.41	430.66
435.59	374.49
435.78	444.70
435.97	381.51
436.16	388.53
436.34	318.31
436.53	454.06
436.72	493.85
436.90	454.06
437.09	376.83
437.28	390.87
437.46	409.59
437.65	341.72
437.84	458.74
438.02	386.19
438.21	369.80
438.40	400.23
438.58	428.32
438.77	430.66
438.96	388.53
439.14	421.30
439.33	430.66
439.52	479.81
439.70	479.81
439.89	470.45
440.08	425.98
440.26	383.85
440.45	425.98
440.63	486.83
440.82	425.98
441.01	388.53
441.19	397.89
441.38	297.25
441.57	430.66
441.75	414.27
441.94	454.06
442.12	390.87
442.31	407.25
442.50	414.27
442.68	393.21
442.87	433.00
443.05	437.68
443.24	390.87
443.43	376.83
443.61	440.02
443.80	369.80
443.98	402.57
444.17	400.23
444.35	442.36
444.54	369.80
444.73	449.38
444.91	437.68
445.10	395.55
445.28	416.62
445.47	444.70
445.65	468.11
445.84	367.46
446.02	458.74
446.21	346.40
446.39	390.87
446.58	435.34
446.77	407.25
446.95	418.96
447.14	418.96
447.32	468.11
447.51	360.44
447.69	407.25
447.88	477.47
448.06	465.77
448.25	468.11
448.43	449.38
448.62	341.72
448.80	423.64
448.99	381.51
449.17	433.00
449.36	390.87
449.54	397.89
449.73	407.25
449.91	447.04
450.10	418.96
450.28	421.30
450.46	461.09
450.65	470.45
450.83	411.93
451.02	418.96
451.20	409.59
451.39	402.57
451.57	402.57
451.76	425.98
451.94	428.32
452.13	425.98
452.31	414.27
452.49	493.85
452.68	437.68
452.86	472.79
453.05	475.13
453.23	404.91
453.42	397.89
453.60	388.53
453.78	369.80
453.97	374.49
454.15	402.57
454.34	458.74
454.52	463.43
454.70	395.55
454.89	442.36
455.07	433.00
455.26	440.02
455.44	472.79
455.62	440.02
455.81	344.06
455.99	477.47
456.17	325.33
456.36	409.59
456.54	355.76
456.73	407.25
456.91	463.43
457.09	348.74
457.28	512.58
457.46	402.57
457.64	416.62
457.83	407.25
458.01	503.22
458.19	500.87
458.38	395.55
458.56	404.91
458.74	372.15
458.93	435.34
459.11	411.93
459.29	388.53
459.48	372.15
459.66	409.59
459.84	449.38
460.03	456.40
460.21	468.11
460.39	402.57
460.57	409.59
460.76	444.70
460.94	369.80
461.12	411.93
461.31	507.90
461.49	442.36
461.67	437.68
461.85	442.36
462.04	428.32
462.22	519.60
462.40	322.99
462.59	397.89
462.77	397.89
462.95	430.66
463.13	449.38
463.32	388.53
463.50	383.85
463.68	430.66
463.86	416.62
464.05	456.40
464.23	395.55
464.41	456.40
464.59	477.47
464.78	461.09
464.96	395.55
465.14	414.27
465.32	383.85
465.50	444.70
465.69	421.30
465.87	393.21
466.05	519.60
466.23	397.89
466.41	407.25
466.60	423.64
466.78	423.64
466.96	397.89
467.14	470.45
467.32	423.64
467.51	491.51
467.69	421.30
467.87	402.57
468.05	330.02
468.23	461.09
468.41	374.49
468.60	444.70
468.78	397.89
468.96	411.93
469.14	353.42
469.32	437.68
469.50	428.32
469.69	418.96
469.87	442.36
470.05	428.32
470.23	447.04
470.41	351.08
470.59	388.53
470.77	395.55
470.95	435.34
471.14	386.19
471.32	383.85
471.50	395.55
471.68	386.19
471.86	447.04
472.04	451.72
472.22	409.59
472.40	454.06
472.58	397.89
472.77	411.93
472.95	435.34
473.13	454.06
473.31	447.04
473.49	381.51
473.67	435.34
473.85	477.47
474.03	376.83
474.21	400.23
474.39	411.93
474.57	430.66
474.75	395.55
474.93	388.53
475.12	449.38
475.30	344.06
475.48	376.83
475.66	379.17
475.84	447.04
476.02	362.78
476.20	430.66
476.38	386.19
476.56	451.72
476.74	425.98
476.92	416.62
477.10	447.04
477.28	414.27
477.46	383.85
477.64	411.93
477.82	456.40
478.00	435.34
478.18	416.62
478.36	425.98
478.54	430.66
478.72	430.66
478.90	458.74
479.08	449.38
479.26	472.79
479.44	411.93
479.62	397.89
479.80	393.21
479.98	388.53
480.16	409.59
480.34	409.59
480.52	444.70
480.70	416.62
480.88	322.99
481.06	379.17
481.24	433.00
481.41	433.00
481.59	444.70
481.77	372.15
481.95	444.70
482.13	395.55
482.31	407.25
482.49	395.55
482.67	442.36
482.85	468.11
483.03	465.77
483.21	404.91
483.39	353.42
483.57	433.00
483.74	444.70
483.92	397.89
484.10	451.72
484.28	421.30
484.46	442.36
484.64	416.62
484.82	507.90
485.00	416.62
485.18	332.36
485.35	400.23
485.53	423.64
485.71	393.21
485.89	435.34
486.07	409.59
486.25	447.04
486.43	433.00
486.61	421.30
486.78	425.98
486.96	390.87
487.14	402.57
487.32	379.17
487.50	407.25
487.68	423.64
487.85	489.17
488.03	486.83
488.21	472.79
488.39	388.53
488.57	409.59
488.75	440.02
488.92	552.37
489.10	407.25
489.28	411.93
489.46	449.38
489.64	395.55
489.81	395.55
489.99	463.43
490.17	440.02
490.35	447.04
490.53	409.59
490.70	372.15
490.88	482.15
491.06	451.72
491.24	491.51
491.41	489.17
491.59	376.83
491.77	409.59
491.95	376.83
492.13	423.64
492.30	418.96
492.48	421.30
492.66	339.38
492.84	414.27
493.01	416.62
493.19	355.76
493.37	388.53
493.54	418.96
493.72	423.64
493.90	346.40
494.08	360.44
494.25	423.64
494.43	430.66
494.61	353.42
494.79	414.27
494.96	428.32
495.14	442.36
495.32	376.83
495.49	421.30
495.67	390.87
495.85	461.09
496.02	381.51
496.20	470.45
496.38	411.93
496.55	400.23
496.73	463.43
496.91	435.34
497.09	374.49
497.26	425.98
497.44	388.53
497.62	428.32
497.79	395.55
497.97	433.00
498.14	416.62
498.32	407.25
498.50	383.85
498.67	423.64
498.85	334.70
499.03	339.38
499.20	428.32
499.38	451.72
499.56	440.02
499.73	400.23
499.91	472.79
500.08	454.06
500.26	407.25
500.44	444.70
500.61	461.09
500.79	369.80
500.97	411.93
501.14	440.02
501.32	411.93
501.49	346.40
501.67	390.87
501.84	379.17
502.02	365.12
502.20	456.40
502.37	374.49
502.55	416.62
502.72	425.98
502.90	493.85
503.07	428.32
503.25	334.70
503.43	449.38
503.60	437.68
503.78	402.57
503.95	454.06
504.13	348.74
504.30	461.09
504.48	376.83
504.65	470.45
504.83	395.55
505.01	346.40
505.18	458.74
505.36	393.21
505.53	379.17
505.71	454.06
505.88	388.53
506.06	465.77
506.23	444.70
506.41	393.21
506.58	381.51
506.76	344.06
506.93	397.89
507.11	468.11
507.28	444.70
507.46	400.23
507.63	416.62
507.81	449.38
507.98	447.04
508.16	421.30
508.33	440.02
508.50	454.06
508.68	376.83
508.85	444.70
509.03	433.00
509.20	416.62
509.38	447.04
509.55	409.59
509.73	461.09
509.90	430.66
510.08	360.44
510.25	435.34
510.42	344.06
510.60	365.12
510.77	409.59
510.95	390.87
511.12	353.42
511.30	348.74
511.47	447.04
511.64	435.34
511.82	444.70
511.99	372.15
512.17	447.04
512.34	393.21
512.51	390.87
512.69	475.13
512.86	433.00
513.04	423.64
513.21	416.62
513.38	393.21
513.56	423.64
513.73	400.23
513.90	407.25
514.08	320.65
514.25	418.96
514.43	447.04
514.60	425.98
514.77	444.70
514.95	423.64
515.12	411.93
515.29	344.06
515.47	414.27
515.64	428.32
515.81	404.91
515.99	447.04
516.16	456.40
516.33	414.27
516.51	325.33
516.68	414.27
516.85	379.17
517.03	341.72
517.20	444.70
517.37	390.87
517.54	376.83
517.72	428.32
517.89	465.77
518.06	482.15
518.24	491.51
518.41	454.06
518.58	400.23
518.75	322.99
518.93	379.17
519.10	421.30
519.27	456.40
519.45	395.55
519.62	395.55
519.79	433.00
519.96	418.96
520.14	397.89
520.31	402.57
520.48	376.83
520.65	447.04
520.83	449.38
521.00	337.04
521.17	482.15
521.34	449.38
521.52	381.51
521.69	390.87
521.86	430.66
522.03	397.89
522.20	430.66
522.38	369.80
522.55	416.62
522.72	421.30
522.89	458.74
523.07	472.79
523.24	397.89
523.41	435.34
523.58	400.23
523.75	404.91
523.92	458.74
524.10	353.42
524.27	390.87
524.44	400.23
524.61	425.98
524.78	374.49
524.96	442.36
525.13	416.62
525.30	463.43
525.47	414.27
525.64	383.85
525.81	479.81
525.98	451.72
526.16	437.68
526.33	379.17
526.50	414.27
526.67	379.17
526.84	411.93
527.01	444.70
527.18	435.34
527.36	461.09
527.53	365.12
527.70	423.64
527.87	414.27
528.04	416.62
528.21	337.04
528.38	507.90
528.55	409.59
528.72	402.57
528.89	482.15
529.07	402.57
529.24	449.38
529.41	374.49
529.58	423.64
529.75	388.53
529.92	409.59
530.09	505.56
530.26	341.72
530.43	447.04
530.60	425.98
530.77	423.64
530.94	402.57
531.11	479.81
531.28	409.59
531.46	386.19
531.63	414.27
531.80	423.64
531.97	409.59
532.14	397.89
532.31	395.55
532.48	395.55
532.65	444.70
532.82	374.49
532.99	404.91
533.16	437.68
533.33	486.83
533.50	407.25
533.67	348.74
533.84	397.89
534.01	353.42
534.18	475.13
534.35	423.64
534.52	414.27
534.69	461.09
534.86	428.32
535.03	402.57
535.20	355.76
535.37	461.09
535.54	477.47
535.71	397.89
535.88	451.72
536.05	423.64
536.22	414.27
536.38	374.49
536.55	433.00
536.72	400.23
536.89	390.87
537.06	400.23
537.23	390.87
537.40	400.23
537.57	402.57
537.74	470.45
537.91	458.74
538.08	479.81
538.25	428.32
538.42	402.57
538.59	463.43
538.75	414.27
538.92	325.33
539.09	447.04
539.26	479.81
539.43	470.45
539.60	472.79
539.77	428.32
539.94	496.19
540.11	327.68
540.28	411.93
540.44	442.36
540.61	411.93
540.78	411.93
540.95	423.64
541.12	435.34
541.29	454.06
541.46	369.80
541.62	477.47
541.79	407.25
541.96	451.72
542.13	390.87
542.30	395.55
542.47	468.11
542.63	402.57
542.80	430.66
542.97	475.13
543.14	425.98
543.31	444.70
543.48	407.25
543.64	425.98
543.81	458.74
543.98	472.79
544.15	442.36
544.32	472.79
544.48	418.96
544.65	330.02
544.82	407.25
544.99	383.85
545.16	395.55
545.32	376.83
545.49	362.78
545.66	428.32
545.83	344.06
546.00	390.87
546.16	430.66
546.33	383.85
546.50	411.93
546.67	430.66
546.83	444.70
547.00	437.68
547.17	475.13
547.34	416.62
547.50	411.93
547.67	430.66
547.84	407.25
548.00	409.59
548.17	402.57
548.34	433.00
548.51	442.36
548.67	433.00
548.84	400.23
549.01	454.06
549.18	435.34
549.34	355.76
549.51	418.96
549.68	465.77
549.84	416.62
550.01	428.32
550.18	507.90
550.34	440.02
550.51	381.51
550.68	477.47
550.84	409.59
551.01	435.34
551.18	486.83
551.34	468.11
551.51	369.80
551.68	468.11
551.84	447.04
552.01	355.76
552.18	416.62
552.34	365.12
552.51	344.06
552.68	465.77
552.84	388.53
553.01	337.04
553.18	381.51
553.34	425.98
553.51	409.59
553.67	477.47
553.84	482.15
554.01	468.11
554.17	463.43
554.34	327.68
554.51	416.62
554.67	409.59
554.84	414.27
555.00	423.64
555.17	397.89
555.33	414.27
555.50	402.57
555.67	433.00
555.83	409.59
556.00	414.27
556.16	608.54
556.33	383.85
556.50	468.11
556.66	465.77
556.83	435.34
556.99	395.55
557.16	425.98
557.32	416.62
557.49	435.34
557.65	414.27
557.82	503.22
557.98	428.32
558.15	430.66
558.32	318.31
558.48	428.32
558.65	444.70
558.81	437.68
558.98	411.93
559.14	393.21
559.31	475.13
559.47	461.09
559.64	407.25
559.80	454.06
559.97	444.70
560.13	447.04
560.30	482.15
560.46	416.62
560.63	428.32
560.79	351.08
560.96	468.11
561.12	390.87
561.29	390.87
561.45	435.34
561.61	456.40
561.78	416.62
561.94	409.59
562.11	397.89
562.27	451.72
562.44	451.72
562.60	425.98
562.77	360.44
562.93	491.51
563.10	386.19
563.26	421.30
563.42	447.04
563.59	465.77
563.75	418.96
563.92	362.78
564.08	440.02
564.24	447.04
564.41	411.93
564.57	414.27
564.74	327.68
564.90	379.17
565.07	437.68
565.23	435.34
565.39	407.25
565.56	461.09
565.72	435.34
565.88	526.62
566.05	486.83
566.21	400.23
566.38	430.66
566.54	449.38
566.70	397.89
566.87	465.77
567.03	433.00
567.19	383.85
567.36	411.93
567.52	454.06
567.68	421.30
567.85	416.62
568.01	395.55
568.17	407.25
568.34	498.53
568.50	493.85
568.66	442.36
568.83	409.59
568.99	407.25
569.15	416.62
569.32	369.80
569.48	393.21
569.64	456.40
569.81	472.79
569.97	416.62
570.13	369.80
570.30	374.49
570.46	388.53
570.62	379.17
570.78	423.64
570.95	362.78
571.11	493.85
571.27	447.04
571.43	409.59
571.60	409.59
571.76	442.36
571.92	358.10
572.09	414.27
572.25	407.25
572.41	365.12
572.57	351.08
572.74	388.53
572.90	447.04
573.06	437.68
573.22	428.32
573.38	507.90
573.55	463.43
573.71	451.72
573.87	402.57
574.03	409.59
574.20	440.02
574.36	425.98
574.52	355.76
574.68	344.06
574.84	386.19
575.01	409.59
575.17	418.96
575.33	456.40
575.49	475.13
575.65	430.66
575.82	386.19
575.98	411.93
576.14	397.89
576.30	414.27
576.46	489.17
576.62	440.02
576.79	428.32
576.95	463.43
577.11	437.68
577.27	409.59
577.43	444.70
577.59	465.77
577.75	430.66
577.92	437.68
578.08	503.22
578.24	348.74
578.40	404.91
578.56	369.80
578.72	517.26
578.88	433.00
579.04	379.17
579.21	440.02
579.37	418.96
579.53	402.57
579.69	500.87
579.85	416.62
580.01	411.93
580.17	379.17
580.33	440.02
580.49	395.55
580.65	442.36
580.82	468.11
580.98	435.34
581.14	444.70
581.30	433.00
581.46	383.85
581.62	468.11
581.78	430.66
581.94	395.55
582.10	390.87
582.26	416.62
582.42	388.53
582.58	381.51
582.74	362.78
582.90	472.79
583.06	390.87
583.22	440.02
583.38	437.68
583.54	355.76
583.70	425.98
583.86	358.10
584.02	360.44
584.18	470.45
584.34	463.43
584.50	428.32
584.66	395.55
584.82	447.04
584.98	531.30
585.14	353.42
585.30	465.77
585.46	440.02
585.62	465.77
585.78	390.87
585.94	409.59
586.10	421.30
586.26	404.91
586.42	496.19
586.58	493.85
586.74	442.36
586.90	428.32
587.06	355.76
587.22	463.43
587.38	374.49
587.54	416.62
587.70	428.32
587.86	533.64
588.02	360.44
588.18	458.74
588.34	379.17
588.49	365.12
588.65	383.85
588.81	379.17
588.97	425.98
589.13	430.66
589.29	425.98
589.45	475.13
589.61	390.87
589.77	437.68
589.93	358.10
590.08	400.23
590.24	360.44
590.40	433.00
590.56	390.87
590.72	428.32
590.88	369.80
591.04	437.68
591.20	425.98
591.35	430.66
591.51	437.68
591.67	451.72
591.83	409.59
591.99	440.02
592.15	435.34
592.31	365.12
592.46	376.83
592.62	428.32
592.78	372.15
592.94	454.06
593.10	393.21
593.26	435.34
593.41	411.93
593.57	454.06
593.73	395.55
593.89	444.70
594.05	433.00
594.20	423.64
594.36	425.98
594.52	407.25
594.68	512.58
594.84	418.96
594.99	433.00
595.15	318.31
595.31	465.77
595.47	458.74
595.62	367.46
595.78	414.27
595.94	372.15
596.10	425.98
596.25	475.13
596.41	428.32
596.57	383.85
596.73	322.99
596.88	454.06
597.04	381.51
597.20	447.04
597.36	379.17
597.51	407.25
597.67	418.96
597.83	393.21
597.99	376.83
598.14	430.66
598.30	430.66
598.46	421.30
598.61	454.06
598.77	337.04
598.93	470.45
599.09	397.89
599.24	376.83
599.40	374.49
599.56	388.53
599.71	416.62
599.87	451.72
600.03	421.30
600.18	400.23
600.34	433.00
600.50	383.85
600.65	379.17
600.81	421.30
600.97	393.21
601.12	484.49
601.28	472.79
601.44	447.04
601.59	409.59
601.75	444.70
601.91	418.96
602.06	390.87
602.22	393.21
602.37	456.40
602.53	428.32
602.69	465.77
602.84	440.02
603.00	327.68
603.16	472.79
603.31	428.32
603.47	479.81
603.62	397.89
603.78	416.62
603.94	423.64
604.09	430.66
604.25	433.00
604.40	449.38
604.56	393.21
604.71	414.27
604.87	444.70
605.03	421.30
605.18	404.91
605.34	416.62
605.49	416.62
605.65	444.70
605.80	355.76
605.96	440.02
606.12	367.46
606.27	451.72
606.43	367.46
606.58	414.27
606.74	423.64
606.89	444.70
607.05	444.70
607.20	416.62
607.36	404.91
607.51	472.79
607.67	414.27
607.82	463.43
607.98	411.93
608.13	437.68
608.29	435.34
608.44	433.00
608.60	418.96
608.75	386.19
608.91	440.02
609.06	421.30
609.22	503.22
609.37	379.17
609.53	402.57
609.68	386.19
609.84	433.00
609.99	477.47
610.15	421.30
