SpectraSuite Data File
++++++++++++++++++++++++++++++++++++
Date: Fri Oct 25 12:11:18 EDT 2013
User: price-jones
Dark Spectrum Present: No
Reference Spectrum Present: No
Number of Sampled Component Spectra: 1
Spectrometers: USB2+H05261
Integration Time (usec): 100000 (USB2+H05261)
Spectra Averaged: 1 (USB2+H05261)
Boxcar Smoothing: 0 (USB2+H05261)
Correct for Electrical Dark: No (USB2+H05261)
Strobe/Lamp Enabled: No (USB2+H05261)
Correct for Detector Non-linearity: No (USB2+H05261)
Correct for Stray Light: No (USB2+H05261)
Number of Pixels in Processed Spectrum: 2048
>>>>>Begin Processed Spectral Data<<<<<
365.73	325.33
365.92	325.33
366.12	325.33
366.32	205.97
366.52	252.78
366.72	198.95
366.91	191.92
367.11	215.33
367.31	227.03
367.51	241.08
367.70	187.24
367.90	276.18
368.10	264.48
368.30	278.52
368.49	173.20
368.69	266.82
368.89	269.16
369.09	220.01
369.28	276.18
369.48	285.55
369.68	297.25
369.87	217.67
370.07	299.59
370.27	397.89
370.47	393.21
370.66	390.87
370.86	332.36
371.06	402.57
371.25	400.23
371.45	372.15
371.65	425.98
371.84	322.99
372.04	423.64
372.24	433.00
372.44	447.04
372.63	430.66
372.83	430.66
373.03	423.64
373.22	348.74
373.42	397.89
373.62	346.40
373.81	404.91
374.01	418.96
374.21	444.70
374.40	400.23
374.60	402.57
374.79	451.72
374.99	400.23
375.19	362.78
375.38	423.64
375.58	397.89
375.78	430.66
375.97	496.19
376.17	524.28
376.37	425.98
376.56	421.30
376.76	421.30
376.95	437.68
377.15	454.06
377.35	414.27
377.54	472.79
377.74	407.25
377.93	374.49
378.13	463.43
378.33	437.68
378.52	454.06
378.72	437.68
378.91	421.30
379.11	404.91
379.31	416.62
379.50	425.98
379.70	414.27
379.89	472.79
380.09	334.70
380.28	381.51
380.48	388.53
380.68	362.78
380.87	411.93
381.07	421.30
381.26	449.38
381.46	390.87
381.65	458.74
381.85	423.64
382.04	369.80
382.24	430.66
382.43	348.74
382.63	411.93
382.83	379.17
383.02	437.68
383.22	484.49
383.41	486.83
383.61	437.68
383.80	369.80
384.00	400.23
384.19	367.46
384.39	414.27
384.58	383.85
384.78	470.45
384.97	428.32
385.17	461.09
385.36	407.25
385.56	404.91
385.75	395.55
385.95	388.53
386.14	430.66
386.34	447.04
386.53	421.30
386.72	353.42
386.92	367.46
387.11	437.68
387.31	435.34
387.50	440.02
387.70	407.25
387.89	404.91
388.09	404.91
388.28	397.89
388.48	393.21
388.67	334.70
388.86	397.89
389.06	386.19
389.25	397.89
389.45	402.57
389.64	416.62
389.84	423.64
390.03	437.68
390.22	454.06
390.42	376.83
390.61	390.87
390.81	381.51
391.00	388.53
391.19	355.76
391.39	458.74
391.58	416.62
391.78	376.83
391.97	451.72
392.16	386.19
392.36	451.72
392.55	442.36
392.75	454.06
392.94	433.00
393.13	437.68
393.33	411.93
393.52	470.45
393.71	517.26
393.91	423.64
394.10	367.46
394.29	390.87
394.49	397.89
394.68	409.59
394.88	390.87
395.07	421.30
395.26	468.11
395.46	400.23
395.65	395.55
395.84	421.30
396.04	524.28
396.23	397.89
396.42	451.72
396.62	414.27
396.81	355.76
397.00	447.04
397.19	334.70
397.39	430.66
397.58	447.04
397.77	449.38
397.97	484.49
398.16	393.21
398.35	465.77
398.55	379.17
398.74	454.06
398.93	344.06
399.12	393.21
399.32	404.91
399.51	418.96
399.70	423.64
399.90	393.21
400.09	362.78
400.28	461.09
400.47	423.64
400.67	423.64
400.86	390.87
401.05	388.53
401.24	468.11
401.44	433.00
401.63	423.64
401.82	402.57
402.01	390.87
402.21	402.57
402.40	409.59
402.59	402.57
402.78	435.34
402.97	362.78
403.17	362.78
403.36	458.74
403.55	381.51
403.74	383.85
403.93	440.02
404.13	461.09
404.32	404.91
404.51	381.51
404.70	386.19
404.89	339.38
405.09	423.64
405.28	437.68
405.47	447.04
405.66	409.59
405.85	411.93
406.05	430.66
406.24	395.55
406.43	428.32
406.62	400.23
406.81	393.21
407.00	468.11
407.20	383.85
407.39	360.44
407.58	376.83
407.77	388.53
407.96	428.32
408.15	376.83
408.34	430.66
408.54	390.87
408.73	355.76
408.92	418.96
409.11	369.80
409.30	463.43
409.49	416.62
409.68	444.70
409.87	451.72
410.07	344.06
410.26	437.68
410.45	381.51
410.64	376.83
410.83	430.66
411.02	461.09
411.21	435.34
411.40	493.85
411.59	358.10
411.78	447.04
411.98	376.83
412.17	437.68
412.36	351.08
412.55	418.96
412.74	390.87
412.93	440.02
413.12	330.02
413.31	444.70
413.50	479.81
413.69	477.47
413.88	458.74
414.07	421.30
414.26	390.87
414.45	423.64
414.64	400.23
414.83	451.72
415.02	411.93
415.22	423.64
415.41	477.47
415.60	489.17
415.79	374.49
415.98	458.74
416.17	470.45
416.36	374.49
416.55	379.17
416.74	388.53
416.93	444.70
417.12	388.53
417.31	442.36
417.50	390.87
417.69	414.27
417.88	388.53
418.07	365.12
418.26	390.87
418.45	435.34
418.64	496.19
418.83	395.55
419.02	386.19
419.21	344.06
419.39	442.36
419.58	332.36
419.77	315.97
419.96	390.87
420.15	444.70
420.34	433.00
420.53	418.96
420.72	390.87
420.91	397.89
421.10	362.78
421.29	433.00
421.48	416.62
421.67	390.87
421.86	355.76
422.05	484.49
422.24	414.27
422.43	449.38
422.61	428.32
422.80	444.70
422.99	430.66
423.18	440.02
423.37	428.32
423.56	421.30
423.75	461.09
423.94	404.91
424.13	444.70
424.32	362.78
424.50	409.59
424.69	381.51
424.88	404.91
425.07	418.96
425.26	428.32
425.45	463.43
425.64	353.42
425.83	416.62
426.01	475.13
426.20	463.43
426.39	400.23
426.58	449.38
426.77	393.21
426.96	435.34
427.15	395.55
427.33	362.78
427.52	423.64
427.71	376.83
427.90	456.40
428.09	409.59
428.28	416.62
428.46	442.36
428.65	400.23
428.84	472.79
429.03	461.09
429.22	418.96
429.40	447.04
429.59	458.74
429.78	402.57
429.97	376.83
430.16	421.30
430.34	341.72
430.53	337.04
430.72	411.93
430.91	411.93
431.10	402.57
431.28	425.98
431.47	433.00
431.66	386.19
431.85	395.55
432.03	440.02
432.22	468.11
432.41	393.21
432.60	461.09
432.79	416.62
432.97	360.44
433.16	346.40
433.35	386.19
433.54	372.15
433.72	425.98
433.91	388.53
434.10	372.15
434.28	407.25
434.47	397.89
434.66	409.59
434.85	418.96
435.03	400.23
435.22	484.49
435.41	369.80
435.59	388.53
435.78	418.96
435.97	400.23
436.16	409.59
436.34	404.91
436.53	461.09
436.72	463.43
436.90	433.00
437.09	374.49
437.28	451.72
437.46	407.25
437.65	372.15
437.84	414.27
438.02	475.13
438.21	425.98
438.40	472.79
438.58	351.08
438.77	482.15
438.96	390.87
439.14	404.91
439.33	437.68
439.52	440.02
439.70	451.72
439.89	442.36
440.08	404.91
440.26	383.85
440.45	379.17
440.63	496.19
440.82	418.96
441.01	418.96
441.19	407.25
441.38	449.38
441.57	425.98
441.75	407.25
441.94	421.30
442.12	372.15
442.31	397.89
442.50	461.09
442.68	416.62
442.87	402.57
443.05	372.15
443.24	374.49
443.43	407.25
443.61	463.43
443.80	367.46
443.98	463.43
444.17	390.87
444.35	407.25
444.54	421.30
444.73	437.68
444.91	479.81
445.10	430.66
445.28	390.87
445.47	458.74
445.65	475.13
445.84	442.36
446.02	381.51
446.21	449.38
446.39	437.68
446.58	407.25
446.77	386.19
446.95	390.87
447.14	433.00
447.32	425.98
447.51	416.62
447.69	428.32
447.88	435.34
448.06	374.49
448.25	470.45
448.43	423.64
448.62	433.00
448.80	503.22
448.99	500.87
449.17	423.64
449.36	421.30
449.54	479.81
449.73	381.51
449.91	425.98
450.10	402.57
450.28	500.87
450.46	451.72
450.65	390.87
450.83	421.30
451.02	454.06
451.20	423.64
451.39	447.04
451.57	369.80
451.76	388.53
451.94	449.38
452.13	435.34
452.31	456.40
452.49	353.42
452.68	442.36
452.86	458.74
453.05	470.45
453.23	402.57
453.42	383.85
453.60	409.59
453.78	440.02
453.97	400.23
454.15	383.85
454.34	386.19
454.52	451.72
454.70	510.24
454.89	407.25
455.07	400.23
455.26	414.27
455.44	395.55
455.62	395.55
455.81	468.11
455.99	414.27
456.17	390.87
456.36	423.64
456.54	430.66
456.73	395.55
456.91	395.55
457.09	454.06
457.28	369.80
457.46	386.19
457.64	447.04
457.83	360.44
458.01	407.25
458.19	409.59
458.38	433.00
458.56	360.44
458.74	470.45
458.93	369.80
459.11	435.34
459.29	414.27
459.48	461.09
459.66	451.72
459.84	442.36
460.03	458.74
460.21	435.34
460.39	447.04
460.57	489.17
460.76	437.68
460.94	411.93
461.12	442.36
461.31	379.17
461.49	416.62
461.67	409.59
461.85	381.51
462.04	383.85
462.22	720.88
462.40	437.68
462.59	400.23
462.77	400.23
462.95	458.74
463.13	414.27
463.32	404.91
463.50	383.85
463.68	447.04
463.86	428.32
464.05	395.55
464.23	414.27
464.41	409.59
464.59	362.78
464.78	489.17
464.96	402.57
465.14	472.79
465.32	407.25
465.50	493.85
465.69	484.49
465.87	383.85
466.05	425.98
466.23	353.42
466.41	404.91
466.60	416.62
466.78	430.66
466.96	444.70
467.14	402.57
467.32	449.38
467.51	456.40
467.69	479.81
467.87	409.59
468.05	407.25
468.23	390.87
468.41	395.55
468.60	381.51
468.78	397.89
468.96	477.47
469.14	411.93
469.32	374.49
469.50	388.53
469.69	416.62
469.87	433.00
470.05	425.98
470.23	381.51
470.41	393.21
470.59	437.68
470.77	390.87
470.95	433.00
471.14	381.51
471.32	407.25
471.50	418.96
471.68	416.62
471.86	451.72
472.04	423.64
472.22	365.12
472.40	322.99
472.58	440.02
472.77	423.64
472.95	416.62
473.13	477.47
473.31	423.64
473.49	390.87
473.67	402.57
473.85	451.72
474.03	435.34
474.21	376.83
474.39	409.59
474.57	440.02
474.75	449.38
474.93	451.72
475.12	315.97
475.30	367.46
475.48	411.93
475.66	379.17
475.84	430.66
476.02	388.53
476.20	430.66
476.38	442.36
476.56	477.47
476.74	407.25
476.92	369.80
477.10	404.91
477.28	414.27
477.46	379.17
477.64	362.78
477.82	444.70
478.00	376.83
478.18	430.66
478.36	407.25
478.54	428.32
478.72	376.83
478.90	440.02
479.08	407.25
479.26	465.77
479.44	423.64
479.62	475.13
479.80	451.72
479.98	395.55
480.16	376.83
480.34	411.93
480.52	440.02
480.70	463.43
480.88	411.93
481.06	433.00
481.24	437.68
481.41	407.25
481.59	402.57
481.77	407.25
481.95	383.85
482.13	519.60
482.31	383.85
482.49	367.46
482.67	500.87
482.85	463.43
483.03	433.00
483.21	353.42
483.39	468.11
483.57	418.96
483.74	465.77
483.92	414.27
484.10	404.91
484.28	433.00
484.46	468.11
484.64	341.72
484.82	421.30
485.00	397.89
485.18	430.66
485.35	374.49
485.53	451.72
485.71	402.57
485.89	395.55
486.07	374.49
486.25	430.66
486.43	468.11
486.61	423.64
486.78	397.89
486.96	318.31
487.14	381.51
487.32	433.00
487.50	484.49
487.68	470.45
487.85	425.98
488.03	468.11
488.21	493.85
488.39	421.30
488.57	465.77
488.75	486.83
488.92	500.87
489.10	449.38
489.28	526.62
489.46	416.62
489.64	472.79
489.81	374.49
489.99	500.87
490.17	451.72
490.35	472.79
490.53	407.25
490.70	411.93
490.88	397.89
491.06	411.93
491.24	376.83
491.41	559.39
491.59	414.27
491.77	360.44
491.95	411.93
492.13	374.49
492.30	435.34
492.48	372.15
492.66	423.64
492.84	395.55
493.01	442.36
493.19	440.02
493.37	454.06
493.54	423.64
493.72	449.38
493.90	428.32
494.08	381.51
494.25	409.59
494.43	489.17
494.61	386.19
494.79	416.62
494.96	400.23
495.14	402.57
495.32	463.43
495.49	416.62
495.67	397.89
495.85	442.36
496.02	458.74
496.20	425.98
496.38	393.21
496.55	421.30
496.73	442.36
496.91	456.40
497.09	430.66
497.26	367.46
497.44	449.38
497.62	360.44
497.79	425.98
497.97	386.19
498.14	315.97
498.32	470.45
498.50	421.30
498.67	414.27
498.85	428.32
499.03	442.36
499.20	411.93
499.38	479.81
499.56	402.57
499.73	498.53
499.91	404.91
500.08	404.91
500.26	468.11
500.44	416.62
500.61	454.06
500.79	428.32
500.97	442.36
501.14	449.38
501.32	425.98
501.49	428.32
501.67	442.36
501.84	503.22
502.02	449.38
502.20	423.64
502.37	454.06
502.55	496.19
502.72	374.49
502.90	430.66
503.07	362.78
503.25	402.57
503.43	416.62
503.60	400.23
503.78	402.57
503.95	416.62
504.13	440.02
504.30	433.00
504.48	486.83
504.65	463.43
504.83	407.25
505.01	383.85
505.18	386.19
505.36	414.27
505.53	437.68
505.71	383.85
505.88	440.02
506.06	456.40
506.23	442.36
506.41	306.61
506.58	465.77
506.76	425.98
506.93	442.36
507.11	470.45
507.28	372.15
507.46	388.53
507.63	447.04
507.81	418.96
507.98	479.81
508.16	433.00
508.33	477.47
508.50	393.21
508.68	395.55
508.85	409.59
509.03	484.49
509.20	433.00
509.38	337.04
509.55	400.23
509.73	440.02
509.90	414.27
510.08	353.42
510.25	430.66
510.42	374.49
510.60	372.15
510.77	369.80
510.95	423.64
511.12	390.87
511.30	409.59
511.47	440.02
511.64	449.38
511.82	390.87
511.99	383.85
512.17	372.15
512.34	400.23
512.51	421.30
512.69	416.62
512.86	477.47
513.04	404.91
513.21	411.93
513.38	404.91
513.56	461.09
513.73	409.59
513.90	449.38
514.08	409.59
514.25	465.77
514.43	409.59
514.60	414.27
514.77	404.91
514.95	423.64
515.12	386.19
515.29	409.59
515.47	486.83
515.64	423.64
515.81	381.51
515.99	423.64
516.16	418.96
516.33	379.17
516.51	360.44
516.68	416.62
516.85	430.66
517.03	477.47
517.20	447.04
517.37	468.11
517.54	404.91
517.72	411.93
517.89	362.78
518.06	390.87
518.24	451.72
518.41	433.00
518.58	421.30
518.75	379.17
518.93	383.85
519.10	435.34
519.27	411.93
519.45	414.27
519.62	418.96
519.79	372.15
519.96	393.21
520.14	430.66
520.31	421.30
520.48	468.11
520.65	454.06
520.83	411.93
521.00	411.93
521.17	447.04
521.34	315.97
521.52	409.59
521.69	404.91
521.86	421.30
522.03	451.72
522.20	425.98
522.38	421.30
522.55	393.21
522.72	414.27
522.89	468.11
523.07	388.53
523.24	414.27
523.41	383.85
523.58	423.64
523.75	423.64
523.92	402.57
524.10	411.93
524.27	365.12
524.44	442.36
524.61	435.34
524.78	416.62
524.96	458.74
525.13	386.19
525.30	416.62
525.47	423.64
525.64	484.49
525.81	486.83
525.98	428.32
526.16	299.59
526.33	465.77
526.50	386.19
526.67	440.02
526.84	376.83
527.01	423.64
527.18	454.06
527.36	388.53
527.53	416.62
527.70	486.83
527.87	461.09
528.04	409.59
528.21	437.68
528.38	454.06
528.55	489.17
528.72	475.13
528.89	477.47
529.07	423.64
529.24	407.25
529.41	433.00
529.58	442.36
529.75	416.62
529.92	423.64
530.09	425.98
530.26	409.59
530.43	465.77
530.60	468.11
530.77	395.55
530.94	425.98
531.11	451.72
531.28	386.19
531.46	449.38
531.63	416.62
531.80	411.93
531.97	418.96
532.14	421.30
532.31	416.62
532.48	397.89
532.65	444.70
532.82	367.46
532.99	470.45
533.16	435.34
533.33	468.11
533.50	390.87
533.67	418.96
533.84	362.78
534.01	423.64
534.18	447.04
534.35	437.68
534.52	447.04
534.69	418.96
534.86	330.02
535.03	421.30
535.20	411.93
535.37	461.09
535.54	482.15
535.71	353.42
535.88	400.23
536.05	390.87
536.22	458.74
536.38	421.30
536.55	435.34
536.72	456.40
536.89	397.89
537.06	489.17
537.23	379.17
537.40	489.17
537.57	440.02
537.74	437.68
537.91	428.32
538.08	344.06
538.25	386.19
538.42	379.17
538.59	379.17
538.75	430.66
538.92	442.36
539.09	505.56
539.26	416.62
539.43	381.51
539.60	369.80
539.77	447.04
539.94	454.06
540.11	416.62
540.28	402.57
540.44	423.64
540.61	416.62
540.78	411.93
540.95	430.66
541.12	390.87
541.29	404.91
541.46	393.21
541.62	409.59
541.79	395.55
541.96	388.53
542.13	489.17
542.30	456.40
542.47	404.91
542.63	393.21
542.80	418.96
542.97	400.23
543.14	447.04
543.31	425.98
543.48	442.36
543.64	402.57
543.81	454.06
543.98	383.85
544.15	383.85
544.32	402.57
544.48	470.45
544.65	379.17
544.82	416.62
544.99	470.45
545.16	454.06
545.32	395.55
545.49	404.91
545.66	418.96
545.83	372.15
546.00	374.49
546.16	435.34
546.33	404.91
546.50	372.15
546.67	393.21
546.83	433.00
547.00	395.55
547.17	374.49
547.34	383.85
547.50	407.25
547.67	388.53
547.84	493.85
548.00	440.02
548.17	465.77
548.34	390.87
548.51	440.02
548.67	486.83
548.84	421.30
549.01	421.30
549.18	414.27
549.34	390.87
549.51	463.43
549.68	353.42
549.84	416.62
550.01	308.95
550.18	465.77
550.34	472.79
550.51	381.51
550.68	486.83
550.84	395.55
551.01	383.85
551.18	470.45
551.34	433.00
551.51	360.44
551.68	421.30
551.84	421.30
552.01	498.53
552.18	388.53
552.34	400.23
552.51	425.98
552.68	379.17
552.84	444.70
553.01	418.96
553.18	414.27
553.34	400.23
553.51	320.65
553.67	435.34
553.84	416.62
554.01	433.00
554.17	444.70
554.34	433.00
554.51	433.00
554.67	435.34
554.84	463.43
555.00	428.32
555.17	423.64
555.33	454.06
555.50	505.56
555.67	477.47
555.83	374.49
556.00	489.17
556.16	596.84
556.33	535.98
556.50	409.59
556.66	393.21
556.83	400.23
556.99	423.64
557.16	383.85
557.32	388.53
557.49	395.55
557.65	383.85
557.82	451.72
557.98	416.62
558.15	437.68
558.32	411.93
558.48	430.66
558.65	395.55
558.81	418.96
558.98	440.02
559.14	479.81
559.31	437.68
559.47	449.38
559.64	425.98
559.80	421.30
559.97	402.57
560.13	416.62
560.30	379.17
560.46	479.81
560.63	383.85
560.79	454.06
560.96	463.43
561.12	437.68
561.29	402.57
561.45	365.12
561.61	400.23
561.78	470.45
561.94	397.89
562.11	372.15
562.27	374.49
562.44	433.00
562.60	404.91
562.77	440.02
562.93	519.60
563.10	470.45
563.26	409.59
563.42	449.38
563.59	500.87
563.75	433.00
563.92	372.15
564.08	477.47
564.24	404.91
564.41	407.25
564.57	430.66
564.74	306.61
564.90	402.57
565.07	430.66
565.23	463.43
565.39	381.51
565.56	428.32
565.72	397.89
565.88	447.04
566.05	374.49
566.21	320.65
566.38	472.79
566.54	442.36
566.70	449.38
566.87	404.91
567.03	390.87
567.19	437.68
567.36	449.38
567.52	451.72
567.68	421.30
567.85	397.89
568.01	407.25
568.17	425.98
568.34	470.45
568.50	416.62
568.66	386.19
568.83	468.11
568.99	390.87
569.15	425.98
569.32	416.62
569.48	421.30
569.64	447.04
569.81	444.70
569.97	353.42
570.13	479.81
570.30	430.66
570.46	383.85
570.62	395.55
570.78	400.23
570.95	411.93
571.11	416.62
571.27	433.00
571.43	397.89
571.60	468.11
571.76	409.59
571.92	442.36
572.09	416.62
572.25	351.08
572.41	468.11
572.57	451.72
572.74	454.06
572.90	470.45
573.06	451.72
573.22	447.04
573.38	409.59
573.55	372.15
573.71	409.59
573.87	367.46
574.03	386.19
574.20	428.32
574.36	482.15
574.52	442.36
574.68	489.17
574.84	447.04
575.01	425.98
575.17	393.21
575.33	393.21
575.49	404.91
575.65	425.98
575.82	486.83
575.98	442.36
576.14	379.17
576.30	447.04
576.46	470.45
576.62	437.68
576.79	425.98
576.95	433.00
577.11	369.80
577.27	407.25
577.43	428.32
577.59	444.70
577.75	447.04
577.92	402.57
578.08	433.00
578.24	325.33
578.40	461.09
578.56	489.17
578.72	390.87
578.88	512.58
579.04	362.78
579.21	402.57
579.37	418.96
579.53	397.89
579.69	498.53
579.85	447.04
580.01	435.34
580.17	449.38
580.33	409.59
580.49	407.25
580.65	456.40
580.82	409.59
580.98	458.74
581.14	372.15
581.30	458.74
581.46	395.55
581.62	444.70
581.78	414.27
581.94	493.85
582.10	344.06
582.26	449.38
582.42	423.64
582.58	386.19
582.74	458.74
582.90	414.27
583.06	479.81
583.22	435.34
583.38	402.57
583.54	393.21
583.70	451.72
583.86	376.83
584.02	360.44
584.18	454.06
584.34	425.98
584.50	390.87
584.66	351.08
584.82	369.80
584.98	475.13
585.14	386.19
585.30	444.70
585.46	402.57
585.62	386.19
585.78	421.30
585.94	379.17
586.10	428.32
586.26	390.87
586.42	463.43
586.58	437.68
586.74	409.59
586.90	414.27
587.06	489.17
587.22	486.83
587.38	376.83
587.54	388.53
587.70	503.22
587.86	435.34
588.02	421.30
588.18	500.87
588.34	461.09
588.49	374.49
588.65	404.91
588.81	458.74
588.97	470.45
589.13	449.38
589.29	388.53
589.45	423.64
589.61	409.59
589.77	414.27
589.93	428.32
590.08	379.17
590.24	470.45
590.40	470.45
590.56	397.89
590.72	386.19
590.88	402.57
591.04	409.59
591.20	393.21
591.35	479.81
591.51	355.76
591.67	348.74
591.83	447.04
591.99	428.32
592.15	449.38
592.31	397.89
592.46	461.09
592.62	428.32
592.78	433.00
592.94	400.23
593.10	369.80
593.26	393.21
593.41	435.34
593.57	409.59
593.73	451.72
593.89	409.59
594.05	433.00
594.20	428.32
594.36	435.34
594.52	496.19
594.68	402.57
594.84	468.11
594.99	444.70
595.15	435.34
595.31	440.02
595.47	489.17
595.62	388.53
595.78	379.17
595.94	369.80
596.10	423.64
596.25	395.55
596.41	423.64
596.57	442.36
596.73	440.02
596.88	451.72
597.04	416.62
597.20	362.78
597.36	543.00
597.51	440.02
597.67	411.93
597.83	372.15
597.99	437.68
598.14	386.19
598.30	449.38
598.46	416.62
598.61	416.62
598.77	416.62
598.93	362.78
599.09	465.77
599.24	461.09
599.40	395.55
599.56	472.79
599.71	435.34
599.87	395.55
600.03	430.66
600.18	425.98
600.34	425.98
600.50	430.66
600.65	407.25
600.81	421.30
600.97	444.70
601.12	414.27
601.28	454.06
601.44	433.00
601.59	381.51
601.75	381.51
601.91	411.93
602.06	388.53
602.22	491.51
602.37	444.70
602.53	393.21
602.69	393.21
602.84	414.27
603.00	435.34
603.16	421.30
603.31	463.43
603.47	414.27
603.62	376.83
603.78	369.80
603.94	423.64
604.09	428.32
604.25	435.34
604.40	428.32
604.56	444.70
604.71	463.43
604.87	362.78
605.03	444.70
605.18	428.32
605.34	486.83
605.49	402.57
605.65	442.36
605.80	458.74
605.96	444.70
606.12	379.17
606.27	484.49
606.43	416.62
606.58	402.57
606.74	428.32
606.89	395.55
607.05	386.19
607.20	449.38
607.36	449.38
607.51	402.57
607.67	374.49
607.82	402.57
607.98	397.89
608.13	416.62
608.29	454.06
608.44	444.70
608.60	418.96
608.75	458.74
608.91	449.38
609.06	470.45
609.22	440.02
609.37	376.83
609.53	332.36
609.68	346.40
609.84	402.57
609.99	407.25
610.15	416.62
