SpectraSuite Data File
++++++++++++++++++++++++++++++++++++
Date: Fri Oct 25 12:11:10 EDT 2013
User: price-jones
Dark Spectrum Present: No
Reference Spectrum Present: No
Number of Sampled Component Spectra: 1
Spectrometers: USB2+H05261
Integration Time (usec): 100000 (USB2+H05261)
Spectra Averaged: 1 (USB2+H05261)
Boxcar Smoothing: 0 (USB2+H05261)
Correct for Electrical Dark: No (USB2+H05261)
Strobe/Lamp Enabled: No (USB2+H05261)
Correct for Detector Non-linearity: No (USB2+H05261)
Correct for Stray Light: No (USB2+H05261)
Number of Pixels in Processed Spectrum: 2048
>>>>>Begin Processed Spectral Data<<<<<
365.73	301.93
365.92	301.93
366.12	301.93
366.32	250.44
366.52	259.80
366.72	269.16
366.91	215.33
367.11	264.48
367.31	292.57
367.51	227.03
367.70	217.67
367.90	250.44
368.10	208.31
368.30	245.76
368.49	220.01
368.69	269.16
368.89	248.10
369.09	367.46
369.28	252.78
369.48	245.76
369.68	304.27
369.87	306.61
370.07	308.95
370.27	337.04
370.47	322.99
370.66	327.68
370.86	390.87
371.06	376.83
371.25	367.46
371.45	372.15
371.65	365.12
371.84	430.66
372.04	388.53
372.24	379.17
372.44	383.85
372.63	409.59
372.83	444.70
373.03	423.64
373.22	435.34
373.42	395.55
373.62	353.42
373.81	411.93
374.01	491.51
374.21	479.81
374.40	376.83
374.60	390.87
374.79	411.93
374.99	388.53
375.19	479.81
375.38	454.06
375.58	416.62
375.78	383.85
375.97	456.40
376.17	479.81
376.37	388.53
376.56	386.19
376.76	372.15
376.95	402.57
377.15	383.85
377.35	433.00
377.54	411.93
377.74	386.19
377.93	409.59
378.13	496.19
378.33	409.59
378.52	440.02
378.72	421.30
378.91	458.74
379.11	379.17
379.31	418.96
379.50	327.68
379.70	416.62
379.89	442.36
380.09	395.55
380.28	435.34
380.48	395.55
380.68	348.74
380.87	386.19
381.07	372.15
381.26	388.53
381.46	465.77
381.65	465.77
381.85	430.66
382.04	379.17
382.24	341.72
382.43	374.49
382.63	374.49
382.83	369.80
383.02	376.83
383.22	423.64
383.41	397.89
383.61	404.91
383.80	407.25
384.00	381.51
384.19	318.31
384.39	376.83
384.58	388.53
384.78	407.25
384.97	388.53
385.17	393.21
385.36	379.17
385.56	421.30
385.75	400.23
385.95	332.36
386.14	493.85
386.34	397.89
386.53	428.32
386.72	430.66
386.92	395.55
387.11	376.83
387.31	454.06
387.50	376.83
387.70	402.57
387.89	400.23
388.09	423.64
388.28	402.57
388.48	299.59
388.67	430.66
388.86	423.64
389.06	498.53
389.25	421.30
389.45	470.45
389.64	435.34
389.84	379.17
390.03	421.30
390.22	472.79
390.42	409.59
390.61	409.59
390.81	428.32
391.00	402.57
391.19	470.45
391.39	428.32
391.58	425.98
391.78	435.34
391.97	390.87
392.16	447.04
392.36	416.62
392.55	362.78
392.75	479.81
392.94	414.27
393.13	428.32
393.33	339.38
393.52	409.59
393.71	400.23
393.91	374.49
394.10	330.02
394.29	397.89
394.49	379.17
394.68	376.83
394.88	404.91
395.07	393.21
395.26	330.02
395.46	404.91
395.65	332.36
395.84	400.23
396.04	374.49
396.23	435.34
396.42	372.15
396.62	386.19
396.81	376.83
397.00	390.87
397.19	395.55
397.39	334.70
397.58	456.40
397.77	409.59
397.97	407.25
398.16	411.93
398.35	400.23
398.55	360.44
398.74	362.78
398.93	404.91
399.12	463.43
399.32	397.89
399.51	374.49
399.70	514.92
399.90	407.25
400.09	381.51
400.28	447.04
400.47	435.34
400.67	498.53
400.86	402.57
401.05	358.10
401.24	442.36
401.44	449.38
401.63	433.00
401.82	421.30
402.01	440.02
402.21	463.43
402.40	383.85
402.59	435.34
402.78	327.68
402.97	315.97
403.17	440.02
403.36	430.66
403.55	407.25
403.74	418.96
403.93	491.51
404.13	402.57
404.32	404.91
404.51	465.77
404.70	407.25
404.89	306.61
405.09	423.64
405.28	320.65
405.47	379.17
405.66	369.80
405.85	477.47
406.05	322.99
406.24	362.78
406.43	402.57
406.62	465.77
406.81	409.59
407.00	418.96
407.20	358.10
407.39	418.96
407.58	402.57
407.77	521.94
407.96	416.62
408.15	451.72
408.34	458.74
408.54	447.04
408.73	414.27
408.92	369.80
409.11	486.83
409.30	367.46
409.49	440.02
409.68	437.68
409.87	383.85
410.07	393.21
410.26	463.43
410.45	442.36
410.64	388.53
410.83	433.00
411.02	407.25
411.21	400.23
411.40	458.74
411.59	365.12
411.78	353.42
411.98	397.89
412.17	477.47
412.36	381.51
412.55	423.64
412.74	468.11
412.93	472.79
413.12	447.04
413.31	463.43
413.50	402.57
413.69	451.72
413.88	454.06
414.07	454.06
414.26	362.78
414.45	400.23
414.64	322.99
414.83	381.51
415.02	393.21
415.22	472.79
415.41	465.77
415.60	381.51
415.79	433.00
415.98	400.23
416.17	362.78
416.36	437.68
416.55	390.87
416.74	393.21
416.93	409.59
417.12	442.36
417.31	442.36
417.50	388.53
417.69	397.89
417.88	418.96
418.07	409.59
418.26	400.23
418.45	388.53
418.64	470.45
418.83	381.51
419.02	437.68
419.21	388.53
419.39	374.49
419.58	444.70
419.77	362.78
419.96	386.19
420.15	482.15
420.34	428.32
420.53	407.25
420.72	461.09
420.91	400.23
421.10	425.98
421.29	447.04
421.48	451.72
421.67	484.49
421.86	421.30
422.05	430.66
422.24	369.80
422.43	440.02
422.61	395.55
422.80	369.80
422.99	435.34
423.18	463.43
423.37	379.17
423.56	435.34
423.75	447.04
423.94	463.43
424.13	477.47
424.32	440.02
424.50	428.32
424.69	421.30
424.88	414.27
425.07	440.02
425.26	397.89
425.45	435.34
425.64	362.78
425.83	442.36
426.01	409.59
426.20	379.17
426.39	383.85
426.58	442.36
426.77	447.04
426.96	425.98
427.15	339.38
427.33	437.68
427.52	479.81
427.71	402.57
427.90	393.21
428.09	418.96
428.28	418.96
428.46	449.38
428.65	409.59
428.84	351.08
429.03	409.59
429.22	416.62
429.40	451.72
429.59	461.09
429.78	402.57
429.97	484.49
430.16	390.87
430.34	334.70
430.53	404.91
430.72	402.57
430.91	369.80
431.10	402.57
431.28	381.51
431.47	376.83
431.66	435.34
431.85	444.70
432.03	507.90
432.22	479.81
432.41	423.64
432.60	447.04
432.79	447.04
432.97	442.36
433.16	411.93
433.35	433.00
433.54	348.74
433.72	397.89
433.91	447.04
434.10	388.53
434.28	351.08
434.47	367.46
434.66	411.93
434.85	409.59
435.03	407.25
435.22	461.09
435.41	461.09
435.59	444.70
435.78	479.81
435.97	388.53
436.16	456.40
436.34	456.40
436.53	433.00
436.72	362.78
436.90	475.13
437.09	404.91
437.28	423.64
437.46	411.93
437.65	465.77
437.84	346.40
438.02	423.64
438.21	456.40
438.40	372.15
438.58	381.51
438.77	425.98
438.96	369.80
439.14	470.45
439.33	353.42
439.52	369.80
439.70	386.19
439.89	435.34
440.08	381.51
440.26	442.36
440.45	339.38
440.63	393.21
440.82	425.98
441.01	414.27
441.19	376.83
441.38	461.09
441.57	376.83
441.75	372.15
441.94	407.25
442.12	386.19
442.31	388.53
442.50	393.21
442.68	346.40
442.87	358.10
443.05	374.49
443.24	425.98
443.43	449.38
443.61	456.40
443.80	402.57
443.98	433.00
444.17	390.87
444.35	421.30
444.54	402.57
444.73	390.87
444.91	447.04
445.10	365.12
445.28	379.17
445.47	463.43
445.65	397.89
445.84	346.40
446.02	379.17
446.21	421.30
446.39	421.30
446.58	442.36
446.77	458.74
446.95	416.62
447.14	386.19
447.32	435.34
447.51	423.64
447.69	411.93
447.88	435.34
448.06	433.00
448.25	416.62
448.43	440.02
448.62	470.45
448.80	414.27
448.99	456.40
449.17	346.40
449.36	388.53
449.54	397.89
449.73	414.27
449.91	379.17
450.10	376.83
450.28	437.68
450.46	425.98
450.65	430.66
450.83	423.64
451.02	367.46
451.20	397.89
451.39	418.96
451.57	355.76
451.76	379.17
451.94	407.25
452.13	425.98
452.31	409.59
452.49	383.85
452.68	334.70
452.86	444.70
453.05	477.47
453.23	479.81
453.42	423.64
453.60	395.55
453.78	372.15
453.97	409.59
454.15	348.74
454.34	369.80
454.52	440.02
454.70	496.19
454.89	421.30
455.07	383.85
455.26	433.00
455.44	383.85
455.62	388.53
455.81	409.59
455.99	358.10
456.17	365.12
456.36	447.04
456.54	404.91
456.73	372.15
456.91	458.74
457.09	528.96
457.28	393.21
457.46	411.93
457.64	444.70
457.83	402.57
458.01	416.62
458.19	315.97
458.38	395.55
458.56	463.43
458.74	409.59
458.93	400.23
459.11	376.83
459.29	468.11
459.48	402.57
459.66	486.83
459.84	395.55
460.03	507.90
460.21	479.81
460.39	444.70
460.57	402.57
460.76	411.93
460.94	454.06
461.12	482.15
461.31	442.36
461.49	367.46
461.67	402.57
461.85	430.66
462.04	437.68
462.22	681.10
462.40	437.68
462.59	379.17
462.77	358.10
462.95	407.25
463.13	355.76
463.32	442.36
463.50	369.80
463.68	351.08
463.86	393.21
464.05	360.44
464.23	353.42
464.41	402.57
464.59	404.91
464.78	486.83
464.96	374.49
465.14	442.36
465.32	367.46
465.50	437.68
465.69	421.30
465.87	365.12
466.05	428.32
466.23	404.91
466.41	458.74
466.60	402.57
466.78	482.15
466.96	421.30
467.14	379.17
467.32	358.10
467.51	442.36
467.69	475.13
467.87	397.89
468.05	416.62
468.23	461.09
468.41	491.51
468.60	444.70
468.78	402.57
468.96	404.91
469.14	437.68
469.32	351.08
469.50	400.23
469.69	388.53
469.87	369.80
470.05	435.34
470.23	390.87
470.41	407.25
470.59	407.25
470.77	362.78
470.95	374.49
471.14	521.94
471.32	360.44
471.50	479.81
471.68	475.13
471.86	393.21
472.04	451.72
472.22	418.96
472.40	367.46
472.58	379.17
472.77	339.38
472.95	428.32
473.13	386.19
473.31	435.34
473.49	379.17
473.67	388.53
473.85	468.11
474.03	454.06
474.21	411.93
474.39	397.89
474.57	423.64
474.75	425.98
474.93	369.80
475.12	484.49
475.30	353.42
475.48	411.93
475.66	444.70
475.84	475.13
476.02	407.25
476.20	397.89
476.38	447.04
476.56	411.93
476.74	435.34
476.92	404.91
477.10	376.83
477.28	444.70
477.46	428.32
477.64	449.38
477.82	437.68
478.00	428.32
478.18	290.23
478.36	428.32
478.54	381.51
478.72	388.53
478.90	440.02
479.08	409.59
479.26	407.25
479.44	388.53
479.62	451.72
479.80	416.62
479.98	435.34
480.16	348.74
480.34	393.21
480.52	430.66
480.70	386.19
480.88	386.19
481.06	505.56
481.24	482.15
481.41	409.59
481.59	447.04
481.77	491.51
481.95	353.42
482.13	489.17
482.31	454.06
482.49	388.53
482.67	416.62
482.85	414.27
483.03	435.34
483.21	437.68
483.39	362.78
483.57	425.98
483.74	440.02
483.92	390.87
484.10	386.19
484.28	454.06
484.46	484.49
484.64	395.55
484.82	442.36
485.00	430.66
485.18	430.66
485.35	397.89
485.53	428.32
485.71	397.89
485.89	411.93
486.07	395.55
486.25	510.24
486.43	358.10
486.61	433.00
486.78	355.76
486.96	442.36
487.14	435.34
487.32	362.78
487.50	411.93
487.68	393.21
487.85	402.57
488.03	372.15
488.21	367.46
488.39	498.53
488.57	374.49
488.75	393.21
488.92	531.30
489.10	458.74
489.28	465.77
489.46	402.57
489.64	358.10
489.81	428.32
489.99	440.02
490.17	402.57
490.35	433.00
490.53	418.96
490.70	383.85
490.88	365.12
491.06	379.17
491.24	393.21
491.41	374.49
491.59	437.68
491.77	390.87
491.95	404.91
492.13	435.34
492.30	355.76
492.48	367.46
492.66	425.98
492.84	376.83
493.01	374.49
493.19	437.68
493.37	465.77
493.54	463.43
493.72	425.98
493.90	416.62
494.08	351.08
494.25	423.64
494.43	433.00
494.61	404.91
494.79	376.83
494.96	433.00
495.14	491.51
495.32	313.63
495.49	362.78
495.67	451.72
495.85	458.74
496.02	423.64
496.20	337.04
496.38	411.93
496.55	414.27
496.73	388.53
496.91	461.09
497.09	372.15
497.26	383.85
497.44	416.62
497.62	425.98
497.79	447.04
497.97	463.43
498.14	449.38
498.32	339.38
498.50	477.47
498.67	423.64
498.85	381.51
499.03	379.17
499.20	479.81
499.38	418.96
499.56	454.06
499.73	411.93
499.91	421.30
500.08	386.19
500.26	454.06
500.44	348.74
500.61	421.30
500.79	409.59
500.97	503.22
501.14	451.72
501.32	393.21
501.49	442.36
501.67	421.30
501.84	437.68
502.02	435.34
502.20	475.13
502.37	395.55
502.55	433.00
502.72	400.23
502.90	400.23
503.07	430.66
503.25	374.49
503.43	383.85
503.60	484.49
503.78	423.64
503.95	367.46
504.13	454.06
504.30	416.62
504.48	461.09
504.65	444.70
504.83	472.79
505.01	388.53
505.18	447.04
505.36	397.89
505.53	409.59
505.71	390.87
505.88	376.83
506.06	334.70
506.23	365.12
506.41	386.19
506.58	416.62
506.76	383.85
506.93	390.87
507.11	430.66
507.28	397.89
507.46	451.72
507.63	409.59
507.81	353.42
507.98	339.38
508.16	435.34
508.33	456.40
508.50	440.02
508.68	437.68
508.85	451.72
509.03	372.15
509.20	428.32
509.38	482.15
509.55	470.45
509.73	449.38
509.90	437.68
510.08	414.27
510.25	489.17
510.42	346.40
510.60	437.68
510.77	388.53
510.95	425.98
511.12	421.30
511.30	458.74
511.47	463.43
511.64	451.72
511.82	458.74
511.99	381.51
512.17	465.77
512.34	442.36
512.51	440.02
512.69	390.87
512.86	437.68
513.04	442.36
513.21	421.30
513.38	528.96
513.56	322.99
513.73	454.06
513.90	351.08
514.08	442.36
514.25	404.91
514.43	444.70
514.60	390.87
514.77	407.25
514.95	416.62
515.12	379.17
515.29	390.87
515.47	411.93
515.64	437.68
515.81	372.15
515.99	456.40
516.16	442.36
516.33	360.44
516.51	456.40
516.68	456.40
516.85	430.66
517.03	416.62
517.20	416.62
517.37	362.78
517.54	388.53
517.72	493.85
517.89	397.89
518.06	351.08
518.24	458.74
518.41	365.12
518.58	322.99
518.75	367.46
518.93	390.87
519.10	386.19
519.27	360.44
519.45	381.51
519.62	402.57
519.79	407.25
519.96	404.91
520.14	425.98
520.31	521.94
520.48	421.30
520.65	505.56
520.83	360.44
521.00	409.59
521.17	421.30
521.34	400.23
521.52	388.53
521.69	372.15
521.86	440.02
522.03	435.34
522.20	351.08
522.38	435.34
522.55	411.93
522.72	397.89
522.89	388.53
523.07	514.92
523.24	421.30
523.41	425.98
523.58	428.32
523.75	404.91
523.92	379.17
524.10	381.51
524.27	435.34
524.44	404.91
524.61	463.43
524.78	433.00
524.96	421.30
525.13	409.59
525.30	400.23
525.47	437.68
525.64	365.12
525.81	505.56
525.98	435.34
526.16	360.44
526.33	358.10
526.50	456.40
526.67	472.79
526.84	374.49
527.01	409.59
527.18	404.91
527.36	353.42
527.53	397.89
527.70	454.06
527.87	496.19
528.04	402.57
528.21	362.78
528.38	430.66
528.55	428.32
528.72	451.72
528.89	407.25
529.07	418.96
529.24	484.49
529.41	477.47
529.58	423.64
529.75	390.87
529.92	479.81
530.09	433.00
530.26	358.10
530.43	402.57
530.60	376.83
530.77	416.62
530.94	486.83
531.11	425.98
531.28	416.62
531.46	402.57
531.63	400.23
531.80	390.87
531.97	479.81
532.14	428.32
532.31	449.38
532.48	510.24
532.65	425.98
532.82	416.62
532.99	423.64
533.16	430.66
533.33	414.27
533.50	393.21
533.67	428.32
533.84	444.70
534.01	454.06
534.18	472.79
534.35	360.44
534.52	360.44
534.69	470.45
534.86	388.53
535.03	379.17
535.20	425.98
535.37	465.77
535.54	397.89
535.71	358.10
535.88	440.02
536.05	400.23
536.22	435.34
536.38	416.62
536.55	430.66
536.72	486.83
536.89	353.42
537.06	409.59
537.23	418.96
537.40	451.72
537.57	334.70
537.74	465.77
537.91	425.98
538.08	503.22
538.25	521.94
538.42	416.62
538.59	411.93
538.75	313.63
538.92	416.62
539.09	465.77
539.26	468.11
539.43	463.43
539.60	327.68
539.77	376.83
539.94	414.27
540.11	409.59
540.28	444.70
540.44	484.49
540.61	409.59
540.78	425.98
540.95	454.06
541.12	421.30
541.29	390.87
541.46	428.32
541.62	369.80
541.79	393.21
541.96	372.15
542.13	414.27
542.30	353.42
542.47	386.19
542.63	414.27
542.80	414.27
542.97	351.08
543.14	433.00
543.31	325.33
543.48	428.32
543.64	409.59
543.81	435.34
543.98	416.62
544.15	442.36
544.32	388.53
544.48	416.62
544.65	395.55
544.82	402.57
544.99	404.91
545.16	395.55
545.32	430.66
545.49	390.87
545.66	456.40
545.83	435.34
546.00	383.85
546.16	395.55
546.33	397.89
546.50	425.98
546.67	358.10
546.83	437.68
547.00	435.34
547.17	411.93
547.34	421.30
547.50	409.59
547.67	425.98
547.84	430.66
548.00	358.10
548.17	402.57
548.34	402.57
548.51	461.09
548.67	507.90
548.84	379.17
549.01	479.81
549.18	461.09
549.34	465.77
549.51	418.96
549.68	360.44
549.84	409.59
550.01	449.38
550.18	505.56
550.34	407.25
550.51	395.55
550.68	447.04
550.84	393.21
551.01	409.59
551.18	454.06
551.34	433.00
551.51	428.32
551.68	510.24
551.84	437.68
552.01	376.83
552.18	454.06
552.34	383.85
552.51	423.64
552.68	433.00
552.84	414.27
553.01	351.08
553.18	407.25
553.34	386.19
553.51	411.93
553.67	388.53
553.84	472.79
554.01	435.34
554.17	456.40
554.34	503.22
554.51	372.15
554.67	414.27
554.84	358.10
555.00	472.79
555.17	468.11
555.33	416.62
555.50	435.34
555.67	440.02
555.83	386.19
556.00	456.40
556.16	526.62
556.33	379.17
556.50	411.93
556.66	376.83
556.83	379.17
556.99	428.32
557.16	402.57
557.32	395.55
557.49	374.49
557.65	376.83
557.82	348.74
557.98	475.13
558.15	358.10
558.32	418.96
558.48	442.36
558.65	428.32
558.81	472.79
558.98	421.30
559.14	423.64
559.31	409.59
559.47	447.04
559.64	423.64
559.80	353.42
559.97	411.93
560.13	444.70
560.30	442.36
560.46	388.53
560.63	458.74
560.79	411.93
560.96	451.72
561.12	381.51
561.29	491.51
561.45	386.19
561.61	390.87
561.78	423.64
561.94	397.89
562.11	428.32
562.27	454.06
562.44	428.32
562.60	461.09
562.77	468.11
562.93	409.59
563.10	437.68
563.26	386.19
563.42	440.02
563.59	383.85
563.75	390.87
563.92	390.87
564.08	428.32
564.24	507.90
564.41	449.38
564.57	440.02
564.74	358.10
564.90	407.25
565.07	454.06
565.23	454.06
565.39	440.02
565.56	458.74
565.72	423.64
565.88	337.04
566.05	404.91
566.21	440.02
566.38	512.58
566.54	416.62
566.70	404.91
566.87	341.72
567.03	404.91
567.19	430.66
567.36	390.87
567.52	418.96
567.68	451.72
567.85	308.95
568.01	437.68
568.17	425.98
568.34	475.13
568.50	433.00
568.66	463.43
568.83	447.04
568.99	449.38
569.15	479.81
569.32	433.00
569.48	500.87
569.64	362.78
569.81	315.97
569.97	374.49
570.13	451.72
570.30	390.87
570.46	332.36
570.62	447.04
570.78	428.32
570.95	421.30
571.11	425.98
571.27	411.93
571.43	454.06
571.60	425.98
571.76	472.79
571.92	505.56
572.09	440.02
572.25	351.08
572.41	372.15
572.57	447.04
572.74	456.40
572.90	437.68
573.06	409.59
573.22	425.98
573.38	451.72
573.55	404.91
573.71	397.89
573.87	416.62
574.03	402.57
574.20	402.57
574.36	465.77
574.52	449.38
574.68	425.98
574.84	407.25
575.01	386.19
575.17	433.00
575.33	423.64
575.49	395.55
575.65	449.38
575.82	477.47
575.98	402.57
576.14	468.11
576.30	379.17
576.46	390.87
576.62	414.27
576.79	433.00
576.95	465.77
577.11	421.30
577.27	477.47
577.43	454.06
577.59	440.02
577.75	418.96
577.92	407.25
578.08	397.89
578.24	486.83
578.40	334.70
578.56	383.85
578.72	407.25
578.88	383.85
579.04	449.38
579.21	470.45
579.37	411.93
579.53	346.40
579.69	393.21
579.85	461.09
580.01	458.74
580.17	421.30
580.33	421.30
580.49	407.25
580.65	379.17
580.82	437.68
580.98	465.77
581.14	465.77
581.30	442.36
581.46	428.32
581.62	503.22
581.78	411.93
581.94	444.70
582.10	355.76
582.26	423.64
582.42	437.68
582.58	437.68
582.74	400.23
582.90	400.23
583.06	409.59
583.22	400.23
583.38	442.36
583.54	400.23
583.70	423.64
583.86	386.19
584.02	437.68
584.18	482.15
584.34	444.70
584.50	425.98
584.66	388.53
584.82	327.68
584.98	393.21
585.14	383.85
585.30	421.30
585.46	339.38
585.62	442.36
585.78	423.64
585.94	484.49
586.10	470.45
586.26	421.30
586.42	437.68
586.58	423.64
586.74	461.09
586.90	428.32
587.06	369.80
587.22	388.53
587.38	393.21
587.54	414.27
587.70	383.85
587.86	456.40
588.02	388.53
588.18	365.12
588.34	472.79
588.49	383.85
588.65	381.51
588.81	390.87
588.97	409.59
589.13	416.62
589.29	449.38
589.45	435.34
589.61	379.17
589.77	428.32
589.93	472.79
590.08	430.66
590.24	381.51
590.40	407.25
590.56	362.78
590.72	404.91
590.88	404.91
591.04	409.59
591.20	313.63
591.35	507.90
591.51	461.09
591.67	388.53
591.83	397.89
591.99	454.06
592.15	369.80
592.31	435.34
592.46	465.77
592.62	437.68
592.78	402.57
592.94	330.02
593.10	433.00
593.26	437.68
593.41	374.49
593.57	425.98
593.73	400.23
593.89	402.57
594.05	435.34
594.20	369.80
594.36	383.85
594.52	400.23
594.68	447.04
594.84	388.53
594.99	465.77
595.15	376.83
595.31	428.32
595.47	433.00
595.62	404.91
595.78	379.17
595.94	433.00
596.10	423.64
596.25	449.38
596.41	433.00
596.57	400.23
596.73	407.25
596.88	407.25
597.04	456.40
597.20	477.47
597.36	435.34
597.51	393.21
597.67	330.02
597.83	381.51
597.99	510.24
598.14	465.77
598.30	477.47
598.46	423.64
598.61	500.87
598.77	440.02
598.93	449.38
599.09	409.59
599.24	463.43
599.40	500.87
599.56	367.46
599.71	430.66
599.87	353.42
600.03	435.34
600.18	456.40
600.34	393.21
600.50	416.62
600.65	341.72
600.81	468.11
600.97	330.02
601.12	435.34
601.28	435.34
601.44	351.08
601.59	440.02
601.75	383.85
601.91	451.72
602.06	386.19
602.22	442.36
602.37	444.70
602.53	318.31
602.69	395.55
602.84	423.64
603.00	461.09
603.16	425.98
603.31	430.66
603.47	414.27
603.62	409.59
603.78	421.30
603.94	461.09
604.09	440.02
604.25	430.66
604.40	472.79
604.56	437.68
604.71	372.15
604.87	341.72
605.03	393.21
605.18	402.57
605.34	456.40
605.49	442.36
605.65	409.59
605.80	491.51
605.96	390.87
606.12	444.70
606.27	451.72
606.43	430.66
606.58	430.66
606.74	416.62
606.89	374.49
607.05	498.53
607.20	407.25
607.36	425.98
607.51	386.19
607.67	416.62
607.82	400.23
607.98	421.30
608.13	454.06
608.29	425.98
608.44	461.09
608.60	430.66
608.75	411.93
608.91	512.58
609.06	421.30
609.22	451.72
609.37	461.09
609.53	463.43
609.68	465.77
609.84	423.64
609.99	416.62
610.15	381.51
