SpectraSuite Data File
++++++++++++++++++++++++++++++++++++
Date: Fri Oct 25 12:10:54 EDT 2013
User: price-jones
Dark Spectrum Present: No
Reference Spectrum Present: No
Number of Sampled Component Spectra: 1
Spectrometers: USB2+H05261
Integration Time (usec): 100000 (USB2+H05261)
Spectra Averaged: 1 (USB2+H05261)
Boxcar Smoothing: 0 (USB2+H05261)
Correct for Electrical Dark: No (USB2+H05261)
Strobe/Lamp Enabled: No (USB2+H05261)
Correct for Detector Non-linearity: No (USB2+H05261)
Correct for Stray Light: No (USB2+H05261)
Number of Pixels in Processed Spectrum: 2048
>>>>>Begin Processed Spectral Data<<<<<
365.73	315.97
365.92	315.97
366.12	315.97
366.32	287.89
366.52	243.42
366.72	327.68
366.91	217.67
367.11	266.82
367.31	227.03
367.51	245.76
367.70	212.99
367.90	234.05
368.10	243.42
368.30	285.55
368.49	299.59
368.69	278.52
368.89	320.65
369.09	259.80
369.28	306.61
369.48	365.12
369.68	315.97
369.87	337.04
370.07	255.12
370.27	353.42
370.47	379.17
370.66	360.44
370.86	285.55
371.06	397.89
371.25	409.59
371.45	381.51
371.65	376.83
371.84	381.51
372.04	390.87
372.24	395.55
372.44	397.89
372.63	400.23
372.83	440.02
373.03	463.43
373.22	344.06
373.42	458.74
373.62	402.57
373.81	418.96
374.01	416.62
374.21	510.24
374.40	423.64
374.60	440.02
374.79	400.23
374.99	404.91
375.19	484.49
375.38	383.85
375.58	430.66
375.78	479.81
375.97	395.55
376.17	435.34
376.37	423.64
376.56	416.62
376.76	400.23
376.95	330.02
377.15	440.02
377.35	402.57
377.54	397.89
377.74	337.04
377.93	416.62
378.13	395.55
378.33	428.32
378.52	386.19
378.72	430.66
378.91	468.11
379.11	482.15
379.31	344.06
379.50	346.40
379.70	468.11
379.89	430.66
380.09	447.04
380.28	362.78
380.48	458.74
380.68	358.10
380.87	386.19
381.07	388.53
381.26	402.57
381.46	400.23
381.65	435.34
381.85	381.51
382.04	402.57
382.24	414.27
382.43	402.57
382.63	433.00
382.83	433.00
383.02	421.30
383.22	468.11
383.41	444.70
383.61	362.78
383.80	411.93
384.00	444.70
384.19	376.83
384.39	430.66
384.58	425.98
384.78	379.17
384.97	351.08
385.17	400.23
385.36	451.72
385.56	440.02
385.75	353.42
385.95	421.30
386.14	409.59
386.34	484.49
386.53	393.21
386.72	475.13
386.92	425.98
387.11	430.66
387.31	390.87
387.50	409.59
387.70	381.51
387.89	369.80
388.09	390.87
388.28	360.44
388.48	386.19
388.67	404.91
388.86	465.77
389.06	409.59
389.25	489.17
389.45	416.62
389.64	395.55
389.84	383.85
390.03	409.59
390.22	416.62
390.42	365.12
390.61	372.15
390.81	447.04
391.00	425.98
391.19	496.19
391.39	367.46
391.58	440.02
391.78	332.36
391.97	435.34
392.16	461.09
392.36	449.38
392.55	475.13
392.75	379.17
392.94	379.17
393.13	395.55
393.33	365.12
393.52	346.40
393.71	440.02
393.91	374.49
394.10	372.15
394.29	404.91
394.49	407.25
394.68	374.49
394.88	397.89
395.07	348.74
395.26	390.87
395.46	416.62
395.65	454.06
395.84	353.42
396.04	470.45
396.23	477.47
396.42	418.96
396.62	437.68
396.81	404.91
397.00	393.21
397.19	400.23
397.39	397.89
397.58	381.51
397.77	369.80
397.97	435.34
398.16	376.83
398.35	386.19
398.55	344.06
398.74	433.00
398.93	416.62
399.12	500.87
399.32	360.44
399.51	355.76
399.70	404.91
399.90	404.91
400.09	369.80
400.28	416.62
400.47	407.25
400.67	390.87
400.86	360.44
401.05	454.06
401.24	437.68
401.44	458.74
401.63	447.04
401.82	365.12
402.01	374.49
402.21	411.93
402.40	437.68
402.59	428.32
402.78	444.70
402.97	458.74
403.17	430.66
403.36	425.98
403.55	360.44
403.74	437.68
403.93	444.70
404.13	402.57
404.32	423.64
404.51	395.55
404.70	440.02
404.89	416.62
405.09	503.22
405.28	379.17
405.47	372.15
405.66	425.98
405.85	463.43
406.05	425.98
406.24	397.89
406.43	381.51
406.62	397.89
406.81	388.53
407.00	428.32
407.20	397.89
407.39	381.51
407.58	407.25
407.77	416.62
407.96	400.23
408.15	402.57
408.34	395.55
408.54	362.78
408.73	386.19
408.92	341.72
409.11	416.62
409.30	430.66
409.49	325.33
409.68	360.44
409.87	451.72
410.07	341.72
410.26	411.93
410.45	463.43
410.64	346.40
410.83	425.98
411.02	383.85
411.21	400.23
411.40	440.02
411.59	437.68
411.78	477.47
411.98	407.25
412.17	390.87
412.36	442.36
412.55	418.96
412.74	437.68
412.93	416.62
413.12	447.04
413.31	447.04
413.50	411.93
413.69	411.93
413.88	423.64
414.07	423.64
414.26	386.19
414.45	416.62
414.64	353.42
414.83	402.57
415.02	341.72
415.22	430.66
415.41	379.17
415.60	355.76
415.79	416.62
415.98	402.57
416.17	344.06
416.36	390.87
416.55	423.64
416.74	411.93
416.93	472.79
417.12	395.55
417.31	416.62
417.50	428.32
417.69	393.21
417.88	367.46
418.07	440.02
418.26	421.30
418.45	421.30
418.64	451.72
418.83	374.49
419.02	454.06
419.21	437.68
419.39	351.08
419.58	348.74
419.77	388.53
419.96	346.40
420.15	461.09
420.34	416.62
420.53	463.43
420.72	440.02
420.91	367.46
421.10	374.49
421.29	463.43
421.48	423.64
421.67	449.38
421.86	393.21
422.05	409.59
422.24	428.32
422.43	425.98
422.61	418.96
422.80	383.85
422.99	458.74
423.18	358.10
423.37	414.27
423.56	423.64
423.75	421.30
423.94	423.64
424.13	351.08
424.32	416.62
424.50	404.91
424.69	425.98
424.88	433.00
425.07	390.87
425.26	489.17
425.45	454.06
425.64	421.30
425.83	402.57
426.01	472.79
426.20	383.85
426.39	404.91
426.58	421.30
426.77	477.47
426.96	444.70
427.15	468.11
427.33	388.53
427.52	355.76
427.71	404.91
427.90	416.62
428.09	397.89
428.28	433.00
428.46	435.34
428.65	463.43
428.84	355.76
429.03	407.25
429.22	437.68
429.40	353.42
429.59	397.89
429.78	397.89
429.97	409.59
430.16	444.70
430.34	383.85
430.53	400.23
430.72	447.04
430.91	397.89
431.10	430.66
431.28	379.17
431.47	493.85
431.66	444.70
431.85	421.30
432.03	376.83
432.22	397.89
432.41	435.34
432.60	440.02
432.79	409.59
432.97	386.19
433.16	458.74
433.35	353.42
433.54	379.17
433.72	400.23
433.91	393.21
434.10	454.06
434.28	465.77
434.47	395.55
434.66	409.59
434.85	423.64
435.03	507.90
435.22	444.70
435.41	423.64
435.59	421.30
435.78	454.06
435.97	411.93
436.16	430.66
436.34	381.51
436.53	416.62
436.72	442.36
436.90	428.32
437.09	451.72
437.28	456.40
437.46	456.40
437.65	386.19
437.84	458.74
438.02	447.04
438.21	444.70
438.40	423.64
438.58	435.34
438.77	365.12
438.96	404.91
439.14	411.93
439.33	388.53
439.52	393.21
439.70	449.38
439.89	425.98
440.08	454.06
440.26	437.68
440.45	437.68
440.63	409.59
440.82	449.38
441.01	409.59
441.19	437.68
441.38	388.53
441.57	421.30
441.75	404.91
441.94	442.36
442.12	381.51
442.31	411.93
442.50	418.96
442.68	430.66
442.87	367.46
443.05	489.17
443.24	428.32
443.43	433.00
443.61	463.43
443.80	442.36
443.98	451.72
444.17	423.64
444.35	409.59
444.54	442.36
444.73	435.34
444.91	447.04
445.10	367.46
445.28	458.74
445.47	376.83
445.65	472.79
445.84	407.25
446.02	463.43
446.21	397.89
446.39	461.09
446.58	472.79
446.77	390.87
446.95	423.64
447.14	484.49
447.32	402.57
447.51	376.83
447.69	475.13
447.88	430.66
448.06	449.38
448.25	493.85
448.43	435.34
448.62	418.96
448.80	430.66
448.99	400.23
449.17	383.85
449.36	372.15
449.54	416.62
449.73	418.96
449.91	397.89
450.10	428.32
450.28	437.68
450.46	454.06
450.65	372.15
450.83	472.79
451.02	376.83
451.20	425.98
451.39	369.80
451.57	367.46
451.76	409.59
451.94	379.17
452.13	484.49
452.31	528.96
452.49	421.30
452.68	386.19
452.86	402.57
453.05	425.98
453.23	447.04
453.42	372.15
453.60	425.98
453.78	407.25
453.97	348.74
454.15	472.79
454.34	423.64
454.52	379.17
454.70	414.27
454.89	454.06
455.07	379.17
455.26	437.68
455.44	472.79
455.62	428.32
455.81	440.02
455.99	451.72
456.17	416.62
456.36	425.98
456.54	379.17
456.73	440.02
456.91	411.93
457.09	386.19
457.28	395.55
457.46	430.66
457.64	390.87
457.83	379.17
458.01	433.00
458.19	447.04
458.38	428.32
458.56	482.15
458.74	442.36
458.93	442.36
459.11	390.87
459.29	421.30
459.48	400.23
459.66	458.74
459.84	425.98
460.03	507.90
460.21	510.24
460.39	447.04
460.57	475.13
460.76	425.98
460.94	393.21
461.12	496.19
461.31	418.96
461.49	458.74
461.67	372.15
461.85	456.40
462.04	367.46
462.22	744.29
462.40	379.17
462.59	400.23
462.77	360.44
462.95	383.85
463.13	388.53
463.32	442.36
463.50	423.64
463.68	437.68
463.86	362.78
464.05	425.98
464.23	425.98
464.41	489.17
464.59	482.15
464.78	404.91
464.96	468.11
465.14	430.66
465.32	379.17
465.50	374.49
465.69	433.00
465.87	428.32
466.05	479.81
466.23	477.47
466.41	461.09
466.60	423.64
466.78	421.30
466.96	454.06
467.14	395.55
467.32	418.96
467.51	482.15
467.69	395.55
467.87	477.47
468.05	433.00
468.23	437.68
468.41	423.64
468.60	416.62
468.78	433.00
468.96	442.36
469.14	390.87
469.32	451.72
469.50	416.62
469.69	402.57
469.87	355.76
470.05	381.51
470.23	437.68
470.41	414.27
470.59	325.33
470.77	421.30
470.95	395.55
471.14	500.87
471.32	388.53
471.50	425.98
471.68	381.51
471.86	433.00
472.04	360.44
472.22	374.49
472.40	383.85
472.58	482.15
472.77	454.06
472.95	433.00
473.13	442.36
473.31	470.45
473.49	491.51
473.67	435.34
473.85	442.36
474.03	395.55
474.21	393.21
474.39	472.79
474.57	421.30
474.75	409.59
474.93	404.91
475.12	409.59
475.30	379.17
475.48	456.40
475.66	475.13
475.84	402.57
476.02	454.06
476.20	416.62
476.38	374.49
476.56	451.72
476.74	428.32
476.92	428.32
477.10	383.85
477.28	393.21
477.46	402.57
477.64	477.47
477.82	477.47
478.00	388.53
478.18	369.80
478.36	437.68
478.54	346.40
478.72	418.96
478.90	416.62
479.08	402.57
479.26	397.89
479.44	409.59
479.62	341.72
479.80	411.93
479.98	351.08
480.16	390.87
480.34	421.30
480.52	407.25
480.70	400.23
480.88	425.98
481.06	376.83
481.24	369.80
481.41	444.70
481.59	367.46
481.77	397.89
481.95	437.68
482.13	390.87
482.31	362.78
482.49	379.17
482.67	468.11
482.85	486.83
483.03	372.15
483.21	397.89
483.39	414.27
483.57	369.80
483.74	454.06
483.92	388.53
484.10	435.34
484.28	435.34
484.46	507.90
484.64	388.53
484.82	355.76
485.00	470.45
485.18	409.59
485.35	353.42
485.53	404.91
485.71	430.66
485.89	440.02
486.07	428.32
486.25	423.64
486.43	456.40
486.61	449.38
486.78	374.49
486.96	411.93
487.14	442.36
487.32	447.04
487.50	421.30
487.68	423.64
487.85	393.21
488.03	435.34
488.21	463.43
488.39	414.27
488.57	433.00
488.75	411.93
488.92	517.26
489.10	404.91
489.28	433.00
489.46	360.44
489.64	425.98
489.81	362.78
489.99	414.27
490.17	379.17
490.35	484.49
490.53	395.55
490.70	395.55
490.88	400.23
491.06	355.76
491.24	358.10
491.41	407.25
491.59	451.72
491.77	468.11
491.95	339.38
492.13	395.55
492.30	449.38
492.48	423.64
492.66	430.66
492.84	383.85
493.01	425.98
493.19	496.19
493.37	463.43
493.54	423.64
493.72	418.96
493.90	451.72
494.08	414.27
494.25	411.93
494.43	444.70
494.61	372.15
494.79	425.98
494.96	418.96
495.14	421.30
495.32	425.98
495.49	390.87
495.67	496.19
495.85	379.17
496.02	409.59
496.20	505.56
496.38	395.55
496.55	414.27
496.73	407.25
496.91	386.19
497.09	442.36
497.26	435.34
497.44	414.27
497.62	461.09
497.79	388.53
497.97	437.68
498.14	386.19
498.32	411.93
498.50	437.68
498.67	463.43
498.85	407.25
499.03	395.55
499.20	437.68
499.38	397.89
499.56	425.98
499.73	407.25
499.91	423.64
500.08	428.32
500.26	425.98
500.44	414.27
500.61	425.98
500.79	374.49
500.97	442.36
501.14	395.55
501.32	393.21
501.49	472.79
501.67	381.51
501.84	440.02
502.02	386.19
502.20	423.64
502.37	449.38
502.55	388.53
502.72	393.21
502.90	421.30
503.07	341.72
503.25	332.36
503.43	397.89
503.60	407.25
503.78	327.68
503.95	381.51
504.13	379.17
504.30	404.91
504.48	435.34
504.65	458.74
504.83	428.32
505.01	362.78
505.18	428.32
505.36	440.02
505.53	365.12
505.71	402.57
505.88	440.02
506.06	425.98
506.23	353.42
506.41	440.02
506.58	444.70
506.76	451.72
506.93	388.53
507.11	428.32
507.28	360.44
507.46	388.53
507.63	465.77
507.81	418.96
507.98	418.96
508.16	414.27
508.33	397.89
508.50	390.87
508.68	407.25
508.85	421.30
509.03	407.25
509.20	400.23
509.38	346.40
509.55	418.96
509.73	475.13
509.90	458.74
510.08	411.93
510.25	386.19
510.42	447.04
510.60	407.25
510.77	379.17
510.95	449.38
511.12	388.53
511.30	397.89
511.47	346.40
511.64	482.15
511.82	381.51
511.99	374.49
512.17	449.38
512.34	437.68
512.51	376.83
512.69	308.95
512.86	416.62
513.04	437.68
513.21	393.21
513.38	393.21
513.56	416.62
513.73	440.02
513.90	376.83
514.08	425.98
514.25	409.59
514.43	397.89
514.60	374.49
514.77	369.80
514.95	390.87
515.12	428.32
515.29	411.93
515.47	440.02
515.64	433.00
515.81	360.44
515.99	383.85
516.16	454.06
516.33	430.66
516.51	383.85
516.68	479.81
516.85	428.32
517.03	418.96
517.20	423.64
517.37	428.32
517.54	451.72
517.72	395.55
517.89	465.77
518.06	376.83
518.24	456.40
518.41	491.51
518.58	430.66
518.75	416.62
518.93	421.30
519.10	400.23
519.27	491.51
519.45	367.46
519.62	388.53
519.79	437.68
519.96	423.64
520.14	414.27
520.31	421.30
520.48	463.43
520.65	535.98
520.83	409.59
521.00	458.74
521.17	381.51
521.34	372.15
521.52	477.47
521.69	402.57
521.86	374.49
522.03	437.68
522.20	437.68
522.38	381.51
522.55	383.85
522.72	416.62
522.89	395.55
523.07	428.32
523.24	386.19
523.41	327.68
523.58	423.64
523.75	454.06
523.92	379.17
524.10	404.91
524.27	433.00
524.44	461.09
524.61	447.04
524.78	386.19
524.96	425.98
525.13	386.19
525.30	376.83
525.47	451.72
525.64	435.34
525.81	397.89
525.98	433.00
526.16	418.96
526.33	397.89
526.50	416.62
526.67	339.38
526.84	362.78
527.01	491.51
527.18	435.34
527.36	437.68
527.53	367.46
527.70	423.64
527.87	400.23
528.04	418.96
528.21	376.83
528.38	428.32
528.55	428.32
528.72	489.17
528.89	451.72
529.07	435.34
529.24	411.93
529.41	465.77
529.58	451.72
529.75	407.25
529.92	360.44
530.09	393.21
530.26	376.83
530.43	423.64
530.60	379.17
530.77	402.57
530.94	465.77
531.11	468.11
531.28	442.36
531.46	465.77
531.63	418.96
531.80	442.36
531.97	425.98
532.14	461.09
532.31	369.80
532.48	447.04
532.65	442.36
532.82	369.80
532.99	337.04
533.16	411.93
533.33	402.57
533.50	390.87
533.67	421.30
533.84	463.43
534.01	444.70
534.18	395.55
534.35	421.30
534.52	390.87
534.69	428.32
534.86	409.59
535.03	421.30
535.20	411.93
535.37	428.32
535.54	421.30
535.71	456.40
535.88	423.64
536.05	409.59
536.22	404.91
536.38	510.24
536.55	383.85
536.72	393.21
536.89	465.77
537.06	421.30
537.23	423.64
537.40	400.23
537.57	414.27
537.74	461.09
537.91	461.09
538.08	470.45
538.25	496.19
538.42	376.83
538.59	386.19
538.75	433.00
538.92	423.64
539.09	461.09
539.26	351.08
539.43	395.55
539.60	442.36
539.77	461.09
539.94	428.32
540.11	425.98
540.28	447.04
540.44	402.57
540.61	381.51
540.78	372.15
540.95	381.51
541.12	397.89
541.29	430.66
541.46	479.81
541.62	468.11
541.79	482.15
541.96	461.09
542.13	386.19
542.30	437.68
542.47	358.10
542.63	327.68
542.80	442.36
542.97	461.09
543.14	372.15
543.31	421.30
543.48	393.21
543.64	411.93
543.81	402.57
543.98	390.87
544.15	402.57
544.32	388.53
544.48	416.62
544.65	482.15
544.82	402.57
544.99	414.27
545.16	461.09
545.32	353.42
545.49	454.06
545.66	421.30
545.83	428.32
546.00	425.98
546.16	409.59
546.33	395.55
546.50	358.10
546.67	425.98
546.83	477.47
547.00	383.85
547.17	440.02
547.34	475.13
547.50	447.04
547.67	393.21
547.84	383.85
548.00	440.02
548.17	433.00
548.34	440.02
548.51	454.06
548.67	372.15
548.84	404.91
549.01	376.83
549.18	435.34
549.34	390.87
549.51	468.11
549.68	423.64
549.84	376.83
550.01	393.21
550.18	465.77
550.34	395.55
550.51	390.87
550.68	418.96
550.84	379.17
551.01	472.79
551.18	435.34
551.34	468.11
551.51	369.80
551.68	428.32
551.84	433.00
552.01	397.89
552.18	442.36
552.34	442.36
552.51	486.83
552.68	425.98
552.84	379.17
553.01	362.78
553.18	435.34
553.34	407.25
553.51	444.70
553.67	433.00
553.84	526.62
554.01	482.15
554.17	355.76
554.34	409.59
554.51	325.33
554.67	421.30
554.84	447.04
555.00	442.36
555.17	407.25
555.33	440.02
555.50	416.62
555.67	421.30
555.83	528.96
556.00	411.93
556.16	507.90
556.33	442.36
556.50	451.72
556.66	442.36
556.83	437.68
556.99	376.83
557.16	400.23
557.32	393.21
557.49	386.19
557.65	433.00
557.82	393.21
557.98	397.89
558.15	421.30
558.32	414.27
558.48	409.59
558.65	381.51
558.81	383.85
558.98	449.38
559.14	521.94
559.31	461.09
559.47	393.21
559.64	437.68
559.80	521.94
559.97	477.47
560.13	470.45
560.30	454.06
560.46	451.72
560.63	400.23
560.79	449.38
560.96	397.89
561.12	416.62
561.29	456.40
561.45	468.11
561.61	409.59
561.78	498.53
561.94	433.00
562.11	379.17
562.27	416.62
562.44	433.00
562.60	458.74
562.77	458.74
562.93	470.45
563.10	463.43
563.26	442.36
563.42	393.21
563.59	400.23
563.75	468.11
563.92	411.93
564.08	379.17
564.24	535.98
564.41	437.68
564.57	409.59
564.74	465.77
564.90	397.89
565.07	397.89
565.23	470.45
565.39	393.21
565.56	444.70
565.72	479.81
565.88	411.93
566.05	388.53
566.21	425.98
566.38	456.40
566.54	416.62
566.70	454.06
566.87	397.89
567.03	397.89
567.19	428.32
567.36	503.22
567.52	367.46
567.68	386.19
567.85	440.02
568.01	388.53
568.17	374.49
568.34	376.83
568.50	451.72
568.66	411.93
568.83	465.77
568.99	440.02
569.15	395.55
569.32	381.51
569.48	358.10
569.64	390.87
569.81	418.96
569.97	355.76
570.13	381.51
570.30	407.25
570.46	411.93
570.62	418.96
570.78	404.91
570.95	468.11
571.11	433.00
571.27	451.72
571.43	348.74
571.60	479.81
571.76	346.40
571.92	418.96
572.09	442.36
572.25	402.57
572.41	416.62
572.57	416.62
572.74	503.22
572.90	367.46
573.06	416.62
573.22	479.81
573.38	456.40
573.55	500.87
573.71	449.38
573.87	409.59
574.03	449.38
574.20	433.00
574.36	442.36
574.52	416.62
574.68	418.96
574.84	472.79
575.01	402.57
575.17	470.45
575.33	444.70
575.49	482.15
575.65	430.66
575.82	482.15
575.98	423.64
576.14	388.53
576.30	440.02
576.46	414.27
576.62	393.21
576.79	400.23
576.95	442.36
577.11	402.57
577.27	428.32
577.43	442.36
577.59	468.11
577.75	465.77
577.92	472.79
578.08	428.32
578.24	416.62
578.40	482.15
578.56	372.15
578.72	454.06
578.88	416.62
579.04	409.59
579.21	454.06
579.37	421.30
579.53	423.64
579.69	479.81
579.85	447.04
580.01	482.15
580.17	411.93
580.33	376.83
580.49	397.89
580.65	337.04
580.82	393.21
580.98	369.80
581.14	402.57
581.30	416.62
581.46	404.91
581.62	440.02
581.78	388.53
581.94	433.00
582.10	404.91
582.26	374.49
582.42	418.96
582.58	447.04
582.74	418.96
582.90	416.62
583.06	449.38
583.22	456.40
583.38	381.51
583.54	353.42
583.70	425.98
583.86	475.13
584.02	402.57
584.18	383.85
584.34	409.59
584.50	414.27
584.66	404.91
584.82	346.40
584.98	381.51
585.14	325.33
585.30	360.44
585.46	440.02
585.62	430.66
585.78	437.68
585.94	510.24
586.10	379.17
586.26	472.79
586.42	465.77
586.58	423.64
586.74	414.27
586.90	402.57
587.06	416.62
587.22	425.98
587.38	430.66
587.54	418.96
587.70	430.66
587.86	444.70
588.02	489.17
588.18	416.62
588.34	383.85
588.49	376.83
588.65	407.25
588.81	433.00
588.97	353.42
589.13	376.83
589.29	393.21
589.45	461.09
589.61	456.40
589.77	409.59
589.93	449.38
590.08	500.87
590.24	344.06
590.40	379.17
590.56	402.57
590.72	428.32
590.88	367.46
591.04	444.70
591.20	418.96
591.35	383.85
591.51	374.49
591.67	425.98
591.83	440.02
591.99	468.11
592.15	407.25
592.31	479.81
592.46	442.36
592.62	386.19
592.78	383.85
592.94	386.19
593.10	411.93
593.26	353.42
593.41	388.53
593.57	463.43
593.73	376.83
593.89	386.19
594.05	482.15
594.20	447.04
594.36	397.89
594.52	461.09
594.68	447.04
594.84	404.91
594.99	528.96
595.15	400.23
595.31	463.43
595.47	472.79
595.62	444.70
595.78	425.98
595.94	442.36
596.10	496.19
596.25	425.98
596.41	482.15
596.57	386.19
596.73	414.27
596.88	470.45
597.04	397.89
597.20	454.06
597.36	416.62
597.51	416.62
597.67	418.96
597.83	444.70
597.99	414.27
598.14	393.21
598.30	414.27
598.46	409.59
598.61	496.19
598.77	447.04
598.93	365.12
599.09	433.00
599.24	397.89
599.40	402.57
599.56	362.78
599.71	430.66
599.87	418.96
600.03	425.98
600.18	430.66
600.34	449.38
600.50	472.79
600.65	383.85
600.81	491.51
600.97	444.70
601.12	442.36
601.28	433.00
601.44	418.96
601.59	500.87
601.75	411.93
601.91	402.57
602.06	442.36
602.22	486.83
602.37	386.19
602.53	425.98
602.69	400.23
602.84	334.70
603.00	404.91
603.16	430.66
603.31	421.30
603.47	313.63
603.62	397.89
603.78	372.15
603.94	390.87
604.09	411.93
604.25	395.55
604.40	512.58
604.56	449.38
604.71	451.72
604.87	435.34
605.03	465.77
605.18	468.11
605.34	433.00
605.49	355.76
605.65	409.59
605.80	404.91
605.96	402.57
606.12	461.09
606.27	491.51
606.43	421.30
606.58	451.72
606.74	433.00
606.89	468.11
607.05	397.89
607.20	397.89
607.36	379.17
607.51	437.68
607.67	425.98
607.82	372.15
607.98	404.91
608.13	325.33
608.29	435.34
608.44	430.66
608.60	440.02
608.75	437.68
608.91	402.57
609.06	484.49
609.22	433.00
609.37	376.83
609.53	463.43
609.68	456.40
609.84	395.55
609.99	416.62
610.15	425.98
