SpectraSuite Data File
++++++++++++++++++++++++++++++++++++
Date: Fri Oct 25 12:10:33 EDT 2013
User: price-jones
Dark Spectrum Present: No
Reference Spectrum Present: No
Number of Sampled Component Spectra: 1
Spectrometers: USB2+H05261
Integration Time (usec): 100000 (USB2+H05261)
Spectra Averaged: 1 (USB2+H05261)
Boxcar Smoothing: 0 (USB2+H05261)
Correct for Electrical Dark: No (USB2+H05261)
Strobe/Lamp Enabled: No (USB2+H05261)
Correct for Detector Non-linearity: No (USB2+H05261)
Correct for Stray Light: No (USB2+H05261)
Number of Pixels in Processed Spectrum: 2048
>>>>>Begin Processed Spectral Data<<<<<
365.73	400.23
365.92	400.23
366.12	400.23
366.32	229.37
366.52	224.69
366.72	276.18
366.91	241.08
367.11	210.65
367.31	147.45
367.51	189.58
367.70	231.71
367.90	229.37
368.10	173.20
368.30	262.14
368.49	294.91
368.69	308.95
368.89	201.29
369.09	210.65
369.28	308.95
369.48	313.63
369.68	290.23
369.87	353.42
370.07	259.80
370.27	346.40
370.47	285.55
370.66	330.02
370.86	367.46
371.06	397.89
371.25	440.02
371.45	353.42
371.65	374.49
371.84	376.83
372.04	339.38
372.24	400.23
372.44	362.78
372.63	379.17
372.83	393.21
373.03	362.78
373.22	421.30
373.42	433.00
373.62	416.62
373.81	444.70
374.01	425.98
374.21	430.66
374.40	451.72
374.60	500.87
374.79	390.87
374.99	444.70
375.19	442.36
375.38	390.87
375.58	423.64
375.78	475.13
375.97	440.02
376.17	449.38
376.37	451.72
376.56	393.21
376.76	311.29
376.95	425.98
377.15	428.32
377.35	397.89
377.54	404.91
377.74	376.83
377.93	379.17
378.13	428.32
378.33	414.27
378.52	414.27
378.72	472.79
378.91	433.00
379.11	414.27
379.31	421.30
379.50	358.10
379.70	463.43
379.89	369.80
380.09	379.17
380.28	409.59
380.48	421.30
380.68	358.10
380.87	365.12
381.07	428.32
381.26	444.70
381.46	482.15
381.65	388.53
381.85	447.04
382.04	433.00
382.24	451.72
382.43	400.23
382.63	360.44
382.83	393.21
383.02	388.53
383.22	381.51
383.41	360.44
383.61	486.83
383.80	428.32
384.00	332.36
384.19	388.53
384.39	414.27
384.58	337.04
384.78	395.55
384.97	407.25
385.17	383.85
385.36	381.51
385.56	339.38
385.75	346.40
385.95	423.64
386.14	435.34
386.34	442.36
386.53	393.21
386.72	334.70
386.92	416.62
387.11	437.68
387.31	388.53
387.50	383.85
387.70	355.76
387.89	369.80
388.09	400.23
388.28	318.31
388.48	344.06
388.67	414.27
388.86	372.15
389.06	379.17
389.25	421.30
389.45	400.23
389.64	465.77
389.84	447.04
390.03	421.30
390.22	365.12
390.42	428.32
390.61	416.62
390.81	372.15
391.00	400.23
391.19	437.68
391.39	425.98
391.58	395.55
391.78	365.12
391.97	461.09
392.16	404.91
392.36	433.00
392.55	451.72
392.75	418.96
392.94	435.34
393.13	383.85
393.33	301.93
393.52	367.46
393.71	428.32
393.91	395.55
394.10	454.06
394.29	341.72
394.49	416.62
394.68	409.59
394.88	395.55
395.07	435.34
395.26	365.12
395.46	435.34
395.65	360.44
395.84	374.49
396.04	465.77
396.23	475.13
396.42	447.04
396.62	418.96
396.81	381.51
397.00	409.59
397.19	440.02
397.39	397.89
397.58	414.27
397.77	421.30
397.97	435.34
398.16	353.42
398.35	327.68
398.55	447.04
398.74	418.96
398.93	416.62
399.12	437.68
399.32	458.74
399.51	428.32
399.70	353.42
399.90	341.72
400.09	414.27
400.28	369.80
400.47	395.55
400.67	395.55
400.86	388.53
401.05	397.89
401.24	456.40
401.44	346.40
401.63	440.02
401.82	390.87
402.01	409.59
402.21	397.89
402.40	397.89
402.59	374.49
402.78	437.68
402.97	404.91
403.17	402.57
403.36	383.85
403.55	362.78
403.74	428.32
403.93	362.78
404.13	416.62
404.32	383.85
404.51	414.27
404.70	440.02
404.89	390.87
405.09	411.93
405.28	362.78
405.47	322.99
405.66	409.59
405.85	418.96
406.05	374.49
406.24	404.91
406.43	395.55
406.62	407.25
406.81	461.09
407.00	435.34
407.20	440.02
407.39	367.46
407.58	390.87
407.77	472.79
407.96	449.38
408.15	435.34
408.34	500.87
408.54	369.80
408.73	437.68
408.92	367.46
409.11	428.32
409.30	423.64
409.49	372.15
409.68	407.25
409.87	414.27
410.07	472.79
410.26	477.47
410.45	470.45
410.64	402.57
410.83	402.57
411.02	421.30
411.21	479.81
411.40	421.30
411.59	353.42
411.78	425.98
411.98	517.26
412.17	390.87
412.36	468.11
412.55	414.27
412.74	388.53
412.93	372.15
413.12	369.80
413.31	416.62
413.50	402.57
413.69	390.87
413.88	444.70
414.07	374.49
414.26	449.38
414.45	414.27
414.64	369.80
414.83	374.49
415.02	397.89
415.22	367.46
415.41	414.27
415.60	468.11
415.79	400.23
415.98	454.06
416.17	425.98
416.36	393.21
416.55	369.80
416.74	472.79
416.93	409.59
417.12	376.83
417.31	447.04
417.50	402.57
417.69	390.87
417.88	425.98
418.07	332.36
418.26	402.57
418.45	423.64
418.64	444.70
418.83	374.49
419.02	454.06
419.21	365.12
419.39	416.62
419.58	414.27
419.77	374.49
419.96	411.93
420.15	512.58
420.34	454.06
420.53	430.66
420.72	379.17
420.91	430.66
421.10	411.93
421.29	444.70
421.48	482.15
421.67	435.34
421.86	425.98
422.05	428.32
422.24	280.86
422.43	393.21
422.61	416.62
422.80	440.02
422.99	451.72
423.18	351.08
423.37	425.98
423.56	421.30
423.75	468.11
423.94	451.72
424.13	367.46
424.32	402.57
424.50	393.21
424.69	407.25
424.88	454.06
425.07	433.00
425.26	411.93
425.45	409.59
425.64	390.87
425.83	379.17
426.01	404.91
426.20	512.58
426.39	372.15
426.58	407.25
426.77	433.00
426.96	428.32
427.15	358.10
427.33	379.17
427.52	407.25
427.71	416.62
427.90	388.53
428.09	428.32
428.28	374.49
428.46	365.12
428.65	404.91
428.84	334.70
429.03	482.15
429.22	372.15
429.40	393.21
429.59	374.49
429.78	519.60
429.97	402.57
430.16	369.80
430.34	372.15
430.53	400.23
430.72	463.43
430.91	444.70
431.10	482.15
431.28	414.27
431.47	475.13
431.66	362.78
431.85	339.38
432.03	372.15
432.22	458.74
432.41	428.32
432.60	374.49
432.79	409.59
432.97	430.66
433.16	409.59
433.35	454.06
433.54	468.11
433.72	407.25
433.91	461.09
434.10	407.25
434.28	374.49
434.47	330.02
434.66	425.98
434.85	360.44
435.03	418.96
435.22	463.43
435.41	449.38
435.59	479.81
435.78	435.34
435.97	400.23
436.16	435.34
436.34	409.59
436.53	418.96
436.72	440.02
436.90	475.13
437.09	440.02
437.28	383.85
437.46	428.32
437.65	414.27
437.84	386.19
438.02	365.12
438.21	360.44
438.40	423.64
438.58	337.04
438.77	414.27
438.96	428.32
439.14	365.12
439.33	472.79
439.52	437.68
439.70	360.44
439.89	447.04
440.08	400.23
440.26	416.62
440.45	414.27
440.63	449.38
440.82	425.98
441.01	360.44
441.19	491.51
441.38	388.53
441.57	411.93
441.75	449.38
441.94	421.30
442.12	381.51
442.31	468.11
442.50	425.98
442.68	472.79
442.87	437.68
443.05	404.91
443.24	437.68
443.43	440.02
443.61	428.32
443.80	461.09
443.98	346.40
444.17	404.91
444.35	402.57
444.54	386.19
444.73	416.62
444.91	386.19
445.10	367.46
445.28	341.72
445.47	383.85
445.65	325.33
445.84	365.12
446.02	435.34
446.21	376.83
446.39	407.25
446.58	395.55
446.77	369.80
446.95	400.23
447.14	423.64
447.32	475.13
447.51	416.62
447.69	386.19
447.88	418.96
448.06	430.66
448.25	404.91
448.43	365.12
448.62	395.55
448.80	369.80
448.99	358.10
449.17	379.17
449.36	411.93
449.54	421.30
449.73	327.68
449.91	390.87
450.10	379.17
450.28	444.70
450.46	416.62
450.65	411.93
450.83	423.64
451.02	393.21
451.20	418.96
451.39	393.21
451.57	367.46
451.76	393.21
451.94	442.36
452.13	435.34
452.31	353.42
452.49	428.32
452.68	332.36
452.86	372.15
453.05	400.23
453.23	395.55
453.42	383.85
453.60	369.80
453.78	425.98
453.97	397.89
454.15	365.12
454.34	351.08
454.52	365.12
454.70	409.59
454.89	440.02
455.07	374.49
455.26	456.40
455.44	355.76
455.62	348.74
455.81	440.02
455.99	411.93
456.17	395.55
456.36	505.56
456.54	418.96
456.73	386.19
456.91	421.30
457.09	355.76
457.28	449.38
457.46	388.53
457.64	393.21
457.83	447.04
458.01	383.85
458.19	407.25
458.38	358.10
458.56	421.30
458.74	355.76
458.93	449.38
459.11	440.02
459.29	395.55
459.48	465.77
459.66	454.06
459.84	465.77
460.03	463.43
460.21	402.57
460.39	374.49
460.57	425.98
460.76	416.62
460.94	451.72
461.12	421.30
461.31	465.77
461.49	404.91
461.67	402.57
461.85	346.40
462.04	418.96
462.22	816.85
462.40	447.04
462.59	428.32
462.77	404.91
462.95	395.55
463.13	372.15
463.32	423.64
463.50	395.55
463.68	388.53
463.86	433.00
464.05	386.19
464.23	461.09
464.41	386.19
464.59	395.55
464.78	395.55
464.96	353.42
465.14	421.30
465.32	414.27
465.50	435.34
465.69	416.62
465.87	449.38
466.05	414.27
466.23	407.25
466.41	456.40
466.60	381.51
466.78	414.27
466.96	451.72
467.14	505.56
467.32	390.87
467.51	353.42
467.69	425.98
467.87	507.90
468.05	428.32
468.23	418.96
468.41	416.62
468.60	374.49
468.78	491.51
468.96	475.13
469.14	440.02
469.32	353.42
469.50	423.64
469.69	414.27
469.87	428.32
470.05	423.64
470.23	489.17
470.41	383.85
470.59	440.02
470.77	447.04
470.95	369.80
471.14	482.15
471.32	372.15
471.50	493.85
471.68	437.68
471.86	465.77
472.04	404.91
472.22	390.87
472.40	393.21
472.58	433.00
472.77	477.47
472.95	407.25
473.13	409.59
473.31	482.15
473.49	351.08
473.67	358.10
473.85	355.76
474.03	430.66
474.21	407.25
474.39	472.79
474.57	437.68
474.75	402.57
474.93	372.15
475.12	435.34
475.30	451.72
475.48	430.66
475.66	475.13
475.84	400.23
476.02	360.44
476.20	444.70
476.38	353.42
476.56	477.47
476.74	440.02
476.92	404.91
477.10	367.46
477.28	428.32
477.46	418.96
477.64	423.64
477.82	411.93
478.00	449.38
478.18	433.00
478.36	393.21
478.54	386.19
478.72	428.32
478.90	390.87
479.08	423.64
479.26	442.36
479.44	388.53
479.62	383.85
479.80	369.80
479.98	411.93
480.16	402.57
480.34	360.44
480.52	418.96
480.70	423.64
480.88	400.23
481.06	447.04
481.24	416.62
481.41	475.13
481.59	400.23
481.77	421.30
481.95	411.93
482.13	409.59
482.31	472.79
482.49	402.57
482.67	411.93
482.85	454.06
483.03	365.12
483.21	341.72
483.39	430.66
483.57	402.57
483.74	444.70
483.92	404.91
484.10	416.62
484.28	472.79
484.46	414.27
484.64	386.19
484.82	411.93
485.00	449.38
485.18	397.89
485.35	393.21
485.53	360.44
485.71	430.66
485.89	383.85
486.07	376.83
486.25	454.06
486.43	414.27
486.61	325.33
486.78	475.13
486.96	425.98
487.14	447.04
487.32	341.72
487.50	437.68
487.68	407.25
487.85	390.87
488.03	463.43
488.21	491.51
488.39	442.36
488.57	430.66
488.75	479.81
488.92	463.43
489.10	435.34
489.28	465.77
489.46	465.77
489.64	416.62
489.81	482.15
489.99	393.21
490.17	355.76
490.35	470.45
490.53	433.00
490.70	362.78
490.88	409.59
491.06	442.36
491.24	341.72
491.41	421.30
491.59	430.66
491.77	444.70
491.95	409.59
492.13	381.51
492.30	451.72
492.48	358.10
492.66	365.12
492.84	388.53
493.01	367.46
493.19	376.83
493.37	414.27
493.54	425.98
493.72	390.87
493.90	365.12
494.08	374.49
494.25	404.91
494.43	346.40
494.61	393.21
494.79	397.89
494.96	348.74
495.14	430.66
495.32	386.19
495.49	465.77
495.67	411.93
495.85	320.65
496.02	458.74
496.20	451.72
496.38	397.89
496.55	442.36
496.73	390.87
496.91	418.96
497.09	360.44
497.26	404.91
497.44	477.47
497.62	393.21
497.79	365.12
497.97	409.59
498.14	400.23
498.32	425.98
498.50	418.96
498.67	456.40
498.85	351.08
499.03	397.89
499.20	416.62
499.38	458.74
499.56	428.32
499.73	444.70
499.91	465.77
500.08	430.66
500.26	362.78
500.44	348.74
500.61	374.49
500.79	299.59
500.97	367.46
501.14	465.77
501.32	383.85
501.49	458.74
501.67	348.74
501.84	496.19
502.02	407.25
502.20	454.06
502.37	421.30
502.55	416.62
502.72	421.30
502.90	447.04
503.07	472.79
503.25	512.58
503.43	451.72
503.60	400.23
503.78	425.98
503.95	442.36
504.13	414.27
504.30	444.70
504.48	402.57
504.65	449.38
504.83	346.40
505.01	369.80
505.18	386.19
505.36	320.65
505.53	369.80
505.71	447.04
505.88	449.38
506.06	402.57
506.23	395.55
506.41	311.29
506.58	444.70
506.76	433.00
506.93	374.49
507.11	425.98
507.28	381.51
507.46	430.66
507.63	372.15
507.81	383.85
507.98	397.89
508.16	418.96
508.33	428.32
508.50	416.62
508.68	472.79
508.85	437.68
509.03	414.27
509.20	351.08
509.38	344.06
509.55	383.85
509.73	484.49
509.90	388.53
510.08	358.10
510.25	456.40
510.42	348.74
510.60	400.23
510.77	425.98
510.95	395.55
511.12	404.91
511.30	402.57
511.47	407.25
511.64	435.34
511.82	440.02
511.99	360.44
512.17	374.49
512.34	411.93
512.51	407.25
512.69	418.96
512.86	430.66
513.04	496.19
513.21	449.38
513.38	451.72
513.56	430.66
513.73	381.51
513.90	388.53
514.08	360.44
514.25	442.36
514.43	463.43
514.60	402.57
514.77	397.89
514.95	428.32
515.12	397.89
515.29	449.38
515.47	423.64
515.64	395.55
515.81	423.64
515.99	458.74
516.16	416.62
516.33	409.59
516.51	346.40
516.68	482.15
516.85	421.30
517.03	397.89
517.20	416.62
517.37	447.04
517.54	383.85
517.72	346.40
517.89	311.29
518.06	383.85
518.24	470.45
518.41	444.70
518.58	421.30
518.75	369.80
518.93	425.98
519.10	376.83
519.27	407.25
519.45	383.85
519.62	348.74
519.79	369.80
519.96	440.02
520.14	472.79
520.31	479.81
520.48	421.30
520.65	395.55
520.83	423.64
521.00	451.72
521.17	430.66
521.34	379.17
521.52	383.85
521.69	444.70
521.86	360.44
522.03	470.45
522.20	442.36
522.38	430.66
522.55	449.38
522.72	346.40
522.89	414.27
523.07	430.66
523.24	449.38
523.41	437.68
523.58	423.64
523.75	365.12
523.92	386.19
524.10	374.49
524.27	416.62
524.44	437.68
524.61	470.45
524.78	383.85
524.96	365.12
525.13	458.74
525.30	416.62
525.47	430.66
525.64	468.11
525.81	447.04
525.98	428.32
526.16	407.25
526.33	444.70
526.50	409.59
526.67	372.15
526.84	463.43
527.01	362.78
527.18	442.36
527.36	393.21
527.53	369.80
527.70	353.42
527.87	435.34
528.04	447.04
528.21	351.08
528.38	390.87
528.55	374.49
528.72	500.87
528.89	465.77
529.07	461.09
529.24	374.49
529.41	447.04
529.58	407.25
529.75	433.00
529.92	468.11
530.09	510.24
530.26	388.53
530.43	407.25
530.60	425.98
530.77	470.45
530.94	437.68
531.11	430.66
531.28	374.49
531.46	362.78
531.63	381.51
531.80	355.76
531.97	416.62
532.14	390.87
532.31	475.13
532.48	444.70
532.65	423.64
532.82	330.02
532.99	458.74
533.16	418.96
533.33	374.49
533.50	414.27
533.67	454.06
533.84	440.02
534.01	365.12
534.18	407.25
534.35	512.58
534.52	388.53
534.69	397.89
534.86	379.17
535.03	421.30
535.20	393.21
535.37	407.25
535.54	358.10
535.71	414.27
535.88	477.47
536.05	407.25
536.22	407.25
536.38	402.57
536.55	400.23
536.72	444.70
536.89	353.42
537.06	346.40
537.23	395.55
537.40	442.36
537.57	376.83
537.74	435.34
537.91	322.99
538.08	402.57
538.25	360.44
538.42	365.12
538.59	416.62
538.75	414.27
538.92	437.68
539.09	437.68
539.26	437.68
539.43	458.74
539.60	367.46
539.77	358.10
539.94	470.45
540.11	393.21
540.28	440.02
540.44	393.21
540.61	407.25
540.78	351.08
540.95	374.49
541.12	430.66
541.29	433.00
541.46	393.21
541.62	414.27
541.79	468.11
541.96	402.57
542.13	339.38
542.30	414.27
542.47	418.96
542.63	470.45
542.80	383.85
542.97	374.49
543.14	447.04
543.31	491.51
543.48	379.17
543.64	416.62
543.81	468.11
543.98	428.32
544.15	447.04
544.32	400.23
544.48	388.53
544.65	421.30
544.82	407.25
544.99	407.25
545.16	451.72
545.32	409.59
545.49	447.04
545.66	421.30
545.83	421.30
546.00	449.38
546.16	423.64
546.33	433.00
546.50	404.91
546.67	507.90
546.83	390.87
547.00	376.83
547.17	482.15
547.34	360.44
547.50	411.93
547.67	421.30
547.84	365.12
548.00	386.19
548.17	416.62
548.34	390.87
548.51	407.25
548.67	442.36
548.84	416.62
549.01	411.93
549.18	381.51
549.34	411.93
549.51	409.59
549.68	477.47
549.84	407.25
550.01	402.57
550.18	465.77
550.34	503.22
550.51	402.57
550.68	442.36
550.84	416.62
551.01	423.64
551.18	388.53
551.34	435.34
551.51	411.93
551.68	437.68
551.84	423.64
552.01	355.76
552.18	414.27
552.34	374.49
552.51	409.59
552.68	428.32
552.84	454.06
553.01	416.62
553.18	402.57
553.34	381.51
553.51	362.78
553.67	477.47
553.84	477.47
554.01	440.02
554.17	360.44
554.34	458.74
554.51	421.30
554.67	421.30
554.84	404.91
555.00	491.51
555.17	477.47
555.33	491.51
555.50	367.46
555.67	393.21
555.83	395.55
556.00	472.79
556.16	580.45
556.33	526.62
556.50	407.25
556.66	442.36
556.83	444.70
556.99	358.10
557.16	416.62
557.32	337.04
557.49	402.57
557.65	435.34
557.82	423.64
557.98	472.79
558.15	397.89
558.32	395.55
558.48	369.80
558.65	376.83
558.81	475.13
558.98	470.45
559.14	461.09
559.31	465.77
559.47	383.85
559.64	414.27
559.80	468.11
559.97	414.27
560.13	430.66
560.30	341.72
560.46	346.40
560.63	440.02
560.79	404.91
560.96	411.93
561.12	388.53
561.29	454.06
561.45	404.91
561.61	517.26
561.78	496.19
561.94	337.04
562.11	409.59
562.27	491.51
562.44	376.83
562.60	402.57
562.77	458.74
562.93	514.92
563.10	458.74
563.26	367.46
563.42	435.34
563.59	421.30
563.75	372.15
563.92	411.93
564.08	465.77
564.24	507.90
564.41	468.11
564.57	421.30
564.74	423.64
564.90	500.87
565.07	421.30
565.23	479.81
565.39	355.76
565.56	465.77
565.72	442.36
565.88	339.38
566.05	402.57
566.21	433.00
566.38	444.70
566.54	383.85
566.70	437.68
566.87	411.93
567.03	397.89
567.19	454.06
567.36	411.93
567.52	383.85
567.68	376.83
567.85	489.17
568.01	369.80
568.17	404.91
568.34	407.25
568.50	425.98
568.66	421.30
568.83	444.70
568.99	463.43
569.15	477.47
569.32	339.38
569.48	372.15
569.64	442.36
569.81	362.78
569.97	407.25
570.13	491.51
570.30	444.70
570.46	433.00
570.62	414.27
570.78	449.38
570.95	463.43
571.11	435.34
571.27	428.32
571.43	409.59
571.60	416.62
571.76	386.19
571.92	409.59
572.09	379.17
572.25	425.98
572.41	374.49
572.57	341.72
572.74	500.87
572.90	465.77
573.06	404.91
573.22	428.32
573.38	461.09
573.55	458.74
573.71	423.64
573.87	388.53
574.03	435.34
574.20	388.53
574.36	444.70
574.52	400.23
574.68	397.89
574.84	355.76
575.01	332.36
575.17	433.00
575.33	393.21
575.49	381.51
575.65	402.57
575.82	433.00
575.98	447.04
576.14	454.06
576.30	341.72
576.46	376.83
576.62	400.23
576.79	402.57
576.95	393.21
577.11	404.91
577.27	421.30
577.43	430.66
577.59	428.32
577.75	472.79
577.92	402.57
578.08	386.19
578.24	353.42
578.40	491.51
578.56	416.62
578.72	510.24
578.88	456.40
579.04	416.62
579.21	449.38
579.37	423.64
579.53	425.98
579.69	449.38
579.85	411.93
580.01	425.98
580.17	372.15
580.33	372.15
580.49	463.43
580.65	400.23
580.82	383.85
580.98	383.85
581.14	355.76
581.30	416.62
581.46	386.19
581.62	437.68
581.78	395.55
581.94	433.00
582.10	337.04
582.26	386.19
582.42	400.23
582.58	447.04
582.74	386.19
582.90	458.74
583.06	414.27
583.22	388.53
583.38	351.08
583.54	330.02
583.70	393.21
583.86	435.34
584.02	440.02
584.18	437.68
584.34	440.02
584.50	411.93
584.66	512.58
584.82	390.87
584.98	451.72
585.14	421.30
585.30	414.27
585.46	365.12
585.62	400.23
585.78	322.99
585.94	409.59
586.10	402.57
586.26	362.78
586.42	430.66
586.58	365.12
586.74	376.83
586.90	414.27
587.06	458.74
587.22	374.49
587.38	435.34
587.54	454.06
587.70	390.87
587.86	383.85
588.02	367.46
588.18	451.72
588.34	416.62
588.49	355.76
588.65	386.19
588.81	404.91
588.97	428.32
589.13	322.99
589.29	421.30
589.45	463.43
589.61	421.30
589.77	489.17
589.93	369.80
590.08	383.85
590.24	447.04
590.40	461.09
590.56	440.02
590.72	346.40
590.88	409.59
591.04	421.30
591.20	381.51
591.35	416.62
591.51	367.46
591.67	475.13
591.83	397.89
591.99	479.81
592.15	442.36
592.31	393.21
592.46	388.53
592.62	456.40
592.78	409.59
592.94	386.19
593.10	360.44
593.26	390.87
593.41	397.89
593.57	423.64
593.73	411.93
593.89	386.19
594.05	376.83
594.20	365.12
594.36	468.11
594.52	402.57
594.68	416.62
594.84	463.43
594.99	465.77
595.15	435.34
595.31	472.79
595.47	400.23
595.62	397.89
595.78	407.25
595.94	421.30
596.10	376.83
596.25	435.34
596.41	442.36
596.57	397.89
596.73	440.02
596.88	365.12
597.04	404.91
597.20	383.85
597.36	407.25
597.51	386.19
597.67	381.51
597.83	456.40
597.99	425.98
598.14	407.25
598.30	454.06
598.46	442.36
598.61	454.06
598.77	400.23
598.93	442.36
599.09	437.68
599.24	472.79
599.40	442.36
599.56	430.66
599.71	423.64
599.87	404.91
600.03	442.36
600.18	395.55
600.34	428.32
600.50	414.27
600.65	454.06
600.81	454.06
600.97	418.96
601.12	430.66
601.28	430.66
601.44	393.21
601.59	465.77
601.75	425.98
601.91	393.21
602.06	479.81
602.22	463.43
602.37	404.91
602.53	418.96
602.69	470.45
602.84	395.55
603.00	428.32
603.16	440.02
603.31	454.06
603.47	425.98
603.62	395.55
603.78	390.87
603.94	416.62
604.09	444.70
604.25	386.19
604.40	482.15
604.56	395.55
604.71	411.93
604.87	383.85
605.03	433.00
605.18	425.98
605.34	461.09
605.49	358.10
605.65	404.91
605.80	411.93
605.96	374.49
606.12	393.21
606.27	416.62
606.43	421.30
606.58	444.70
606.74	433.00
606.89	411.93
607.05	449.38
607.20	369.80
607.36	355.76
607.51	346.40
607.67	386.19
607.82	383.85
607.98	435.34
608.13	362.78
608.29	404.91
608.44	397.89
608.60	376.83
608.75	449.38
608.91	416.62
609.06	425.98
609.22	465.77
609.37	454.06
609.53	358.10
609.68	395.55
609.84	409.59
609.99	374.49
610.15	435.34
