SpectraSuite Data File
++++++++++++++++++++++++++++++++++++
Date: Fri Oct 25 12:11:19 EDT 2013
User: price-jones
Dark Spectrum Present: No
Reference Spectrum Present: No
Number of Sampled Component Spectra: 1
Spectrometers: USB2+H05261
Integration Time (usec): 100000 (USB2+H05261)
Spectra Averaged: 1 (USB2+H05261)
Boxcar Smoothing: 0 (USB2+H05261)
Correct for Electrical Dark: No (USB2+H05261)
Strobe/Lamp Enabled: No (USB2+H05261)
Correct for Detector Non-linearity: No (USB2+H05261)
Correct for Stray Light: No (USB2+H05261)
Number of Pixels in Processed Spectrum: 2048
>>>>>Begin Processed Spectral Data<<<<<
365.73	283.20
365.92	283.20
366.12	283.20
366.32	278.52
366.52	187.24
366.72	222.35
366.91	229.37
367.11	243.42
367.31	241.08
367.51	285.55
367.70	313.63
367.90	283.20
368.10	257.46
368.30	205.97
368.49	273.84
368.69	257.46
368.89	271.50
369.09	301.93
369.28	208.31
369.48	248.10
369.68	315.97
369.87	355.76
370.07	290.23
370.27	344.06
370.47	339.38
370.66	318.31
370.86	334.70
371.06	400.23
371.25	414.27
371.45	372.15
371.65	423.64
371.84	369.80
372.04	440.02
372.24	397.89
372.44	397.89
372.63	404.91
372.83	416.62
373.03	397.89
373.22	397.89
373.42	362.78
373.62	416.62
373.81	428.32
374.01	449.38
374.21	458.74
374.40	435.34
374.60	472.79
374.79	423.64
374.99	433.00
375.19	346.40
375.38	381.51
375.58	449.38
375.78	365.12
375.97	482.15
376.17	442.36
376.37	496.19
376.56	376.83
376.76	416.62
376.95	407.25
377.15	458.74
377.35	507.90
377.54	409.59
377.74	390.87
377.93	334.70
378.13	442.36
378.33	442.36
378.52	437.68
378.72	444.70
378.91	442.36
379.11	414.27
379.31	362.78
379.50	421.30
379.70	517.26
379.89	437.68
380.09	339.38
380.28	376.83
380.48	428.32
380.68	409.59
380.87	400.23
381.07	404.91
381.26	428.32
381.46	390.87
381.65	381.51
381.85	414.27
382.04	404.91
382.24	425.98
382.43	444.70
382.63	386.19
382.83	416.62
383.02	477.47
383.22	482.15
383.41	416.62
383.61	447.04
383.80	376.83
384.00	379.17
384.19	386.19
384.39	390.87
384.58	404.91
384.78	465.77
384.97	388.53
385.17	393.21
385.36	411.93
385.56	477.47
385.75	397.89
385.95	374.49
386.14	383.85
386.34	416.62
386.53	395.55
386.72	404.91
386.92	442.36
387.11	411.93
387.31	451.72
387.50	383.85
387.70	308.95
387.89	362.78
388.09	379.17
388.28	404.91
388.48	433.00
388.67	444.70
388.86	374.49
389.06	381.51
389.25	374.49
389.45	454.06
389.64	381.51
389.84	362.78
390.03	358.10
390.22	425.98
390.42	447.04
390.61	369.80
390.81	440.02
391.00	454.06
391.19	423.64
391.39	348.74
391.58	367.46
391.78	416.62
391.97	383.85
392.16	444.70
392.36	421.30
392.55	444.70
392.75	437.68
392.94	458.74
393.13	374.49
393.33	479.81
393.52	470.45
393.71	346.40
393.91	383.85
394.10	409.59
394.29	447.04
394.49	498.53
394.68	451.72
394.88	418.96
395.07	428.32
395.26	423.64
395.46	344.06
395.65	451.72
395.84	463.43
396.04	454.06
396.23	411.93
396.42	395.55
396.62	374.49
396.81	381.51
397.00	278.52
397.19	444.70
397.39	365.12
397.58	447.04
397.77	411.93
397.97	395.55
398.16	500.87
398.35	472.79
398.55	402.57
398.74	313.63
398.93	440.02
399.12	360.44
399.32	423.64
399.51	358.10
399.70	407.25
399.90	262.14
400.09	365.12
400.28	435.34
400.47	362.78
400.67	383.85
400.86	418.96
401.05	430.66
401.24	437.68
401.44	355.76
401.63	444.70
401.82	355.76
402.01	407.25
402.21	428.32
402.40	407.25
402.59	407.25
402.78	414.27
402.97	409.59
403.17	451.72
403.36	397.89
403.55	468.11
403.74	418.96
403.93	477.47
404.13	407.25
404.32	402.57
404.51	376.83
404.70	437.68
404.89	465.77
405.09	395.55
405.28	440.02
405.47	374.49
405.66	447.04
405.85	379.17
406.05	411.93
406.24	402.57
406.43	379.17
406.62	383.85
406.81	475.13
407.00	454.06
407.20	400.23
407.39	421.30
407.58	383.85
407.77	393.21
407.96	465.77
408.15	465.77
408.34	344.06
408.54	454.06
408.73	414.27
408.92	461.09
409.11	461.09
409.30	379.17
409.49	332.36
409.68	372.15
409.87	402.57
410.07	428.32
410.26	395.55
410.45	346.40
410.64	365.12
410.83	393.21
411.02	388.53
411.21	433.00
411.40	376.83
411.59	416.62
411.78	428.32
411.98	428.32
412.17	383.85
412.36	454.06
412.55	388.53
412.74	444.70
412.93	390.87
413.12	339.38
413.31	397.89
413.50	390.87
413.69	351.08
413.88	360.44
414.07	468.11
414.26	393.21
414.45	360.44
414.64	444.70
414.83	402.57
415.02	456.40
415.22	442.36
415.41	407.25
415.60	367.46
415.79	435.34
415.98	418.96
416.17	411.93
416.36	444.70
416.55	423.64
416.74	393.21
416.93	411.93
417.12	390.87
417.31	374.49
417.50	397.89
417.69	447.04
417.88	430.66
418.07	400.23
418.26	358.10
418.45	397.89
418.64	390.87
418.83	451.72
419.02	414.27
419.21	477.47
419.39	339.38
419.58	400.23
419.77	372.15
419.96	486.83
420.15	397.89
420.34	414.27
420.53	416.62
420.72	491.51
420.91	393.21
421.10	418.96
421.29	339.38
421.48	390.87
421.67	489.17
421.86	425.98
422.05	477.47
422.24	379.17
422.43	341.72
422.61	388.53
422.80	376.83
422.99	367.46
423.18	397.89
423.37	440.02
423.56	423.64
423.75	435.34
423.94	414.27
424.13	411.93
424.32	376.83
424.50	479.81
424.69	407.25
424.88	456.40
425.07	440.02
425.26	393.21
425.45	472.79
425.64	435.34
425.83	423.64
426.01	416.62
426.20	456.40
426.39	390.87
426.58	376.83
426.77	435.34
426.96	421.30
427.15	374.49
427.33	390.87
427.52	440.02
427.71	425.98
427.90	397.89
428.09	437.68
428.28	374.49
428.46	442.36
428.65	440.02
428.84	409.59
429.03	458.74
429.22	437.68
429.40	444.70
429.59	475.13
429.78	400.23
429.97	395.55
430.16	348.74
430.34	400.23
430.53	381.51
430.72	465.77
430.91	477.47
431.10	428.32
431.28	414.27
431.47	423.64
431.66	374.49
431.85	400.23
432.03	440.02
432.22	404.91
432.41	411.93
432.60	383.85
432.79	404.91
432.97	374.49
433.16	353.42
433.35	393.21
433.54	437.68
433.72	454.06
433.91	397.89
434.10	402.57
434.28	428.32
434.47	435.34
434.66	428.32
434.85	374.49
435.03	376.83
435.22	505.56
435.41	395.55
435.59	423.64
435.78	428.32
435.97	369.80
436.16	433.00
436.34	433.00
436.53	414.27
436.72	397.89
436.90	435.34
437.09	388.53
437.28	383.85
437.46	416.62
437.65	444.70
437.84	397.89
438.02	444.70
438.21	381.51
438.40	491.51
438.58	404.91
438.77	374.49
438.96	418.96
439.14	447.04
439.33	454.06
439.52	402.57
439.70	395.55
439.89	477.47
440.08	472.79
440.26	440.02
440.45	407.25
440.63	407.25
440.82	395.55
441.01	367.46
441.19	393.21
441.38	456.40
441.57	388.53
441.75	365.12
441.94	411.93
442.12	397.89
442.31	400.23
442.50	425.98
442.68	409.59
442.87	400.23
443.05	360.44
443.24	423.64
443.43	482.15
443.61	423.64
443.80	388.53
443.98	367.46
444.17	425.98
444.35	351.08
444.54	428.32
444.73	386.19
444.91	498.53
445.10	477.47
445.28	386.19
445.47	400.23
445.65	437.68
445.84	374.49
446.02	383.85
446.21	388.53
446.39	334.70
446.58	428.32
446.77	447.04
446.95	416.62
447.14	411.93
447.32	519.60
447.51	414.27
447.69	428.32
447.88	397.89
448.06	456.40
448.25	430.66
448.43	374.49
448.62	353.42
448.80	386.19
448.99	416.62
449.17	383.85
449.36	423.64
449.54	425.98
449.73	339.38
449.91	360.44
450.10	346.40
450.28	404.91
450.46	433.00
450.65	411.93
450.83	479.81
451.02	407.25
451.20	400.23
451.39	430.66
451.57	470.45
451.76	411.93
451.94	407.25
452.13	465.77
452.31	442.36
452.49	444.70
452.68	416.62
452.86	390.87
453.05	402.57
453.23	489.17
453.42	374.49
453.60	482.15
453.78	456.40
453.97	407.25
454.15	425.98
454.34	470.45
454.52	367.46
454.70	402.57
454.89	425.98
455.07	423.64
455.26	442.36
455.44	437.68
455.62	404.91
455.81	400.23
455.99	383.85
456.17	442.36
456.36	362.78
456.54	383.85
456.73	388.53
456.91	386.19
457.09	440.02
457.28	461.09
457.46	430.66
457.64	486.83
457.83	379.17
458.01	404.91
458.19	397.89
458.38	369.80
458.56	388.53
458.74	404.91
458.93	421.30
459.11	416.62
459.29	463.43
459.48	360.44
459.66	428.32
459.84	472.79
460.03	449.38
460.21	458.74
460.39	390.87
460.57	468.11
460.76	400.23
460.94	418.96
461.12	456.40
461.31	416.62
461.49	390.87
461.67	381.51
461.85	416.62
462.04	437.68
462.22	788.76
462.40	468.11
462.59	435.34
462.77	344.06
462.95	444.70
463.13	367.46
463.32	341.72
463.50	404.91
463.68	411.93
463.86	390.87
464.05	358.10
464.23	491.51
464.41	421.30
464.59	402.57
464.78	430.66
464.96	360.44
465.14	428.32
465.32	421.30
465.50	465.77
465.69	477.47
465.87	435.34
466.05	374.49
466.23	449.38
466.41	386.19
466.60	390.87
466.78	416.62
466.96	475.13
467.14	418.96
467.32	430.66
467.51	402.57
467.69	433.00
467.87	463.43
468.05	430.66
468.23	477.47
468.41	447.04
468.60	407.25
468.78	458.74
468.96	397.89
469.14	428.32
469.32	383.85
469.50	386.19
469.69	393.21
469.87	425.98
470.05	348.74
470.23	409.59
470.41	416.62
470.59	414.27
470.77	433.00
470.95	416.62
471.14	468.11
471.32	397.89
471.50	444.70
471.68	369.80
471.86	411.93
472.04	383.85
472.22	337.04
472.40	379.17
472.58	475.13
472.77	430.66
472.95	463.43
473.13	437.68
473.31	430.66
473.49	339.38
473.67	458.74
473.85	411.93
474.03	444.70
474.21	421.30
474.39	433.00
474.57	465.77
474.75	440.02
474.93	353.42
475.12	425.98
475.30	433.00
475.48	477.47
475.66	475.13
475.84	341.72
476.02	407.25
476.20	376.83
476.38	372.15
476.56	465.77
476.74	376.83
476.92	381.51
477.10	435.34
477.28	503.22
477.46	409.59
477.64	400.23
477.82	437.68
478.00	421.30
478.18	393.21
478.36	423.64
478.54	390.87
478.72	393.21
478.90	510.24
479.08	437.68
479.26	449.38
479.44	374.49
479.62	355.76
479.80	322.99
479.98	404.91
480.16	388.53
480.34	463.43
480.52	428.32
480.70	400.23
480.88	383.85
481.06	388.53
481.24	374.49
481.41	416.62
481.59	479.81
481.77	330.02
481.95	442.36
482.13	440.02
482.31	430.66
482.49	418.96
482.67	428.32
482.85	407.25
483.03	409.59
483.21	339.38
483.39	425.98
483.57	461.09
483.74	430.66
483.92	428.32
484.10	369.80
484.28	498.53
484.46	458.74
484.64	344.06
484.82	442.36
485.00	416.62
485.18	486.83
485.35	430.66
485.53	414.27
485.71	465.77
485.89	423.64
486.07	404.91
486.25	461.09
486.43	416.62
486.61	400.23
486.78	374.49
486.96	353.42
487.14	400.23
487.32	425.98
487.50	477.47
487.68	390.87
487.85	428.32
488.03	407.25
488.21	430.66
488.39	425.98
488.57	418.96
488.75	444.70
488.92	463.43
489.10	416.62
489.28	470.45
489.46	330.02
489.64	327.68
489.81	393.21
489.99	428.32
490.17	404.91
490.35	505.56
490.53	402.57
490.70	351.08
490.88	468.11
491.06	444.70
491.24	489.17
491.41	421.30
491.59	383.85
491.77	414.27
491.95	414.27
492.13	360.44
492.30	435.34
492.48	393.21
492.66	423.64
492.84	414.27
493.01	482.15
493.19	409.59
493.37	372.15
493.54	477.47
493.72	428.32
493.90	397.89
494.08	402.57
494.25	486.83
494.43	390.87
494.61	407.25
494.79	414.27
494.96	418.96
495.14	386.19
495.32	381.51
495.49	353.42
495.67	430.66
495.85	390.87
496.02	358.10
496.20	449.38
496.38	414.27
496.55	440.02
496.73	365.12
496.91	447.04
497.09	386.19
497.26	411.93
497.44	390.87
497.62	393.21
497.79	409.59
497.97	454.06
498.14	423.64
498.32	484.49
498.50	475.13
498.67	400.23
498.85	430.66
499.03	404.91
499.20	423.64
499.38	376.83
499.56	461.09
499.73	454.06
499.91	395.55
500.08	414.27
500.26	433.00
500.44	351.08
500.61	365.12
500.79	407.25
500.97	414.27
501.14	444.70
501.32	442.36
501.49	479.81
501.67	369.80
501.84	372.15
502.02	381.51
502.20	430.66
502.37	383.85
502.55	454.06
502.72	341.72
502.90	442.36
503.07	393.21
503.25	348.74
503.43	348.74
503.60	395.55
503.78	376.83
503.95	402.57
504.13	407.25
504.30	379.17
504.48	451.72
504.65	423.64
504.83	486.83
505.01	421.30
505.18	418.96
505.36	397.89
505.53	395.55
505.71	386.19
505.88	465.77
506.06	421.30
506.23	418.96
506.41	362.78
506.58	355.76
506.76	407.25
506.93	348.74
507.11	383.85
507.28	325.33
507.46	390.87
507.63	411.93
507.81	470.45
507.98	449.38
508.16	447.04
508.33	404.91
508.50	407.25
508.68	393.21
508.85	447.04
509.03	418.96
509.20	411.93
509.38	407.25
509.55	465.77
509.73	437.68
509.90	409.59
510.08	358.10
510.25	393.21
510.42	332.36
510.60	400.23
510.77	407.25
510.95	402.57
511.12	442.36
511.30	444.70
511.47	402.57
511.64	482.15
511.82	458.74
511.99	458.74
512.17	409.59
512.34	390.87
512.51	423.64
512.69	416.62
512.86	374.49
513.04	386.19
513.21	465.77
513.38	475.13
513.56	402.57
513.73	400.23
513.90	351.08
514.08	327.68
514.25	430.66
514.43	468.11
514.60	362.78
514.77	374.49
514.95	433.00
515.12	416.62
515.29	493.85
515.47	407.25
515.64	388.53
515.81	320.65
515.99	388.53
516.16	435.34
516.33	433.00
516.51	330.02
516.68	463.43
516.85	400.23
517.03	409.59
517.20	423.64
517.37	491.51
517.54	395.55
517.72	374.49
517.89	451.72
518.06	409.59
518.24	479.81
518.41	414.27
518.58	379.17
518.75	461.09
518.93	409.59
519.10	428.32
519.27	379.17
519.45	407.25
519.62	421.30
519.79	388.53
519.96	334.70
520.14	409.59
520.31	465.77
520.48	360.44
520.65	454.06
520.83	395.55
521.00	519.60
521.17	397.89
521.34	451.72
521.52	376.83
521.69	435.34
521.86	463.43
522.03	421.30
522.20	479.81
522.38	411.93
522.55	390.87
522.72	407.25
522.89	428.32
523.07	414.27
523.24	414.27
523.41	374.49
523.58	435.34
523.75	402.57
523.92	425.98
524.10	498.53
524.27	372.15
524.44	393.21
524.61	416.62
524.78	353.42
524.96	386.19
525.13	358.10
525.30	440.02
525.47	449.38
525.64	461.09
525.81	393.21
525.98	407.25
526.16	393.21
526.33	472.79
526.50	402.57
526.67	355.76
526.84	454.06
527.01	360.44
527.18	376.83
527.36	444.70
527.53	365.12
527.70	451.72
527.87	465.77
528.04	414.27
528.21	393.21
528.38	430.66
528.55	428.32
528.72	465.77
528.89	447.04
529.07	381.51
529.24	409.59
529.41	414.27
529.58	425.98
529.75	388.53
529.92	423.64
530.09	454.06
530.26	334.70
530.43	360.44
530.60	386.19
530.77	421.30
530.94	367.46
531.11	447.04
531.28	428.32
531.46	428.32
531.63	393.21
531.80	463.43
531.97	383.85
532.14	360.44
532.31	381.51
532.48	428.32
532.65	451.72
532.82	383.85
532.99	444.70
533.16	404.91
533.33	468.11
533.50	397.89
533.67	435.34
533.84	440.02
534.01	505.56
534.18	486.83
534.35	437.68
534.52	372.15
534.69	491.51
534.86	428.32
535.03	447.04
535.20	416.62
535.37	449.38
535.54	386.19
535.71	414.27
535.88	440.02
536.05	397.89
536.22	428.32
536.38	395.55
536.55	449.38
536.72	421.30
536.89	418.96
537.06	418.96
537.23	402.57
537.40	428.32
537.57	395.55
537.74	404.91
537.91	444.70
538.08	482.15
538.25	416.62
538.42	348.74
538.59	465.77
538.75	337.04
538.92	330.02
539.09	465.77
539.26	390.87
539.43	386.19
539.60	428.32
539.77	484.49
539.94	461.09
540.11	351.08
540.28	423.64
540.44	437.68
540.61	386.19
540.78	428.32
540.95	454.06
541.12	447.04
541.29	376.83
541.46	468.11
541.62	418.96
541.79	465.77
541.96	444.70
542.13	393.21
542.30	360.44
542.47	449.38
542.63	407.25
542.80	407.25
542.97	463.43
543.14	482.15
543.31	496.19
543.48	442.36
543.64	404.91
543.81	367.46
543.98	369.80
544.15	383.85
544.32	376.83
544.48	372.15
544.65	397.89
544.82	435.34
544.99	456.40
545.16	468.11
545.32	477.47
545.49	444.70
545.66	369.80
545.83	437.68
546.00	358.10
546.16	386.19
546.33	379.17
546.50	430.66
546.67	379.17
546.83	409.59
547.00	400.23
547.17	365.12
547.34	395.55
547.50	395.55
547.67	425.98
547.84	411.93
548.00	458.74
548.17	472.79
548.34	463.43
548.51	458.74
548.67	397.89
548.84	395.55
549.01	472.79
549.18	449.38
549.34	393.21
549.51	411.93
549.68	449.38
549.84	393.21
550.01	372.15
550.18	486.83
550.34	425.98
550.51	428.32
550.68	475.13
550.84	423.64
551.01	428.32
551.18	442.36
551.34	409.59
551.51	414.27
551.68	470.45
551.84	428.32
552.01	341.72
552.18	388.53
552.34	423.64
552.51	386.19
552.68	393.21
552.84	409.59
553.01	409.59
553.18	458.74
553.34	463.43
553.51	477.47
553.67	402.57
553.84	491.51
554.01	433.00
554.17	454.06
554.34	393.21
554.51	386.19
554.67	416.62
554.84	500.87
555.00	388.53
555.17	465.77
555.33	482.15
555.50	486.83
555.67	414.27
555.83	414.27
556.00	435.34
556.16	559.39
556.33	512.58
556.50	425.98
556.66	444.70
556.83	416.62
556.99	416.62
557.16	407.25
557.32	407.25
557.49	411.93
557.65	461.09
557.82	430.66
557.98	411.93
558.15	433.00
558.32	472.79
558.48	425.98
558.65	428.32
558.81	491.51
558.98	411.93
559.14	400.23
559.31	376.83
559.47	407.25
559.64	402.57
559.80	383.85
559.97	423.64
560.13	353.42
560.30	447.04
560.46	500.87
560.63	435.34
560.79	379.17
560.96	372.15
561.12	451.72
561.29	390.87
561.45	454.06
561.61	330.02
561.78	442.36
561.94	409.59
562.11	407.25
562.27	409.59
562.44	388.53
562.60	435.34
562.77	454.06
562.93	517.26
563.10	491.51
563.26	414.27
563.42	468.11
563.59	400.23
563.75	390.87
563.92	365.12
564.08	376.83
564.24	470.45
564.41	456.40
564.57	348.74
564.74	395.55
564.90	458.74
565.07	386.19
565.23	404.91
565.39	404.91
565.56	423.64
565.72	416.62
565.88	414.27
566.05	313.63
566.21	374.49
566.38	428.32
566.54	458.74
566.70	358.10
566.87	430.66
567.03	421.30
567.19	411.93
567.36	463.43
567.52	470.45
567.68	442.36
567.85	498.53
568.01	451.72
568.17	433.00
568.34	379.17
568.50	411.93
568.66	404.91
568.83	512.58
568.99	386.19
569.15	465.77
569.32	388.53
569.48	404.91
569.64	454.06
569.81	428.32
569.97	442.36
570.13	447.04
570.30	430.66
570.46	397.89
570.62	395.55
570.78	425.98
570.95	428.32
571.11	500.87
571.27	461.09
571.43	440.02
571.60	437.68
571.76	505.56
571.92	409.59
572.09	416.62
572.25	341.72
572.41	416.62
572.57	461.09
572.74	540.66
572.90	472.79
573.06	414.27
573.22	482.15
573.38	430.66
573.55	425.98
573.71	428.32
573.87	367.46
574.03	442.36
574.20	407.25
574.36	390.87
574.52	376.83
574.68	458.74
574.84	468.11
575.01	428.32
575.17	437.68
575.33	395.55
575.49	425.98
575.65	444.70
575.82	500.87
575.98	458.74
576.14	458.74
576.30	430.66
576.46	444.70
576.62	418.96
576.79	477.47
576.95	397.89
577.11	451.72
577.27	416.62
577.43	409.59
577.59	454.06
577.75	475.13
577.92	421.30
578.08	400.23
578.24	397.89
578.40	458.74
578.56	477.47
578.72	425.98
578.88	489.17
579.04	388.53
579.21	428.32
579.37	339.38
579.53	381.51
579.69	407.25
579.85	477.47
580.01	397.89
580.17	447.04
580.33	461.09
580.49	421.30
580.65	456.40
580.82	421.30
580.98	386.19
581.14	416.62
581.30	411.93
581.46	421.30
581.62	393.21
581.78	468.11
581.94	433.00
582.10	449.38
582.26	416.62
582.42	463.43
582.58	421.30
582.74	411.93
582.90	400.23
583.06	433.00
583.22	407.25
583.38	346.40
583.54	409.59
583.70	423.64
583.86	416.62
584.02	442.36
584.18	454.06
584.34	362.78
584.50	428.32
584.66	386.19
584.82	407.25
584.98	411.93
585.14	430.66
585.30	414.27
585.46	470.45
585.62	320.65
585.78	379.17
585.94	442.36
586.10	411.93
586.26	421.30
586.42	447.04
586.58	451.72
586.74	451.72
586.90	468.11
587.06	425.98
587.22	444.70
587.38	393.21
587.54	421.30
587.70	449.38
587.86	400.23
588.02	330.02
588.18	362.78
588.34	456.40
588.49	416.62
588.65	400.23
588.81	444.70
588.97	428.32
589.13	395.55
589.29	367.46
589.45	447.04
589.61	465.77
589.77	423.64
589.93	447.04
590.08	433.00
590.24	433.00
590.40	358.10
590.56	425.98
590.72	376.83
590.88	461.09
591.04	440.02
591.20	433.00
591.35	440.02
591.51	353.42
591.67	421.30
591.83	388.53
591.99	428.32
592.15	397.89
592.31	360.44
592.46	456.40
592.62	505.56
592.78	430.66
592.94	456.40
593.10	484.49
593.26	395.55
593.41	430.66
593.57	465.77
593.73	472.79
593.89	489.17
594.05	479.81
594.20	451.72
594.36	449.38
594.52	444.70
594.68	411.93
594.84	402.57
594.99	486.83
595.15	409.59
595.31	379.17
595.47	472.79
595.62	472.79
595.78	402.57
595.94	414.27
596.10	447.04
596.25	423.64
596.41	463.43
596.57	376.83
596.73	365.12
596.88	351.08
597.04	444.70
597.20	397.89
597.36	414.27
597.51	409.59
597.67	374.49
597.83	407.25
597.99	458.74
598.14	393.21
598.30	472.79
598.46	404.91
598.61	353.42
598.77	400.23
598.93	425.98
599.09	362.78
599.24	325.33
599.40	505.56
599.56	484.49
599.71	407.25
599.87	425.98
600.03	423.64
600.18	383.85
600.34	475.13
600.50	390.87
600.65	411.93
600.81	449.38
600.97	451.72
601.12	367.46
601.28	458.74
601.44	409.59
601.59	332.36
601.75	369.80
601.91	409.59
602.06	400.23
602.22	528.96
602.37	451.72
602.53	411.93
602.69	393.21
602.84	374.49
603.00	414.27
603.16	526.62
603.31	411.93
603.47	456.40
603.62	388.53
603.78	397.89
603.94	421.30
604.09	388.53
604.25	451.72
604.40	372.15
604.56	346.40
604.71	411.93
604.87	407.25
605.03	369.80
605.18	433.00
605.34	468.11
605.49	400.23
605.65	447.04
605.80	421.30
605.96	461.09
606.12	421.30
606.27	433.00
606.43	456.40
606.58	372.15
606.74	400.23
606.89	456.40
607.05	402.57
607.20	360.44
607.36	435.34
607.51	369.80
607.67	475.13
607.82	491.51
607.98	449.38
608.13	454.06
608.29	449.38
608.44	482.15
608.60	404.91
608.75	409.59
608.91	454.06
609.06	414.27
609.22	489.17
609.37	383.85
609.53	390.87
609.68	395.55
609.84	367.46
609.99	404.91
610.15	395.55
