SpectraSuite Data File
++++++++++++++++++++++++++++++++++++
Date: Fri Oct 25 12:11:14 EDT 2013
User: price-jones
Dark Spectrum Present: No
Reference Spectrum Present: No
Number of Sampled Component Spectra: 1
Spectrometers: USB2+H05261
Integration Time (usec): 100000 (USB2+H05261)
Spectra Averaged: 1 (USB2+H05261)
Boxcar Smoothing: 0 (USB2+H05261)
Correct for Electrical Dark: No (USB2+H05261)
Strobe/Lamp Enabled: No (USB2+H05261)
Correct for Detector Non-linearity: No (USB2+H05261)
Correct for Stray Light: No (USB2+H05261)
Number of Pixels in Processed Spectrum: 2048
>>>>>Begin Processed Spectral Data<<<<<
365.73	369.80
365.92	369.80
366.12	369.80
366.32	273.84
366.52	229.37
366.72	241.08
366.91	180.22
367.11	180.22
367.31	222.35
367.51	168.52
367.70	250.44
367.90	266.82
368.10	301.93
368.30	227.03
368.49	299.59
368.69	355.76
368.89	266.82
369.09	187.24
369.28	283.20
369.48	266.82
369.68	362.78
369.87	292.57
370.07	252.78
370.27	325.33
370.47	271.50
370.66	376.83
370.86	306.61
371.06	337.04
371.25	416.62
371.45	344.06
371.65	376.83
371.84	418.96
372.04	308.95
372.24	383.85
372.44	362.78
372.63	386.19
372.83	388.53
373.03	311.29
373.22	353.42
373.42	369.80
373.62	468.11
373.81	437.68
374.01	409.59
374.21	449.38
374.40	355.76
374.60	437.68
374.79	442.36
374.99	428.32
375.19	430.66
375.38	463.43
375.58	381.51
375.78	444.70
375.97	435.34
376.17	493.85
376.37	454.06
376.56	395.55
376.76	397.89
376.95	372.15
377.15	425.98
377.35	376.83
377.54	393.21
377.74	437.68
377.93	395.55
378.13	430.66
378.33	365.12
378.52	360.44
378.72	404.91
378.91	449.38
379.11	381.51
379.31	374.49
379.50	344.06
379.70	418.96
379.89	395.55
380.09	397.89
380.28	332.36
380.48	374.49
380.68	447.04
380.87	468.11
381.07	372.15
381.26	458.74
381.46	358.10
381.65	414.27
381.85	379.17
382.04	451.72
382.24	383.85
382.43	369.80
382.63	397.89
382.83	414.27
383.02	414.27
383.22	463.43
383.41	440.02
383.61	433.00
383.80	367.46
384.00	425.98
384.19	472.79
384.39	454.06
384.58	386.19
384.78	500.87
384.97	404.91
385.17	374.49
385.36	327.68
385.56	461.09
385.75	421.30
385.95	442.36
386.14	421.30
386.34	344.06
386.53	433.00
386.72	395.55
386.92	442.36
387.11	449.38
387.31	425.98
387.50	423.64
387.70	376.83
387.89	409.59
388.09	374.49
388.28	388.53
388.48	435.34
388.67	435.34
388.86	388.53
389.06	367.46
389.25	393.21
389.45	454.06
389.64	479.81
389.84	379.17
390.03	388.53
390.22	365.12
390.42	379.17
390.61	327.68
390.81	444.70
391.00	407.25
391.19	449.38
391.39	423.64
391.58	381.51
391.78	383.85
391.97	491.51
392.16	367.46
392.36	449.38
392.55	425.98
392.75	346.40
392.94	423.64
393.13	444.70
393.33	374.49
393.52	365.12
393.71	428.32
393.91	376.83
394.10	376.83
394.29	372.15
394.49	423.64
394.68	386.19
394.88	393.21
395.07	411.93
395.26	430.66
395.46	383.85
395.65	442.36
395.84	393.21
396.04	435.34
396.23	381.51
396.42	348.74
396.62	447.04
396.81	400.23
397.00	353.42
397.19	348.74
397.39	416.62
397.58	383.85
397.77	435.34
397.97	411.93
398.16	379.17
398.35	402.57
398.55	456.40
398.74	428.32
398.93	447.04
399.12	416.62
399.32	388.53
399.51	355.76
399.70	355.76
399.90	421.30
400.09	404.91
400.28	489.17
400.47	449.38
400.67	402.57
400.86	433.00
401.05	393.21
401.24	393.21
401.44	425.98
401.63	437.68
401.82	404.91
402.01	386.19
402.21	395.55
402.40	388.53
402.59	379.17
402.78	386.19
402.97	411.93
403.17	390.87
403.36	358.10
403.55	463.43
403.74	414.27
403.93	404.91
404.13	486.83
404.32	418.96
404.51	367.46
404.70	409.59
404.89	301.93
405.09	430.66
405.28	395.55
405.47	388.53
405.66	407.25
405.85	449.38
406.05	454.06
406.24	353.42
406.43	386.19
406.62	442.36
406.81	423.64
407.00	458.74
407.20	418.96
407.39	503.22
407.58	414.27
407.77	428.32
407.96	531.30
408.15	444.70
408.34	433.00
408.54	465.77
408.73	425.98
408.92	421.30
409.11	416.62
409.30	430.66
409.49	395.55
409.68	367.46
409.87	402.57
410.07	423.64
410.26	423.64
410.45	440.02
410.64	447.04
410.83	386.19
411.02	444.70
411.21	461.09
411.40	358.10
411.59	388.53
411.78	423.64
411.98	458.74
412.17	425.98
412.36	454.06
412.55	458.74
412.74	411.93
412.93	386.19
413.12	414.27
413.31	409.59
413.50	477.47
413.69	386.19
413.88	379.17
414.07	421.30
414.26	423.64
414.45	411.93
414.64	409.59
414.83	400.23
415.02	358.10
415.22	418.96
415.41	414.27
415.60	395.55
415.79	400.23
415.98	503.22
416.17	344.06
416.36	383.85
416.55	421.30
416.74	433.00
416.93	372.15
417.12	440.02
417.31	442.36
417.50	470.45
417.69	463.43
417.88	414.27
418.07	318.31
418.26	470.45
418.45	374.49
418.64	437.68
418.83	344.06
419.02	388.53
419.21	376.83
419.39	456.40
419.58	390.87
419.77	393.21
419.96	435.34
420.15	358.10
420.34	376.83
420.53	379.17
420.72	409.59
420.91	395.55
421.10	411.93
421.29	383.85
421.48	381.51
421.67	475.13
421.86	400.23
422.05	393.21
422.24	470.45
422.43	330.02
422.61	404.91
422.80	379.17
422.99	388.53
423.18	381.51
423.37	479.81
423.56	407.25
423.75	444.70
423.94	379.17
424.13	374.49
424.32	402.57
424.50	468.11
424.69	423.64
424.88	411.93
425.07	402.57
425.26	442.36
425.45	433.00
425.64	416.62
425.83	433.00
426.01	444.70
426.20	416.62
426.39	428.32
426.58	407.25
426.77	402.57
426.96	362.78
427.15	390.87
427.33	407.25
427.52	409.59
427.71	423.64
427.90	437.68
428.09	390.87
428.28	355.76
428.46	421.30
428.65	430.66
428.84	442.36
429.03	454.06
429.22	372.15
429.40	470.45
429.59	435.34
429.78	400.23
429.97	440.02
430.16	407.25
430.34	449.38
430.53	470.45
430.72	386.19
430.91	416.62
431.10	421.30
431.28	449.38
431.47	407.25
431.66	456.40
431.85	468.11
432.03	400.23
432.22	442.36
432.41	386.19
432.60	390.87
432.79	411.93
432.97	435.34
433.16	428.32
433.35	355.76
433.54	447.04
433.72	442.36
433.91	393.21
434.10	397.89
434.28	451.72
434.47	418.96
434.66	386.19
434.85	404.91
435.03	407.25
435.22	440.02
435.41	418.96
435.59	351.08
435.78	430.66
435.97	327.68
436.16	416.62
436.34	409.59
436.53	435.34
436.72	451.72
436.90	449.38
437.09	404.91
437.28	449.38
437.46	444.70
437.65	430.66
437.84	421.30
438.02	400.23
438.21	395.55
438.40	463.43
438.58	416.62
438.77	475.13
438.96	409.59
439.14	393.21
439.33	388.53
439.52	430.66
439.70	454.06
439.89	514.92
440.08	514.92
440.26	425.98
440.45	414.27
440.63	454.06
440.82	486.83
441.01	388.53
441.19	388.53
441.38	423.64
441.57	374.49
441.75	421.30
441.94	418.96
442.12	400.23
442.31	402.57
442.50	437.68
442.68	484.49
442.87	430.66
443.05	437.68
443.24	381.51
443.43	468.11
443.61	411.93
443.80	416.62
443.98	430.66
444.17	433.00
444.35	444.70
444.54	390.87
444.73	388.53
444.91	414.27
445.10	437.68
445.28	383.85
445.47	418.96
445.65	433.00
445.84	440.02
446.02	400.23
446.21	369.80
446.39	383.85
446.58	486.83
446.77	402.57
446.95	440.02
447.14	414.27
447.32	425.98
447.51	491.51
447.69	381.51
447.88	362.78
448.06	449.38
448.25	444.70
448.43	414.27
448.62	381.51
448.80	440.02
448.99	433.00
449.17	400.23
449.36	433.00
449.54	423.64
449.73	442.36
449.91	447.04
450.10	423.64
450.28	451.72
450.46	451.72
450.65	428.32
450.83	433.00
451.02	454.06
451.20	402.57
451.39	395.55
451.57	461.09
451.76	421.30
451.94	414.27
452.13	435.34
452.31	458.74
452.49	433.00
452.68	409.59
452.86	353.42
453.05	411.93
453.23	400.23
453.42	393.21
453.60	409.59
453.78	468.11
453.97	397.89
454.15	381.51
454.34	454.06
454.52	404.91
454.70	442.36
454.89	421.30
455.07	407.25
455.26	433.00
455.44	425.98
455.62	472.79
455.81	374.49
455.99	393.21
456.17	423.64
456.36	493.85
456.54	437.68
456.73	414.27
456.91	379.17
457.09	411.93
457.28	430.66
457.46	411.93
457.64	416.62
457.83	433.00
458.01	442.36
458.19	395.55
458.38	435.34
458.56	465.77
458.74	442.36
458.93	411.93
459.11	470.45
459.29	416.62
459.48	461.09
459.66	360.44
459.84	444.70
460.03	451.72
460.21	484.49
460.39	440.02
460.57	458.74
460.76	444.70
460.94	435.34
461.12	383.85
461.31	416.62
461.49	465.77
461.67	414.27
461.85	404.91
462.04	327.68
462.22	763.01
462.40	456.40
462.59	444.70
462.77	381.51
462.95	440.02
463.13	344.06
463.32	404.91
463.50	381.51
463.68	433.00
463.86	444.70
464.05	472.79
464.23	437.68
464.41	416.62
464.59	430.66
464.78	400.23
464.96	362.78
465.14	388.53
465.32	416.62
465.50	411.93
465.69	418.96
465.87	400.23
466.05	430.66
466.23	421.30
466.41	369.80
466.60	407.25
466.78	390.87
466.96	428.32
467.14	451.72
467.32	482.15
467.51	423.64
467.69	402.57
467.87	444.70
468.05	365.12
468.23	468.11
468.41	479.81
468.60	470.45
468.78	484.49
468.96	489.17
469.14	404.91
469.32	332.36
469.50	332.36
469.69	454.06
469.87	416.62
470.05	376.83
470.23	463.43
470.41	358.10
470.59	362.78
470.77	433.00
470.95	407.25
471.14	472.79
471.32	407.25
471.50	433.00
471.68	454.06
471.86	437.68
472.04	456.40
472.22	468.11
472.40	327.68
472.58	423.64
472.77	400.23
472.95	358.10
473.13	416.62
473.31	465.77
473.49	379.17
473.67	351.08
473.85	442.36
474.03	395.55
474.21	449.38
474.39	444.70
474.57	451.72
474.75	404.91
474.93	400.23
475.12	482.15
475.30	416.62
475.48	418.96
475.66	372.15
475.84	454.06
476.02	404.91
476.20	475.13
476.38	411.93
476.56	458.74
476.74	395.55
476.92	402.57
477.10	395.55
477.28	393.21
477.46	409.59
477.64	411.93
477.82	367.46
478.00	404.91
478.18	397.89
478.36	421.30
478.54	477.47
478.72	388.53
478.90	369.80
479.08	472.79
479.26	430.66
479.44	468.11
479.62	367.46
479.80	425.98
479.98	416.62
480.16	402.57
480.34	367.46
480.52	386.19
480.70	369.80
480.88	411.93
481.06	390.87
481.24	414.27
481.41	437.68
481.59	395.55
481.77	365.12
481.95	393.21
482.13	482.15
482.31	400.23
482.49	411.93
482.67	477.47
482.85	461.09
483.03	418.96
483.21	463.43
483.39	351.08
483.57	449.38
483.74	489.17
483.92	383.85
484.10	404.91
484.28	442.36
484.46	496.19
484.64	428.32
484.82	444.70
485.00	360.44
485.18	433.00
485.35	451.72
485.53	409.59
485.71	425.98
485.89	435.34
486.07	416.62
486.25	425.98
486.43	383.85
486.61	360.44
486.78	442.36
486.96	416.62
487.14	360.44
487.32	428.32
487.50	365.12
487.68	447.04
487.85	390.87
488.03	437.68
488.21	449.38
488.39	411.93
488.57	411.93
488.75	355.76
488.92	449.38
489.10	500.87
489.28	468.11
489.46	451.72
489.64	383.85
489.81	437.68
489.99	444.70
490.17	416.62
490.35	514.92
490.53	411.93
490.70	376.83
490.88	442.36
491.06	367.46
491.24	362.78
491.41	397.89
491.59	449.38
491.77	322.99
491.95	421.30
492.13	367.46
492.30	397.89
492.48	411.93
492.66	407.25
492.84	454.06
493.01	374.49
493.19	442.36
493.37	465.77
493.54	383.85
493.72	489.17
493.90	418.96
494.08	447.04
494.25	430.66
494.43	409.59
494.61	393.21
494.79	407.25
494.96	386.19
495.14	388.53
495.32	421.30
495.49	463.43
495.67	379.17
495.85	388.53
496.02	381.51
496.20	411.93
496.38	367.46
496.55	433.00
496.73	397.89
496.91	449.38
497.09	423.64
497.26	407.25
497.44	468.11
497.62	440.02
497.79	379.17
497.97	440.02
498.14	468.11
498.32	440.02
498.50	386.19
498.67	374.49
498.85	362.78
499.03	437.68
499.20	433.00
499.38	435.34
499.56	416.62
499.73	440.02
499.91	379.17
500.08	484.49
500.26	430.66
500.44	444.70
500.61	414.27
500.79	430.66
500.97	433.00
501.14	421.30
501.32	475.13
501.49	421.30
501.67	404.91
501.84	381.51
502.02	339.38
502.20	416.62
502.37	416.62
502.55	454.06
502.72	400.23
502.90	463.43
503.07	388.53
503.25	489.17
503.43	348.74
503.60	428.32
503.78	374.49
503.95	381.51
504.13	437.68
504.30	423.64
504.48	411.93
504.65	463.43
504.83	440.02
505.01	484.49
505.18	463.43
505.36	465.77
505.53	454.06
505.71	369.80
505.88	393.21
506.06	379.17
506.23	379.17
506.41	468.11
506.58	367.46
506.76	393.21
506.93	449.38
507.11	482.15
507.28	397.89
507.46	425.98
507.63	388.53
507.81	374.49
507.98	383.85
508.16	381.51
508.33	407.25
508.50	379.17
508.68	353.42
508.85	447.04
509.03	493.85
509.20	444.70
509.38	386.19
509.55	353.42
509.73	442.36
509.90	414.27
510.08	437.68
510.25	423.64
510.42	404.91
510.60	454.06
510.77	409.59
510.95	409.59
511.12	451.72
511.30	517.26
511.47	409.59
511.64	507.90
511.82	407.25
511.99	388.53
512.17	360.44
512.34	397.89
512.51	411.93
512.69	416.62
512.86	447.04
513.04	393.21
513.21	411.93
513.38	437.68
513.56	440.02
513.73	484.49
513.90	383.85
514.08	376.83
514.25	400.23
514.43	430.66
514.60	479.81
514.77	496.19
514.95	425.98
515.12	299.59
515.29	456.40
515.47	395.55
515.64	388.53
515.81	414.27
515.99	395.55
516.16	425.98
516.33	397.89
516.51	374.49
516.68	379.17
516.85	433.00
517.03	463.43
517.20	454.06
517.37	407.25
517.54	397.89
517.72	418.96
517.89	435.34
518.06	365.12
518.24	482.15
518.41	414.27
518.58	444.70
518.75	468.11
518.93	442.36
519.10	395.55
519.27	491.51
519.45	386.19
519.62	409.59
519.79	379.17
519.96	468.11
520.14	381.51
520.31	383.85
520.48	411.93
520.65	376.83
520.83	456.40
521.00	475.13
521.17	409.59
521.34	395.55
521.52	428.32
521.69	395.55
521.86	447.04
522.03	425.98
522.20	486.83
522.38	512.58
522.55	449.38
522.72	383.85
522.89	465.77
523.07	461.09
523.24	346.40
523.41	404.91
523.58	390.87
523.75	425.98
523.92	390.87
524.10	425.98
524.27	362.78
524.44	379.17
524.61	428.32
524.78	315.97
524.96	461.09
525.13	465.77
525.30	418.96
525.47	456.40
525.64	404.91
525.81	430.66
525.98	484.49
526.16	379.17
526.33	334.70
526.50	341.72
526.67	383.85
526.84	395.55
527.01	404.91
527.18	390.87
527.36	477.47
527.53	416.62
527.70	435.34
527.87	383.85
528.04	493.85
528.21	475.13
528.38	397.89
528.55	388.53
528.72	458.74
528.89	475.13
529.07	416.62
529.24	393.21
529.41	407.25
529.58	435.34
529.75	360.44
529.92	533.64
530.09	437.68
530.26	444.70
530.43	423.64
530.60	411.93
530.77	470.45
530.94	425.98
531.11	411.93
531.28	437.68
531.46	313.63
531.63	409.59
531.80	409.59
531.97	411.93
532.14	381.51
532.31	383.85
532.48	451.72
532.65	425.98
532.82	400.23
532.99	418.96
533.16	404.91
533.33	423.64
533.50	388.53
533.67	369.80
533.84	400.23
534.01	381.51
534.18	379.17
534.35	351.08
534.52	454.06
534.69	442.36
534.86	449.38
535.03	400.23
535.20	393.21
535.37	428.32
535.54	367.46
535.71	447.04
535.88	440.02
536.05	414.27
536.22	409.59
536.38	407.25
536.55	428.32
536.72	440.02
536.89	437.68
537.06	395.55
537.23	407.25
537.40	421.30
537.57	414.27
537.74	390.87
537.91	461.09
538.08	440.02
538.25	402.57
538.42	393.21
538.59	428.32
538.75	493.85
538.92	397.89
539.09	409.59
539.26	383.85
539.43	489.17
539.60	407.25
539.77	472.79
539.94	395.55
540.11	379.17
540.28	402.57
540.44	416.62
540.61	355.76
540.78	332.36
540.95	414.27
541.12	383.85
541.29	334.70
541.46	489.17
541.62	451.72
541.79	339.38
541.96	383.85
542.13	388.53
542.30	449.38
542.47	479.81
542.63	386.19
542.80	449.38
542.97	465.77
543.14	379.17
543.31	414.27
543.48	433.00
543.64	442.36
543.81	421.30
543.98	369.80
544.15	388.53
544.32	444.70
544.48	451.72
544.65	374.49
544.82	409.59
544.99	425.98
545.16	461.09
545.32	442.36
545.49	458.74
545.66	367.46
545.83	346.40
546.00	500.87
546.16	407.25
546.33	435.34
546.50	351.08
546.67	402.57
546.83	498.53
547.00	407.25
547.17	367.46
547.34	411.93
547.50	383.85
547.67	421.30
547.84	435.34
548.00	416.62
548.17	440.02
548.34	472.79
548.51	397.89
548.67	447.04
548.84	437.68
549.01	472.79
549.18	414.27
549.34	376.83
549.51	472.79
549.68	444.70
549.84	454.06
550.01	402.57
550.18	451.72
550.34	517.26
550.51	458.74
550.68	528.96
550.84	381.51
551.01	454.06
551.18	458.74
551.34	409.59
551.51	397.89
551.68	390.87
551.84	435.34
552.01	425.98
552.18	376.83
552.34	393.21
552.51	514.92
552.68	449.38
552.84	379.17
553.01	444.70
553.18	496.19
553.34	339.38
553.51	390.87
553.67	402.57
553.84	456.40
554.01	416.62
554.17	407.25
554.34	449.38
554.51	468.11
554.67	449.38
554.84	461.09
555.00	484.49
555.17	461.09
555.33	379.17
555.50	353.42
555.67	407.25
555.83	433.00
556.00	468.11
556.16	554.71
556.33	454.06
556.50	407.25
556.66	381.51
556.83	367.46
556.99	379.17
557.16	404.91
557.32	470.45
557.49	353.42
557.65	407.25
557.82	362.78
557.98	430.66
558.15	414.27
558.32	407.25
558.48	435.34
558.65	414.27
558.81	447.04
558.98	414.27
559.14	470.45
559.31	404.91
559.47	397.89
559.64	449.38
559.80	358.10
559.97	418.96
560.13	383.85
560.30	435.34
560.46	379.17
560.63	386.19
560.79	362.78
560.96	414.27
561.12	472.79
561.29	416.62
561.45	449.38
561.61	440.02
561.78	430.66
561.94	388.53
562.11	388.53
562.27	372.15
562.44	428.32
562.60	433.00
562.77	425.98
562.93	425.98
563.10	416.62
563.26	362.78
563.42	493.85
563.59	418.96
563.75	372.15
563.92	526.62
564.08	470.45
564.24	393.21
564.41	479.81
564.57	416.62
564.74	458.74
564.90	454.06
565.07	390.87
565.23	397.89
565.39	468.11
565.56	379.17
565.72	440.02
565.88	325.33
566.05	472.79
566.21	472.79
566.38	418.96
566.54	393.21
566.70	423.64
566.87	404.91
567.03	435.34
567.19	425.98
567.36	526.62
567.52	463.43
567.68	374.49
567.85	503.22
568.01	379.17
568.17	482.15
568.34	470.45
568.50	442.36
568.66	433.00
568.83	458.74
568.99	383.85
569.15	440.02
569.32	440.02
569.48	430.66
569.64	435.34
569.81	379.17
569.97	442.36
570.13	440.02
570.30	423.64
570.46	376.83
570.62	425.98
570.78	430.66
570.95	421.30
571.11	442.36
571.27	475.13
571.43	346.40
571.60	449.38
571.76	493.85
571.92	334.70
572.09	430.66
572.25	374.49
572.41	430.66
572.57	440.02
572.74	390.87
572.90	416.62
573.06	500.87
573.22	388.53
573.38	486.83
573.55	468.11
573.71	447.04
573.87	440.02
574.03	327.68
574.20	411.93
574.36	423.64
574.52	470.45
574.68	404.91
574.84	414.27
575.01	348.74
575.17	362.78
575.33	374.49
575.49	421.30
575.65	423.64
575.82	390.87
575.98	383.85
576.14	402.57
576.30	444.70
576.46	351.08
576.62	437.68
576.79	421.30
576.95	390.87
577.11	393.21
577.27	458.74
577.43	484.49
577.59	367.46
577.75	440.02
577.92	390.87
578.08	447.04
578.24	435.34
578.40	472.79
578.56	435.34
578.72	390.87
578.88	479.81
579.04	486.83
579.21	397.89
579.37	409.59
579.53	463.43
579.69	447.04
579.85	400.23
580.01	416.62
580.17	430.66
580.33	348.74
580.49	433.00
580.65	463.43
580.82	456.40
580.98	402.57
581.14	440.02
581.30	475.13
581.46	470.45
581.62	442.36
581.78	486.83
581.94	440.02
582.10	449.38
582.26	479.81
582.42	376.83
582.58	482.15
582.74	360.44
582.90	442.36
583.06	447.04
583.22	470.45
583.38	468.11
583.54	337.04
583.70	477.47
583.86	418.96
584.02	449.38
584.18	449.38
584.34	393.21
584.50	362.78
584.66	472.79
584.82	386.19
584.98	430.66
585.14	348.74
585.30	470.45
585.46	421.30
585.62	395.55
585.78	423.64
585.94	404.91
586.10	472.79
586.26	397.89
586.42	451.72
586.58	519.60
586.74	400.23
586.90	402.57
587.06	433.00
587.22	435.34
587.38	374.49
587.54	409.59
587.70	470.45
587.86	468.11
588.02	433.00
588.18	463.43
588.34	379.17
588.49	411.93
588.65	388.53
588.81	400.23
588.97	390.87
589.13	414.27
589.29	449.38
589.45	475.13
589.61	444.70
589.77	423.64
589.93	409.59
590.08	337.04
590.24	414.27
590.40	461.09
590.56	409.59
590.72	433.00
590.88	442.36
591.04	428.32
591.20	496.19
591.35	454.06
591.51	433.00
591.67	388.53
591.83	383.85
591.99	367.46
592.15	379.17
592.31	383.85
592.46	479.81
592.62	428.32
592.78	362.78
592.94	416.62
593.10	428.32
593.26	402.57
593.41	397.89
593.57	411.93
593.73	409.59
593.89	437.68
594.05	395.55
594.20	444.70
594.36	407.25
594.52	397.89
594.68	416.62
594.84	397.89
594.99	379.17
595.15	381.51
595.31	379.17
595.47	447.04
595.62	416.62
595.78	400.23
595.94	381.51
596.10	421.30
596.25	451.72
596.41	463.43
596.57	409.59
596.73	437.68
596.88	440.02
597.04	437.68
597.20	409.59
597.36	409.59
597.51	369.80
597.67	390.87
597.83	379.17
597.99	454.06
598.14	449.38
598.30	404.91
598.46	402.57
598.61	463.43
598.77	383.85
598.93	404.91
599.09	425.98
599.24	423.64
599.40	430.66
599.56	433.00
599.71	369.80
599.87	416.62
600.03	397.89
600.18	388.53
600.34	386.19
600.50	458.74
600.65	416.62
600.81	360.44
600.97	454.06
601.12	360.44
601.28	437.68
601.44	409.59
601.59	393.21
601.75	447.04
601.91	447.04
602.06	411.93
602.22	519.60
602.37	390.87
602.53	395.55
602.69	425.98
602.84	449.38
603.00	390.87
603.16	397.89
603.31	400.23
603.47	379.17
603.62	421.30
603.78	407.25
603.94	451.72
604.09	416.62
604.25	440.02
604.40	402.57
604.56	493.85
604.71	407.25
604.87	421.30
605.03	465.77
605.18	435.34
605.34	444.70
605.49	418.96
605.65	393.21
605.80	430.66
605.96	444.70
606.12	440.02
606.27	400.23
606.43	465.77
606.58	421.30
606.74	475.13
606.89	400.23
607.05	428.32
607.20	465.77
607.36	454.06
607.51	376.83
607.67	386.19
607.82	416.62
607.98	421.30
608.13	411.93
608.29	418.96
608.44	503.22
608.60	461.09
608.75	421.30
608.91	477.47
609.06	418.96
609.22	444.70
609.37	365.12
609.53	414.27
609.68	395.55
609.84	449.38
609.99	397.89
610.15	449.38
