SpectraSuite Data File
++++++++++++++++++++++++++++++++++++
Date: Fri Oct 25 12:10:39 EDT 2013
User: price-jones
Dark Spectrum Present: No
Reference Spectrum Present: No
Number of Sampled Component Spectra: 1
Spectrometers: USB2+H05261
Integration Time (usec): 100000 (USB2+H05261)
Spectra Averaged: 1 (USB2+H05261)
Boxcar Smoothing: 0 (USB2+H05261)
Correct for Electrical Dark: No (USB2+H05261)
Strobe/Lamp Enabled: No (USB2+H05261)
Correct for Detector Non-linearity: No (USB2+H05261)
Correct for Stray Light: No (USB2+H05261)
Number of Pixels in Processed Spectrum: 2048
>>>>>Begin Processed Spectral Data<<<<<
365.73	344.06
365.92	344.06
366.12	344.06
366.32	243.42
366.52	238.73
366.72	297.25
366.91	245.76
367.11	159.16
367.31	290.23
367.51	292.57
367.70	229.37
367.90	224.69
368.10	210.65
368.30	262.14
368.49	208.31
368.69	285.55
368.89	285.55
369.09	229.37
369.28	292.57
369.48	320.65
369.68	355.76
369.87	294.91
370.07	266.82
370.27	294.91
370.47	287.89
370.66	407.25
370.86	407.25
371.06	351.08
371.25	372.15
371.45	411.93
371.65	390.87
371.84	344.06
372.04	374.49
372.24	425.98
372.44	416.62
372.63	379.17
372.83	351.08
373.03	351.08
373.22	369.80
373.42	402.57
373.62	397.89
373.81	449.38
374.01	433.00
374.21	451.72
374.40	379.17
374.60	409.59
374.79	402.57
374.99	388.53
375.19	386.19
375.38	451.72
375.58	397.89
375.78	423.64
375.97	442.36
376.17	472.79
376.37	402.57
376.56	433.00
376.76	376.83
376.95	339.38
377.15	440.02
377.35	444.70
377.54	358.10
377.74	388.53
377.93	397.89
378.13	407.25
378.33	444.70
378.52	379.17
378.72	411.93
378.91	449.38
379.11	395.55
379.31	374.49
379.50	379.17
379.70	433.00
379.89	477.47
380.09	425.98
380.28	358.10
380.48	425.98
380.68	433.00
380.87	379.17
381.07	414.27
381.26	402.57
381.46	341.72
381.65	416.62
381.85	461.09
382.04	346.40
382.24	407.25
382.43	315.97
382.63	383.85
382.83	393.21
383.02	409.59
383.22	449.38
383.41	416.62
383.61	383.85
383.80	390.87
384.00	421.30
384.19	325.33
384.39	369.80
384.58	411.93
384.78	440.02
384.97	421.30
385.17	440.02
385.36	402.57
385.56	447.04
385.75	381.51
385.95	313.63
386.14	444.70
386.34	468.11
386.53	442.36
386.72	374.49
386.92	435.34
387.11	433.00
387.31	383.85
387.50	383.85
387.70	409.59
387.89	341.72
388.09	414.27
388.28	423.64
388.48	339.38
388.67	423.64
388.86	418.96
389.06	381.51
389.25	379.17
389.45	346.40
389.64	344.06
389.84	435.34
390.03	411.93
390.22	404.91
390.42	393.21
390.61	395.55
390.81	337.04
391.00	437.68
391.19	409.59
391.39	301.93
391.58	411.93
391.78	409.59
391.97	407.25
392.16	386.19
392.36	437.68
392.55	388.53
392.75	416.62
392.94	414.27
393.13	402.57
393.33	337.04
393.52	374.49
393.71	447.04
393.91	428.32
394.10	388.53
394.29	400.23
394.49	447.04
394.68	325.33
394.88	414.27
395.07	475.13
395.26	414.27
395.46	397.89
395.65	353.42
395.84	421.30
396.04	423.64
396.23	404.91
396.42	416.62
396.62	411.93
396.81	383.85
397.00	442.36
397.19	346.40
397.39	416.62
397.58	437.68
397.77	428.32
397.97	456.40
398.16	376.83
398.35	416.62
398.55	358.10
398.74	351.08
398.93	423.64
399.12	416.62
399.32	435.34
399.51	423.64
399.70	442.36
399.90	444.70
400.09	458.74
400.28	390.87
400.47	475.13
400.67	381.51
400.86	414.27
401.05	407.25
401.24	402.57
401.44	440.02
401.63	423.64
401.82	325.33
402.01	379.17
402.21	400.23
402.40	454.06
402.59	409.59
402.78	425.98
402.97	374.49
403.17	409.59
403.36	411.93
403.55	383.85
403.74	397.89
403.93	386.19
404.13	430.66
404.32	351.08
404.51	386.19
404.70	402.57
404.89	463.43
405.09	383.85
405.28	360.44
405.47	418.96
405.66	411.93
405.85	461.09
406.05	423.64
406.24	348.74
406.43	463.43
406.62	433.00
406.81	433.00
407.00	388.53
407.20	442.36
407.39	404.91
407.58	376.83
407.77	393.21
407.96	365.12
408.15	313.63
408.34	486.83
408.54	421.30
408.73	404.91
408.92	393.21
409.11	416.62
409.30	477.47
409.49	402.57
409.68	409.59
409.87	400.23
410.07	390.87
410.26	369.80
410.45	409.59
410.64	383.85
410.83	372.15
411.02	428.32
411.21	493.85
411.40	353.42
411.59	437.68
411.78	374.49
411.98	374.49
412.17	447.04
412.36	411.93
412.55	440.02
412.74	344.06
412.93	435.34
413.12	409.59
413.31	498.53
413.50	418.96
413.69	360.44
413.88	456.40
414.07	416.62
414.26	430.66
414.45	355.76
414.64	407.25
414.83	463.43
415.02	437.68
415.22	367.46
415.41	428.32
415.60	449.38
415.79	423.64
415.98	395.55
416.17	388.53
416.36	421.30
416.55	287.89
416.74	376.83
416.93	388.53
417.12	381.51
417.31	367.46
417.50	411.93
417.69	510.24
417.88	390.87
418.07	423.64
418.26	388.53
418.45	341.72
418.64	503.22
418.83	409.59
419.02	458.74
419.21	433.00
419.39	358.10
419.58	395.55
419.77	409.59
419.96	395.55
420.15	458.74
420.34	379.17
420.53	400.23
420.72	416.62
420.91	468.11
421.10	458.74
421.29	407.25
421.48	500.87
421.67	463.43
421.86	407.25
422.05	449.38
422.24	339.38
422.43	430.66
422.61	386.19
422.80	447.04
422.99	425.98
423.18	428.32
423.37	444.70
423.56	416.62
423.75	402.57
423.94	418.96
424.13	437.68
424.32	449.38
424.50	379.17
424.69	414.27
424.88	475.13
425.07	358.10
425.26	416.62
425.45	440.02
425.64	454.06
425.83	421.30
426.01	458.74
426.20	362.78
426.39	346.40
426.58	414.27
426.77	409.59
426.96	409.59
427.15	458.74
427.33	425.98
427.52	442.36
427.71	400.23
427.90	500.87
428.09	449.38
428.28	374.49
428.46	397.89
428.65	425.98
428.84	437.68
429.03	433.00
429.22	400.23
429.40	367.46
429.59	339.38
429.78	430.66
429.97	407.25
430.16	470.45
430.34	402.57
430.53	388.53
430.72	404.91
430.91	416.62
431.10	386.19
431.28	404.91
431.47	381.51
431.66	437.68
431.85	472.79
432.03	468.11
432.22	421.30
432.41	360.44
432.60	447.04
432.79	397.89
432.97	423.64
433.16	400.23
433.35	362.78
433.54	351.08
433.72	404.91
433.91	376.83
434.10	414.27
434.28	360.44
434.47	397.89
434.66	383.85
434.85	447.04
435.03	468.11
435.22	414.27
435.41	423.64
435.59	376.83
435.78	388.53
435.97	430.66
436.16	416.62
436.34	414.27
436.53	493.85
436.72	468.11
436.90	355.76
437.09	435.34
437.28	397.89
437.46	365.12
437.65	355.76
437.84	444.70
438.02	414.27
438.21	430.66
438.40	447.04
438.58	341.72
438.77	409.59
438.96	390.87
439.14	470.45
439.33	444.70
439.52	372.15
439.70	425.98
439.89	444.70
440.08	526.62
440.26	458.74
440.45	386.19
440.63	404.91
440.82	437.68
441.01	383.85
441.19	447.04
441.38	442.36
441.57	428.32
441.75	404.91
441.94	493.85
442.12	411.93
442.31	409.59
442.50	402.57
442.68	428.32
442.87	402.57
443.05	351.08
443.24	397.89
443.43	458.74
443.61	404.91
443.80	461.09
443.98	428.32
444.17	397.89
444.35	451.72
444.54	365.12
444.73	411.93
444.91	444.70
445.10	421.30
445.28	414.27
445.47	442.36
445.65	402.57
445.84	393.21
446.02	407.25
446.21	367.46
446.39	421.30
446.58	409.59
446.77	362.78
446.95	395.55
447.14	442.36
447.32	440.02
447.51	449.38
447.69	381.51
447.88	386.19
448.06	472.79
448.25	409.59
448.43	372.15
448.62	418.96
448.80	456.40
448.99	416.62
449.17	395.55
449.36	315.97
449.54	404.91
449.73	463.43
449.91	362.78
450.10	383.85
450.28	489.17
450.46	463.43
450.65	430.66
450.83	400.23
451.02	442.36
451.20	456.40
451.39	390.87
451.57	388.53
451.76	386.19
451.94	435.34
452.13	496.19
452.31	383.85
452.49	482.15
452.68	379.17
452.86	395.55
453.05	512.58
453.23	411.93
453.42	402.57
453.60	383.85
453.78	339.38
453.97	374.49
454.15	447.04
454.34	433.00
454.52	346.40
454.70	440.02
454.89	447.04
455.07	428.32
455.26	418.96
455.44	409.59
455.62	430.66
455.81	444.70
455.99	470.45
456.17	465.77
456.36	395.55
456.54	449.38
456.73	315.97
456.91	400.23
457.09	386.19
457.28	421.30
457.46	411.93
457.64	444.70
457.83	320.65
458.01	416.62
458.19	416.62
458.38	325.33
458.56	440.02
458.74	407.25
458.93	353.42
459.11	458.74
459.29	374.49
459.48	472.79
459.66	440.02
459.84	484.49
460.03	437.68
460.21	505.56
460.39	372.15
460.57	430.66
460.76	437.68
460.94	458.74
461.12	414.27
461.31	545.34
461.49	456.40
461.67	348.74
461.85	484.49
462.04	388.53
462.22	704.50
462.40	435.34
462.59	433.00
462.77	400.23
462.95	383.85
463.13	404.91
463.32	376.83
463.50	360.44
463.68	425.98
463.86	463.43
464.05	461.09
464.23	358.10
464.41	463.43
464.59	433.00
464.78	442.36
464.96	367.46
465.14	447.04
465.32	493.85
465.50	400.23
465.69	472.79
465.87	365.12
466.05	430.66
466.23	299.59
466.41	423.64
466.60	428.32
466.78	407.25
466.96	430.66
467.14	381.51
467.32	430.66
467.51	402.57
467.69	414.27
467.87	390.87
468.05	344.06
468.23	479.81
468.41	444.70
468.60	475.13
468.78	383.85
468.96	449.38
469.14	418.96
469.32	421.30
469.50	430.66
469.69	416.62
469.87	444.70
470.05	353.42
470.23	482.15
470.41	411.93
470.59	444.70
470.77	456.40
470.95	442.36
471.14	440.02
471.32	374.49
471.50	489.17
471.68	397.89
471.86	318.31
472.04	388.53
472.22	400.23
472.40	388.53
472.58	435.34
472.77	348.74
472.95	423.64
473.13	472.79
473.31	433.00
473.49	421.30
473.67	339.38
473.85	423.64
474.03	442.36
474.21	437.68
474.39	383.85
474.57	449.38
474.75	400.23
474.93	442.36
475.12	374.49
475.30	379.17
475.48	472.79
475.66	428.32
475.84	393.21
476.02	407.25
476.20	409.59
476.38	421.30
476.56	404.91
476.74	409.59
476.92	449.38
477.10	360.44
477.28	409.59
477.46	395.55
477.64	407.25
477.82	411.93
478.00	418.96
478.18	337.04
478.36	421.30
478.54	395.55
478.72	367.46
478.90	372.15
479.08	411.93
479.26	440.02
479.44	447.04
479.62	458.74
479.80	393.21
479.98	404.91
480.16	409.59
480.34	411.93
480.52	449.38
480.70	465.77
480.88	437.68
481.06	388.53
481.24	402.57
481.41	390.87
481.59	390.87
481.77	447.04
481.95	472.79
482.13	465.77
482.31	458.74
482.49	390.87
482.67	428.32
482.85	444.70
483.03	409.59
483.21	430.66
483.39	390.87
483.57	435.34
483.74	496.19
483.92	383.85
484.10	390.87
484.28	489.17
484.46	442.36
484.64	451.72
484.82	442.36
485.00	393.21
485.18	416.62
485.35	393.21
485.53	435.34
485.71	388.53
485.89	379.17
486.07	393.21
486.25	503.22
486.43	470.45
486.61	517.26
486.78	395.55
486.96	346.40
487.14	416.62
487.32	404.91
487.50	339.38
487.68	397.89
487.85	390.87
488.03	472.79
488.21	409.59
488.39	369.80
488.57	393.21
488.75	414.27
488.92	493.85
489.10	407.25
489.28	454.06
489.46	395.55
489.64	409.59
489.81	400.23
489.99	348.74
490.17	411.93
490.35	496.19
490.53	409.59
490.70	416.62
490.88	393.21
491.06	390.87
491.24	416.62
491.41	411.93
491.59	383.85
491.77	404.91
491.95	341.72
492.13	383.85
492.30	386.19
492.48	418.96
492.66	411.93
492.84	447.04
493.01	365.12
493.19	330.02
493.37	397.89
493.54	428.32
493.72	461.09
493.90	461.09
494.08	409.59
494.25	404.91
494.43	477.47
494.61	381.51
494.79	400.23
494.96	372.15
495.14	465.77
495.32	440.02
495.49	470.45
495.67	449.38
495.85	470.45
496.02	447.04
496.20	461.09
496.38	454.06
496.55	404.91
496.73	374.49
496.91	444.70
497.09	365.12
497.26	381.51
497.44	425.98
497.62	376.83
497.79	388.53
497.97	444.70
498.14	498.53
498.32	486.83
498.50	433.00
498.67	397.89
498.85	369.80
499.03	447.04
499.20	491.51
499.38	374.49
499.56	404.91
499.73	437.68
499.91	416.62
500.08	416.62
500.26	369.80
500.44	379.17
500.61	372.15
500.79	411.93
500.97	376.83
501.14	367.46
501.32	355.76
501.49	475.13
501.67	423.64
501.84	437.68
502.02	369.80
502.20	498.53
502.37	454.06
502.55	404.91
502.72	433.00
502.90	444.70
503.07	444.70
503.25	383.85
503.43	411.93
503.60	393.21
503.78	433.00
503.95	440.02
504.13	414.27
504.30	447.04
504.48	440.02
504.65	393.21
504.83	463.43
505.01	423.64
505.18	355.76
505.36	362.78
505.53	409.59
505.71	414.27
505.88	409.59
506.06	355.76
506.23	404.91
506.41	423.64
506.58	383.85
506.76	444.70
506.93	379.17
507.11	456.40
507.28	407.25
507.46	404.91
507.63	458.74
507.81	379.17
507.98	393.21
508.16	433.00
508.33	367.46
508.50	435.34
508.68	449.38
508.85	449.38
509.03	416.62
509.20	327.68
509.38	442.36
509.55	442.36
509.73	456.40
509.90	463.43
510.08	461.09
510.25	461.09
510.42	386.19
510.60	365.12
510.77	442.36
510.95	404.91
511.12	437.68
511.30	442.36
511.47	386.19
511.64	425.98
511.82	400.23
511.99	517.26
512.17	395.55
512.34	397.89
512.51	381.51
512.69	428.32
512.86	402.57
513.04	402.57
513.21	442.36
513.38	397.89
513.56	461.09
513.73	465.77
513.90	418.96
514.08	437.68
514.25	414.27
514.43	393.21
514.60	360.44
514.77	348.74
514.95	407.25
515.12	355.76
515.29	381.51
515.47	414.27
515.64	402.57
515.81	519.60
515.99	411.93
516.16	386.19
516.33	451.72
516.51	411.93
516.68	440.02
516.85	437.68
517.03	428.32
517.20	440.02
517.37	449.38
517.54	447.04
517.72	472.79
517.89	402.57
518.06	444.70
518.24	475.13
518.41	395.55
518.58	418.96
518.75	423.64
518.93	379.17
519.10	418.96
519.27	425.98
519.45	470.45
519.62	423.64
519.79	430.66
519.96	451.72
520.14	402.57
520.31	463.43
520.48	379.17
520.65	365.12
520.83	463.43
521.00	493.85
521.17	388.53
521.34	435.34
521.52	411.93
521.69	437.68
521.86	397.89
522.03	454.06
522.20	402.57
522.38	407.25
522.55	482.15
522.72	449.38
522.89	447.04
523.07	498.53
523.24	337.04
523.41	360.44
523.58	416.62
523.75	425.98
523.92	435.34
524.10	470.45
524.27	383.85
524.44	414.27
524.61	416.62
524.78	482.15
524.96	470.45
525.13	437.68
525.30	365.12
525.47	430.66
525.64	376.83
525.81	348.74
525.98	435.34
526.16	395.55
526.33	358.10
526.50	358.10
526.67	365.12
526.84	393.21
527.01	440.02
527.18	372.15
527.36	397.89
527.53	402.57
527.70	430.66
527.87	369.80
528.04	428.32
528.21	468.11
528.38	435.34
528.55	369.80
528.72	461.09
528.89	470.45
529.07	402.57
529.24	315.97
529.41	470.45
529.58	395.55
529.75	442.36
529.92	416.62
530.09	390.87
530.26	416.62
530.43	372.15
530.60	430.66
530.77	404.91
530.94	388.53
531.11	395.55
531.28	421.30
531.46	423.64
531.63	500.87
531.80	433.00
531.97	444.70
532.14	454.06
532.31	454.06
532.48	442.36
532.65	437.68
532.82	395.55
532.99	465.77
533.16	409.59
533.33	493.85
533.50	493.85
533.67	407.25
533.84	421.30
534.01	416.62
534.18	425.98
534.35	435.34
534.52	351.08
534.69	337.04
534.86	463.43
535.03	442.36
535.20	388.53
535.37	428.32
535.54	367.46
535.71	437.68
535.88	475.13
536.05	409.59
536.22	433.00
536.38	418.96
536.55	486.83
536.72	437.68
536.89	437.68
537.06	395.55
537.23	341.72
537.40	388.53
537.57	442.36
537.74	442.36
537.91	428.32
538.08	390.87
538.25	383.85
538.42	411.93
538.59	498.53
538.75	456.40
538.92	346.40
539.09	449.38
539.26	353.42
539.43	517.26
539.60	425.98
539.77	498.53
539.94	376.83
540.11	430.66
540.28	397.89
540.44	404.91
540.61	360.44
540.78	435.34
540.95	386.19
541.12	418.96
541.29	411.93
541.46	442.36
541.62	435.34
541.79	355.76
541.96	425.98
542.13	477.47
542.30	475.13
542.47	416.62
542.63	435.34
542.80	477.47
542.97	447.04
543.14	397.89
543.31	381.51
543.48	381.51
543.64	379.17
543.81	402.57
543.98	531.30
544.15	404.91
544.32	411.93
544.48	407.25
544.65	437.68
544.82	393.21
544.99	449.38
545.16	440.02
545.32	367.46
545.49	421.30
545.66	379.17
545.83	421.30
546.00	397.89
546.16	496.19
546.33	418.96
546.50	465.77
546.67	533.64
546.83	475.13
547.00	444.70
547.17	416.62
547.34	416.62
547.50	486.83
547.67	400.23
547.84	393.21
548.00	444.70
548.17	411.93
548.34	425.98
548.51	411.93
548.67	447.04
548.84	468.11
549.01	433.00
549.18	397.89
549.34	454.06
549.51	428.32
549.68	433.00
549.84	465.77
550.01	358.10
550.18	421.30
550.34	447.04
550.51	451.72
550.68	393.21
550.84	442.36
551.01	444.70
551.18	444.70
551.34	437.68
551.51	416.62
551.68	369.80
551.84	400.23
552.01	355.76
552.18	390.87
552.34	486.83
552.51	411.93
552.68	456.40
552.84	402.57
553.01	416.62
553.18	437.68
553.34	362.78
553.51	353.42
553.67	421.30
553.84	414.27
554.01	400.23
554.17	374.49
554.34	463.43
554.51	519.60
554.67	444.70
554.84	428.32
555.00	393.21
555.17	409.59
555.33	435.34
555.50	421.30
555.67	477.47
555.83	367.46
556.00	451.72
556.16	538.32
556.33	397.89
556.50	404.91
556.66	482.15
556.83	447.04
556.99	465.77
557.16	437.68
557.32	388.53
557.49	388.53
557.65	444.70
557.82	421.30
557.98	360.44
558.15	404.91
558.32	470.45
558.48	404.91
558.65	346.40
558.81	367.46
558.98	365.12
559.14	397.89
559.31	442.36
559.47	442.36
559.64	418.96
559.80	400.23
559.97	475.13
560.13	416.62
560.30	353.42
560.46	491.51
560.63	442.36
560.79	437.68
560.96	456.40
561.12	393.21
561.29	463.43
561.45	451.72
561.61	435.34
561.78	482.15
561.94	447.04
562.11	409.59
562.27	433.00
562.44	507.90
562.60	423.64
562.77	416.62
562.93	440.02
563.10	381.51
563.26	547.69
563.42	411.93
563.59	458.74
563.75	414.27
563.92	479.81
564.08	414.27
564.24	456.40
564.41	404.91
564.57	416.62
564.74	367.46
564.90	463.43
565.07	458.74
565.23	430.66
565.39	447.04
565.56	440.02
565.72	484.49
565.88	409.59
566.05	484.49
566.21	395.55
566.38	360.44
566.54	416.62
566.70	425.98
566.87	411.93
567.03	421.30
567.19	418.96
567.36	444.70
567.52	376.83
567.68	493.85
567.85	479.81
568.01	355.76
568.17	421.30
568.34	435.34
568.50	449.38
568.66	395.55
568.83	468.11
568.99	393.21
569.15	447.04
569.32	402.57
569.48	458.74
569.64	461.09
569.81	393.21
569.97	365.12
570.13	484.49
570.30	372.15
570.46	433.00
570.62	376.83
570.78	325.33
570.95	346.40
571.11	428.32
571.27	423.64
571.43	435.34
571.60	416.62
571.76	395.55
571.92	440.02
572.09	428.32
572.25	421.30
572.41	383.85
572.57	400.23
572.74	409.59
572.90	489.17
573.06	477.47
573.22	388.53
573.38	358.10
573.55	416.62
573.71	447.04
573.87	437.68
574.03	416.62
574.20	491.51
574.36	491.51
574.52	390.87
574.68	425.98
574.84	430.66
575.01	425.98
575.17	465.77
575.33	423.64
575.49	454.06
575.65	425.98
575.82	367.46
575.98	454.06
576.14	418.96
576.30	440.02
576.46	447.04
576.62	454.06
576.79	376.83
576.95	376.83
577.11	428.32
577.27	418.96
577.43	430.66
577.59	472.79
577.75	449.38
577.92	433.00
578.08	414.27
578.24	397.89
578.40	458.74
578.56	425.98
578.72	409.59
578.88	435.34
579.04	418.96
579.21	449.38
579.37	433.00
579.53	353.42
579.69	414.27
579.85	404.91
580.01	472.79
580.17	423.64
580.33	360.44
580.49	395.55
580.65	421.30
580.82	390.87
580.98	369.80
581.14	440.02
581.30	411.93
581.46	430.66
581.62	372.15
581.78	458.74
581.94	407.25
582.10	386.19
582.26	376.83
582.42	383.85
582.58	428.32
582.74	423.64
582.90	425.98
583.06	468.11
583.22	418.96
583.38	311.29
583.54	400.23
583.70	482.15
583.86	344.06
584.02	437.68
584.18	423.64
584.34	381.51
584.50	533.64
584.66	353.42
584.82	386.19
584.98	397.89
585.14	425.98
585.30	393.21
585.46	477.47
585.62	367.46
585.78	435.34
585.94	489.17
586.10	423.64
586.26	428.32
586.42	437.68
586.58	369.80
586.74	313.63
586.90	390.87
587.06	447.04
587.22	372.15
587.38	468.11
587.54	376.83
587.70	456.40
587.86	451.72
588.02	381.51
588.18	470.45
588.34	381.51
588.49	402.57
588.65	442.36
588.81	409.59
588.97	393.21
589.13	418.96
589.29	454.06
589.45	430.66
589.61	449.38
589.77	477.47
589.93	428.32
590.08	374.49
590.24	358.10
590.40	428.32
590.56	472.79
590.72	444.70
590.88	351.08
591.04	411.93
591.20	348.74
591.35	475.13
591.51	433.00
591.67	388.53
591.83	486.83
591.99	402.57
592.15	416.62
592.31	390.87
592.46	442.36
592.62	437.68
592.78	388.53
592.94	402.57
593.10	402.57
593.26	404.91
593.41	435.34
593.57	315.97
593.73	365.12
593.89	381.51
594.05	411.93
594.20	425.98
594.36	395.55
594.52	404.91
594.68	341.72
594.84	449.38
594.99	493.85
595.15	447.04
595.31	477.47
595.47	423.64
595.62	369.80
595.78	428.32
595.94	449.38
596.10	461.09
596.25	430.66
596.41	435.34
596.57	383.85
596.73	418.96
596.88	353.42
597.04	386.19
597.20	383.85
597.36	418.96
597.51	411.93
597.67	322.99
597.83	393.21
597.99	376.83
598.14	386.19
598.30	440.02
598.46	402.57
598.61	407.25
598.77	430.66
598.93	458.74
599.09	379.17
599.24	447.04
599.40	447.04
599.56	472.79
599.71	337.04
599.87	409.59
600.03	404.91
600.18	367.46
600.34	433.00
600.50	461.09
600.65	390.87
600.81	493.85
600.97	423.64
601.12	428.32
601.28	411.93
601.44	355.76
601.59	390.87
601.75	437.68
601.91	337.04
602.06	411.93
602.22	482.15
602.37	433.00
602.53	390.87
602.69	358.10
602.84	360.44
603.00	444.70
603.16	355.76
603.31	465.77
603.47	451.72
603.62	437.68
603.78	496.19
603.94	514.92
604.09	404.91
604.25	468.11
604.40	395.55
604.56	383.85
604.71	376.83
604.87	397.89
605.03	379.17
605.18	444.70
605.34	423.64
605.49	425.98
605.65	430.66
605.80	416.62
605.96	433.00
606.12	423.64
606.27	383.85
606.43	496.19
606.58	463.43
606.74	402.57
606.89	383.85
607.05	428.32
607.20	360.44
607.36	430.66
607.51	411.93
607.67	409.59
607.82	454.06
607.98	404.91
608.13	470.45
608.29	404.91
608.44	454.06
608.60	414.27
608.75	369.80
608.91	440.02
609.06	397.89
609.22	421.30
609.37	369.80
609.53	404.91
609.68	395.55
609.84	365.12
609.99	383.85
610.15	433.00
