SpectraSuite Data File
++++++++++++++++++++++++++++++++++++
Date: Fri Oct 25 12:11:22 EDT 2013
User: price-jones
Dark Spectrum Present: No
Reference Spectrum Present: No
Number of Sampled Component Spectra: 1
Spectrometers: USB2+H05261
Integration Time (usec): 100000 (USB2+H05261)
Spectra Averaged: 1 (USB2+H05261)
Boxcar Smoothing: 0 (USB2+H05261)
Correct for Electrical Dark: No (USB2+H05261)
Strobe/Lamp Enabled: No (USB2+H05261)
Correct for Detector Non-linearity: No (USB2+H05261)
Correct for Stray Light: No (USB2+H05261)
Number of Pixels in Processed Spectrum: 2048
>>>>>Begin Processed Spectral Data<<<<<
365.73	346.40
365.92	346.40
366.12	346.40
366.32	222.35
366.52	194.26
366.72	234.05
366.91	250.44
367.11	217.67
367.31	194.26
367.51	266.82
367.70	241.08
367.90	220.01
368.10	241.08
368.30	224.69
368.49	222.35
368.69	322.99
368.89	273.84
369.09	220.01
369.28	308.95
369.48	264.48
369.68	318.31
369.87	299.59
370.07	315.97
370.27	355.76
370.47	308.95
370.66	294.91
370.86	306.61
371.06	351.08
371.25	390.87
371.45	322.99
371.65	381.51
371.84	358.10
372.04	355.76
372.24	414.27
372.44	358.10
372.63	416.62
372.83	479.81
373.03	339.38
373.22	381.51
373.42	447.04
373.62	344.06
373.81	470.45
374.01	472.79
374.21	456.40
374.40	397.89
374.60	402.57
374.79	402.57
374.99	404.91
375.19	376.83
375.38	418.96
375.58	433.00
375.78	472.79
375.97	444.70
376.17	430.66
376.37	447.04
376.56	475.13
376.76	344.06
376.95	360.44
377.15	390.87
377.35	404.91
377.54	423.64
377.74	428.32
377.93	379.17
378.13	428.32
378.33	409.59
378.52	362.78
378.72	393.21
378.91	416.62
379.11	369.80
379.31	397.89
379.50	376.83
379.70	425.98
379.89	416.62
380.09	421.30
380.28	416.62
380.48	344.06
380.68	341.72
380.87	414.27
381.07	454.06
381.26	418.96
381.46	393.21
381.65	444.70
381.85	449.38
382.04	451.72
382.24	428.32
382.43	402.57
382.63	437.68
382.83	360.44
383.02	442.36
383.22	440.02
383.41	451.72
383.61	388.53
383.80	423.64
384.00	411.93
384.19	374.49
384.39	416.62
384.58	428.32
384.78	383.85
384.97	461.09
385.17	479.81
385.36	421.30
385.56	402.57
385.75	292.57
385.95	365.12
386.14	468.11
386.34	360.44
386.53	430.66
386.72	421.30
386.92	388.53
387.11	425.98
387.31	461.09
387.50	423.64
387.70	383.85
387.89	400.23
388.09	407.25
388.28	351.08
388.48	435.34
388.67	407.25
388.86	365.12
389.06	327.68
389.25	372.15
389.45	381.51
389.64	411.93
389.84	416.62
390.03	409.59
390.22	411.93
390.42	411.93
390.61	477.47
390.81	367.46
391.00	365.12
391.19	437.68
391.39	437.68
391.58	482.15
391.78	428.32
391.97	447.04
392.16	339.38
392.36	428.32
392.55	411.93
392.75	425.98
392.94	355.76
393.13	411.93
393.33	390.87
393.52	397.89
393.71	397.89
393.91	365.12
394.10	402.57
394.29	355.76
394.49	393.21
394.68	423.64
394.88	411.93
395.07	470.45
395.26	383.85
395.46	332.36
395.65	440.02
395.84	430.66
396.04	411.93
396.23	402.57
396.42	421.30
396.62	428.32
396.81	355.76
397.00	390.87
397.19	430.66
397.39	369.80
397.58	468.11
397.77	404.91
397.97	393.21
398.16	444.70
398.35	440.02
398.55	400.23
398.74	416.62
398.93	437.68
399.12	365.12
399.32	414.27
399.51	351.08
399.70	503.22
399.90	433.00
400.09	395.55
400.28	437.68
400.47	402.57
400.67	456.40
400.86	367.46
401.05	381.51
401.24	332.36
401.44	355.76
401.63	414.27
401.82	472.79
402.01	435.34
402.21	418.96
402.40	440.02
402.59	381.51
402.78	334.70
402.97	386.19
403.17	416.62
403.36	404.91
403.55	421.30
403.74	365.12
403.93	383.85
404.13	540.66
404.32	477.47
404.51	442.36
404.70	442.36
404.89	425.98
405.09	463.43
405.28	374.49
405.47	416.62
405.66	353.42
405.85	430.66
406.05	369.80
406.24	379.17
406.43	470.45
406.62	402.57
406.81	447.04
407.00	428.32
407.20	409.59
407.39	402.57
407.58	449.38
407.77	360.44
407.96	500.87
408.15	449.38
408.34	430.66
408.54	435.34
408.73	444.70
408.92	402.57
409.11	463.43
409.30	386.19
409.49	390.87
409.68	404.91
409.87	421.30
410.07	468.11
410.26	437.68
410.45	355.76
410.64	358.10
410.83	402.57
411.02	367.46
411.21	456.40
411.40	400.23
411.59	386.19
411.78	418.96
411.98	360.44
412.17	414.27
412.36	358.10
412.55	374.49
412.74	379.17
412.93	454.06
413.12	447.04
413.31	496.19
413.50	404.91
413.69	449.38
413.88	479.81
414.07	449.38
414.26	449.38
414.45	435.34
414.64	437.68
414.83	374.49
415.02	442.36
415.22	444.70
415.41	435.34
415.60	409.59
415.79	463.43
415.98	491.51
416.17	365.12
416.36	320.65
416.55	397.89
416.74	397.89
416.93	428.32
417.12	442.36
417.31	404.91
417.50	425.98
417.69	489.17
417.88	404.91
418.07	421.30
418.26	425.98
418.45	322.99
418.64	358.10
418.83	383.85
419.02	416.62
419.21	353.42
419.39	402.57
419.58	451.72
419.77	383.85
419.96	477.47
420.15	421.30
420.34	353.42
420.53	411.93
420.72	447.04
420.91	360.44
421.10	362.78
421.29	400.23
421.48	437.68
421.67	376.83
421.86	407.25
422.05	374.49
422.24	386.19
422.43	409.59
422.61	414.27
422.80	402.57
422.99	330.02
423.18	442.36
423.37	428.32
423.56	355.76
423.75	351.08
423.94	397.89
424.13	381.51
424.32	409.59
424.50	444.70
424.69	430.66
424.88	383.85
425.07	358.10
425.26	404.91
425.45	416.62
425.64	362.78
425.83	395.55
426.01	479.81
426.20	404.91
426.39	423.64
426.58	369.80
426.77	482.15
426.96	421.30
427.15	484.49
427.33	411.93
427.52	386.19
427.71	402.57
427.90	444.70
428.09	386.19
428.28	407.25
428.46	411.93
428.65	367.46
428.84	486.83
429.03	425.98
429.22	346.40
429.40	395.55
429.59	372.15
429.78	386.19
429.97	353.42
430.16	372.15
430.34	425.98
430.53	404.91
430.72	433.00
430.91	376.83
431.10	414.27
431.28	400.23
431.47	472.79
431.66	421.30
431.85	376.83
432.03	407.25
432.22	517.26
432.41	456.40
432.60	353.42
432.79	393.21
432.97	444.70
433.16	421.30
433.35	395.55
433.54	395.55
433.72	470.45
433.91	411.93
434.10	416.62
434.28	447.04
434.47	463.43
434.66	416.62
434.85	416.62
435.03	414.27
435.22	376.83
435.41	444.70
435.59	306.61
435.78	369.80
435.97	423.64
436.16	463.43
436.34	411.93
436.53	360.44
436.72	362.78
436.90	510.24
437.09	463.43
437.28	397.89
437.46	416.62
437.65	402.57
437.84	442.36
438.02	411.93
438.21	440.02
438.40	393.21
438.58	472.79
438.77	353.42
438.96	447.04
439.14	383.85
439.33	475.13
439.52	440.02
439.70	390.87
439.89	407.25
440.08	376.83
440.26	440.02
440.45	423.64
440.63	358.10
440.82	423.64
441.01	461.09
441.19	397.89
441.38	409.59
441.57	351.08
441.75	451.72
441.94	379.17
442.12	461.09
442.31	451.72
442.50	416.62
442.68	425.98
442.87	421.30
443.05	404.91
443.24	430.66
443.43	440.02
443.61	435.34
443.80	404.91
443.98	365.12
444.17	428.32
444.35	435.34
444.54	421.30
444.73	416.62
444.91	447.04
445.10	402.57
445.28	482.15
445.47	397.89
445.65	388.53
445.84	418.96
446.02	358.10
446.21	351.08
446.39	433.00
446.58	374.49
446.77	430.66
446.95	404.91
447.14	479.81
447.32	505.56
447.51	430.66
447.69	341.72
447.88	418.96
448.06	512.58
448.25	444.70
448.43	433.00
448.62	423.64
448.80	411.93
448.99	442.36
449.17	308.95
449.36	355.76
449.54	369.80
449.73	425.98
449.91	463.43
450.10	393.21
450.28	402.57
450.46	423.64
450.65	472.79
450.83	402.57
451.02	421.30
451.20	400.23
451.39	472.79
451.57	402.57
451.76	449.38
451.94	402.57
452.13	386.19
452.31	379.17
452.49	409.59
452.68	442.36
452.86	465.77
453.05	411.93
453.23	407.25
453.42	416.62
453.60	409.59
453.78	423.64
453.97	407.25
454.15	416.62
454.34	365.12
454.52	388.53
454.70	470.45
454.89	456.40
455.07	477.47
455.26	383.85
455.44	372.15
455.62	322.99
455.81	444.70
455.99	393.21
456.17	414.27
456.36	449.38
456.54	367.46
456.73	393.21
456.91	454.06
457.09	393.21
457.28	477.47
457.46	451.72
457.64	463.43
457.83	447.04
458.01	395.55
458.19	440.02
458.38	383.85
458.56	400.23
458.74	416.62
458.93	444.70
459.11	444.70
459.29	428.32
459.48	423.64
459.66	393.21
459.84	498.53
460.03	514.92
460.21	435.34
460.39	425.98
460.57	477.47
460.76	440.02
460.94	451.72
461.12	423.64
461.31	451.72
461.49	444.70
461.67	379.17
461.85	372.15
462.04	404.91
462.22	734.93
462.40	458.74
462.59	463.43
462.77	440.02
462.95	421.30
463.13	433.00
463.32	407.25
463.50	395.55
463.68	444.70
463.86	496.19
464.05	369.80
464.23	468.11
464.41	479.81
464.59	402.57
464.78	397.89
464.96	315.97
465.14	425.98
465.32	348.74
465.50	400.23
465.69	339.38
465.87	404.91
466.05	395.55
466.23	390.87
466.41	332.36
466.60	393.21
466.78	390.87
466.96	418.96
467.14	456.40
467.32	444.70
467.51	468.11
467.69	433.00
467.87	386.19
468.05	358.10
468.23	402.57
468.41	491.51
468.60	365.12
468.78	404.91
468.96	491.51
469.14	430.66
469.32	379.17
469.50	411.93
469.69	475.13
469.87	491.51
470.05	402.57
470.23	402.57
470.41	404.91
470.59	348.74
470.77	322.99
470.95	402.57
471.14	430.66
471.32	400.23
471.50	433.00
471.68	437.68
471.86	433.00
472.04	430.66
472.22	472.79
472.40	351.08
472.58	409.59
472.77	493.85
472.95	395.55
473.13	468.11
473.31	346.40
473.49	390.87
473.67	393.21
473.85	416.62
474.03	418.96
474.21	365.12
474.39	402.57
474.57	369.80
474.75	451.72
474.93	440.02
475.12	376.83
475.30	442.36
475.48	416.62
475.66	402.57
475.84	486.83
476.02	416.62
476.20	442.36
476.38	437.68
476.56	442.36
476.74	388.53
476.92	418.96
477.10	433.00
477.28	449.38
477.46	437.68
477.64	425.98
477.82	416.62
478.00	383.85
478.18	437.68
478.36	425.98
478.54	416.62
478.72	416.62
478.90	526.62
479.08	430.66
479.26	449.38
479.44	447.04
479.62	463.43
479.80	388.53
479.98	411.93
480.16	376.83
480.34	451.72
480.52	383.85
480.70	449.38
480.88	344.06
481.06	386.19
481.24	428.32
481.41	407.25
481.59	479.81
481.77	447.04
481.95	454.06
482.13	442.36
482.31	353.42
482.49	404.91
482.67	475.13
482.85	393.21
483.03	322.99
483.21	369.80
483.39	428.32
483.57	444.70
483.74	447.04
483.92	407.25
484.10	409.59
484.28	482.15
484.46	425.98
484.64	330.02
484.82	430.66
485.00	395.55
485.18	381.51
485.35	351.08
485.53	355.76
485.71	482.15
485.89	379.17
486.07	477.47
486.25	470.45
486.43	376.83
486.61	388.53
486.78	351.08
486.96	409.59
487.14	454.06
487.32	390.87
487.50	435.34
487.68	397.89
487.85	407.25
488.03	433.00
488.21	440.02
488.39	397.89
488.57	376.83
488.75	477.47
488.92	482.15
489.10	458.74
489.28	444.70
489.46	442.36
489.64	430.66
489.81	435.34
489.99	397.89
490.17	353.42
490.35	447.04
490.53	437.68
490.70	386.19
490.88	404.91
491.06	397.89
491.24	425.98
491.41	440.02
491.59	440.02
491.77	339.38
491.95	423.64
492.13	411.93
492.30	390.87
492.48	442.36
492.66	421.30
492.84	447.04
493.01	407.25
493.19	437.68
493.37	414.27
493.54	512.58
493.72	454.06
493.90	390.87
494.08	400.23
494.25	433.00
494.43	491.51
494.61	465.77
494.79	351.08
494.96	463.43
495.14	465.77
495.32	400.23
495.49	407.25
495.67	404.91
495.85	381.51
496.02	388.53
496.20	437.68
496.38	454.06
496.55	362.78
496.73	372.15
496.91	418.96
497.09	430.66
497.26	404.91
497.44	402.57
497.62	418.96
497.79	477.47
497.97	440.02
498.14	409.59
498.32	367.46
498.50	430.66
498.67	433.00
498.85	449.38
499.03	435.34
499.20	397.89
499.38	423.64
499.56	416.62
499.73	440.02
499.91	425.98
500.08	447.04
500.26	414.27
500.44	299.59
500.61	489.17
500.79	379.17
500.97	451.72
501.14	435.34
501.32	461.09
501.49	486.83
501.67	423.64
501.84	456.40
502.02	407.25
502.20	451.72
502.37	440.02
502.55	449.38
502.72	360.44
502.90	428.32
503.07	500.87
503.25	423.64
503.43	411.93
503.60	423.64
503.78	442.36
503.95	435.34
504.13	416.62
504.30	353.42
504.48	451.72
504.65	456.40
504.83	428.32
505.01	381.51
505.18	402.57
505.36	374.49
505.53	379.17
505.71	383.85
505.88	449.38
506.06	477.47
506.23	374.49
506.41	489.17
506.58	414.27
506.76	402.57
506.93	435.34
507.11	425.98
507.28	430.66
507.46	372.15
507.63	416.62
507.81	374.49
507.98	407.25
508.16	402.57
508.33	369.80
508.50	393.21
508.68	461.09
508.85	475.13
509.03	402.57
509.20	482.15
509.38	468.11
509.55	386.19
509.73	418.96
509.90	465.77
510.08	383.85
510.25	435.34
510.42	428.32
510.60	437.68
510.77	440.02
510.95	440.02
511.12	402.57
511.30	367.46
511.47	435.34
511.64	425.98
511.82	397.89
511.99	390.87
512.17	421.30
512.34	437.68
512.51	418.96
512.69	442.36
512.86	447.04
513.04	477.47
513.21	470.45
513.38	407.25
513.56	414.27
513.73	451.72
513.90	322.99
514.08	430.66
514.25	367.46
514.43	414.27
514.60	423.64
514.77	395.55
514.95	407.25
515.12	433.00
515.29	440.02
515.47	433.00
515.64	344.06
515.81	374.49
515.99	458.74
516.16	472.79
516.33	451.72
516.51	437.68
516.68	503.22
516.85	386.19
517.03	397.89
517.20	433.00
517.37	470.45
517.54	465.77
517.72	423.64
517.89	388.53
518.06	433.00
518.24	435.34
518.41	461.09
518.58	402.57
518.75	360.44
518.93	421.30
519.10	421.30
519.27	442.36
519.45	407.25
519.62	411.93
519.79	402.57
519.96	367.46
520.14	428.32
520.31	353.42
520.48	451.72
520.65	456.40
520.83	454.06
521.00	402.57
521.17	421.30
521.34	388.53
521.52	425.98
521.69	388.53
521.86	369.80
522.03	400.23
522.20	442.36
522.38	418.96
522.55	381.51
522.72	374.49
522.89	440.02
523.07	397.89
523.24	411.93
523.41	402.57
523.58	381.51
523.75	376.83
523.92	381.51
524.10	442.36
524.27	351.08
524.44	407.25
524.61	435.34
524.78	409.59
524.96	409.59
525.13	416.62
525.30	428.32
525.47	376.83
525.64	435.34
525.81	416.62
525.98	416.62
526.16	465.77
526.33	451.72
526.50	409.59
526.67	402.57
526.84	442.36
527.01	472.79
527.18	421.30
527.36	402.57
527.53	402.57
527.70	442.36
527.87	444.70
528.04	519.60
528.21	393.21
528.38	461.09
528.55	468.11
528.72	428.32
528.89	416.62
529.07	388.53
529.24	418.96
529.41	400.23
529.58	442.36
529.75	454.06
529.92	423.64
530.09	421.30
530.26	484.49
530.43	425.98
530.60	425.98
530.77	425.98
530.94	454.06
531.11	440.02
531.28	411.93
531.46	461.09
531.63	465.77
531.80	449.38
531.97	456.40
532.14	423.64
532.31	447.04
532.48	418.96
532.65	482.15
532.82	411.93
532.99	369.80
533.16	376.83
533.33	388.53
533.50	400.23
533.67	428.32
533.84	444.70
534.01	425.98
534.18	360.44
534.35	360.44
534.52	414.27
534.69	456.40
534.86	402.57
535.03	442.36
535.20	348.74
535.37	397.89
535.54	400.23
535.71	421.30
535.88	397.89
536.05	374.49
536.22	433.00
536.38	444.70
536.55	437.68
536.72	440.02
536.89	337.04
537.06	313.63
537.23	367.46
537.40	383.85
537.57	451.72
537.74	458.74
537.91	491.51
538.08	395.55
538.25	437.68
538.42	461.09
538.59	454.06
538.75	479.81
538.92	425.98
539.09	416.62
539.26	388.53
539.43	374.49
539.60	414.27
539.77	433.00
539.94	348.74
540.11	381.51
540.28	425.98
540.44	528.96
540.61	498.53
540.78	423.64
540.95	383.85
541.12	418.96
541.29	393.21
541.46	496.19
541.62	442.36
541.79	409.59
541.96	421.30
542.13	449.38
542.30	444.70
542.47	500.87
542.63	390.87
542.80	435.34
542.97	491.51
543.14	411.93
543.31	404.91
543.48	397.89
543.64	397.89
543.81	400.23
543.98	407.25
544.15	346.40
544.32	440.02
544.48	435.34
544.65	418.96
544.82	344.06
544.99	512.58
545.16	449.38
545.32	411.93
545.49	402.57
545.66	496.19
545.83	425.98
546.00	407.25
546.16	430.66
546.33	400.23
546.50	433.00
546.67	475.13
546.83	390.87
547.00	421.30
547.17	456.40
547.34	437.68
547.50	449.38
547.67	418.96
547.84	461.09
548.00	433.00
548.17	351.08
548.34	430.66
548.51	425.98
548.67	397.89
548.84	397.89
549.01	423.64
549.18	440.02
549.34	425.98
549.51	358.10
549.68	379.17
549.84	418.96
550.01	372.15
550.18	428.32
550.34	407.25
550.51	414.27
550.68	421.30
550.84	454.06
551.01	409.59
551.18	449.38
551.34	461.09
551.51	421.30
551.68	381.51
551.84	428.32
552.01	416.62
552.18	411.93
552.34	449.38
552.51	435.34
552.68	374.49
552.84	430.66
553.01	418.96
553.18	425.98
553.34	440.02
553.51	414.27
553.67	433.00
553.84	428.32
554.01	433.00
554.17	482.15
554.34	358.10
554.51	334.70
554.67	451.72
554.84	416.62
555.00	353.42
555.17	447.04
555.33	402.57
555.50	498.53
555.67	421.30
555.83	400.23
556.00	402.57
556.16	521.94
556.33	421.30
556.50	402.57
556.66	400.23
556.83	423.64
556.99	435.34
557.16	390.87
557.32	447.04
557.49	433.00
557.65	404.91
557.82	475.13
557.98	479.81
558.15	407.25
558.32	383.85
558.48	423.64
558.65	472.79
558.81	479.81
558.98	383.85
559.14	430.66
559.31	407.25
559.47	449.38
559.64	411.93
559.80	479.81
559.97	395.55
560.13	383.85
560.30	395.55
560.46	414.27
560.63	367.46
560.79	390.87
560.96	404.91
561.12	334.70
561.29	440.02
561.45	372.15
561.61	395.55
561.78	512.58
561.94	379.17
562.11	430.66
562.27	393.21
562.44	322.99
562.60	491.51
562.77	369.80
562.93	442.36
563.10	423.64
563.26	379.17
563.42	458.74
563.59	358.10
563.75	400.23
563.92	468.11
564.08	444.70
564.24	449.38
564.41	496.19
564.57	414.27
564.74	418.96
564.90	404.91
565.07	334.70
565.23	500.87
565.39	330.02
565.56	386.19
565.72	451.72
565.88	447.04
566.05	390.87
566.21	430.66
566.38	407.25
566.54	449.38
566.70	461.09
566.87	461.09
567.03	337.04
567.19	353.42
567.36	440.02
567.52	395.55
567.68	395.55
567.85	430.66
568.01	386.19
568.17	369.80
568.34	402.57
568.50	409.59
568.66	393.21
568.83	514.92
568.99	444.70
569.15	376.83
569.32	440.02
569.48	430.66
569.64	318.31
569.81	341.72
569.97	456.40
570.13	433.00
570.30	430.66
570.46	461.09
570.62	430.66
570.78	496.19
570.95	421.30
571.11	407.25
571.27	472.79
571.43	351.08
571.60	425.98
571.76	358.10
571.92	442.36
572.09	407.25
572.25	428.32
572.41	447.04
572.57	374.49
572.74	416.62
572.90	465.77
573.06	468.11
573.22	484.49
573.38	397.89
573.55	416.62
573.71	479.81
573.87	418.96
574.03	414.27
574.20	360.44
574.36	482.15
574.52	379.17
574.68	517.26
574.84	425.98
575.01	407.25
575.17	449.38
575.33	423.64
575.49	383.85
575.65	456.40
575.82	470.45
575.98	402.57
576.14	418.96
576.30	461.09
576.46	388.53
576.62	454.06
576.79	451.72
576.95	433.00
577.11	393.21
577.27	400.23
577.43	442.36
577.59	440.02
577.75	365.12
577.92	435.34
578.08	372.15
578.24	376.83
578.40	468.11
578.56	463.43
578.72	468.11
578.88	414.27
579.04	449.38
579.21	414.27
579.37	379.17
579.53	383.85
579.69	414.27
579.85	418.96
580.01	465.77
580.17	390.87
580.33	351.08
580.49	407.25
580.65	397.89
580.82	381.51
580.98	369.80
581.14	425.98
581.30	442.36
581.46	470.45
581.62	414.27
581.78	407.25
581.94	496.19
582.10	411.93
582.26	430.66
582.42	433.00
582.58	409.59
582.74	383.85
582.90	430.66
583.06	454.06
583.22	404.91
583.38	435.34
583.54	472.79
583.70	444.70
583.86	346.40
584.02	454.06
584.18	472.79
584.34	407.25
584.50	430.66
584.66	414.27
584.82	477.47
584.98	379.17
585.14	500.87
585.30	390.87
585.46	395.55
585.62	404.91
585.78	390.87
585.94	477.47
586.10	414.27
586.26	390.87
586.42	465.77
586.58	433.00
586.74	442.36
586.90	463.43
587.06	402.57
587.22	449.38
587.38	358.10
587.54	367.46
587.70	437.68
587.86	449.38
588.02	318.31
588.18	421.30
588.34	400.23
588.49	386.19
588.65	416.62
588.81	374.49
588.97	437.68
589.13	414.27
589.29	435.34
589.45	451.72
589.61	456.40
589.77	428.32
589.93	416.62
590.08	369.80
590.24	444.70
590.40	390.87
590.56	435.34
590.72	409.59
590.88	437.68
591.04	407.25
591.20	341.72
591.35	451.72
591.51	428.32
591.67	390.87
591.83	374.49
591.99	458.74
592.15	465.77
592.31	482.15
592.46	402.57
592.62	433.00
592.78	306.61
592.94	425.98
593.10	470.45
593.26	337.04
593.41	381.51
593.57	437.68
593.73	376.83
593.89	425.98
594.05	423.64
594.20	449.38
594.36	433.00
594.52	486.83
594.68	409.59
594.84	407.25
594.99	491.51
595.15	390.87
595.31	365.12
595.47	470.45
595.62	376.83
595.78	425.98
595.94	395.55
596.10	390.87
596.25	451.72
596.41	372.15
596.57	395.55
596.73	442.36
596.88	402.57
597.04	379.17
597.20	374.49
597.36	463.43
597.51	437.68
597.67	404.91
597.83	404.91
597.99	402.57
598.14	451.72
598.30	440.02
598.46	376.83
598.61	411.93
598.77	400.23
598.93	421.30
599.09	428.32
599.24	376.83
599.40	407.25
599.56	428.32
599.71	393.21
599.87	435.34
600.03	449.38
600.18	416.62
600.34	360.44
600.50	393.21
600.65	381.51
600.81	388.53
600.97	369.80
601.12	437.68
601.28	437.68
601.44	428.32
601.59	433.00
601.75	421.30
601.91	411.93
602.06	376.83
602.22	580.45
602.37	444.70
602.53	379.17
602.69	440.02
602.84	376.83
603.00	463.43
603.16	383.85
603.31	451.72
603.47	430.66
603.62	423.64
603.78	486.83
603.94	337.04
604.09	383.85
604.25	468.11
604.40	411.93
604.56	393.21
604.71	486.83
604.87	416.62
605.03	358.10
605.18	402.57
605.34	489.17
605.49	402.57
605.65	395.55
605.80	395.55
605.96	423.64
606.12	465.77
606.27	458.74
606.43	435.34
606.58	449.38
606.74	456.40
606.89	440.02
607.05	407.25
607.20	379.17
607.36	451.72
607.51	451.72
607.67	411.93
607.82	482.15
607.98	477.47
608.13	393.21
608.29	362.78
608.44	425.98
608.60	330.02
608.75	430.66
608.91	433.00
609.06	435.34
609.22	418.96
609.37	423.64
609.53	498.53
609.68	325.33
609.84	437.68
609.99	395.55
610.15	484.49
