SpectraSuite Data File
++++++++++++++++++++++++++++++++++++
Date: Fri Oct 25 12:10:58 EDT 2013
User: price-jones
Dark Spectrum Present: No
Reference Spectrum Present: No
Number of Sampled Component Spectra: 1
Spectrometers: USB2+H05261
Integration Time (usec): 100000 (USB2+H05261)
Spectra Averaged: 1 (USB2+H05261)
Boxcar Smoothing: 0 (USB2+H05261)
Correct for Electrical Dark: No (USB2+H05261)
Strobe/Lamp Enabled: No (USB2+H05261)
Correct for Detector Non-linearity: No (USB2+H05261)
Correct for Stray Light: No (USB2+H05261)
Number of Pixels in Processed Spectrum: 2048
>>>>>Begin Processed Spectral Data<<<<<
365.73	367.46
365.92	367.46
366.12	367.46
366.32	278.52
366.52	283.20
366.72	315.97
366.91	278.52
367.11	255.12
367.31	367.46
367.51	203.63
367.70	238.73
367.90	252.78
368.10	315.97
368.30	196.60
368.49	180.22
368.69	217.67
368.89	290.23
369.09	304.27
369.28	194.26
369.48	248.10
369.68	315.97
369.87	325.33
370.07	308.95
370.27	301.93
370.47	358.10
370.66	344.06
370.86	294.91
371.06	379.17
371.25	475.13
371.45	393.21
371.65	388.53
371.84	383.85
372.04	379.17
372.24	322.99
372.44	365.12
372.63	402.57
372.83	390.87
373.03	409.59
373.22	358.10
373.42	433.00
373.62	421.30
373.81	430.66
374.01	390.87
374.21	458.74
374.40	470.45
374.60	369.80
374.79	395.55
374.99	524.28
375.19	388.53
375.38	461.09
375.58	430.66
375.78	454.06
375.97	346.40
376.17	423.64
376.37	416.62
376.56	395.55
376.76	425.98
376.95	428.32
377.15	449.38
377.35	402.57
377.54	437.68
377.74	348.74
377.93	341.72
378.13	421.30
378.33	400.23
378.52	397.89
378.72	397.89
378.91	407.25
379.11	344.06
379.31	348.74
379.50	393.21
379.70	500.87
379.89	365.12
380.09	414.27
380.28	437.68
380.48	409.59
380.68	348.74
380.87	430.66
381.07	404.91
381.26	505.56
381.46	379.17
381.65	320.65
381.85	376.83
382.04	428.32
382.24	465.77
382.43	465.77
382.63	372.15
382.83	374.49
383.02	458.74
383.22	451.72
383.41	411.93
383.61	409.59
383.80	395.55
384.00	386.19
384.19	411.93
384.39	376.83
384.58	414.27
384.78	376.83
384.97	411.93
385.17	379.17
385.36	381.51
385.56	400.23
385.75	395.55
385.95	433.00
386.14	397.89
386.34	423.64
386.53	428.32
386.72	390.87
386.92	447.04
387.11	407.25
387.31	428.32
387.50	383.85
387.70	390.87
387.89	425.98
388.09	454.06
388.28	397.89
388.48	365.12
388.67	383.85
388.86	365.12
389.06	437.68
389.25	425.98
389.45	416.62
389.64	374.49
389.84	468.11
390.03	414.27
390.22	416.62
390.42	407.25
390.61	376.83
390.81	388.53
391.00	477.47
391.19	435.34
391.39	437.68
391.58	369.80
391.78	468.11
391.97	365.12
392.16	383.85
392.36	437.68
392.55	414.27
392.75	402.57
392.94	421.30
393.13	468.11
393.33	306.61
393.52	402.57
393.71	512.58
393.91	416.62
394.10	367.46
394.29	402.57
394.49	355.76
394.68	386.19
394.88	404.91
395.07	465.77
395.26	498.53
395.46	344.06
395.65	404.91
395.84	402.57
396.04	479.81
396.23	407.25
396.42	409.59
396.62	418.96
396.81	468.11
397.00	376.83
397.19	400.23
397.39	395.55
397.58	411.93
397.77	503.22
397.97	397.89
398.16	458.74
398.35	381.51
398.55	414.27
398.74	348.74
398.93	372.15
399.12	430.66
399.32	479.81
399.51	369.80
399.70	418.96
399.90	423.64
400.09	409.59
400.28	334.70
400.47	337.04
400.67	454.06
400.86	477.47
401.05	376.83
401.24	418.96
401.44	444.70
401.63	400.23
401.82	390.87
402.01	372.15
402.21	449.38
402.40	397.89
402.59	423.64
402.78	449.38
402.97	358.10
403.17	369.80
403.36	409.59
403.55	416.62
403.74	418.96
403.93	397.89
404.13	442.36
404.32	437.68
404.51	351.08
404.70	383.85
404.89	435.34
405.09	477.47
405.28	416.62
405.47	348.74
405.66	430.66
405.85	435.34
406.05	416.62
406.24	418.96
406.43	465.77
406.62	407.25
406.81	489.17
407.00	404.91
407.20	400.23
407.39	395.55
407.58	456.40
407.77	402.57
407.96	437.68
408.15	430.66
408.34	369.80
408.54	381.51
408.73	477.47
408.92	355.76
409.11	416.62
409.30	379.17
409.49	435.34
409.68	409.59
409.87	383.85
410.07	379.17
410.26	383.85
410.45	449.38
410.64	451.72
410.83	381.51
411.02	393.21
411.21	444.70
411.40	428.32
411.59	390.87
411.78	374.49
411.98	418.96
412.17	358.10
412.36	482.15
412.55	397.89
412.74	425.98
412.93	496.19
413.12	435.34
413.31	440.02
413.50	397.89
413.69	390.87
413.88	395.55
414.07	390.87
414.26	407.25
414.45	433.00
414.64	390.87
414.83	402.57
415.02	425.98
415.22	423.64
415.41	411.93
415.60	411.93
415.79	369.80
415.98	454.06
416.17	318.31
416.36	433.00
416.55	409.59
416.74	402.57
416.93	411.93
417.12	395.55
417.31	386.19
417.50	381.51
417.69	442.36
417.88	383.85
418.07	327.68
418.26	381.51
418.45	449.38
418.64	404.91
418.83	437.68
419.02	353.42
419.21	355.76
419.39	447.04
419.58	383.85
419.77	430.66
419.96	458.74
420.15	468.11
420.34	437.68
420.53	379.17
420.72	414.27
420.91	440.02
421.10	386.19
421.29	376.83
421.48	465.77
421.67	393.21
421.86	397.89
422.05	383.85
422.24	465.77
422.43	386.19
422.61	430.66
422.80	381.51
422.99	369.80
423.18	376.83
423.37	484.49
423.56	416.62
423.75	454.06
423.94	379.17
424.13	383.85
424.32	344.06
424.50	414.27
424.69	397.89
424.88	472.79
425.07	454.06
425.26	390.87
425.45	451.72
425.64	423.64
425.83	456.40
426.01	442.36
426.20	456.40
426.39	320.65
426.58	411.93
426.77	397.89
426.96	454.06
427.15	404.91
427.33	430.66
427.52	470.45
427.71	421.30
427.90	451.72
428.09	433.00
428.28	414.27
428.46	390.87
428.65	381.51
428.84	416.62
429.03	414.27
429.22	437.68
429.40	430.66
429.59	435.34
429.78	362.78
429.97	386.19
430.16	411.93
430.34	365.12
430.53	435.34
430.72	442.36
430.91	402.57
431.10	374.49
431.28	325.33
431.47	451.72
431.66	435.34
431.85	407.25
432.03	383.85
432.22	442.36
432.41	482.15
432.60	489.17
432.79	409.59
432.97	379.17
433.16	388.53
433.35	458.74
433.54	372.15
433.72	482.15
433.91	402.57
434.10	411.93
434.28	365.12
434.47	430.66
434.66	425.98
434.85	367.46
435.03	404.91
435.22	337.04
435.41	430.66
435.59	369.80
435.78	393.21
435.97	393.21
436.16	433.00
436.34	433.00
436.53	383.85
436.72	456.40
436.90	386.19
437.09	351.08
437.28	423.64
437.46	351.08
437.65	400.23
437.84	400.23
438.02	407.25
438.21	397.89
438.40	447.04
438.58	388.53
438.77	442.36
438.96	407.25
439.14	395.55
439.33	390.87
439.52	440.02
439.70	374.49
439.89	390.87
440.08	456.40
440.26	435.34
440.45	402.57
440.63	447.04
440.82	411.93
441.01	404.91
441.19	369.80
441.38	346.40
441.57	486.83
441.75	440.02
441.94	456.40
442.12	414.27
442.31	397.89
442.50	411.93
442.68	339.38
442.87	358.10
443.05	442.36
443.24	388.53
443.43	498.53
443.61	512.58
443.80	425.98
443.98	416.62
444.17	390.87
444.35	442.36
444.54	393.21
444.73	348.74
444.91	388.53
445.10	404.91
445.28	421.30
445.47	355.76
445.65	437.68
445.84	433.00
446.02	416.62
446.21	404.91
446.39	395.55
446.58	393.21
446.77	353.42
446.95	383.85
447.14	397.89
447.32	390.87
447.51	425.98
447.69	369.80
447.88	362.78
448.06	463.43
448.25	402.57
448.43	423.64
448.62	397.89
448.80	395.55
448.99	362.78
449.17	430.66
449.36	425.98
449.54	472.79
449.73	353.42
449.91	433.00
450.10	470.45
450.28	454.06
450.46	447.04
450.65	397.89
450.83	416.62
451.02	367.46
451.20	393.21
451.39	390.87
451.57	395.55
451.76	475.13
451.94	400.23
452.13	409.59
452.31	376.83
452.49	430.66
452.68	435.34
452.86	372.15
453.05	582.79
453.23	409.59
453.42	365.12
453.60	454.06
453.78	440.02
453.97	442.36
454.15	339.38
454.34	386.19
454.52	334.70
454.70	421.30
454.89	435.34
455.07	421.30
455.26	414.27
455.44	400.23
455.62	390.87
455.81	409.59
455.99	397.89
456.17	433.00
456.36	421.30
456.54	444.70
456.73	421.30
456.91	388.53
457.09	447.04
457.28	458.74
457.46	444.70
457.64	397.89
457.83	421.30
458.01	500.87
458.19	416.62
458.38	386.19
458.56	395.55
458.74	358.10
458.93	428.32
459.11	348.74
459.29	411.93
459.48	411.93
459.66	416.62
459.84	435.34
460.03	550.03
460.21	428.32
460.39	435.34
460.57	472.79
460.76	416.62
460.94	418.96
461.12	456.40
461.31	430.66
461.49	395.55
461.67	418.96
461.85	395.55
462.04	402.57
462.22	716.20
462.40	451.72
462.59	388.53
462.77	468.11
462.95	381.51
463.13	433.00
463.32	456.40
463.50	442.36
463.68	369.80
463.86	383.85
464.05	332.36
464.23	388.53
464.41	381.51
464.59	458.74
464.78	409.59
464.96	372.15
465.14	409.59
465.32	447.04
465.50	444.70
465.69	397.89
465.87	407.25
466.05	386.19
466.23	344.06
466.41	407.25
466.60	421.30
466.78	477.47
466.96	470.45
467.14	430.66
467.32	444.70
467.51	423.64
467.69	407.25
467.87	428.32
468.05	386.19
468.23	409.59
468.41	337.04
468.60	472.79
468.78	442.36
468.96	421.30
469.14	468.11
469.32	402.57
469.50	402.57
469.69	358.10
469.87	400.23
470.05	395.55
470.23	479.81
470.41	374.49
470.59	400.23
470.77	409.59
470.95	332.36
471.14	383.85
471.32	414.27
471.50	440.02
471.68	372.15
471.86	388.53
472.04	414.27
472.22	468.11
472.40	454.06
472.58	337.04
472.77	465.77
472.95	440.02
473.13	496.19
473.31	386.19
473.49	409.59
473.67	395.55
473.85	468.11
474.03	374.49
474.21	435.34
474.39	482.15
474.57	489.17
474.75	395.55
474.93	395.55
475.12	388.53
475.30	458.74
475.48	393.21
475.66	428.32
475.84	367.46
476.02	397.89
476.20	362.78
476.38	423.64
476.56	456.40
476.74	374.49
476.92	344.06
477.10	414.27
477.28	451.72
477.46	395.55
477.64	374.49
477.82	397.89
478.00	409.59
478.18	400.23
478.36	379.17
478.54	440.02
478.72	369.80
478.90	397.89
479.08	507.90
479.26	369.80
479.44	411.93
479.62	374.49
479.80	458.74
479.98	376.83
480.16	437.68
480.34	400.23
480.52	475.13
480.70	449.38
480.88	411.93
481.06	393.21
481.24	409.59
481.41	404.91
481.59	386.19
481.77	411.93
481.95	395.55
482.13	388.53
482.31	421.30
482.49	409.59
482.67	409.59
482.85	379.17
483.03	393.21
483.21	409.59
483.39	442.36
483.57	365.12
483.74	454.06
483.92	418.96
484.10	418.96
484.28	433.00
484.46	451.72
484.64	362.78
484.82	437.68
485.00	433.00
485.18	454.06
485.35	409.59
485.53	437.68
485.71	435.34
485.89	379.17
486.07	435.34
486.25	444.70
486.43	409.59
486.61	463.43
486.78	416.62
486.96	393.21
487.14	402.57
487.32	386.19
487.50	369.80
487.68	463.43
487.85	383.85
488.03	397.89
488.21	489.17
488.39	393.21
488.57	491.51
488.75	374.49
488.92	475.13
489.10	430.66
489.28	444.70
489.46	425.98
489.64	437.68
489.81	425.98
489.99	437.68
490.17	353.42
490.35	442.36
490.53	454.06
490.70	421.30
490.88	339.38
491.06	447.04
491.24	449.38
491.41	449.38
491.59	458.74
491.77	369.80
491.95	418.96
492.13	390.87
492.30	376.83
492.48	388.53
492.66	376.83
492.84	428.32
493.01	376.83
493.19	407.25
493.37	435.34
493.54	472.79
493.72	458.74
493.90	440.02
494.08	517.26
494.25	477.47
494.43	433.00
494.61	334.70
494.79	362.78
494.96	351.08
495.14	416.62
495.32	381.51
495.49	360.44
495.67	479.81
495.85	449.38
496.02	425.98
496.20	458.74
496.38	418.96
496.55	454.06
496.73	409.59
496.91	339.38
497.09	428.32
497.26	433.00
497.44	458.74
497.62	409.59
497.79	437.68
497.97	493.85
498.14	437.68
498.32	414.27
498.50	425.98
498.67	454.06
498.85	423.64
499.03	423.64
499.20	388.53
499.38	458.74
499.56	393.21
499.73	493.85
499.91	393.21
500.08	444.70
500.26	400.23
500.44	461.09
500.61	498.53
500.79	407.25
500.97	416.62
501.14	437.68
501.32	440.02
501.49	451.72
501.67	484.49
501.84	386.19
502.02	465.77
502.20	433.00
502.37	390.87
502.55	407.25
502.72	409.59
502.90	449.38
503.07	435.34
503.25	397.89
503.43	425.98
503.60	454.06
503.78	418.96
503.95	428.32
504.13	400.23
504.30	400.23
504.48	416.62
504.65	416.62
504.83	430.66
505.01	379.17
505.18	472.79
505.36	386.19
505.53	423.64
505.71	400.23
505.88	395.55
506.06	393.21
506.23	421.30
506.41	348.74
506.58	360.44
506.76	407.25
506.93	376.83
507.11	383.85
507.28	390.87
507.46	430.66
507.63	451.72
507.81	437.68
507.98	458.74
508.16	393.21
508.33	362.78
508.50	393.21
508.68	454.06
508.85	449.38
509.03	461.09
509.20	428.32
509.38	430.66
509.55	437.68
509.73	416.62
509.90	397.89
510.08	435.34
510.25	435.34
510.42	397.89
510.60	425.98
510.77	404.91
510.95	440.02
511.12	428.32
511.30	428.32
511.47	369.80
511.64	491.51
511.82	428.32
511.99	440.02
512.17	362.78
512.34	425.98
512.51	379.17
512.69	468.11
512.86	355.76
513.04	374.49
513.21	442.36
513.38	388.53
513.56	447.04
513.73	404.91
513.90	440.02
514.08	388.53
514.25	442.36
514.43	461.09
514.60	393.21
514.77	404.91
514.95	395.55
515.12	449.38
515.29	435.34
515.47	416.62
515.64	346.40
515.81	402.57
515.99	440.02
516.16	465.77
516.33	491.51
516.51	414.27
516.68	327.68
516.85	393.21
517.03	437.68
517.20	470.45
517.37	404.91
517.54	486.83
517.72	465.77
517.89	428.32
518.06	393.21
518.24	437.68
518.41	449.38
518.58	409.59
518.75	437.68
518.93	388.53
519.10	421.30
519.27	407.25
519.45	330.02
519.62	372.15
519.79	428.32
519.96	437.68
520.14	374.49
520.31	442.36
520.48	477.47
520.65	409.59
520.83	442.36
521.00	411.93
521.17	493.85
521.34	444.70
521.52	381.51
521.69	428.32
521.86	414.27
522.03	421.30
522.20	400.23
522.38	500.87
522.55	423.64
522.72	407.25
522.89	484.49
523.07	451.72
523.24	414.27
523.41	463.43
523.58	374.49
523.75	468.11
523.92	472.79
524.10	430.66
524.27	411.93
524.44	360.44
524.61	472.79
524.78	390.87
524.96	454.06
525.13	369.80
525.30	442.36
525.47	393.21
525.64	482.15
525.81	433.00
525.98	456.40
526.16	404.91
526.33	468.11
526.50	493.85
526.67	353.42
526.84	390.87
527.01	318.31
527.18	470.45
527.36	409.59
527.53	395.55
527.70	428.32
527.87	437.68
528.04	475.13
528.21	404.91
528.38	503.22
528.55	430.66
528.72	500.87
528.89	486.83
529.07	355.76
529.24	435.34
529.41	430.66
529.58	416.62
529.75	503.22
529.92	447.04
530.09	416.62
530.26	409.59
530.43	449.38
530.60	362.78
530.77	369.80
530.94	407.25
531.11	402.57
531.28	416.62
531.46	400.23
531.63	402.57
531.80	447.04
531.97	449.38
532.14	376.83
532.31	454.06
532.48	475.13
532.65	397.89
532.82	447.04
532.99	388.53
533.16	409.59
533.33	374.49
533.50	388.53
533.67	435.34
533.84	355.76
534.01	355.76
534.18	404.91
534.35	442.36
534.52	386.19
534.69	461.09
534.86	423.64
535.03	428.32
535.20	414.27
535.37	435.34
535.54	409.59
535.71	444.70
535.88	402.57
536.05	493.85
536.22	433.00
536.38	425.98
536.55	498.53
536.72	482.15
536.89	362.78
537.06	407.25
537.23	402.57
537.40	381.51
537.57	407.25
537.74	447.04
537.91	348.74
538.08	421.30
538.25	449.38
538.42	400.23
538.59	369.80
538.75	477.47
538.92	449.38
539.09	435.34
539.26	409.59
539.43	498.53
539.60	421.30
539.77	400.23
539.94	428.32
540.11	454.06
540.28	512.58
540.44	451.72
540.61	402.57
540.78	381.51
540.95	414.27
541.12	510.24
541.29	390.87
541.46	369.80
541.62	458.74
541.79	376.83
541.96	421.30
542.13	414.27
542.30	390.87
542.47	463.43
542.63	437.68
542.80	451.72
542.97	451.72
543.14	454.06
543.31	383.85
543.48	425.98
543.64	397.89
543.81	461.09
543.98	458.74
544.15	367.46
544.32	451.72
544.48	447.04
544.65	444.70
544.82	346.40
544.99	386.19
545.16	465.77
545.32	386.19
545.49	433.00
545.66	454.06
545.83	421.30
546.00	435.34
546.16	435.34
546.33	416.62
546.50	409.59
546.67	449.38
546.83	449.38
547.00	360.44
547.17	416.62
547.34	442.36
547.50	430.66
547.67	376.83
547.84	428.32
548.00	435.34
548.17	381.51
548.34	421.30
548.51	496.19
548.67	374.49
548.84	362.78
549.01	374.49
549.18	411.93
549.34	435.34
549.51	482.15
549.68	447.04
549.84	435.34
550.01	416.62
550.18	470.45
550.34	435.34
550.51	411.93
550.68	475.13
550.84	468.11
551.01	393.21
551.18	393.21
551.34	397.89
551.51	411.93
551.68	360.44
551.84	489.17
552.01	409.59
552.18	365.12
552.34	411.93
552.51	407.25
552.68	468.11
552.84	428.32
553.01	383.85
553.18	465.77
553.34	451.72
553.51	442.36
553.67	383.85
553.84	461.09
554.01	407.25
554.17	454.06
554.34	451.72
554.51	386.19
554.67	409.59
554.84	409.59
555.00	411.93
555.17	430.66
555.33	465.77
555.50	390.87
555.67	414.27
555.83	390.87
556.00	414.27
556.16	578.11
556.33	489.17
556.50	454.06
556.66	388.53
556.83	397.89
556.99	461.09
557.16	421.30
557.32	386.19
557.49	454.06
557.65	358.10
557.82	447.04
557.98	397.89
558.15	479.81
558.32	407.25
558.48	461.09
558.65	472.79
558.81	395.55
558.98	475.13
559.14	447.04
559.31	362.78
559.47	484.49
559.64	425.98
559.80	411.93
559.97	400.23
560.13	344.06
560.30	479.81
560.46	444.70
560.63	421.30
560.79	414.27
560.96	411.93
561.12	421.30
561.29	416.62
561.45	442.36
561.61	477.47
561.78	500.87
561.94	428.32
562.11	404.91
562.27	468.11
562.44	437.68
562.60	388.53
562.77	437.68
562.93	418.96
563.10	477.47
563.26	461.09
563.42	383.85
563.59	409.59
563.75	451.72
563.92	437.68
564.08	430.66
564.24	451.72
564.41	493.85
564.57	381.51
564.74	482.15
564.90	447.04
565.07	440.02
565.23	372.15
565.39	456.40
565.56	430.66
565.72	505.56
565.88	510.24
566.05	379.17
566.21	351.08
566.38	470.45
566.54	414.27
566.70	381.51
566.87	404.91
567.03	348.74
567.19	374.49
567.36	447.04
567.52	409.59
567.68	409.59
567.85	372.15
568.01	395.55
568.17	402.57
568.34	411.93
568.50	454.06
568.66	374.49
568.83	456.40
568.99	444.70
569.15	421.30
569.32	411.93
569.48	409.59
569.64	390.87
569.81	397.89
569.97	386.19
570.13	411.93
570.30	374.49
570.46	437.68
570.62	461.09
570.78	390.87
570.95	444.70
571.11	437.68
571.27	531.30
571.43	449.38
571.60	461.09
571.76	409.59
571.92	447.04
572.09	430.66
572.25	400.23
572.41	383.85
572.57	404.91
572.74	411.93
572.90	393.21
573.06	425.98
573.22	493.85
573.38	433.00
573.55	451.72
573.71	416.62
573.87	414.27
574.03	400.23
574.20	451.72
574.36	428.32
574.52	287.89
574.68	358.10
574.84	421.30
575.01	395.55
575.17	468.11
575.33	440.02
575.49	437.68
575.65	395.55
575.82	372.15
575.98	376.83
576.14	400.23
576.30	390.87
576.46	433.00
576.62	409.59
576.79	440.02
576.95	500.87
577.11	421.30
577.27	416.62
577.43	395.55
577.59	393.21
577.75	425.98
577.92	447.04
578.08	383.85
578.24	421.30
578.40	414.27
578.56	505.56
578.72	414.27
578.88	463.43
579.04	430.66
579.21	472.79
579.37	379.17
579.53	337.04
579.69	388.53
579.85	360.44
580.01	461.09
580.17	360.44
580.33	376.83
580.49	425.98
580.65	430.66
580.82	423.64
580.98	421.30
581.14	358.10
581.30	409.59
581.46	362.78
581.62	442.36
581.78	449.38
581.94	491.51
582.10	351.08
582.26	365.12
582.42	468.11
582.58	444.70
582.74	451.72
582.90	423.64
583.06	372.15
583.22	458.74
583.38	418.96
583.54	348.74
583.70	454.06
583.86	418.96
584.02	337.04
584.18	451.72
584.34	428.32
584.50	313.63
584.66	379.17
584.82	477.47
584.98	468.11
585.14	388.53
585.30	465.77
585.46	395.55
585.62	472.79
585.78	407.25
585.94	383.85
586.10	449.38
586.26	395.55
586.42	383.85
586.58	339.38
586.74	510.24
586.90	423.64
587.06	393.21
587.22	423.64
587.38	435.34
587.54	374.49
587.70	470.45
587.86	386.19
588.02	428.32
588.18	404.91
588.34	362.78
588.49	416.62
588.65	433.00
588.81	421.30
588.97	386.19
589.13	470.45
589.29	402.57
589.45	397.89
589.61	425.98
589.77	475.13
589.93	447.04
590.08	374.49
590.24	414.27
590.40	402.57
590.56	440.02
590.72	402.57
590.88	423.64
591.04	461.09
591.20	447.04
591.35	407.25
591.51	423.64
591.67	390.87
591.83	362.78
591.99	514.92
592.15	477.47
592.31	425.98
592.46	451.72
592.62	454.06
592.78	428.32
592.94	442.36
593.10	374.49
593.26	390.87
593.41	409.59
593.57	381.51
593.73	411.93
593.89	463.43
594.05	440.02
594.20	407.25
594.36	451.72
594.52	390.87
594.68	411.93
594.84	397.89
594.99	486.83
595.15	374.49
595.31	416.62
595.47	493.85
595.62	458.74
595.78	416.62
595.94	402.57
596.10	404.91
596.25	428.32
596.41	440.02
596.57	444.70
596.73	376.83
596.88	390.87
597.04	390.87
597.20	397.89
597.36	477.47
597.51	393.21
597.67	425.98
597.83	437.68
597.99	416.62
598.14	447.04
598.30	512.58
598.46	390.87
598.61	418.96
598.77	477.47
598.93	395.55
599.09	369.80
599.24	393.21
599.40	423.64
599.56	458.74
599.71	428.32
599.87	477.47
600.03	390.87
600.18	404.91
600.34	404.91
600.50	404.91
600.65	411.93
600.81	456.40
600.97	482.15
601.12	430.66
601.28	503.22
601.44	383.85
601.59	468.11
601.75	423.64
601.91	400.23
602.06	430.66
602.22	500.87
602.37	435.34
602.53	425.98
602.69	479.81
602.84	407.25
603.00	449.38
603.16	472.79
603.31	440.02
603.47	393.21
603.62	379.17
603.78	442.36
603.94	430.66
604.09	411.93
604.25	425.98
604.40	491.51
604.56	411.93
604.71	376.83
604.87	381.51
605.03	388.53
605.18	418.96
605.34	461.09
605.49	376.83
605.65	414.27
605.80	369.80
605.96	477.47
606.12	416.62
606.27	423.64
606.43	379.17
606.58	482.15
606.74	353.42
606.89	435.34
607.05	437.68
607.20	468.11
607.36	400.23
607.51	500.87
607.67	388.53
607.82	397.89
607.98	477.47
608.13	435.34
608.29	322.99
608.44	425.98
608.60	402.57
608.75	435.34
608.91	435.34
609.06	402.57
609.22	486.83
609.37	379.17
609.53	383.85
609.68	444.70
609.84	423.64
609.99	411.93
610.15	458.74
