SpectraSuite Data File
++++++++++++++++++++++++++++++++++++
Date: Fri Oct 25 12:10:41 EDT 2013
User: price-jones
Dark Spectrum Present: No
Reference Spectrum Present: No
Number of Sampled Component Spectra: 1
Spectrometers: USB2+H05261
Integration Time (usec): 100000 (USB2+H05261)
Spectra Averaged: 1 (USB2+H05261)
Boxcar Smoothing: 0 (USB2+H05261)
Correct for Electrical Dark: No (USB2+H05261)
Strobe/Lamp Enabled: No (USB2+H05261)
Correct for Detector Non-linearity: No (USB2+H05261)
Correct for Stray Light: No (USB2+H05261)
Number of Pixels in Processed Spectrum: 2048
>>>>>Begin Processed Spectral Data<<<<<
365.73	341.72
365.92	341.72
366.12	341.72
366.32	182.56
366.52	264.48
366.72	318.31
366.91	184.90
367.11	248.10
367.31	201.29
367.51	222.35
367.70	273.84
367.90	287.89
368.10	220.01
368.30	262.14
368.49	238.73
368.69	299.59
368.89	255.12
369.09	276.18
369.28	285.55
369.48	212.99
369.68	330.02
369.87	353.42
370.07	320.65
370.27	280.86
370.47	325.33
370.66	337.04
370.86	397.89
371.06	430.66
371.25	353.42
371.45	278.52
371.65	374.49
371.84	369.80
372.04	409.59
372.24	358.10
372.44	414.27
372.63	341.72
372.83	414.27
373.03	379.17
373.22	402.57
373.42	477.47
373.62	390.87
373.81	409.59
374.01	475.13
374.21	379.17
374.40	451.72
374.60	386.19
374.79	442.36
374.99	498.53
375.19	428.32
375.38	386.19
375.58	397.89
375.78	433.00
375.97	430.66
376.17	425.98
376.37	444.70
376.56	421.30
376.76	442.36
376.95	397.89
377.15	409.59
377.35	386.19
377.54	461.09
377.74	416.62
377.93	369.80
378.13	383.85
378.33	458.74
378.52	411.93
378.72	388.53
378.91	400.23
379.11	395.55
379.31	339.38
379.50	341.72
379.70	447.04
379.89	379.17
380.09	397.89
380.28	334.70
380.48	355.76
380.68	402.57
380.87	320.65
381.07	390.87
381.26	425.98
381.46	447.04
381.65	395.55
381.85	376.83
382.04	468.11
382.24	447.04
382.43	381.51
382.63	395.55
382.83	386.19
383.02	423.64
383.22	444.70
383.41	416.62
383.61	351.08
383.80	372.15
384.00	397.89
384.19	430.66
384.39	376.83
384.58	369.80
384.78	402.57
384.97	400.23
385.17	346.40
385.36	379.17
385.56	418.96
385.75	381.51
385.95	395.55
386.14	365.12
386.34	400.23
386.53	372.15
386.72	358.10
386.92	337.04
387.11	423.64
387.31	447.04
387.50	376.83
387.70	421.30
387.89	479.81
388.09	381.51
388.28	421.30
388.48	362.78
388.67	440.02
388.86	376.83
389.06	390.87
389.25	425.98
389.45	360.44
389.64	393.21
389.84	414.27
390.03	397.89
390.22	458.74
390.42	400.23
390.61	454.06
390.81	390.87
391.00	430.66
391.19	409.59
391.39	369.80
391.58	428.32
391.78	416.62
391.97	449.38
392.16	435.34
392.36	456.40
392.55	409.59
392.75	440.02
392.94	388.53
393.13	433.00
393.33	341.72
393.52	435.34
393.71	400.23
393.91	437.68
394.10	411.93
394.29	351.08
394.49	404.91
394.68	421.30
394.88	456.40
395.07	404.91
395.26	411.93
395.46	477.47
395.65	484.49
395.84	430.66
396.04	454.06
396.23	447.04
396.42	451.72
396.62	451.72
396.81	409.59
397.00	421.30
397.19	367.46
397.39	468.11
397.58	365.12
397.77	322.99
397.97	407.25
398.16	383.85
398.35	472.79
398.55	365.12
398.74	402.57
398.93	465.77
399.12	397.89
399.32	442.36
399.51	374.49
399.70	472.79
399.90	454.06
400.09	500.87
400.28	447.04
400.47	416.62
400.67	402.57
400.86	430.66
401.05	465.77
401.24	383.85
401.44	428.32
401.63	379.17
401.82	414.27
402.01	376.83
402.21	360.44
402.40	428.32
402.59	440.02
402.78	416.62
402.97	376.83
403.17	407.25
403.36	425.98
403.55	416.62
403.74	465.77
403.93	374.49
404.13	395.55
404.32	421.30
404.51	411.93
404.70	421.30
404.89	276.18
405.09	367.46
405.28	461.09
405.47	381.51
405.66	402.57
405.85	418.96
406.05	430.66
406.24	351.08
406.43	393.21
406.62	367.46
406.81	451.72
407.00	421.30
407.20	397.89
407.39	414.27
407.58	430.66
407.77	449.38
407.96	454.06
408.15	395.55
408.34	414.27
408.54	400.23
408.73	386.19
408.92	407.25
409.11	369.80
409.30	456.40
409.49	414.27
409.68	442.36
409.87	444.70
410.07	435.34
410.26	463.43
410.45	355.76
410.64	397.89
410.83	433.00
411.02	334.70
411.21	402.57
411.40	435.34
411.59	383.85
411.78	414.27
411.98	451.72
412.17	337.04
412.36	390.87
412.55	430.66
412.74	442.36
412.93	437.68
413.12	386.19
413.31	421.30
413.50	423.64
413.69	374.49
413.88	423.64
414.07	388.53
414.26	416.62
414.45	416.62
414.64	409.59
414.83	369.80
415.02	404.91
415.22	411.93
415.41	348.74
415.60	390.87
415.79	409.59
415.98	416.62
416.17	353.42
416.36	423.64
416.55	374.49
416.74	390.87
416.93	507.90
417.12	402.57
417.31	442.36
417.50	386.19
417.69	477.47
417.88	421.30
418.07	390.87
418.26	374.49
418.45	395.55
418.64	379.17
418.83	437.68
419.02	461.09
419.21	428.32
419.39	428.32
419.58	397.89
419.77	386.19
419.96	383.85
420.15	395.55
420.34	393.21
420.53	414.27
420.72	463.43
420.91	425.98
421.10	418.96
421.29	465.77
421.48	414.27
421.67	393.21
421.86	435.34
422.05	416.62
422.24	376.83
422.43	355.76
422.61	397.89
422.80	395.55
422.99	395.55
423.18	402.57
423.37	458.74
423.56	470.45
423.75	414.27
423.94	461.09
424.13	407.25
424.32	414.27
424.50	400.23
424.69	402.57
424.88	470.45
425.07	458.74
425.26	442.36
425.45	351.08
425.64	423.64
425.83	407.25
426.01	486.83
426.20	404.91
426.39	358.10
426.58	400.23
426.77	418.96
426.96	407.25
427.15	449.38
427.33	461.09
427.52	468.11
427.71	388.53
427.90	454.06
428.09	360.44
428.28	461.09
428.46	418.96
428.65	447.04
428.84	428.32
429.03	468.11
429.22	407.25
429.40	433.00
429.59	400.23
429.78	376.83
429.97	400.23
430.16	447.04
430.34	362.78
430.53	425.98
430.72	423.64
430.91	435.34
431.10	400.23
431.28	416.62
431.47	430.66
431.66	393.21
431.85	407.25
432.03	397.89
432.22	514.92
432.41	393.21
432.60	433.00
432.79	355.76
432.97	428.32
433.16	381.51
433.35	461.09
433.54	341.72
433.72	470.45
433.91	442.36
434.10	463.43
434.28	402.57
434.47	367.46
434.66	517.26
434.85	362.78
435.03	407.25
435.22	416.62
435.41	449.38
435.59	430.66
435.78	416.62
435.97	404.91
436.16	435.34
436.34	397.89
436.53	409.59
436.72	440.02
436.90	454.06
437.09	449.38
437.28	346.40
437.46	395.55
437.65	449.38
437.84	430.66
438.02	416.62
438.21	407.25
438.40	414.27
438.58	437.68
438.77	447.04
438.96	440.02
439.14	404.91
439.33	428.32
439.52	454.06
439.70	425.98
439.89	414.27
440.08	430.66
440.26	386.19
440.45	379.17
440.63	435.34
440.82	425.98
441.01	435.34
441.19	402.57
441.38	402.57
441.57	442.36
441.75	500.87
441.94	395.55
442.12	470.45
442.31	402.57
442.50	407.25
442.68	451.72
442.87	479.81
443.05	383.85
443.24	449.38
443.43	463.43
443.61	397.89
443.80	409.59
443.98	425.98
444.17	365.12
444.35	435.34
444.54	425.98
444.73	423.64
444.91	402.57
445.10	374.49
445.28	407.25
445.47	463.43
445.65	449.38
445.84	433.00
446.02	402.57
446.21	315.97
446.39	407.25
446.58	451.72
446.77	351.08
446.95	365.12
447.14	400.23
447.32	449.38
447.51	390.87
447.69	421.30
447.88	454.06
448.06	383.85
448.25	404.91
448.43	475.13
448.62	409.59
448.80	411.93
448.99	425.98
449.17	411.93
449.36	454.06
449.54	386.19
449.73	407.25
449.91	372.15
450.10	416.62
450.28	449.38
450.46	437.68
450.65	416.62
450.83	388.53
451.02	383.85
451.20	482.15
451.39	409.59
451.57	442.36
451.76	512.58
451.94	465.77
452.13	433.00
452.31	444.70
452.49	423.64
452.68	454.06
452.86	486.83
453.05	435.34
453.23	414.27
453.42	435.34
453.60	393.21
453.78	381.51
453.97	374.49
454.15	376.83
454.34	421.30
454.52	402.57
454.70	512.58
454.89	435.34
455.07	521.94
455.26	489.17
455.44	472.79
455.62	416.62
455.81	353.42
455.99	435.34
456.17	423.64
456.36	454.06
456.54	489.17
456.73	421.30
456.91	381.51
457.09	395.55
457.28	449.38
457.46	433.00
457.64	395.55
457.83	425.98
458.01	472.79
458.19	348.74
458.38	402.57
458.56	346.40
458.74	451.72
458.93	482.15
459.11	388.53
459.29	402.57
459.48	358.10
459.66	472.79
459.84	472.79
460.03	400.23
460.21	360.44
460.39	358.10
460.57	416.62
460.76	423.64
460.94	477.47
461.12	465.77
461.31	421.30
461.49	442.36
461.67	397.89
461.85	433.00
462.04	344.06
462.22	725.57
462.40	428.32
462.59	458.74
462.77	479.81
462.95	428.32
463.13	435.34
463.32	381.51
463.50	449.38
463.68	451.72
463.86	393.21
464.05	409.59
464.23	358.10
464.41	458.74
464.59	383.85
464.78	379.17
464.96	381.51
465.14	400.23
465.32	341.72
465.50	416.62
465.69	383.85
465.87	344.06
466.05	458.74
466.23	390.87
466.41	386.19
466.60	444.70
466.78	418.96
466.96	416.62
467.14	395.55
467.32	442.36
467.51	348.74
467.69	440.02
467.87	376.83
468.05	493.85
468.23	461.09
468.41	454.06
468.60	425.98
468.78	440.02
468.96	397.89
469.14	447.04
469.32	393.21
469.50	365.12
469.69	423.64
469.87	425.98
470.05	421.30
470.23	414.27
470.41	390.87
470.59	383.85
470.77	425.98
470.95	390.87
471.14	440.02
471.32	351.08
471.50	437.68
471.68	411.93
471.86	425.98
472.04	400.23
472.22	402.57
472.40	397.89
472.58	402.57
472.77	351.08
472.95	421.30
473.13	388.53
473.31	472.79
473.49	402.57
473.67	407.25
473.85	416.62
474.03	421.30
474.21	395.55
474.39	372.15
474.57	437.68
474.75	402.57
474.93	325.33
475.12	379.17
475.30	440.02
475.48	489.17
475.66	369.80
475.84	428.32
476.02	400.23
476.20	463.43
476.38	411.93
476.56	442.36
476.74	381.51
476.92	381.51
477.10	386.19
477.28	456.40
477.46	437.68
477.64	400.23
477.82	393.21
478.00	435.34
478.18	430.66
478.36	435.34
478.54	404.91
478.72	463.43
478.90	430.66
479.08	390.87
479.26	395.55
479.44	411.93
479.62	334.70
479.80	400.23
479.98	393.21
480.16	435.34
480.34	390.87
480.52	376.83
480.70	393.21
480.88	505.56
481.06	411.93
481.24	416.62
481.41	416.62
481.59	400.23
481.77	496.19
481.95	416.62
482.13	444.70
482.31	381.51
482.49	475.13
482.67	440.02
482.85	395.55
483.03	367.46
483.21	402.57
483.39	444.70
483.57	458.74
483.74	458.74
483.92	409.59
484.10	404.91
484.28	400.23
484.46	454.06
484.64	400.23
484.82	372.15
485.00	458.74
485.18	365.12
485.35	397.89
485.53	353.42
485.71	491.51
485.89	402.57
486.07	402.57
486.25	416.62
486.43	339.38
486.61	444.70
486.78	407.25
486.96	465.77
487.14	374.49
487.32	372.15
487.50	430.66
487.68	421.30
487.85	414.27
488.03	386.19
488.21	416.62
488.39	493.85
488.57	461.09
488.75	346.40
488.92	475.13
489.10	444.70
489.28	447.04
489.46	383.85
489.64	430.66
489.81	421.30
489.99	400.23
490.17	400.23
490.35	454.06
490.53	437.68
490.70	369.80
490.88	402.57
491.06	322.99
491.24	407.25
491.41	533.64
491.59	447.04
491.77	411.93
491.95	425.98
492.13	318.31
492.30	402.57
492.48	444.70
492.66	461.09
492.84	390.87
493.01	454.06
493.19	381.51
493.37	360.44
493.54	402.57
493.72	388.53
493.90	393.21
494.08	407.25
494.25	409.59
494.43	486.83
494.61	421.30
494.79	468.11
494.96	411.93
495.14	346.40
495.32	416.62
495.49	454.06
495.67	369.80
495.85	451.72
496.02	383.85
496.20	407.25
496.38	470.45
496.55	388.53
496.73	475.13
496.91	421.30
497.09	372.15
497.26	435.34
497.44	433.00
497.62	430.66
497.79	418.96
497.97	454.06
498.14	433.00
498.32	400.23
498.50	397.89
498.67	360.44
498.85	433.00
499.03	395.55
499.20	430.66
499.38	358.10
499.56	397.89
499.73	421.30
499.91	465.77
500.08	360.44
500.26	411.93
500.44	365.12
500.61	395.55
500.79	402.57
500.97	411.93
501.14	393.21
501.32	437.68
501.49	482.15
501.67	458.74
501.84	498.53
502.02	407.25
502.20	421.30
502.37	428.32
502.55	390.87
502.72	421.30
502.90	447.04
503.07	404.91
503.25	409.59
503.43	395.55
503.60	393.21
503.78	440.02
503.95	404.91
504.13	388.53
504.30	414.27
504.48	386.19
504.65	503.22
504.83	388.53
505.01	409.59
505.18	503.22
505.36	449.38
505.53	351.08
505.71	416.62
505.88	421.30
506.06	411.93
506.23	369.80
506.41	393.21
506.58	430.66
506.76	395.55
506.93	423.64
507.11	454.06
507.28	414.27
507.46	440.02
507.63	397.89
507.81	348.74
507.98	386.19
508.16	358.10
508.33	454.06
508.50	463.43
508.68	423.64
508.85	440.02
509.03	409.59
509.20	430.66
509.38	362.78
509.55	402.57
509.73	442.36
509.90	472.79
510.08	395.55
510.25	442.36
510.42	421.30
510.60	472.79
510.77	435.34
510.95	458.74
511.12	372.15
511.30	376.83
511.47	449.38
511.64	477.47
511.82	383.85
511.99	390.87
512.17	376.83
512.34	430.66
512.51	470.45
512.69	456.40
512.86	421.30
513.04	447.04
513.21	416.62
513.38	416.62
513.56	400.23
513.73	400.23
513.90	362.78
514.08	372.15
514.25	334.70
514.43	409.59
514.60	444.70
514.77	425.98
514.95	379.17
515.12	379.17
515.29	433.00
515.47	451.72
515.64	381.51
515.81	367.46
515.99	404.91
516.16	458.74
516.33	470.45
516.51	423.64
516.68	433.00
516.85	404.91
517.03	358.10
517.20	388.53
517.37	411.93
517.54	365.12
517.72	404.91
517.89	367.46
518.06	358.10
518.24	465.77
518.41	440.02
518.58	393.21
518.75	404.91
518.93	423.64
519.10	425.98
519.27	397.89
519.45	404.91
519.62	407.25
519.79	472.79
519.96	437.68
520.14	425.98
520.31	440.02
520.48	440.02
520.65	454.06
520.83	428.32
521.00	414.27
521.17	395.55
521.34	428.32
521.52	372.15
521.69	400.23
521.86	381.51
522.03	454.06
522.20	383.85
522.38	454.06
522.55	348.74
522.72	444.70
522.89	447.04
523.07	482.15
523.24	362.78
523.41	376.83
523.58	496.19
523.75	360.44
523.92	327.68
524.10	421.30
524.27	407.25
524.44	425.98
524.61	430.66
524.78	395.55
524.96	351.08
525.13	374.49
525.30	421.30
525.47	461.09
525.64	390.87
525.81	360.44
525.98	463.43
526.16	390.87
526.33	383.85
526.50	472.79
526.67	447.04
526.84	381.51
527.01	397.89
527.18	421.30
527.36	414.27
527.53	407.25
527.70	456.40
527.87	409.59
528.04	463.43
528.21	416.62
528.38	404.91
528.55	423.64
528.72	498.53
528.89	390.87
529.07	395.55
529.24	440.02
529.41	362.78
529.58	390.87
529.75	510.24
529.92	416.62
530.09	435.34
530.26	425.98
530.43	463.43
530.60	374.49
530.77	411.93
530.94	454.06
531.11	458.74
531.28	388.53
531.46	409.59
531.63	395.55
531.80	311.29
531.97	486.83
532.14	360.44
532.31	433.00
532.48	458.74
532.65	376.83
532.82	449.38
532.99	411.93
533.16	442.36
533.33	411.93
533.50	482.15
533.67	400.23
533.84	418.96
534.01	435.34
534.18	409.59
534.35	425.98
534.52	400.23
534.69	397.89
534.86	414.27
535.03	416.62
535.20	465.77
535.37	425.98
535.54	388.53
535.71	374.49
535.88	477.47
536.05	435.34
536.22	374.49
536.38	383.85
536.55	437.68
536.72	470.45
536.89	322.99
537.06	390.87
537.23	430.66
537.40	447.04
537.57	451.72
537.74	435.34
537.91	397.89
538.08	428.32
538.25	442.36
538.42	386.19
538.59	421.30
538.75	367.46
538.92	428.32
539.09	437.68
539.26	482.15
539.43	482.15
539.60	468.11
539.77	379.17
539.94	379.17
540.11	482.15
540.28	372.15
540.44	454.06
540.61	379.17
540.78	442.36
540.95	367.46
541.12	451.72
541.29	372.15
541.46	454.06
541.62	447.04
541.79	327.68
541.96	414.27
542.13	400.23
542.30	381.51
542.47	449.38
542.63	402.57
542.80	402.57
542.97	479.81
543.14	461.09
543.31	421.30
543.48	400.23
543.64	414.27
543.81	444.70
543.98	428.32
544.15	383.85
544.32	369.80
544.48	414.27
544.65	393.21
544.82	404.91
544.99	447.04
545.16	332.36
545.32	447.04
545.49	337.04
545.66	479.81
545.83	390.87
546.00	416.62
546.16	376.83
546.33	388.53
546.50	390.87
546.67	442.36
546.83	433.00
547.00	421.30
547.17	407.25
547.34	365.12
547.50	409.59
547.67	428.32
547.84	376.83
548.00	397.89
548.17	397.89
548.34	409.59
548.51	477.47
548.67	362.78
548.84	442.36
549.01	442.36
549.18	383.85
549.34	435.34
549.51	400.23
549.68	411.93
549.84	435.34
550.01	402.57
550.18	472.79
550.34	416.62
550.51	414.27
550.68	418.96
550.84	400.23
551.01	435.34
551.18	416.62
551.34	440.02
551.51	402.57
551.68	423.64
551.84	411.93
552.01	433.00
552.18	447.04
552.34	404.91
552.51	383.85
552.68	400.23
552.84	372.15
553.01	428.32
553.18	372.15
553.34	479.81
553.51	308.95
553.67	435.34
553.84	428.32
554.01	360.44
554.17	397.89
554.34	404.91
554.51	414.27
554.67	472.79
554.84	425.98
555.00	409.59
555.17	468.11
555.33	447.04
555.50	430.66
555.67	402.57
555.83	409.59
556.00	397.89
556.16	482.15
556.33	414.27
556.50	468.11
556.66	437.68
556.83	379.17
556.99	442.36
557.16	468.11
557.32	493.85
557.49	383.85
557.65	402.57
557.82	379.17
557.98	393.21
558.15	358.10
558.32	334.70
558.48	411.93
558.65	346.40
558.81	353.42
558.98	482.15
559.14	465.77
559.31	376.83
559.47	423.64
559.64	397.89
559.80	393.21
559.97	435.34
560.13	390.87
560.30	461.09
560.46	433.00
560.63	360.44
560.79	383.85
560.96	416.62
561.12	442.36
561.29	451.72
561.45	430.66
561.61	468.11
561.78	543.00
561.94	390.87
562.11	484.49
562.27	390.87
562.44	470.45
562.60	447.04
562.77	341.72
562.93	482.15
563.10	463.43
563.26	472.79
563.42	404.91
563.59	423.64
563.75	463.43
563.92	454.06
564.08	493.85
564.24	360.44
564.41	454.06
564.57	341.72
564.74	458.74
564.90	421.30
565.07	435.34
565.23	461.09
565.39	449.38
565.56	414.27
565.72	393.21
565.88	493.85
566.05	449.38
566.21	479.81
566.38	407.25
566.54	433.00
566.70	425.98
566.87	421.30
567.03	411.93
567.19	411.93
567.36	404.91
567.52	444.70
567.68	428.32
567.85	444.70
568.01	404.91
568.17	367.46
568.34	433.00
568.50	477.47
568.66	418.96
568.83	477.47
568.99	376.83
569.15	409.59
569.32	418.96
569.48	386.19
569.64	325.33
569.81	472.79
569.97	379.17
570.13	440.02
570.30	454.06
570.46	463.43
570.62	475.13
570.78	393.21
570.95	404.91
571.11	428.32
571.27	472.79
571.43	416.62
571.60	388.53
571.76	388.53
571.92	395.55
572.09	421.30
572.25	421.30
572.41	547.69
572.57	383.85
572.74	465.77
572.90	489.17
573.06	437.68
573.22	407.25
573.38	449.38
573.55	447.04
573.71	440.02
573.87	386.19
574.03	433.00
574.20	379.17
574.36	442.36
574.52	379.17
574.68	344.06
574.84	435.34
575.01	414.27
575.17	437.68
575.33	393.21
575.49	451.72
575.65	404.91
575.82	475.13
575.98	418.96
576.14	428.32
576.30	411.93
576.46	402.57
576.62	367.46
576.79	402.57
576.95	407.25
577.11	423.64
577.27	435.34
577.43	421.30
577.59	400.23
577.75	414.27
577.92	451.72
578.08	411.93
578.24	402.57
578.40	468.11
578.56	358.10
578.72	435.34
578.88	447.04
579.04	456.40
579.21	456.40
579.37	451.72
579.53	421.30
579.69	454.06
579.85	379.17
580.01	454.06
580.17	386.19
580.33	433.00
580.49	374.49
580.65	449.38
580.82	444.70
580.98	372.15
581.14	355.76
581.30	374.49
581.46	383.85
581.62	465.77
581.78	393.21
581.94	428.32
582.10	440.02
582.26	383.85
582.42	386.19
582.58	400.23
582.74	409.59
582.90	390.87
583.06	416.62
583.22	411.93
583.38	334.70
583.54	353.42
583.70	425.98
583.86	404.91
584.02	444.70
584.18	507.90
584.34	407.25
584.50	409.59
584.66	367.46
584.82	397.89
584.98	402.57
585.14	404.91
585.30	458.74
585.46	308.95
585.62	407.25
585.78	379.17
585.94	414.27
586.10	395.55
586.26	484.49
586.42	500.87
586.58	393.21
586.74	393.21
586.90	341.72
587.06	416.62
587.22	334.70
587.38	404.91
587.54	388.53
587.70	393.21
587.86	393.21
588.02	416.62
588.18	428.32
588.34	433.00
588.49	407.25
588.65	411.93
588.81	430.66
588.97	376.83
589.13	428.32
589.29	416.62
589.45	395.55
589.61	374.49
589.77	435.34
589.93	437.68
590.08	437.68
590.24	500.87
590.40	409.59
590.56	449.38
590.72	383.85
590.88	388.53
591.04	442.36
591.20	367.46
591.35	456.40
591.51	423.64
591.67	297.25
591.83	393.21
591.99	482.15
592.15	470.45
592.31	341.72
592.46	440.02
592.62	402.57
592.78	376.83
592.94	393.21
593.10	341.72
593.26	416.62
593.41	475.13
593.57	447.04
593.73	404.91
593.89	428.32
594.05	379.17
594.20	376.83
594.36	416.62
594.52	393.21
594.68	327.68
594.84	402.57
594.99	411.93
595.15	395.55
595.31	346.40
595.47	416.62
595.62	421.30
595.78	421.30
595.94	374.49
596.10	428.32
596.25	388.53
596.41	395.55
596.57	421.30
596.73	409.59
596.88	344.06
597.04	442.36
597.20	423.64
597.36	458.74
597.51	400.23
597.67	402.57
597.83	454.06
597.99	463.43
598.14	397.89
598.30	456.40
598.46	397.89
598.61	456.40
598.77	402.57
598.93	358.10
599.09	381.51
599.24	437.68
599.40	402.57
599.56	435.34
599.71	442.36
599.87	362.78
600.03	390.87
600.18	404.91
600.34	449.38
600.50	414.27
600.65	339.38
600.81	496.19
600.97	397.89
601.12	425.98
601.28	475.13
601.44	465.77
601.59	416.62
601.75	411.93
601.91	351.08
602.06	433.00
602.22	482.15
602.37	383.85
602.53	425.98
602.69	444.70
602.84	418.96
603.00	430.66
603.16	454.06
603.31	421.30
603.47	451.72
603.62	360.44
603.78	425.98
603.94	379.17
604.09	414.27
604.25	421.30
604.40	470.45
604.56	435.34
604.71	482.15
604.87	395.55
605.03	430.66
605.18	416.62
605.34	372.15
605.49	486.83
605.65	320.65
605.80	388.53
605.96	435.34
606.12	400.23
606.27	404.91
606.43	447.04
606.58	463.43
606.74	402.57
606.89	369.80
607.05	402.57
607.20	425.98
607.36	433.00
607.51	493.85
607.67	421.30
607.82	435.34
607.98	447.04
608.13	463.43
608.29	430.66
608.44	444.70
608.60	400.23
608.75	409.59
608.91	428.32
609.06	435.34
609.22	402.57
609.37	409.59
609.53	362.78
609.68	440.02
609.84	503.22
609.99	465.77
610.15	451.72
