SpectraSuite Data File
++++++++++++++++++++++++++++++++++++
Date: Fri Oct 25 12:11:23 EDT 2013
User: price-jones
Dark Spectrum Present: No
Reference Spectrum Present: No
Number of Sampled Component Spectra: 1
Spectrometers: USB2+H05261
Integration Time (usec): 100000 (USB2+H05261)
Spectra Averaged: 1 (USB2+H05261)
Boxcar Smoothing: 0 (USB2+H05261)
Correct for Electrical Dark: No (USB2+H05261)
Strobe/Lamp Enabled: No (USB2+H05261)
Correct for Detector Non-linearity: No (USB2+H05261)
Correct for Stray Light: No (USB2+H05261)
Number of Pixels in Processed Spectrum: 2048
>>>>>Begin Processed Spectral Data<<<<<
365.73	376.83
365.92	376.83
366.12	376.83
366.32	182.56
366.52	278.52
366.72	273.84
366.91	208.31
367.11	231.71
367.31	208.31
367.51	266.82
367.70	259.80
367.90	210.65
368.10	271.50
368.30	205.97
368.49	259.80
368.69	278.52
368.89	245.76
369.09	191.92
369.28	220.01
369.48	276.18
369.68	285.55
369.87	266.82
370.07	337.04
370.27	355.76
370.47	360.44
370.66	358.10
370.86	346.40
371.06	428.32
371.25	367.46
371.45	409.59
371.65	330.02
371.84	498.53
372.04	355.76
372.24	313.63
372.44	388.53
372.63	444.70
372.83	393.21
373.03	437.68
373.22	461.09
373.42	402.57
373.62	428.32
373.81	423.64
374.01	390.87
374.21	503.22
374.40	430.66
374.60	468.11
374.79	353.42
374.99	397.89
375.19	358.10
375.38	409.59
375.58	367.46
375.78	433.00
375.97	470.45
376.17	416.62
376.37	437.68
376.56	402.57
376.76	320.65
376.95	409.59
377.15	512.58
377.35	444.70
377.54	421.30
377.74	402.57
377.93	421.30
378.13	440.02
378.33	395.55
378.52	400.23
378.72	418.96
378.91	423.64
379.11	386.19
379.31	421.30
379.50	451.72
379.70	461.09
379.89	397.89
380.09	376.83
380.28	383.85
380.48	407.25
380.68	411.93
380.87	440.02
381.07	365.12
381.26	435.34
381.46	374.49
381.65	374.49
381.85	414.27
382.04	360.44
382.24	447.04
382.43	395.55
382.63	358.10
382.83	386.19
383.02	409.59
383.22	423.64
383.41	482.15
383.61	421.30
383.80	461.09
384.00	383.85
384.19	491.51
384.39	381.51
384.58	397.89
384.78	435.34
384.97	397.89
385.17	442.36
385.36	435.34
385.56	416.62
385.75	369.80
385.95	416.62
386.14	390.87
386.34	376.83
386.53	400.23
386.72	402.57
386.92	468.11
387.11	423.64
387.31	381.51
387.50	379.17
387.70	353.42
387.89	390.87
388.09	346.40
388.28	404.91
388.48	402.57
388.67	411.93
388.86	444.70
389.06	430.66
389.25	468.11
389.45	470.45
389.64	428.32
389.84	383.85
390.03	418.96
390.22	390.87
390.42	374.49
390.61	367.46
390.81	393.21
391.00	365.12
391.19	360.44
391.39	454.06
391.58	430.66
391.78	465.77
391.97	425.98
392.16	430.66
392.36	475.13
392.55	404.91
392.75	292.57
392.94	395.55
393.13	411.93
393.33	433.00
393.52	395.55
393.71	341.72
393.91	386.19
394.10	435.34
394.29	449.38
394.49	390.87
394.68	388.53
394.88	402.57
395.07	374.49
395.26	379.17
395.46	435.34
395.65	360.44
395.84	433.00
396.04	505.56
396.23	416.62
396.42	442.36
396.62	416.62
396.81	435.34
397.00	400.23
397.19	447.04
397.39	388.53
397.58	425.98
397.77	416.62
397.97	418.96
398.16	451.72
398.35	423.64
398.55	435.34
398.74	374.49
398.93	400.23
399.12	397.89
399.32	470.45
399.51	423.64
399.70	381.51
399.90	454.06
400.09	428.32
400.28	484.49
400.47	397.89
400.67	442.36
400.86	451.72
401.05	425.98
401.24	386.19
401.44	341.72
401.63	437.68
401.82	423.64
402.01	393.21
402.21	454.06
402.40	367.46
402.59	433.00
402.78	358.10
402.97	400.23
403.17	400.23
403.36	470.45
403.55	479.81
403.74	421.30
403.93	433.00
404.13	428.32
404.32	383.85
404.51	348.74
404.70	444.70
404.89	376.83
405.09	510.24
405.28	383.85
405.47	421.30
405.66	463.43
405.85	397.89
406.05	397.89
406.24	425.98
406.43	425.98
406.62	451.72
406.81	463.43
407.00	475.13
407.20	454.06
407.39	437.68
407.58	266.82
407.77	444.70
407.96	461.09
408.15	470.45
408.34	369.80
408.54	423.64
408.73	379.17
408.92	428.32
409.11	360.44
409.30	486.83
409.49	365.12
409.68	365.12
409.87	407.25
410.07	325.33
410.26	433.00
410.45	383.85
410.64	411.93
410.83	407.25
411.02	353.42
411.21	454.06
411.40	447.04
411.59	393.21
411.78	402.57
411.98	348.74
412.17	374.49
412.36	388.53
412.55	433.00
412.74	484.49
412.93	503.22
413.12	411.93
413.31	332.36
413.50	456.40
413.69	418.96
413.88	458.74
414.07	411.93
414.26	463.43
414.45	372.15
414.64	409.59
414.83	416.62
415.02	421.30
415.22	454.06
415.41	402.57
415.60	423.64
415.79	362.78
415.98	465.77
416.17	430.66
416.36	379.17
416.55	372.15
416.74	442.36
416.93	379.17
417.12	447.04
417.31	374.49
417.50	425.98
417.69	400.23
417.88	386.19
418.07	348.74
418.26	449.38
418.45	358.10
418.64	416.62
418.83	418.96
419.02	379.17
419.21	404.91
419.39	475.13
419.58	346.40
419.77	365.12
419.96	393.21
420.15	414.27
420.34	346.40
420.53	433.00
420.72	454.06
420.91	414.27
421.10	461.09
421.29	369.80
421.48	433.00
421.67	416.62
421.86	376.83
422.05	383.85
422.24	383.85
422.43	407.25
422.61	388.53
422.80	411.93
422.99	423.64
423.18	421.30
423.37	475.13
423.56	404.91
423.75	365.12
423.94	409.59
424.13	386.19
424.32	409.59
424.50	395.55
424.69	393.21
424.88	397.89
425.07	430.66
425.26	411.93
425.45	491.51
425.64	458.74
425.83	451.72
426.01	433.00
426.20	388.53
426.39	437.68
426.58	442.36
426.77	421.30
426.96	313.63
427.15	437.68
427.33	416.62
427.52	461.09
427.71	428.32
427.90	423.64
428.09	353.42
428.28	383.85
428.46	451.72
428.65	400.23
428.84	437.68
429.03	437.68
429.22	397.89
429.40	414.27
429.59	369.80
429.78	397.89
429.97	407.25
430.16	402.57
430.34	409.59
430.53	411.93
430.72	449.38
430.91	475.13
431.10	362.78
431.28	367.46
431.47	355.76
431.66	472.79
431.85	386.19
432.03	407.25
432.22	393.21
432.41	418.96
432.60	456.40
432.79	409.59
432.97	437.68
433.16	461.09
433.35	393.21
433.54	390.87
433.72	425.98
433.91	468.11
434.10	383.85
434.28	404.91
434.47	346.40
434.66	428.32
434.85	353.42
435.03	437.68
435.22	418.96
435.41	458.74
435.59	423.64
435.78	482.15
435.97	390.87
436.16	425.98
436.34	339.38
436.53	421.30
436.72	461.09
436.90	454.06
437.09	355.76
437.28	390.87
437.46	374.49
437.65	360.44
437.84	425.98
438.02	479.81
438.21	404.91
438.40	407.25
438.58	447.04
438.77	514.92
438.96	332.36
439.14	440.02
439.33	449.38
439.52	407.25
439.70	358.10
439.89	454.06
440.08	437.68
440.26	428.32
440.45	397.89
440.63	376.83
440.82	409.59
441.01	428.32
441.19	407.25
441.38	400.23
441.57	428.32
441.75	435.34
441.94	510.24
442.12	374.49
442.31	442.36
442.50	435.34
442.68	379.17
442.87	308.95
443.05	367.46
443.24	414.27
443.43	358.10
443.61	421.30
443.80	390.87
443.98	400.23
444.17	430.66
444.35	458.74
444.54	402.57
444.73	407.25
444.91	470.45
445.10	414.27
445.28	400.23
445.47	381.51
445.65	470.45
445.84	402.57
446.02	482.15
446.21	393.21
446.39	407.25
446.58	486.83
446.77	414.27
446.95	442.36
447.14	308.95
447.32	421.30
447.51	409.59
447.69	475.13
447.88	404.91
448.06	397.89
448.25	407.25
448.43	423.64
448.62	400.23
448.80	433.00
448.99	414.27
449.17	414.27
449.36	435.34
449.54	454.06
449.73	484.49
449.91	348.74
450.10	435.34
450.28	486.83
450.46	482.15
450.65	479.81
450.83	386.19
451.02	468.11
451.20	418.96
451.39	386.19
451.57	341.72
451.76	372.15
451.94	496.19
452.13	444.70
452.31	484.49
452.49	433.00
452.68	330.02
452.86	386.19
453.05	451.72
453.23	451.72
453.42	344.06
453.60	358.10
453.78	472.79
453.97	362.78
454.15	376.83
454.34	402.57
454.52	449.38
454.70	428.32
454.89	449.38
455.07	442.36
455.26	433.00
455.44	484.49
455.62	411.93
455.81	369.80
455.99	458.74
456.17	470.45
456.36	479.81
456.54	425.98
456.73	416.62
456.91	353.42
457.09	418.96
457.28	456.40
457.46	449.38
457.64	440.02
457.83	491.51
458.01	409.59
458.19	411.93
458.38	374.49
458.56	418.96
458.74	416.62
458.93	454.06
459.11	407.25
459.29	358.10
459.48	458.74
459.66	477.47
459.84	463.43
460.03	489.17
460.21	470.45
460.39	423.64
460.57	416.62
460.76	442.36
460.94	435.34
461.12	402.57
461.31	470.45
461.49	353.42
461.67	355.76
461.85	395.55
462.04	423.64
462.22	765.36
462.40	468.11
462.59	461.09
462.77	381.51
462.95	374.49
463.13	421.30
463.32	404.91
463.50	397.89
463.68	346.40
463.86	390.87
464.05	496.19
464.23	465.77
464.41	418.96
464.59	437.68
464.78	360.44
464.96	461.09
465.14	498.53
465.32	479.81
465.50	409.59
465.69	454.06
465.87	421.30
466.05	372.15
466.23	404.91
466.41	430.66
466.60	510.24
466.78	372.15
466.96	411.93
467.14	369.80
467.32	461.09
467.51	374.49
467.69	421.30
467.87	456.40
468.05	400.23
468.23	482.15
468.41	430.66
468.60	425.98
468.78	465.77
468.96	463.43
469.14	465.77
469.32	425.98
469.50	341.72
469.69	404.91
469.87	449.38
470.05	383.85
470.23	454.06
470.41	386.19
470.59	372.15
470.77	360.44
470.95	388.53
471.14	463.43
471.32	397.89
471.50	435.34
471.68	479.81
471.86	362.78
472.04	409.59
472.22	388.53
472.40	463.43
472.58	381.51
472.77	388.53
472.95	383.85
473.13	369.80
473.31	428.32
473.49	360.44
473.67	470.45
473.85	428.32
474.03	463.43
474.21	444.70
474.39	423.64
474.57	451.72
474.75	407.25
474.93	440.02
475.12	428.32
475.30	428.32
475.48	454.06
475.66	425.98
475.84	383.85
476.02	404.91
476.20	430.66
476.38	421.30
476.56	411.93
476.74	409.59
476.92	414.27
477.10	402.57
477.28	358.10
477.46	355.76
477.64	416.62
477.82	372.15
478.00	395.55
478.18	374.49
478.36	397.89
478.54	395.55
478.72	414.27
478.90	484.49
479.08	510.24
479.26	482.15
479.44	456.40
479.62	430.66
479.80	421.30
479.98	390.87
480.16	451.72
480.34	353.42
480.52	407.25
480.70	442.36
480.88	407.25
481.06	407.25
481.24	423.64
481.41	437.68
481.59	440.02
481.77	397.89
481.95	433.00
482.13	437.68
482.31	397.89
482.49	435.34
482.67	428.32
482.85	416.62
483.03	463.43
483.21	430.66
483.39	454.06
483.57	390.87
483.74	435.34
483.92	404.91
484.10	451.72
484.28	451.72
484.46	454.06
484.64	421.30
484.82	482.15
485.00	475.13
485.18	484.49
485.35	411.93
485.53	388.53
485.71	421.30
485.89	402.57
486.07	442.36
486.25	414.27
486.43	414.27
486.61	414.27
486.78	395.55
486.96	430.66
487.14	383.85
487.32	397.89
487.50	470.45
487.68	437.68
487.85	374.49
488.03	418.96
488.21	411.93
488.39	379.17
488.57	360.44
488.75	440.02
488.92	503.22
489.10	400.23
489.28	395.55
489.46	369.80
489.64	409.59
489.81	402.57
489.99	458.74
490.17	395.55
490.35	447.04
490.53	414.27
490.70	409.59
490.88	386.19
491.06	404.91
491.24	468.11
491.41	440.02
491.59	477.47
491.77	379.17
491.95	381.51
492.13	339.38
492.30	351.08
492.48	379.17
492.66	454.06
492.84	458.74
493.01	463.43
493.19	411.93
493.37	435.34
493.54	381.51
493.72	454.06
493.90	351.08
494.08	355.76
494.25	395.55
494.43	404.91
494.61	437.68
494.79	442.36
494.96	360.44
495.14	458.74
495.32	451.72
495.49	390.87
495.67	395.55
495.85	390.87
496.02	372.15
496.20	454.06
496.38	470.45
496.55	423.64
496.73	433.00
496.91	376.83
497.09	451.72
497.26	395.55
497.44	386.19
497.62	475.13
497.79	425.98
497.97	379.17
498.14	365.12
498.32	411.93
498.50	395.55
498.67	472.79
498.85	428.32
499.03	393.21
499.20	374.49
499.38	400.23
499.56	421.30
499.73	425.98
499.91	454.06
500.08	475.13
500.26	482.15
500.44	421.30
500.61	433.00
500.79	461.09
500.97	407.25
501.14	463.43
501.32	404.91
501.49	486.83
501.67	402.57
501.84	451.72
502.02	404.91
502.20	437.68
502.37	402.57
502.55	468.11
502.72	346.40
502.90	390.87
503.07	433.00
503.25	379.17
503.43	388.53
503.60	372.15
503.78	393.21
503.95	407.25
504.13	433.00
504.30	440.02
504.48	393.21
504.65	386.19
504.83	449.38
505.01	360.44
505.18	353.42
505.36	388.53
505.53	360.44
505.71	425.98
505.88	449.38
506.06	418.96
506.23	477.47
506.41	482.15
506.58	437.68
506.76	404.91
506.93	388.53
507.11	407.25
507.28	390.87
507.46	428.32
507.63	461.09
507.81	397.89
507.98	449.38
508.16	421.30
508.33	376.83
508.50	372.15
508.68	447.04
508.85	341.72
509.03	369.80
509.20	418.96
509.38	454.06
509.55	468.11
509.73	444.70
509.90	444.70
510.08	395.55
510.25	435.34
510.42	444.70
510.60	444.70
510.77	411.93
510.95	400.23
511.12	386.19
511.30	388.53
511.47	421.30
511.64	430.66
511.82	409.59
511.99	395.55
512.17	440.02
512.34	346.40
512.51	409.59
512.69	400.23
512.86	404.91
513.04	479.81
513.21	458.74
513.38	454.06
513.56	397.89
513.73	425.98
513.90	393.21
514.08	402.57
514.25	367.46
514.43	379.17
514.60	367.46
514.77	430.66
514.95	397.89
515.12	423.64
515.29	526.62
515.47	365.12
515.64	447.04
515.81	393.21
515.99	465.77
516.16	428.32
516.33	395.55
516.51	395.55
516.68	449.38
516.85	458.74
517.03	449.38
517.20	484.49
517.37	388.53
517.54	437.68
517.72	414.27
517.89	341.72
518.06	433.00
518.24	404.91
518.41	407.25
518.58	449.38
518.75	397.89
518.93	376.83
519.10	437.68
519.27	444.70
519.45	505.56
519.62	386.19
519.79	383.85
519.96	383.85
520.14	430.66
520.31	414.27
520.48	465.77
520.65	454.06
520.83	407.25
521.00	451.72
521.17	437.68
521.34	397.89
521.52	402.57
521.69	362.78
521.86	421.30
522.03	388.53
522.20	468.11
522.38	489.17
522.55	447.04
522.72	355.76
522.89	404.91
523.07	440.02
523.24	444.70
523.41	346.40
523.58	397.89
523.75	449.38
523.92	416.62
524.10	395.55
524.27	463.43
524.44	479.81
524.61	465.77
524.78	512.58
524.96	428.32
525.13	444.70
525.30	461.09
525.47	367.46
525.64	416.62
525.81	430.66
525.98	320.65
526.16	395.55
526.33	409.59
526.50	390.87
526.67	493.85
526.84	379.17
527.01	372.15
527.18	456.40
527.36	395.55
527.53	360.44
527.70	465.77
527.87	437.68
528.04	486.83
528.21	454.06
528.38	472.79
528.55	437.68
528.72	479.81
528.89	486.83
529.07	463.43
529.24	447.04
529.41	407.25
529.58	454.06
529.75	379.17
529.92	425.98
530.09	395.55
530.26	451.72
530.43	451.72
530.60	409.59
530.77	327.68
530.94	348.74
531.11	449.38
531.28	479.81
531.46	472.79
531.63	402.57
531.80	400.23
531.97	379.17
532.14	346.40
532.31	407.25
532.48	393.21
532.65	421.30
532.82	404.91
532.99	400.23
533.16	428.32
533.33	400.23
533.50	491.51
533.67	353.42
533.84	440.02
534.01	411.93
534.18	379.17
534.35	454.06
534.52	468.11
534.69	470.45
534.86	423.64
535.03	376.83
535.20	437.68
535.37	297.25
535.54	365.12
535.71	400.23
535.88	465.77
536.05	337.04
536.22	458.74
536.38	369.80
536.55	472.79
536.72	411.93
536.89	416.62
537.06	383.85
537.23	404.91
537.40	397.89
537.57	425.98
537.74	510.24
537.91	437.68
538.08	383.85
538.25	374.49
538.42	390.87
538.59	430.66
538.75	472.79
538.92	395.55
539.09	461.09
539.26	381.51
539.43	465.77
539.60	505.56
539.77	418.96
539.94	428.32
540.11	393.21
540.28	428.32
540.44	437.68
540.61	390.87
540.78	430.66
540.95	418.96
541.12	472.79
541.29	416.62
541.46	500.87
541.62	404.91
541.79	421.30
541.96	393.21
542.13	433.00
542.30	430.66
542.47	449.38
542.63	442.36
542.80	447.04
542.97	454.06
543.14	418.96
543.31	482.15
543.48	404.91
543.64	458.74
543.81	411.93
543.98	383.85
544.15	372.15
544.32	353.42
544.48	397.89
544.65	411.93
544.82	430.66
544.99	482.15
545.16	528.96
545.32	411.93
545.49	535.98
545.66	369.80
545.83	374.49
546.00	402.57
546.16	440.02
546.33	454.06
546.50	414.27
546.67	538.32
546.83	360.44
547.00	383.85
547.17	381.51
547.34	388.53
547.50	402.57
547.67	418.96
547.84	428.32
548.00	423.64
548.17	468.11
548.34	390.87
548.51	479.81
548.67	416.62
548.84	461.09
549.01	423.64
549.18	416.62
549.34	435.34
549.51	461.09
549.68	379.17
549.84	437.68
550.01	425.98
550.18	514.92
550.34	491.51
550.51	374.49
550.68	461.09
550.84	428.32
551.01	498.53
551.18	451.72
551.34	365.12
551.51	404.91
551.68	451.72
551.84	358.10
552.01	416.62
552.18	376.83
552.34	444.70
552.51	435.34
552.68	449.38
552.84	423.64
553.01	383.85
553.18	409.59
553.34	500.87
553.51	407.25
553.67	400.23
553.84	489.17
554.01	397.89
554.17	381.51
554.34	428.32
554.51	423.64
554.67	397.89
554.84	437.68
555.00	449.38
555.17	482.15
555.33	482.15
555.50	402.57
555.67	433.00
555.83	386.19
556.00	449.38
556.16	521.94
556.33	444.70
556.50	437.68
556.66	433.00
556.83	425.98
556.99	393.21
557.16	447.04
557.32	479.81
557.49	435.34
557.65	472.79
557.82	348.74
557.98	388.53
558.15	482.15
558.32	348.74
558.48	390.87
558.65	437.68
558.81	442.36
558.98	367.46
559.14	362.78
559.31	418.96
559.47	433.00
559.64	435.34
559.80	407.25
559.97	374.49
560.13	458.74
560.30	404.91
560.46	397.89
560.63	379.17
560.79	414.27
560.96	447.04
561.12	423.64
561.29	496.19
561.45	325.33
561.61	421.30
561.78	498.53
561.94	421.30
562.11	437.68
562.27	463.43
562.44	451.72
562.60	440.02
562.77	430.66
562.93	470.45
563.10	428.32
563.26	447.04
563.42	430.66
563.59	440.02
563.75	437.68
563.92	461.09
564.08	442.36
564.24	334.70
564.41	428.32
564.57	423.64
564.74	468.11
564.90	423.64
565.07	442.36
565.23	397.89
565.39	339.38
565.56	416.62
565.72	393.21
565.88	433.00
566.05	433.00
566.21	477.47
566.38	437.68
566.54	440.02
566.70	477.47
566.87	407.25
567.03	341.72
567.19	463.43
567.36	442.36
567.52	423.64
567.68	400.23
567.85	437.68
568.01	388.53
568.17	388.53
568.34	411.93
568.50	430.66
568.66	383.85
568.83	440.02
568.99	383.85
569.15	404.91
569.32	409.59
569.48	404.91
569.64	430.66
569.81	454.06
569.97	395.55
570.13	421.30
570.30	435.34
570.46	430.66
570.62	470.45
570.78	393.21
570.95	367.46
571.11	517.26
571.27	500.87
571.43	390.87
571.60	374.49
571.76	397.89
571.92	353.42
572.09	393.21
572.25	440.02
572.41	341.72
572.57	430.66
572.74	386.19
572.90	404.91
573.06	386.19
573.22	404.91
573.38	496.19
573.55	362.78
573.71	484.49
573.87	430.66
574.03	376.83
574.20	367.46
574.36	411.93
574.52	400.23
574.68	376.83
574.84	400.23
575.01	372.15
575.17	381.51
575.33	433.00
575.49	440.02
575.65	435.34
575.82	514.92
575.98	400.23
576.14	456.40
576.30	355.76
576.46	425.98
576.62	468.11
576.79	388.53
576.95	461.09
577.11	388.53
577.27	353.42
577.43	402.57
577.59	367.46
577.75	402.57
577.92	362.78
578.08	447.04
578.24	344.06
578.40	442.36
578.56	496.19
578.72	479.81
578.88	493.85
579.04	369.80
579.21	425.98
579.37	461.09
579.53	365.12
579.69	449.38
579.85	425.98
580.01	416.62
580.17	418.96
580.33	407.25
580.49	409.59
580.65	430.66
580.82	416.62
580.98	423.64
581.14	379.17
581.30	423.64
581.46	353.42
581.62	395.55
581.78	395.55
581.94	400.23
582.10	407.25
582.26	433.00
582.42	351.08
582.58	402.57
582.74	435.34
582.90	444.70
583.06	400.23
583.22	489.17
583.38	358.10
583.54	390.87
583.70	414.27
583.86	379.17
584.02	461.09
584.18	421.30
584.34	475.13
584.50	374.49
584.66	416.62
584.82	411.93
584.98	381.51
585.14	360.44
585.30	402.57
585.46	409.59
585.62	447.04
585.78	383.85
585.94	409.59
586.10	397.89
586.26	411.93
586.42	456.40
586.58	381.51
586.74	393.21
586.90	411.93
587.06	421.30
587.22	465.77
587.38	411.93
587.54	425.98
587.70	470.45
587.86	351.08
588.02	346.40
588.18	362.78
588.34	425.98
588.49	381.51
588.65	442.36
588.81	475.13
588.97	397.89
589.13	451.72
589.29	402.57
589.45	425.98
589.61	440.02
589.77	428.32
589.93	456.40
590.08	390.87
590.24	414.27
590.40	493.85
590.56	402.57
590.72	440.02
590.88	409.59
591.04	461.09
591.20	409.59
591.35	390.87
591.51	383.85
591.67	404.91
591.83	458.74
591.99	498.53
592.15	402.57
592.31	449.38
592.46	400.23
592.62	407.25
592.78	402.57
592.94	449.38
593.10	339.38
593.26	390.87
593.41	456.40
593.57	388.53
593.73	386.19
593.89	477.47
594.05	358.10
594.20	428.32
594.36	451.72
594.52	390.87
594.68	334.70
594.84	468.11
594.99	407.25
595.15	400.23
595.31	311.29
595.47	472.79
595.62	421.30
595.78	435.34
595.94	423.64
596.10	423.64
596.25	402.57
596.41	465.77
596.57	418.96
596.73	362.78
596.88	486.83
597.04	433.00
597.20	355.76
597.36	414.27
597.51	470.45
597.67	381.51
597.83	393.21
597.99	409.59
598.14	411.93
598.30	402.57
598.46	430.66
598.61	433.00
598.77	409.59
598.93	458.74
599.09	423.64
599.24	442.36
599.40	468.11
599.56	416.62
599.71	463.43
599.87	423.64
600.03	428.32
600.18	437.68
600.34	390.87
600.50	482.15
600.65	475.13
600.81	409.59
600.97	409.59
601.12	433.00
601.28	440.02
601.44	421.30
601.59	440.02
601.75	358.10
601.91	449.38
602.06	437.68
602.22	561.73
602.37	409.59
602.53	409.59
602.69	379.17
602.84	397.89
603.00	433.00
603.16	463.43
603.31	353.42
603.47	425.98
603.62	365.12
603.78	397.89
603.94	435.34
604.09	414.27
604.25	437.68
604.40	376.83
604.56	414.27
604.71	341.72
604.87	418.96
605.03	416.62
605.18	414.27
605.34	451.72
605.49	505.56
605.65	374.49
605.80	374.49
605.96	421.30
606.12	449.38
606.27	383.85
606.43	458.74
606.58	433.00
606.74	400.23
606.89	416.62
607.05	465.77
607.20	442.36
607.36	358.10
607.51	482.15
607.67	386.19
607.82	416.62
607.98	477.47
608.13	425.98
608.29	374.49
608.44	397.89
608.60	402.57
608.75	330.02
608.91	362.78
609.06	416.62
609.22	440.02
609.37	465.77
609.53	400.23
609.68	425.98
609.84	351.08
609.99	486.83
610.15	379.17
