SpectraSuite Data File
++++++++++++++++++++++++++++++++++++
Date: Fri Oct 25 12:10:48 EDT 2013
User: price-jones
Dark Spectrum Present: No
Reference Spectrum Present: No
Number of Sampled Component Spectra: 1
Spectrometers: USB2+H05261
Integration Time (usec): 100000 (USB2+H05261)
Spectra Averaged: 1 (USB2+H05261)
Boxcar Smoothing: 0 (USB2+H05261)
Correct for Electrical Dark: No (USB2+H05261)
Strobe/Lamp Enabled: No (USB2+H05261)
Correct for Detector Non-linearity: No (USB2+H05261)
Correct for Stray Light: No (USB2+H05261)
Number of Pixels in Processed Spectrum: 2048
>>>>>Begin Processed Spectral Data<<<<<
365.73	365.12
365.92	365.12
366.12	365.12
366.32	290.23
366.52	215.33
366.72	212.99
366.91	259.80
367.11	259.80
367.31	255.12
367.51	252.78
367.70	259.80
367.90	201.29
368.10	264.48
368.30	217.67
368.49	241.08
368.69	210.65
368.89	227.03
369.09	229.37
369.28	280.86
369.48	313.63
369.68	280.86
369.87	276.18
370.07	330.02
370.27	294.91
370.47	306.61
370.66	283.20
370.86	346.40
371.06	334.70
371.25	397.89
371.45	376.83
371.65	374.49
371.84	388.53
372.04	402.57
372.24	430.66
372.44	374.49
372.63	390.87
372.83	325.33
373.03	344.06
373.22	353.42
373.42	341.72
373.62	442.36
373.81	472.79
374.01	461.09
374.21	444.70
374.40	351.08
374.60	404.91
374.79	430.66
374.99	407.25
375.19	425.98
375.38	435.34
375.58	402.57
375.78	440.02
375.97	465.77
376.17	381.51
376.37	397.89
376.56	393.21
376.76	395.55
376.95	367.46
377.15	341.72
377.35	447.04
377.54	388.53
377.74	503.22
377.93	390.87
378.13	449.38
378.33	444.70
378.52	383.85
378.72	402.57
378.91	362.78
379.11	440.02
379.31	379.17
379.50	409.59
379.70	395.55
379.89	416.62
380.09	346.40
380.28	379.17
380.48	395.55
380.68	374.49
380.87	348.74
381.07	393.21
381.26	428.32
381.46	440.02
381.65	425.98
381.85	451.72
382.04	402.57
382.24	430.66
382.43	358.10
382.63	418.96
382.83	400.23
383.02	409.59
383.22	444.70
383.41	360.44
383.61	404.91
383.80	414.27
384.00	400.23
384.19	430.66
384.39	428.32
384.58	381.51
384.78	367.46
384.97	339.38
385.17	376.83
385.36	379.17
385.56	430.66
385.75	402.57
385.95	308.95
386.14	425.98
386.34	355.76
386.53	463.43
386.72	404.91
386.92	383.85
387.11	451.72
387.31	404.91
387.50	397.89
387.70	330.02
387.89	442.36
388.09	416.62
388.28	428.32
388.48	468.11
388.67	360.44
388.86	393.21
389.06	479.81
389.25	423.64
389.45	421.30
389.64	433.00
389.84	449.38
390.03	461.09
390.22	449.38
390.42	367.46
390.61	404.91
390.81	351.08
391.00	374.49
391.19	423.64
391.39	355.76
391.58	444.70
391.78	388.53
391.97	400.23
392.16	330.02
392.36	386.19
392.55	433.00
392.75	390.87
392.94	404.91
393.13	491.51
393.33	435.34
393.52	472.79
393.71	451.72
393.91	411.93
394.10	374.49
394.29	393.21
394.49	395.55
394.68	390.87
394.88	430.66
395.07	430.66
395.26	372.15
395.46	379.17
395.65	423.64
395.84	416.62
396.04	493.85
396.23	489.17
396.42	388.53
396.62	440.02
396.81	393.21
397.00	400.23
397.19	451.72
397.39	348.74
397.58	379.17
397.77	402.57
397.97	402.57
398.16	372.15
398.35	444.70
398.55	372.15
398.74	383.85
398.93	390.87
399.12	470.45
399.32	407.25
399.51	355.76
399.70	447.04
399.90	379.17
400.09	353.42
400.28	454.06
400.47	379.17
400.67	355.76
400.86	407.25
401.05	381.51
401.24	428.32
401.44	355.76
401.63	407.25
401.82	472.79
402.01	353.42
402.21	440.02
402.40	404.91
402.59	409.59
402.78	409.59
402.97	351.08
403.17	390.87
403.36	383.85
403.55	369.80
403.74	411.93
403.93	393.21
404.13	477.47
404.32	404.91
404.51	322.99
404.70	449.38
404.89	397.89
405.09	451.72
405.28	362.78
405.47	372.15
405.66	374.49
405.85	344.06
406.05	421.30
406.24	418.96
406.43	404.91
406.62	423.64
406.81	402.57
407.00	444.70
407.20	430.66
407.39	451.72
407.58	395.55
407.77	383.85
407.96	491.51
408.15	486.83
408.34	421.30
408.54	395.55
408.73	362.78
408.92	425.98
409.11	407.25
409.30	475.13
409.49	390.87
409.68	369.80
409.87	386.19
410.07	365.12
410.26	290.23
410.45	355.76
410.64	358.10
410.83	355.76
411.02	407.25
411.21	367.46
411.40	372.15
411.59	400.23
411.78	449.38
411.98	353.42
412.17	374.49
412.36	444.70
412.55	407.25
412.74	414.27
412.93	400.23
413.12	425.98
413.31	454.06
413.50	376.83
413.69	376.83
413.88	489.17
414.07	386.19
414.26	402.57
414.45	425.98
414.64	395.55
414.83	376.83
415.02	407.25
415.22	414.27
415.41	449.38
415.60	423.64
415.79	437.68
415.98	482.15
416.17	388.53
416.36	454.06
416.55	381.51
416.74	388.53
416.93	407.25
417.12	421.30
417.31	365.12
417.50	372.15
417.69	411.93
417.88	379.17
418.07	430.66
418.26	400.23
418.45	400.23
418.64	449.38
418.83	358.10
419.02	388.53
419.21	365.12
419.39	393.21
419.58	367.46
419.77	421.30
419.96	409.59
420.15	418.96
420.34	344.06
420.53	449.38
420.72	374.49
420.91	425.98
421.10	433.00
421.29	386.19
421.48	369.80
421.67	414.27
421.86	400.23
422.05	318.31
422.24	330.02
422.43	430.66
422.61	428.32
422.80	451.72
422.99	355.76
423.18	365.12
423.37	374.49
423.56	493.85
423.75	395.55
423.94	374.49
424.13	383.85
424.32	383.85
424.50	395.55
424.69	430.66
424.88	447.04
425.07	376.83
425.26	400.23
425.45	330.02
425.64	400.23
425.83	348.74
426.01	404.91
426.20	369.80
426.39	425.98
426.58	400.23
426.77	428.32
426.96	449.38
427.15	463.43
427.33	407.25
427.52	442.36
427.71	418.96
427.90	423.64
428.09	346.40
428.28	407.25
428.46	463.43
428.65	360.44
428.84	479.81
429.03	388.53
429.22	395.55
429.40	395.55
429.59	402.57
429.78	379.17
429.97	395.55
430.16	348.74
430.34	447.04
430.53	383.85
430.72	395.55
430.91	404.91
431.10	463.43
431.28	456.40
431.47	393.21
431.66	409.59
431.85	470.45
432.03	393.21
432.22	454.06
432.41	383.85
432.60	423.64
432.79	379.17
432.97	369.80
433.16	416.62
433.35	451.72
433.54	437.68
433.72	393.21
433.91	423.64
434.10	360.44
434.28	435.34
434.47	369.80
434.66	458.74
434.85	360.44
435.03	447.04
435.22	470.45
435.41	444.70
435.59	365.12
435.78	367.46
435.97	423.64
436.16	491.51
436.34	444.70
436.53	393.21
436.72	409.59
436.90	449.38
437.09	442.36
437.28	421.30
437.46	386.19
437.65	383.85
437.84	507.90
438.02	379.17
438.21	444.70
438.40	407.25
438.58	407.25
438.77	451.72
438.96	447.04
439.14	423.64
439.33	388.53
439.52	393.21
439.70	416.62
439.89	435.34
440.08	423.64
440.26	386.19
440.45	451.72
440.63	451.72
440.82	381.51
441.01	425.98
441.19	433.00
441.38	456.40
441.57	442.36
441.75	461.09
441.94	430.66
442.12	362.78
442.31	421.30
442.50	440.02
442.68	465.77
442.87	397.89
443.05	477.47
443.24	360.44
443.43	397.89
443.61	397.89
443.80	390.87
443.98	435.34
444.17	351.08
444.35	393.21
444.54	435.34
444.73	449.38
444.91	372.15
445.10	348.74
445.28	435.34
445.47	402.57
445.65	437.68
445.84	390.87
446.02	393.21
446.21	388.53
446.39	367.46
446.58	400.23
446.77	463.43
446.95	442.36
447.14	395.55
447.32	411.93
447.51	369.80
447.69	360.44
447.88	362.78
448.06	411.93
448.25	428.32
448.43	456.40
448.62	402.57
448.80	409.59
448.99	458.74
449.17	433.00
449.36	383.85
449.54	444.70
449.73	383.85
449.91	456.40
450.10	330.02
450.28	524.28
450.46	437.68
450.65	423.64
450.83	388.53
451.02	477.47
451.20	428.32
451.39	425.98
451.57	411.93
451.76	327.68
451.94	390.87
452.13	498.53
452.31	468.11
452.49	407.25
452.68	397.89
452.86	468.11
453.05	418.96
453.23	430.66
453.42	458.74
453.60	376.83
453.78	409.59
453.97	407.25
454.15	346.40
454.34	339.38
454.52	353.42
454.70	454.06
454.89	395.55
455.07	416.62
455.26	484.49
455.44	386.19
455.62	327.68
455.81	442.36
455.99	449.38
456.17	444.70
456.36	372.15
456.54	393.21
456.73	344.06
456.91	344.06
457.09	411.93
457.28	372.15
457.46	454.06
457.64	454.06
457.83	388.53
458.01	451.72
458.19	374.49
458.38	484.49
458.56	306.61
458.74	369.80
458.93	369.80
459.11	365.12
459.29	475.13
459.48	477.47
459.66	414.27
459.84	421.30
460.03	461.09
460.21	425.98
460.39	379.17
460.57	383.85
460.76	395.55
460.94	365.12
461.12	409.59
461.31	407.25
461.49	327.68
461.67	367.46
461.85	425.98
462.04	416.62
462.22	779.40
462.40	442.36
462.59	447.04
462.77	374.49
462.95	409.59
463.13	402.57
463.32	433.00
463.50	346.40
463.68	358.10
463.86	458.74
464.05	402.57
464.23	414.27
464.41	440.02
464.59	367.46
464.78	484.49
464.96	428.32
465.14	407.25
465.32	447.04
465.50	442.36
465.69	449.38
465.87	444.70
466.05	388.53
466.23	353.42
466.41	400.23
466.60	407.25
466.78	400.23
466.96	458.74
467.14	428.32
467.32	421.30
467.51	496.19
467.69	496.19
467.87	418.96
468.05	374.49
468.23	400.23
468.41	461.09
468.60	414.27
468.78	353.42
468.96	409.59
469.14	425.98
469.32	425.98
469.50	404.91
469.69	468.11
469.87	470.45
470.05	369.80
470.23	390.87
470.41	390.87
470.59	463.43
470.77	414.27
470.95	440.02
471.14	390.87
471.32	402.57
471.50	383.85
471.68	479.81
471.86	390.87
472.04	332.36
472.22	353.42
472.40	411.93
472.58	463.43
472.77	374.49
472.95	365.12
473.13	468.11
473.31	388.53
473.49	355.76
473.67	414.27
473.85	456.40
474.03	320.65
474.21	470.45
474.39	395.55
474.57	430.66
474.75	447.04
474.93	411.93
475.12	365.12
475.30	393.21
475.48	397.89
475.66	409.59
475.84	421.30
476.02	416.62
476.20	425.98
476.38	367.46
476.56	468.11
476.74	390.87
476.92	390.87
477.10	395.55
477.28	430.66
477.46	428.32
477.64	472.79
477.82	421.30
478.00	402.57
478.18	437.68
478.36	465.77
478.54	423.64
478.72	332.36
478.90	383.85
479.08	444.70
479.26	458.74
479.44	402.57
479.62	479.81
479.80	379.17
479.98	407.25
480.16	418.96
480.34	365.12
480.52	409.59
480.70	437.68
480.88	454.06
481.06	423.64
481.24	442.36
481.41	484.49
481.59	447.04
481.77	313.63
481.95	383.85
482.13	454.06
482.31	444.70
482.49	383.85
482.67	475.13
482.85	461.09
483.03	430.66
483.21	407.25
483.39	386.19
483.57	407.25
483.74	425.98
483.92	456.40
484.10	383.85
484.28	421.30
484.46	489.17
484.64	468.11
484.82	409.59
485.00	498.53
485.18	414.27
485.35	411.93
485.53	435.34
485.71	390.87
485.89	404.91
486.07	404.91
486.25	440.02
486.43	444.70
486.61	428.32
486.78	395.55
486.96	346.40
487.14	390.87
487.32	390.87
487.50	430.66
487.68	421.30
487.85	442.36
488.03	479.81
488.21	477.47
488.39	454.06
488.57	393.21
488.75	435.34
488.92	482.15
489.10	386.19
489.28	489.17
489.46	444.70
489.64	365.12
489.81	430.66
489.99	395.55
490.17	425.98
490.35	472.79
490.53	327.68
490.70	435.34
490.88	416.62
491.06	386.19
491.24	395.55
491.41	407.25
491.59	496.19
491.77	479.81
491.95	376.83
492.13	355.76
492.30	379.17
492.48	379.17
492.66	367.46
492.84	353.42
493.01	402.57
493.19	367.46
493.37	379.17
493.54	411.93
493.72	468.11
493.90	355.76
494.08	369.80
494.25	416.62
494.43	418.96
494.61	337.04
494.79	404.91
494.96	362.78
495.14	367.46
495.32	458.74
495.49	447.04
495.67	379.17
495.85	418.96
496.02	421.30
496.20	404.91
496.38	358.10
496.55	308.95
496.73	362.78
496.91	447.04
497.09	390.87
497.26	374.49
497.44	421.30
497.62	428.32
497.79	369.80
497.97	360.44
498.14	379.17
498.32	409.59
498.50	428.32
498.67	355.76
498.85	390.87
499.03	421.30
499.20	355.76
499.38	437.68
499.56	407.25
499.73	526.62
499.91	486.83
500.08	388.53
500.26	440.02
500.44	379.17
500.61	425.98
500.79	407.25
500.97	409.59
501.14	416.62
501.32	503.22
501.49	524.28
501.67	418.96
501.84	437.68
502.02	332.36
502.20	472.79
502.37	404.91
502.55	479.81
502.72	386.19
502.90	400.23
503.07	379.17
503.25	440.02
503.43	447.04
503.60	353.42
503.78	400.23
503.95	400.23
504.13	390.87
504.30	428.32
504.48	393.21
504.65	425.98
504.83	348.74
505.01	444.70
505.18	374.49
505.36	411.93
505.53	383.85
505.71	325.33
505.88	407.25
506.06	451.72
506.23	390.87
506.41	402.57
506.58	376.83
506.76	449.38
506.93	397.89
507.11	365.12
507.28	374.49
507.46	383.85
507.63	346.40
507.81	407.25
507.98	440.02
508.16	463.43
508.33	379.17
508.50	447.04
508.68	433.00
508.85	435.34
509.03	451.72
509.20	404.91
509.38	444.70
509.55	437.68
509.73	414.27
509.90	479.81
510.08	418.96
510.25	395.55
510.42	365.12
510.60	428.32
510.77	454.06
510.95	423.64
511.12	374.49
511.30	393.21
511.47	395.55
511.64	407.25
511.82	360.44
511.99	400.23
512.17	423.64
512.34	388.53
512.51	449.38
512.69	383.85
512.86	402.57
513.04	414.27
513.21	444.70
513.38	353.42
513.56	374.49
513.73	440.02
513.90	402.57
514.08	393.21
514.25	402.57
514.43	369.80
514.60	465.77
514.77	418.96
514.95	444.70
515.12	404.91
515.29	383.85
515.47	512.58
515.64	421.30
515.81	435.34
515.99	440.02
516.16	409.59
516.33	393.21
516.51	435.34
516.68	402.57
516.85	423.64
517.03	463.43
517.20	409.59
517.37	461.09
517.54	442.36
517.72	435.34
517.89	379.17
518.06	409.59
518.24	440.02
518.41	388.53
518.58	428.32
518.75	437.68
518.93	383.85
519.10	444.70
519.27	379.17
519.45	383.85
519.62	430.66
519.79	402.57
519.96	414.27
520.14	360.44
520.31	463.43
520.48	440.02
520.65	402.57
520.83	409.59
521.00	372.15
521.17	376.83
521.34	395.55
521.52	393.21
521.69	484.49
521.86	425.98
522.03	407.25
522.20	479.81
522.38	376.83
522.55	418.96
522.72	449.38
522.89	428.32
523.07	451.72
523.24	416.62
523.41	355.76
523.58	437.68
523.75	358.10
523.92	475.13
524.10	425.98
524.27	414.27
524.44	456.40
524.61	447.04
524.78	400.23
524.96	472.79
525.13	421.30
525.30	402.57
525.47	447.04
525.64	425.98
525.81	461.09
525.98	341.72
526.16	421.30
526.33	395.55
526.50	454.06
526.67	404.91
526.84	351.08
527.01	358.10
527.18	507.90
527.36	423.64
527.53	428.32
527.70	423.64
527.87	367.46
528.04	423.64
528.21	463.43
528.38	449.38
528.55	454.06
528.72	433.00
528.89	402.57
529.07	372.15
529.24	433.00
529.41	393.21
529.58	479.81
529.75	423.64
529.92	416.62
530.09	456.40
530.26	451.72
530.43	386.19
530.60	372.15
530.77	353.42
530.94	372.15
531.11	362.78
531.28	344.06
531.46	400.23
531.63	416.62
531.80	472.79
531.97	458.74
532.14	390.87
532.31	402.57
532.48	440.02
532.65	430.66
532.82	423.64
532.99	433.00
533.16	386.19
533.33	355.76
533.50	400.23
533.67	437.68
533.84	341.72
534.01	418.96
534.18	374.49
534.35	360.44
534.52	388.53
534.69	414.27
534.86	416.62
535.03	449.38
535.20	400.23
535.37	482.15
535.54	418.96
535.71	442.36
535.88	390.87
536.05	456.40
536.22	414.27
536.38	348.74
536.55	383.85
536.72	456.40
536.89	388.53
537.06	421.30
537.23	416.62
537.40	414.27
537.57	416.62
537.74	479.81
537.91	395.55
538.08	425.98
538.25	437.68
538.42	416.62
538.59	442.36
538.75	393.21
538.92	397.89
539.09	383.85
539.26	411.93
539.43	461.09
539.60	381.51
539.77	479.81
539.94	475.13
540.11	388.53
540.28	454.06
540.44	430.66
540.61	383.85
540.78	404.91
540.95	369.80
541.12	496.19
541.29	400.23
541.46	489.17
541.62	414.27
541.79	388.53
541.96	404.91
542.13	458.74
542.30	423.64
542.47	472.79
542.63	372.15
542.80	358.10
542.97	433.00
543.14	409.59
543.31	454.06
543.48	358.10
543.64	372.15
543.81	372.15
543.98	397.89
544.15	388.53
544.32	503.22
544.48	414.27
544.65	395.55
544.82	337.04
544.99	425.98
545.16	428.32
545.32	407.25
545.49	393.21
545.66	376.83
545.83	442.36
546.00	381.51
546.16	447.04
546.33	402.57
546.50	404.91
546.67	393.21
546.83	353.42
547.00	428.32
547.17	402.57
547.34	414.27
547.50	404.91
547.67	416.62
547.84	390.87
548.00	418.96
548.17	440.02
548.34	339.38
548.51	454.06
548.67	472.79
548.84	381.51
549.01	444.70
549.18	369.80
549.34	418.96
549.51	437.68
549.68	414.27
549.84	451.72
550.01	360.44
550.18	547.69
550.34	444.70
550.51	407.25
550.68	442.36
550.84	383.85
551.01	393.21
551.18	442.36
551.34	416.62
551.51	472.79
551.68	397.89
551.84	486.83
552.01	418.96
552.18	456.40
552.34	404.91
552.51	458.74
552.68	437.68
552.84	510.24
553.01	393.21
553.18	414.27
553.34	442.36
553.51	397.89
553.67	465.77
553.84	435.34
554.01	440.02
554.17	451.72
554.34	381.51
554.51	388.53
554.67	430.66
554.84	472.79
555.00	451.72
555.17	433.00
555.33	465.77
555.50	423.64
555.67	416.62
555.83	425.98
556.00	454.06
556.16	634.29
556.33	423.64
556.50	493.85
556.66	395.55
556.83	423.64
556.99	390.87
557.16	489.17
557.32	358.10
557.49	411.93
557.65	458.74
557.82	407.25
557.98	449.38
558.15	409.59
558.32	388.53
558.48	404.91
558.65	461.09
558.81	407.25
558.98	442.36
559.14	472.79
559.31	414.27
559.47	416.62
559.64	425.98
559.80	407.25
559.97	423.64
560.13	433.00
560.30	465.77
560.46	355.76
560.63	437.68
560.79	477.47
560.96	472.79
561.12	414.27
561.29	449.38
561.45	444.70
561.61	444.70
561.78	479.81
561.94	397.89
562.11	442.36
562.27	397.89
562.44	362.78
562.60	435.34
562.77	376.83
562.93	517.26
563.10	374.49
563.26	510.24
563.42	388.53
563.59	437.68
563.75	435.34
563.92	402.57
564.08	442.36
564.24	428.32
564.41	463.43
564.57	416.62
564.74	404.91
564.90	414.27
565.07	440.02
565.23	409.59
565.39	402.57
565.56	393.21
565.72	407.25
565.88	374.49
566.05	449.38
566.21	409.59
566.38	386.19
566.54	418.96
566.70	433.00
566.87	395.55
567.03	428.32
567.19	386.19
567.36	407.25
567.52	425.98
567.68	414.27
567.85	430.66
568.01	409.59
568.17	491.51
568.34	418.96
568.50	463.43
568.66	409.59
568.83	573.43
568.99	430.66
569.15	386.19
569.32	444.70
569.48	386.19
569.64	369.80
569.81	468.11
569.97	433.00
570.13	390.87
570.30	423.64
570.46	442.36
570.62	411.93
570.78	451.72
570.95	351.08
571.11	425.98
571.27	472.79
571.43	360.44
571.60	402.57
571.76	423.64
571.92	390.87
572.09	388.53
572.25	404.91
572.41	458.74
572.57	451.72
572.74	482.15
572.90	428.32
573.06	423.64
573.22	472.79
573.38	442.36
573.55	468.11
573.71	505.56
573.87	430.66
574.03	433.00
574.20	404.91
574.36	458.74
574.52	409.59
574.68	503.22
574.84	376.83
575.01	360.44
575.17	409.59
575.33	376.83
575.49	390.87
575.65	428.32
575.82	454.06
575.98	458.74
576.14	414.27
576.30	386.19
576.46	444.70
576.62	458.74
576.79	484.49
576.95	376.83
577.11	404.91
577.27	430.66
577.43	409.59
577.59	505.56
577.75	444.70
577.92	416.62
578.08	421.30
578.24	393.21
578.40	425.98
578.56	451.72
578.72	435.34
578.88	437.68
579.04	397.89
579.21	390.87
579.37	421.30
579.53	440.02
579.69	376.83
579.85	435.34
580.01	428.32
580.17	404.91
580.33	379.17
580.49	423.64
580.65	486.83
580.82	388.53
580.98	369.80
581.14	416.62
581.30	423.64
581.46	416.62
581.62	404.91
581.78	409.59
581.94	395.55
582.10	433.00
582.26	421.30
582.42	379.17
582.58	425.98
582.74	444.70
582.90	376.83
583.06	388.53
583.22	409.59
583.38	428.32
583.54	421.30
583.70	358.10
583.86	421.30
584.02	395.55
584.18	372.15
584.34	400.23
584.50	423.64
584.66	388.53
584.82	414.27
584.98	421.30
585.14	503.22
585.30	437.68
585.46	475.13
585.62	383.85
585.78	418.96
585.94	416.62
586.10	358.10
586.26	456.40
586.42	449.38
586.58	402.57
586.74	416.62
586.90	360.44
587.06	374.49
587.22	367.46
587.38	374.49
587.54	376.83
587.70	390.87
587.86	468.11
588.02	411.93
588.18	465.77
588.34	395.55
588.49	341.72
588.65	416.62
588.81	423.64
588.97	407.25
589.13	397.89
589.29	383.85
589.45	355.76
589.61	482.15
589.77	383.85
589.93	297.25
590.08	386.19
590.24	369.80
590.40	416.62
590.56	470.45
590.72	421.30
590.88	404.91
591.04	456.40
591.20	418.96
591.35	458.74
591.51	475.13
591.67	468.11
591.83	383.85
591.99	411.93
592.15	468.11
592.31	369.80
592.46	444.70
592.62	428.32
592.78	423.64
592.94	388.53
593.10	376.83
593.26	381.51
593.41	447.04
593.57	397.89
593.73	367.46
593.89	395.55
594.05	381.51
594.20	372.15
594.36	454.06
594.52	388.53
594.68	362.78
594.84	433.00
594.99	468.11
595.15	395.55
595.31	425.98
595.47	444.70
595.62	386.19
595.78	369.80
595.94	444.70
596.10	411.93
596.25	376.83
596.41	435.34
596.57	425.98
596.73	418.96
596.88	367.46
597.04	414.27
597.20	374.49
597.36	367.46
597.51	351.08
597.67	381.51
597.83	414.27
597.99	465.77
598.14	463.43
598.30	425.98
598.46	449.38
598.61	503.22
598.77	444.70
598.93	449.38
599.09	440.02
599.24	484.49
599.40	444.70
599.56	376.83
599.71	374.49
599.87	416.62
600.03	514.92
600.18	388.53
600.34	409.59
600.50	383.85
600.65	395.55
600.81	461.09
600.97	526.62
601.12	416.62
601.28	463.43
601.44	449.38
601.59	456.40
601.75	442.36
601.91	409.59
602.06	367.46
602.22	503.22
602.37	416.62
602.53	468.11
602.69	430.66
602.84	423.64
603.00	477.47
603.16	456.40
603.31	433.00
603.47	386.19
603.62	379.17
603.78	437.68
603.94	442.36
604.09	379.17
604.25	433.00
604.40	381.51
604.56	395.55
604.71	463.43
604.87	463.43
605.03	414.27
605.18	379.17
605.34	430.66
605.49	416.62
605.65	428.32
605.80	367.46
605.96	383.85
606.12	397.89
606.27	482.15
606.43	440.02
606.58	428.32
606.74	447.04
606.89	416.62
607.05	444.70
607.20	430.66
607.36	477.47
607.51	395.55
607.67	437.68
607.82	386.19
607.98	524.28
608.13	416.62
608.29	348.74
608.44	505.56
608.60	437.68
608.75	418.96
608.91	362.78
609.06	505.56
609.22	456.40
609.37	418.96
609.53	423.64
609.68	435.34
609.84	409.59
609.99	409.59
610.15	425.98
