SpectraSuite Data File
++++++++++++++++++++++++++++++++++++
Date: Fri Oct 25 12:10:14 EDT 2013
User: price-jones
Dark Spectrum Present: No
Reference Spectrum Present: No
Number of Sampled Component Spectra: 1
Spectrometers: USB2+H05261
Integration Time (usec): 100000 (USB2+H05261)
Spectra Averaged: 1 (USB2+H05261)
Boxcar Smoothing: 0 (USB2+H05261)
Correct for Electrical Dark: No (USB2+H05261)
Strobe/Lamp Enabled: No (USB2+H05261)
Correct for Detector Non-linearity: No (USB2+H05261)
Correct for Stray Light: No (USB2+H05261)
Number of Pixels in Processed Spectrum: 2048
>>>>>Begin Processed Spectral Data<<<<<
365.73	376.83
365.92	376.83
366.12	376.83
366.32	245.76
366.52	290.23
366.72	217.67
366.91	241.08
367.11	271.50
367.31	236.39
367.51	180.22
367.70	236.39
367.90	262.14
368.10	264.48
368.30	243.42
368.49	234.05
368.69	257.46
368.89	238.73
369.09	276.18
369.28	271.50
369.48	255.12
369.68	287.89
369.87	252.78
370.07	276.18
370.27	313.63
370.47	318.31
370.66	351.08
370.86	327.68
371.06	430.66
371.25	397.89
371.45	337.04
371.65	428.32
371.84	304.27
372.04	346.40
372.24	451.72
372.44	447.04
372.63	381.51
372.83	348.74
373.03	418.96
373.22	400.23
373.42	372.15
373.62	404.91
373.81	390.87
374.01	430.66
374.21	381.51
374.40	404.91
374.60	496.19
374.79	386.19
374.99	470.45
375.19	479.81
375.38	482.15
375.58	437.68
375.78	449.38
375.97	430.66
376.17	491.51
376.37	400.23
376.56	447.04
376.76	414.27
376.95	341.72
377.15	372.15
377.35	430.66
377.54	411.93
377.74	444.70
377.93	433.00
378.13	421.30
378.33	407.25
378.52	484.49
378.72	404.91
378.91	341.72
379.11	400.23
379.31	355.76
379.50	379.17
379.70	428.32
379.89	465.77
380.09	423.64
380.28	444.70
380.48	376.83
380.68	425.98
380.87	379.17
381.07	346.40
381.26	376.83
381.46	362.78
381.65	337.04
381.85	358.10
382.04	397.89
382.24	437.68
382.43	404.91
382.63	376.83
382.83	458.74
383.02	407.25
383.22	423.64
383.41	400.23
383.61	362.78
383.80	404.91
384.00	285.55
384.19	402.57
384.39	425.98
384.58	437.68
384.78	374.49
384.97	414.27
385.17	430.66
385.36	381.51
385.56	409.59
385.75	322.99
385.95	435.34
386.14	468.11
386.34	381.51
386.53	344.06
386.72	362.78
386.92	374.49
387.11	433.00
387.31	402.57
387.50	372.15
387.70	390.87
387.89	411.93
388.09	484.49
388.28	365.12
388.48	414.27
388.67	470.45
388.86	393.21
389.06	423.64
389.25	421.30
389.45	397.89
389.64	411.93
389.84	348.74
390.03	468.11
390.22	381.51
390.42	388.53
390.61	402.57
390.81	365.12
391.00	407.25
391.19	433.00
391.39	414.27
391.58	421.30
391.78	449.38
391.97	355.76
392.16	388.53
392.36	365.12
392.55	367.46
392.75	374.49
392.94	416.62
393.13	433.00
393.33	440.02
393.52	386.19
393.71	440.02
393.91	404.91
394.10	395.55
394.29	388.53
394.49	421.30
394.68	322.99
394.88	468.11
395.07	470.45
395.26	423.64
395.46	416.62
395.65	430.66
395.84	423.64
396.04	447.04
396.23	374.49
396.42	369.80
396.62	437.68
396.81	454.06
397.00	456.40
397.19	379.17
397.39	402.57
397.58	423.64
397.77	388.53
397.97	456.40
398.16	372.15
398.35	393.21
398.55	393.21
398.74	334.70
398.93	374.49
399.12	444.70
399.32	454.06
399.51	367.46
399.70	374.49
399.90	372.15
400.09	423.64
400.28	372.15
400.47	381.51
400.67	416.62
400.86	390.87
401.05	390.87
401.24	393.21
401.44	465.77
401.63	456.40
401.82	428.32
402.01	369.80
402.21	416.62
402.40	418.96
402.59	388.53
402.78	388.53
402.97	470.45
403.17	468.11
403.36	472.79
403.55	451.72
403.74	379.17
403.93	395.55
404.13	503.22
404.32	397.89
404.51	393.21
404.70	440.02
404.89	390.87
405.09	489.17
405.28	430.66
405.47	395.55
405.66	421.30
405.85	404.91
406.05	404.91
406.24	402.57
406.43	411.93
406.62	433.00
406.81	409.59
407.00	386.19
407.20	428.32
407.39	411.93
407.58	449.38
407.77	400.23
407.96	482.15
408.15	435.34
408.34	423.64
408.54	418.96
408.73	360.44
408.92	390.87
409.11	423.64
409.30	407.25
409.49	386.19
409.68	409.59
409.87	423.64
410.07	442.36
410.26	411.93
410.45	388.53
410.64	376.83
410.83	447.04
411.02	411.93
411.21	411.93
411.40	374.49
411.59	418.96
411.78	320.65
411.98	442.36
412.17	383.85
412.36	341.72
412.55	423.64
412.74	484.49
412.93	468.11
413.12	414.27
413.31	440.02
413.50	400.23
413.69	346.40
413.88	402.57
414.07	402.57
414.26	454.06
414.45	381.51
414.64	435.34
414.83	463.43
415.02	435.34
415.22	339.38
415.41	498.53
415.60	437.68
415.79	308.95
415.98	402.57
416.17	353.42
416.36	458.74
416.55	404.91
416.74	372.15
416.93	454.06
417.12	318.31
417.31	423.64
417.50	414.27
417.69	402.57
417.88	442.36
418.07	367.46
418.26	411.93
418.45	388.53
418.64	376.83
418.83	449.38
419.02	379.17
419.21	376.83
419.39	395.55
419.58	402.57
419.77	390.87
419.96	451.72
420.15	404.91
420.34	351.08
420.53	418.96
420.72	397.89
420.91	379.17
421.10	402.57
421.29	456.40
421.48	386.19
421.67	404.91
421.86	414.27
422.05	435.34
422.24	383.85
422.43	416.62
422.61	383.85
422.80	386.19
422.99	414.27
423.18	360.44
423.37	421.30
423.56	447.04
423.75	388.53
423.94	414.27
424.13	358.10
424.32	433.00
424.50	374.49
424.69	379.17
424.88	374.49
425.07	423.64
425.26	346.40
425.45	404.91
425.64	320.65
425.83	397.89
426.01	409.59
426.20	397.89
426.39	365.12
426.58	416.62
426.77	465.77
426.96	355.76
427.15	402.57
427.33	440.02
427.52	468.11
427.71	416.62
427.90	461.09
428.09	444.70
428.28	425.98
428.46	423.64
428.65	395.55
428.84	440.02
429.03	430.66
429.22	400.23
429.40	365.12
429.59	418.96
429.78	454.06
429.97	493.85
430.16	472.79
430.34	435.34
430.53	390.87
430.72	395.55
430.91	425.98
431.10	437.68
431.28	414.27
431.47	330.02
431.66	442.36
431.85	367.46
432.03	376.83
432.22	505.56
432.41	447.04
432.60	400.23
432.79	451.72
432.97	447.04
433.16	477.47
433.35	337.04
433.54	395.55
433.72	374.49
433.91	369.80
434.10	358.10
434.28	430.66
434.47	362.78
434.66	358.10
434.85	365.12
435.03	440.02
435.22	468.11
435.41	451.72
435.59	491.51
435.78	402.57
435.97	353.42
436.16	465.77
436.34	433.00
436.53	358.10
436.72	425.98
436.90	383.85
437.09	372.15
437.28	388.53
437.46	458.74
437.65	411.93
437.84	372.15
438.02	435.34
438.21	362.78
438.40	414.27
438.58	360.44
438.77	402.57
438.96	353.42
439.14	440.02
439.33	411.93
439.52	360.44
439.70	376.83
439.89	470.45
440.08	400.23
440.26	407.25
440.45	437.68
440.63	465.77
440.82	484.49
441.01	468.11
441.19	313.63
441.38	374.49
441.57	416.62
441.75	482.15
441.94	404.91
442.12	409.59
442.31	468.11
442.50	355.76
442.68	411.93
442.87	421.30
443.05	355.76
443.24	454.06
443.43	411.93
443.61	421.30
443.80	402.57
443.98	500.87
444.17	393.21
444.35	440.02
444.54	444.70
444.73	447.04
444.91	475.13
445.10	395.55
445.28	322.99
445.47	362.78
445.65	395.55
445.84	381.51
446.02	442.36
446.21	451.72
446.39	433.00
446.58	444.70
446.77	463.43
446.95	416.62
447.14	383.85
447.32	416.62
447.51	423.64
447.69	447.04
447.88	383.85
448.06	425.98
448.25	463.43
448.43	409.59
448.62	379.17
448.80	463.43
448.99	468.11
449.17	407.25
449.36	407.25
449.54	400.23
449.73	418.96
449.91	390.87
450.10	407.25
450.28	503.22
450.46	402.57
450.65	447.04
450.83	418.96
451.02	388.53
451.20	433.00
451.39	428.32
451.57	414.27
451.76	423.64
451.94	433.00
452.13	416.62
452.31	440.02
452.49	423.64
452.68	444.70
452.86	418.96
453.05	440.02
453.23	400.23
453.42	437.68
453.60	416.62
453.78	442.36
453.97	381.51
454.15	416.62
454.34	360.44
454.52	407.25
454.70	470.45
454.89	442.36
455.07	425.98
455.26	379.17
455.44	423.64
455.62	444.70
455.81	418.96
455.99	397.89
456.17	393.21
456.36	414.27
456.54	400.23
456.73	423.64
456.91	348.74
457.09	423.64
457.28	414.27
457.46	393.21
457.64	416.62
457.83	437.68
458.01	409.59
458.19	461.09
458.38	442.36
458.56	458.74
458.74	451.72
458.93	428.32
459.11	360.44
459.29	383.85
459.48	484.49
459.66	409.59
459.84	451.72
460.03	463.43
460.21	430.66
460.39	379.17
460.57	468.11
460.76	421.30
460.94	381.51
461.12	442.36
461.31	468.11
461.49	477.47
461.67	372.15
461.85	458.74
462.04	388.53
462.22	791.10
462.40	463.43
462.59	437.68
462.77	393.21
462.95	358.10
463.13	425.98
463.32	489.17
463.50	449.38
463.68	468.11
463.86	379.17
464.05	444.70
464.23	421.30
464.41	463.43
464.59	423.64
464.78	358.10
464.96	278.52
465.14	484.49
465.32	423.64
465.50	442.36
465.69	442.36
465.87	433.00
466.05	433.00
466.23	416.62
466.41	437.68
466.60	397.89
466.78	348.74
466.96	496.19
467.14	379.17
467.32	449.38
467.51	484.49
467.69	479.81
467.87	447.04
468.05	407.25
468.23	456.40
468.41	327.68
468.60	437.68
468.78	404.91
468.96	433.00
469.14	379.17
469.32	430.66
469.50	379.17
469.69	409.59
469.87	433.00
470.05	418.96
470.23	430.66
470.41	411.93
470.59	430.66
470.77	463.43
470.95	381.51
471.14	493.85
471.32	512.58
471.50	454.06
471.68	416.62
471.86	409.59
472.04	468.11
472.22	397.89
472.40	367.46
472.58	437.68
472.77	400.23
472.95	442.36
473.13	458.74
473.31	411.93
473.49	367.46
473.67	414.27
473.85	489.17
474.03	423.64
474.21	416.62
474.39	458.74
474.57	404.91
474.75	423.64
474.93	430.66
475.12	454.06
475.30	393.21
475.48	437.68
475.66	414.27
475.84	376.83
476.02	461.09
476.20	440.02
476.38	444.70
476.56	402.57
476.74	458.74
476.92	444.70
477.10	369.80
477.28	365.12
477.46	376.83
477.64	433.00
477.82	374.49
478.00	461.09
478.18	465.77
478.36	416.62
478.54	390.87
478.72	500.87
478.90	402.57
479.08	386.19
479.26	454.06
479.44	465.77
479.62	341.72
479.80	367.46
479.98	365.12
480.16	393.21
480.34	463.43
480.52	360.44
480.70	454.06
480.88	388.53
481.06	428.32
481.24	484.49
481.41	372.15
481.59	393.21
481.77	386.19
481.95	395.55
482.13	449.38
482.31	468.11
482.49	362.78
482.67	416.62
482.85	498.53
483.03	456.40
483.21	425.98
483.39	388.53
483.57	484.49
483.74	440.02
483.92	428.32
484.10	351.08
484.28	451.72
484.46	463.43
484.64	355.76
484.82	496.19
485.00	435.34
485.18	421.30
485.35	430.66
485.53	390.87
485.71	397.89
485.89	397.89
486.07	358.10
486.25	435.34
486.43	395.55
486.61	404.91
486.78	421.30
486.96	404.91
487.14	423.64
487.32	402.57
487.50	454.06
487.68	435.34
487.85	360.44
488.03	449.38
488.21	486.83
488.39	486.83
488.57	475.13
488.75	397.89
488.92	503.22
489.10	463.43
489.28	454.06
489.46	388.53
489.64	367.46
489.81	367.46
489.99	390.87
490.17	430.66
490.35	447.04
490.53	435.34
490.70	383.85
490.88	402.57
491.06	393.21
491.24	425.98
491.41	402.57
491.59	390.87
491.77	416.62
491.95	395.55
492.13	355.76
492.30	341.72
492.48	390.87
492.66	421.30
492.84	374.49
493.01	355.76
493.19	404.91
493.37	517.26
493.54	379.17
493.72	386.19
493.90	367.46
494.08	353.42
494.25	393.21
494.43	442.36
494.61	468.11
494.79	456.40
494.96	407.25
495.14	418.96
495.32	444.70
495.49	390.87
495.67	421.30
495.85	381.51
496.02	423.64
496.20	437.68
496.38	468.11
496.55	454.06
496.73	435.34
496.91	379.17
497.09	444.70
497.26	428.32
497.44	428.32
497.62	456.40
497.79	414.27
497.97	449.38
498.14	444.70
498.32	390.87
498.50	421.30
498.67	369.80
498.85	404.91
499.03	404.91
499.20	433.00
499.38	409.59
499.56	367.46
499.73	468.11
499.91	416.62
500.08	388.53
500.26	423.64
500.44	379.17
500.61	442.36
500.79	435.34
500.97	416.62
501.14	442.36
501.32	444.70
501.49	451.72
501.67	425.98
501.84	414.27
502.02	409.59
502.20	430.66
502.37	383.85
502.55	435.34
502.72	339.38
502.90	449.38
503.07	400.23
503.25	409.59
503.43	477.47
503.60	320.65
503.78	381.51
503.95	414.27
504.13	379.17
504.30	372.15
504.48	437.68
504.65	514.92
504.83	383.85
505.01	477.47
505.18	374.49
505.36	360.44
505.53	468.11
505.71	397.89
505.88	425.98
506.06	346.40
506.23	400.23
506.41	346.40
506.58	386.19
506.76	390.87
506.93	416.62
507.11	456.40
507.28	374.49
507.46	386.19
507.63	442.36
507.81	447.04
507.98	447.04
508.16	395.55
508.33	470.45
508.50	414.27
508.68	425.98
508.85	367.46
509.03	308.95
509.20	404.91
509.38	388.53
509.55	486.83
509.73	477.47
509.90	461.09
510.08	339.38
510.25	402.57
510.42	395.55
510.60	442.36
510.77	390.87
510.95	470.45
511.12	411.93
511.30	435.34
511.47	444.70
511.64	470.45
511.82	407.25
511.99	381.51
512.17	447.04
512.34	400.23
512.51	374.49
512.69	416.62
512.86	393.21
513.04	360.44
513.21	456.40
513.38	409.59
513.56	344.06
513.73	414.27
513.90	351.08
514.08	386.19
514.25	435.34
514.43	386.19
514.60	418.96
514.77	404.91
514.95	449.38
515.12	451.72
515.29	423.64
515.47	367.46
515.64	430.66
515.81	397.89
515.99	390.87
516.16	376.83
516.33	330.02
516.51	395.55
516.68	433.00
516.85	360.44
517.03	454.06
517.20	414.27
517.37	425.98
517.54	458.74
517.72	430.66
517.89	386.19
518.06	444.70
518.24	414.27
518.41	421.30
518.58	465.77
518.75	411.93
518.93	428.32
519.10	440.02
519.27	418.96
519.45	358.10
519.62	379.17
519.79	372.15
519.96	428.32
520.14	430.66
520.31	411.93
520.48	318.31
520.65	411.93
520.83	486.83
521.00	486.83
521.17	449.38
521.34	433.00
521.52	468.11
521.69	404.91
521.86	383.85
522.03	437.68
522.20	428.32
522.38	437.68
522.55	458.74
522.72	409.59
522.89	390.87
523.07	430.66
523.24	440.02
523.41	395.55
523.58	393.21
523.75	458.74
523.92	425.98
524.10	430.66
524.27	468.11
524.44	386.19
524.61	409.59
524.78	461.09
524.96	388.53
525.13	358.10
525.30	491.51
525.47	451.72
525.64	416.62
525.81	468.11
525.98	463.43
526.16	395.55
526.33	362.78
526.50	365.12
526.67	386.19
526.84	358.10
527.01	444.70
527.18	444.70
527.36	404.91
527.53	421.30
527.70	489.17
527.87	465.77
528.04	475.13
528.21	374.49
528.38	362.78
528.55	393.21
528.72	428.32
528.89	425.98
529.07	379.17
529.24	440.02
529.41	430.66
529.58	498.53
529.75	430.66
529.92	425.98
530.09	411.93
530.26	454.06
530.43	421.30
530.60	409.59
530.77	418.96
530.94	397.89
531.11	468.11
531.28	379.17
531.46	395.55
531.63	358.10
531.80	433.00
531.97	461.09
532.14	454.06
532.31	463.43
532.48	379.17
532.65	409.59
532.82	358.10
532.99	491.51
533.16	407.25
533.33	404.91
533.50	351.08
533.67	390.87
533.84	400.23
534.01	404.91
534.18	407.25
534.35	470.45
534.52	388.53
534.69	411.93
534.86	425.98
535.03	351.08
535.20	402.57
535.37	454.06
535.54	372.15
535.71	437.68
535.88	423.64
536.05	360.44
536.22	442.36
536.38	407.25
536.55	393.21
536.72	440.02
536.89	397.89
537.06	355.76
537.23	468.11
537.40	374.49
537.57	372.15
537.74	409.59
537.91	374.49
538.08	374.49
538.25	451.72
538.42	397.89
538.59	465.77
538.75	437.68
538.92	477.47
539.09	397.89
539.26	425.98
539.43	440.02
539.60	423.64
539.77	479.81
539.94	322.99
540.11	451.72
540.28	447.04
540.44	435.34
540.61	409.59
540.78	381.51
540.95	486.83
541.12	461.09
541.29	374.49
541.46	449.38
541.62	489.17
541.79	414.27
541.96	482.15
542.13	418.96
542.30	409.59
542.47	444.70
542.63	454.06
542.80	393.21
542.97	472.79
543.14	458.74
543.31	402.57
543.48	418.96
543.64	381.51
543.81	428.32
543.98	306.61
544.15	400.23
544.32	514.92
544.48	402.57
544.65	383.85
544.82	355.76
544.99	421.30
545.16	444.70
545.32	468.11
545.49	421.30
545.66	456.40
545.83	433.00
546.00	468.11
546.16	348.74
546.33	411.93
546.50	407.25
546.67	430.66
546.83	442.36
547.00	414.27
547.17	332.36
547.34	390.87
547.50	411.93
547.67	442.36
547.84	440.02
548.00	421.30
548.17	381.51
548.34	421.30
548.51	416.62
548.67	411.93
548.84	456.40
549.01	437.68
549.18	386.19
549.34	449.38
549.51	407.25
549.68	362.78
549.84	379.17
550.01	397.89
550.18	528.96
550.34	425.98
550.51	433.00
550.68	510.24
550.84	423.64
551.01	402.57
551.18	348.74
551.34	465.77
551.51	472.79
551.68	447.04
551.84	421.30
552.01	435.34
552.18	320.65
552.34	362.78
552.51	430.66
552.68	482.15
552.84	383.85
553.01	437.68
553.18	425.98
553.34	472.79
553.51	348.74
553.67	430.66
553.84	404.91
554.01	421.30
554.17	435.34
554.34	428.32
554.51	477.47
554.67	440.02
554.84	416.62
555.00	442.36
555.17	479.81
555.33	416.62
555.50	411.93
555.67	423.64
555.83	402.57
556.00	360.44
556.16	463.43
556.33	423.64
556.50	411.93
556.66	395.55
556.83	470.45
556.99	369.80
557.16	397.89
557.32	383.85
557.49	393.21
557.65	421.30
557.82	454.06
557.98	463.43
558.15	482.15
558.32	386.19
558.48	472.79
558.65	393.21
558.81	449.38
558.98	444.70
559.14	447.04
559.31	472.79
559.47	430.66
559.64	505.56
559.80	451.72
559.97	379.17
560.13	425.98
560.30	447.04
560.46	346.40
560.63	444.70
560.79	315.97
560.96	313.63
561.12	423.64
561.29	414.27
561.45	355.76
561.61	397.89
561.78	489.17
561.94	400.23
562.11	423.64
562.27	374.49
562.44	358.10
562.60	379.17
562.77	444.70
562.93	423.64
563.10	433.00
563.26	465.77
563.42	386.19
563.59	435.34
563.75	489.17
563.92	414.27
564.08	514.92
564.24	437.68
564.41	482.15
564.57	444.70
564.74	449.38
564.90	454.06
565.07	479.81
565.23	423.64
565.39	482.15
565.56	433.00
565.72	409.59
565.88	337.04
566.05	390.87
566.21	388.53
566.38	451.72
566.54	437.68
566.70	470.45
566.87	421.30
567.03	437.68
567.19	442.36
567.36	461.09
567.52	444.70
567.68	440.02
567.85	479.81
568.01	440.02
568.17	379.17
568.34	404.91
568.50	444.70
568.66	381.51
568.83	421.30
568.99	330.02
569.15	402.57
569.32	330.02
569.48	411.93
569.64	346.40
569.81	423.64
569.97	358.10
570.13	435.34
570.30	461.09
570.46	437.68
570.62	365.12
570.78	358.10
570.95	440.02
571.11	442.36
571.27	458.74
571.43	416.62
571.60	440.02
571.76	360.44
571.92	416.62
572.09	369.80
572.25	475.13
572.41	433.00
572.57	407.25
572.74	503.22
572.90	428.32
573.06	409.59
573.22	369.80
573.38	362.78
573.55	437.68
573.71	470.45
573.87	482.15
574.03	421.30
574.20	461.09
574.36	472.79
574.52	414.27
574.68	430.66
574.84	425.98
575.01	407.25
575.17	435.34
575.33	404.91
575.49	393.21
575.65	421.30
575.82	437.68
575.98	428.32
576.14	327.68
576.30	388.53
576.46	388.53
576.62	458.74
576.79	400.23
576.95	430.66
577.11	388.53
577.27	369.80
577.43	397.89
577.59	381.51
577.75	435.34
577.92	400.23
578.08	418.96
578.24	353.42
578.40	451.72
578.56	465.77
578.72	470.45
578.88	376.83
579.04	435.34
579.21	404.91
579.37	461.09
579.53	397.89
579.69	383.85
579.85	395.55
580.01	411.93
580.17	444.70
580.33	360.44
580.49	414.27
580.65	461.09
580.82	395.55
580.98	428.32
581.14	418.96
581.30	397.89
581.46	383.85
581.62	421.30
581.78	428.32
581.94	433.00
582.10	428.32
582.26	456.40
582.42	388.53
582.58	447.04
582.74	339.38
582.90	404.91
583.06	407.25
583.22	367.46
583.38	442.36
583.54	395.55
583.70	482.15
583.86	390.87
584.02	369.80
584.18	512.58
584.34	414.27
584.50	372.15
584.66	414.27
584.82	444.70
584.98	414.27
585.14	379.17
585.30	409.59
585.46	425.98
585.62	411.93
585.78	447.04
585.94	463.43
586.10	374.49
586.26	416.62
586.42	463.43
586.58	479.81
586.74	365.12
586.90	418.96
587.06	465.77
587.22	465.77
587.38	365.12
587.54	374.49
587.70	423.64
587.86	454.06
588.02	449.38
588.18	404.91
588.34	418.96
588.49	393.21
588.65	421.30
588.81	383.85
588.97	379.17
589.13	411.93
589.29	416.62
589.45	421.30
589.61	433.00
589.77	503.22
589.93	433.00
590.08	482.15
590.24	428.32
590.40	409.59
590.56	388.53
590.72	402.57
590.88	414.27
591.04	489.17
591.20	428.32
591.35	425.98
591.51	390.87
591.67	404.91
591.83	451.72
591.99	479.81
592.15	444.70
592.31	489.17
592.46	395.55
592.62	430.66
592.78	435.34
592.94	418.96
593.10	447.04
593.26	355.76
593.41	414.27
593.57	477.47
593.73	437.68
593.89	362.78
594.05	484.49
594.20	451.72
594.36	416.62
594.52	440.02
594.68	433.00
594.84	479.81
594.99	454.06
595.15	393.21
595.31	496.19
595.47	381.51
595.62	379.17
595.78	407.25
595.94	397.89
596.10	440.02
596.25	465.77
596.41	397.89
596.57	447.04
596.73	458.74
596.88	404.91
597.04	390.87
597.20	402.57
597.36	381.51
597.51	388.53
597.67	428.32
597.83	433.00
597.99	393.21
598.14	407.25
598.30	402.57
598.46	407.25
598.61	381.51
598.77	423.64
598.93	390.87
599.09	414.27
599.24	362.78
599.40	407.25
599.56	503.22
599.71	454.06
599.87	400.23
600.03	425.98
600.18	414.27
600.34	475.13
600.50	402.57
600.65	372.15
600.81	365.12
600.97	351.08
601.12	407.25
601.28	477.47
601.44	397.89
601.59	374.49
601.75	374.49
601.91	475.13
602.06	430.66
602.22	528.96
602.37	440.02
602.53	423.64
602.69	365.12
602.84	369.80
603.00	416.62
603.16	383.85
603.31	430.66
603.47	409.59
603.62	423.64
603.78	463.43
603.94	433.00
604.09	442.36
604.25	463.43
604.40	454.06
604.56	379.17
604.71	465.77
604.87	489.17
605.03	395.55
605.18	379.17
605.34	449.38
605.49	414.27
605.65	379.17
605.80	442.36
605.96	418.96
606.12	402.57
606.27	428.32
606.43	386.19
606.58	379.17
606.74	360.44
606.89	388.53
607.05	440.02
607.20	433.00
607.36	402.57
607.51	379.17
607.67	433.00
607.82	358.10
607.98	414.27
608.13	423.64
608.29	393.21
608.44	334.70
608.60	379.17
608.75	442.36
608.91	404.91
609.06	454.06
609.22	395.55
609.37	386.19
609.53	395.55
609.68	425.98
609.84	440.02
609.99	332.36
610.15	360.44
