SpectraSuite Data File
++++++++++++++++++++++++++++++++++++
Date: Fri Oct 25 12:10:48 EDT 2013
User: price-jones
Dark Spectrum Present: No
Reference Spectrum Present: No
Number of Sampled Component Spectra: 1
Spectrometers: USB2+H05261
Integration Time (usec): 100000 (USB2+H05261)
Spectra Averaged: 1 (USB2+H05261)
Boxcar Smoothing: 0 (USB2+H05261)
Correct for Electrical Dark: No (USB2+H05261)
Strobe/Lamp Enabled: No (USB2+H05261)
Correct for Detector Non-linearity: No (USB2+H05261)
Correct for Stray Light: No (USB2+H05261)
Number of Pixels in Processed Spectrum: 2048
>>>>>Begin Processed Spectral Data<<<<<
365.73	348.74
365.92	348.74
366.12	348.74
366.32	273.84
366.52	269.16
366.72	229.37
366.91	201.29
367.11	257.46
367.31	227.03
367.51	187.24
367.70	264.48
367.90	278.52
368.10	184.90
368.30	243.42
368.49	194.26
368.69	271.50
368.89	194.26
369.09	273.84
369.28	236.39
369.48	257.46
369.68	234.05
369.87	224.69
370.07	315.97
370.27	334.70
370.47	308.95
370.66	360.44
370.86	294.91
371.06	404.91
371.25	355.76
371.45	351.08
371.65	348.74
371.84	369.80
372.04	332.36
372.24	395.55
372.44	402.57
372.63	440.02
372.83	358.10
373.03	386.19
373.22	369.80
373.42	421.30
373.62	451.72
373.81	395.55
374.01	362.78
374.21	500.87
374.40	402.57
374.60	393.21
374.79	423.64
374.99	433.00
375.19	465.77
375.38	491.51
375.58	400.23
375.78	367.46
375.97	423.64
376.17	482.15
376.37	404.91
376.56	390.87
376.76	390.87
376.95	402.57
377.15	451.72
377.35	442.36
377.54	400.23
377.74	430.66
377.93	367.46
378.13	442.36
378.33	437.68
378.52	433.00
378.72	489.17
378.91	454.06
379.11	397.89
379.31	362.78
379.50	458.74
379.70	447.04
379.89	383.85
380.09	358.10
380.28	418.96
380.48	355.76
380.68	367.46
380.87	376.83
381.07	381.51
381.26	402.57
381.46	365.12
381.65	400.23
381.85	442.36
382.04	374.49
382.24	468.11
382.43	320.65
382.63	465.77
382.83	306.61
383.02	498.53
383.22	367.46
383.41	388.53
383.61	395.55
383.80	428.32
384.00	435.34
384.19	341.72
384.39	313.63
384.58	402.57
384.78	425.98
384.97	346.40
385.17	407.25
385.36	369.80
385.56	402.57
385.75	465.77
385.95	351.08
386.14	428.32
386.34	414.27
386.53	379.17
386.72	325.33
386.92	458.74
387.11	437.68
387.31	463.43
387.50	414.27
387.70	409.59
387.89	341.72
388.09	374.49
388.28	337.04
388.48	418.96
388.67	477.47
388.86	362.78
389.06	421.30
389.25	430.66
389.45	463.43
389.64	454.06
389.84	365.12
390.03	388.53
390.22	407.25
390.42	351.08
390.61	390.87
390.81	416.62
391.00	379.17
391.19	416.62
391.39	395.55
391.58	440.02
391.78	416.62
391.97	421.30
392.16	400.23
392.36	402.57
392.55	451.72
392.75	454.06
392.94	358.10
393.13	411.93
393.33	393.21
393.52	400.23
393.71	463.43
393.91	472.79
394.10	397.89
394.29	374.49
394.49	416.62
394.68	454.06
394.88	386.19
395.07	416.62
395.26	472.79
395.46	362.78
395.65	463.43
395.84	390.87
396.04	468.11
396.23	428.32
396.42	393.21
396.62	381.51
396.81	414.27
397.00	409.59
397.19	397.89
397.39	334.70
397.58	449.38
397.77	395.55
397.97	367.46
398.16	437.68
398.35	418.96
398.55	390.87
398.74	411.93
398.93	381.51
399.12	449.38
399.32	360.44
399.51	369.80
399.70	400.23
399.90	477.47
400.09	388.53
400.28	423.64
400.47	461.09
400.67	421.30
400.86	402.57
401.05	484.49
401.24	372.15
401.44	374.49
401.63	444.70
401.82	411.93
402.01	411.93
402.21	430.66
402.40	351.08
402.59	423.64
402.78	409.59
402.97	447.04
403.17	416.62
403.36	433.00
403.55	365.12
403.74	470.45
403.93	437.68
404.13	465.77
404.32	397.89
404.51	346.40
404.70	465.77
404.89	397.89
405.09	437.68
405.28	402.57
405.47	351.08
405.66	437.68
405.85	393.21
406.05	428.32
406.24	428.32
406.43	372.15
406.62	454.06
406.81	484.49
407.00	390.87
407.20	411.93
407.39	402.57
407.58	365.12
407.77	395.55
407.96	369.80
408.15	423.64
408.34	510.24
408.54	451.72
408.73	393.21
408.92	475.13
409.11	409.59
409.30	425.98
409.49	365.12
409.68	404.91
409.87	400.23
410.07	433.00
410.26	407.25
410.45	428.32
410.64	418.96
410.83	416.62
411.02	416.62
411.21	411.93
411.40	430.66
411.59	468.11
411.78	421.30
411.98	435.34
412.17	362.78
412.36	404.91
412.55	379.17
412.74	444.70
412.93	440.02
413.12	374.49
413.31	458.74
413.50	421.30
413.69	395.55
413.88	461.09
414.07	447.04
414.26	400.23
414.45	437.68
414.64	397.89
414.83	496.19
415.02	454.06
415.22	440.02
415.41	411.93
415.60	367.46
415.79	299.59
415.98	451.72
416.17	435.34
416.36	411.93
416.55	435.34
416.74	433.00
416.93	411.93
417.12	461.09
417.31	395.55
417.50	355.76
417.69	423.64
417.88	404.91
418.07	402.57
418.26	369.80
418.45	414.27
418.64	388.53
418.83	395.55
419.02	395.55
419.21	372.15
419.39	458.74
419.58	369.80
419.77	346.40
419.96	465.77
420.15	423.64
420.34	416.62
420.53	428.32
420.72	538.32
420.91	454.06
421.10	416.62
421.29	461.09
421.48	404.91
421.67	416.62
421.86	437.68
422.05	425.98
422.24	442.36
422.43	400.23
422.61	397.89
422.80	425.98
422.99	386.19
423.18	395.55
423.37	447.04
423.56	409.59
423.75	407.25
423.94	418.96
424.13	435.34
424.32	393.21
424.50	456.40
424.69	491.51
424.88	456.40
425.07	365.12
425.26	442.36
425.45	444.70
425.64	440.02
425.83	393.21
426.01	367.46
426.20	383.85
426.39	440.02
426.58	372.15
426.77	390.87
426.96	421.30
427.15	397.89
427.33	433.00
427.52	437.68
427.71	409.59
427.90	355.76
428.09	411.93
428.28	407.25
428.46	472.79
428.65	468.11
428.84	461.09
429.03	482.15
429.22	383.85
429.40	435.34
429.59	374.49
429.78	411.93
429.97	423.64
430.16	388.53
430.34	407.25
430.53	395.55
430.72	402.57
430.91	379.17
431.10	423.64
431.28	379.17
431.47	463.43
431.66	491.51
431.85	433.00
432.03	447.04
432.22	444.70
432.41	404.91
432.60	430.66
432.79	388.53
432.97	294.91
433.16	404.91
433.35	430.66
433.54	407.25
433.72	414.27
433.91	416.62
434.10	437.68
434.28	435.34
434.47	381.51
434.66	433.00
434.85	430.66
435.03	418.96
435.22	390.87
435.41	458.74
435.59	395.55
435.78	437.68
435.97	386.19
436.16	437.68
436.34	376.83
436.53	388.53
436.72	407.25
436.90	379.17
437.09	461.09
437.28	423.64
437.46	376.83
437.65	348.74
437.84	442.36
438.02	442.36
438.21	456.40
438.40	491.51
438.58	409.59
438.77	362.78
438.96	440.02
439.14	461.09
439.33	358.10
439.52	369.80
439.70	475.13
439.89	411.93
440.08	379.17
440.26	428.32
440.45	351.08
440.63	449.38
440.82	365.12
441.01	437.68
441.19	402.57
441.38	435.34
441.57	456.40
441.75	454.06
441.94	388.53
442.12	374.49
442.31	416.62
442.50	358.10
442.68	374.49
442.87	423.64
443.05	397.89
443.24	395.55
443.43	418.96
443.61	482.15
443.80	386.19
443.98	346.40
444.17	372.15
444.35	435.34
444.54	418.96
444.73	393.21
444.91	444.70
445.10	374.49
445.28	369.80
445.47	337.04
445.65	418.96
445.84	409.59
446.02	425.98
446.21	386.19
446.39	358.10
446.58	442.36
446.77	451.72
446.95	430.66
447.14	414.27
447.32	440.02
447.51	489.17
447.69	456.40
447.88	470.45
448.06	496.19
448.25	416.62
448.43	339.38
448.62	407.25
448.80	404.91
448.99	433.00
449.17	381.51
449.36	454.06
449.54	486.83
449.73	369.80
449.91	411.93
450.10	442.36
450.28	421.30
450.46	433.00
450.65	411.93
450.83	498.53
451.02	404.91
451.20	409.59
451.39	379.17
451.57	397.89
451.76	386.19
451.94	503.22
452.13	421.30
452.31	440.02
452.49	351.08
452.68	362.78
452.86	381.51
453.05	512.58
453.23	414.27
453.42	383.85
453.60	423.64
453.78	348.74
453.97	418.96
454.15	330.02
454.34	416.62
454.52	395.55
454.70	418.96
454.89	325.33
455.07	411.93
455.26	358.10
455.44	425.98
455.62	449.38
455.81	416.62
455.99	346.40
456.17	456.40
456.36	383.85
456.54	395.55
456.73	411.93
456.91	430.66
457.09	449.38
457.28	351.08
457.46	402.57
457.64	449.38
457.83	411.93
458.01	437.68
458.19	416.62
458.38	397.89
458.56	346.40
458.74	423.64
458.93	339.38
459.11	362.78
459.29	425.98
459.48	482.15
459.66	428.32
459.84	465.77
460.03	500.87
460.21	479.81
460.39	383.85
460.57	472.79
460.76	414.27
460.94	379.17
461.12	458.74
461.31	430.66
461.49	390.87
461.67	430.66
461.85	400.23
462.04	355.76
462.22	725.57
462.40	416.62
462.59	367.46
462.77	374.49
462.95	381.51
463.13	381.51
463.32	411.93
463.50	402.57
463.68	472.79
463.86	428.32
464.05	454.06
464.23	449.38
464.41	437.68
464.59	381.51
464.78	425.98
464.96	458.74
465.14	451.72
465.32	409.59
465.50	421.30
465.69	395.55
465.87	425.98
466.05	503.22
466.23	388.53
466.41	418.96
466.60	418.96
466.78	400.23
466.96	379.17
467.14	433.00
467.32	416.62
467.51	482.15
467.69	477.47
467.87	409.59
468.05	409.59
468.23	489.17
468.41	444.70
468.60	390.87
468.78	425.98
468.96	500.87
469.14	437.68
469.32	444.70
469.50	381.51
469.69	395.55
469.87	393.21
470.05	395.55
470.23	465.77
470.41	418.96
470.59	425.98
470.77	379.17
470.95	402.57
471.14	470.45
471.32	381.51
471.50	397.89
471.68	374.49
471.86	365.12
472.04	409.59
472.22	411.93
472.40	519.60
472.58	430.66
472.77	437.68
472.95	360.44
473.13	440.02
473.31	379.17
473.49	416.62
473.67	362.78
473.85	411.93
474.03	388.53
474.21	393.21
474.39	365.12
474.57	425.98
474.75	423.64
474.93	461.09
475.12	517.26
475.30	437.68
475.48	409.59
475.66	341.72
475.84	444.70
476.02	376.83
476.20	475.13
476.38	362.78
476.56	477.47
476.74	444.70
476.92	414.27
477.10	416.62
477.28	465.77
477.46	409.59
477.64	458.74
477.82	444.70
478.00	414.27
478.18	458.74
478.36	351.08
478.54	437.68
478.72	386.19
478.90	468.11
479.08	404.91
479.26	400.23
479.44	416.62
479.62	449.38
479.80	388.53
479.98	454.06
480.16	416.62
480.34	395.55
480.52	475.13
480.70	454.06
480.88	383.85
481.06	341.72
481.24	376.83
481.41	362.78
481.59	442.36
481.77	435.34
481.95	430.66
482.13	435.34
482.31	451.72
482.49	430.66
482.67	425.98
482.85	461.09
483.03	379.17
483.21	475.13
483.39	440.02
483.57	430.66
483.74	440.02
483.92	428.32
484.10	393.21
484.28	458.74
484.46	435.34
484.64	458.74
484.82	437.68
485.00	393.21
485.18	458.74
485.35	402.57
485.53	433.00
485.71	425.98
485.89	409.59
486.07	400.23
486.25	411.93
486.43	409.59
486.61	383.85
486.78	400.23
486.96	416.62
487.14	355.76
487.32	430.66
487.50	425.98
487.68	456.40
487.85	393.21
488.03	337.04
488.21	442.36
488.39	442.36
488.57	421.30
488.75	379.17
488.92	524.28
489.10	442.36
489.28	470.45
489.46	395.55
489.64	437.68
489.81	376.83
489.99	470.45
490.17	430.66
490.35	538.32
490.53	409.59
490.70	430.66
490.88	369.80
491.06	369.80
491.24	332.36
491.41	447.04
491.59	402.57
491.77	421.30
491.95	372.15
492.13	435.34
492.30	411.93
492.48	334.70
492.66	393.21
492.84	372.15
493.01	456.40
493.19	425.98
493.37	461.09
493.54	390.87
493.72	440.02
493.90	337.04
494.08	400.23
494.25	456.40
494.43	379.17
494.61	402.57
494.79	414.27
494.96	416.62
495.14	402.57
495.32	416.62
495.49	421.30
495.67	430.66
495.85	463.43
496.02	395.55
496.20	416.62
496.38	465.77
496.55	461.09
496.73	440.02
496.91	365.12
497.09	397.89
497.26	463.43
497.44	355.76
497.62	376.83
497.79	421.30
497.97	430.66
498.14	454.06
498.32	414.27
498.50	428.32
498.67	409.59
498.85	395.55
499.03	367.46
499.20	383.85
499.38	430.66
499.56	437.68
499.73	440.02
499.91	414.27
500.08	402.57
500.26	369.80
500.44	421.30
500.61	330.02
500.79	381.51
500.97	468.11
501.14	404.91
501.32	402.57
501.49	379.17
501.67	383.85
501.84	407.25
502.02	433.00
502.20	468.11
502.37	433.00
502.55	418.96
502.72	437.68
502.90	437.68
503.07	376.83
503.25	484.49
503.43	362.78
503.60	423.64
503.78	425.98
503.95	386.19
504.13	390.87
504.30	425.98
504.48	409.59
504.65	409.59
504.83	330.02
505.01	433.00
505.18	416.62
505.36	355.76
505.53	411.93
505.71	444.70
505.88	498.53
506.06	397.89
506.23	423.64
506.41	393.21
506.58	339.38
506.76	472.79
506.93	512.58
507.11	458.74
507.28	425.98
507.46	418.96
507.63	393.21
507.81	395.55
507.98	411.93
508.16	449.38
508.33	456.40
508.50	465.77
508.68	397.89
508.85	411.93
509.03	411.93
509.20	433.00
509.38	433.00
509.55	444.70
509.73	374.49
509.90	454.06
510.08	407.25
510.25	404.91
510.42	332.36
510.60	381.51
510.77	404.91
510.95	351.08
511.12	360.44
511.30	388.53
511.47	346.40
511.64	407.25
511.82	430.66
511.99	400.23
512.17	376.83
512.34	454.06
512.51	470.45
512.69	381.51
512.86	416.62
513.04	447.04
513.21	395.55
513.38	454.06
513.56	447.04
513.73	390.87
513.90	381.51
514.08	393.21
514.25	461.09
514.43	437.68
514.60	475.13
514.77	465.77
514.95	428.32
515.12	376.83
515.29	416.62
515.47	416.62
515.64	409.59
515.81	386.19
515.99	428.32
516.16	444.70
516.33	440.02
516.51	411.93
516.68	428.32
516.85	418.96
517.03	500.87
517.20	458.74
517.37	423.64
517.54	411.93
517.72	404.91
517.89	456.40
518.06	440.02
518.24	465.77
518.41	440.02
518.58	393.21
518.75	451.72
518.93	341.72
519.10	430.66
519.27	451.72
519.45	346.40
519.62	388.53
519.79	423.64
519.96	346.40
520.14	358.10
520.31	348.74
520.48	418.96
520.65	400.23
520.83	386.19
521.00	411.93
521.17	451.72
521.34	423.64
521.52	425.98
521.69	423.64
521.86	468.11
522.03	397.89
522.20	402.57
522.38	468.11
522.55	411.93
522.72	383.85
522.89	395.55
523.07	425.98
523.24	400.23
523.41	320.65
523.58	414.27
523.75	409.59
523.92	402.57
524.10	402.57
524.27	421.30
524.44	442.36
524.61	475.13
524.78	449.38
524.96	447.04
525.13	346.40
525.30	404.91
525.47	486.83
525.64	348.74
525.81	358.10
525.98	397.89
526.16	463.43
526.33	430.66
526.50	404.91
526.67	411.93
526.84	374.49
527.01	465.77
527.18	383.85
527.36	374.49
527.53	447.04
527.70	449.38
527.87	390.87
528.04	465.77
528.21	425.98
528.38	440.02
528.55	484.49
528.72	442.36
528.89	390.87
529.07	393.21
529.24	428.32
529.41	468.11
529.58	425.98
529.75	346.40
529.92	390.87
530.09	374.49
530.26	463.43
530.43	414.27
530.60	435.34
530.77	362.78
530.94	433.00
531.11	440.02
531.28	379.17
531.46	379.17
531.63	437.68
531.80	461.09
531.97	451.72
532.14	498.53
532.31	418.96
532.48	421.30
532.65	468.11
532.82	395.55
532.99	400.23
533.16	440.02
533.33	407.25
533.50	372.15
533.67	400.23
533.84	367.46
534.01	430.66
534.18	461.09
534.35	423.64
534.52	355.76
534.69	386.19
534.86	402.57
535.03	400.23
535.20	395.55
535.37	461.09
535.54	458.74
535.71	437.68
535.88	430.66
536.05	425.98
536.22	374.49
536.38	390.87
536.55	404.91
536.72	414.27
536.89	379.17
537.06	367.46
537.23	311.29
537.40	400.23
537.57	393.21
537.74	430.66
537.91	456.40
538.08	414.27
538.25	449.38
538.42	386.19
538.59	395.55
538.75	360.44
538.92	395.55
539.09	411.93
539.26	458.74
539.43	463.43
539.60	404.91
539.77	421.30
539.94	404.91
540.11	308.95
540.28	416.62
540.44	461.09
540.61	442.36
540.78	437.68
540.95	465.77
541.12	421.30
541.29	449.38
541.46	442.36
541.62	402.57
541.79	421.30
541.96	386.19
542.13	348.74
542.30	416.62
542.47	402.57
542.63	433.00
542.80	397.89
542.97	414.27
543.14	416.62
543.31	423.64
543.48	365.12
543.64	428.32
543.81	449.38
543.98	407.25
544.15	383.85
544.32	395.55
544.48	402.57
544.65	400.23
544.82	435.34
544.99	423.64
545.16	451.72
545.32	360.44
545.49	416.62
545.66	386.19
545.83	379.17
546.00	400.23
546.16	411.93
546.33	435.34
546.50	484.49
546.67	454.06
546.83	381.51
547.00	447.04
547.17	404.91
547.34	390.87
547.50	395.55
547.67	388.53
547.84	367.46
548.00	383.85
548.17	400.23
548.34	437.68
548.51	404.91
548.67	440.02
548.84	337.04
549.01	423.64
549.18	425.98
549.34	437.68
549.51	435.34
549.68	397.89
549.84	430.66
550.01	348.74
550.18	444.70
550.34	491.51
550.51	465.77
550.68	423.64
550.84	390.87
551.01	414.27
551.18	442.36
551.34	400.23
551.51	447.04
551.68	411.93
551.84	411.93
552.01	407.25
552.18	390.87
552.34	414.27
552.51	430.66
552.68	416.62
552.84	337.04
553.01	400.23
553.18	444.70
553.34	423.64
553.51	437.68
553.67	463.43
553.84	383.85
554.01	449.38
554.17	425.98
554.34	440.02
554.51	458.74
554.67	461.09
554.84	463.43
555.00	442.36
555.17	404.91
555.33	440.02
555.50	486.83
555.67	376.83
555.83	414.27
556.00	440.02
556.16	528.96
556.33	409.59
556.50	365.12
556.66	442.36
556.83	395.55
556.99	409.59
557.16	395.55
557.32	402.57
557.49	407.25
557.65	400.23
557.82	437.68
557.98	451.72
558.15	402.57
558.32	442.36
558.48	390.87
558.65	451.72
558.81	400.23
558.98	430.66
559.14	393.21
559.31	395.55
559.47	393.21
559.64	376.83
559.80	447.04
559.97	423.64
560.13	390.87
560.30	402.57
560.46	395.55
560.63	390.87
560.79	447.04
560.96	400.23
561.12	437.68
561.29	409.59
561.45	393.21
561.61	388.53
561.78	486.83
561.94	381.51
562.11	428.32
562.27	440.02
562.44	411.93
562.60	414.27
562.77	416.62
562.93	484.49
563.10	400.23
563.26	425.98
563.42	444.70
563.59	510.24
563.75	414.27
563.92	430.66
564.08	379.17
564.24	395.55
564.41	437.68
564.57	367.46
564.74	437.68
564.90	437.68
565.07	418.96
565.23	512.58
565.39	393.21
565.56	395.55
565.72	390.87
565.88	505.56
566.05	402.57
566.21	334.70
566.38	461.09
566.54	421.30
566.70	421.30
566.87	393.21
567.03	325.33
567.19	367.46
567.36	444.70
567.52	437.68
567.68	433.00
567.85	430.66
568.01	451.72
568.17	404.91
568.34	402.57
568.50	423.64
568.66	430.66
568.83	458.74
568.99	447.04
569.15	409.59
569.32	379.17
569.48	365.12
569.64	369.80
569.81	376.83
569.97	409.59
570.13	411.93
570.30	461.09
570.46	414.27
570.62	360.44
570.78	402.57
570.95	402.57
571.11	400.23
571.27	543.00
571.43	463.43
571.60	440.02
571.76	372.15
571.92	400.23
572.09	435.34
572.25	416.62
572.41	402.57
572.57	374.49
572.74	505.56
572.90	376.83
573.06	423.64
573.22	416.62
573.38	414.27
573.55	514.92
573.71	423.64
573.87	409.59
574.03	346.40
574.20	348.74
574.36	395.55
574.52	425.98
574.68	463.43
574.84	388.53
575.01	423.64
575.17	407.25
575.33	437.68
575.49	423.64
575.65	383.85
575.82	477.47
575.98	435.34
576.14	423.64
576.30	456.40
576.46	397.89
576.62	425.98
576.79	449.38
576.95	428.32
577.11	442.36
577.27	388.53
577.43	365.12
577.59	444.70
577.75	465.77
577.92	409.59
578.08	353.42
578.24	416.62
578.40	465.77
578.56	421.30
578.72	484.49
578.88	393.21
579.04	423.64
579.21	416.62
579.37	458.74
579.53	425.98
579.69	496.19
579.85	470.45
580.01	430.66
580.17	414.27
580.33	400.23
580.49	388.53
580.65	433.00
580.82	454.06
580.98	414.27
581.14	428.32
581.30	437.68
581.46	381.51
581.62	500.87
581.78	355.76
581.94	339.38
582.10	402.57
582.26	388.53
582.42	351.08
582.58	397.89
582.74	386.19
582.90	421.30
583.06	430.66
583.22	407.25
583.38	383.85
583.54	421.30
583.70	404.91
583.86	444.70
584.02	416.62
584.18	381.51
584.34	435.34
584.50	421.30
584.66	325.33
584.82	416.62
584.98	435.34
585.14	393.21
585.30	409.59
585.46	376.83
585.62	339.38
585.78	388.53
585.94	369.80
586.10	433.00
586.26	386.19
586.42	496.19
586.58	400.23
586.74	407.25
586.90	442.36
587.06	465.77
587.22	407.25
587.38	435.34
587.54	337.04
587.70	395.55
587.86	393.21
588.02	404.91
588.18	379.17
588.34	430.66
588.49	418.96
588.65	456.40
588.81	440.02
588.97	411.93
589.13	374.49
589.29	393.21
589.45	470.45
589.61	402.57
589.77	433.00
589.93	400.23
590.08	376.83
590.24	397.89
590.40	402.57
590.56	449.38
590.72	421.30
590.88	376.83
591.04	442.36
591.20	351.08
591.35	479.81
591.51	493.85
591.67	388.53
591.83	461.09
591.99	435.34
592.15	423.64
592.31	390.87
592.46	374.49
592.62	409.59
592.78	404.91
592.94	383.85
593.10	355.76
593.26	400.23
593.41	430.66
593.57	421.30
593.73	416.62
593.89	449.38
594.05	407.25
594.20	383.85
594.36	454.06
594.52	500.87
594.68	348.74
594.84	433.00
594.99	440.02
595.15	397.89
595.31	496.19
595.47	440.02
595.62	444.70
595.78	409.59
595.94	404.91
596.10	437.68
596.25	400.23
596.41	437.68
596.57	388.53
596.73	463.43
596.88	461.09
597.04	381.51
597.20	313.63
597.36	440.02
597.51	407.25
597.67	400.23
597.83	390.87
597.99	369.80
598.14	437.68
598.30	369.80
598.46	409.59
598.61	440.02
598.77	404.91
598.93	362.78
599.09	503.22
599.24	395.55
599.40	440.02
599.56	449.38
599.71	414.27
599.87	376.83
600.03	456.40
600.18	435.34
600.34	381.51
600.50	365.12
600.65	444.70
600.81	395.55
600.97	397.89
601.12	404.91
601.28	428.32
601.44	444.70
601.59	461.09
601.75	388.53
601.91	404.91
602.06	442.36
602.22	475.13
602.37	390.87
602.53	369.80
602.69	526.62
602.84	442.36
603.00	407.25
603.16	472.79
603.31	423.64
603.47	407.25
603.62	437.68
603.78	374.49
603.94	500.87
604.09	411.93
604.25	421.30
604.40	409.59
604.56	388.53
604.71	423.64
604.87	442.36
605.03	325.33
605.18	416.62
605.34	465.77
605.49	367.46
605.65	435.34
605.80	411.93
605.96	348.74
606.12	418.96
606.27	409.59
606.43	449.38
606.58	447.04
606.74	442.36
606.89	379.17
607.05	444.70
607.20	365.12
607.36	461.09
607.51	435.34
607.67	383.85
607.82	430.66
607.98	496.19
608.13	411.93
608.29	512.58
608.44	374.49
608.60	437.68
608.75	435.34
608.91	369.80
609.06	381.51
609.22	437.68
609.37	376.83
609.53	341.72
609.68	449.38
609.84	390.87
609.99	379.17
610.15	386.19
