SpectraSuite Data File
++++++++++++++++++++++++++++++++++++
Date: Fri Oct 25 12:10:08 EDT 2013
User: price-jones
Dark Spectrum Present: No
Reference Spectrum Present: No
Number of Sampled Component Spectra: 1
Spectrometers: USB2+H05261
Integration Time (usec): 100000 (USB2+H05261)
Spectra Averaged: 1 (USB2+H05261)
Boxcar Smoothing: 0 (USB2+H05261)
Correct for Electrical Dark: No (USB2+H05261)
Strobe/Lamp Enabled: No (USB2+H05261)
Correct for Detector Non-linearity: No (USB2+H05261)
Correct for Stray Light: No (USB2+H05261)
Number of Pixels in Processed Spectrum: 2048
>>>>>Begin Processed Spectral Data<<<<<
365.73	292.57
365.92	292.57
366.12	292.57
366.32	269.16
366.52	304.27
366.72	273.84
366.91	177.88
367.11	212.99
367.31	278.52
367.51	191.92
367.70	196.60
367.90	252.78
368.10	243.42
368.30	234.05
368.49	271.50
368.69	365.12
368.89	241.08
369.09	346.40
369.28	266.82
369.48	147.45
369.68	257.46
369.87	280.86
370.07	266.82
370.27	365.12
370.47	311.29
370.66	330.02
370.86	353.42
371.06	358.10
371.25	400.23
371.45	365.12
371.65	437.68
371.84	381.51
372.04	374.49
372.24	355.76
372.44	381.51
372.63	330.02
372.83	358.10
373.03	402.57
373.22	402.57
373.42	418.96
373.62	421.30
373.81	498.53
374.01	456.40
374.21	409.59
374.40	386.19
374.60	407.25
374.79	447.04
374.99	430.66
375.19	423.64
375.38	322.99
375.58	475.13
375.78	463.43
375.97	418.96
376.17	395.55
376.37	451.72
376.56	339.38
376.76	374.49
376.95	449.38
377.15	456.40
377.35	423.64
377.54	360.44
377.74	444.70
377.93	376.83
378.13	433.00
378.33	365.12
378.52	444.70
378.72	404.91
378.91	411.93
379.11	409.59
379.31	428.32
379.50	386.19
379.70	442.36
379.89	381.51
380.09	376.83
380.28	409.59
380.48	458.74
380.68	395.55
380.87	355.76
381.07	418.96
381.26	425.98
381.46	458.74
381.65	437.68
381.85	372.15
382.04	379.17
382.24	418.96
382.43	440.02
382.63	386.19
382.83	428.32
383.02	411.93
383.22	362.78
383.41	362.78
383.61	449.38
383.80	454.06
384.00	430.66
384.19	421.30
384.39	393.21
384.58	376.83
384.78	395.55
384.97	428.32
385.17	351.08
385.36	325.33
385.56	437.68
385.75	381.51
385.95	421.30
386.14	463.43
386.34	381.51
386.53	447.04
386.72	397.89
386.92	360.44
387.11	393.21
387.31	358.10
387.50	435.34
387.70	411.93
387.89	395.55
388.09	395.55
388.28	386.19
388.48	437.68
388.67	430.66
388.86	468.11
389.06	358.10
389.25	414.27
389.45	416.62
389.64	367.46
389.84	379.17
390.03	433.00
390.22	456.40
390.42	379.17
390.61	362.78
390.81	381.51
391.00	433.00
391.19	425.98
391.39	367.46
391.58	435.34
391.78	421.30
391.97	379.17
392.16	409.59
392.36	442.36
392.55	416.62
392.75	386.19
392.94	381.51
393.13	376.83
393.33	397.89
393.52	374.49
393.71	383.85
393.91	442.36
394.10	400.23
394.29	390.87
394.49	416.62
394.68	372.15
394.88	461.09
395.07	407.25
395.26	315.97
395.46	400.23
395.65	451.72
395.84	407.25
396.04	475.13
396.23	442.36
396.42	425.98
396.62	358.10
396.81	383.85
397.00	355.76
397.19	416.62
397.39	397.89
397.58	428.32
397.77	402.57
397.97	416.62
398.16	372.15
398.35	402.57
398.55	456.40
398.74	397.89
398.93	472.79
399.12	418.96
399.32	353.42
399.51	428.32
399.70	428.32
399.90	458.74
400.09	425.98
400.28	397.89
400.47	334.70
400.67	388.53
400.86	400.23
401.05	369.80
401.24	390.87
401.44	374.49
401.63	407.25
401.82	440.02
402.01	435.34
402.21	407.25
402.40	390.87
402.59	390.87
402.78	383.85
402.97	365.12
403.17	379.17
403.36	425.98
403.55	355.76
403.74	383.85
403.93	367.46
404.13	369.80
404.32	376.83
404.51	369.80
404.70	376.83
404.89	376.83
405.09	468.11
405.28	465.77
405.47	402.57
405.66	411.93
405.85	395.55
406.05	400.23
406.24	360.44
406.43	313.63
406.62	458.74
406.81	468.11
407.00	383.85
407.20	358.10
407.39	395.55
407.58	386.19
407.77	386.19
407.96	421.30
408.15	477.47
408.34	433.00
408.54	400.23
408.73	404.91
408.92	390.87
409.11	402.57
409.30	430.66
409.49	374.49
409.68	458.74
409.87	332.36
410.07	327.68
410.26	440.02
410.45	484.49
410.64	416.62
410.83	353.42
411.02	348.74
411.21	437.68
411.40	447.04
411.59	496.19
411.78	423.64
411.98	421.30
412.17	404.91
412.36	437.68
412.55	444.70
412.74	458.74
412.93	482.15
413.12	393.21
413.31	440.02
413.50	393.21
413.69	416.62
413.88	437.68
414.07	472.79
414.26	442.36
414.45	397.89
414.64	358.10
414.83	414.27
415.02	381.51
415.22	381.51
415.41	414.27
415.60	367.46
415.79	437.68
415.98	414.27
416.17	365.12
416.36	372.15
416.55	411.93
416.74	437.68
416.93	379.17
417.12	383.85
417.31	376.83
417.50	423.64
417.69	414.27
417.88	414.27
418.07	416.62
418.26	437.68
418.45	374.49
418.64	416.62
418.83	332.36
419.02	362.78
419.21	458.74
419.39	407.25
419.58	388.53
419.77	418.96
419.96	383.85
420.15	418.96
420.34	365.12
420.53	400.23
420.72	472.79
420.91	374.49
421.10	418.96
421.29	393.21
421.48	365.12
421.67	411.93
421.86	444.70
422.05	400.23
422.24	418.96
422.43	414.27
422.61	425.98
422.80	376.83
422.99	292.57
423.18	390.87
423.37	498.53
423.56	477.47
423.75	407.25
423.94	390.87
424.13	484.49
424.32	454.06
424.50	407.25
424.69	414.27
424.88	447.04
425.07	388.53
425.26	400.23
425.45	475.13
425.64	360.44
425.83	397.89
426.01	442.36
426.20	348.74
426.39	386.19
426.58	409.59
426.77	404.91
426.96	381.51
427.15	369.80
427.33	393.21
427.52	320.65
427.71	395.55
427.90	372.15
428.09	365.12
428.28	479.81
428.46	322.99
428.65	407.25
428.84	404.91
429.03	468.11
429.22	444.70
429.40	425.98
429.59	388.53
429.78	402.57
429.97	496.19
430.16	458.74
430.34	372.15
430.53	428.32
430.72	421.30
430.91	430.66
431.10	386.19
431.28	374.49
431.47	454.06
431.66	360.44
431.85	404.91
432.03	421.30
432.22	442.36
432.41	367.46
432.60	458.74
432.79	395.55
432.97	421.30
433.16	358.10
433.35	395.55
433.54	416.62
433.72	421.30
433.91	491.51
434.10	388.53
434.28	411.93
434.47	430.66
434.66	444.70
434.85	383.85
435.03	386.19
435.22	430.66
435.41	435.34
435.59	440.02
435.78	496.19
435.97	425.98
436.16	430.66
436.34	407.25
436.53	433.00
436.72	468.11
436.90	470.45
437.09	402.57
437.28	411.93
437.46	465.77
437.65	388.53
437.84	411.93
438.02	430.66
438.21	449.38
438.40	421.30
438.58	308.95
438.77	367.46
438.96	491.51
439.14	421.30
439.33	477.47
439.52	381.51
439.70	440.02
439.89	379.17
440.08	404.91
440.26	374.49
440.45	367.46
440.63	379.17
440.82	365.12
441.01	400.23
441.19	409.59
441.38	423.64
441.57	430.66
441.75	416.62
441.94	379.17
442.12	442.36
442.31	428.32
442.50	386.19
442.68	393.21
442.87	425.98
443.05	379.17
443.24	400.23
443.43	393.21
443.61	411.93
443.80	430.66
443.98	332.36
444.17	374.49
444.35	411.93
444.54	346.40
444.73	358.10
444.91	416.62
445.10	409.59
445.28	346.40
445.47	395.55
445.65	287.89
445.84	351.08
446.02	383.85
446.21	435.34
446.39	430.66
446.58	339.38
446.77	458.74
446.95	344.06
447.14	428.32
447.32	470.45
447.51	409.59
447.69	379.17
447.88	381.51
448.06	409.59
448.25	407.25
448.43	449.38
448.62	341.72
448.80	365.12
448.99	414.27
449.17	435.34
449.36	411.93
449.54	437.68
449.73	461.09
449.91	421.30
450.10	355.76
450.28	484.49
450.46	454.06
450.65	362.78
450.83	393.21
451.02	404.91
451.20	393.21
451.39	379.17
451.57	447.04
451.76	367.46
451.94	449.38
452.13	484.49
452.31	430.66
452.49	393.21
452.68	374.49
452.86	428.32
453.05	400.23
453.23	374.49
453.42	390.87
453.60	362.78
453.78	435.34
453.97	337.04
454.15	393.21
454.34	416.62
454.52	418.96
454.70	442.36
454.89	337.04
455.07	411.93
455.26	353.42
455.44	465.77
455.62	346.40
455.81	416.62
455.99	416.62
456.17	425.98
456.36	430.66
456.54	407.25
456.73	421.30
456.91	381.51
457.09	463.43
457.28	402.57
457.46	353.42
457.64	414.27
457.83	437.68
458.01	414.27
458.19	435.34
458.38	320.65
458.56	433.00
458.74	390.87
458.93	402.57
459.11	383.85
459.29	423.64
459.48	381.51
459.66	425.98
459.84	435.34
460.03	388.53
460.21	400.23
460.39	395.55
460.57	351.08
460.76	423.64
460.94	416.62
461.12	458.74
461.31	461.09
461.49	456.40
461.67	428.32
461.85	402.57
462.04	433.00
462.22	781.74
462.40	381.51
462.59	486.83
462.77	425.98
462.95	395.55
463.13	416.62
463.32	433.00
463.50	477.47
463.68	376.83
463.86	421.30
464.05	397.89
464.23	402.57
464.41	390.87
464.59	318.31
464.78	348.74
464.96	355.76
465.14	386.19
465.32	407.25
465.50	433.00
465.69	477.47
465.87	395.55
466.05	383.85
466.23	393.21
466.41	456.40
466.60	397.89
466.78	346.40
466.96	440.02
467.14	339.38
467.32	409.59
467.51	409.59
467.69	416.62
467.87	550.03
468.05	421.30
468.23	449.38
468.41	461.09
468.60	442.36
468.78	440.02
468.96	444.70
469.14	491.51
469.32	444.70
469.50	395.55
469.69	423.64
469.87	404.91
470.05	435.34
470.23	477.47
470.41	449.38
470.59	447.04
470.77	437.68
470.95	442.36
471.14	503.22
471.32	411.93
471.50	472.79
471.68	339.38
471.86	468.11
472.04	353.42
472.22	388.53
472.40	400.23
472.58	451.72
472.77	379.17
472.95	388.53
473.13	423.64
473.31	379.17
473.49	374.49
473.67	507.90
473.85	416.62
474.03	435.34
474.21	447.04
474.39	437.68
474.57	444.70
474.75	421.30
474.93	386.19
475.12	381.51
475.30	360.44
475.48	411.93
475.66	458.74
475.84	430.66
476.02	395.55
476.20	507.90
476.38	379.17
476.56	496.19
476.74	418.96
476.92	430.66
477.10	423.64
477.28	444.70
477.46	308.95
477.64	374.49
477.82	374.49
478.00	379.17
478.18	449.38
478.36	444.70
478.54	411.93
478.72	402.57
478.90	423.64
479.08	433.00
479.26	425.98
479.44	418.96
479.62	411.93
479.80	369.80
479.98	409.59
480.16	374.49
480.34	447.04
480.52	393.21
480.70	390.87
480.88	393.21
481.06	423.64
481.24	409.59
481.41	379.17
481.59	421.30
481.77	433.00
481.95	425.98
482.13	395.55
482.31	402.57
482.49	402.57
482.67	379.17
482.85	449.38
483.03	437.68
483.21	393.21
483.39	451.72
483.57	458.74
483.74	395.55
483.92	411.93
484.10	362.78
484.28	437.68
484.46	388.53
484.64	374.49
484.82	369.80
485.00	425.98
485.18	423.64
485.35	367.46
485.53	416.62
485.71	400.23
485.89	365.12
486.07	365.12
486.25	444.70
486.43	407.25
486.61	433.00
486.78	442.36
486.96	269.16
487.14	383.85
487.32	381.51
487.50	404.91
487.68	430.66
487.85	358.10
488.03	442.36
488.21	393.21
488.39	430.66
488.57	409.59
488.75	390.87
488.92	545.34
489.10	440.02
489.28	397.89
489.46	437.68
489.64	360.44
489.81	400.23
489.99	447.04
490.17	454.06
490.35	484.49
490.53	449.38
490.70	372.15
490.88	447.04
491.06	430.66
491.24	367.46
491.41	447.04
491.59	388.53
491.77	388.53
491.95	376.83
492.13	351.08
492.30	454.06
492.48	416.62
492.66	442.36
492.84	360.44
493.01	428.32
493.19	428.32
493.37	463.43
493.54	461.09
493.72	330.02
493.90	425.98
494.08	444.70
494.25	395.55
494.43	330.02
494.61	409.59
494.79	409.59
494.96	411.93
495.14	458.74
495.32	393.21
495.49	367.46
495.67	367.46
495.85	369.80
496.02	386.19
496.20	519.60
496.38	393.21
496.55	351.08
496.73	423.64
496.91	463.43
497.09	477.47
497.26	430.66
497.44	381.51
497.62	397.89
497.79	416.62
497.97	355.76
498.14	416.62
498.32	409.59
498.50	475.13
498.67	447.04
498.85	411.93
499.03	425.98
499.20	414.27
499.38	395.55
499.56	407.25
499.73	421.30
499.91	442.36
500.08	435.34
500.26	447.04
500.44	402.57
500.61	393.21
500.79	400.23
500.97	477.47
501.14	409.59
501.32	409.59
501.49	461.09
501.67	423.64
501.84	486.83
502.02	337.04
502.20	493.85
502.37	449.38
502.55	407.25
502.72	395.55
502.90	423.64
503.07	458.74
503.25	461.09
503.43	435.34
503.60	362.78
503.78	414.27
503.95	449.38
504.13	416.62
504.30	416.62
504.48	435.34
504.65	449.38
504.83	442.36
505.01	416.62
505.18	470.45
505.36	414.27
505.53	407.25
505.71	386.19
505.88	388.53
506.06	388.53
506.23	421.30
506.41	428.32
506.58	395.55
506.76	430.66
506.93	428.32
507.11	430.66
507.28	400.23
507.46	442.36
507.63	383.85
507.81	407.25
507.98	367.46
508.16	372.15
508.33	374.49
508.50	411.93
508.68	362.78
508.85	381.51
509.03	374.49
509.20	346.40
509.38	440.02
509.55	447.04
509.73	397.89
509.90	479.81
510.08	390.87
510.25	416.62
510.42	421.30
510.60	468.11
510.77	409.59
510.95	322.99
511.12	344.06
511.30	447.04
511.47	454.06
511.64	444.70
511.82	463.43
511.99	402.57
512.17	416.62
512.34	393.21
512.51	423.64
512.69	374.49
512.86	388.53
513.04	376.83
513.21	381.51
513.38	463.43
513.56	435.34
513.73	447.04
513.90	418.96
514.08	393.21
514.25	421.30
514.43	414.27
514.60	472.79
514.77	451.72
514.95	409.59
515.12	388.53
515.29	421.30
515.47	395.55
515.64	376.83
515.81	379.17
515.99	433.00
516.16	402.57
516.33	437.68
516.51	435.34
516.68	425.98
516.85	442.36
517.03	423.64
517.20	400.23
517.37	461.09
517.54	360.44
517.72	390.87
517.89	353.42
518.06	404.91
518.24	425.98
518.41	372.15
518.58	400.23
518.75	421.30
518.93	486.83
519.10	482.15
519.27	444.70
519.45	397.89
519.62	386.19
519.79	458.74
519.96	437.68
520.14	414.27
520.31	465.77
520.48	442.36
520.65	456.40
520.83	456.40
521.00	386.19
521.17	341.72
521.34	397.89
521.52	416.62
521.69	379.17
521.86	414.27
522.03	447.04
522.20	390.87
522.38	414.27
522.55	407.25
522.72	397.89
522.89	482.15
523.07	500.87
523.24	430.66
523.41	381.51
523.58	397.89
523.75	517.26
523.92	423.64
524.10	346.40
524.27	423.64
524.44	416.62
524.61	414.27
524.78	458.74
524.96	393.21
525.13	437.68
525.30	461.09
525.47	400.23
525.64	416.62
525.81	451.72
525.98	379.17
526.16	418.96
526.33	437.68
526.50	456.40
526.67	367.46
526.84	447.04
527.01	332.36
527.18	393.21
527.36	470.45
527.53	416.62
527.70	395.55
527.87	447.04
528.04	416.62
528.21	337.04
528.38	484.49
528.55	477.47
528.72	454.06
528.89	437.68
529.07	428.32
529.24	383.85
529.41	475.13
529.58	458.74
529.75	393.21
529.92	468.11
530.09	477.47
530.26	367.46
530.43	395.55
530.60	346.40
530.77	388.53
530.94	444.70
531.11	353.42
531.28	423.64
531.46	369.80
531.63	411.93
531.80	444.70
531.97	367.46
532.14	437.68
532.31	418.96
532.48	425.98
532.65	435.34
532.82	367.46
532.99	447.04
533.16	456.40
533.33	465.77
533.50	454.06
533.67	360.44
533.84	468.11
534.01	433.00
534.18	411.93
534.35	435.34
534.52	397.89
534.69	409.59
534.86	409.59
535.03	362.78
535.20	379.17
535.37	404.91
535.54	418.96
535.71	423.64
535.88	400.23
536.05	388.53
536.22	458.74
536.38	395.55
536.55	437.68
536.72	423.64
536.89	444.70
537.06	442.36
537.23	411.93
537.40	402.57
537.57	330.02
537.74	463.43
537.91	428.32
538.08	433.00
538.25	451.72
538.42	404.91
538.59	339.38
538.75	444.70
538.92	397.89
539.09	465.77
539.26	381.51
539.43	388.53
539.60	393.21
539.77	381.51
539.94	379.17
540.11	486.83
540.28	463.43
540.44	430.66
540.61	395.55
540.78	383.85
540.95	395.55
541.12	449.38
541.29	388.53
541.46	442.36
541.62	386.19
541.79	437.68
541.96	386.19
542.13	428.32
542.30	388.53
542.47	407.25
542.63	400.23
542.80	454.06
542.97	456.40
543.14	395.55
543.31	423.64
543.48	369.80
543.64	451.72
543.81	475.13
543.98	358.10
544.15	397.89
544.32	428.32
544.48	486.83
544.65	475.13
544.82	430.66
544.99	425.98
545.16	404.91
545.32	423.64
545.49	470.45
545.66	381.51
545.83	409.59
546.00	308.95
546.16	383.85
546.33	435.34
546.50	388.53
546.67	362.78
546.83	397.89
547.00	484.49
547.17	379.17
547.34	395.55
547.50	395.55
547.67	451.72
547.84	423.64
548.00	395.55
548.17	414.27
548.34	402.57
548.51	433.00
548.67	447.04
548.84	440.02
549.01	440.02
549.18	409.59
549.34	411.93
549.51	355.76
549.68	383.85
549.84	414.27
550.01	386.19
550.18	386.19
550.34	442.36
550.51	430.66
550.68	430.66
550.84	447.04
551.01	449.38
551.18	418.96
551.34	465.77
551.51	472.79
551.68	461.09
551.84	421.30
552.01	388.53
552.18	395.55
552.34	402.57
552.51	433.00
552.68	461.09
552.84	489.17
553.01	339.38
553.18	437.68
553.34	430.66
553.51	447.04
553.67	407.25
553.84	444.70
554.01	463.43
554.17	463.43
554.34	416.62
554.51	461.09
554.67	451.72
554.84	435.34
555.00	425.98
555.17	390.87
555.33	458.74
555.50	449.38
555.67	428.32
555.83	369.80
556.00	400.23
556.16	535.98
556.33	442.36
556.50	418.96
556.66	386.19
556.83	386.19
556.99	425.98
557.16	402.57
557.32	348.74
557.49	374.49
557.65	393.21
557.82	409.59
557.98	433.00
558.15	409.59
558.32	388.53
558.48	402.57
558.65	423.64
558.81	428.32
558.98	367.46
559.14	428.32
559.31	365.12
559.47	489.17
559.64	355.76
559.80	430.66
559.97	355.76
560.13	433.00
560.30	454.06
560.46	400.23
560.63	458.74
560.79	418.96
560.96	421.30
561.12	440.02
561.29	409.59
561.45	381.51
561.61	458.74
561.78	561.73
561.94	409.59
562.11	351.08
562.27	465.77
562.44	416.62
562.60	414.27
562.77	390.87
562.93	475.13
563.10	482.15
563.26	479.81
563.42	472.79
563.59	428.32
563.75	386.19
563.92	477.47
564.08	540.66
564.24	465.77
564.41	498.53
564.57	418.96
564.74	465.77
564.90	447.04
565.07	376.83
565.23	416.62
565.39	451.72
565.56	351.08
565.72	400.23
565.88	414.27
566.05	475.13
566.21	423.64
566.38	433.00
566.54	465.77
566.70	381.51
566.87	421.30
567.03	376.83
567.19	411.93
567.36	313.63
567.52	397.89
567.68	500.87
567.85	458.74
568.01	430.66
568.17	367.46
568.34	428.32
568.50	411.93
568.66	435.34
568.83	411.93
568.99	379.17
569.15	353.42
569.32	327.68
569.48	442.36
569.64	358.10
569.81	390.87
569.97	369.80
570.13	332.36
570.30	409.59
570.46	486.83
570.62	435.34
570.78	449.38
570.95	404.91
571.11	456.40
571.27	423.64
571.43	456.40
571.60	442.36
571.76	381.51
571.92	430.66
572.09	362.78
572.25	379.17
572.41	402.57
572.57	402.57
572.74	437.68
572.90	423.64
573.06	442.36
573.22	430.66
573.38	456.40
573.55	454.06
573.71	454.06
573.87	447.04
574.03	433.00
574.20	404.91
574.36	442.36
574.52	383.85
574.68	383.85
574.84	456.40
575.01	472.79
575.17	428.32
575.33	379.17
575.49	435.34
575.65	409.59
575.82	440.02
575.98	395.55
576.14	461.09
576.30	435.34
576.46	395.55
576.62	428.32
576.79	395.55
576.95	435.34
577.11	416.62
577.27	348.74
577.43	440.02
577.59	416.62
577.75	425.98
577.92	386.19
578.08	444.70
578.24	435.34
578.40	418.96
578.56	393.21
578.72	475.13
578.88	468.11
579.04	444.70
579.21	397.89
579.37	428.32
579.53	402.57
579.69	430.66
579.85	414.27
580.01	421.30
580.17	407.25
580.33	433.00
580.49	381.51
580.65	437.68
580.82	425.98
580.98	402.57
581.14	433.00
581.30	402.57
581.46	348.74
581.62	510.24
581.78	458.74
581.94	437.68
582.10	407.25
582.26	458.74
582.42	437.68
582.58	386.19
582.74	397.89
582.90	400.23
583.06	414.27
583.22	421.30
583.38	428.32
583.54	339.38
583.70	477.47
583.86	388.53
584.02	463.43
584.18	435.34
584.34	355.76
584.50	421.30
584.66	463.43
584.82	397.89
584.98	416.62
585.14	423.64
585.30	339.38
585.46	463.43
585.62	400.23
585.78	421.30
585.94	458.74
586.10	425.98
586.26	493.85
586.42	433.00
586.58	423.64
586.74	386.19
586.90	397.89
587.06	411.93
587.22	400.23
587.38	379.17
587.54	390.87
587.70	458.74
587.86	358.10
588.02	393.21
588.18	496.19
588.34	458.74
588.49	440.02
588.65	337.04
588.81	423.64
588.97	444.70
589.13	421.30
589.29	334.70
589.45	468.11
589.61	416.62
589.77	414.27
589.93	339.38
590.08	416.62
590.24	379.17
590.40	402.57
590.56	351.08
590.72	465.77
590.88	376.83
591.04	477.47
591.20	440.02
591.35	468.11
591.51	435.34
591.67	449.38
591.83	449.38
591.99	425.98
592.15	435.34
592.31	440.02
592.46	428.32
592.62	404.91
592.78	400.23
592.94	386.19
593.10	400.23
593.26	433.00
593.41	414.27
593.57	470.45
593.73	449.38
593.89	404.91
594.05	456.40
594.20	327.68
594.36	433.00
594.52	449.38
594.68	507.90
594.84	465.77
594.99	425.98
595.15	353.42
595.31	435.34
595.47	454.06
595.62	470.45
595.78	365.12
595.94	461.09
596.10	498.53
596.25	418.96
596.41	355.76
596.57	416.62
596.73	367.46
596.88	395.55
597.04	362.78
597.20	409.59
597.36	468.11
597.51	489.17
597.67	449.38
597.83	411.93
597.99	451.72
598.14	442.36
598.30	496.19
598.46	374.49
598.61	435.34
598.77	435.34
598.93	425.98
599.09	423.64
599.24	421.30
599.40	388.53
599.56	404.91
599.71	437.68
599.87	388.53
600.03	416.62
600.18	416.62
600.34	454.06
600.50	411.93
600.65	416.62
600.81	421.30
600.97	468.11
601.12	421.30
601.28	437.68
601.44	482.15
601.59	416.62
601.75	388.53
601.91	442.36
602.06	454.06
602.22	425.98
602.37	390.87
602.53	472.79
602.69	479.81
602.84	395.55
603.00	351.08
603.16	397.89
603.31	447.04
603.47	400.23
603.62	327.68
603.78	397.89
603.94	465.77
604.09	381.51
604.25	409.59
604.40	510.24
604.56	397.89
604.71	365.12
604.87	374.49
605.03	449.38
605.18	423.64
605.34	449.38
605.49	397.89
605.65	416.62
605.80	383.85
605.96	397.89
606.12	397.89
606.27	379.17
606.43	330.02
606.58	444.70
606.74	351.08
606.89	416.62
607.05	519.60
607.20	444.70
607.36	451.72
607.51	395.55
607.67	435.34
607.82	486.83
607.98	400.23
608.13	449.38
608.29	468.11
608.44	470.45
608.60	430.66
608.75	433.00
608.91	397.89
609.06	395.55
609.22	418.96
609.37	407.25
609.53	383.85
609.68	369.80
609.84	416.62
609.99	414.27
610.15	376.83
