SpectraSuite Data File
++++++++++++++++++++++++++++++++++++
Date: Fri Oct 25 12:10:51 EDT 2013
User: price-jones
Dark Spectrum Present: No
Reference Spectrum Present: No
Number of Sampled Component Spectra: 1
Spectrometers: USB2+H05261
Integration Time (usec): 100000 (USB2+H05261)
Spectra Averaged: 1 (USB2+H05261)
Boxcar Smoothing: 0 (USB2+H05261)
Correct for Electrical Dark: No (USB2+H05261)
Strobe/Lamp Enabled: No (USB2+H05261)
Correct for Detector Non-linearity: No (USB2+H05261)
Correct for Stray Light: No (USB2+H05261)
Number of Pixels in Processed Spectrum: 2048
>>>>>Begin Processed Spectral Data<<<<<
365.73	334.70
365.92	334.70
366.12	334.70
366.32	308.95
366.52	243.42
366.72	250.44
366.91	271.50
367.11	243.42
367.31	259.80
367.51	205.97
367.70	285.55
367.90	227.03
368.10	166.18
368.30	208.31
368.49	236.39
368.69	280.86
368.89	217.67
369.09	205.97
369.28	222.35
369.48	250.44
369.68	299.59
369.87	273.84
370.07	290.23
370.27	348.74
370.47	278.52
370.66	320.65
370.86	376.83
371.06	355.76
371.25	472.79
371.45	376.83
371.65	407.25
371.84	447.04
372.04	379.17
372.24	397.89
372.44	407.25
372.63	423.64
372.83	414.27
373.03	404.91
373.22	433.00
373.42	379.17
373.62	442.36
373.81	411.93
374.01	425.98
374.21	451.72
374.40	444.70
374.60	404.91
374.79	437.68
374.99	351.08
375.19	395.55
375.38	433.00
375.58	416.62
375.78	411.93
375.97	479.81
376.17	428.32
376.37	451.72
376.56	341.72
376.76	393.21
376.95	414.27
377.15	411.93
377.35	397.89
377.54	376.83
377.74	444.70
377.93	390.87
378.13	461.09
378.33	404.91
378.52	416.62
378.72	425.98
378.91	435.34
379.11	393.21
379.31	407.25
379.50	451.72
379.70	428.32
379.89	444.70
380.09	376.83
380.28	372.15
380.48	372.15
380.68	376.83
380.87	393.21
381.07	404.91
381.26	418.96
381.46	332.36
381.65	346.40
381.85	475.13
382.04	386.19
382.24	428.32
382.43	301.93
382.63	365.12
382.83	425.98
383.02	402.57
383.22	393.21
383.41	449.38
383.61	381.51
383.80	433.00
384.00	411.93
384.19	379.17
384.39	348.74
384.58	376.83
384.78	353.42
384.97	400.23
385.17	386.19
385.36	407.25
385.56	358.10
385.75	407.25
385.95	479.81
386.14	367.46
386.34	337.04
386.53	374.49
386.72	435.34
386.92	407.25
387.11	423.64
387.31	447.04
387.50	400.23
387.70	339.38
387.89	463.43
388.09	381.51
388.28	421.30
388.48	383.85
388.67	379.17
388.86	475.13
389.06	416.62
389.25	383.85
389.45	458.74
389.64	386.19
389.84	519.60
390.03	421.30
390.22	447.04
390.42	437.68
390.61	346.40
390.81	353.42
391.00	339.38
391.19	365.12
391.39	367.46
391.58	383.85
391.78	355.76
391.97	400.23
392.16	381.51
392.36	458.74
392.55	402.57
392.75	369.80
392.94	400.23
393.13	456.40
393.33	423.64
393.52	402.57
393.71	351.08
393.91	327.68
394.10	351.08
394.29	404.91
394.49	433.00
394.68	468.11
394.88	449.38
395.07	472.79
395.26	409.59
395.46	411.93
395.65	421.30
395.84	404.91
396.04	414.27
396.23	400.23
396.42	395.55
396.62	393.21
396.81	411.93
397.00	416.62
397.19	414.27
397.39	444.70
397.58	372.15
397.77	418.96
397.97	421.30
398.16	360.44
398.35	421.30
398.55	360.44
398.74	479.81
398.93	442.36
399.12	362.78
399.32	486.83
399.51	423.64
399.70	388.53
399.90	393.21
400.09	425.98
400.28	358.10
400.47	458.74
400.67	433.00
400.86	337.04
401.05	461.09
401.24	362.78
401.44	416.62
401.63	311.29
401.82	395.55
402.01	360.44
402.21	388.53
402.40	395.55
402.59	449.38
402.78	381.51
402.97	344.06
403.17	383.85
403.36	475.13
403.55	425.98
403.74	383.85
403.93	367.46
404.13	442.36
404.32	372.15
404.51	362.78
404.70	355.76
404.89	430.66
405.09	472.79
405.28	400.23
405.47	367.46
405.66	428.32
405.85	386.19
406.05	484.49
406.24	409.59
406.43	425.98
406.62	411.93
406.81	451.72
407.00	440.02
407.20	404.91
407.39	411.93
407.58	418.96
407.77	428.32
407.96	404.91
408.15	454.06
408.34	440.02
408.54	444.70
408.73	407.25
408.92	470.45
409.11	451.72
409.30	449.38
409.49	409.59
409.68	433.00
409.87	365.12
410.07	435.34
410.26	409.59
410.45	454.06
410.64	414.27
410.83	447.04
411.02	411.93
411.21	444.70
411.40	458.74
411.59	376.83
411.78	383.85
411.98	416.62
412.17	407.25
412.36	322.99
412.55	404.91
412.74	430.66
412.93	477.47
413.12	330.02
413.31	435.34
413.50	402.57
413.69	386.19
413.88	411.93
414.07	461.09
414.26	440.02
414.45	397.89
414.64	390.87
414.83	444.70
415.02	397.89
415.22	418.96
415.41	430.66
415.60	468.11
415.79	379.17
415.98	433.00
416.17	402.57
416.36	400.23
416.55	430.66
416.74	444.70
416.93	397.89
417.12	379.17
417.31	404.91
417.50	337.04
417.69	358.10
417.88	360.44
418.07	372.15
418.26	379.17
418.45	454.06
418.64	390.87
418.83	367.46
419.02	393.21
419.21	423.64
419.39	372.15
419.58	444.70
419.77	449.38
419.96	416.62
420.15	362.78
420.34	386.19
420.53	379.17
420.72	414.27
420.91	451.72
421.10	407.25
421.29	402.57
421.48	428.32
421.67	409.59
421.86	367.46
422.05	484.49
422.24	414.27
422.43	369.80
422.61	374.49
422.80	334.70
422.99	437.68
423.18	376.83
423.37	433.00
423.56	433.00
423.75	374.49
423.94	409.59
424.13	400.23
424.32	421.30
424.50	461.09
424.69	369.80
424.88	414.27
425.07	470.45
425.26	430.66
425.45	390.87
425.64	414.27
425.83	411.93
426.01	393.21
426.20	440.02
426.39	411.93
426.58	407.25
426.77	372.15
426.96	395.55
427.15	416.62
427.33	376.83
427.52	407.25
427.71	332.36
427.90	444.70
428.09	360.44
428.28	397.89
428.46	400.23
428.65	402.57
428.84	416.62
429.03	486.83
429.22	430.66
429.40	395.55
429.59	290.23
429.78	423.64
429.97	433.00
430.16	393.21
430.34	374.49
430.53	397.89
430.72	397.89
430.91	421.30
431.10	411.93
431.28	409.59
431.47	388.53
431.66	447.04
431.85	451.72
432.03	484.49
432.22	463.43
432.41	421.30
432.60	442.36
432.79	451.72
432.97	388.53
433.16	397.89
433.35	369.80
433.54	386.19
433.72	367.46
433.91	440.02
434.10	402.57
434.28	397.89
434.47	414.27
434.66	400.23
434.85	402.57
435.03	468.11
435.22	440.02
435.41	421.30
435.59	393.21
435.78	496.19
435.97	416.62
436.16	425.98
436.34	440.02
436.53	409.59
436.72	454.06
436.90	440.02
437.09	404.91
437.28	411.93
437.46	428.32
437.65	376.83
437.84	421.30
438.02	430.66
438.21	472.79
438.40	430.66
438.58	430.66
438.77	397.89
438.96	430.66
439.14	423.64
439.33	402.57
439.52	332.36
439.70	404.91
439.89	421.30
440.08	400.23
440.26	407.25
440.45	451.72
440.63	463.43
440.82	416.62
441.01	397.89
441.19	440.02
441.38	447.04
441.57	348.74
441.75	400.23
441.94	477.47
442.12	423.64
442.31	454.06
442.50	437.68
442.68	430.66
442.87	416.62
443.05	454.06
443.24	397.89
443.43	386.19
443.61	449.38
443.80	430.66
443.98	440.02
444.17	423.64
444.35	358.10
444.54	428.32
444.73	379.17
444.91	409.59
445.10	454.06
445.28	428.32
445.47	423.64
445.65	423.64
445.84	416.62
446.02	402.57
446.21	475.13
446.39	440.02
446.58	411.93
446.77	414.27
446.95	388.53
447.14	507.90
447.32	425.98
447.51	465.77
447.69	442.36
447.88	458.74
448.06	411.93
448.25	447.04
448.43	454.06
448.62	386.19
448.80	409.59
448.99	430.66
449.17	379.17
449.36	440.02
449.54	482.15
449.73	374.49
449.91	472.79
450.10	421.30
450.28	468.11
450.46	393.21
450.65	491.51
450.83	440.02
451.02	428.32
451.20	484.49
451.39	430.66
451.57	318.31
451.76	395.55
451.94	400.23
452.13	458.74
452.31	458.74
452.49	475.13
452.68	353.42
452.86	433.00
453.05	416.62
453.23	393.21
453.42	421.30
453.60	397.89
453.78	360.44
453.97	423.64
454.15	461.09
454.34	428.32
454.52	423.64
454.70	409.59
454.89	407.25
455.07	416.62
455.26	465.77
455.44	440.02
455.62	397.89
455.81	500.87
455.99	430.66
456.17	407.25
456.36	409.59
456.54	428.32
456.73	400.23
456.91	418.96
457.09	355.76
457.28	475.13
457.46	458.74
457.64	444.70
457.83	454.06
458.01	418.96
458.19	397.89
458.38	440.02
458.56	411.93
458.74	409.59
458.93	402.57
459.11	435.34
459.29	404.91
459.48	491.51
459.66	498.53
459.84	404.91
460.03	444.70
460.21	386.19
460.39	397.89
460.57	458.74
460.76	416.62
460.94	449.38
461.12	430.66
461.31	428.32
461.49	308.95
461.67	390.87
461.85	449.38
462.04	465.77
462.22	870.68
462.40	407.25
462.59	409.59
462.77	367.46
462.95	411.93
463.13	388.53
463.32	479.81
463.50	374.49
463.68	393.21
463.86	442.36
464.05	358.10
464.23	397.89
464.41	372.15
464.59	390.87
464.78	418.96
464.96	407.25
465.14	421.30
465.32	458.74
465.50	465.77
465.69	409.59
465.87	393.21
466.05	379.17
466.23	367.46
466.41	447.04
466.60	388.53
466.78	409.59
466.96	433.00
467.14	433.00
467.32	437.68
467.51	372.15
467.69	491.51
467.87	449.38
468.05	355.76
468.23	550.03
468.41	465.77
468.60	463.43
468.78	482.15
468.96	521.94
469.14	444.70
469.32	423.64
469.50	421.30
469.69	402.57
469.87	489.17
470.05	365.12
470.23	409.59
470.41	404.91
470.59	442.36
470.77	435.34
470.95	477.47
471.14	404.91
471.32	433.00
471.50	423.64
471.68	423.64
471.86	390.87
472.04	393.21
472.22	348.74
472.40	397.89
472.58	367.46
472.77	409.59
472.95	383.85
473.13	461.09
473.31	372.15
473.49	365.12
473.67	435.34
473.85	411.93
474.03	547.69
474.21	414.27
474.39	468.11
474.57	458.74
474.75	376.83
474.93	393.21
475.12	393.21
475.30	393.21
475.48	400.23
475.66	428.32
475.84	433.00
476.02	416.62
476.20	454.06
476.38	477.47
476.56	458.74
476.74	381.51
476.92	451.72
477.10	416.62
477.28	423.64
477.46	381.51
477.64	458.74
477.82	374.49
478.00	386.19
478.18	454.06
478.36	428.32
478.54	435.34
478.72	388.53
478.90	416.62
479.08	402.57
479.26	379.17
479.44	451.72
479.62	400.23
479.80	388.53
479.98	428.32
480.16	402.57
480.34	435.34
480.52	411.93
480.70	383.85
480.88	332.36
481.06	376.83
481.24	433.00
481.41	315.97
481.59	409.59
481.77	404.91
481.95	440.02
482.13	447.04
482.31	411.93
482.49	409.59
482.67	456.40
482.85	397.89
483.03	360.44
483.21	411.93
483.39	388.53
483.57	425.98
483.74	540.66
483.92	402.57
484.10	414.27
484.28	454.06
484.46	421.30
484.64	404.91
484.82	386.19
485.00	374.49
485.18	423.64
485.35	393.21
485.53	358.10
485.71	484.49
485.89	388.53
486.07	397.89
486.25	437.68
486.43	423.64
486.61	421.30
486.78	461.09
486.96	388.53
487.14	418.96
487.32	470.45
487.50	461.09
487.68	374.49
487.85	451.72
488.03	369.80
488.21	451.72
488.39	416.62
488.57	393.21
488.75	444.70
488.92	512.58
489.10	465.77
489.28	428.32
489.46	374.49
489.64	388.53
489.81	423.64
489.99	423.64
490.17	451.72
490.35	440.02
490.53	409.59
490.70	440.02
490.88	458.74
491.06	472.79
491.24	397.89
491.41	433.00
491.59	454.06
491.77	425.98
491.95	440.02
492.13	411.93
492.30	454.06
492.48	327.68
492.66	414.27
492.84	435.34
493.01	397.89
493.19	444.70
493.37	379.17
493.54	397.89
493.72	421.30
493.90	381.51
494.08	442.36
494.25	414.27
494.43	421.30
494.61	393.21
494.79	362.78
494.96	416.62
495.14	444.70
495.32	433.00
495.49	414.27
495.67	423.64
495.85	414.27
496.02	430.66
496.20	386.19
496.38	451.72
496.55	425.98
496.73	437.68
496.91	388.53
497.09	423.64
497.26	454.06
497.44	386.19
497.62	421.30
497.79	440.02
497.97	428.32
498.14	395.55
498.32	379.17
498.50	465.77
498.67	383.85
498.85	425.98
499.03	449.38
499.20	430.66
499.38	397.89
499.56	449.38
499.73	454.06
499.91	430.66
500.08	535.98
500.26	468.11
500.44	383.85
500.61	397.89
500.79	416.62
500.97	418.96
501.14	425.98
501.32	425.98
501.49	444.70
501.67	463.43
501.84	388.53
502.02	404.91
502.20	351.08
502.37	404.91
502.55	388.53
502.72	435.34
502.90	381.51
503.07	411.93
503.25	428.32
503.43	484.49
503.60	397.89
503.78	496.19
503.95	346.40
504.13	449.38
504.30	493.85
504.48	367.46
504.65	514.92
504.83	449.38
505.01	449.38
505.18	470.45
505.36	421.30
505.53	493.85
505.71	444.70
505.88	409.59
506.06	390.87
506.23	402.57
506.41	449.38
506.58	463.43
506.76	388.53
506.93	365.12
507.11	463.43
507.28	430.66
507.46	421.30
507.63	404.91
507.81	430.66
507.98	376.83
508.16	423.64
508.33	414.27
508.50	414.27
508.68	435.34
508.85	484.49
509.03	463.43
509.20	418.96
509.38	440.02
509.55	418.96
509.73	435.34
509.90	411.93
510.08	470.45
510.25	440.02
510.42	353.42
510.60	374.49
510.77	421.30
510.95	458.74
511.12	418.96
511.30	386.19
511.47	372.15
511.64	411.93
511.82	449.38
511.99	374.49
512.17	437.68
512.34	454.06
512.51	447.04
512.69	435.34
512.86	468.11
513.04	428.32
513.21	491.51
513.38	397.89
513.56	409.59
513.73	400.23
513.90	400.23
514.08	393.21
514.25	461.09
514.43	379.17
514.60	365.12
514.77	421.30
514.95	442.36
515.12	400.23
515.29	414.27
515.47	425.98
515.64	416.62
515.81	400.23
515.99	435.34
516.16	435.34
516.33	477.47
516.51	393.21
516.68	425.98
516.85	425.98
517.03	433.00
517.20	418.96
517.37	402.57
517.54	437.68
517.72	444.70
517.89	433.00
518.06	360.44
518.24	482.15
518.41	463.43
518.58	447.04
518.75	376.83
518.93	470.45
519.10	407.25
519.27	411.93
519.45	393.21
519.62	423.64
519.79	444.70
519.96	367.46
520.14	425.98
520.31	409.59
520.48	400.23
520.65	409.59
520.83	444.70
521.00	402.57
521.17	477.47
521.34	395.55
521.52	362.78
521.69	428.32
521.86	374.49
522.03	440.02
522.20	533.64
522.38	369.80
522.55	369.80
522.72	360.44
522.89	465.77
523.07	456.40
523.24	430.66
523.41	395.55
523.58	421.30
523.75	428.32
523.92	416.62
524.10	437.68
524.27	332.36
524.44	421.30
524.61	416.62
524.78	393.21
524.96	430.66
525.13	397.89
525.30	397.89
525.47	456.40
525.64	393.21
525.81	313.63
525.98	393.21
526.16	414.27
526.33	461.09
526.50	374.49
526.67	447.04
526.84	353.42
527.01	374.49
527.18	470.45
527.36	421.30
527.53	402.57
527.70	418.96
527.87	402.57
528.04	447.04
528.21	416.62
528.38	449.38
528.55	414.27
528.72	358.10
528.89	421.30
529.07	447.04
529.24	418.96
529.41	360.44
529.58	351.08
529.75	360.44
529.92	472.79
530.09	468.11
530.26	437.68
530.43	423.64
530.60	442.36
530.77	416.62
530.94	503.22
531.11	477.47
531.28	482.15
531.46	374.49
531.63	423.64
531.80	400.23
531.97	461.09
532.14	428.32
532.31	400.23
532.48	397.89
532.65	458.74
532.82	365.12
532.99	414.27
533.16	458.74
533.33	400.23
533.50	447.04
533.67	395.55
533.84	402.57
534.01	414.27
534.18	409.59
534.35	458.74
534.52	437.68
534.69	381.51
534.86	369.80
535.03	390.87
535.20	374.49
535.37	390.87
535.54	411.93
535.71	454.06
535.88	437.68
536.05	421.30
536.22	402.57
536.38	374.49
536.55	447.04
536.72	433.00
536.89	414.27
537.06	346.40
537.23	395.55
537.40	411.93
537.57	461.09
537.74	489.17
537.91	360.44
538.08	423.64
538.25	407.25
538.42	397.89
538.59	376.83
538.75	313.63
538.92	442.36
539.09	442.36
539.26	442.36
539.43	463.43
539.60	486.83
539.77	402.57
539.94	449.38
540.11	360.44
540.28	442.36
540.44	386.19
540.61	390.87
540.78	435.34
540.95	383.85
541.12	397.89
541.29	421.30
541.46	411.93
541.62	433.00
541.79	386.19
541.96	414.27
542.13	402.57
542.30	454.06
542.47	353.42
542.63	479.81
542.80	402.57
542.97	454.06
543.14	414.27
543.31	437.68
543.48	379.17
543.64	421.30
543.81	491.51
543.98	409.59
544.15	437.68
544.32	362.78
544.48	472.79
544.65	475.13
544.82	388.53
544.99	358.10
545.16	451.72
545.32	411.93
545.49	409.59
545.66	393.21
545.83	418.96
546.00	414.27
546.16	447.04
546.33	440.02
546.50	390.87
546.67	486.83
546.83	440.02
547.00	442.36
547.17	421.30
547.34	411.93
547.50	351.08
547.67	393.21
547.84	404.91
548.00	407.25
548.17	397.89
548.34	409.59
548.51	421.30
548.67	449.38
548.84	365.12
549.01	498.53
549.18	374.49
549.34	519.60
549.51	440.02
549.68	404.91
549.84	470.45
550.01	365.12
550.18	440.02
550.34	465.77
550.51	421.30
550.68	482.15
550.84	428.32
551.01	386.19
551.18	409.59
551.34	409.59
551.51	337.04
551.68	381.51
551.84	421.30
552.01	400.23
552.18	421.30
552.34	500.87
552.51	411.93
552.68	456.40
552.84	411.93
553.01	362.78
553.18	430.66
553.34	423.64
553.51	425.98
553.67	425.98
553.84	421.30
554.01	404.91
554.17	465.77
554.34	418.96
554.51	444.70
554.67	383.85
554.84	376.83
555.00	414.27
555.17	451.72
555.33	414.27
555.50	404.91
555.67	369.80
555.83	423.64
556.00	388.53
556.16	587.47
556.33	461.09
556.50	433.00
556.66	400.23
556.83	400.23
556.99	379.17
557.16	421.30
557.32	402.57
557.49	388.53
557.65	395.55
557.82	348.74
557.98	454.06
558.15	444.70
558.32	491.51
558.48	437.68
558.65	465.77
558.81	463.43
558.98	414.27
559.14	418.96
559.31	376.83
559.47	447.04
559.64	433.00
559.80	447.04
559.97	376.83
560.13	440.02
560.30	435.34
560.46	383.85
560.63	428.32
560.79	411.93
560.96	458.74
561.12	397.89
561.29	421.30
561.45	301.93
561.61	472.79
561.78	482.15
561.94	433.00
562.11	397.89
562.27	430.66
562.44	390.87
562.60	414.27
562.77	435.34
562.93	482.15
563.10	430.66
563.26	411.93
563.42	475.13
563.59	444.70
563.75	444.70
563.92	477.47
564.08	379.17
564.24	423.64
564.41	414.27
564.57	390.87
564.74	369.80
564.90	435.34
565.07	397.89
565.23	365.12
565.39	402.57
565.56	470.45
565.72	416.62
565.88	416.62
566.05	374.49
566.21	442.36
566.38	423.64
566.54	418.96
566.70	418.96
566.87	390.87
567.03	337.04
567.19	393.21
567.36	402.57
567.52	414.27
567.68	428.32
567.85	531.30
568.01	409.59
568.17	486.83
568.34	416.62
568.50	416.62
568.66	437.68
568.83	458.74
568.99	390.87
569.15	451.72
569.32	416.62
569.48	404.91
569.64	404.91
569.81	425.98
569.97	393.21
570.13	503.22
570.30	423.64
570.46	505.56
570.62	365.12
570.78	404.91
570.95	430.66
571.11	402.57
571.27	409.59
571.43	362.78
571.60	440.02
571.76	365.12
571.92	388.53
572.09	472.79
572.25	376.83
572.41	365.12
572.57	348.74
572.74	393.21
572.90	388.53
573.06	454.06
573.22	411.93
573.38	465.77
573.55	372.15
573.71	442.36
573.87	428.32
574.03	402.57
574.20	372.15
574.36	463.43
574.52	482.15
574.68	416.62
574.84	407.25
575.01	442.36
575.17	444.70
575.33	383.85
575.49	458.74
575.65	411.93
575.82	463.43
575.98	418.96
576.14	418.96
576.30	416.62
576.46	376.83
576.62	430.66
576.79	381.51
576.95	470.45
577.11	360.44
577.27	463.43
577.43	381.51
577.59	409.59
577.75	447.04
577.92	409.59
578.08	444.70
578.24	367.46
578.40	404.91
578.56	468.11
578.72	440.02
578.88	458.74
579.04	395.55
579.21	482.15
579.37	397.89
579.53	365.12
579.69	404.91
579.85	440.02
580.01	442.36
580.17	390.87
580.33	390.87
580.49	456.40
580.65	411.93
580.82	454.06
580.98	383.85
581.14	409.59
581.30	402.57
581.46	386.19
581.62	416.62
581.78	444.70
581.94	440.02
582.10	365.12
582.26	444.70
582.42	383.85
582.58	411.93
582.74	442.36
582.90	449.38
583.06	458.74
583.22	475.13
583.38	423.64
583.54	374.49
583.70	465.77
583.86	440.02
584.02	346.40
584.18	437.68
584.34	393.21
584.50	447.04
584.66	383.85
584.82	428.32
584.98	388.53
585.14	374.49
585.30	447.04
585.46	344.06
585.62	397.89
585.78	388.53
585.94	512.58
586.10	484.49
586.26	367.46
586.42	421.30
586.58	421.30
586.74	381.51
586.90	418.96
587.06	397.89
587.22	369.80
587.38	395.55
587.54	409.59
587.70	423.64
587.86	388.53
588.02	428.32
588.18	430.66
588.34	458.74
588.49	379.17
588.65	404.91
588.81	388.53
588.97	393.21
589.13	397.89
589.29	367.46
589.45	433.00
589.61	456.40
589.77	390.87
589.93	386.19
590.08	376.83
590.24	472.79
590.40	477.47
590.56	440.02
590.72	437.68
590.88	383.85
591.04	442.36
591.20	367.46
591.35	430.66
591.51	449.38
591.67	376.83
591.83	355.76
591.99	414.27
592.15	421.30
592.31	458.74
592.46	423.64
592.62	451.72
592.78	440.02
592.94	465.77
593.10	383.85
593.26	411.93
593.41	348.74
593.57	440.02
593.73	430.66
593.89	411.93
594.05	449.38
594.20	444.70
594.36	447.04
594.52	425.98
594.68	428.32
594.84	428.32
594.99	524.28
595.15	503.22
595.31	489.17
595.47	458.74
595.62	369.80
595.78	433.00
595.94	433.00
596.10	379.17
596.25	416.62
596.41	468.11
596.57	496.19
596.73	402.57
596.88	491.51
597.04	507.90
597.20	435.34
597.36	407.25
597.51	397.89
597.67	353.42
597.83	454.06
597.99	475.13
598.14	442.36
598.30	451.72
598.46	421.30
598.61	472.79
598.77	397.89
598.93	479.81
599.09	454.06
599.24	423.64
599.40	442.36
599.56	433.00
599.71	456.40
599.87	428.32
600.03	430.66
600.18	409.59
600.34	472.79
600.50	437.68
600.65	409.59
600.81	442.36
600.97	421.30
601.12	421.30
601.28	362.78
601.44	456.40
601.59	423.64
601.75	447.04
601.91	388.53
602.06	428.32
602.22	507.90
602.37	456.40
602.53	421.30
602.69	407.25
602.84	411.93
603.00	381.51
603.16	449.38
603.31	379.17
603.47	416.62
603.62	456.40
603.78	411.93
603.94	435.34
604.09	351.08
604.25	449.38
604.40	433.00
604.56	454.06
604.71	442.36
604.87	444.70
605.03	461.09
605.18	379.17
605.34	416.62
605.49	416.62
605.65	447.04
605.80	369.80
605.96	397.89
606.12	486.83
606.27	395.55
606.43	360.44
606.58	421.30
606.74	390.87
606.89	344.06
607.05	397.89
607.20	376.83
607.36	489.17
607.51	414.27
607.67	414.27
607.82	477.47
607.98	369.80
608.13	425.98
608.29	346.40
608.44	454.06
608.60	388.53
608.75	421.30
608.91	386.19
609.06	381.51
609.22	461.09
609.37	493.85
609.53	435.34
609.68	402.57
609.84	283.20
609.99	390.87
610.15	367.46
