SpectraSuite Data File
++++++++++++++++++++++++++++++++++++
Date: Fri Oct 25 12:10:10 EDT 2013
User: price-jones
Dark Spectrum Present: No
Reference Spectrum Present: No
Number of Sampled Component Spectra: 1
Spectrometers: USB2+H05261
Integration Time (usec): 100000 (USB2+H05261)
Spectra Averaged: 1 (USB2+H05261)
Boxcar Smoothing: 0 (USB2+H05261)
Correct for Electrical Dark: No (USB2+H05261)
Strobe/Lamp Enabled: No (USB2+H05261)
Correct for Detector Non-linearity: No (USB2+H05261)
Correct for Stray Light: No (USB2+H05261)
Number of Pixels in Processed Spectrum: 2048
>>>>>Begin Processed Spectral Data<<<<<
365.73	341.72
365.92	341.72
366.12	341.72
366.32	252.78
366.52	308.95
366.72	252.78
366.91	212.99
367.11	248.10
367.31	245.76
367.51	241.08
367.70	243.42
367.90	269.16
368.10	198.95
368.30	245.76
368.49	243.42
368.69	234.05
368.89	220.01
369.09	215.33
369.28	220.01
369.48	201.29
369.68	278.52
369.87	322.99
370.07	257.46
370.27	315.97
370.47	318.31
370.66	390.87
370.86	346.40
371.06	325.33
371.25	437.68
371.45	339.38
371.65	433.00
371.84	393.21
372.04	372.15
372.24	348.74
372.44	402.57
372.63	395.55
372.83	393.21
373.03	341.72
373.22	365.12
373.42	390.87
373.62	341.72
373.81	421.30
374.01	458.74
374.21	463.43
374.40	477.47
374.60	454.06
374.79	393.21
374.99	437.68
375.19	447.04
375.38	416.62
375.58	388.53
375.78	505.56
375.97	430.66
376.17	468.11
376.37	416.62
376.56	411.93
376.76	353.42
376.95	402.57
377.15	437.68
377.35	475.13
377.54	428.32
377.74	430.66
377.93	379.17
378.13	386.19
378.33	433.00
378.52	337.04
378.72	430.66
378.91	414.27
379.11	433.00
379.31	322.99
379.50	421.30
379.70	442.36
379.89	442.36
380.09	397.89
380.28	367.46
380.48	379.17
380.68	397.89
380.87	367.46
381.07	395.55
381.26	472.79
381.46	409.59
381.65	437.68
381.85	388.53
382.04	372.15
382.24	390.87
382.43	367.46
382.63	404.91
382.83	425.98
383.02	468.11
383.22	433.00
383.41	435.34
383.61	386.19
383.80	447.04
384.00	411.93
384.19	334.70
384.39	407.25
384.58	437.68
384.78	369.80
384.97	423.64
385.17	440.02
385.36	407.25
385.56	348.74
385.75	358.10
385.95	383.85
386.14	390.87
386.34	344.06
386.53	334.70
386.72	470.45
386.92	447.04
387.11	440.02
387.31	360.44
387.50	358.10
387.70	428.32
387.89	414.27
388.09	390.87
388.28	409.59
388.48	376.83
388.67	390.87
388.86	386.19
389.06	430.66
389.25	402.57
389.45	351.08
389.64	344.06
389.84	444.70
390.03	475.13
390.22	425.98
390.42	393.21
390.61	400.23
390.81	430.66
391.00	369.80
391.19	418.96
391.39	468.11
391.58	397.89
391.78	416.62
391.97	404.91
392.16	376.83
392.36	458.74
392.55	425.98
392.75	421.30
392.94	404.91
393.13	379.17
393.33	376.83
393.52	425.98
393.71	374.49
393.91	428.32
394.10	416.62
394.29	374.49
394.49	404.91
394.68	402.57
394.88	433.00
395.07	442.36
395.26	407.25
395.46	407.25
395.65	425.98
395.84	428.32
396.04	454.06
396.23	381.51
396.42	393.21
396.62	393.21
396.81	330.02
397.00	425.98
397.19	425.98
397.39	404.91
397.58	365.12
397.77	365.12
397.97	407.25
398.16	418.96
398.35	421.30
398.55	381.51
398.74	404.91
398.93	430.66
399.12	358.10
399.32	395.55
399.51	404.91
399.70	402.57
399.90	404.91
400.09	407.25
400.28	383.85
400.47	358.10
400.67	367.46
400.86	400.23
401.05	428.32
401.24	388.53
401.44	386.19
401.63	482.15
401.82	407.25
402.01	435.34
402.21	416.62
402.40	402.57
402.59	409.59
402.78	428.32
402.97	355.76
403.17	404.91
403.36	367.46
403.55	423.64
403.74	379.17
403.93	409.59
404.13	393.21
404.32	400.23
404.51	393.21
404.70	390.87
404.89	472.79
405.09	442.36
405.28	416.62
405.47	421.30
405.66	379.17
405.85	411.93
406.05	437.68
406.24	390.87
406.43	388.53
406.62	447.04
406.81	423.64
407.00	393.21
407.20	458.74
407.39	428.32
407.58	332.36
407.77	437.68
407.96	425.98
408.15	433.00
408.34	442.36
408.54	411.93
408.73	372.15
408.92	444.70
409.11	447.04
409.30	479.81
409.49	344.06
409.68	376.83
409.87	365.12
410.07	351.08
410.26	402.57
410.45	397.89
410.64	416.62
410.83	358.10
411.02	365.12
411.21	388.53
411.40	428.32
411.59	423.64
411.78	414.27
411.98	383.85
412.17	341.72
412.36	369.80
412.55	418.96
412.74	393.21
412.93	430.66
413.12	348.74
413.31	404.91
413.50	393.21
413.69	444.70
413.88	332.36
414.07	383.85
414.26	414.27
414.45	400.23
414.64	418.96
414.83	318.31
415.02	369.80
415.22	332.36
415.41	456.40
415.60	428.32
415.79	449.38
415.98	414.27
416.17	362.78
416.36	421.30
416.55	477.47
416.74	447.04
416.93	430.66
417.12	386.19
417.31	358.10
417.50	390.87
417.69	458.74
417.88	369.80
418.07	437.68
418.26	442.36
418.45	386.19
418.64	430.66
418.83	372.15
419.02	428.32
419.21	379.17
419.39	341.72
419.58	348.74
419.77	388.53
419.96	400.23
420.15	379.17
420.34	390.87
420.53	414.27
420.72	379.17
420.91	444.70
421.10	376.83
421.29	355.76
421.48	449.38
421.67	454.06
421.86	395.55
422.05	416.62
422.24	477.47
422.43	379.17
422.61	362.78
422.80	372.15
422.99	416.62
423.18	404.91
423.37	435.34
423.56	414.27
423.75	458.74
423.94	379.17
424.13	393.21
424.32	393.21
424.50	423.64
424.69	402.57
424.88	397.89
425.07	362.78
425.26	376.83
425.45	414.27
425.64	400.23
425.83	449.38
426.01	458.74
426.20	369.80
426.39	463.43
426.58	383.85
426.77	344.06
426.96	386.19
427.15	376.83
427.33	400.23
427.52	418.96
427.71	369.80
427.90	477.47
428.09	397.89
428.28	433.00
428.46	393.21
428.65	435.34
428.84	430.66
429.03	397.89
429.22	330.02
429.40	393.21
429.59	423.64
429.78	362.78
429.97	433.00
430.16	388.53
430.34	491.51
430.53	388.53
430.72	379.17
430.91	437.68
431.10	458.74
431.28	421.30
431.47	379.17
431.66	435.34
431.85	411.93
432.03	437.68
432.22	496.19
432.41	407.25
432.60	414.27
432.79	425.98
432.97	409.59
433.16	395.55
433.35	404.91
433.54	351.08
433.72	477.47
433.91	444.70
434.10	428.32
434.28	353.42
434.47	433.00
434.66	430.66
434.85	379.17
435.03	372.15
435.22	428.32
435.41	409.59
435.59	433.00
435.78	402.57
435.97	423.64
436.16	379.17
436.34	418.96
436.53	374.49
436.72	369.80
436.90	444.70
437.09	386.19
437.28	416.62
437.46	327.68
437.65	465.77
437.84	437.68
438.02	507.90
438.21	433.00
438.40	388.53
438.58	376.83
438.77	444.70
438.96	400.23
439.14	482.15
439.33	433.00
439.52	442.36
439.70	411.93
439.89	390.87
440.08	388.53
440.26	433.00
440.45	458.74
440.63	376.83
440.82	397.89
441.01	430.66
441.19	332.36
441.38	425.98
441.57	400.23
441.75	435.34
441.94	451.72
442.12	346.40
442.31	383.85
442.50	458.74
442.68	390.87
442.87	379.17
443.05	482.15
443.24	416.62
443.43	468.11
443.61	451.72
443.80	404.91
443.98	409.59
444.17	388.53
444.35	433.00
444.54	365.12
444.73	451.72
444.91	449.38
445.10	372.15
445.28	386.19
445.47	383.85
445.65	395.55
445.84	423.64
446.02	369.80
446.21	400.23
446.39	395.55
446.58	301.93
446.77	433.00
446.95	435.34
447.14	365.12
447.32	411.93
447.51	428.32
447.69	496.19
447.88	435.34
448.06	447.04
448.25	416.62
448.43	353.42
448.62	451.72
448.80	374.49
448.99	447.04
449.17	437.68
449.36	423.64
449.54	416.62
449.73	402.57
449.91	358.10
450.10	416.62
450.28	416.62
450.46	463.43
450.65	393.21
450.83	386.19
451.02	409.59
451.20	444.70
451.39	400.23
451.57	409.59
451.76	458.74
451.94	386.19
452.13	383.85
452.31	435.34
452.49	442.36
452.68	423.64
452.86	360.44
453.05	531.30
453.23	388.53
453.42	411.93
453.60	397.89
453.78	360.44
453.97	486.83
454.15	421.30
454.34	348.74
454.52	390.87
454.70	433.00
454.89	425.98
455.07	479.81
455.26	383.85
455.44	428.32
455.62	402.57
455.81	444.70
455.99	430.66
456.17	425.98
456.36	423.64
456.54	379.17
456.73	421.30
456.91	393.21
457.09	355.76
457.28	386.19
457.46	383.85
457.64	339.38
457.83	341.72
458.01	395.55
458.19	395.55
458.38	365.12
458.56	444.70
458.74	404.91
458.93	372.15
459.11	421.30
459.29	430.66
459.48	456.40
459.66	484.49
459.84	416.62
460.03	444.70
460.21	440.02
460.39	409.59
460.57	430.66
460.76	468.11
460.94	416.62
461.12	430.66
461.31	428.32
461.49	381.51
461.67	418.96
461.85	404.91
462.04	423.64
462.22	732.59
462.40	353.42
462.59	416.62
462.77	411.93
462.95	411.93
463.13	358.10
463.32	411.93
463.50	376.83
463.68	496.19
463.86	379.17
464.05	362.78
464.23	463.43
464.41	482.15
464.59	447.04
464.78	411.93
464.96	440.02
465.14	404.91
465.32	468.11
465.50	418.96
465.69	442.36
465.87	388.53
466.05	390.87
466.23	402.57
466.41	414.27
466.60	390.87
466.78	330.02
466.96	404.91
467.14	435.34
467.32	414.27
467.51	400.23
467.69	414.27
467.87	437.68
468.05	390.87
468.23	428.32
468.41	390.87
468.60	507.90
468.78	390.87
468.96	395.55
469.14	423.64
469.32	386.19
469.50	397.89
469.69	404.91
469.87	334.70
470.05	435.34
470.23	423.64
470.41	444.70
470.59	454.06
470.77	407.25
470.95	433.00
471.14	456.40
471.32	402.57
471.50	444.70
471.68	437.68
471.86	358.10
472.04	472.79
472.22	454.06
472.40	390.87
472.58	313.63
472.77	449.38
472.95	351.08
473.13	454.06
473.31	545.34
473.49	374.49
473.67	451.72
473.85	414.27
474.03	423.64
474.21	477.47
474.39	444.70
474.57	526.62
474.75	362.78
474.93	390.87
475.12	477.47
475.30	414.27
475.48	374.49
475.66	407.25
475.84	421.30
476.02	447.04
476.20	365.12
476.38	468.11
476.56	475.13
476.74	425.98
476.92	449.38
477.10	414.27
477.28	421.30
477.46	421.30
477.64	360.44
477.82	390.87
478.00	339.38
478.18	386.19
478.36	433.00
478.54	437.68
478.72	433.00
478.90	407.25
479.08	517.26
479.26	393.21
479.44	409.59
479.62	374.49
479.80	454.06
479.98	447.04
480.16	409.59
480.34	447.04
480.52	369.80
480.70	418.96
480.88	423.64
481.06	341.72
481.24	423.64
481.41	421.30
481.59	374.49
481.77	397.89
481.95	388.53
482.13	454.06
482.31	418.96
482.49	416.62
482.67	444.70
482.85	430.66
483.03	407.25
483.21	404.91
483.39	425.98
483.57	463.43
483.74	365.12
483.92	440.02
484.10	463.43
484.28	475.13
484.46	447.04
484.64	395.55
484.82	411.93
485.00	465.77
485.18	376.83
485.35	355.76
485.53	388.53
485.71	510.24
485.89	386.19
486.07	409.59
486.25	395.55
486.43	404.91
486.61	475.13
486.78	465.77
486.96	393.21
487.14	304.27
487.32	421.30
487.50	383.85
487.68	489.17
487.85	388.53
488.03	433.00
488.21	393.21
488.39	395.55
488.57	393.21
488.75	376.83
488.92	517.26
489.10	433.00
489.28	437.68
489.46	358.10
489.64	383.85
489.81	414.27
489.99	337.04
490.17	397.89
490.35	461.09
490.53	442.36
490.70	346.40
490.88	414.27
491.06	351.08
491.24	383.85
491.41	477.47
491.59	421.30
491.77	411.93
491.95	372.15
492.13	461.09
492.30	416.62
492.48	404.91
492.66	425.98
492.84	418.96
493.01	425.98
493.19	437.68
493.37	428.32
493.54	393.21
493.72	402.57
493.90	449.38
494.08	348.74
494.25	395.55
494.43	437.68
494.61	416.62
494.79	383.85
494.96	381.51
495.14	409.59
495.32	428.32
495.49	337.04
495.67	339.38
495.85	308.95
496.02	365.12
496.20	428.32
496.38	442.36
496.55	444.70
496.73	397.89
496.91	411.93
497.09	411.93
497.26	428.32
497.44	409.59
497.62	440.02
497.79	444.70
497.97	411.93
498.14	407.25
498.32	397.89
498.50	514.92
498.67	458.74
498.85	402.57
499.03	463.43
499.20	372.15
499.38	351.08
499.56	404.91
499.73	475.13
499.91	411.93
500.08	379.17
500.26	430.66
500.44	362.78
500.61	437.68
500.79	367.46
500.97	486.83
501.14	456.40
501.32	444.70
501.49	507.90
501.67	400.23
501.84	348.74
502.02	376.83
502.20	519.60
502.37	411.93
502.55	430.66
502.72	404.91
502.90	407.25
503.07	463.43
503.25	416.62
503.43	334.70
503.60	437.68
503.78	346.40
503.95	367.46
504.13	449.38
504.30	390.87
504.48	477.47
504.65	472.79
504.83	458.74
505.01	458.74
505.18	372.15
505.36	383.85
505.53	388.53
505.71	447.04
505.88	386.19
506.06	404.91
506.23	451.72
506.41	484.49
506.58	362.78
506.76	365.12
506.93	355.76
507.11	393.21
507.28	404.91
507.46	433.00
507.63	402.57
507.81	409.59
507.98	418.96
508.16	407.25
508.33	365.12
508.50	369.80
508.68	423.64
508.85	416.62
509.03	379.17
509.20	428.32
509.38	402.57
509.55	505.56
509.73	404.91
509.90	433.00
510.08	421.30
510.25	482.15
510.42	433.00
510.60	435.34
510.77	449.38
510.95	397.89
511.12	404.91
511.30	407.25
511.47	407.25
511.64	451.72
511.82	444.70
511.99	383.85
512.17	447.04
512.34	416.62
512.51	440.02
512.69	425.98
512.86	388.53
513.04	437.68
513.21	402.57
513.38	442.36
513.56	433.00
513.73	444.70
513.90	409.59
514.08	332.36
514.25	386.19
514.43	442.36
514.60	381.51
514.77	440.02
514.95	404.91
515.12	383.85
515.29	397.89
515.47	388.53
515.64	489.17
515.81	454.06
515.99	411.93
516.16	437.68
516.33	411.93
516.51	475.13
516.68	423.64
516.85	369.80
517.03	414.27
517.20	381.51
517.37	407.25
517.54	465.77
517.72	463.43
517.89	355.76
518.06	423.64
518.24	489.17
518.41	416.62
518.58	461.09
518.75	397.89
518.93	421.30
519.10	332.36
519.27	358.10
519.45	444.70
519.62	468.11
519.79	397.89
519.96	332.36
520.14	381.51
520.31	463.43
520.48	402.57
520.65	407.25
520.83	404.91
521.00	369.80
521.17	423.64
521.34	411.93
521.52	423.64
521.69	442.36
521.86	409.59
522.03	444.70
522.20	435.34
522.38	390.87
522.55	393.21
522.72	381.51
522.89	442.36
523.07	463.43
523.24	337.04
523.41	442.36
523.58	447.04
523.75	411.93
523.92	451.72
524.10	433.00
524.27	367.46
524.44	463.43
524.61	479.81
524.78	374.49
524.96	475.13
525.13	425.98
525.30	463.43
525.47	472.79
525.64	444.70
525.81	461.09
525.98	421.30
526.16	416.62
526.33	430.66
526.50	374.49
526.67	433.00
526.84	374.49
527.01	423.64
527.18	458.74
527.36	444.70
527.53	444.70
527.70	496.19
527.87	360.44
528.04	397.89
528.21	472.79
528.38	428.32
528.55	440.02
528.72	463.43
528.89	425.98
529.07	440.02
529.24	423.64
529.41	442.36
529.58	447.04
529.75	393.21
529.92	435.34
530.09	409.59
530.26	433.00
530.43	402.57
530.60	390.87
530.77	425.98
530.94	500.87
531.11	433.00
531.28	437.68
531.46	409.59
531.63	449.38
531.80	421.30
531.97	433.00
532.14	388.53
532.31	421.30
532.48	447.04
532.65	404.91
532.82	341.72
532.99	425.98
533.16	442.36
533.33	425.98
533.50	360.44
533.67	372.15
533.84	491.51
534.01	409.59
534.18	407.25
534.35	440.02
534.52	435.34
534.69	409.59
534.86	404.91
535.03	423.64
535.20	397.89
535.37	430.66
535.54	435.34
535.71	447.04
535.88	454.06
536.05	407.25
536.22	475.13
536.38	386.19
536.55	421.30
536.72	421.30
536.89	409.59
537.06	367.46
537.23	458.74
537.40	367.46
537.57	440.02
537.74	454.06
537.91	458.74
538.08	402.57
538.25	369.80
538.42	400.23
538.59	430.66
538.75	421.30
538.92	425.98
539.09	388.53
539.26	425.98
539.43	479.81
539.60	461.09
539.77	383.85
539.94	379.17
540.11	409.59
540.28	435.34
540.44	397.89
540.61	475.13
540.78	404.91
540.95	367.46
541.12	475.13
541.29	437.68
541.46	449.38
541.62	414.27
541.79	409.59
541.96	421.30
542.13	425.98
542.30	358.10
542.47	465.77
542.63	423.64
542.80	393.21
542.97	430.66
543.14	397.89
543.31	425.98
543.48	409.59
543.64	465.77
543.81	447.04
543.98	423.64
544.15	402.57
544.32	425.98
544.48	404.91
544.65	360.44
544.82	315.97
544.99	409.59
545.16	461.09
545.32	376.83
545.49	372.15
545.66	449.38
545.83	360.44
546.00	423.64
546.16	308.95
546.33	418.96
546.50	451.72
546.67	486.83
546.83	505.56
547.00	442.36
547.17	393.21
547.34	367.46
547.50	379.17
547.67	395.55
547.84	421.30
548.00	397.89
548.17	409.59
548.34	348.74
548.51	451.72
548.67	416.62
548.84	479.81
549.01	353.42
549.18	425.98
549.34	470.45
549.51	388.53
549.68	444.70
549.84	390.87
550.01	425.98
550.18	416.62
550.34	386.19
550.51	383.85
550.68	437.68
550.84	407.25
551.01	416.62
551.18	367.46
551.34	433.00
551.51	404.91
551.68	383.85
551.84	451.72
552.01	425.98
552.18	444.70
552.34	425.98
552.51	390.87
552.68	376.83
552.84	388.53
553.01	451.72
553.18	367.46
553.34	400.23
553.51	414.27
553.67	512.58
553.84	425.98
554.01	407.25
554.17	383.85
554.34	451.72
554.51	442.36
554.67	430.66
554.84	456.40
555.00	428.32
555.17	433.00
555.33	447.04
555.50	517.26
555.67	425.98
555.83	348.74
556.00	390.87
556.16	540.66
556.33	461.09
556.50	372.15
556.66	425.98
556.83	348.74
556.99	397.89
557.16	428.32
557.32	330.02
557.49	414.27
557.65	365.12
557.82	388.53
557.98	393.21
558.15	341.72
558.32	423.64
558.48	423.64
558.65	409.59
558.81	500.87
558.98	409.59
559.14	423.64
559.31	444.70
559.47	430.66
559.64	449.38
559.80	381.51
559.97	430.66
560.13	449.38
560.30	393.21
560.46	360.44
560.63	430.66
560.79	402.57
560.96	332.36
561.12	351.08
561.29	428.32
561.45	418.96
561.61	435.34
561.78	489.17
561.94	433.00
562.11	425.98
562.27	440.02
562.44	346.40
562.60	379.17
562.77	428.32
562.93	451.72
563.10	440.02
563.26	395.55
563.42	411.93
563.59	407.25
563.75	393.21
563.92	468.11
564.08	435.34
564.24	393.21
564.41	477.47
564.57	383.85
564.74	454.06
564.90	395.55
565.07	390.87
565.23	379.17
565.39	442.36
565.56	376.83
565.72	388.53
565.88	447.04
566.05	381.51
566.21	421.30
566.38	454.06
566.54	381.51
566.70	456.40
566.87	362.78
567.03	376.83
567.19	482.15
567.36	418.96
567.52	388.53
567.68	428.32
567.85	393.21
568.01	386.19
568.17	491.51
568.34	346.40
568.50	393.21
568.66	330.02
568.83	489.17
568.99	400.23
569.15	472.79
569.32	393.21
569.48	463.43
569.64	386.19
569.81	358.10
569.97	451.72
570.13	381.51
570.30	468.11
570.46	414.27
570.62	351.08
570.78	409.59
570.95	397.89
571.11	447.04
571.27	430.66
571.43	365.12
571.60	437.68
571.76	458.74
571.92	367.46
572.09	402.57
572.25	437.68
572.41	440.02
572.57	360.44
572.74	393.21
572.90	421.30
573.06	447.04
573.22	449.38
573.38	440.02
573.55	440.02
573.71	383.85
573.87	416.62
574.03	318.31
574.20	447.04
574.36	491.51
574.52	393.21
574.68	381.51
574.84	418.96
575.01	353.42
575.17	468.11
575.33	428.32
575.49	414.27
575.65	477.47
575.82	468.11
575.98	463.43
576.14	409.59
576.30	425.98
576.46	454.06
576.62	433.00
576.79	351.08
576.95	461.09
577.11	411.93
577.27	353.42
577.43	458.74
577.59	449.38
577.75	397.89
577.92	418.96
578.08	451.72
578.24	383.85
578.40	519.60
578.56	498.53
578.72	423.64
578.88	407.25
579.04	402.57
579.21	425.98
579.37	425.98
579.53	351.08
579.69	442.36
579.85	435.34
580.01	374.49
580.17	482.15
580.33	400.23
580.49	369.80
580.65	461.09
580.82	383.85
580.98	393.21
581.14	461.09
581.30	416.62
581.46	437.68
581.62	388.53
581.78	404.91
581.94	400.23
582.10	397.89
582.26	433.00
582.42	425.98
582.58	437.68
582.74	479.81
582.90	472.79
583.06	428.32
583.22	381.51
583.38	337.04
583.54	414.27
583.70	486.83
583.86	430.66
584.02	407.25
584.18	458.74
584.34	379.17
584.50	374.49
584.66	402.57
584.82	407.25
584.98	454.06
585.14	409.59
585.30	390.87
585.46	437.68
585.62	386.19
585.78	489.17
585.94	491.51
586.10	437.68
586.26	479.81
586.42	486.83
586.58	433.00
586.74	344.06
586.90	472.79
587.06	372.15
587.22	479.81
587.38	369.80
587.54	428.32
587.70	376.83
587.86	425.98
588.02	484.49
588.18	360.44
588.34	409.59
588.49	388.53
588.65	388.53
588.81	386.19
588.97	433.00
589.13	428.32
589.29	390.87
589.45	444.70
589.61	381.51
589.77	402.57
589.93	404.91
590.08	390.87
590.24	407.25
590.40	428.32
590.56	409.59
590.72	442.36
590.88	344.06
591.04	402.57
591.20	454.06
591.35	444.70
591.51	456.40
591.67	397.89
591.83	386.19
591.99	414.27
592.15	379.17
592.31	409.59
592.46	430.66
592.62	503.22
592.78	402.57
592.94	404.91
593.10	365.12
593.26	372.15
593.41	334.70
593.57	437.68
593.73	404.91
593.89	374.49
594.05	545.34
594.20	362.78
594.36	407.25
594.52	402.57
594.68	440.02
594.84	383.85
594.99	383.85
595.15	425.98
595.31	444.70
595.47	470.45
595.62	444.70
595.78	421.30
595.94	407.25
596.10	404.91
596.25	428.32
596.41	538.32
596.57	351.08
596.73	433.00
596.88	428.32
597.04	430.66
597.20	379.17
597.36	421.30
597.51	425.98
597.67	397.89
597.83	411.93
597.99	496.19
598.14	411.93
598.30	449.38
598.46	395.55
598.61	400.23
598.77	454.06
598.93	449.38
599.09	397.89
599.24	433.00
599.40	538.32
599.56	475.13
599.71	456.40
599.87	440.02
600.03	449.38
600.18	468.11
600.34	519.60
600.50	447.04
600.65	463.43
600.81	395.55
600.97	456.40
601.12	416.62
601.28	386.19
601.44	418.96
601.59	489.17
601.75	355.76
601.91	454.06
602.06	388.53
602.22	440.02
602.37	400.23
602.53	409.59
602.69	423.64
602.84	360.44
603.00	440.02
603.16	437.68
603.31	461.09
603.47	376.83
603.62	344.06
603.78	397.89
603.94	458.74
604.09	400.23
604.25	421.30
604.40	435.34
604.56	358.10
604.71	407.25
604.87	418.96
605.03	400.23
605.18	395.55
605.34	454.06
605.49	400.23
605.65	404.91
605.80	353.42
605.96	470.45
606.12	372.15
606.27	407.25
606.43	402.57
606.58	402.57
606.74	388.53
606.89	383.85
607.05	440.02
607.20	458.74
607.36	381.51
607.51	318.31
607.67	334.70
607.82	388.53
607.98	451.72
608.13	468.11
608.29	421.30
608.44	425.98
608.60	433.00
608.75	447.04
608.91	451.72
609.06	400.23
609.22	482.15
609.37	454.06
609.53	416.62
609.68	418.96
609.84	397.89
609.99	451.72
610.15	440.02
