SpectraSuite Data File
++++++++++++++++++++++++++++++++++++
Date: Fri Oct 25 12:10:44 EDT 2013
User: price-jones
Dark Spectrum Present: No
Reference Spectrum Present: No
Number of Sampled Component Spectra: 1
Spectrometers: USB2+H05261
Integration Time (usec): 100000 (USB2+H05261)
Spectra Averaged: 1 (USB2+H05261)
Boxcar Smoothing: 0 (USB2+H05261)
Correct for Electrical Dark: No (USB2+H05261)
Strobe/Lamp Enabled: No (USB2+H05261)
Correct for Detector Non-linearity: No (USB2+H05261)
Correct for Stray Light: No (USB2+H05261)
Number of Pixels in Processed Spectrum: 2048
>>>>>Begin Processed Spectral Data<<<<<
365.73	386.19
365.92	386.19
366.12	386.19
366.32	325.33
366.52	290.23
366.72	285.55
366.91	250.44
367.11	257.46
367.31	184.90
367.51	184.90
367.70	224.69
367.90	227.03
368.10	145.11
368.30	243.42
368.49	236.39
368.69	290.23
368.89	201.29
369.09	243.42
369.28	266.82
369.48	252.78
369.68	224.69
369.87	245.76
370.07	285.55
370.27	311.29
370.47	351.08
370.66	327.68
370.86	351.08
371.06	428.32
371.25	404.91
371.45	374.49
371.65	418.96
371.84	407.25
372.04	390.87
372.24	353.42
372.44	374.49
372.63	334.70
372.83	461.09
373.03	369.80
373.22	397.89
373.42	351.08
373.62	367.46
373.81	421.30
374.01	470.45
374.21	435.34
374.40	425.98
374.60	402.57
374.79	404.91
374.99	421.30
375.19	442.36
375.38	353.42
375.58	404.91
375.78	442.36
375.97	437.68
376.17	489.17
376.37	390.87
376.56	433.00
376.76	442.36
376.95	477.47
377.15	437.68
377.35	386.19
377.54	414.27
377.74	351.08
377.93	416.62
378.13	421.30
378.33	447.04
378.52	367.46
378.72	367.46
378.91	383.85
379.11	449.38
379.31	463.43
379.50	425.98
379.70	400.23
379.89	418.96
380.09	433.00
380.28	381.51
380.48	369.80
380.68	337.04
380.87	374.49
381.07	397.89
381.26	461.09
381.46	414.27
381.65	414.27
381.85	407.25
382.04	409.59
382.24	390.87
382.43	416.62
382.63	428.32
382.83	313.63
383.02	379.17
383.22	437.68
383.41	376.83
383.61	409.59
383.80	414.27
384.00	407.25
384.19	430.66
384.39	437.68
384.58	447.04
384.78	425.98
384.97	451.72
385.17	404.91
385.36	376.83
385.56	428.32
385.75	440.02
385.95	381.51
386.14	440.02
386.34	402.57
386.53	425.98
386.72	390.87
386.92	468.11
387.11	423.64
387.31	423.64
387.50	351.08
387.70	355.76
387.89	484.49
388.09	365.12
388.28	339.38
388.48	404.91
388.67	390.87
388.86	440.02
389.06	355.76
389.25	407.25
389.45	418.96
389.64	425.98
389.84	507.90
390.03	409.59
390.22	442.36
390.42	484.49
390.61	418.96
390.81	294.91
391.00	414.27
391.19	353.42
391.39	442.36
391.58	355.76
391.78	355.76
391.97	409.59
392.16	411.93
392.36	461.09
392.55	397.89
392.75	440.02
392.94	470.45
393.13	470.45
393.33	351.08
393.52	470.45
393.71	435.34
393.91	402.57
394.10	407.25
394.29	411.93
394.49	418.96
394.68	358.10
394.88	372.15
395.07	381.51
395.26	397.89
395.46	376.83
395.65	372.15
395.84	447.04
396.04	489.17
396.23	421.30
396.42	468.11
396.62	397.89
396.81	416.62
397.00	404.91
397.19	358.10
397.39	451.72
397.58	383.85
397.77	367.46
397.97	421.30
398.16	442.36
398.35	374.49
398.55	449.38
398.74	386.19
398.93	367.46
399.12	390.87
399.32	402.57
399.51	437.68
399.70	430.66
399.90	404.91
400.09	362.78
400.28	493.85
400.47	358.10
400.67	339.38
400.86	376.83
401.05	447.04
401.24	418.96
401.44	383.85
401.63	402.57
401.82	425.98
402.01	407.25
402.21	393.21
402.40	395.55
402.59	437.68
402.78	381.51
402.97	428.32
403.17	425.98
403.36	404.91
403.55	416.62
403.74	440.02
403.93	344.06
404.13	407.25
404.32	362.78
404.51	433.00
404.70	365.12
404.89	451.72
405.09	496.19
405.28	400.23
405.47	381.51
405.66	421.30
405.85	437.68
406.05	404.91
406.24	440.02
406.43	433.00
406.62	397.89
406.81	491.51
407.00	447.04
407.20	449.38
407.39	365.12
407.58	451.72
407.77	386.19
407.96	421.30
408.15	454.06
408.34	369.80
408.54	437.68
408.73	388.53
408.92	365.12
409.11	383.85
409.30	430.66
409.49	344.06
409.68	374.49
409.87	402.57
410.07	320.65
410.26	390.87
410.45	421.30
410.64	409.59
410.83	353.42
411.02	294.91
411.21	449.38
411.40	421.30
411.59	379.17
411.78	414.27
411.98	315.97
412.17	425.98
412.36	395.55
412.55	414.27
412.74	367.46
412.93	423.64
413.12	430.66
413.31	425.98
413.50	407.25
413.69	397.89
413.88	454.06
414.07	414.27
414.26	454.06
414.45	463.43
414.64	425.98
414.83	414.27
415.02	395.55
415.22	418.96
415.41	440.02
415.60	306.61
415.79	383.85
415.98	461.09
416.17	423.64
416.36	428.32
416.55	430.66
416.74	447.04
416.93	444.70
417.12	463.43
417.31	318.31
417.50	397.89
417.69	416.62
417.88	367.46
418.07	320.65
418.26	369.80
418.45	435.34
418.64	435.34
418.83	418.96
419.02	393.21
419.21	461.09
419.39	381.51
419.58	442.36
419.77	393.21
419.96	425.98
420.15	404.91
420.34	418.96
420.53	360.44
420.72	463.43
420.91	409.59
421.10	404.91
421.29	461.09
421.48	414.27
421.67	409.59
421.86	362.78
422.05	507.90
422.24	430.66
422.43	400.23
422.61	334.70
422.80	416.62
422.99	437.68
423.18	402.57
423.37	390.87
423.56	447.04
423.75	447.04
423.94	381.51
424.13	404.91
424.32	388.53
424.50	435.34
424.69	461.09
424.88	442.36
425.07	435.34
425.26	449.38
425.45	416.62
425.64	397.89
425.83	381.51
426.01	440.02
426.20	376.83
426.39	395.55
426.58	472.79
426.77	411.93
426.96	425.98
427.15	376.83
427.33	374.49
427.52	444.70
427.71	388.53
427.90	414.27
428.09	423.64
428.28	341.72
428.46	414.27
428.65	500.87
428.84	433.00
429.03	428.32
429.22	447.04
429.40	344.06
429.59	381.51
429.78	397.89
429.97	393.21
430.16	353.42
430.34	322.99
430.53	365.12
430.72	374.49
430.91	407.25
431.10	416.62
431.28	425.98
431.47	411.93
431.66	409.59
431.85	407.25
432.03	454.06
432.22	423.64
432.41	369.80
432.60	337.04
432.79	433.00
432.97	416.62
433.16	351.08
433.35	390.87
433.54	498.53
433.72	472.79
433.91	402.57
434.10	388.53
434.28	341.72
434.47	451.72
434.66	390.87
434.85	433.00
435.03	433.00
435.22	397.89
435.41	442.36
435.59	400.23
435.78	402.57
435.97	402.57
436.16	416.62
436.34	416.62
436.53	437.68
436.72	421.30
436.90	404.91
437.09	428.32
437.28	379.17
437.46	437.68
437.65	423.64
437.84	472.79
438.02	360.44
438.21	395.55
438.40	393.21
438.58	362.78
438.77	423.64
438.96	440.02
439.14	374.49
439.33	447.04
439.52	348.74
439.70	421.30
439.89	458.74
440.08	411.93
440.26	404.91
440.45	479.81
440.63	376.83
440.82	442.36
441.01	465.77
441.19	390.87
441.38	376.83
441.57	388.53
441.75	440.02
441.94	397.89
442.12	425.98
442.31	386.19
442.50	372.15
442.68	395.55
442.87	367.46
443.05	372.15
443.24	437.68
443.43	465.77
443.61	395.55
443.80	376.83
443.98	390.87
444.17	458.74
444.35	416.62
444.54	383.85
444.73	465.77
444.91	400.23
445.10	355.76
445.28	386.19
445.47	360.44
445.65	381.51
445.84	374.49
446.02	407.25
446.21	435.34
446.39	454.06
446.58	470.45
446.77	437.68
446.95	449.38
447.14	440.02
447.32	418.96
447.51	388.53
447.69	472.79
447.88	374.49
448.06	458.74
448.25	482.15
448.43	423.64
448.62	440.02
448.80	430.66
448.99	435.34
449.17	447.04
449.36	458.74
449.54	416.62
449.73	440.02
449.91	386.19
450.10	383.85
450.28	470.45
450.46	440.02
450.65	444.70
450.83	358.10
451.02	337.04
451.20	367.46
451.39	444.70
451.57	400.23
451.76	383.85
451.94	313.63
452.13	498.53
452.31	383.85
452.49	437.68
452.68	379.17
452.86	442.36
453.05	409.59
453.23	397.89
453.42	416.62
453.60	451.72
453.78	421.30
453.97	374.49
454.15	390.87
454.34	409.59
454.52	393.21
454.70	411.93
454.89	477.47
455.07	369.80
455.26	383.85
455.44	442.36
455.62	435.34
455.81	318.31
455.99	418.96
456.17	435.34
456.36	451.72
456.54	416.62
456.73	400.23
456.91	442.36
457.09	367.46
457.28	442.36
457.46	397.89
457.64	393.21
457.83	416.62
458.01	404.91
458.19	454.06
458.38	430.66
458.56	397.89
458.74	421.30
458.93	425.98
459.11	379.17
459.29	393.21
459.48	381.51
459.66	430.66
459.84	421.30
460.03	402.57
460.21	447.04
460.39	360.44
460.57	428.32
460.76	400.23
460.94	472.79
461.12	510.24
461.31	421.30
461.49	416.62
461.67	468.11
461.85	404.91
462.04	390.87
462.22	765.36
462.40	376.83
462.59	456.40
462.77	365.12
462.95	461.09
463.13	421.30
463.32	472.79
463.50	423.64
463.68	397.89
463.86	428.32
464.05	421.30
464.23	395.55
464.41	404.91
464.59	372.15
464.78	304.27
464.96	320.65
465.14	379.17
465.32	409.59
465.50	482.15
465.69	461.09
465.87	409.59
466.05	468.11
466.23	454.06
466.41	409.59
466.60	414.27
466.78	379.17
466.96	430.66
467.14	456.40
467.32	500.87
467.51	344.06
467.69	468.11
467.87	440.02
468.05	463.43
468.23	292.57
468.41	433.00
468.60	425.98
468.78	381.51
468.96	468.11
469.14	400.23
469.32	383.85
469.50	367.46
469.69	414.27
469.87	500.87
470.05	390.87
470.23	456.40
470.41	425.98
470.59	334.70
470.77	435.34
470.95	409.59
471.14	433.00
471.32	411.93
471.50	444.70
471.68	374.49
471.86	437.68
472.04	304.27
472.22	360.44
472.40	374.49
472.58	411.93
472.77	404.91
472.95	430.66
473.13	411.93
473.31	482.15
473.49	433.00
473.67	397.89
473.85	395.55
474.03	489.17
474.21	458.74
474.39	374.49
474.57	437.68
474.75	390.87
474.93	404.91
475.12	414.27
475.30	433.00
475.48	444.70
475.66	454.06
475.84	409.59
476.02	407.25
476.20	456.40
476.38	393.21
476.56	475.13
476.74	477.47
476.92	334.70
477.10	397.89
477.28	437.68
477.46	442.36
477.64	430.66
477.82	421.30
478.00	360.44
478.18	421.30
478.36	376.83
478.54	475.13
478.72	327.68
478.90	395.55
479.08	409.59
479.26	381.51
479.44	341.72
479.62	404.91
479.80	341.72
479.98	425.98
480.16	421.30
480.34	351.08
480.52	379.17
480.70	390.87
480.88	365.12
481.06	400.23
481.24	435.34
481.41	367.46
481.59	379.17
481.77	306.61
481.95	365.12
482.13	475.13
482.31	372.15
482.49	421.30
482.67	402.57
482.85	414.27
483.03	400.23
483.21	430.66
483.39	402.57
483.57	301.93
483.74	402.57
483.92	418.96
484.10	400.23
484.28	425.98
484.46	428.32
484.64	442.36
484.82	397.89
485.00	444.70
485.18	435.34
485.35	428.32
485.53	374.49
485.71	409.59
485.89	428.32
486.07	365.12
486.25	454.06
486.43	500.87
486.61	465.77
486.78	470.45
486.96	430.66
487.14	372.15
487.32	447.04
487.50	376.83
487.68	451.72
487.85	362.78
488.03	393.21
488.21	411.93
488.39	414.27
488.57	409.59
488.75	393.21
488.92	496.19
489.10	421.30
489.28	428.32
489.46	390.87
489.64	421.30
489.81	400.23
489.99	461.09
490.17	470.45
490.35	512.58
490.53	346.40
490.70	433.00
490.88	447.04
491.06	327.68
491.24	430.66
491.41	449.38
491.59	430.66
491.77	423.64
491.95	379.17
492.13	395.55
492.30	365.12
492.48	379.17
492.66	365.12
492.84	425.98
493.01	369.80
493.19	411.93
493.37	386.19
493.54	489.17
493.72	409.59
493.90	376.83
494.08	383.85
494.25	409.59
494.43	442.36
494.61	423.64
494.79	437.68
494.96	386.19
495.14	428.32
495.32	428.32
495.49	409.59
495.67	421.30
495.85	372.15
496.02	397.89
496.20	451.72
496.38	374.49
496.55	421.30
496.73	463.43
496.91	374.49
497.09	425.98
497.26	358.10
497.44	435.34
497.62	454.06
497.79	407.25
497.97	409.59
498.14	421.30
498.32	358.10
498.50	435.34
498.67	416.62
498.85	458.74
499.03	421.30
499.20	416.62
499.38	421.30
499.56	428.32
499.73	449.38
499.91	507.90
500.08	442.36
500.26	461.09
500.44	428.32
500.61	418.96
500.79	472.79
500.97	435.34
501.14	374.49
501.32	393.21
501.49	489.17
501.67	395.55
501.84	362.78
502.02	409.59
502.20	489.17
502.37	360.44
502.55	433.00
502.72	383.85
502.90	341.72
503.07	358.10
503.25	374.49
503.43	381.51
503.60	418.96
503.78	454.06
503.95	397.89
504.13	430.66
504.30	388.53
504.48	404.91
504.65	404.91
504.83	339.38
505.01	351.08
505.18	388.53
505.36	379.17
505.53	456.40
505.71	489.17
505.88	418.96
506.06	360.44
506.23	362.78
506.41	346.40
506.58	463.43
506.76	374.49
506.93	400.23
507.11	388.53
507.28	397.89
507.46	369.80
507.63	395.55
507.81	428.32
507.98	395.55
508.16	477.47
508.33	416.62
508.50	442.36
508.68	463.43
508.85	365.12
509.03	383.85
509.20	411.93
509.38	360.44
509.55	433.00
509.73	489.17
509.90	346.40
510.08	428.32
510.25	325.33
510.42	440.02
510.60	451.72
510.77	447.04
510.95	393.21
511.12	379.17
511.30	421.30
511.47	311.29
511.64	435.34
511.82	379.17
511.99	402.57
512.17	407.25
512.34	430.66
512.51	400.23
512.69	390.87
512.86	381.51
513.04	477.47
513.21	463.43
513.38	416.62
513.56	393.21
513.73	411.93
513.90	430.66
514.08	458.74
514.25	486.83
514.43	381.51
514.60	437.68
514.77	353.42
514.95	411.93
515.12	433.00
515.29	360.44
515.47	365.12
515.64	451.72
515.81	372.15
515.99	503.22
516.16	454.06
516.33	393.21
516.51	374.49
516.68	367.46
516.85	444.70
517.03	416.62
517.20	393.21
517.37	470.45
517.54	393.21
517.72	418.96
517.89	416.62
518.06	351.08
518.24	444.70
518.41	362.78
518.58	463.43
518.75	425.98
518.93	421.30
519.10	440.02
519.27	428.32
519.45	404.91
519.62	404.91
519.79	404.91
519.96	402.57
520.14	395.55
520.31	491.51
520.48	440.02
520.65	433.00
520.83	465.77
521.00	479.81
521.17	404.91
521.34	435.34
521.52	423.64
521.69	425.98
521.86	411.93
522.03	353.42
522.20	470.45
522.38	409.59
522.55	400.23
522.72	454.06
522.89	383.85
523.07	503.22
523.24	362.78
523.41	416.62
523.58	379.17
523.75	461.09
523.92	435.34
524.10	411.93
524.27	318.31
524.44	409.59
524.61	484.49
524.78	400.23
524.96	379.17
525.13	395.55
525.30	437.68
525.47	313.63
525.64	400.23
525.81	374.49
525.98	365.12
526.16	397.89
526.33	383.85
526.50	383.85
526.67	428.32
526.84	449.38
527.01	381.51
527.18	404.91
527.36	395.55
527.53	397.89
527.70	400.23
527.87	353.42
528.04	491.51
528.21	435.34
528.38	407.25
528.55	447.04
528.72	449.38
528.89	498.53
529.07	397.89
529.24	416.62
529.41	430.66
529.58	425.98
529.75	369.80
529.92	393.21
530.09	393.21
530.26	416.62
530.43	334.70
530.60	418.96
530.77	376.83
530.94	430.66
531.11	430.66
531.28	362.78
531.46	416.62
531.63	388.53
531.80	418.96
531.97	390.87
532.14	421.30
532.31	411.93
532.48	362.78
532.65	416.62
532.82	407.25
532.99	386.19
533.16	435.34
533.33	374.49
533.50	393.21
533.67	411.93
533.84	395.55
534.01	444.70
534.18	423.64
534.35	418.96
534.52	383.85
534.69	444.70
534.86	456.40
535.03	409.59
535.20	367.46
535.37	440.02
535.54	503.22
535.71	489.17
535.88	365.12
536.05	416.62
536.22	463.43
536.38	386.19
536.55	449.38
536.72	348.74
536.89	395.55
537.06	456.40
537.23	376.83
537.40	372.15
537.57	383.85
537.74	437.68
537.91	407.25
538.08	470.45
538.25	365.12
538.42	362.78
538.59	400.23
538.75	395.55
538.92	407.25
539.09	454.06
539.26	379.17
539.43	414.27
539.60	458.74
539.77	479.81
539.94	365.12
540.11	456.40
540.28	425.98
540.44	397.89
540.61	379.17
540.78	407.25
540.95	456.40
541.12	482.15
541.29	465.77
541.46	400.23
541.62	367.46
541.79	386.19
541.96	472.79
542.13	442.36
542.30	390.87
542.47	449.38
542.63	390.87
542.80	454.06
542.97	449.38
543.14	440.02
543.31	383.85
543.48	414.27
543.64	376.83
543.81	411.93
543.98	449.38
544.15	393.21
544.32	440.02
544.48	489.17
544.65	421.30
544.82	386.19
544.99	451.72
545.16	451.72
545.32	395.55
545.49	458.74
545.66	418.96
545.83	346.40
546.00	351.08
546.16	465.77
546.33	351.08
546.50	456.40
546.67	447.04
546.83	411.93
547.00	407.25
547.17	397.89
547.34	327.68
547.50	358.10
547.67	365.12
547.84	372.15
548.00	442.36
548.17	423.64
548.34	447.04
548.51	496.19
548.67	458.74
548.84	500.87
549.01	423.64
549.18	418.96
549.34	414.27
549.51	428.32
549.68	421.30
549.84	327.68
550.01	423.64
550.18	524.28
550.34	425.98
550.51	433.00
550.68	411.93
550.84	475.13
551.01	393.21
551.18	374.49
551.34	442.36
551.51	353.42
551.68	440.02
551.84	409.59
552.01	433.00
552.18	411.93
552.34	425.98
552.51	484.49
552.68	444.70
552.84	404.91
553.01	468.11
553.18	425.98
553.34	379.17
553.51	365.12
553.67	397.89
553.84	454.06
554.01	425.98
554.17	454.06
554.34	423.64
554.51	365.12
554.67	421.30
554.84	433.00
555.00	430.66
555.17	440.02
555.33	402.57
555.50	458.74
555.67	500.87
555.83	442.36
556.00	447.04
556.16	498.53
556.33	475.13
556.50	425.98
556.66	411.93
556.83	451.72
556.99	444.70
557.16	428.32
557.32	440.02
557.49	465.77
557.65	433.00
557.82	437.68
557.98	465.77
558.15	458.74
558.32	400.23
558.48	344.06
558.65	369.80
558.81	451.72
558.98	435.34
559.14	458.74
559.31	498.53
559.47	463.43
559.64	470.45
559.80	388.53
559.97	418.96
560.13	367.46
560.30	365.12
560.46	367.46
560.63	416.62
560.79	414.27
560.96	500.87
561.12	472.79
561.29	407.25
561.45	400.23
561.61	388.53
561.78	442.36
561.94	402.57
562.11	447.04
562.27	337.04
562.44	388.53
562.60	456.40
562.77	388.53
562.93	503.22
563.10	421.30
563.26	444.70
563.42	414.27
563.59	376.83
563.75	355.76
563.92	423.64
564.08	447.04
564.24	449.38
564.41	416.62
564.57	475.13
564.74	463.43
564.90	454.06
565.07	507.90
565.23	393.21
565.39	442.36
565.56	416.62
565.72	433.00
565.88	458.74
566.05	463.43
566.21	411.93
566.38	451.72
566.54	463.43
566.70	458.74
566.87	421.30
567.03	425.98
567.19	425.98
567.36	503.22
567.52	379.17
567.68	433.00
567.85	435.34
568.01	381.51
568.17	388.53
568.34	393.21
568.50	430.66
568.66	440.02
568.83	423.64
568.99	425.98
569.15	430.66
569.32	442.36
569.48	397.89
569.64	414.27
569.81	360.44
569.97	442.36
570.13	465.77
570.30	418.96
570.46	458.74
570.62	402.57
570.78	458.74
570.95	414.27
571.11	489.17
571.27	447.04
571.43	411.93
571.60	491.51
571.76	416.62
571.92	395.55
572.09	437.68
572.25	425.98
572.41	390.87
572.57	442.36
572.74	388.53
572.90	376.83
573.06	346.40
573.22	449.38
573.38	411.93
573.55	463.43
573.71	491.51
573.87	430.66
574.03	379.17
574.20	425.98
574.36	440.02
574.52	344.06
574.68	423.64
574.84	397.89
575.01	512.58
575.17	463.43
575.33	500.87
575.49	383.85
575.65	458.74
575.82	437.68
575.98	440.02
576.14	470.45
576.30	390.87
576.46	395.55
576.62	428.32
576.79	397.89
576.95	479.81
577.11	379.17
577.27	411.93
577.43	437.68
577.59	433.00
577.75	430.66
577.92	416.62
578.08	451.72
578.24	395.55
578.40	435.34
578.56	449.38
578.72	388.53
578.88	447.04
579.04	402.57
579.21	365.12
579.37	465.77
579.53	470.45
579.69	444.70
579.85	493.85
580.01	475.13
580.17	409.59
580.33	437.68
580.49	465.77
580.65	416.62
580.82	416.62
580.98	402.57
581.14	379.17
581.30	393.21
581.46	444.70
581.62	449.38
581.78	407.25
581.94	447.04
582.10	369.80
582.26	493.85
582.42	425.98
582.58	362.78
582.74	381.51
582.90	379.17
583.06	430.66
583.22	440.02
583.38	435.34
583.54	428.32
583.70	482.15
583.86	451.72
584.02	484.49
584.18	444.70
584.34	402.57
584.50	433.00
584.66	390.87
584.82	388.53
584.98	411.93
585.14	477.47
585.30	299.59
585.46	458.74
585.62	379.17
585.78	437.68
585.94	381.51
586.10	397.89
586.26	414.27
586.42	400.23
586.58	386.19
586.74	463.43
586.90	402.57
587.06	440.02
587.22	407.25
587.38	395.55
587.54	376.83
587.70	477.47
587.86	433.00
588.02	447.04
588.18	458.74
588.34	411.93
588.49	386.19
588.65	400.23
588.81	395.55
588.97	397.89
589.13	404.91
589.29	428.32
589.45	447.04
589.61	379.17
589.77	416.62
589.93	367.46
590.08	447.04
590.24	461.09
590.40	442.36
590.56	428.32
590.72	451.72
590.88	397.89
591.04	393.21
591.20	407.25
591.35	472.79
591.51	447.04
591.67	400.23
591.83	430.66
591.99	351.08
592.15	435.34
592.31	437.68
592.46	348.74
592.62	444.70
592.78	367.46
592.94	475.13
593.10	428.32
593.26	409.59
593.41	428.32
593.57	463.43
593.73	489.17
593.89	472.79
594.05	440.02
594.20	421.30
594.36	449.38
594.52	374.49
594.68	437.68
594.84	430.66
594.99	472.79
595.15	444.70
595.31	519.60
595.47	433.00
595.62	463.43
595.78	402.57
595.94	423.64
596.10	330.02
596.25	409.59
596.41	477.47
596.57	365.12
596.73	435.34
596.88	414.27
597.04	330.02
597.20	365.12
597.36	437.68
597.51	390.87
597.67	425.98
597.83	362.78
597.99	470.45
598.14	433.00
598.30	449.38
598.46	355.76
598.61	411.93
598.77	456.40
598.93	442.36
599.09	435.34
599.24	428.32
599.40	409.59
599.56	505.56
599.71	404.91
599.87	440.02
600.03	510.24
600.18	454.06
600.34	444.70
600.50	404.91
600.65	341.72
600.81	465.77
600.97	379.17
601.12	402.57
601.28	383.85
601.44	456.40
601.59	353.42
601.75	423.64
601.91	402.57
602.06	470.45
602.22	444.70
602.37	449.38
602.53	383.85
602.69	388.53
602.84	379.17
603.00	400.23
603.16	421.30
603.31	386.19
603.47	374.49
603.62	386.19
603.78	402.57
603.94	365.12
604.09	447.04
604.25	440.02
604.40	379.17
604.56	407.25
604.71	444.70
604.87	402.57
605.03	325.33
605.18	416.62
605.34	402.57
605.49	407.25
605.65	442.36
605.80	477.47
605.96	383.85
606.12	411.93
606.27	381.51
606.43	458.74
606.58	407.25
606.74	416.62
606.89	437.68
607.05	440.02
607.20	470.45
607.36	421.30
607.51	395.55
607.67	411.93
607.82	505.56
607.98	409.59
608.13	463.43
608.29	414.27
608.44	465.77
608.60	428.32
608.75	411.93
608.91	341.72
609.06	437.68
609.22	400.23
609.37	388.53
609.53	442.36
609.68	425.98
609.84	376.83
609.99	418.96
610.15	461.09
