SpectraSuite Data File
++++++++++++++++++++++++++++++++++++
Date: Fri Oct 25 12:11:05 EDT 2013
User: price-jones
Dark Spectrum Present: No
Reference Spectrum Present: No
Number of Sampled Component Spectra: 1
Spectrometers: USB2+H05261
Integration Time (usec): 100000 (USB2+H05261)
Spectra Averaged: 1 (USB2+H05261)
Boxcar Smoothing: 0 (USB2+H05261)
Correct for Electrical Dark: No (USB2+H05261)
Strobe/Lamp Enabled: No (USB2+H05261)
Correct for Detector Non-linearity: No (USB2+H05261)
Correct for Stray Light: No (USB2+H05261)
Number of Pixels in Processed Spectrum: 2048
>>>>>Begin Processed Spectral Data<<<<<
365.73	344.06
365.92	344.06
366.12	344.06
366.32	290.23
366.52	236.39
366.72	238.73
366.91	229.37
367.11	196.60
367.31	194.26
367.51	262.14
367.70	217.67
367.90	273.84
368.10	262.14
368.30	273.84
368.49	245.76
368.69	259.80
368.89	234.05
369.09	262.14
369.28	229.37
369.48	217.67
369.68	299.59
369.87	337.04
370.07	337.04
370.27	299.59
370.47	304.27
370.66	365.12
370.86	374.49
371.06	325.33
371.25	372.15
371.45	313.63
371.65	416.62
371.84	341.72
372.04	369.80
372.24	334.70
372.44	451.72
372.63	395.55
372.83	423.64
373.03	442.36
373.22	407.25
373.42	390.87
373.62	423.64
373.81	383.85
374.01	400.23
374.21	454.06
374.40	416.62
374.60	449.38
374.79	423.64
374.99	435.34
375.19	425.98
375.38	433.00
375.58	383.85
375.78	367.46
375.97	379.17
376.17	463.43
376.37	423.64
376.56	383.85
376.76	379.17
376.95	435.34
377.15	430.66
377.35	411.93
377.54	341.72
377.74	365.12
377.93	451.72
378.13	407.25
378.33	440.02
378.52	407.25
378.72	463.43
378.91	428.32
379.11	355.76
379.31	463.43
379.50	379.17
379.70	447.04
379.89	353.42
380.09	351.08
380.28	360.44
380.48	374.49
380.68	330.02
380.87	355.76
381.07	376.83
381.26	430.66
381.46	402.57
381.65	397.89
381.85	465.77
382.04	428.32
382.24	435.34
382.43	409.59
382.63	402.57
382.83	430.66
383.02	409.59
383.22	430.66
383.41	306.61
383.61	407.25
383.80	379.17
384.00	437.68
384.19	400.23
384.39	351.08
384.58	402.57
384.78	381.51
384.97	386.19
385.17	400.23
385.36	348.74
385.56	355.76
385.75	388.53
385.95	397.89
386.14	421.30
386.34	428.32
386.53	390.87
386.72	444.70
386.92	461.09
387.11	440.02
387.31	500.87
387.50	409.59
387.70	367.46
387.89	440.02
388.09	362.78
388.28	374.49
388.48	395.55
388.67	423.64
388.86	423.64
389.06	369.80
389.25	390.87
389.45	409.59
389.64	463.43
389.84	411.93
390.03	437.68
390.22	444.70
390.42	395.55
390.61	372.15
390.81	355.76
391.00	393.21
391.19	449.38
391.39	367.46
391.58	348.74
391.78	423.64
391.97	442.36
392.16	388.53
392.36	482.15
392.55	425.98
392.75	456.40
392.94	400.23
393.13	355.76
393.33	425.98
393.52	404.91
393.71	390.87
393.91	381.51
394.10	437.68
394.29	358.10
394.49	337.04
394.68	421.30
394.88	386.19
395.07	400.23
395.26	367.46
395.46	447.04
395.65	390.87
395.84	449.38
396.04	521.94
396.23	425.98
396.42	360.44
396.62	440.02
396.81	379.17
397.00	376.83
397.19	400.23
397.39	407.25
397.58	444.70
397.77	381.51
397.97	390.87
398.16	330.02
398.35	407.25
398.55	444.70
398.74	397.89
398.93	428.32
399.12	393.21
399.32	475.13
399.51	433.00
399.70	421.30
399.90	470.45
400.09	437.68
400.28	397.89
400.47	451.72
400.67	435.34
400.86	447.04
401.05	444.70
401.24	444.70
401.44	372.15
401.63	414.27
401.82	409.59
402.01	383.85
402.21	416.62
402.40	444.70
402.59	421.30
402.78	341.72
402.97	330.02
403.17	395.55
403.36	376.83
403.55	372.15
403.74	479.81
403.93	468.11
404.13	433.00
404.32	393.21
404.51	381.51
404.70	388.53
404.89	440.02
405.09	456.40
405.28	414.27
405.47	414.27
405.66	444.70
405.85	430.66
406.05	395.55
406.24	388.53
406.43	440.02
406.62	383.85
406.81	477.47
407.00	423.64
407.20	456.40
407.39	379.17
407.58	428.32
407.77	376.83
407.96	374.49
408.15	379.17
408.34	423.64
408.54	423.64
408.73	428.32
408.92	454.06
409.11	393.21
409.30	435.34
409.49	386.19
409.68	472.79
409.87	344.06
410.07	404.91
410.26	411.93
410.45	318.31
410.64	353.42
410.83	404.91
411.02	430.66
411.21	433.00
411.40	472.79
411.59	440.02
411.78	468.11
411.98	428.32
412.17	433.00
412.36	454.06
412.55	322.99
412.74	430.66
412.93	407.25
413.12	353.42
413.31	393.21
413.50	468.11
413.69	409.59
413.88	437.68
414.07	421.30
414.26	414.27
414.45	376.83
414.64	390.87
414.83	465.77
415.02	374.49
415.22	395.55
415.41	435.34
415.60	437.68
415.79	418.96
415.98	428.32
416.17	374.49
416.36	423.64
416.55	358.10
416.74	421.30
416.93	327.68
417.12	402.57
417.31	414.27
417.50	414.27
417.69	437.68
417.88	390.87
418.07	376.83
418.26	390.87
418.45	421.30
418.64	390.87
418.83	409.59
419.02	395.55
419.21	421.30
419.39	451.72
419.58	390.87
419.77	369.80
419.96	414.27
420.15	411.93
420.34	365.12
420.53	475.13
420.72	418.96
420.91	444.70
421.10	383.85
421.29	489.17
421.48	393.21
421.67	454.06
421.86	442.36
422.05	409.59
422.24	390.87
422.43	367.46
422.61	409.59
422.80	430.66
422.99	404.91
423.18	414.27
423.37	463.43
423.56	500.87
423.75	374.49
423.94	440.02
424.13	404.91
424.32	390.87
424.50	433.00
424.69	430.66
424.88	393.21
425.07	365.12
425.26	365.12
425.45	454.06
425.64	444.70
425.83	397.89
426.01	451.72
426.20	465.77
426.39	390.87
426.58	332.36
426.77	397.89
426.96	451.72
427.15	465.77
427.33	379.17
427.52	346.40
427.71	358.10
427.90	390.87
428.09	344.06
428.28	376.83
428.46	425.98
428.65	381.51
428.84	372.15
429.03	381.51
429.22	330.02
429.40	458.74
429.59	449.38
429.78	449.38
429.97	409.59
430.16	358.10
430.34	428.32
430.53	376.83
430.72	411.93
430.91	454.06
431.10	376.83
431.28	454.06
431.47	388.53
431.66	337.04
431.85	440.02
432.03	430.66
432.22	430.66
432.41	369.80
432.60	416.62
432.79	402.57
432.97	400.23
433.16	435.34
433.35	372.15
433.54	461.09
433.72	470.45
433.91	425.98
434.10	409.59
434.28	461.09
434.47	376.83
434.66	444.70
434.85	416.62
435.03	393.21
435.22	468.11
435.41	505.56
435.59	435.34
435.78	479.81
435.97	381.51
436.16	447.04
436.34	430.66
436.53	376.83
436.72	402.57
436.90	428.32
437.09	447.04
437.28	428.32
437.46	433.00
437.65	395.55
437.84	430.66
438.02	449.38
438.21	437.68
438.40	383.85
438.58	379.17
438.77	444.70
438.96	451.72
439.14	407.25
439.33	435.34
439.52	390.87
439.70	409.59
439.89	428.32
440.08	510.24
440.26	454.06
440.45	379.17
440.63	461.09
440.82	442.36
441.01	397.89
441.19	414.27
441.38	369.80
441.57	386.19
441.75	409.59
441.94	411.93
442.12	435.34
442.31	416.62
442.50	414.27
442.68	393.21
442.87	414.27
443.05	381.51
443.24	404.91
443.43	402.57
443.61	482.15
443.80	386.19
443.98	395.55
444.17	428.32
444.35	444.70
444.54	400.23
444.73	337.04
444.91	454.06
445.10	409.59
445.28	397.89
445.47	440.02
445.65	442.36
445.84	379.17
446.02	416.62
446.21	418.96
446.39	404.91
446.58	379.17
446.77	376.83
446.95	355.76
447.14	449.38
447.32	374.49
447.51	388.53
447.69	407.25
447.88	456.40
448.06	465.77
448.25	376.83
448.43	369.80
448.62	318.31
448.80	395.55
448.99	425.98
449.17	477.47
449.36	416.62
449.54	404.91
449.73	383.85
449.91	346.40
450.10	414.27
450.28	433.00
450.46	449.38
450.65	433.00
450.83	444.70
451.02	376.83
451.20	416.62
451.39	395.55
451.57	425.98
451.76	444.70
451.94	374.49
452.13	409.59
452.31	451.72
452.49	479.81
452.68	402.57
452.86	465.77
453.05	514.92
453.23	440.02
453.42	451.72
453.60	376.83
453.78	456.40
453.97	365.12
454.15	454.06
454.34	393.21
454.52	381.51
454.70	472.79
454.89	468.11
455.07	428.32
455.26	388.53
455.44	397.89
455.62	456.40
455.81	388.53
455.99	409.59
456.17	428.32
456.36	421.30
456.54	358.10
456.73	437.68
456.91	437.68
457.09	418.96
457.28	430.66
457.46	437.68
457.64	393.21
457.83	393.21
458.01	381.51
458.19	435.34
458.38	421.30
458.56	386.19
458.74	320.65
458.93	372.15
459.11	400.23
459.29	430.66
459.48	507.90
459.66	440.02
459.84	407.25
460.03	491.51
460.21	454.06
460.39	409.59
460.57	414.27
460.76	475.13
460.94	383.85
461.12	351.08
461.31	416.62
461.49	353.42
461.67	383.85
461.85	409.59
462.04	458.74
462.22	784.08
462.40	372.15
462.59	418.96
462.77	397.89
462.95	409.59
463.13	425.98
463.32	428.32
463.50	423.64
463.68	470.45
463.86	440.02
464.05	372.15
464.23	442.36
464.41	465.77
464.59	430.66
464.78	442.36
464.96	433.00
465.14	449.38
465.32	472.79
465.50	531.30
465.69	395.55
465.87	461.09
466.05	423.64
466.23	425.98
466.41	404.91
466.60	433.00
466.78	358.10
466.96	421.30
467.14	435.34
467.32	435.34
467.51	440.02
467.69	393.21
467.87	454.06
468.05	423.64
468.23	442.36
468.41	327.68
468.60	393.21
468.78	430.66
468.96	472.79
469.14	393.21
469.32	390.87
469.50	374.49
469.69	433.00
469.87	442.36
470.05	351.08
470.23	390.87
470.41	388.53
470.59	409.59
470.77	409.59
470.95	402.57
471.14	393.21
471.32	444.70
471.50	437.68
471.68	418.96
471.86	428.32
472.04	397.89
472.22	425.98
472.40	407.25
472.58	400.23
472.77	416.62
472.95	435.34
473.13	505.56
473.31	425.98
473.49	390.87
473.67	372.15
473.85	465.77
474.03	442.36
474.21	421.30
474.39	425.98
474.57	454.06
474.75	418.96
474.93	369.80
475.12	381.51
475.30	383.85
475.48	379.17
475.66	386.19
475.84	468.11
476.02	360.44
476.20	397.89
476.38	379.17
476.56	486.83
476.74	411.93
476.92	404.91
477.10	430.66
477.28	440.02
477.46	348.74
477.64	386.19
477.82	374.49
478.00	428.32
478.18	414.27
478.36	437.68
478.54	435.34
478.72	416.62
478.90	376.83
479.08	428.32
479.26	348.74
479.44	362.78
479.62	416.62
479.80	416.62
479.98	397.89
480.16	395.55
480.34	423.64
480.52	404.91
480.70	402.57
480.88	372.15
481.06	440.02
481.24	360.44
481.41	425.98
481.59	430.66
481.77	425.98
481.95	407.25
482.13	400.23
482.31	449.38
482.49	374.49
482.67	433.00
482.85	430.66
483.03	418.96
483.21	463.43
483.39	416.62
483.57	470.45
483.74	428.32
483.92	454.06
484.10	454.06
484.28	468.11
484.46	486.83
484.64	386.19
484.82	423.64
485.00	367.46
485.18	348.74
485.35	388.53
485.53	451.72
485.71	402.57
485.89	376.83
486.07	447.04
486.25	482.15
486.43	449.38
486.61	416.62
486.78	454.06
486.96	433.00
487.14	430.66
487.32	449.38
487.50	407.25
487.68	437.68
487.85	376.83
488.03	447.04
488.21	463.43
488.39	428.32
488.57	470.45
488.75	444.70
488.92	482.15
489.10	472.79
489.28	444.70
489.46	414.27
489.64	409.59
489.81	447.04
489.99	425.98
490.17	421.30
490.35	440.02
490.53	388.53
490.70	416.62
490.88	418.96
491.06	489.17
491.24	451.72
491.41	440.02
491.59	416.62
491.77	472.79
491.95	393.21
492.13	404.91
492.30	374.49
492.48	360.44
492.66	465.77
492.84	433.00
493.01	383.85
493.19	409.59
493.37	475.13
493.54	442.36
493.72	456.40
493.90	397.89
494.08	332.36
494.25	353.42
494.43	437.68
494.61	447.04
494.79	372.15
494.96	393.21
495.14	437.68
495.32	383.85
495.49	440.02
495.67	435.34
495.85	362.78
496.02	423.64
496.20	376.83
496.38	433.00
496.55	409.59
496.73	447.04
496.91	362.78
497.09	414.27
497.26	411.93
497.44	418.96
497.62	353.42
497.79	402.57
497.97	472.79
498.14	383.85
498.32	414.27
498.50	407.25
498.67	372.15
498.85	393.21
499.03	402.57
499.20	358.10
499.38	397.89
499.56	449.38
499.73	447.04
499.91	411.93
500.08	416.62
500.26	365.12
500.44	409.59
500.61	395.55
500.79	369.80
500.97	425.98
501.14	430.66
501.32	456.40
501.49	383.85
501.67	348.74
501.84	472.79
502.02	407.25
502.20	418.96
502.37	348.74
502.55	451.72
502.72	390.87
502.90	433.00
503.07	533.64
503.25	407.25
503.43	421.30
503.60	390.87
503.78	524.28
503.95	402.57
504.13	402.57
504.30	386.19
504.48	489.17
504.65	468.11
504.83	407.25
505.01	409.59
505.18	437.68
505.36	425.98
505.53	430.66
505.71	461.09
505.88	472.79
506.06	360.44
506.23	425.98
506.41	423.64
506.58	358.10
506.76	414.27
506.93	414.27
507.11	346.40
507.28	381.51
507.46	393.21
507.63	454.06
507.81	411.93
507.98	468.11
508.16	397.89
508.33	433.00
508.50	425.98
508.68	379.17
508.85	358.10
509.03	365.12
509.20	407.25
509.38	451.72
509.55	451.72
509.73	409.59
509.90	383.85
510.08	428.32
510.25	416.62
510.42	409.59
510.60	409.59
510.77	437.68
510.95	421.30
511.12	454.06
511.30	376.83
511.47	496.19
511.64	404.91
511.82	393.21
511.99	475.13
512.17	383.85
512.34	388.53
512.51	477.47
512.69	362.78
512.86	428.32
513.04	463.43
513.21	379.17
513.38	341.72
513.56	402.57
513.73	400.23
513.90	428.32
514.08	369.80
514.25	440.02
514.43	388.53
514.60	407.25
514.77	397.89
514.95	442.36
515.12	390.87
515.29	472.79
515.47	440.02
515.64	411.93
515.81	435.34
515.99	404.91
516.16	404.91
516.33	475.13
516.51	440.02
516.68	376.83
516.85	447.04
517.03	376.83
517.20	404.91
517.37	372.15
517.54	435.34
517.72	395.55
517.89	360.44
518.06	416.62
518.24	486.83
518.41	388.53
518.58	390.87
518.75	390.87
518.93	493.85
519.10	425.98
519.27	440.02
519.45	411.93
519.62	367.46
519.79	372.15
519.96	355.76
520.14	353.42
520.31	442.36
520.48	425.98
520.65	404.91
520.83	493.85
521.00	421.30
521.17	449.38
521.34	381.51
521.52	449.38
521.69	388.53
521.86	486.83
522.03	454.06
522.20	423.64
522.38	456.40
522.55	461.09
522.72	435.34
522.89	470.45
523.07	353.42
523.24	374.49
523.41	418.96
523.58	440.02
523.75	397.89
523.92	489.17
524.10	397.89
524.27	440.02
524.44	496.19
524.61	472.79
524.78	475.13
524.96	465.77
525.13	498.53
525.30	472.79
525.47	458.74
525.64	390.87
525.81	414.27
525.98	414.27
526.16	482.15
526.33	423.64
526.50	435.34
526.67	442.36
526.84	379.17
527.01	428.32
527.18	402.57
527.36	374.49
527.53	454.06
527.70	404.91
527.87	402.57
528.04	425.98
528.21	341.72
528.38	416.62
528.55	477.47
528.72	444.70
528.89	442.36
529.07	423.64
529.24	320.65
529.41	491.51
529.58	442.36
529.75	451.72
529.92	440.02
530.09	440.02
530.26	428.32
530.43	416.62
530.60	390.87
530.77	440.02
530.94	435.34
531.11	425.98
531.28	421.30
531.46	379.17
531.63	442.36
531.80	437.68
531.97	531.30
532.14	407.25
532.31	423.64
532.48	423.64
532.65	421.30
532.82	369.80
532.99	442.36
533.16	372.15
533.33	362.78
533.50	365.12
533.67	351.08
533.84	451.72
534.01	409.59
534.18	379.17
534.35	383.85
534.52	447.04
534.69	411.93
534.86	358.10
535.03	461.09
535.20	454.06
535.37	440.02
535.54	400.23
535.71	458.74
535.88	430.66
536.05	346.40
536.22	418.96
536.38	428.32
536.55	493.85
536.72	428.32
536.89	393.21
537.06	433.00
537.23	381.51
537.40	404.91
537.57	447.04
537.74	444.70
537.91	435.34
538.08	369.80
538.25	365.12
538.42	339.38
538.59	498.53
538.75	435.34
538.92	470.45
539.09	414.27
539.26	444.70
539.43	414.27
539.60	479.81
539.77	425.98
539.94	435.34
540.11	479.81
540.28	433.00
540.44	449.38
540.61	404.91
540.78	449.38
540.95	454.06
541.12	409.59
541.29	454.06
541.46	458.74
541.62	428.32
541.79	461.09
541.96	411.93
542.13	390.87
542.30	421.30
542.47	475.13
542.63	503.22
542.80	435.34
542.97	468.11
543.14	400.23
543.31	444.70
543.48	428.32
543.64	456.40
543.81	409.59
543.98	388.53
544.15	404.91
544.32	454.06
544.48	372.15
544.65	421.30
544.82	421.30
544.99	430.66
545.16	451.72
545.32	409.59
545.49	472.79
545.66	416.62
545.83	416.62
546.00	440.02
546.16	353.42
546.33	423.64
546.50	456.40
546.67	465.77
546.83	407.25
547.00	395.55
547.17	388.53
547.34	409.59
547.50	393.21
547.67	381.51
547.84	388.53
548.00	390.87
548.17	414.27
548.34	409.59
548.51	472.79
548.67	409.59
548.84	407.25
549.01	430.66
549.18	390.87
549.34	423.64
549.51	379.17
549.68	421.30
549.84	407.25
550.01	433.00
550.18	533.64
550.34	440.02
550.51	355.76
550.68	414.27
550.84	402.57
551.01	465.77
551.18	435.34
551.34	374.49
551.51	367.46
551.68	447.04
551.84	416.62
552.01	397.89
552.18	456.40
552.34	451.72
552.51	367.46
552.68	463.43
552.84	428.32
553.01	381.51
553.18	381.51
553.34	409.59
553.51	395.55
553.67	402.57
553.84	458.74
554.01	430.66
554.17	379.17
554.34	458.74
554.51	454.06
554.67	458.74
554.84	456.40
555.00	414.27
555.17	461.09
555.33	418.96
555.50	421.30
555.67	458.74
555.83	425.98
556.00	346.40
556.16	472.79
556.33	414.27
556.50	402.57
556.66	425.98
556.83	423.64
556.99	423.64
557.16	425.98
557.32	376.83
557.49	433.00
557.65	423.64
557.82	414.27
557.98	430.66
558.15	400.23
558.32	430.66
558.48	409.59
558.65	365.12
558.81	369.80
558.98	395.55
559.14	528.96
559.31	416.62
559.47	482.15
559.64	430.66
559.80	407.25
559.97	421.30
560.13	388.53
560.30	435.34
560.46	390.87
560.63	421.30
560.79	447.04
560.96	376.83
561.12	351.08
561.29	472.79
561.45	454.06
561.61	430.66
561.78	486.83
561.94	449.38
562.11	418.96
562.27	374.49
562.44	376.83
562.60	416.62
562.77	414.27
562.93	454.06
563.10	383.85
563.26	390.87
563.42	433.00
563.59	451.72
563.75	472.79
563.92	416.62
564.08	416.62
564.24	404.91
564.41	425.98
564.57	428.32
564.74	362.78
564.90	404.91
565.07	407.25
565.23	414.27
565.39	409.59
565.56	360.44
565.72	430.66
565.88	433.00
566.05	404.91
566.21	496.19
566.38	395.55
566.54	372.15
566.70	395.55
566.87	400.23
567.03	435.34
567.19	395.55
567.36	411.93
567.52	381.51
567.68	449.38
567.85	470.45
568.01	390.87
568.17	454.06
568.34	421.30
568.50	468.11
568.66	440.02
568.83	425.98
568.99	402.57
569.15	411.93
569.32	458.74
569.48	461.09
569.64	386.19
569.81	451.72
569.97	505.56
570.13	409.59
570.30	449.38
570.46	411.93
570.62	416.62
570.78	367.46
570.95	414.27
571.11	418.96
571.27	465.77
571.43	358.10
571.60	475.13
571.76	454.06
571.92	409.59
572.09	409.59
572.25	451.72
572.41	418.96
572.57	386.19
572.74	414.27
572.90	414.27
573.06	388.53
573.22	484.49
573.38	393.21
573.55	479.81
573.71	381.51
573.87	409.59
574.03	407.25
574.20	416.62
574.36	514.92
574.52	440.02
574.68	423.64
574.84	482.15
575.01	437.68
575.17	498.53
575.33	433.00
575.49	447.04
575.65	440.02
575.82	423.64
575.98	442.36
576.14	421.30
576.30	440.02
576.46	418.96
576.62	395.55
576.79	425.98
576.95	346.40
577.11	458.74
577.27	411.93
577.43	454.06
577.59	507.90
577.75	442.36
577.92	388.53
578.08	381.51
578.24	411.93
578.40	477.47
578.56	381.51
578.72	397.89
578.88	423.64
579.04	437.68
579.21	416.62
579.37	458.74
579.53	365.12
579.69	430.66
579.85	414.27
580.01	409.59
580.17	402.57
580.33	402.57
580.49	383.85
580.65	390.87
580.82	468.11
580.98	397.89
581.14	376.83
581.30	444.70
581.46	437.68
581.62	472.79
581.78	374.49
581.94	395.55
582.10	423.64
582.26	430.66
582.42	367.46
582.58	407.25
582.74	447.04
582.90	447.04
583.06	463.43
583.22	425.98
583.38	395.55
583.54	402.57
583.70	416.62
583.86	411.93
584.02	390.87
584.18	517.26
584.34	421.30
584.50	458.74
584.66	456.40
584.82	449.38
584.98	440.02
585.14	425.98
585.30	381.51
585.46	402.57
585.62	477.47
585.78	388.53
585.94	411.93
586.10	461.09
586.26	400.23
586.42	463.43
586.58	416.62
586.74	402.57
586.90	418.96
587.06	393.21
587.22	447.04
587.38	418.96
587.54	433.00
587.70	444.70
587.86	449.38
588.02	451.72
588.18	437.68
588.34	456.40
588.49	428.32
588.65	437.68
588.81	421.30
588.97	360.44
589.13	362.78
589.29	421.30
589.45	458.74
589.61	421.30
589.77	447.04
589.93	365.12
590.08	379.17
590.24	416.62
590.40	404.91
590.56	437.68
590.72	407.25
590.88	425.98
591.04	416.62
591.20	334.70
591.35	411.93
591.51	430.66
591.67	430.66
591.83	390.87
591.99	404.91
592.15	418.96
592.31	411.93
592.46	433.00
592.62	437.68
592.78	418.96
592.94	531.30
593.10	451.72
593.26	351.08
593.41	430.66
593.57	423.64
593.73	437.68
593.89	435.34
594.05	416.62
594.20	395.55
594.36	409.59
594.52	444.70
594.68	423.64
594.84	444.70
594.99	442.36
595.15	423.64
595.31	454.06
595.47	437.68
595.62	395.55
595.78	411.93
595.94	393.21
596.10	437.68
596.25	421.30
596.41	414.27
596.57	341.72
596.73	437.68
596.88	435.34
597.04	376.83
597.20	456.40
597.36	461.09
597.51	397.89
597.67	421.30
597.83	435.34
597.99	498.53
598.14	381.51
598.30	411.93
598.46	449.38
598.61	430.66
598.77	444.70
598.93	442.36
599.09	449.38
599.24	449.38
599.40	395.55
599.56	451.72
599.71	409.59
599.87	463.43
600.03	421.30
600.18	355.76
600.34	430.66
600.50	383.85
600.65	418.96
600.81	425.98
600.97	465.77
601.12	393.21
601.28	433.00
601.44	451.72
601.59	383.85
601.75	440.02
601.91	454.06
602.06	433.00
602.22	437.68
602.37	383.85
602.53	428.32
602.69	374.49
602.84	430.66
603.00	465.77
603.16	484.49
603.31	454.06
603.47	397.89
603.62	468.11
603.78	393.21
603.94	470.45
604.09	461.09
604.25	397.89
604.40	383.85
604.56	397.89
604.71	374.49
604.87	362.78
605.03	416.62
605.18	479.81
605.34	409.59
605.49	297.25
605.65	465.77
605.80	430.66
605.96	388.53
606.12	456.40
606.27	444.70
606.43	418.96
606.58	358.10
606.74	442.36
606.89	468.11
607.05	376.83
607.20	358.10
607.36	418.96
607.51	393.21
607.67	386.19
607.82	334.70
607.98	435.34
608.13	421.30
608.29	337.04
608.44	486.83
608.60	390.87
608.75	437.68
608.91	372.15
609.06	475.13
609.22	440.02
609.37	411.93
609.53	407.25
609.68	369.80
609.84	381.51
609.99	400.23
610.15	411.93
