SpectraSuite Data File
++++++++++++++++++++++++++++++++++++
Date: Fri Oct 25 12:10:53 EDT 2013
User: price-jones
Dark Spectrum Present: No
Reference Spectrum Present: No
Number of Sampled Component Spectra: 1
Spectrometers: USB2+H05261
Integration Time (usec): 100000 (USB2+H05261)
Spectra Averaged: 1 (USB2+H05261)
Boxcar Smoothing: 0 (USB2+H05261)
Correct for Electrical Dark: No (USB2+H05261)
Strobe/Lamp Enabled: No (USB2+H05261)
Correct for Detector Non-linearity: No (USB2+H05261)
Correct for Stray Light: No (USB2+H05261)
Number of Pixels in Processed Spectrum: 2048
>>>>>Begin Processed Spectral Data<<<<<
365.73	299.59
365.92	299.59
366.12	299.59
366.32	290.23
366.52	248.10
366.72	145.11
366.91	215.33
367.11	245.76
367.31	196.60
367.51	280.86
367.70	194.26
367.90	257.46
368.10	269.16
368.30	285.55
368.49	166.18
368.69	320.65
368.89	241.08
369.09	180.22
369.28	278.52
369.48	266.82
369.68	280.86
369.87	308.95
370.07	278.52
370.27	365.12
370.47	252.78
370.66	367.46
370.86	304.27
371.06	407.25
371.25	400.23
371.45	306.61
371.65	337.04
371.84	409.59
372.04	367.46
372.24	433.00
372.44	414.27
372.63	416.62
372.83	407.25
373.03	376.83
373.22	388.53
373.42	437.68
373.62	360.44
373.81	376.83
374.01	332.36
374.21	456.40
374.40	390.87
374.60	449.38
374.79	402.57
374.99	369.80
375.19	428.32
375.38	330.02
375.58	388.53
375.78	404.91
375.97	397.89
376.17	339.38
376.37	428.32
376.56	475.13
376.76	351.08
376.95	381.51
377.15	454.06
377.35	456.40
377.54	479.81
377.74	444.70
377.93	367.46
378.13	418.96
378.33	519.60
378.52	442.36
378.72	414.27
378.91	404.91
379.11	407.25
379.31	444.70
379.50	414.27
379.70	451.72
379.89	360.44
380.09	411.93
380.28	404.91
380.48	376.83
380.68	402.57
380.87	379.17
381.07	383.85
381.26	423.64
381.46	348.74
381.65	425.98
381.85	414.27
382.04	376.83
382.24	430.66
382.43	416.62
382.63	456.40
382.83	477.47
383.02	407.25
383.22	355.76
383.41	365.12
383.61	402.57
383.80	510.24
384.00	440.02
384.19	386.19
384.39	365.12
384.58	454.06
384.78	379.17
384.97	360.44
385.17	423.64
385.36	367.46
385.56	444.70
385.75	390.87
385.95	383.85
386.14	444.70
386.34	437.68
386.53	447.04
386.72	397.89
386.92	442.36
387.11	395.55
387.31	423.64
387.50	423.64
387.70	407.25
387.89	386.19
388.09	379.17
388.28	353.42
388.48	383.85
388.67	409.59
388.86	414.27
389.06	418.96
389.25	400.23
389.45	372.15
389.64	465.77
389.84	379.17
390.03	388.53
390.22	444.70
390.42	423.64
390.61	381.51
390.81	372.15
391.00	414.27
391.19	390.87
391.39	477.47
391.58	334.70
391.78	430.66
391.97	425.98
392.16	344.06
392.36	416.62
392.55	456.40
392.75	337.04
392.94	369.80
393.13	360.44
393.33	409.59
393.52	379.17
393.71	407.25
393.91	425.98
394.10	423.64
394.29	353.42
394.49	444.70
394.68	355.76
394.88	552.37
395.07	449.38
395.26	418.96
395.46	463.43
395.65	421.30
395.84	404.91
396.04	423.64
396.23	337.04
396.42	390.87
396.62	407.25
396.81	430.66
397.00	423.64
397.19	353.42
397.39	362.78
397.58	404.91
397.77	365.12
397.97	372.15
398.16	463.43
398.35	440.02
398.55	414.27
398.74	418.96
398.93	449.38
399.12	449.38
399.32	388.53
399.51	397.89
399.70	423.64
399.90	318.31
400.09	346.40
400.28	341.72
400.47	327.68
400.67	365.12
400.86	421.30
401.05	390.87
401.24	374.49
401.44	362.78
401.63	421.30
401.82	449.38
402.01	407.25
402.21	367.46
402.40	425.98
402.59	376.83
402.78	376.83
402.97	365.12
403.17	344.06
403.36	404.91
403.55	418.96
403.74	440.02
403.93	346.40
404.13	374.49
404.32	341.72
404.51	372.15
404.70	454.06
404.89	442.36
405.09	430.66
405.28	421.30
405.47	440.02
405.66	407.25
405.85	456.40
406.05	369.80
406.24	400.23
406.43	435.34
406.62	430.66
406.81	449.38
407.00	440.02
407.20	407.25
407.39	390.87
407.58	388.53
407.77	456.40
407.96	454.06
408.15	433.00
408.34	430.66
408.54	425.98
408.73	411.93
408.92	365.12
409.11	388.53
409.30	470.45
409.49	425.98
409.68	383.85
409.87	393.21
410.07	308.95
410.26	358.10
410.45	360.44
410.64	351.08
410.83	433.00
411.02	374.49
411.21	404.91
411.40	397.89
411.59	372.15
411.78	379.17
411.98	500.87
412.17	362.78
412.36	425.98
412.55	433.00
412.74	418.96
412.93	477.47
413.12	465.77
413.31	472.79
413.50	414.27
413.69	393.21
413.88	430.66
414.07	381.51
414.26	440.02
414.45	430.66
414.64	379.17
414.83	447.04
415.02	344.06
415.22	376.83
415.41	444.70
415.60	388.53
415.79	353.42
415.98	433.00
416.17	407.25
416.36	435.34
416.55	344.06
416.74	390.87
416.93	374.49
417.12	344.06
417.31	449.38
417.50	369.80
417.69	416.62
417.88	475.13
418.07	411.93
418.26	339.38
418.45	379.17
418.64	486.83
418.83	416.62
419.02	491.51
419.21	360.44
419.39	376.83
419.58	428.32
419.77	418.96
419.96	411.93
420.15	423.64
420.34	414.27
420.53	498.53
420.72	390.87
420.91	369.80
421.10	414.27
421.29	477.47
421.48	416.62
421.67	395.55
421.86	360.44
422.05	383.85
422.24	341.72
422.43	411.93
422.61	433.00
422.80	372.15
422.99	418.96
423.18	404.91
423.37	418.96
423.56	449.38
423.75	458.74
423.94	402.57
424.13	484.49
424.32	461.09
424.50	386.19
424.69	283.20
424.88	372.15
425.07	433.00
425.26	458.74
425.45	423.64
425.64	360.44
425.83	416.62
426.01	437.68
426.20	421.30
426.39	433.00
426.58	374.49
426.77	411.93
426.96	465.77
427.15	383.85
427.33	397.89
427.52	374.49
427.71	416.62
427.90	470.45
428.09	381.51
428.28	416.62
428.46	390.87
428.65	381.51
428.84	374.49
429.03	463.43
429.22	411.93
429.40	414.27
429.59	496.19
429.78	442.36
429.97	367.46
430.16	463.43
430.34	444.70
430.53	493.85
430.72	421.30
430.91	456.40
431.10	367.46
431.28	409.59
431.47	456.40
431.66	353.42
431.85	416.62
432.03	465.77
432.22	435.34
432.41	505.56
432.60	437.68
432.79	418.96
432.97	390.87
433.16	433.00
433.35	428.32
433.54	428.32
433.72	430.66
433.91	430.66
434.10	418.96
434.28	411.93
434.47	407.25
434.66	372.15
434.85	416.62
435.03	433.00
435.22	484.49
435.41	433.00
435.59	386.19
435.78	451.72
435.97	369.80
436.16	458.74
436.34	407.25
436.53	395.55
436.72	433.00
436.90	423.64
437.09	451.72
437.28	369.80
437.46	416.62
437.65	430.66
437.84	437.68
438.02	421.30
438.21	465.77
438.40	411.93
438.58	390.87
438.77	423.64
438.96	369.80
439.14	381.51
439.33	423.64
439.52	472.79
439.70	416.62
439.89	444.70
440.08	418.96
440.26	348.74
440.45	393.21
440.63	404.91
440.82	442.36
441.01	433.00
441.19	409.59
441.38	433.00
441.57	348.74
441.75	353.42
441.94	411.93
442.12	482.15
442.31	433.00
442.50	421.30
442.68	390.87
442.87	365.12
443.05	468.11
443.24	395.55
443.43	447.04
443.61	454.06
443.80	308.95
443.98	301.93
444.17	355.76
444.35	472.79
444.54	383.85
444.73	360.44
444.91	421.30
445.10	374.49
445.28	465.77
445.47	351.08
445.65	365.12
445.84	486.83
446.02	409.59
446.21	386.19
446.39	397.89
446.58	411.93
446.77	383.85
446.95	425.98
447.14	383.85
447.32	437.68
447.51	325.33
447.69	482.15
447.88	484.49
448.06	524.28
448.25	383.85
448.43	418.96
448.62	360.44
448.80	451.72
448.99	425.98
449.17	395.55
449.36	484.49
449.54	416.62
449.73	425.98
449.91	416.62
450.10	444.70
450.28	381.51
450.46	428.32
450.65	463.43
450.83	414.27
451.02	414.27
451.20	442.36
451.39	393.21
451.57	425.98
451.76	388.53
451.94	454.06
452.13	388.53
452.31	435.34
452.49	414.27
452.68	433.00
452.86	367.46
453.05	428.32
453.23	348.74
453.42	421.30
453.60	449.38
453.78	346.40
453.97	292.57
454.15	435.34
454.34	376.83
454.52	430.66
454.70	395.55
454.89	496.19
455.07	411.93
455.26	402.57
455.44	468.11
455.62	358.10
455.81	425.98
455.99	397.89
456.17	409.59
456.36	486.83
456.54	442.36
456.73	440.02
456.91	423.64
457.09	491.51
457.28	430.66
457.46	411.93
457.64	418.96
457.83	411.93
458.01	425.98
458.19	463.43
458.38	369.80
458.56	383.85
458.74	475.13
458.93	381.51
459.11	433.00
459.29	346.40
459.48	449.38
459.66	416.62
459.84	407.25
460.03	449.38
460.21	447.04
460.39	496.19
460.57	414.27
460.76	337.04
460.94	437.68
461.12	503.22
461.31	461.09
461.49	451.72
461.67	407.25
461.85	376.83
462.04	418.96
462.22	706.84
462.40	379.17
462.59	414.27
462.77	362.78
462.95	353.42
463.13	397.89
463.32	447.04
463.50	409.59
463.68	367.46
463.86	367.46
464.05	433.00
464.23	451.72
464.41	454.06
464.59	390.87
464.78	416.62
464.96	421.30
465.14	374.49
465.32	409.59
465.50	468.11
465.69	390.87
465.87	379.17
466.05	362.78
466.23	390.87
466.41	458.74
466.60	402.57
466.78	351.08
466.96	489.17
467.14	423.64
467.32	440.02
467.51	428.32
467.69	376.83
467.87	472.79
468.05	465.77
468.23	397.89
468.41	468.11
468.60	463.43
468.78	423.64
468.96	456.40
469.14	461.09
469.32	374.49
469.50	402.57
469.69	489.17
469.87	418.96
470.05	379.17
470.23	486.83
470.41	358.10
470.59	411.93
470.77	369.80
470.95	458.74
471.14	414.27
471.32	435.34
471.50	440.02
471.68	437.68
471.86	397.89
472.04	414.27
472.22	388.53
472.40	379.17
472.58	393.21
472.77	425.98
472.95	365.12
473.13	435.34
473.31	402.57
473.49	425.98
473.67	418.96
473.85	379.17
474.03	465.77
474.21	411.93
474.39	374.49
474.57	414.27
474.75	390.87
474.93	411.93
475.12	444.70
475.30	421.30
475.48	353.42
475.66	433.00
475.84	379.17
476.02	437.68
476.20	451.72
476.38	430.66
476.56	489.17
476.74	425.98
476.92	425.98
477.10	402.57
477.28	475.13
477.46	433.00
477.64	390.87
477.82	449.38
478.00	449.38
478.18	390.87
478.36	365.12
478.54	414.27
478.72	421.30
478.90	421.30
479.08	416.62
479.26	423.64
479.44	447.04
479.62	390.87
479.80	461.09
479.98	444.70
480.16	444.70
480.34	402.57
480.52	465.77
480.70	418.96
480.88	407.25
481.06	358.10
481.24	365.12
481.41	404.91
481.59	358.10
481.77	341.72
481.95	402.57
482.13	484.49
482.31	421.30
482.49	367.46
482.67	360.44
482.85	458.74
483.03	465.77
483.21	341.72
483.39	372.15
483.57	425.98
483.74	463.43
483.92	388.53
484.10	404.91
484.28	456.40
484.46	416.62
484.64	407.25
484.82	430.66
485.00	372.15
485.18	395.55
485.35	437.68
485.53	440.02
485.71	414.27
485.89	411.93
486.07	433.00
486.25	414.27
486.43	475.13
486.61	430.66
486.78	430.66
486.96	463.43
487.14	308.95
487.32	337.04
487.50	376.83
487.68	393.21
487.85	428.32
488.03	447.04
488.21	430.66
488.39	383.85
488.57	388.53
488.75	472.79
488.92	486.83
489.10	484.49
489.28	404.91
489.46	451.72
489.64	454.06
489.81	425.98
489.99	362.78
490.17	320.65
490.35	458.74
490.53	395.55
490.70	411.93
490.88	458.74
491.06	372.15
491.24	489.17
491.41	477.47
491.59	376.83
491.77	421.30
491.95	397.89
492.13	421.30
492.30	388.53
492.48	409.59
492.66	397.89
492.84	449.38
493.01	400.23
493.19	444.70
493.37	500.87
493.54	470.45
493.72	416.62
493.90	402.57
494.08	416.62
494.25	451.72
494.43	454.06
494.61	407.25
494.79	454.06
494.96	409.59
495.14	475.13
495.32	360.44
495.49	454.06
495.67	428.32
495.85	435.34
496.02	433.00
496.20	433.00
496.38	404.91
496.55	496.19
496.73	486.83
496.91	383.85
497.09	411.93
497.26	383.85
497.44	407.25
497.62	376.83
497.79	374.49
497.97	421.30
498.14	409.59
498.32	430.66
498.50	425.98
498.67	409.59
498.85	425.98
499.03	423.64
499.20	351.08
499.38	423.64
499.56	367.46
499.73	425.98
499.91	400.23
500.08	454.06
500.26	400.23
500.44	451.72
500.61	449.38
500.79	442.36
500.97	423.64
501.14	372.15
501.32	423.64
501.49	386.19
501.67	369.80
501.84	444.70
502.02	376.83
502.20	477.47
502.37	416.62
502.55	383.85
502.72	353.42
502.90	348.74
503.07	447.04
503.25	411.93
503.43	397.89
503.60	500.87
503.78	397.89
503.95	334.70
504.13	402.57
504.30	477.47
504.48	421.30
504.65	477.47
504.83	428.32
505.01	430.66
505.18	411.93
505.36	428.32
505.53	489.17
505.71	411.93
505.88	463.43
506.06	458.74
506.23	454.06
506.41	376.83
506.58	451.72
506.76	379.17
506.93	330.02
507.11	472.79
507.28	395.55
507.46	416.62
507.63	414.27
507.81	374.49
507.98	496.19
508.16	505.56
508.33	360.44
508.50	451.72
508.68	411.93
508.85	421.30
509.03	362.78
509.20	425.98
509.38	454.06
509.55	369.80
509.73	409.59
509.90	437.68
510.08	425.98
510.25	386.19
510.42	442.36
510.60	397.89
510.77	330.02
510.95	489.17
511.12	383.85
511.30	465.77
511.47	362.78
511.64	477.47
511.82	337.04
511.99	451.72
512.17	379.17
512.34	477.47
512.51	381.51
512.69	465.77
512.86	449.38
513.04	402.57
513.21	416.62
513.38	367.46
513.56	451.72
513.73	386.19
513.90	379.17
514.08	482.15
514.25	433.00
514.43	414.27
514.60	500.87
514.77	423.64
514.95	444.70
515.12	376.83
515.29	444.70
515.47	381.51
515.64	463.43
515.81	440.02
515.99	449.38
516.16	425.98
516.33	390.87
516.51	397.89
516.68	372.15
516.85	411.93
517.03	414.27
517.20	425.98
517.37	344.06
517.54	421.30
517.72	430.66
517.89	409.59
518.06	404.91
518.24	463.43
518.41	458.74
518.58	428.32
518.75	353.42
518.93	435.34
519.10	472.79
519.27	472.79
519.45	409.59
519.62	442.36
519.79	451.72
519.96	435.34
520.14	414.27
520.31	463.43
520.48	409.59
520.65	421.30
520.83	372.15
521.00	472.79
521.17	484.49
521.34	423.64
521.52	463.43
521.69	362.78
521.86	447.04
522.03	454.06
522.20	461.09
522.38	414.27
522.55	407.25
522.72	332.36
522.89	465.77
523.07	461.09
523.24	353.42
523.41	437.68
523.58	351.08
523.75	402.57
523.92	416.62
524.10	425.98
524.27	330.02
524.44	390.87
524.61	430.66
524.78	421.30
524.96	442.36
525.13	423.64
525.30	442.36
525.47	435.34
525.64	435.34
525.81	468.11
525.98	491.51
526.16	400.23
526.33	372.15
526.50	320.65
526.67	374.49
526.84	489.17
527.01	475.13
527.18	482.15
527.36	447.04
527.53	358.10
527.70	491.51
527.87	430.66
528.04	454.06
528.21	430.66
528.38	362.78
528.55	435.34
528.72	465.77
528.89	451.72
529.07	430.66
529.24	372.15
529.41	414.27
529.58	442.36
529.75	435.34
529.92	407.25
530.09	393.21
530.26	402.57
530.43	407.25
530.60	421.30
530.77	430.66
530.94	421.30
531.11	400.23
531.28	444.70
531.46	388.53
531.63	388.53
531.80	479.81
531.97	367.46
532.14	505.56
532.31	496.19
532.48	437.68
532.65	390.87
532.82	421.30
532.99	433.00
533.16	437.68
533.33	409.59
533.50	442.36
533.67	386.19
533.84	449.38
534.01	383.85
534.18	351.08
534.35	421.30
534.52	449.38
534.69	358.10
534.86	433.00
535.03	479.81
535.20	451.72
535.37	402.57
535.54	489.17
535.71	425.98
535.88	451.72
536.05	463.43
536.22	465.77
536.38	397.89
536.55	496.19
536.72	409.59
536.89	348.74
537.06	479.81
537.23	449.38
537.40	442.36
537.57	360.44
537.74	451.72
537.91	425.98
538.08	376.83
538.25	440.02
538.42	409.59
538.59	402.57
538.75	369.80
538.92	421.30
539.09	507.90
539.26	449.38
539.43	470.45
539.60	449.38
539.77	409.59
539.94	404.91
540.11	388.53
540.28	440.02
540.44	477.47
540.61	383.85
540.78	411.93
540.95	433.00
541.12	421.30
541.29	346.40
541.46	461.09
541.62	379.17
541.79	435.34
541.96	404.91
542.13	430.66
542.30	383.85
542.47	435.34
542.63	444.70
542.80	472.79
542.97	437.68
543.14	447.04
543.31	440.02
543.48	500.87
543.64	465.77
543.81	381.51
543.98	376.83
544.15	510.24
544.32	451.72
544.48	404.91
544.65	435.34
544.82	416.62
544.99	367.46
545.16	416.62
545.32	402.57
545.49	444.70
545.66	409.59
545.83	477.47
546.00	468.11
546.16	444.70
546.33	400.23
546.50	449.38
546.67	475.13
546.83	423.64
547.00	451.72
547.17	407.25
547.34	332.36
547.50	470.45
547.67	437.68
547.84	400.23
548.00	493.85
548.17	472.79
548.34	411.93
548.51	425.98
548.67	451.72
548.84	458.74
549.01	402.57
549.18	489.17
549.34	390.87
549.51	435.34
549.68	423.64
549.84	409.59
550.01	365.12
550.18	454.06
550.34	477.47
550.51	381.51
550.68	470.45
550.84	414.27
551.01	433.00
551.18	435.34
551.34	409.59
551.51	418.96
551.68	414.27
551.84	449.38
552.01	400.23
552.18	397.89
552.34	493.85
552.51	447.04
552.68	414.27
552.84	425.98
553.01	402.57
553.18	425.98
553.34	369.80
553.51	346.40
553.67	409.59
553.84	456.40
554.01	451.72
554.17	447.04
554.34	365.12
554.51	444.70
554.67	437.68
554.84	397.89
555.00	456.40
555.17	444.70
555.33	456.40
555.50	407.25
555.67	390.87
555.83	409.59
556.00	376.83
556.16	524.28
556.33	507.90
556.50	454.06
556.66	451.72
556.83	440.02
556.99	407.25
557.16	414.27
557.32	507.90
557.49	416.62
557.65	388.53
557.82	440.02
557.98	440.02
558.15	461.09
558.32	395.55
558.48	430.66
558.65	409.59
558.81	390.87
558.98	458.74
559.14	395.55
559.31	344.06
559.47	451.72
559.64	360.44
559.80	437.68
559.97	344.06
560.13	386.19
560.30	409.59
560.46	400.23
560.63	435.34
560.79	367.46
560.96	491.51
561.12	416.62
561.29	404.91
561.45	383.85
561.61	407.25
561.78	477.47
561.94	397.89
562.11	334.70
562.27	514.92
562.44	421.30
562.60	456.40
562.77	435.34
562.93	409.59
563.10	470.45
563.26	402.57
563.42	381.51
563.59	402.57
563.75	428.32
563.92	430.66
564.08	416.62
564.24	411.93
564.41	505.56
564.57	428.32
564.74	397.89
564.90	397.89
565.07	430.66
565.23	456.40
565.39	407.25
565.56	468.11
565.72	451.72
565.88	362.78
566.05	444.70
566.21	381.51
566.38	442.36
566.54	449.38
566.70	381.51
566.87	358.10
567.03	484.49
567.19	369.80
567.36	421.30
567.52	400.23
567.68	449.38
567.85	433.00
568.01	395.55
568.17	433.00
568.34	447.04
568.50	430.66
568.66	372.15
568.83	433.00
568.99	379.17
569.15	456.40
569.32	390.87
569.48	421.30
569.64	423.64
569.81	393.21
569.97	395.55
570.13	447.04
570.30	423.64
570.46	435.34
570.62	355.76
570.78	437.68
570.95	421.30
571.11	418.96
571.27	524.28
571.43	306.61
571.60	414.27
571.76	383.85
571.92	479.81
572.09	433.00
572.25	411.93
572.41	393.21
572.57	435.34
572.74	449.38
572.90	437.68
573.06	400.23
573.22	362.78
573.38	411.93
573.55	374.49
573.71	430.66
573.87	477.47
574.03	404.91
574.20	367.46
574.36	435.34
574.52	407.25
574.68	397.89
574.84	414.27
575.01	379.17
575.17	456.40
575.33	456.40
575.49	433.00
575.65	411.93
575.82	374.49
575.98	416.62
576.14	418.96
576.30	381.51
576.46	407.25
576.62	400.23
576.79	393.21
576.95	404.91
577.11	430.66
577.27	407.25
577.43	414.27
577.59	437.68
577.75	458.74
577.92	486.83
578.08	477.47
578.24	388.53
578.40	451.72
578.56	482.15
578.72	414.27
578.88	521.94
579.04	472.79
579.21	440.02
579.37	332.36
579.53	400.23
579.69	468.11
579.85	369.80
580.01	423.64
580.17	437.68
580.33	423.64
580.49	397.89
580.65	390.87
580.82	449.38
580.98	360.44
581.14	437.68
581.30	388.53
581.46	440.02
581.62	423.64
581.78	351.08
581.94	425.98
582.10	421.30
582.26	388.53
582.42	416.62
582.58	421.30
582.74	430.66
582.90	461.09
583.06	477.47
583.22	390.87
583.38	491.51
583.54	421.30
583.70	449.38
583.86	423.64
584.02	463.43
584.18	449.38
584.34	451.72
584.50	411.93
584.66	433.00
584.82	458.74
584.98	374.49
585.14	430.66
585.30	447.04
585.46	430.66
585.62	407.25
585.78	348.74
585.94	383.85
586.10	402.57
586.26	416.62
586.42	461.09
586.58	423.64
586.74	379.17
586.90	517.26
587.06	442.36
587.22	367.46
587.38	414.27
587.54	388.53
587.70	472.79
587.86	409.59
588.02	451.72
588.18	484.49
588.34	458.74
588.49	388.53
588.65	416.62
588.81	402.57
588.97	414.27
589.13	421.30
589.29	437.68
589.45	507.90
589.61	411.93
589.77	440.02
589.93	402.57
590.08	440.02
590.24	435.34
590.40	411.93
590.56	442.36
590.72	428.32
590.88	407.25
591.04	390.87
591.20	397.89
591.35	428.32
591.51	421.30
591.67	435.34
591.83	449.38
591.99	472.79
592.15	437.68
592.31	341.72
592.46	407.25
592.62	538.32
592.78	397.89
592.94	393.21
593.10	451.72
593.26	376.83
593.41	461.09
593.57	463.43
593.73	395.55
593.89	425.98
594.05	421.30
594.20	442.36
594.36	376.83
594.52	428.32
594.68	348.74
594.84	461.09
594.99	489.17
595.15	440.02
595.31	503.22
595.47	444.70
595.62	379.17
595.78	423.64
595.94	390.87
596.10	454.06
596.25	372.15
596.41	393.21
596.57	346.40
596.73	393.21
596.88	435.34
597.04	444.70
597.20	376.83
597.36	470.45
597.51	418.96
597.67	444.70
597.83	379.17
597.99	416.62
598.14	447.04
598.30	484.49
598.46	411.93
598.61	538.32
598.77	425.98
598.93	362.78
599.09	433.00
599.24	425.98
599.40	428.32
599.56	374.49
599.71	383.85
599.87	444.70
600.03	376.83
600.18	409.59
600.34	503.22
600.50	418.96
600.65	472.79
600.81	433.00
600.97	437.68
601.12	437.68
601.28	402.57
601.44	428.32
601.59	472.79
601.75	416.62
601.91	397.89
602.06	440.02
602.22	435.34
602.37	372.15
602.53	404.91
602.69	489.17
602.84	437.68
603.00	372.15
603.16	388.53
603.31	407.25
603.47	463.43
603.62	428.32
603.78	428.32
603.94	449.38
604.09	491.51
604.25	404.91
604.40	418.96
604.56	381.51
604.71	430.66
604.87	395.55
605.03	395.55
605.18	341.72
605.34	447.04
605.49	442.36
605.65	395.55
605.80	421.30
605.96	355.76
606.12	388.53
606.27	423.64
606.43	400.23
606.58	407.25
606.74	376.83
606.89	477.47
607.05	461.09
607.20	454.06
607.36	393.21
607.51	418.96
607.67	433.00
607.82	440.02
607.98	437.68
608.13	330.02
608.29	437.68
608.44	418.96
608.60	395.55
608.75	491.51
608.91	421.30
609.06	447.04
609.22	411.93
609.37	423.64
609.53	393.21
609.68	477.47
609.84	390.87
609.99	456.40
610.15	503.22
