SpectraSuite Data File
++++++++++++++++++++++++++++++++++++
Date: Fri Oct 25 12:10:19 EDT 2013
User: price-jones
Dark Spectrum Present: No
Reference Spectrum Present: No
Number of Sampled Component Spectra: 1
Spectrometers: USB2+H05261
Integration Time (usec): 100000 (USB2+H05261)
Spectra Averaged: 1 (USB2+H05261)
Boxcar Smoothing: 0 (USB2+H05261)
Correct for Electrical Dark: No (USB2+H05261)
Strobe/Lamp Enabled: No (USB2+H05261)
Correct for Detector Non-linearity: No (USB2+H05261)
Correct for Stray Light: No (USB2+H05261)
Number of Pixels in Processed Spectrum: 2048
>>>>>Begin Processed Spectral Data<<<<<
365.73	348.74
365.92	348.74
366.12	348.74
366.32	299.59
366.52	245.76
366.72	227.03
366.91	222.35
367.11	245.76
367.31	273.84
367.51	269.16
367.70	236.39
367.90	196.60
368.10	250.44
368.30	273.84
368.49	255.12
368.69	259.80
368.89	266.82
369.09	252.78
369.28	269.16
369.48	234.05
369.68	205.97
369.87	278.52
370.07	297.25
370.27	322.99
370.47	365.12
370.66	379.17
370.86	367.46
371.06	381.51
371.25	351.08
371.45	395.55
371.65	271.50
371.84	236.39
372.04	372.15
372.24	376.83
372.44	334.70
372.63	407.25
372.83	327.68
373.03	435.34
373.22	423.64
373.42	416.62
373.62	388.53
373.81	381.51
374.01	451.72
374.21	421.30
374.40	468.11
374.60	468.11
374.79	493.85
374.99	428.32
375.19	409.59
375.38	397.89
375.58	468.11
375.78	428.32
375.97	425.98
376.17	477.47
376.37	341.72
376.56	465.77
376.76	444.70
376.95	379.17
377.15	407.25
377.35	395.55
377.54	383.85
377.74	423.64
377.93	369.80
378.13	358.10
378.33	376.83
378.52	393.21
378.72	470.45
378.91	500.87
379.11	386.19
379.31	372.15
379.50	447.04
379.70	423.64
379.89	433.00
380.09	423.64
380.28	428.32
380.48	421.30
380.68	386.19
380.87	383.85
381.07	430.66
381.26	416.62
381.46	348.74
381.65	358.10
381.85	330.02
382.04	416.62
382.24	416.62
382.43	379.17
382.63	397.89
382.83	388.53
383.02	414.27
383.22	393.21
383.41	407.25
383.61	482.15
383.80	461.09
384.00	395.55
384.19	416.62
384.39	465.77
384.58	414.27
384.78	449.38
384.97	344.06
385.17	355.76
385.36	456.40
385.56	493.85
385.75	348.74
385.95	374.49
386.14	390.87
386.34	409.59
386.53	393.21
386.72	379.17
386.92	388.53
387.11	444.70
387.31	402.57
387.50	365.12
387.70	388.53
387.89	421.30
388.09	376.83
388.28	418.96
388.48	369.80
388.67	451.72
388.86	395.55
389.06	409.59
389.25	416.62
389.45	400.23
389.64	489.17
389.84	465.77
390.03	428.32
390.22	395.55
390.42	440.02
390.61	365.12
390.81	369.80
391.00	425.98
391.19	425.98
391.39	409.59
391.58	425.98
391.78	414.27
391.97	500.87
392.16	397.89
392.36	451.72
392.55	442.36
392.75	404.91
392.94	428.32
393.13	440.02
393.33	388.53
393.52	409.59
393.71	437.68
393.91	348.74
394.10	402.57
394.29	421.30
394.49	390.87
394.68	465.77
394.88	428.32
395.07	411.93
395.26	416.62
395.46	409.59
395.65	386.19
395.84	390.87
396.04	440.02
396.23	367.46
396.42	372.15
396.62	456.40
396.81	379.17
397.00	400.23
397.19	468.11
397.39	360.44
397.58	435.34
397.77	344.06
397.97	362.78
398.16	425.98
398.35	423.64
398.55	393.21
398.74	414.27
398.93	400.23
399.12	386.19
399.32	355.76
399.51	318.31
399.70	400.23
399.90	372.15
400.09	468.11
400.28	414.27
400.47	407.25
400.67	400.23
400.86	379.17
401.05	505.56
401.24	435.34
401.44	425.98
401.63	400.23
401.82	355.76
402.01	372.15
402.21	365.12
402.40	397.89
402.59	376.83
402.78	409.59
402.97	362.78
403.17	425.98
403.36	386.19
403.55	414.27
403.74	440.02
403.93	437.68
404.13	397.89
404.32	402.57
404.51	294.91
404.70	430.66
404.89	365.12
405.09	454.06
405.28	388.53
405.47	337.04
405.66	430.66
405.85	381.51
406.05	437.68
406.24	369.80
406.43	428.32
406.62	435.34
406.81	416.62
407.00	425.98
407.20	423.64
407.39	383.85
407.58	388.53
407.77	407.25
407.96	437.68
408.15	390.87
408.34	465.77
408.54	372.15
408.73	461.09
408.92	369.80
409.11	311.29
409.30	461.09
409.49	421.30
409.68	397.89
409.87	381.51
410.07	334.70
410.26	458.74
410.45	374.49
410.64	355.76
410.83	449.38
411.02	400.23
411.21	409.59
411.40	402.57
411.59	414.27
411.78	444.70
411.98	442.36
412.17	369.80
412.36	400.23
412.55	475.13
412.74	386.19
412.93	454.06
413.12	407.25
413.31	418.96
413.50	433.00
413.69	358.10
413.88	428.32
414.07	437.68
414.26	430.66
414.45	444.70
414.64	372.15
414.83	465.77
415.02	442.36
415.22	421.30
415.41	416.62
415.60	386.19
415.79	463.43
415.98	414.27
416.17	367.46
416.36	428.32
416.55	463.43
416.74	400.23
416.93	360.44
417.12	381.51
417.31	444.70
417.50	388.53
417.69	435.34
417.88	376.83
418.07	428.32
418.26	418.96
418.45	372.15
418.64	442.36
418.83	411.93
419.02	456.40
419.21	486.83
419.39	456.40
419.58	344.06
419.77	397.89
419.96	437.68
420.15	458.74
420.34	442.36
420.53	381.51
420.72	376.83
420.91	421.30
421.10	416.62
421.29	374.49
421.48	409.59
421.67	416.62
421.86	433.00
422.05	388.53
422.24	416.62
422.43	355.76
422.61	374.49
422.80	418.96
422.99	470.45
423.18	447.04
423.37	470.45
423.56	418.96
423.75	390.87
423.94	381.51
424.13	395.55
424.32	393.21
424.50	454.06
424.69	397.89
424.88	414.27
425.07	402.57
425.26	475.13
425.45	468.11
425.64	332.36
425.83	430.66
426.01	372.15
426.20	341.72
426.39	339.38
426.58	414.27
426.77	407.25
426.96	400.23
427.15	425.98
427.33	374.49
427.52	372.15
427.71	397.89
427.90	351.08
428.09	440.02
428.28	367.46
428.46	461.09
428.65	428.32
428.84	437.68
429.03	416.62
429.22	435.34
429.40	400.23
429.59	444.70
429.78	449.38
429.97	468.11
430.16	430.66
430.34	416.62
430.53	381.51
430.72	526.62
430.91	379.17
431.10	407.25
431.28	376.83
431.47	454.06
431.66	414.27
431.85	423.64
432.03	491.51
432.22	475.13
432.41	386.19
432.60	440.02
432.79	369.80
432.97	383.85
433.16	421.30
433.35	433.00
433.54	393.21
433.72	416.62
433.91	400.23
434.10	362.78
434.28	468.11
434.47	430.66
434.66	411.93
434.85	482.15
435.03	287.89
435.22	449.38
435.41	409.59
435.59	447.04
435.78	379.17
435.97	451.72
436.16	411.93
436.34	416.62
436.53	449.38
436.72	479.81
436.90	433.00
437.09	418.96
437.28	437.68
437.46	374.49
437.65	383.85
437.84	416.62
438.02	430.66
438.21	484.49
438.40	440.02
438.58	447.04
438.77	400.23
438.96	388.53
439.14	365.12
439.33	393.21
439.52	444.70
439.70	407.25
439.89	435.34
440.08	407.25
440.26	325.33
440.45	444.70
440.63	470.45
440.82	468.11
441.01	430.66
441.19	425.98
441.38	479.81
441.57	360.44
441.75	449.38
441.94	386.19
442.12	411.93
442.31	421.30
442.50	404.91
442.68	430.66
442.87	451.72
443.05	444.70
443.24	402.57
443.43	414.27
443.61	416.62
443.80	421.30
443.98	437.68
444.17	458.74
444.35	353.42
444.54	454.06
444.73	456.40
444.91	414.27
445.10	430.66
445.28	369.80
445.47	376.83
445.65	433.00
445.84	470.45
446.02	503.22
446.21	376.83
446.39	416.62
446.58	416.62
446.77	430.66
446.95	383.85
447.14	416.62
447.32	428.32
447.51	425.98
447.69	418.96
447.88	332.36
448.06	416.62
448.25	407.25
448.43	318.31
448.62	379.17
448.80	468.11
448.99	498.53
449.17	442.36
449.36	353.42
449.54	402.57
449.73	367.46
449.91	442.36
450.10	458.74
450.28	388.53
450.46	416.62
450.65	447.04
450.83	451.72
451.02	365.12
451.20	379.17
451.39	433.00
451.57	435.34
451.76	393.21
451.94	409.59
452.13	388.53
452.31	416.62
452.49	482.15
452.68	418.96
452.86	418.96
453.05	407.25
453.23	442.36
453.42	433.00
453.60	353.42
453.78	407.25
453.97	447.04
454.15	437.68
454.34	484.49
454.52	395.55
454.70	423.64
454.89	355.76
455.07	381.51
455.26	425.98
455.44	418.96
455.62	397.89
455.81	376.83
455.99	456.40
456.17	442.36
456.36	421.30
456.54	428.32
456.73	407.25
456.91	393.21
457.09	451.72
457.28	425.98
457.46	433.00
457.64	435.34
457.83	337.04
458.01	458.74
458.19	369.80
458.38	407.25
458.56	388.53
458.74	346.40
458.93	428.32
459.11	416.62
459.29	388.53
459.48	407.25
459.66	430.66
459.84	393.21
460.03	451.72
460.21	461.09
460.39	447.04
460.57	355.76
460.76	369.80
460.94	393.21
461.12	433.00
461.31	379.17
461.49	381.51
461.67	376.83
461.85	416.62
462.04	444.70
462.22	805.14
462.40	374.49
462.59	383.85
462.77	442.36
462.95	421.30
463.13	442.36
463.32	442.36
463.50	404.91
463.68	423.64
463.86	344.06
464.05	388.53
464.23	521.94
464.41	493.85
464.59	418.96
464.78	355.76
464.96	400.23
465.14	491.51
465.32	332.36
465.50	393.21
465.69	475.13
465.87	447.04
466.05	430.66
466.23	414.27
466.41	409.59
466.60	362.78
466.78	461.09
466.96	440.02
467.14	437.68
467.32	409.59
467.51	482.15
467.69	435.34
467.87	425.98
468.05	383.85
468.23	475.13
468.41	444.70
468.60	428.32
468.78	433.00
468.96	449.38
469.14	531.30
469.32	400.23
469.50	390.87
469.69	365.12
469.87	428.32
470.05	486.83
470.23	482.15
470.41	383.85
470.59	428.32
470.77	425.98
470.95	404.91
471.14	479.81
471.32	360.44
471.50	383.85
471.68	437.68
471.86	411.93
472.04	400.23
472.22	411.93
472.40	423.64
472.58	395.55
472.77	388.53
472.95	402.57
473.13	397.89
473.31	425.98
473.49	386.19
473.67	369.80
473.85	465.77
474.03	458.74
474.21	421.30
474.39	397.89
474.57	440.02
474.75	451.72
474.93	418.96
475.12	372.15
475.30	374.49
475.48	379.17
475.66	463.43
475.84	386.19
476.02	386.19
476.20	435.34
476.38	393.21
476.56	498.53
476.74	428.32
476.92	322.99
477.10	407.25
477.28	440.02
477.46	512.58
477.64	400.23
477.82	393.21
478.00	367.46
478.18	416.62
478.36	440.02
478.54	322.99
478.72	400.23
478.90	463.43
479.08	404.91
479.26	348.74
479.44	407.25
479.62	449.38
479.80	430.66
479.98	348.74
480.16	369.80
480.34	521.94
480.52	458.74
480.70	465.77
480.88	358.10
481.06	449.38
481.24	404.91
481.41	400.23
481.59	407.25
481.77	379.17
481.95	388.53
482.13	414.27
482.31	383.85
482.49	407.25
482.67	416.62
482.85	454.06
483.03	395.55
483.21	437.68
483.39	360.44
483.57	454.06
483.74	444.70
483.92	421.30
484.10	306.61
484.28	409.59
484.46	463.43
484.64	430.66
484.82	402.57
485.00	421.30
485.18	409.59
485.35	512.58
485.53	383.85
485.71	468.11
485.89	440.02
486.07	465.77
486.25	479.81
486.43	416.62
486.61	411.93
486.78	444.70
486.96	418.96
487.14	442.36
487.32	451.72
487.50	447.04
487.68	376.83
487.85	409.59
488.03	397.89
488.21	428.32
488.39	400.23
488.57	381.51
488.75	374.49
488.92	451.72
489.10	397.89
489.28	395.55
489.46	369.80
489.64	386.19
489.81	414.27
489.99	411.93
490.17	409.59
490.35	451.72
490.53	381.51
490.70	416.62
490.88	479.81
491.06	388.53
491.24	393.21
491.41	416.62
491.59	470.45
491.77	346.40
491.95	386.19
492.13	461.09
492.30	397.89
492.48	381.51
492.66	400.23
492.84	369.80
493.01	458.74
493.19	386.19
493.37	440.02
493.54	411.93
493.72	447.04
493.90	402.57
494.08	320.65
494.25	416.62
494.43	418.96
494.61	456.40
494.79	353.42
494.96	418.96
495.14	444.70
495.32	386.19
495.49	418.96
495.67	418.96
495.85	449.38
496.02	351.08
496.20	449.38
496.38	430.66
496.55	414.27
496.73	479.81
496.91	379.17
497.09	428.32
497.26	416.62
497.44	395.55
497.62	442.36
497.79	411.93
497.97	416.62
498.14	360.44
498.32	428.32
498.50	421.30
498.67	414.27
498.85	362.78
499.03	458.74
499.20	388.53
499.38	374.49
499.56	421.30
499.73	418.96
499.91	430.66
500.08	348.74
500.26	430.66
500.44	395.55
500.61	409.59
500.79	425.98
500.97	346.40
501.14	423.64
501.32	475.13
501.49	433.00
501.67	360.44
501.84	503.22
502.02	400.23
502.20	416.62
502.37	463.43
502.55	440.02
502.72	418.96
502.90	393.21
503.07	414.27
503.25	430.66
503.43	395.55
503.60	440.02
503.78	395.55
503.95	468.11
504.13	386.19
504.30	367.46
504.48	449.38
504.65	449.38
504.83	386.19
505.01	421.30
505.18	337.04
505.36	456.40
505.53	397.89
505.71	341.72
505.88	486.83
506.06	430.66
506.23	423.64
506.41	449.38
506.58	381.51
506.76	393.21
506.93	470.45
507.11	430.66
507.28	360.44
507.46	388.53
507.63	458.74
507.81	409.59
507.98	381.51
508.16	421.30
508.33	451.72
508.50	414.27
508.68	395.55
508.85	416.62
509.03	348.74
509.20	430.66
509.38	425.98
509.55	463.43
509.73	440.02
509.90	433.00
510.08	407.25
510.25	400.23
510.42	339.38
510.60	425.98
510.77	407.25
510.95	493.85
511.12	332.36
511.30	351.08
511.47	386.19
511.64	456.40
511.82	440.02
511.99	407.25
512.17	379.17
512.34	379.17
512.51	454.06
512.69	418.96
512.86	454.06
513.04	454.06
513.21	383.85
513.38	440.02
513.56	393.21
513.73	397.89
513.90	423.64
514.08	411.93
514.25	428.32
514.43	463.43
514.60	376.83
514.77	402.57
514.95	430.66
515.12	430.66
515.29	414.27
515.47	421.30
515.64	425.98
515.81	404.91
515.99	393.21
516.16	407.25
516.33	374.49
516.51	456.40
516.68	344.06
516.85	407.25
517.03	437.68
517.20	430.66
517.37	465.77
517.54	353.42
517.72	440.02
517.89	425.98
518.06	472.79
518.24	428.32
518.41	430.66
518.58	400.23
518.75	418.96
518.93	409.59
519.10	428.32
519.27	444.70
519.45	367.46
519.62	444.70
519.79	409.59
519.96	369.80
520.14	428.32
520.31	472.79
520.48	365.12
520.65	365.12
520.83	463.43
521.00	388.53
521.17	372.15
521.34	444.70
521.52	465.77
521.69	421.30
521.86	437.68
522.03	451.72
522.20	451.72
522.38	430.66
522.55	463.43
522.72	458.74
522.89	461.09
523.07	496.19
523.24	407.25
523.41	458.74
523.58	430.66
523.75	383.85
523.92	365.12
524.10	444.70
524.27	379.17
524.44	379.17
524.61	461.09
524.78	404.91
524.96	388.53
525.13	402.57
525.30	447.04
525.47	444.70
525.64	421.30
525.81	402.57
525.98	423.64
526.16	425.98
526.33	341.72
526.50	477.47
526.67	444.70
526.84	402.57
527.01	379.17
527.18	397.89
527.36	430.66
527.53	388.53
527.70	449.38
527.87	423.64
528.04	416.62
528.21	400.23
528.38	390.87
528.55	416.62
528.72	414.27
528.89	395.55
529.07	393.21
529.24	400.23
529.41	454.06
529.58	418.96
529.75	435.34
529.92	404.91
530.09	409.59
530.26	454.06
530.43	388.53
530.60	372.15
530.77	433.00
530.94	442.36
531.11	337.04
531.28	397.89
531.46	435.34
531.63	414.27
531.80	482.15
531.97	388.53
532.14	386.19
532.31	376.83
532.48	444.70
532.65	411.93
532.82	463.43
532.99	421.30
533.16	421.30
533.33	449.38
533.50	421.30
533.67	348.74
533.84	444.70
534.01	477.47
534.18	416.62
534.35	404.91
534.52	402.57
534.69	418.96
534.86	351.08
535.03	383.85
535.20	379.17
535.37	411.93
535.54	358.10
535.71	458.74
535.88	430.66
536.05	472.79
536.22	461.09
536.38	416.62
536.55	444.70
536.72	458.74
536.89	416.62
537.06	423.64
537.23	407.25
537.40	397.89
537.57	376.83
537.74	472.79
537.91	428.32
538.08	465.77
538.25	449.38
538.42	416.62
538.59	433.00
538.75	430.66
538.92	475.13
539.09	468.11
539.26	479.81
539.43	428.32
539.60	418.96
539.77	496.19
539.94	416.62
540.11	411.93
540.28	379.17
540.44	477.47
540.61	465.77
540.78	369.80
540.95	475.13
541.12	454.06
541.29	496.19
541.46	402.57
541.62	416.62
541.79	404.91
541.96	353.42
542.13	472.79
542.30	414.27
542.47	428.32
542.63	475.13
542.80	465.77
542.97	449.38
543.14	414.27
543.31	407.25
543.48	463.43
543.64	440.02
543.81	479.81
543.98	404.91
544.15	341.72
544.32	437.68
544.48	379.17
544.65	414.27
544.82	477.47
544.99	334.70
545.16	461.09
545.32	369.80
545.49	428.32
545.66	463.43
545.83	418.96
546.00	358.10
546.16	449.38
546.33	454.06
546.50	519.60
546.67	365.12
546.83	402.57
547.00	379.17
547.17	322.99
547.34	489.17
547.50	379.17
547.67	388.53
547.84	374.49
548.00	440.02
548.17	395.55
548.34	376.83
548.51	428.32
548.67	416.62
548.84	379.17
549.01	397.89
549.18	409.59
549.34	433.00
549.51	407.25
549.68	482.15
549.84	416.62
550.01	372.15
550.18	449.38
550.34	475.13
550.51	447.04
550.68	458.74
550.84	393.21
551.01	463.43
551.18	430.66
551.34	402.57
551.51	402.57
551.68	390.87
551.84	477.47
552.01	451.72
552.18	489.17
552.34	390.87
552.51	440.02
552.68	395.55
552.84	395.55
553.01	365.12
553.18	440.02
553.34	470.45
553.51	360.44
553.67	402.57
553.84	475.13
554.01	409.59
554.17	393.21
554.34	449.38
554.51	383.85
554.67	374.49
554.84	311.29
555.00	484.49
555.17	374.49
555.33	461.09
555.50	362.78
555.67	454.06
555.83	409.59
556.00	411.93
556.16	540.66
556.33	451.72
556.50	379.17
556.66	390.87
556.83	397.89
556.99	355.76
557.16	477.47
557.32	423.64
557.49	447.04
557.65	425.98
557.82	454.06
557.98	414.27
558.15	421.30
558.32	402.57
558.48	339.38
558.65	393.21
558.81	381.51
558.98	402.57
559.14	425.98
559.31	407.25
559.47	430.66
559.64	376.83
559.80	376.83
559.97	444.70
560.13	414.27
560.30	341.72
560.46	390.87
560.63	322.99
560.79	430.66
560.96	372.15
561.12	477.47
561.29	400.23
561.45	409.59
561.61	388.53
561.78	430.66
561.94	423.64
562.11	402.57
562.27	449.38
562.44	388.53
562.60	369.80
562.77	414.27
562.93	465.77
563.10	423.64
563.26	430.66
563.42	407.25
563.59	402.57
563.75	372.15
563.92	461.09
564.08	461.09
564.24	379.17
564.41	486.83
564.57	444.70
564.74	437.68
564.90	496.19
565.07	409.59
565.23	458.74
565.39	435.34
565.56	461.09
565.72	355.76
565.88	454.06
566.05	383.85
566.21	402.57
566.38	421.30
566.54	404.91
566.70	400.23
566.87	416.62
567.03	397.89
567.19	360.44
567.36	428.32
567.52	400.23
567.68	418.96
567.85	416.62
568.01	435.34
568.17	320.65
568.34	416.62
568.50	374.49
568.66	351.08
568.83	454.06
568.99	418.96
569.15	423.64
569.32	423.64
569.48	437.68
569.64	416.62
569.81	430.66
569.97	468.11
570.13	423.64
570.30	437.68
570.46	428.32
570.62	407.25
570.78	404.91
570.95	451.72
571.11	454.06
571.27	442.36
571.43	397.89
571.60	414.27
571.76	435.34
571.92	423.64
572.09	414.27
572.25	367.46
572.41	388.53
572.57	355.76
572.74	463.43
572.90	433.00
573.06	425.98
573.22	444.70
573.38	386.19
573.55	416.62
573.71	472.79
573.87	411.93
574.03	397.89
574.20	393.21
574.36	404.91
574.52	437.68
574.68	395.55
574.84	425.98
575.01	358.10
575.17	423.64
575.33	435.34
575.49	407.25
575.65	393.21
575.82	437.68
575.98	456.40
576.14	409.59
576.30	479.81
576.46	390.87
576.62	456.40
576.79	414.27
576.95	383.85
577.11	491.51
577.27	362.78
577.43	376.83
577.59	381.51
577.75	395.55
577.92	458.74
578.08	430.66
578.24	477.47
578.40	435.34
578.56	454.06
578.72	461.09
578.88	411.93
579.04	379.17
579.21	425.98
579.37	496.19
579.53	425.98
579.69	379.17
579.85	449.38
580.01	472.79
580.17	400.23
580.33	433.00
580.49	423.64
580.65	484.49
580.82	383.85
580.98	447.04
581.14	404.91
581.30	465.77
581.46	388.53
581.62	421.30
581.78	418.96
581.94	440.02
582.10	421.30
582.26	421.30
582.42	402.57
582.58	414.27
582.74	421.30
582.90	416.62
583.06	451.72
583.22	407.25
583.38	397.89
583.54	409.59
583.70	433.00
583.86	475.13
584.02	482.15
584.18	447.04
584.34	386.19
584.50	388.53
584.66	390.87
584.82	390.87
584.98	423.64
585.14	362.78
585.30	421.30
585.46	337.04
585.62	416.62
585.78	390.87
585.94	299.59
586.10	355.76
586.26	418.96
586.42	524.28
586.58	475.13
586.74	393.21
586.90	369.80
587.06	449.38
587.22	440.02
587.38	428.32
587.54	435.34
587.70	479.81
587.86	407.25
588.02	435.34
588.18	425.98
588.34	397.89
588.49	414.27
588.65	444.70
588.81	388.53
588.97	400.23
589.13	491.51
589.29	374.49
589.45	418.96
589.61	428.32
589.77	463.43
589.93	404.91
590.08	425.98
590.24	355.76
590.40	404.91
590.56	418.96
590.72	468.11
590.88	390.87
591.04	402.57
591.20	332.36
591.35	407.25
591.51	472.79
591.67	381.51
591.83	402.57
591.99	409.59
592.15	449.38
592.31	404.91
592.46	416.62
592.62	386.19
592.78	360.44
592.94	437.68
593.10	386.19
593.26	404.91
593.41	400.23
593.57	393.21
593.73	369.80
593.89	435.34
594.05	428.32
594.20	379.17
594.36	465.77
594.52	411.93
594.68	358.10
594.84	376.83
594.99	475.13
595.15	395.55
595.31	409.59
595.47	440.02
595.62	334.70
595.78	379.17
595.94	458.74
596.10	388.53
596.25	533.64
596.41	416.62
596.57	407.25
596.73	454.06
596.88	416.62
597.04	510.24
597.20	423.64
597.36	374.49
597.51	437.68
597.67	468.11
597.83	402.57
597.99	451.72
598.14	414.27
598.30	454.06
598.46	372.15
598.61	414.27
598.77	418.96
598.93	376.83
599.09	322.99
599.24	433.00
599.40	404.91
599.56	454.06
599.71	425.98
599.87	395.55
600.03	379.17
600.18	423.64
600.34	414.27
600.50	433.00
600.65	404.91
600.81	528.96
600.97	390.87
601.12	332.36
601.28	498.53
601.44	360.44
601.59	365.12
601.75	388.53
601.91	418.96
602.06	381.51
602.22	461.09
602.37	418.96
602.53	372.15
602.69	411.93
602.84	381.51
603.00	376.83
603.16	418.96
603.31	416.62
603.47	423.64
603.62	425.98
603.78	397.89
603.94	386.19
604.09	411.93
604.25	414.27
604.40	442.36
604.56	425.98
604.71	423.64
604.87	397.89
605.03	416.62
605.18	461.09
605.34	301.93
605.49	423.64
605.65	435.34
605.80	409.59
605.96	423.64
606.12	433.00
606.27	444.70
606.43	372.15
606.58	376.83
606.74	395.55
606.89	425.98
607.05	428.32
607.20	397.89
607.36	404.91
607.51	395.55
607.67	311.29
607.82	397.89
607.98	472.79
608.13	531.30
608.29	358.10
608.44	472.79
608.60	386.19
608.75	423.64
608.91	465.77
609.06	435.34
609.22	395.55
609.37	383.85
609.53	472.79
609.68	402.57
609.84	486.83
609.99	449.38
610.15	411.93
