SpectraSuite Data File
++++++++++++++++++++++++++++++++++++
Date: Fri Oct 25 12:11:46 EDT 2013
User: price-jones
Dark Spectrum Present: No
Reference Spectrum Present: No
Number of Sampled Component Spectra: 1
Spectrometers: USB2+H05261
Integration Time (usec): 100000 (USB2+H05261)
Spectra Averaged: 1 (USB2+H05261)
Boxcar Smoothing: 0 (USB2+H05261)
Correct for Electrical Dark: No (USB2+H05261)
Strobe/Lamp Enabled: No (USB2+H05261)
Correct for Detector Non-linearity: No (USB2+H05261)
Correct for Stray Light: No (USB2+H05261)
Number of Pixels in Processed Spectrum: 2048
>>>>>Begin Processed Spectral Data<<<<<
365.73	362.78
365.92	362.78
366.12	362.78
366.32	280.86
366.52	294.91
366.72	196.60
366.91	229.37
367.11	269.16
367.31	222.35
367.51	241.08
367.70	229.37
367.90	227.03
368.10	187.24
368.30	278.52
368.49	231.71
368.69	327.68
368.89	271.50
369.09	278.52
369.28	248.10
369.48	238.73
369.68	224.69
369.87	262.14
370.07	315.97
370.27	327.68
370.47	346.40
370.66	308.95
370.86	332.36
371.06	372.15
371.25	325.33
371.45	374.49
371.65	339.38
371.84	358.10
372.04	379.17
372.24	360.44
372.44	407.25
372.63	351.08
372.83	430.66
373.03	346.40
373.22	421.30
373.42	409.59
373.62	444.70
373.81	449.38
374.01	433.00
374.21	444.70
374.40	381.51
374.60	479.81
374.79	409.59
374.99	390.87
375.19	362.78
375.38	491.51
375.58	402.57
375.78	411.93
375.97	381.51
376.17	433.00
376.37	458.74
376.56	428.32
376.76	402.57
376.95	397.89
377.15	383.85
377.35	468.11
377.54	447.04
377.74	440.02
377.93	472.79
378.13	510.24
378.33	442.36
378.52	372.15
378.72	475.13
378.91	416.62
379.11	390.87
379.31	402.57
379.50	425.98
379.70	421.30
379.89	472.79
380.09	423.64
380.28	362.78
380.48	362.78
380.68	390.87
380.87	400.23
381.07	383.85
381.26	477.47
381.46	435.34
381.65	440.02
381.85	395.55
382.04	374.49
382.24	477.47
382.43	458.74
382.63	365.12
382.83	381.51
383.02	421.30
383.22	433.00
383.41	400.23
383.61	409.59
383.80	442.36
384.00	416.62
384.19	395.55
384.39	437.68
384.58	444.70
384.78	388.53
384.97	414.27
385.17	393.21
385.36	381.51
385.56	404.91
385.75	337.04
385.95	456.40
386.14	449.38
386.34	367.46
386.53	395.55
386.72	414.27
386.92	423.64
387.11	402.57
387.31	461.09
387.50	402.57
387.70	390.87
387.89	461.09
388.09	376.83
388.28	390.87
388.48	400.23
388.67	388.53
388.86	451.72
389.06	351.08
389.25	416.62
389.45	379.17
389.64	489.17
389.84	428.32
390.03	442.36
390.22	463.43
390.42	369.80
390.61	365.12
390.81	395.55
391.00	367.46
391.19	484.49
391.39	409.59
391.58	407.25
391.78	395.55
391.97	454.06
392.16	372.15
392.36	411.93
392.55	475.13
392.75	477.47
392.94	376.83
393.13	449.38
393.33	430.66
393.52	374.49
393.71	421.30
393.91	379.17
394.10	301.93
394.29	376.83
394.49	425.98
394.68	433.00
394.88	440.02
395.07	421.30
395.26	362.78
395.46	390.87
395.65	463.43
395.84	383.85
396.04	479.81
396.23	430.66
396.42	386.19
396.62	486.83
396.81	454.06
397.00	416.62
397.19	503.22
397.39	411.93
397.58	379.17
397.77	463.43
397.97	421.30
398.16	379.17
398.35	421.30
398.55	440.02
398.74	390.87
398.93	393.21
399.12	383.85
399.32	449.38
399.51	404.91
399.70	416.62
399.90	409.59
400.09	320.65
400.28	414.27
400.47	390.87
400.67	482.15
400.86	402.57
401.05	388.53
401.24	444.70
401.44	379.17
401.63	322.99
401.82	430.66
402.01	372.15
402.21	433.00
402.40	390.87
402.59	395.55
402.78	397.89
402.97	367.46
403.17	465.77
403.36	484.49
403.55	447.04
403.74	379.17
403.93	484.49
404.13	442.36
404.32	337.04
404.51	400.23
404.70	442.36
404.89	388.53
405.09	428.32
405.28	435.34
405.47	416.62
405.66	433.00
405.85	390.87
406.05	484.49
406.24	397.89
406.43	435.34
406.62	477.47
406.81	383.85
407.00	414.27
407.20	376.83
407.39	458.74
407.58	404.91
407.77	362.78
407.96	451.72
408.15	430.66
408.34	458.74
408.54	479.81
408.73	428.32
408.92	411.93
409.11	423.64
409.30	458.74
409.49	388.53
409.68	383.85
409.87	374.49
410.07	409.59
410.26	437.68
410.45	430.66
410.64	444.70
410.83	442.36
411.02	411.93
411.21	407.25
411.40	425.98
411.59	388.53
411.78	374.49
411.98	365.12
412.17	425.98
412.36	409.59
412.55	400.23
412.74	461.09
412.93	414.27
413.12	430.66
413.31	444.70
413.50	395.55
413.69	402.57
413.88	421.30
414.07	435.34
414.26	355.76
414.45	297.25
414.64	430.66
414.83	444.70
415.02	458.74
415.22	465.77
415.41	484.49
415.60	351.08
415.79	447.04
415.98	463.43
416.17	416.62
416.36	416.62
416.55	337.04
416.74	437.68
416.93	372.15
417.12	440.02
417.31	442.36
417.50	404.91
417.69	449.38
417.88	456.40
418.07	421.30
418.26	456.40
418.45	416.62
418.64	437.68
418.83	411.93
419.02	451.72
419.21	407.25
419.39	390.87
419.58	437.68
419.77	308.95
419.96	425.98
420.15	447.04
420.34	447.04
420.53	390.87
420.72	435.34
420.91	353.42
421.10	418.96
421.29	388.53
421.48	388.53
421.67	386.19
421.86	339.38
422.05	367.46
422.24	433.00
422.43	402.57
422.61	423.64
422.80	418.96
422.99	482.15
423.18	404.91
423.37	393.21
423.56	442.36
423.75	360.44
423.94	416.62
424.13	369.80
424.32	360.44
424.50	400.23
424.69	465.77
424.88	447.04
425.07	428.32
425.26	437.68
425.45	416.62
425.64	379.17
425.83	404.91
426.01	397.89
426.20	425.98
426.39	411.93
426.58	376.83
426.77	402.57
426.96	416.62
427.15	404.91
427.33	447.04
427.52	458.74
427.71	444.70
427.90	449.38
428.09	437.68
428.28	458.74
428.46	393.21
428.65	430.66
428.84	475.13
429.03	344.06
429.22	381.51
429.40	482.15
429.59	482.15
429.78	428.32
429.97	390.87
430.16	414.27
430.34	339.38
430.53	440.02
430.72	383.85
430.91	430.66
431.10	400.23
431.28	454.06
431.47	425.98
431.66	454.06
431.85	379.17
432.03	428.32
432.22	486.83
432.41	351.08
432.60	358.10
432.79	433.00
432.97	409.59
433.16	400.23
433.35	458.74
433.54	416.62
433.72	418.96
433.91	447.04
434.10	379.17
434.28	376.83
434.47	414.27
434.66	456.40
434.85	414.27
435.03	430.66
435.22	496.19
435.41	411.93
435.59	423.64
435.78	423.64
435.97	428.32
436.16	407.25
436.34	381.51
436.53	411.93
436.72	444.70
436.90	400.23
437.09	393.21
437.28	407.25
437.46	423.64
437.65	411.93
437.84	365.12
438.02	433.00
438.21	367.46
438.40	404.91
438.58	468.11
438.77	418.96
438.96	397.89
439.14	418.96
439.33	409.59
439.52	428.32
439.70	458.74
439.89	390.87
440.08	423.64
440.26	416.62
440.45	402.57
440.63	421.30
440.82	353.42
441.01	360.44
441.19	479.81
441.38	411.93
441.57	390.87
441.75	372.15
441.94	472.79
442.12	416.62
442.31	367.46
442.50	390.87
442.68	409.59
442.87	390.87
443.05	414.27
443.24	411.93
443.43	559.39
443.61	367.46
443.80	430.66
443.98	437.68
444.17	388.53
444.35	468.11
444.54	428.32
444.73	449.38
444.91	416.62
445.10	425.98
445.28	411.93
445.47	390.87
445.65	358.10
445.84	402.57
446.02	395.55
446.21	482.15
446.39	433.00
446.58	376.83
446.77	374.49
446.95	440.02
447.14	393.21
447.32	379.17
447.51	400.23
447.69	407.25
447.88	381.51
448.06	397.89
448.25	507.90
448.43	463.43
448.62	334.70
448.80	440.02
448.99	407.25
449.17	330.02
449.36	400.23
449.54	393.21
449.73	425.98
449.91	395.55
450.10	337.04
450.28	440.02
450.46	416.62
450.65	416.62
450.83	435.34
451.02	416.62
451.20	456.40
451.39	414.27
451.57	369.80
451.76	498.53
451.94	400.23
452.13	421.30
452.31	421.30
452.49	428.32
452.68	435.34
452.86	397.89
453.05	498.53
453.23	395.55
453.42	454.06
453.60	404.91
453.78	407.25
453.97	444.70
454.15	318.31
454.34	418.96
454.52	409.59
454.70	477.47
454.89	461.09
455.07	421.30
455.26	442.36
455.44	430.66
455.62	386.19
455.81	369.80
455.99	411.93
456.17	521.94
456.36	449.38
456.54	351.08
456.73	346.40
456.91	348.74
457.09	468.11
457.28	451.72
457.46	337.04
457.64	458.74
457.83	390.87
458.01	355.76
458.19	414.27
458.38	390.87
458.56	482.15
458.74	390.87
458.93	418.96
459.11	484.49
459.29	400.23
459.48	353.42
459.66	355.76
459.84	442.36
460.03	468.11
460.21	407.25
460.39	463.43
460.57	477.47
460.76	400.23
460.94	388.53
461.12	468.11
461.31	437.68
461.49	449.38
461.67	444.70
461.85	409.59
462.04	388.53
462.22	737.27
462.40	423.64
462.59	411.93
462.77	430.66
462.95	409.59
463.13	416.62
463.32	440.02
463.50	456.40
463.68	465.77
463.86	393.21
464.05	397.89
464.23	491.51
464.41	433.00
464.59	409.59
464.78	465.77
464.96	393.21
465.14	489.17
465.32	386.19
465.50	411.93
465.69	484.49
465.87	407.25
466.05	425.98
466.23	395.55
466.41	475.13
466.60	456.40
466.78	407.25
466.96	486.83
467.14	388.53
467.32	400.23
467.51	344.06
467.69	465.77
467.87	482.15
468.05	393.21
468.23	482.15
468.41	465.77
468.60	411.93
468.78	451.72
468.96	409.59
469.14	409.59
469.32	397.89
469.50	402.57
469.69	425.98
469.87	433.00
470.05	421.30
470.23	500.87
470.41	425.98
470.59	437.68
470.77	372.15
470.95	423.64
471.14	433.00
471.32	437.68
471.50	451.72
471.68	423.64
471.86	423.64
472.04	320.65
472.22	468.11
472.40	315.97
472.58	444.70
472.77	379.17
472.95	383.85
473.13	489.17
473.31	458.74
473.49	400.23
473.67	437.68
473.85	475.13
474.03	435.34
474.21	447.04
474.39	376.83
474.57	456.40
474.75	390.87
474.93	393.21
475.12	393.21
475.30	461.09
475.48	538.32
475.66	491.51
475.84	337.04
476.02	463.43
476.20	444.70
476.38	409.59
476.56	489.17
476.74	409.59
476.92	400.23
477.10	400.23
477.28	416.62
477.46	374.49
477.64	486.83
477.82	414.27
478.00	465.77
478.18	355.76
478.36	404.91
478.54	379.17
478.72	421.30
478.90	400.23
479.08	414.27
479.26	397.89
479.44	444.70
479.62	416.62
479.80	472.79
479.98	402.57
480.16	397.89
480.34	451.72
480.52	376.83
480.70	418.96
480.88	433.00
481.06	416.62
481.24	402.57
481.41	416.62
481.59	470.45
481.77	451.72
481.95	386.19
482.13	428.32
482.31	430.66
482.49	451.72
482.67	449.38
482.85	479.81
483.03	409.59
483.21	353.42
483.39	423.64
483.57	414.27
483.74	447.04
483.92	409.59
484.10	463.43
484.28	416.62
484.46	456.40
484.64	390.87
484.82	381.51
485.00	421.30
485.18	358.10
485.35	444.70
485.53	379.17
485.71	430.66
485.89	454.06
486.07	376.83
486.25	451.72
486.43	402.57
486.61	463.43
486.78	470.45
486.96	395.55
487.14	334.70
487.32	376.83
487.50	435.34
487.68	449.38
487.85	386.19
488.03	451.72
488.21	465.77
488.39	365.12
488.57	430.66
488.75	489.17
488.92	524.28
489.10	442.36
489.28	440.02
489.46	414.27
489.64	421.30
489.81	418.96
489.99	418.96
490.17	414.27
490.35	423.64
490.53	381.51
490.70	404.91
490.88	407.25
491.06	442.36
491.24	418.96
491.41	430.66
491.59	404.91
491.77	454.06
491.95	440.02
492.13	400.23
492.30	379.17
492.48	388.53
492.66	383.85
492.84	428.32
493.01	498.53
493.19	369.80
493.37	458.74
493.54	510.24
493.72	388.53
493.90	402.57
494.08	383.85
494.25	397.89
494.43	400.23
494.61	344.06
494.79	491.51
494.96	397.89
495.14	433.00
495.32	409.59
495.49	475.13
495.67	442.36
495.85	395.55
496.02	390.87
496.20	451.72
496.38	465.77
496.55	332.36
496.73	447.04
496.91	372.15
497.09	407.25
497.26	461.09
497.44	425.98
497.62	390.87
497.79	451.72
497.97	470.45
498.14	372.15
498.32	423.64
498.50	428.32
498.67	451.72
498.85	402.57
499.03	372.15
499.20	404.91
499.38	407.25
499.56	365.12
499.73	451.72
499.91	407.25
500.08	437.68
500.26	454.06
500.44	454.06
500.61	397.89
500.79	402.57
500.97	517.26
501.14	437.68
501.32	447.04
501.49	468.11
501.67	397.89
501.84	400.23
502.02	383.85
502.20	458.74
502.37	428.32
502.55	318.31
502.72	374.49
502.90	428.32
503.07	388.53
503.25	458.74
503.43	381.51
503.60	395.55
503.78	428.32
503.95	374.49
504.13	369.80
504.30	451.72
504.48	437.68
504.65	470.45
504.83	355.76
505.01	409.59
505.18	351.08
505.36	430.66
505.53	437.68
505.71	407.25
505.88	447.04
506.06	433.00
506.23	421.30
506.41	369.80
506.58	458.74
506.76	393.21
506.93	407.25
507.11	451.72
507.28	365.12
507.46	440.02
507.63	477.47
507.81	411.93
507.98	425.98
508.16	400.23
508.33	475.13
508.50	411.93
508.68	421.30
508.85	367.46
509.03	425.98
509.20	369.80
509.38	505.56
509.55	430.66
509.73	430.66
509.90	489.17
510.08	416.62
510.25	468.11
510.42	421.30
510.60	339.38
510.77	416.62
510.95	442.36
511.12	395.55
511.30	430.66
511.47	442.36
511.64	468.11
511.82	425.98
511.99	411.93
512.17	367.46
512.34	379.17
512.51	421.30
512.69	390.87
512.86	526.62
513.04	444.70
513.21	423.64
513.38	400.23
513.56	416.62
513.73	430.66
513.90	414.27
514.08	461.09
514.25	442.36
514.43	407.25
514.60	360.44
514.77	346.40
514.95	433.00
515.12	374.49
515.29	374.49
515.47	447.04
515.64	430.66
515.81	411.93
515.99	463.43
516.16	435.34
516.33	465.77
516.51	355.76
516.68	430.66
516.85	388.53
517.03	428.32
517.20	454.06
517.37	444.70
517.54	461.09
517.72	421.30
517.89	440.02
518.06	444.70
518.24	437.68
518.41	444.70
518.58	479.81
518.75	437.68
518.93	355.76
519.10	475.13
519.27	465.77
519.45	414.27
519.62	428.32
519.79	472.79
519.96	409.59
520.14	456.40
520.31	461.09
520.48	437.68
520.65	409.59
520.83	421.30
521.00	395.55
521.17	437.68
521.34	416.62
521.52	395.55
521.69	379.17
521.86	383.85
522.03	393.21
522.20	451.72
522.38	423.64
522.55	372.15
522.72	374.49
522.89	503.22
523.07	517.26
523.24	447.04
523.41	411.93
523.58	376.83
523.75	430.66
523.92	458.74
524.10	440.02
524.27	379.17
524.44	395.55
524.61	472.79
524.78	348.74
524.96	414.27
525.13	402.57
525.30	418.96
525.47	421.30
525.64	449.38
525.81	433.00
525.98	451.72
526.16	390.87
526.33	465.77
526.50	414.27
526.67	418.96
526.84	397.89
527.01	390.87
527.18	433.00
527.36	414.27
527.53	393.21
527.70	433.00
527.87	402.57
528.04	402.57
528.21	402.57
528.38	454.06
528.55	491.51
528.72	355.76
528.89	454.06
529.07	449.38
529.24	411.93
529.41	388.53
529.58	388.53
529.75	444.70
529.92	390.87
530.09	458.74
530.26	451.72
530.43	416.62
530.60	468.11
530.77	437.68
530.94	395.55
531.11	458.74
531.28	409.59
531.46	360.44
531.63	374.49
531.80	416.62
531.97	421.30
532.14	418.96
532.31	393.21
532.48	472.79
532.65	388.53
532.82	358.10
532.99	383.85
533.16	372.15
533.33	428.32
533.50	430.66
533.67	395.55
533.84	416.62
534.01	437.68
534.18	379.17
534.35	355.76
534.52	388.53
534.69	325.33
534.86	402.57
535.03	409.59
535.20	463.43
535.37	421.30
535.54	421.30
535.71	400.23
535.88	444.70
536.05	372.15
536.22	423.64
536.38	418.96
536.55	360.44
536.72	416.62
536.89	421.30
537.06	397.89
537.23	376.83
537.40	484.49
537.57	463.43
537.74	472.79
537.91	379.17
538.08	411.93
538.25	428.32
538.42	454.06
538.59	458.74
538.75	393.21
538.92	400.23
539.09	456.40
539.26	339.38
539.43	463.43
539.60	491.51
539.77	503.22
539.94	393.21
540.11	367.46
540.28	510.24
540.44	400.23
540.61	435.34
540.78	447.04
540.95	418.96
541.12	493.85
541.29	425.98
541.46	475.13
541.62	440.02
541.79	418.96
541.96	416.62
542.13	428.32
542.30	437.68
542.47	503.22
542.63	428.32
542.80	341.72
542.97	430.66
543.14	381.51
543.31	454.06
543.48	423.64
543.64	468.11
543.81	402.57
543.98	461.09
544.15	369.80
544.32	393.21
544.48	395.55
544.65	402.57
544.82	393.21
544.99	411.93
545.16	444.70
545.32	386.19
545.49	470.45
545.66	402.57
545.83	461.09
546.00	407.25
546.16	306.61
546.33	409.59
546.50	454.06
546.67	416.62
546.83	421.30
547.00	503.22
547.17	376.83
547.34	409.59
547.50	404.91
547.67	430.66
547.84	372.15
548.00	390.87
548.17	393.21
548.34	388.53
548.51	472.79
548.67	428.32
548.84	418.96
549.01	423.64
549.18	344.06
549.34	428.32
549.51	496.19
549.68	390.87
549.84	440.02
550.01	400.23
550.18	463.43
550.34	416.62
550.51	435.34
550.68	500.87
550.84	369.80
551.01	491.51
551.18	454.06
551.34	449.38
551.51	402.57
551.68	418.96
551.84	491.51
552.01	477.47
552.18	395.55
552.34	435.34
552.51	463.43
552.68	433.00
552.84	442.36
553.01	482.15
553.18	442.36
553.34	404.91
553.51	449.38
553.67	423.64
553.84	475.13
554.01	423.64
554.17	381.51
554.34	388.53
554.51	416.62
554.67	475.13
554.84	416.62
555.00	393.21
555.17	390.87
555.33	395.55
555.50	402.57
555.67	416.62
555.83	404.91
556.00	440.02
556.16	552.37
556.33	500.87
556.50	421.30
556.66	351.08
556.83	433.00
556.99	423.64
557.16	411.93
557.32	397.89
557.49	437.68
557.65	447.04
557.82	407.25
557.98	447.04
558.15	369.80
558.32	423.64
558.48	428.32
558.65	437.68
558.81	407.25
558.98	409.59
559.14	444.70
559.31	461.09
559.47	437.68
559.64	472.79
559.80	470.45
559.97	325.33
560.13	376.83
560.30	482.15
560.46	393.21
560.63	393.21
560.79	472.79
560.96	456.40
561.12	379.17
561.29	423.64
561.45	362.78
561.61	402.57
561.78	486.83
561.94	390.87
562.11	521.94
562.27	390.87
562.44	414.27
562.60	388.53
562.77	421.30
562.93	456.40
563.10	376.83
563.26	430.66
563.42	444.70
563.59	367.46
563.75	428.32
563.92	421.30
564.08	425.98
564.24	388.53
564.41	521.94
564.57	463.43
564.74	435.34
564.90	428.32
565.07	397.89
565.23	386.19
565.39	407.25
565.56	341.72
565.72	372.15
565.88	454.06
566.05	447.04
566.21	374.49
566.38	442.36
566.54	390.87
566.70	447.04
566.87	440.02
567.03	477.47
567.19	444.70
567.36	447.04
567.52	428.32
567.68	423.64
567.85	451.72
568.01	463.43
568.17	397.89
568.34	404.91
568.50	486.83
568.66	421.30
568.83	458.74
568.99	440.02
569.15	433.00
569.32	400.23
569.48	437.68
569.64	404.91
569.81	404.91
569.97	402.57
570.13	402.57
570.30	414.27
570.46	393.21
570.62	414.27
570.78	425.98
570.95	437.68
571.11	503.22
571.27	372.15
571.43	461.09
571.60	437.68
571.76	381.51
571.92	414.27
572.09	407.25
572.25	379.17
572.41	386.19
572.57	407.25
572.74	402.57
572.90	484.49
573.06	491.51
573.22	468.11
573.38	440.02
573.55	425.98
573.71	428.32
573.87	475.13
574.03	409.59
574.20	437.68
574.36	395.55
574.52	482.15
574.68	458.74
574.84	433.00
575.01	421.30
575.17	470.45
575.33	383.85
575.49	416.62
575.65	423.64
575.82	442.36
575.98	447.04
576.14	374.49
576.30	440.02
576.46	465.77
576.62	416.62
576.79	414.27
576.95	423.64
577.11	386.19
577.27	379.17
577.43	423.64
577.59	451.72
577.75	388.53
577.92	435.34
578.08	423.64
578.24	409.59
578.40	423.64
578.56	437.68
578.72	475.13
578.88	414.27
579.04	365.12
579.21	433.00
579.37	449.38
579.53	374.49
579.69	369.80
579.85	451.72
580.01	416.62
580.17	393.21
580.33	486.83
580.49	425.98
580.65	383.85
580.82	393.21
580.98	409.59
581.14	447.04
581.30	458.74
581.46	390.87
581.62	498.53
581.78	390.87
581.94	383.85
582.10	437.68
582.26	418.96
582.42	454.06
582.58	358.10
582.74	369.80
582.90	395.55
583.06	416.62
583.22	404.91
583.38	372.15
583.54	416.62
583.70	390.87
583.86	390.87
584.02	402.57
584.18	456.40
584.34	393.21
584.50	454.06
584.66	411.93
584.82	393.21
584.98	428.32
585.14	535.98
585.30	470.45
585.46	447.04
585.62	358.10
585.78	372.15
585.94	372.15
586.10	372.15
586.26	482.15
586.42	451.72
586.58	482.15
586.74	374.49
586.90	458.74
587.06	414.27
587.22	442.36
587.38	447.04
587.54	498.53
587.70	477.47
587.86	407.25
588.02	376.83
588.18	484.49
588.34	416.62
588.49	339.38
588.65	437.68
588.81	376.83
588.97	290.23
589.13	447.04
589.29	477.47
589.45	472.79
589.61	458.74
589.77	437.68
589.93	461.09
590.08	435.34
590.24	395.55
590.40	470.45
590.56	451.72
590.72	390.87
590.88	383.85
591.04	440.02
591.20	388.53
591.35	414.27
591.51	482.15
591.67	362.78
591.83	463.43
591.99	379.17
592.15	400.23
592.31	383.85
592.46	465.77
592.62	430.66
592.78	395.55
592.94	358.10
593.10	400.23
593.26	386.19
593.41	390.87
593.57	348.74
593.73	355.76
593.89	390.87
594.05	416.62
594.20	404.91
594.36	458.74
594.52	458.74
594.68	374.49
594.84	503.22
594.99	404.91
595.15	365.12
595.31	512.58
595.47	482.15
595.62	447.04
595.78	433.00
595.94	404.91
596.10	390.87
596.25	416.62
596.41	421.30
596.57	402.57
596.73	416.62
596.88	358.10
597.04	437.68
597.20	447.04
597.36	428.32
597.51	407.25
597.67	351.08
597.83	458.74
597.99	372.15
598.14	409.59
598.30	421.30
598.46	425.98
598.61	358.10
598.77	367.46
598.93	409.59
599.09	414.27
599.24	395.55
599.40	393.21
599.56	447.04
599.71	393.21
599.87	428.32
600.03	418.96
600.18	318.31
600.34	435.34
600.50	411.93
600.65	365.12
600.81	503.22
600.97	346.40
601.12	395.55
601.28	421.30
601.44	400.23
601.59	428.32
601.75	386.19
601.91	404.91
602.06	369.80
602.22	491.51
602.37	514.92
602.53	409.59
602.69	484.49
602.84	411.93
603.00	369.80
603.16	428.32
603.31	418.96
603.47	428.32
603.62	444.70
603.78	433.00
603.94	397.89
604.09	510.24
604.25	435.34
604.40	461.09
604.56	433.00
604.71	468.11
604.87	383.85
605.03	425.98
605.18	444.70
605.34	416.62
605.49	388.53
605.65	416.62
605.80	430.66
605.96	395.55
606.12	559.39
606.27	390.87
606.43	418.96
606.58	442.36
606.74	379.17
606.89	433.00
607.05	433.00
607.20	421.30
607.36	482.15
607.51	416.62
607.67	447.04
607.82	440.02
607.98	381.51
608.13	437.68
608.29	465.77
608.44	484.49
608.60	484.49
608.75	486.83
608.91	381.51
609.06	461.09
609.22	498.53
609.37	388.53
609.53	416.62
609.68	444.70
609.84	365.12
609.99	355.76
610.15	404.91
