SpectraSuite Data File
++++++++++++++++++++++++++++++++++++
Date: Fri Oct 25 12:11:38 EDT 2013
User: price-jones
Dark Spectrum Present: No
Reference Spectrum Present: No
Number of Sampled Component Spectra: 1
Spectrometers: USB2+H05261
Integration Time (usec): 100000 (USB2+H05261)
Spectra Averaged: 1 (USB2+H05261)
Boxcar Smoothing: 0 (USB2+H05261)
Correct for Electrical Dark: No (USB2+H05261)
Strobe/Lamp Enabled: No (USB2+H05261)
Correct for Detector Non-linearity: No (USB2+H05261)
Correct for Stray Light: No (USB2+H05261)
Number of Pixels in Processed Spectrum: 2048
>>>>>Begin Processed Spectral Data<<<<<
365.73	381.51
365.92	381.51
366.12	381.51
366.32	304.27
366.52	255.12
366.72	215.33
366.91	259.80
367.11	266.82
367.31	238.73
367.51	250.44
367.70	145.11
367.90	231.71
368.10	287.89
368.30	252.78
368.49	217.67
368.69	191.92
368.89	215.33
369.09	210.65
369.28	322.99
369.48	308.95
369.68	327.68
369.87	234.05
370.07	304.27
370.27	334.70
370.47	306.61
370.66	313.63
370.86	341.72
371.06	486.83
371.25	461.09
371.45	348.74
371.65	308.95
371.84	402.57
372.04	390.87
372.24	376.83
372.44	409.59
372.63	383.85
372.83	327.68
373.03	454.06
373.22	512.58
373.42	433.00
373.62	486.83
373.81	451.72
374.01	372.15
374.21	360.44
374.40	372.15
374.60	454.06
374.79	430.66
374.99	435.34
375.19	416.62
375.38	437.68
375.58	402.57
375.78	479.81
375.97	418.96
376.17	468.11
376.37	400.23
376.56	358.10
376.76	440.02
376.95	433.00
377.15	435.34
377.35	498.53
377.54	367.46
377.74	348.74
377.93	421.30
378.13	482.15
378.33	416.62
378.52	437.68
378.72	433.00
378.91	435.34
379.11	437.68
379.31	428.32
379.50	404.91
379.70	449.38
379.89	428.32
380.09	397.89
380.28	400.23
380.48	425.98
380.68	404.91
380.87	444.70
381.07	451.72
381.26	409.59
381.46	346.40
381.65	372.15
381.85	411.93
382.04	355.76
382.24	376.83
382.43	451.72
382.63	381.51
382.83	393.21
383.02	372.15
383.22	444.70
383.41	402.57
383.61	433.00
383.80	395.55
384.00	440.02
384.19	376.83
384.39	430.66
384.58	440.02
384.78	407.25
384.97	449.38
385.17	407.25
385.36	456.40
385.56	423.64
385.75	383.85
385.95	379.17
386.14	402.57
386.34	346.40
386.53	369.80
386.72	425.98
386.92	444.70
387.11	465.77
387.31	369.80
387.50	421.30
387.70	327.68
387.89	451.72
388.09	402.57
388.28	416.62
388.48	416.62
388.67	454.06
388.86	444.70
389.06	397.89
389.25	390.87
389.45	433.00
389.64	411.93
389.84	505.56
390.03	454.06
390.22	393.21
390.42	454.06
390.61	475.13
390.81	381.51
391.00	444.70
391.19	388.53
391.39	425.98
391.58	433.00
391.78	388.53
391.97	395.55
392.16	458.74
392.36	482.15
392.55	444.70
392.75	404.91
392.94	360.44
393.13	372.15
393.33	430.66
393.52	400.23
393.71	421.30
393.91	369.80
394.10	395.55
394.29	386.19
394.49	367.46
394.68	379.17
394.88	421.30
395.07	395.55
395.26	369.80
395.46	386.19
395.65	416.62
395.84	444.70
396.04	442.36
396.23	472.79
396.42	376.83
396.62	341.72
396.81	404.91
397.00	376.83
397.19	330.02
397.39	337.04
397.58	423.64
397.77	407.25
397.97	358.10
398.16	433.00
398.35	402.57
398.55	451.72
398.74	390.87
398.93	418.96
399.12	402.57
399.32	440.02
399.51	388.53
399.70	402.57
399.90	360.44
400.09	386.19
400.28	362.78
400.47	386.19
400.67	489.17
400.86	444.70
401.05	440.02
401.24	379.17
401.44	402.57
401.63	351.08
401.82	449.38
402.01	346.40
402.21	507.90
402.40	362.78
402.59	346.40
402.78	411.93
402.97	428.32
403.17	386.19
403.36	458.74
403.55	395.55
403.74	367.46
403.93	393.21
404.13	372.15
404.32	353.42
404.51	386.19
404.70	433.00
404.89	456.40
405.09	423.64
405.28	411.93
405.47	416.62
405.66	381.51
405.85	414.27
406.05	440.02
406.24	402.57
406.43	435.34
406.62	402.57
406.81	470.45
407.00	437.68
407.20	477.47
407.39	425.98
407.58	442.36
407.77	503.22
407.96	456.40
408.15	407.25
408.34	390.87
408.54	388.53
408.73	435.34
408.92	411.93
409.11	465.77
409.30	372.15
409.49	390.87
409.68	362.78
409.87	404.91
410.07	369.80
410.26	367.46
410.45	353.42
410.64	423.64
410.83	390.87
411.02	430.66
411.21	425.98
411.40	475.13
411.59	393.21
411.78	458.74
411.98	414.27
412.17	428.32
412.36	388.53
412.55	383.85
412.74	463.43
412.93	449.38
413.12	360.44
413.31	425.98
413.50	369.80
413.69	418.96
413.88	421.30
414.07	383.85
414.26	458.74
414.45	407.25
414.64	423.64
414.83	402.57
415.02	383.85
415.22	479.81
415.41	411.93
415.60	416.62
415.79	430.66
415.98	404.91
416.17	465.77
416.36	397.89
416.55	409.59
416.74	414.27
416.93	397.89
417.12	379.17
417.31	379.17
417.50	362.78
417.69	390.87
417.88	421.30
418.07	381.51
418.26	484.49
418.45	425.98
418.64	435.34
418.83	409.59
419.02	421.30
419.21	428.32
419.39	430.66
419.58	404.91
419.77	440.02
419.96	320.65
420.15	456.40
420.34	512.58
420.53	425.98
420.72	461.09
420.91	437.68
421.10	351.08
421.29	435.34
421.48	447.04
421.67	425.98
421.86	409.59
422.05	400.23
422.24	383.85
422.43	393.21
422.61	386.19
422.80	367.46
422.99	416.62
423.18	393.21
423.37	447.04
423.56	482.15
423.75	486.83
423.94	390.87
424.13	418.96
424.32	423.64
424.50	404.91
424.69	379.17
424.88	381.51
425.07	360.44
425.26	355.76
425.45	440.02
425.64	369.80
425.83	374.49
426.01	475.13
426.20	442.36
426.39	444.70
426.58	395.55
426.77	369.80
426.96	315.97
427.15	362.78
427.33	430.66
427.52	395.55
427.71	456.40
427.90	454.06
428.09	404.91
428.28	435.34
428.46	395.55
428.65	428.32
428.84	418.96
429.03	444.70
429.22	418.96
429.40	376.83
429.59	393.21
429.78	358.10
429.97	393.21
430.16	344.06
430.34	414.27
430.53	407.25
430.72	433.00
430.91	496.19
431.10	395.55
431.28	397.89
431.47	444.70
431.66	477.47
431.85	433.00
432.03	435.34
432.22	416.62
432.41	421.30
432.60	404.91
432.79	374.49
432.97	442.36
433.16	442.36
433.35	479.81
433.54	475.13
433.72	379.17
433.91	393.21
434.10	451.72
434.28	409.59
434.47	332.36
434.66	369.80
434.85	442.36
435.03	447.04
435.22	458.74
435.41	468.11
435.59	418.96
435.78	430.66
435.97	423.64
436.16	465.77
436.34	435.34
436.53	407.25
436.72	472.79
436.90	435.34
437.09	423.64
437.28	400.23
437.46	433.00
437.65	484.49
437.84	472.79
438.02	411.93
438.21	383.85
438.40	442.36
438.58	442.36
438.77	428.32
438.96	468.11
439.14	411.93
439.33	479.81
439.52	421.30
439.70	510.24
439.89	360.44
440.08	456.40
440.26	449.38
440.45	402.57
440.63	491.51
440.82	449.38
441.01	428.32
441.19	388.53
441.38	425.98
441.57	383.85
441.75	472.79
441.94	416.62
442.12	456.40
442.31	402.57
442.50	407.25
442.68	524.28
442.87	444.70
443.05	397.89
443.24	423.64
443.43	386.19
443.61	397.89
443.80	414.27
443.98	428.32
444.17	421.30
444.35	456.40
444.54	386.19
444.73	440.02
444.91	416.62
445.10	360.44
445.28	287.89
445.47	402.57
445.65	407.25
445.84	393.21
446.02	414.27
446.21	402.57
446.39	404.91
446.58	365.12
446.77	435.34
446.95	409.59
447.14	414.27
447.32	428.32
447.51	400.23
447.69	358.10
447.88	484.49
448.06	409.59
448.25	346.40
448.43	390.87
448.62	400.23
448.80	423.64
448.99	477.47
449.17	369.80
449.36	374.49
449.54	390.87
449.73	418.96
449.91	451.72
450.10	496.19
450.28	360.44
450.46	418.96
450.65	451.72
450.83	437.68
451.02	395.55
451.20	395.55
451.39	393.21
451.57	414.27
451.76	425.98
451.94	360.44
452.13	414.27
452.31	444.70
452.49	418.96
452.68	409.59
452.86	430.66
453.05	418.96
453.23	425.98
453.42	337.04
453.60	421.30
453.78	393.21
453.97	409.59
454.15	358.10
454.34	465.77
454.52	409.59
454.70	430.66
454.89	381.51
455.07	372.15
455.26	475.13
455.44	454.06
455.62	416.62
455.81	393.21
455.99	444.70
456.17	395.55
456.36	475.13
456.54	411.93
456.73	402.57
456.91	411.93
457.09	390.87
457.28	423.64
457.46	458.74
457.64	397.89
457.83	465.77
458.01	400.23
458.19	402.57
458.38	416.62
458.56	395.55
458.74	440.02
458.93	486.83
459.11	461.09
459.29	433.00
459.48	433.00
459.66	435.34
459.84	369.80
460.03	449.38
460.21	414.27
460.39	402.57
460.57	433.00
460.76	397.89
460.94	433.00
461.12	491.51
461.31	421.30
461.49	404.91
461.67	409.59
461.85	388.53
462.04	322.99
462.22	716.20
462.40	468.11
462.59	477.47
462.77	442.36
462.95	386.19
463.13	379.17
463.32	454.06
463.50	458.74
463.68	416.62
463.86	390.87
464.05	416.62
464.23	433.00
464.41	425.98
464.59	379.17
464.78	402.57
464.96	433.00
465.14	409.59
465.32	351.08
465.50	409.59
465.69	383.85
465.87	407.25
466.05	421.30
466.23	395.55
466.41	433.00
466.60	428.32
466.78	423.64
466.96	496.19
467.14	442.36
467.32	418.96
467.51	477.47
467.69	358.10
467.87	404.91
468.05	458.74
468.23	449.38
468.41	390.87
468.60	400.23
468.78	484.49
468.96	395.55
469.14	430.66
469.32	454.06
469.50	423.64
469.69	442.36
469.87	449.38
470.05	383.85
470.23	376.83
470.41	390.87
470.59	379.17
470.77	409.59
470.95	440.02
471.14	444.70
471.32	458.74
471.50	479.81
471.68	425.98
471.86	440.02
472.04	425.98
472.22	442.36
472.40	369.80
472.58	390.87
472.77	390.87
472.95	369.80
473.13	423.64
473.31	379.17
473.49	411.93
473.67	470.45
473.85	411.93
474.03	454.06
474.21	470.45
474.39	454.06
474.57	538.32
474.75	411.93
474.93	404.91
475.12	433.00
475.30	425.98
475.48	465.77
475.66	393.21
475.84	454.06
476.02	430.66
476.20	351.08
476.38	451.72
476.56	475.13
476.74	442.36
476.92	442.36
477.10	383.85
477.28	388.53
477.46	374.49
477.64	423.64
477.82	409.59
478.00	440.02
478.18	397.89
478.36	463.43
478.54	393.21
478.72	435.34
478.90	461.09
479.08	449.38
479.26	449.38
479.44	430.66
479.62	409.59
479.80	379.17
479.98	379.17
480.16	514.92
480.34	435.34
480.52	402.57
480.70	425.98
480.88	390.87
481.06	381.51
481.24	468.11
481.41	479.81
481.59	355.76
481.77	400.23
481.95	383.85
482.13	421.30
482.31	421.30
482.49	360.44
482.67	404.91
482.85	421.30
483.03	486.83
483.21	458.74
483.39	430.66
483.57	430.66
483.74	404.91
483.92	409.59
484.10	383.85
484.28	407.25
484.46	421.30
484.64	433.00
484.82	430.66
485.00	355.76
485.18	411.93
485.35	425.98
485.53	397.89
485.71	477.47
485.89	421.30
486.07	376.83
486.25	500.87
486.43	447.04
486.61	388.53
486.78	472.79
486.96	463.43
487.14	334.70
487.32	351.08
487.50	430.66
487.68	409.59
487.85	379.17
488.03	458.74
488.21	454.06
488.39	404.91
488.57	489.17
488.75	477.47
488.92	430.66
489.10	437.68
489.28	503.22
489.46	425.98
489.64	376.83
489.81	442.36
489.99	437.68
490.17	425.98
490.35	472.79
490.53	418.96
490.70	379.17
490.88	475.13
491.06	372.15
491.24	381.51
491.41	400.23
491.59	414.27
491.77	362.78
491.95	411.93
492.13	348.74
492.30	381.51
492.48	416.62
492.66	393.21
492.84	374.49
493.01	416.62
493.19	411.93
493.37	449.38
493.54	421.30
493.72	402.57
493.90	390.87
494.08	463.43
494.25	423.64
494.43	423.64
494.61	414.27
494.79	411.93
494.96	409.59
495.14	486.83
495.32	440.02
495.49	442.36
495.67	433.00
495.85	402.57
496.02	433.00
496.20	435.34
496.38	447.04
496.55	421.30
496.73	444.70
496.91	397.89
497.09	388.53
497.26	411.93
497.44	442.36
497.62	421.30
497.79	367.46
497.97	425.98
498.14	465.77
498.32	411.93
498.50	407.25
498.67	330.02
498.85	362.78
499.03	444.70
499.20	440.02
499.38	379.17
499.56	491.51
499.73	411.93
499.91	400.23
500.08	362.78
500.26	442.36
500.44	390.87
500.61	428.32
500.79	381.51
500.97	362.78
501.14	463.43
501.32	512.58
501.49	477.47
501.67	435.34
501.84	372.15
502.02	402.57
502.20	435.34
502.37	423.64
502.55	468.11
502.72	440.02
502.90	437.68
503.07	341.72
503.25	381.51
503.43	388.53
503.60	437.68
503.78	367.46
503.95	411.93
504.13	400.23
504.30	388.53
504.48	451.72
504.65	461.09
504.83	475.13
505.01	468.11
505.18	444.70
505.36	440.02
505.53	360.44
505.71	409.59
505.88	470.45
506.06	411.93
506.23	489.17
506.41	311.29
506.58	409.59
506.76	416.62
506.93	346.40
507.11	444.70
507.28	423.64
507.46	407.25
507.63	339.38
507.81	430.66
507.98	428.32
508.16	402.57
508.33	416.62
508.50	421.30
508.68	407.25
508.85	421.30
509.03	390.87
509.20	355.76
509.38	390.87
509.55	437.68
509.73	489.17
509.90	418.96
510.08	440.02
510.25	449.38
510.42	430.66
510.60	463.43
510.77	430.66
510.95	402.57
511.12	479.81
511.30	416.62
511.47	472.79
511.64	393.21
511.82	411.93
511.99	367.46
512.17	393.21
512.34	430.66
512.51	428.32
512.69	442.36
512.86	484.49
513.04	437.68
513.21	440.02
513.38	407.25
513.56	423.64
513.73	407.25
513.90	421.30
514.08	444.70
514.25	395.55
514.43	430.66
514.60	418.96
514.77	362.78
514.95	451.72
515.12	458.74
515.29	437.68
515.47	475.13
515.64	390.87
515.81	386.19
515.99	442.36
516.16	472.79
516.33	479.81
516.51	416.62
516.68	304.27
516.85	416.62
517.03	411.93
517.20	433.00
517.37	407.25
517.54	376.83
517.72	411.93
517.89	379.17
518.06	360.44
518.24	482.15
518.41	475.13
518.58	353.42
518.75	414.27
518.93	400.23
519.10	524.28
519.27	526.62
519.45	395.55
519.62	458.74
519.79	414.27
519.96	397.89
520.14	491.51
520.31	475.13
520.48	458.74
520.65	383.85
520.83	472.79
521.00	400.23
521.17	451.72
521.34	458.74
521.52	339.38
521.69	477.47
521.86	428.32
522.03	479.81
522.20	461.09
522.38	454.06
522.55	400.23
522.72	402.57
522.89	407.25
523.07	425.98
523.24	451.72
523.41	428.32
523.58	369.80
523.75	400.23
523.92	411.93
524.10	395.55
524.27	468.11
524.44	440.02
524.61	409.59
524.78	442.36
524.96	465.77
525.13	435.34
525.30	482.15
525.47	510.24
525.64	454.06
525.81	470.45
525.98	435.34
526.16	390.87
526.33	404.91
526.50	400.23
526.67	444.70
526.84	425.98
527.01	407.25
527.18	388.53
527.36	430.66
527.53	493.85
527.70	365.12
527.87	404.91
528.04	435.34
528.21	433.00
528.38	442.36
528.55	421.30
528.72	458.74
528.89	477.47
529.07	444.70
529.24	440.02
529.41	454.06
529.58	404.91
529.75	437.68
529.92	433.00
530.09	442.36
530.26	447.04
530.43	463.43
530.60	376.83
530.77	440.02
530.94	379.17
531.11	423.64
531.28	423.64
531.46	390.87
531.63	433.00
531.80	393.21
531.97	418.96
532.14	393.21
532.31	379.17
532.48	393.21
532.65	428.32
532.82	418.96
532.99	435.34
533.16	416.62
533.33	388.53
533.50	400.23
533.67	372.15
533.84	447.04
534.01	440.02
534.18	372.15
534.35	383.85
534.52	456.40
534.69	440.02
534.86	400.23
535.03	318.31
535.20	407.25
535.37	447.04
535.54	388.53
535.71	397.89
535.88	437.68
536.05	470.45
536.22	425.98
536.38	414.27
536.55	442.36
536.72	379.17
536.89	440.02
537.06	433.00
537.23	458.74
537.40	472.79
537.57	444.70
537.74	454.06
537.91	421.30
538.08	418.96
538.25	503.22
538.42	430.66
538.59	470.45
538.75	393.21
538.92	362.78
539.09	423.64
539.26	421.30
539.43	414.27
539.60	435.34
539.77	482.15
539.94	404.91
540.11	458.74
540.28	437.68
540.44	433.00
540.61	395.55
540.78	411.93
540.95	386.19
541.12	528.96
541.29	414.27
541.46	442.36
541.62	437.68
541.79	402.57
541.96	369.80
542.13	430.66
542.30	407.25
542.47	397.89
542.63	414.27
542.80	447.04
542.97	449.38
543.14	486.83
543.31	428.32
543.48	428.32
543.64	423.64
543.81	402.57
543.98	421.30
544.15	360.44
544.32	465.77
544.48	348.74
544.65	416.62
544.82	411.93
544.99	468.11
545.16	489.17
545.32	425.98
545.49	386.19
545.66	416.62
545.83	330.02
546.00	414.27
546.16	442.36
546.33	421.30
546.50	454.06
546.67	470.45
546.83	430.66
547.00	435.34
547.17	372.15
547.34	470.45
547.50	365.12
547.67	496.19
547.84	376.83
548.00	404.91
548.17	393.21
548.34	449.38
548.51	468.11
548.67	423.64
548.84	477.47
549.01	416.62
549.18	411.93
549.34	454.06
549.51	472.79
549.68	468.11
549.84	437.68
550.01	374.49
550.18	596.84
550.34	477.47
550.51	454.06
550.68	440.02
550.84	435.34
551.01	463.43
551.18	479.81
551.34	393.21
551.51	400.23
551.68	451.72
551.84	472.79
552.01	409.59
552.18	484.49
552.34	440.02
552.51	386.19
552.68	433.00
552.84	416.62
553.01	402.57
553.18	337.04
553.34	418.96
553.51	379.17
553.67	484.49
553.84	489.17
554.01	393.21
554.17	411.93
554.34	409.59
554.51	386.19
554.67	465.77
554.84	423.64
555.00	409.59
555.17	362.78
555.33	383.85
555.50	409.59
555.67	528.96
555.83	388.53
556.00	318.31
556.16	517.26
556.33	472.79
556.50	390.87
556.66	395.55
556.83	430.66
556.99	383.85
557.16	416.62
557.32	409.59
557.49	437.68
557.65	444.70
557.82	472.79
557.98	421.30
558.15	435.34
558.32	475.13
558.48	402.57
558.65	404.91
558.81	428.32
558.98	397.89
559.14	423.64
559.31	461.09
559.47	444.70
559.64	414.27
559.80	425.98
559.97	381.51
560.13	379.17
560.30	458.74
560.46	379.17
560.63	428.32
560.79	409.59
560.96	433.00
561.12	416.62
561.29	461.09
561.45	395.55
561.61	421.30
561.78	458.74
561.94	386.19
562.11	397.89
562.27	369.80
562.44	409.59
562.60	435.34
562.77	367.46
562.93	456.40
563.10	390.87
563.26	458.74
563.42	472.79
563.59	400.23
563.75	388.53
563.92	454.06
564.08	550.03
564.24	454.06
564.41	477.47
564.57	442.36
564.74	411.93
564.90	404.91
565.07	423.64
565.23	477.47
565.39	372.15
565.56	449.38
565.72	425.98
565.88	468.11
566.05	414.27
566.21	468.11
566.38	423.64
566.54	407.25
566.70	447.04
566.87	395.55
567.03	379.17
567.19	383.85
567.36	475.13
567.52	510.24
567.68	421.30
567.85	468.11
568.01	407.25
568.17	400.23
568.34	407.25
568.50	449.38
568.66	383.85
568.83	465.77
568.99	435.34
569.15	411.93
569.32	381.51
569.48	435.34
569.64	437.68
569.81	397.89
569.97	421.30
570.13	409.59
570.30	379.17
570.46	435.34
570.62	360.44
570.78	521.94
570.95	362.78
571.11	418.96
571.27	472.79
571.43	479.81
571.60	470.45
571.76	428.32
571.92	337.04
572.09	393.21
572.25	423.64
572.41	442.36
572.57	397.89
572.74	440.02
572.90	440.02
573.06	421.30
573.22	451.72
573.38	444.70
573.55	505.56
573.71	482.15
573.87	461.09
574.03	416.62
574.20	383.85
574.36	500.87
574.52	451.72
574.68	444.70
574.84	463.43
575.01	435.34
575.17	411.93
575.33	404.91
575.49	369.80
575.65	468.11
575.82	461.09
575.98	341.72
576.14	472.79
576.30	447.04
576.46	425.98
576.62	397.89
576.79	414.27
576.95	447.04
577.11	393.21
577.27	346.40
577.43	463.43
577.59	376.83
577.75	397.89
577.92	477.47
578.08	475.13
578.24	456.40
578.40	386.19
578.56	411.93
578.72	463.43
578.88	379.17
579.04	484.49
579.21	470.45
579.37	477.47
579.53	449.38
579.69	435.34
579.85	402.57
580.01	388.53
580.17	428.32
580.33	388.53
580.49	451.72
580.65	505.56
580.82	416.62
580.98	341.72
581.14	416.62
581.30	454.06
581.46	421.30
581.62	440.02
581.78	465.77
581.94	418.96
582.10	477.47
582.26	435.34
582.42	404.91
582.58	482.15
582.74	423.64
582.90	339.38
583.06	428.32
583.22	423.64
583.38	418.96
583.54	416.62
583.70	423.64
583.86	411.93
584.02	428.32
584.18	393.21
584.34	435.34
584.50	440.02
584.66	379.17
584.82	486.83
584.98	409.59
585.14	411.93
585.30	421.30
585.46	393.21
585.62	479.81
585.78	465.77
585.94	428.32
586.10	402.57
586.26	472.79
586.42	482.15
586.58	400.23
586.74	437.68
586.90	416.62
587.06	454.06
587.22	383.85
587.38	416.62
587.54	414.27
587.70	461.09
587.86	486.83
588.02	360.44
588.18	458.74
588.34	498.53
588.49	416.62
588.65	451.72
588.81	479.81
588.97	395.55
589.13	411.93
589.29	402.57
589.45	425.98
589.61	372.15
589.77	524.28
589.93	428.32
590.08	477.47
590.24	407.25
590.40	414.27
590.56	365.12
590.72	400.23
590.88	360.44
591.04	388.53
591.20	360.44
591.35	444.70
591.51	425.98
591.67	393.21
591.83	456.40
591.99	444.70
592.15	437.68
592.31	386.19
592.46	442.36
592.62	383.85
592.78	418.96
592.94	372.15
593.10	383.85
593.26	334.70
593.41	451.72
593.57	395.55
593.73	433.00
593.89	456.40
594.05	507.90
594.20	388.53
594.36	393.21
594.52	400.23
594.68	334.70
594.84	416.62
594.99	411.93
595.15	425.98
595.31	388.53
595.47	393.21
595.62	369.80
595.78	440.02
595.94	458.74
596.10	428.32
596.25	383.85
596.41	458.74
596.57	491.51
596.73	421.30
596.88	379.17
597.04	404.91
597.20	388.53
597.36	472.79
597.51	454.06
597.67	444.70
597.83	425.98
597.99	393.21
598.14	395.55
598.30	440.02
598.46	390.87
598.61	423.64
598.77	411.93
598.93	414.27
599.09	458.74
599.24	423.64
599.40	461.09
599.56	414.27
599.71	353.42
599.87	360.44
600.03	451.72
600.18	482.15
600.34	435.34
600.50	423.64
600.65	393.21
600.81	421.30
600.97	402.57
601.12	451.72
601.28	475.13
601.44	493.85
601.59	367.46
601.75	411.93
601.91	383.85
602.06	458.74
602.22	512.58
602.37	388.53
602.53	435.34
602.69	388.53
602.84	374.49
603.00	404.91
603.16	472.79
603.31	402.57
603.47	386.19
603.62	425.98
603.78	458.74
603.94	449.38
604.09	428.32
604.25	456.40
604.40	468.11
604.56	442.36
604.71	437.68
604.87	418.96
605.03	404.91
605.18	421.30
605.34	442.36
605.49	437.68
605.65	433.00
605.80	351.08
605.96	418.96
606.12	353.42
606.27	423.64
606.43	449.38
606.58	479.81
606.74	376.83
606.89	390.87
607.05	423.64
607.20	454.06
607.36	456.40
607.51	456.40
607.67	486.83
607.82	339.38
607.98	519.60
608.13	423.64
608.29	437.68
608.44	402.57
608.60	348.74
608.75	397.89
608.91	423.64
609.06	428.32
609.22	395.55
609.37	425.98
609.53	407.25
609.68	369.80
609.84	475.13
609.99	341.72
610.15	430.66
