SpectraSuite Data File
++++++++++++++++++++++++++++++++++++
Date: Fri Oct 25 12:10:05 EDT 2013
User: price-jones
Dark Spectrum Present: No
Reference Spectrum Present: No
Number of Sampled Component Spectra: 1
Spectrometers: USB2+H05261
Integration Time (usec): 100000 (USB2+H05261)
Spectra Averaged: 1 (USB2+H05261)
Boxcar Smoothing: 0 (USB2+H05261)
Correct for Electrical Dark: No (USB2+H05261)
Strobe/Lamp Enabled: No (USB2+H05261)
Correct for Detector Non-linearity: No (USB2+H05261)
Correct for Stray Light: No (USB2+H05261)
Number of Pixels in Processed Spectrum: 2048
>>>>>Begin Processed Spectral Data<<<<<
365.73	372.15
365.92	372.15
366.12	372.15
366.32	217.67
366.52	250.44
366.72	205.97
366.91	299.59
367.11	264.48
367.31	290.23
367.51	259.80
367.70	212.99
367.90	236.39
368.10	224.69
368.30	243.42
368.49	243.42
368.69	287.89
368.89	255.12
369.09	283.20
369.28	264.48
369.48	222.35
369.68	191.92
369.87	365.12
370.07	250.44
370.27	248.10
370.47	374.49
370.66	421.30
370.86	372.15
371.06	418.96
371.25	428.32
371.45	334.70
371.65	416.62
371.84	407.25
372.04	334.70
372.24	332.36
372.44	416.62
372.63	397.89
372.83	407.25
373.03	456.40
373.22	447.04
373.42	388.53
373.62	440.02
373.81	395.55
374.01	346.40
374.21	390.87
374.40	444.70
374.60	472.79
374.79	437.68
374.99	402.57
375.19	358.10
375.38	407.25
375.58	376.83
375.78	358.10
375.97	447.04
376.17	496.19
376.37	440.02
376.56	402.57
376.76	463.43
376.95	421.30
377.15	449.38
377.35	344.06
377.54	444.70
377.74	423.64
377.93	386.19
378.13	454.06
378.33	456.40
378.52	421.30
378.72	407.25
378.91	404.91
379.11	397.89
379.31	383.85
379.50	449.38
379.70	395.55
379.89	440.02
380.09	346.40
380.28	315.97
380.48	402.57
380.68	372.15
380.87	428.32
381.07	390.87
381.26	456.40
381.46	374.49
381.65	435.34
381.85	348.74
382.04	440.02
382.24	449.38
382.43	430.66
382.63	397.89
382.83	444.70
383.02	428.32
383.22	430.66
383.41	428.32
383.61	418.96
383.80	444.70
384.00	362.78
384.19	447.04
384.39	440.02
384.58	472.79
384.78	409.59
384.97	390.87
385.17	376.83
385.36	388.53
385.56	442.36
385.75	376.83
385.95	482.15
386.14	479.81
386.34	390.87
386.53	425.98
386.72	379.17
386.92	470.45
387.11	414.27
387.31	395.55
387.50	330.02
387.70	395.55
387.89	442.36
388.09	423.64
388.28	330.02
388.48	369.80
388.67	447.04
388.86	458.74
389.06	358.10
389.25	449.38
389.45	344.06
389.64	330.02
389.84	472.79
390.03	393.21
390.22	374.49
390.42	386.19
390.61	381.51
390.81	341.72
391.00	435.34
391.19	519.60
391.39	447.04
391.58	442.36
391.78	367.46
391.97	395.55
392.16	393.21
392.36	449.38
392.55	383.85
392.75	475.13
392.94	388.53
393.13	437.68
393.33	395.55
393.52	425.98
393.71	437.68
393.91	475.13
394.10	421.30
394.29	404.91
394.49	372.15
394.68	437.68
394.88	362.78
395.07	425.98
395.26	400.23
395.46	400.23
395.65	456.40
395.84	418.96
396.04	472.79
396.23	407.25
396.42	355.76
396.62	351.08
396.81	418.96
397.00	388.53
397.19	428.32
397.39	383.85
397.58	402.57
397.77	393.21
397.97	468.11
398.16	402.57
398.35	386.19
398.55	400.23
398.74	358.10
398.93	430.66
399.12	451.72
399.32	395.55
399.51	390.87
399.70	433.00
399.90	449.38
400.09	428.32
400.28	395.55
400.47	390.87
400.67	430.66
400.86	433.00
401.05	358.10
401.24	461.09
401.44	428.32
401.63	358.10
401.82	423.64
402.01	397.89
402.21	369.80
402.40	372.15
402.59	341.72
402.78	423.64
402.97	418.96
403.17	442.36
403.36	374.49
403.55	461.09
403.74	425.98
403.93	447.04
404.13	433.00
404.32	395.55
404.51	395.55
404.70	381.51
404.89	351.08
405.09	454.06
405.28	393.21
405.47	386.19
405.66	337.04
405.85	395.55
406.05	440.02
406.24	386.19
406.43	484.49
406.62	395.55
406.81	477.47
407.00	486.83
407.20	395.55
407.39	416.62
407.58	395.55
407.77	390.87
407.96	374.49
408.15	437.68
408.34	372.15
408.54	421.30
408.73	388.53
408.92	409.59
409.11	430.66
409.30	372.15
409.49	367.46
409.68	433.00
409.87	348.74
410.07	367.46
410.26	360.44
410.45	395.55
410.64	358.10
410.83	383.85
411.02	402.57
411.21	376.83
411.40	369.80
411.59	388.53
411.78	440.02
411.98	383.85
412.17	388.53
412.36	418.96
412.55	404.91
412.74	374.49
412.93	430.66
413.12	376.83
413.31	402.57
413.50	414.27
413.69	400.23
413.88	409.59
414.07	367.46
414.26	433.00
414.45	393.21
414.64	423.64
414.83	444.70
415.02	337.04
415.22	444.70
415.41	514.92
415.60	374.49
415.79	430.66
415.98	442.36
416.17	379.17
416.36	409.59
416.55	379.17
416.74	353.42
416.93	315.97
417.12	386.19
417.31	435.34
417.50	383.85
417.69	491.51
417.88	346.40
418.07	374.49
418.26	416.62
418.45	388.53
418.64	365.12
418.83	449.38
419.02	353.42
419.21	402.57
419.39	449.38
419.58	374.49
419.77	381.51
419.96	447.04
420.15	418.96
420.34	418.96
420.53	402.57
420.72	461.09
420.91	383.85
421.10	421.30
421.29	397.89
421.48	430.66
421.67	418.96
421.86	365.12
422.05	456.40
422.24	454.06
422.43	395.55
422.61	451.72
422.80	430.66
422.99	409.59
423.18	351.08
423.37	458.74
423.56	416.62
423.75	451.72
423.94	451.72
424.13	414.27
424.32	365.12
424.50	402.57
424.69	437.68
424.88	428.32
425.07	486.83
425.26	365.12
425.45	477.47
425.64	437.68
425.83	440.02
426.01	404.91
426.20	369.80
426.39	348.74
426.58	486.83
426.77	416.62
426.96	411.93
427.15	416.62
427.33	409.59
427.52	381.51
427.71	416.62
427.90	407.25
428.09	360.44
428.28	397.89
428.46	430.66
428.65	358.10
428.84	404.91
429.03	477.47
429.22	365.12
429.40	423.64
429.59	393.21
429.78	440.02
429.97	416.62
430.16	355.76
430.34	404.91
430.53	358.10
430.72	416.62
430.91	425.98
431.10	421.30
431.28	397.89
431.47	400.23
431.66	437.68
431.85	447.04
432.03	393.21
432.22	463.43
432.41	409.59
432.60	411.93
432.79	381.51
432.97	447.04
433.16	358.10
433.35	414.27
433.54	428.32
433.72	318.31
433.91	425.98
434.10	367.46
434.28	381.51
434.47	418.96
434.66	444.70
434.85	425.98
435.03	421.30
435.22	444.70
435.41	390.87
435.59	369.80
435.78	428.32
435.97	386.19
436.16	503.22
436.34	437.68
436.53	374.49
436.72	416.62
436.90	379.17
437.09	425.98
437.28	386.19
437.46	393.21
437.65	423.64
437.84	397.89
438.02	400.23
438.21	393.21
438.40	383.85
438.58	418.96
438.77	421.30
438.96	425.98
439.14	297.25
439.33	458.74
439.52	362.78
439.70	421.30
439.89	430.66
440.08	381.51
440.26	365.12
440.45	435.34
440.63	386.19
440.82	433.00
441.01	411.93
441.19	454.06
441.38	423.64
441.57	430.66
441.75	458.74
441.94	369.80
442.12	381.51
442.31	353.42
442.50	456.40
442.68	393.21
442.87	468.11
443.05	395.55
443.24	430.66
443.43	358.10
443.61	428.32
443.80	374.49
443.98	379.17
444.17	407.25
444.35	430.66
444.54	440.02
444.73	468.11
444.91	437.68
445.10	397.89
445.28	423.64
445.47	437.68
445.65	461.09
445.84	409.59
446.02	423.64
446.21	381.51
446.39	449.38
446.58	393.21
446.77	418.96
446.95	400.23
447.14	372.15
447.32	468.11
447.51	418.96
447.69	433.00
447.88	393.21
448.06	416.62
448.25	430.66
448.43	367.46
448.62	388.53
448.80	416.62
448.99	381.51
449.17	348.74
449.36	362.78
449.54	435.34
449.73	386.19
449.91	397.89
450.10	430.66
450.28	451.72
450.46	465.77
450.65	423.64
450.83	498.53
451.02	430.66
451.20	449.38
451.39	395.55
451.57	423.64
451.76	437.68
451.94	428.32
452.13	458.74
452.31	428.32
452.49	376.83
452.68	348.74
452.86	447.04
453.05	437.68
453.23	437.68
453.42	409.59
453.60	404.91
453.78	411.93
453.97	383.85
454.15	416.62
454.34	451.72
454.52	334.70
454.70	379.17
454.89	484.49
455.07	454.06
455.26	360.44
455.44	414.27
455.62	463.43
455.81	393.21
455.99	383.85
456.17	444.70
456.36	379.17
456.54	393.21
456.73	409.59
456.91	409.59
457.09	447.04
457.28	423.64
457.46	383.85
457.64	449.38
457.83	397.89
458.01	395.55
458.19	414.27
458.38	411.93
458.56	456.40
458.74	433.00
458.93	383.85
459.11	360.44
459.29	442.36
459.48	454.06
459.66	463.43
459.84	451.72
460.03	442.36
460.21	369.80
460.39	456.40
460.57	383.85
460.76	402.57
460.94	444.70
461.12	409.59
461.31	456.40
461.49	360.44
461.67	421.30
461.85	341.72
462.04	376.83
462.22	908.13
462.40	458.74
462.59	395.55
462.77	388.53
462.95	369.80
463.13	435.34
463.32	421.30
463.50	435.34
463.68	435.34
463.86	395.55
464.05	369.80
464.23	416.62
464.41	395.55
464.59	367.46
464.78	430.66
464.96	367.46
465.14	411.93
465.32	402.57
465.50	346.40
465.69	411.93
465.87	372.15
466.05	353.42
466.23	379.17
466.41	428.32
466.60	374.49
466.78	404.91
466.96	425.98
467.14	369.80
467.32	374.49
467.51	379.17
467.69	456.40
467.87	416.62
468.05	386.19
468.23	416.62
468.41	358.10
468.60	381.51
468.78	440.02
468.96	423.64
469.14	402.57
469.32	416.62
469.50	510.24
469.69	449.38
469.87	397.89
470.05	444.70
470.23	425.98
470.41	360.44
470.59	463.43
470.77	388.53
470.95	423.64
471.14	386.19
471.32	470.45
471.50	440.02
471.68	402.57
471.86	400.23
472.04	358.10
472.22	454.06
472.40	489.17
472.58	463.43
472.77	402.57
472.95	393.21
473.13	528.96
473.31	423.64
473.49	351.08
473.67	409.59
473.85	379.17
474.03	428.32
474.21	451.72
474.39	400.23
474.57	468.11
474.75	468.11
474.93	292.57
475.12	402.57
475.30	400.23
475.48	463.43
475.66	423.64
475.84	437.68
476.02	444.70
476.20	428.32
476.38	388.53
476.56	493.85
476.74	423.64
476.92	435.34
477.10	390.87
477.28	365.12
477.46	397.89
477.64	451.72
477.82	416.62
478.00	418.96
478.18	379.17
478.36	404.91
478.54	379.17
478.72	416.62
478.90	404.91
479.08	369.80
479.26	430.66
479.44	353.42
479.62	353.42
479.80	442.36
479.98	332.36
480.16	444.70
480.34	423.64
480.52	444.70
480.70	414.27
480.88	503.22
481.06	425.98
481.24	372.15
481.41	386.19
481.59	404.91
481.77	383.85
481.95	355.76
482.13	421.30
482.31	447.04
482.49	367.46
482.67	512.58
482.85	435.34
483.03	444.70
483.21	407.25
483.39	381.51
483.57	362.78
483.74	418.96
483.92	430.66
484.10	414.27
484.28	421.30
484.46	526.62
484.64	390.87
484.82	407.25
485.00	344.06
485.18	449.38
485.35	397.89
485.53	407.25
485.71	372.15
485.89	390.87
486.07	461.09
486.25	423.64
486.43	472.79
486.61	400.23
486.78	454.06
486.96	351.08
487.14	393.21
487.32	362.78
487.50	430.66
487.68	505.56
487.85	388.53
488.03	440.02
488.21	341.72
488.39	404.91
488.57	367.46
488.75	458.74
488.92	442.36
489.10	435.34
489.28	486.83
489.46	404.91
489.64	451.72
489.81	416.62
489.99	369.80
490.17	379.17
490.35	463.43
490.53	390.87
490.70	449.38
490.88	440.02
491.06	395.55
491.24	435.34
491.41	491.51
491.59	440.02
491.77	393.21
491.95	404.91
492.13	353.42
492.30	411.93
492.48	390.87
492.66	411.93
492.84	393.21
493.01	484.49
493.19	440.02
493.37	416.62
493.54	428.32
493.72	407.25
493.90	379.17
494.08	379.17
494.25	404.91
494.43	458.74
494.61	418.96
494.79	386.19
494.96	444.70
495.14	468.11
495.32	388.53
495.49	404.91
495.67	435.34
495.85	393.21
496.02	416.62
496.20	360.44
496.38	409.59
496.55	407.25
496.73	430.66
496.91	447.04
497.09	421.30
497.26	435.34
497.44	411.93
497.62	388.53
497.79	402.57
497.97	365.12
498.14	451.72
498.32	430.66
498.50	404.91
498.67	402.57
498.85	372.15
499.03	428.32
499.20	379.17
499.38	362.78
499.56	379.17
499.73	451.72
499.91	423.64
500.08	437.68
500.26	348.74
500.44	395.55
500.61	482.15
500.79	414.27
500.97	334.70
501.14	461.09
501.32	355.76
501.49	383.85
501.67	414.27
501.84	339.38
502.02	428.32
502.20	463.43
502.37	409.59
502.55	322.99
502.72	397.89
502.90	414.27
503.07	404.91
503.25	376.83
503.43	428.32
503.60	362.78
503.78	407.25
503.95	362.78
504.13	395.55
504.30	428.32
504.48	390.87
504.65	470.45
504.83	454.06
505.01	421.30
505.18	409.59
505.36	458.74
505.53	472.79
505.71	425.98
505.88	404.91
506.06	472.79
506.23	411.93
506.41	344.06
506.58	348.74
506.76	425.98
506.93	407.25
507.11	416.62
507.28	386.19
507.46	372.15
507.63	433.00
507.81	456.40
507.98	407.25
508.16	447.04
508.33	393.21
508.50	414.27
508.68	470.45
508.85	477.47
509.03	470.45
509.20	383.85
509.38	411.93
509.55	437.68
509.73	433.00
509.90	414.27
510.08	421.30
510.25	458.74
510.42	358.10
510.60	381.51
510.77	449.38
510.95	372.15
511.12	337.04
511.30	470.45
511.47	407.25
511.64	404.91
511.82	416.62
511.99	372.15
512.17	442.36
512.34	418.96
512.51	376.83
512.69	400.23
512.86	404.91
513.04	404.91
513.21	400.23
513.38	409.59
513.56	440.02
513.73	383.85
513.90	395.55
514.08	311.29
514.25	337.04
514.43	486.83
514.60	381.51
514.77	437.68
514.95	421.30
515.12	444.70
515.29	397.89
515.47	435.34
515.64	435.34
515.81	423.64
515.99	477.47
516.16	383.85
516.33	407.25
516.51	397.89
516.68	341.72
516.85	425.98
517.03	393.21
517.20	486.83
517.37	388.53
517.54	376.83
517.72	402.57
517.89	442.36
518.06	444.70
518.24	571.09
518.41	390.87
518.58	423.64
518.75	407.25
518.93	456.40
519.10	437.68
519.27	454.06
519.45	393.21
519.62	449.38
519.79	425.98
519.96	367.46
520.14	395.55
520.31	428.32
520.48	374.49
520.65	416.62
520.83	402.57
521.00	461.09
521.17	397.89
521.34	425.98
521.52	411.93
521.69	383.85
521.86	388.53
522.03	442.36
522.20	472.79
522.38	461.09
522.55	372.15
522.72	383.85
522.89	423.64
523.07	388.53
523.24	421.30
523.41	423.64
523.58	418.96
523.75	447.04
523.92	444.70
524.10	423.64
524.27	409.59
524.44	386.19
524.61	461.09
524.78	470.45
524.96	456.40
525.13	451.72
525.30	358.10
525.47	390.87
525.64	458.74
525.81	393.21
525.98	449.38
526.16	433.00
526.33	449.38
526.50	477.47
526.67	397.89
526.84	360.44
527.01	388.53
527.18	400.23
527.36	402.57
527.53	374.49
527.70	400.23
527.87	376.83
528.04	503.22
528.21	388.53
528.38	496.19
528.55	409.59
528.72	414.27
528.89	472.79
529.07	360.44
529.24	418.96
529.41	472.79
529.58	430.66
529.75	416.62
529.92	423.64
530.09	430.66
530.26	475.13
530.43	428.32
530.60	458.74
530.77	390.87
530.94	411.93
531.11	447.04
531.28	400.23
531.46	341.72
531.63	449.38
531.80	400.23
531.97	447.04
532.14	362.78
532.31	463.43
532.48	369.80
532.65	374.49
532.82	360.44
532.99	390.87
533.16	418.96
533.33	451.72
533.50	365.12
533.67	409.59
533.84	517.26
534.01	425.98
534.18	379.17
534.35	365.12
534.52	395.55
534.69	400.23
534.86	524.28
535.03	376.83
535.20	458.74
535.37	393.21
535.54	383.85
535.71	418.96
535.88	451.72
536.05	339.38
536.22	395.55
536.38	348.74
536.55	484.49
536.72	404.91
536.89	484.49
537.06	369.80
537.23	514.92
537.40	421.30
537.57	447.04
537.74	433.00
537.91	376.83
538.08	423.64
538.25	395.55
538.42	416.62
538.59	362.78
538.75	372.15
538.92	402.57
539.09	418.96
539.26	411.93
539.43	465.77
539.60	411.93
539.77	402.57
539.94	362.78
540.11	400.23
540.28	433.00
540.44	423.64
540.61	433.00
540.78	372.15
540.95	472.79
541.12	416.62
541.29	355.76
541.46	404.91
541.62	358.10
541.79	411.93
541.96	409.59
542.13	402.57
542.30	374.49
542.47	402.57
542.63	390.87
542.80	470.45
542.97	465.77
543.14	418.96
543.31	339.38
543.48	379.17
543.64	386.19
543.81	425.98
543.98	379.17
544.15	423.64
544.32	383.85
544.48	411.93
544.65	365.12
544.82	411.93
544.99	470.45
545.16	383.85
545.32	435.34
545.49	395.55
545.66	435.34
545.83	386.19
546.00	390.87
546.16	404.91
546.33	461.09
546.50	430.66
546.67	421.30
546.83	440.02
547.00	390.87
547.17	421.30
547.34	362.78
547.50	390.87
547.67	435.34
547.84	435.34
548.00	428.32
548.17	470.45
548.34	416.62
548.51	444.70
548.67	423.64
548.84	425.98
549.01	407.25
549.18	407.25
549.34	416.62
549.51	411.93
549.68	440.02
549.84	411.93
550.01	362.78
550.18	451.72
550.34	470.45
550.51	444.70
550.68	440.02
550.84	388.53
551.01	411.93
551.18	430.66
551.34	470.45
551.51	463.43
551.68	407.25
551.84	414.27
552.01	425.98
552.18	390.87
552.34	486.83
552.51	416.62
552.68	482.15
552.84	442.36
553.01	423.64
553.18	449.38
553.34	397.89
553.51	458.74
553.67	449.38
553.84	491.51
554.01	418.96
554.17	386.19
554.34	390.87
554.51	437.68
554.67	444.70
554.84	505.56
555.00	435.34
555.17	421.30
555.33	470.45
555.50	437.68
555.67	451.72
555.83	409.59
556.00	423.64
556.16	528.96
556.33	468.11
556.50	395.55
556.66	461.09
556.83	395.55
556.99	449.38
557.16	465.77
557.32	414.27
557.49	337.04
557.65	411.93
557.82	433.00
557.98	414.27
558.15	390.87
558.32	414.27
558.48	379.17
558.65	397.89
558.81	491.51
558.98	421.30
559.14	395.55
559.31	402.57
559.47	437.68
559.64	404.91
559.80	437.68
559.97	388.53
560.13	327.68
560.30	374.49
560.46	411.93
560.63	430.66
560.79	407.25
560.96	440.02
561.12	334.70
561.29	470.45
561.45	348.74
561.61	374.49
561.78	435.34
561.94	411.93
562.11	386.19
562.27	430.66
562.44	376.83
562.60	388.53
562.77	355.76
562.93	465.77
563.10	479.81
563.26	367.46
563.42	381.51
563.59	421.30
563.75	470.45
563.92	447.04
564.08	411.93
564.24	447.04
564.41	486.83
564.57	451.72
564.74	423.64
564.90	416.62
565.07	402.57
565.23	437.68
565.39	447.04
565.56	442.36
565.72	425.98
565.88	418.96
566.05	395.55
566.21	442.36
566.38	425.98
566.54	470.45
566.70	404.91
566.87	346.40
567.03	411.93
567.19	430.66
567.36	444.70
567.52	444.70
567.68	451.72
567.85	512.58
568.01	404.91
568.17	435.34
568.34	435.34
568.50	365.12
568.66	388.53
568.83	435.34
568.99	468.11
569.15	456.40
569.32	428.32
569.48	418.96
569.64	325.33
569.81	472.79
569.97	383.85
570.13	472.79
570.30	306.61
570.46	369.80
570.62	390.87
570.78	428.32
570.95	444.70
571.11	418.96
571.27	444.70
571.43	330.02
571.60	482.15
571.76	383.85
571.92	489.17
572.09	414.27
572.25	376.83
572.41	365.12
572.57	407.25
572.74	477.47
572.90	486.83
573.06	435.34
573.22	416.62
573.38	416.62
573.55	440.02
573.71	447.04
573.87	411.93
574.03	425.98
574.20	440.02
574.36	365.12
574.52	451.72
574.68	402.57
574.84	414.27
575.01	372.15
575.17	475.13
575.33	454.06
575.49	397.89
575.65	433.00
575.82	444.70
575.98	397.89
576.14	362.78
576.30	423.64
576.46	421.30
576.62	409.59
576.79	397.89
576.95	449.38
577.11	325.33
577.27	367.46
577.43	503.22
577.59	524.28
577.75	433.00
577.92	393.21
578.08	397.89
578.24	423.64
578.40	465.77
578.56	444.70
578.72	367.46
578.88	393.21
579.04	374.49
579.21	390.87
579.37	397.89
579.53	421.30
579.69	451.72
579.85	362.78
580.01	430.66
580.17	351.08
580.33	379.17
580.49	411.93
580.65	376.83
580.82	386.19
580.98	404.91
581.14	449.38
581.30	444.70
581.46	456.40
581.62	437.68
581.78	507.90
581.94	433.00
582.10	400.23
582.26	472.79
582.42	383.85
582.58	393.21
582.74	409.59
582.90	477.47
583.06	433.00
583.22	367.46
583.38	402.57
583.54	451.72
583.70	461.09
583.86	472.79
584.02	433.00
584.18	430.66
584.34	421.30
584.50	383.85
584.66	416.62
584.82	383.85
584.98	397.89
585.14	409.59
585.30	428.32
585.46	379.17
585.62	379.17
585.78	390.87
585.94	456.40
586.10	425.98
586.26	409.59
586.42	437.68
586.58	414.27
586.74	440.02
586.90	386.19
587.06	379.17
587.22	411.93
587.38	386.19
587.54	423.64
587.70	397.89
587.86	402.57
588.02	388.53
588.18	393.21
588.34	386.19
588.49	470.45
588.65	447.04
588.81	470.45
588.97	416.62
589.13	395.55
589.29	292.57
589.45	458.74
589.61	486.83
589.77	454.06
589.93	372.15
590.08	367.46
590.24	409.59
590.40	493.85
590.56	442.36
590.72	421.30
590.88	395.55
591.04	395.55
591.20	348.74
591.35	465.77
591.51	409.59
591.67	433.00
591.83	414.27
591.99	411.93
592.15	463.43
592.31	447.04
592.46	411.93
592.62	458.74
592.78	383.85
592.94	376.83
593.10	428.32
593.26	393.21
593.41	346.40
593.57	379.17
593.73	353.42
593.89	393.21
594.05	397.89
594.20	341.72
594.36	437.68
594.52	418.96
594.68	435.34
594.84	407.25
594.99	442.36
595.15	437.68
595.31	395.55
595.47	463.43
595.62	407.25
595.78	423.64
595.94	407.25
596.10	437.68
596.25	372.15
596.41	421.30
596.57	407.25
596.73	397.89
596.88	365.12
597.04	372.15
597.20	458.74
597.36	451.72
597.51	479.81
597.67	440.02
597.83	379.17
597.99	433.00
598.14	393.21
598.30	395.55
598.46	400.23
598.61	498.53
598.77	400.23
598.93	369.80
599.09	388.53
599.24	402.57
599.40	463.43
599.56	365.12
599.71	393.21
599.87	407.25
600.03	400.23
600.18	379.17
600.34	456.40
600.50	379.17
600.65	491.51
600.81	402.57
600.97	386.19
601.12	353.42
601.28	463.43
601.44	433.00
601.59	402.57
601.75	411.93
601.91	428.32
602.06	423.64
602.22	456.40
602.37	461.09
602.53	498.53
602.69	339.38
602.84	400.23
603.00	451.72
603.16	402.57
603.31	400.23
603.47	416.62
603.62	421.30
603.78	386.19
603.94	437.68
604.09	383.85
604.25	447.04
604.40	428.32
604.56	414.27
604.71	393.21
604.87	397.89
605.03	374.49
605.18	395.55
605.34	517.26
605.49	498.53
605.65	379.17
605.80	447.04
605.96	395.55
606.12	386.19
606.27	400.23
606.43	418.96
606.58	454.06
606.74	376.83
606.89	461.09
607.05	418.96
607.20	402.57
607.36	411.93
607.51	390.87
607.67	447.04
607.82	491.51
607.98	437.68
608.13	374.49
608.29	428.32
608.44	435.34
608.60	376.83
608.75	369.80
608.91	484.49
609.06	423.64
609.22	388.53
609.37	379.17
609.53	341.72
609.68	421.30
609.84	435.34
609.99	397.89
610.15	454.06
