SpectraSuite Data File
++++++++++++++++++++++++++++++++++++
Date: Fri Oct 25 12:10:44 EDT 2013
User: price-jones
Dark Spectrum Present: No
Reference Spectrum Present: No
Number of Sampled Component Spectra: 1
Spectrometers: USB2+H05261
Integration Time (usec): 100000 (USB2+H05261)
Spectra Averaged: 1 (USB2+H05261)
Boxcar Smoothing: 0 (USB2+H05261)
Correct for Electrical Dark: No (USB2+H05261)
Strobe/Lamp Enabled: No (USB2+H05261)
Correct for Detector Non-linearity: No (USB2+H05261)
Correct for Stray Light: No (USB2+H05261)
Number of Pixels in Processed Spectrum: 2048
>>>>>Begin Processed Spectral Data<<<<<
365.73	311.29
365.92	311.29
366.12	311.29
366.32	283.20
366.52	276.18
366.72	227.03
366.91	203.63
367.11	248.10
367.31	182.56
367.51	222.35
367.70	292.57
367.90	238.73
368.10	243.42
368.30	220.01
368.49	222.35
368.69	262.14
368.89	255.12
369.09	276.18
369.28	273.84
369.48	299.59
369.68	311.29
369.87	332.36
370.07	355.76
370.27	351.08
370.47	315.97
370.66	348.74
370.86	294.91
371.06	461.09
371.25	341.72
371.45	308.95
371.65	393.21
371.84	418.96
372.04	330.02
372.24	381.51
372.44	404.91
372.63	383.85
372.83	374.49
373.03	372.15
373.22	344.06
373.42	447.04
373.62	421.30
373.81	402.57
374.01	425.98
374.21	486.83
374.40	400.23
374.60	435.34
374.79	437.68
374.99	489.17
375.19	477.47
375.38	418.96
375.58	411.93
375.78	472.79
375.97	475.13
376.17	435.34
376.37	341.72
376.56	374.49
376.76	411.93
376.95	379.17
377.15	395.55
377.35	404.91
377.54	470.45
377.74	362.78
377.93	400.23
378.13	411.93
378.33	451.72
378.52	367.46
378.72	449.38
378.91	461.09
379.11	386.19
379.31	365.12
379.50	367.46
379.70	404.91
379.89	447.04
380.09	402.57
380.28	365.12
380.48	393.21
380.68	313.63
380.87	313.63
381.07	418.96
381.26	454.06
381.46	400.23
381.65	400.23
381.85	407.25
382.04	369.80
382.24	386.19
382.43	435.34
382.63	444.70
382.83	376.83
383.02	528.96
383.22	348.74
383.41	369.80
383.61	425.98
383.80	430.66
384.00	407.25
384.19	388.53
384.39	418.96
384.58	437.68
384.78	444.70
384.97	379.17
385.17	404.91
385.36	397.89
385.56	409.59
385.75	416.62
385.95	355.76
386.14	479.81
386.34	397.89
386.53	407.25
386.72	388.53
386.92	461.09
387.11	379.17
387.31	393.21
387.50	411.93
387.70	362.78
387.89	369.80
388.09	411.93
388.28	397.89
388.48	318.31
388.67	482.15
388.86	400.23
389.06	390.87
389.25	479.81
389.45	353.42
389.64	461.09
389.84	393.21
390.03	381.51
390.22	400.23
390.42	437.68
390.61	407.25
390.81	418.96
391.00	374.49
391.19	411.93
391.39	400.23
391.58	442.36
391.78	444.70
391.97	358.10
392.16	381.51
392.36	423.64
392.55	388.53
392.75	447.04
392.94	381.51
393.13	449.38
393.33	339.38
393.52	393.21
393.71	397.89
393.91	386.19
394.10	334.70
394.29	297.25
394.49	402.57
394.68	400.23
394.88	454.06
395.07	381.51
395.26	407.25
395.46	414.27
395.65	425.98
395.84	451.72
396.04	435.34
396.23	355.76
396.42	407.25
396.62	435.34
396.81	409.59
397.00	421.30
397.19	372.15
397.39	447.04
397.58	486.83
397.77	339.38
397.97	402.57
398.16	376.83
398.35	433.00
398.55	444.70
398.74	421.30
398.93	400.23
399.12	470.45
399.32	496.19
399.51	360.44
399.70	461.09
399.90	388.53
400.09	376.83
400.28	428.32
400.47	402.57
400.67	454.06
400.86	355.76
401.05	397.89
401.24	379.17
401.44	395.55
401.63	404.91
401.82	372.15
402.01	425.98
402.21	437.68
402.40	428.32
402.59	365.12
402.78	327.68
402.97	411.93
403.17	407.25
403.36	433.00
403.55	463.43
403.74	414.27
403.93	402.57
404.13	479.81
404.32	435.34
404.51	379.17
404.70	395.55
404.89	372.15
405.09	418.96
405.28	414.27
405.47	393.21
405.66	409.59
405.85	346.40
406.05	477.47
406.24	402.57
406.43	447.04
406.62	451.72
406.81	423.64
407.00	519.60
407.20	418.96
407.39	383.85
407.58	425.98
407.77	496.19
407.96	341.72
408.15	390.87
408.34	435.34
408.54	393.21
408.73	299.59
408.92	418.96
409.11	449.38
409.30	411.93
409.49	339.38
409.68	397.89
409.87	374.49
410.07	428.32
410.26	367.46
410.45	383.85
410.64	376.83
410.83	322.99
411.02	367.46
411.21	444.70
411.40	386.19
411.59	397.89
411.78	395.55
411.98	404.91
412.17	390.87
412.36	374.49
412.55	393.21
412.74	379.17
412.93	383.85
413.12	400.23
413.31	400.23
413.50	318.31
413.69	461.09
413.88	374.49
414.07	409.59
414.26	510.24
414.45	374.49
414.64	320.65
414.83	472.79
415.02	416.62
415.22	409.59
415.41	425.98
415.60	425.98
415.79	372.15
415.98	388.53
416.17	433.00
416.36	411.93
416.55	362.78
416.74	395.55
416.93	400.23
417.12	451.72
417.31	369.80
417.50	425.98
417.69	369.80
417.88	381.51
418.07	388.53
418.26	390.87
418.45	355.76
418.64	468.11
418.83	393.21
419.02	407.25
419.21	416.62
419.39	421.30
419.58	372.15
419.77	379.17
419.96	454.06
420.15	449.38
420.34	390.87
420.53	423.64
420.72	528.96
420.91	423.64
421.10	411.93
421.29	418.96
421.48	344.06
421.67	440.02
421.86	376.83
422.05	559.39
422.24	395.55
422.43	416.62
422.61	381.51
422.80	409.59
422.99	395.55
423.18	383.85
423.37	423.64
423.56	416.62
423.75	440.02
423.94	421.30
424.13	351.08
424.32	369.80
424.50	379.17
424.69	372.15
424.88	386.19
425.07	404.91
425.26	358.10
425.45	451.72
425.64	411.93
425.83	402.57
426.01	463.43
426.20	393.21
426.39	444.70
426.58	374.49
426.77	411.93
426.96	458.74
427.15	425.98
427.33	425.98
427.52	416.62
427.71	482.15
427.90	418.96
428.09	393.21
428.28	381.51
428.46	365.12
428.65	425.98
428.84	414.27
429.03	367.46
429.22	348.74
429.40	400.23
429.59	372.15
429.78	440.02
429.97	402.57
430.16	444.70
430.34	395.55
430.53	353.42
430.72	411.93
430.91	428.32
431.10	428.32
431.28	411.93
431.47	383.85
431.66	362.78
431.85	437.68
432.03	409.59
432.22	449.38
432.41	379.17
432.60	362.78
432.79	409.59
432.97	397.89
433.16	404.91
433.35	358.10
433.54	367.46
433.72	491.51
433.91	409.59
434.10	411.93
434.28	468.11
434.47	395.55
434.66	425.98
434.85	365.12
435.03	383.85
435.22	421.30
435.41	402.57
435.59	470.45
435.78	444.70
435.97	442.36
436.16	505.56
436.34	372.15
436.53	386.19
436.72	470.45
436.90	458.74
437.09	458.74
437.28	421.30
437.46	402.57
437.65	475.13
437.84	470.45
438.02	423.64
438.21	465.77
438.40	463.43
438.58	327.68
438.77	355.76
438.96	374.49
439.14	425.98
439.33	447.04
439.52	404.91
439.70	498.53
439.89	416.62
440.08	362.78
440.26	372.15
440.45	407.25
440.63	411.93
440.82	440.02
441.01	411.93
441.19	421.30
441.38	451.72
441.57	393.21
441.75	468.11
441.94	454.06
442.12	383.85
442.31	451.72
442.50	440.02
442.68	444.70
442.87	433.00
443.05	421.30
443.24	421.30
443.43	442.36
443.61	425.98
443.80	449.38
443.98	416.62
444.17	365.12
444.35	423.64
444.54	451.72
444.73	407.25
444.91	395.55
445.10	376.83
445.28	423.64
445.47	360.44
445.65	402.57
445.84	475.13
446.02	393.21
446.21	395.55
446.39	418.96
446.58	409.59
446.77	442.36
446.95	390.87
447.14	372.15
447.32	421.30
447.51	435.34
447.69	454.06
447.88	355.76
448.06	425.98
448.25	440.02
448.43	397.89
448.62	458.74
448.80	402.57
448.99	407.25
449.17	465.77
449.36	409.59
449.54	351.08
449.73	355.76
449.91	451.72
450.10	425.98
450.28	430.66
450.46	442.36
450.65	393.21
450.83	372.15
451.02	414.27
451.20	404.91
451.39	437.68
451.57	404.91
451.76	358.10
451.94	458.74
452.13	442.36
452.31	503.22
452.49	395.55
452.68	395.55
452.86	437.68
453.05	376.83
453.23	383.85
453.42	418.96
453.60	425.98
453.78	376.83
453.97	379.17
454.15	484.49
454.34	465.77
454.52	362.78
454.70	409.59
454.89	390.87
455.07	397.89
455.26	400.23
455.44	421.30
455.62	322.99
455.81	327.68
455.99	447.04
456.17	486.83
456.36	414.27
456.54	395.55
456.73	409.59
456.91	397.89
457.09	386.19
457.28	451.72
457.46	472.79
457.64	512.58
457.83	425.98
458.01	411.93
458.19	369.80
458.38	437.68
458.56	425.98
458.74	367.46
458.93	449.38
459.11	404.91
459.29	341.72
459.48	421.30
459.66	496.19
459.84	472.79
460.03	433.00
460.21	472.79
460.39	470.45
460.57	442.36
460.76	411.93
460.94	411.93
461.12	400.23
461.31	475.13
461.49	397.89
461.67	365.12
461.85	425.98
462.04	421.30
462.22	720.88
462.40	369.80
462.59	451.72
462.77	470.45
462.95	355.76
463.13	358.10
463.32	454.06
463.50	421.30
463.68	346.40
463.86	411.93
464.05	500.87
464.23	463.43
464.41	433.00
464.59	388.53
464.78	433.00
464.96	360.44
465.14	421.30
465.32	423.64
465.50	421.30
465.69	386.19
465.87	339.38
466.05	395.55
466.23	374.49
466.41	344.06
466.60	423.64
466.78	444.70
466.96	407.25
467.14	440.02
467.32	409.59
467.51	416.62
467.69	393.21
467.87	454.06
468.05	440.02
468.23	447.04
468.41	454.06
468.60	376.83
468.78	421.30
468.96	461.09
469.14	442.36
469.32	369.80
469.50	369.80
469.69	458.74
469.87	468.11
470.05	437.68
470.23	484.49
470.41	388.53
470.59	355.76
470.77	418.96
470.95	379.17
471.14	498.53
471.32	435.34
471.50	388.53
471.68	430.66
471.86	444.70
472.04	416.62
472.22	416.62
472.40	393.21
472.58	425.98
472.77	423.64
472.95	379.17
473.13	395.55
473.31	421.30
473.49	355.76
473.67	433.00
473.85	458.74
474.03	416.62
474.21	379.17
474.39	437.68
474.57	447.04
474.75	379.17
474.93	428.32
475.12	418.96
475.30	428.32
475.48	463.43
475.66	348.74
475.84	383.85
476.02	376.83
476.20	423.64
476.38	428.32
476.56	498.53
476.74	341.72
476.92	416.62
477.10	388.53
477.28	344.06
477.46	454.06
477.64	404.91
477.82	442.36
478.00	411.93
478.18	421.30
478.36	498.53
478.54	374.49
478.72	367.46
478.90	416.62
479.08	404.91
479.26	404.91
479.44	388.53
479.62	327.68
479.80	362.78
479.98	395.55
480.16	416.62
480.34	411.93
480.52	425.98
480.70	437.68
480.88	379.17
481.06	390.87
481.24	386.19
481.41	397.89
481.59	454.06
481.77	440.02
481.95	383.85
482.13	402.57
482.31	444.70
482.49	372.15
482.67	435.34
482.85	430.66
483.03	451.72
483.21	330.02
483.39	348.74
483.57	444.70
483.74	514.92
483.92	425.98
484.10	451.72
484.28	423.64
484.46	505.56
484.64	433.00
484.82	418.96
485.00	461.09
485.18	414.27
485.35	447.04
485.53	381.51
485.71	414.27
485.89	402.57
486.07	505.56
486.25	470.45
486.43	428.32
486.61	428.32
486.78	440.02
486.96	381.51
487.14	407.25
487.32	376.83
487.50	395.55
487.68	423.64
487.85	444.70
488.03	355.76
488.21	407.25
488.39	416.62
488.57	414.27
488.75	411.93
488.92	507.90
489.10	456.40
489.28	482.15
489.46	414.27
489.64	341.72
489.81	409.59
489.99	395.55
490.17	414.27
490.35	404.91
490.53	428.32
490.70	486.83
490.88	395.55
491.06	407.25
491.24	451.72
491.41	447.04
491.59	348.74
491.77	395.55
491.95	367.46
492.13	402.57
492.30	339.38
492.48	407.25
492.66	475.13
492.84	449.38
493.01	386.19
493.19	437.68
493.37	407.25
493.54	440.02
493.72	458.74
493.90	449.38
494.08	393.21
494.25	461.09
494.43	468.11
494.61	433.00
494.79	339.38
494.96	430.66
495.14	428.32
495.32	346.40
495.49	463.43
495.67	440.02
495.85	397.89
496.02	388.53
496.20	423.64
496.38	393.21
496.55	407.25
496.73	461.09
496.91	395.55
497.09	433.00
497.26	430.66
497.44	425.98
497.62	435.34
497.79	421.30
497.97	442.36
498.14	414.27
498.32	491.51
498.50	447.04
498.67	409.59
498.85	409.59
499.03	379.17
499.20	425.98
499.38	465.77
499.56	444.70
499.73	423.64
499.91	395.55
500.08	367.46
500.26	379.17
500.44	428.32
500.61	465.77
500.79	463.43
500.97	409.59
501.14	411.93
501.32	381.51
501.49	428.32
501.67	402.57
501.84	418.96
502.02	468.11
502.20	430.66
502.37	404.91
502.55	341.72
502.72	372.15
502.90	440.02
503.07	461.09
503.25	447.04
503.43	409.59
503.60	416.62
503.78	496.19
503.95	444.70
504.13	430.66
504.30	402.57
504.48	414.27
504.65	465.77
504.83	437.68
505.01	365.12
505.18	381.51
505.36	440.02
505.53	423.64
505.71	425.98
505.88	416.62
506.06	425.98
506.23	437.68
506.41	386.19
506.58	463.43
506.76	374.49
506.93	449.38
507.11	383.85
507.28	477.47
507.46	411.93
507.63	386.19
507.81	409.59
507.98	414.27
508.16	433.00
508.33	381.51
508.50	461.09
508.68	353.42
508.85	381.51
509.03	454.06
509.20	365.12
509.38	383.85
509.55	461.09
509.73	503.22
509.90	414.27
510.08	416.62
510.25	437.68
510.42	409.59
510.60	397.89
510.77	374.49
510.95	526.62
511.12	383.85
511.30	442.36
511.47	482.15
511.64	468.11
511.82	425.98
511.99	386.19
512.17	393.21
512.34	351.08
512.51	369.80
512.69	400.23
512.86	454.06
513.04	372.15
513.21	388.53
513.38	374.49
513.56	362.78
513.73	475.13
513.90	390.87
514.08	421.30
514.25	374.49
514.43	444.70
514.60	414.27
514.77	404.91
514.95	421.30
515.12	400.23
515.29	472.79
515.47	414.27
515.64	425.98
515.81	454.06
515.99	381.51
516.16	376.83
516.33	425.98
516.51	400.23
516.68	404.91
516.85	458.74
517.03	353.42
517.20	428.32
517.37	381.51
517.54	421.30
517.72	374.49
517.89	425.98
518.06	421.30
518.24	400.23
518.41	435.34
518.58	451.72
518.75	362.78
518.93	454.06
519.10	411.93
519.27	362.78
519.45	507.90
519.62	332.36
519.79	433.00
519.96	440.02
520.14	491.51
520.31	421.30
520.48	376.83
520.65	414.27
520.83	477.47
521.00	444.70
521.17	418.96
521.34	327.68
521.52	383.85
521.69	493.85
521.86	442.36
522.03	404.91
522.20	414.27
522.38	386.19
522.55	425.98
522.72	435.34
522.89	367.46
523.07	442.36
523.24	468.11
523.41	440.02
523.58	390.87
523.75	358.10
523.92	402.57
524.10	477.47
524.27	400.23
524.44	365.12
524.61	423.64
524.78	430.66
524.96	418.96
525.13	411.93
525.30	461.09
525.47	437.68
525.64	444.70
525.81	407.25
525.98	386.19
526.16	402.57
526.33	449.38
526.50	411.93
526.67	397.89
526.84	425.98
527.01	416.62
527.18	425.98
527.36	379.17
527.53	423.64
527.70	418.96
527.87	360.44
528.04	407.25
528.21	383.85
528.38	493.85
528.55	404.91
528.72	493.85
528.89	435.34
529.07	409.59
529.24	421.30
529.41	440.02
529.58	330.02
529.75	355.76
529.92	381.51
530.09	463.43
530.26	390.87
530.43	433.00
530.60	435.34
530.77	395.55
530.94	435.34
531.11	409.59
531.28	418.96
531.46	367.46
531.63	416.62
531.80	379.17
531.97	386.19
532.14	365.12
532.31	414.27
532.48	414.27
532.65	397.89
532.82	437.68
532.99	425.98
533.16	433.00
533.33	402.57
533.50	409.59
533.67	383.85
533.84	358.10
534.01	400.23
534.18	365.12
534.35	482.15
534.52	425.98
534.69	414.27
534.86	348.74
535.03	423.64
535.20	505.56
535.37	517.26
535.54	416.62
535.71	447.04
535.88	402.57
536.05	454.06
536.22	393.21
536.38	411.93
536.55	390.87
536.72	440.02
536.89	397.89
537.06	397.89
537.23	400.23
537.40	428.32
537.57	404.91
537.74	470.45
537.91	486.83
538.08	374.49
538.25	416.62
538.42	322.99
538.59	463.43
538.75	407.25
538.92	414.27
539.09	440.02
539.26	388.53
539.43	428.32
539.60	425.98
539.77	416.62
539.94	351.08
540.11	475.13
540.28	416.62
540.44	451.72
540.61	388.53
540.78	451.72
540.95	416.62
541.12	447.04
541.29	416.62
541.46	472.79
541.62	376.83
541.79	454.06
541.96	318.31
542.13	355.76
542.30	411.93
542.47	416.62
542.63	376.83
542.80	360.44
542.97	461.09
543.14	390.87
543.31	404.91
543.48	390.87
543.64	442.36
543.81	482.15
543.98	388.53
544.15	376.83
544.32	416.62
544.48	447.04
544.65	428.32
544.82	435.34
544.99	383.85
545.16	454.06
545.32	433.00
545.49	362.78
545.66	414.27
545.83	479.81
546.00	341.72
546.16	454.06
546.33	386.19
546.50	456.40
546.67	517.26
546.83	458.74
547.00	433.00
547.17	416.62
547.34	369.80
547.50	463.43
547.67	346.40
547.84	430.66
548.00	397.89
548.17	400.23
548.34	407.25
548.51	489.17
548.67	414.27
548.84	458.74
549.01	386.19
549.18	386.19
549.34	404.91
549.51	458.74
549.68	411.93
549.84	402.57
550.01	491.51
550.18	411.93
550.34	479.81
550.51	430.66
550.68	353.42
550.84	442.36
551.01	484.49
551.18	456.40
551.34	449.38
551.51	491.51
551.68	407.25
551.84	414.27
552.01	386.19
552.18	365.12
552.34	479.81
552.51	475.13
552.68	395.55
552.84	414.27
553.01	346.40
553.18	463.43
553.34	454.06
553.51	423.64
553.67	440.02
553.84	458.74
554.01	383.85
554.17	463.43
554.34	428.32
554.51	421.30
554.67	379.17
554.84	472.79
555.00	470.45
555.17	351.08
555.33	421.30
555.50	430.66
555.67	447.04
555.83	458.74
556.00	451.72
556.16	486.83
556.33	416.62
556.50	447.04
556.66	390.87
556.83	369.80
556.99	360.44
557.16	456.40
557.32	423.64
557.49	458.74
557.65	383.85
557.82	449.38
557.98	409.59
558.15	369.80
558.32	435.34
558.48	348.74
558.65	449.38
558.81	451.72
558.98	409.59
559.14	468.11
559.31	444.70
559.47	409.59
559.64	341.72
559.80	421.30
559.97	461.09
560.13	470.45
560.30	421.30
560.46	388.53
560.63	362.78
560.79	444.70
560.96	456.40
561.12	425.98
561.29	454.06
561.45	402.57
561.61	451.72
561.78	503.22
561.94	435.34
562.11	339.38
562.27	449.38
562.44	388.53
562.60	444.70
562.77	465.77
562.93	482.15
563.10	470.45
563.26	369.80
563.42	479.81
563.59	433.00
563.75	461.09
563.92	449.38
564.08	437.68
564.24	475.13
564.41	503.22
564.57	404.91
564.74	437.68
564.90	482.15
565.07	472.79
565.23	414.27
565.39	395.55
565.56	449.38
565.72	379.17
565.88	421.30
566.05	397.89
566.21	463.43
566.38	435.34
566.54	447.04
566.70	442.36
566.87	409.59
567.03	437.68
567.19	465.77
567.36	454.06
567.52	393.21
567.68	397.89
567.85	390.87
568.01	365.12
568.17	369.80
568.34	386.19
568.50	435.34
568.66	379.17
568.83	571.09
568.99	390.87
569.15	397.89
569.32	337.04
569.48	421.30
569.64	400.23
569.81	395.55
569.97	447.04
570.13	360.44
570.30	414.27
570.46	437.68
570.62	414.27
570.78	369.80
570.95	428.32
571.11	486.83
571.27	461.09
571.43	351.08
571.60	425.98
571.76	369.80
571.92	440.02
572.09	449.38
572.25	414.27
572.41	339.38
572.57	348.74
572.74	414.27
572.90	411.93
573.06	421.30
573.22	425.98
573.38	470.45
573.55	388.53
573.71	430.66
573.87	418.96
574.03	433.00
574.20	456.40
574.36	500.87
574.52	421.30
574.68	367.46
574.84	407.25
575.01	395.55
575.17	451.72
575.33	318.31
575.49	433.00
575.65	397.89
575.82	423.64
575.98	376.83
576.14	397.89
576.30	433.00
576.46	447.04
576.62	463.43
576.79	451.72
576.95	428.32
577.11	418.96
577.27	393.21
577.43	498.53
577.59	465.77
577.75	440.02
577.92	330.02
578.08	470.45
578.24	358.10
578.40	433.00
578.56	447.04
578.72	435.34
578.88	437.68
579.04	416.62
579.21	416.62
579.37	477.47
579.53	358.10
579.69	407.25
579.85	425.98
580.01	409.59
580.17	414.27
580.33	456.40
580.49	440.02
580.65	393.21
580.82	372.15
580.98	425.98
581.14	344.06
581.30	388.53
581.46	444.70
581.62	435.34
581.78	411.93
581.94	414.27
582.10	372.15
582.26	409.59
582.42	395.55
582.58	423.64
582.74	379.17
582.90	465.77
583.06	491.51
583.22	360.44
583.38	390.87
583.54	437.68
583.70	411.93
583.86	393.21
584.02	346.40
584.18	477.47
584.34	468.11
584.50	404.91
584.66	418.96
584.82	428.32
584.98	402.57
585.14	442.36
585.30	386.19
585.46	411.93
585.62	463.43
585.78	423.64
585.94	482.15
586.10	456.40
586.26	428.32
586.42	430.66
586.58	440.02
586.74	400.23
586.90	416.62
587.06	393.21
587.22	407.25
587.38	433.00
587.54	465.77
587.70	454.06
587.86	404.91
588.02	369.80
588.18	423.64
588.34	458.74
588.49	341.72
588.65	388.53
588.81	461.09
588.97	498.53
589.13	437.68
589.29	402.57
589.45	454.06
589.61	390.87
589.77	491.51
589.93	447.04
590.08	409.59
590.24	369.80
590.40	440.02
590.56	390.87
590.72	449.38
590.88	362.78
591.04	372.15
591.20	381.51
591.35	484.49
591.51	447.04
591.67	472.79
591.83	386.19
591.99	447.04
592.15	484.49
592.31	458.74
592.46	416.62
592.62	437.68
592.78	428.32
592.94	463.43
593.10	390.87
593.26	341.72
593.41	351.08
593.57	437.68
593.73	402.57
593.89	440.02
594.05	444.70
594.20	407.25
594.36	381.51
594.52	451.72
594.68	456.40
594.84	404.91
594.99	486.83
595.15	386.19
595.31	433.00
595.47	433.00
595.62	421.30
595.78	369.80
595.94	435.34
596.10	500.87
596.25	351.08
596.41	411.93
596.57	322.99
596.73	400.23
596.88	374.49
597.04	482.15
597.20	395.55
597.36	447.04
597.51	435.34
597.67	330.02
597.83	381.51
597.99	449.38
598.14	388.53
598.30	465.77
598.46	451.72
598.61	444.70
598.77	484.49
598.93	358.10
599.09	360.44
599.24	458.74
599.40	409.59
599.56	437.68
599.71	416.62
599.87	430.66
600.03	463.43
600.18	379.17
600.34	402.57
600.50	397.89
600.65	397.89
600.81	421.30
600.97	425.98
601.12	440.02
601.28	458.74
601.44	374.49
601.59	416.62
601.75	397.89
601.91	376.83
602.06	463.43
602.22	496.19
602.37	447.04
602.53	430.66
602.69	358.10
602.84	437.68
603.00	369.80
603.16	503.22
603.31	444.70
603.47	440.02
603.62	383.85
603.78	402.57
603.94	351.08
604.09	395.55
604.25	393.21
604.40	444.70
604.56	461.09
604.71	404.91
604.87	383.85
605.03	449.38
605.18	388.53
605.34	397.89
605.49	489.17
605.65	449.38
605.80	407.25
605.96	425.98
606.12	491.51
606.27	421.30
606.43	418.96
606.58	468.11
606.74	418.96
606.89	411.93
607.05	444.70
607.20	418.96
607.36	454.06
607.51	433.00
607.67	416.62
607.82	411.93
607.98	414.27
608.13	430.66
608.29	416.62
608.44	449.38
608.60	376.83
608.75	407.25
608.91	379.17
609.06	390.87
609.22	470.45
609.37	440.02
609.53	421.30
609.68	416.62
609.84	348.74
609.99	372.15
610.15	461.09
