SpectraSuite Data File
++++++++++++++++++++++++++++++++++++
Date: Fri Oct 25 12:11:34 EDT 2013
User: price-jones
Dark Spectrum Present: No
Reference Spectrum Present: No
Number of Sampled Component Spectra: 1
Spectrometers: USB2+H05261
Integration Time (usec): 100000 (USB2+H05261)
Spectra Averaged: 1 (USB2+H05261)
Boxcar Smoothing: 0 (USB2+H05261)
Correct for Electrical Dark: No (USB2+H05261)
Strobe/Lamp Enabled: No (USB2+H05261)
Correct for Detector Non-linearity: No (USB2+H05261)
Correct for Stray Light: No (USB2+H05261)
Number of Pixels in Processed Spectrum: 2048
>>>>>Begin Processed Spectral Data<<<<<
365.73	341.72
365.92	341.72
366.12	341.72
366.32	222.35
366.52	266.82
366.72	299.59
366.91	273.84
367.11	236.39
367.31	271.50
367.51	245.76
367.70	269.16
367.90	229.37
368.10	222.35
368.30	191.92
368.49	238.73
368.69	278.52
368.89	318.31
369.09	292.57
369.28	381.51
369.48	292.57
369.68	236.39
369.87	313.63
370.07	318.31
370.27	383.85
370.47	337.04
370.66	304.27
370.86	358.10
371.06	369.80
371.25	430.66
371.45	362.78
371.65	414.27
371.84	355.76
372.04	411.93
372.24	425.98
372.44	386.19
372.63	407.25
372.83	421.30
373.03	393.21
373.22	395.55
373.42	468.11
373.62	423.64
373.81	414.27
374.01	442.36
374.21	449.38
374.40	381.51
374.60	388.53
374.79	503.22
374.99	472.79
375.19	409.59
375.38	402.57
375.58	414.27
375.78	425.98
375.97	409.59
376.17	477.47
376.37	390.87
376.56	463.43
376.76	404.91
376.95	379.17
377.15	397.89
377.35	456.40
377.54	365.12
377.74	456.40
377.93	395.55
378.13	388.53
378.33	456.40
378.52	383.85
378.72	404.91
378.91	346.40
379.11	411.93
379.31	435.34
379.50	360.44
379.70	404.91
379.89	407.25
380.09	416.62
380.28	423.64
380.48	414.27
380.68	402.57
380.87	355.76
381.07	390.87
381.26	360.44
381.46	409.59
381.65	411.93
381.85	430.66
382.04	402.57
382.24	416.62
382.43	407.25
382.63	379.17
382.83	344.06
383.02	491.51
383.22	491.51
383.41	393.21
383.61	447.04
383.80	421.30
384.00	372.15
384.19	411.93
384.39	425.98
384.58	433.00
384.78	463.43
384.97	390.87
385.17	362.78
385.36	381.51
385.56	390.87
385.75	435.34
385.95	423.64
386.14	353.42
386.34	341.72
386.53	360.44
386.72	409.59
386.92	411.93
387.11	409.59
387.31	416.62
387.50	379.17
387.70	341.72
387.89	390.87
388.09	407.25
388.28	400.23
388.48	430.66
388.67	510.24
388.86	383.85
389.06	383.85
389.25	416.62
389.45	388.53
389.64	351.08
389.84	440.02
390.03	407.25
390.22	414.27
390.42	472.79
390.61	407.25
390.81	351.08
391.00	411.93
391.19	351.08
391.39	388.53
391.58	395.55
391.78	358.10
391.97	433.00
392.16	355.76
392.36	489.17
392.55	475.13
392.75	400.23
392.94	334.70
393.13	433.00
393.33	421.30
393.52	437.68
393.71	425.98
393.91	428.32
394.10	362.78
394.29	421.30
394.49	372.15
394.68	428.32
394.88	442.36
395.07	397.89
395.26	402.57
395.46	400.23
395.65	425.98
395.84	395.55
396.04	463.43
396.23	404.91
396.42	411.93
396.62	348.74
396.81	423.64
397.00	437.68
397.19	402.57
397.39	374.49
397.58	451.72
397.77	444.70
397.97	365.12
398.16	433.00
398.35	454.06
398.55	425.98
398.74	416.62
398.93	447.04
399.12	435.34
399.32	369.80
399.51	367.46
399.70	430.66
399.90	428.32
400.09	451.72
400.28	444.70
400.47	379.17
400.67	409.59
400.86	470.45
401.05	383.85
401.24	407.25
401.44	458.74
401.63	383.85
401.82	397.89
402.01	390.87
402.21	425.98
402.40	440.02
402.59	355.76
402.78	437.68
402.97	458.74
403.17	510.24
403.36	486.83
403.55	390.87
403.74	411.93
403.93	430.66
404.13	435.34
404.32	423.64
404.51	388.53
404.70	442.36
404.89	381.51
405.09	393.21
405.28	390.87
405.47	437.68
405.66	456.40
405.85	414.27
406.05	416.62
406.24	463.43
406.43	493.85
406.62	369.80
406.81	383.85
407.00	404.91
407.20	442.36
407.39	407.25
407.58	402.57
407.77	454.06
407.96	447.04
408.15	470.45
408.34	409.59
408.54	339.38
408.73	381.51
408.92	355.76
409.11	367.46
409.30	372.15
409.49	372.15
409.68	437.68
409.87	449.38
410.07	430.66
410.26	423.64
410.45	428.32
410.64	456.40
410.83	442.36
411.02	395.55
411.21	430.66
411.40	484.49
411.59	393.21
411.78	411.93
411.98	388.53
412.17	334.70
412.36	400.23
412.55	463.43
412.74	425.98
412.93	489.17
413.12	395.55
413.31	376.83
413.50	414.27
413.69	433.00
413.88	449.38
414.07	388.53
414.26	402.57
414.45	447.04
414.64	428.32
414.83	425.98
415.02	421.30
415.22	500.87
415.41	423.64
415.60	430.66
415.79	418.96
415.98	484.49
416.17	337.04
416.36	397.89
416.55	430.66
416.74	388.53
416.93	456.40
417.12	407.25
417.31	421.30
417.50	372.15
417.69	500.87
417.88	411.93
418.07	428.32
418.26	463.43
418.45	362.78
418.64	479.81
418.83	360.44
419.02	351.08
419.21	390.87
419.39	404.91
419.58	435.34
419.77	372.15
419.96	421.30
420.15	414.27
420.34	449.38
420.53	348.74
420.72	407.25
420.91	388.53
421.10	407.25
421.29	374.49
421.48	407.25
421.67	397.89
421.86	435.34
422.05	353.42
422.24	407.25
422.43	395.55
422.61	353.42
422.80	447.04
422.99	493.85
423.18	433.00
423.37	362.78
423.56	416.62
423.75	416.62
423.94	397.89
424.13	435.34
424.32	414.27
424.50	348.74
424.69	416.62
424.88	454.06
425.07	369.80
425.26	521.94
425.45	437.68
425.64	468.11
425.83	435.34
426.01	440.02
426.20	425.98
426.39	334.70
426.58	458.74
426.77	402.57
426.96	374.49
427.15	425.98
427.33	341.72
427.52	341.72
427.71	440.02
427.90	395.55
428.09	337.04
428.28	402.57
428.46	444.70
428.65	402.57
428.84	449.38
429.03	395.55
429.22	463.43
429.40	355.76
429.59	425.98
429.78	428.32
429.97	379.17
430.16	388.53
430.34	418.96
430.53	402.57
430.72	461.09
430.91	418.96
431.10	404.91
431.28	360.44
431.47	465.77
431.66	442.36
431.85	449.38
432.03	353.42
432.22	437.68
432.41	437.68
432.60	379.17
432.79	383.85
432.97	402.57
433.16	423.64
433.35	358.10
433.54	379.17
433.72	505.56
433.91	428.32
434.10	437.68
434.28	362.78
434.47	365.12
434.66	444.70
434.85	425.98
435.03	472.79
435.22	458.74
435.41	402.57
435.59	449.38
435.78	409.59
435.97	435.34
436.16	393.21
436.34	355.76
436.53	379.17
436.72	491.51
436.90	404.91
437.09	428.32
437.28	444.70
437.46	369.80
437.65	451.72
437.84	440.02
438.02	444.70
438.21	425.98
438.40	451.72
438.58	454.06
438.77	414.27
438.96	404.91
439.14	409.59
439.33	433.00
439.52	390.87
439.70	468.11
439.89	404.91
440.08	409.59
440.26	456.40
440.45	444.70
440.63	395.55
440.82	447.04
441.01	414.27
441.19	463.43
441.38	470.45
441.57	447.04
441.75	524.28
441.94	433.00
442.12	447.04
442.31	402.57
442.50	484.49
442.68	390.87
442.87	454.06
443.05	390.87
443.24	444.70
443.43	409.59
443.61	425.98
443.80	470.45
443.98	454.06
444.17	416.62
444.35	411.93
444.54	414.27
444.73	374.49
444.91	463.43
445.10	383.85
445.28	334.70
445.47	397.89
445.65	360.44
445.84	402.57
446.02	444.70
446.21	418.96
446.39	433.00
446.58	440.02
446.77	381.51
446.95	381.51
447.14	423.64
447.32	344.06
447.51	414.27
447.69	433.00
447.88	477.47
448.06	463.43
448.25	414.27
448.43	358.10
448.62	386.19
448.80	461.09
448.99	444.70
449.17	341.72
449.36	400.23
449.54	433.00
449.73	423.64
449.91	423.64
450.10	407.25
450.28	451.72
450.46	486.83
450.65	510.24
450.83	418.96
451.02	428.32
451.20	435.34
451.39	421.30
451.57	444.70
451.76	447.04
451.94	386.19
452.13	433.00
452.31	425.98
452.49	416.62
452.68	355.76
452.86	447.04
453.05	400.23
453.23	409.59
453.42	423.64
453.60	397.89
453.78	451.72
453.97	388.53
454.15	444.70
454.34	365.12
454.52	465.77
454.70	458.74
454.89	400.23
455.07	388.53
455.26	395.55
455.44	341.72
455.62	383.85
455.81	393.21
455.99	351.08
456.17	418.96
456.36	402.57
456.54	421.30
456.73	386.19
456.91	322.99
457.09	390.87
457.28	458.74
457.46	353.42
457.64	381.51
457.83	362.78
458.01	346.40
458.19	402.57
458.38	381.51
458.56	421.30
458.74	409.59
458.93	491.51
459.11	423.64
459.29	400.23
459.48	393.21
459.66	458.74
459.84	435.34
460.03	470.45
460.21	461.09
460.39	437.68
460.57	472.79
460.76	402.57
460.94	435.34
461.12	449.38
461.31	496.19
461.49	463.43
461.67	505.56
461.85	440.02
462.04	414.27
462.22	816.85
462.40	428.32
462.59	482.15
462.77	430.66
462.95	388.53
463.13	421.30
463.32	444.70
463.50	381.51
463.68	409.59
463.86	397.89
464.05	463.43
464.23	454.06
464.41	376.83
464.59	381.51
464.78	440.02
464.96	433.00
465.14	360.44
465.32	416.62
465.50	470.45
465.69	442.36
465.87	301.93
466.05	425.98
466.23	379.17
466.41	404.91
466.60	444.70
466.78	395.55
466.96	407.25
467.14	372.15
467.32	411.93
467.51	409.59
467.69	484.49
467.87	458.74
468.05	365.12
468.23	418.96
468.41	533.64
468.60	425.98
468.78	383.85
468.96	402.57
469.14	433.00
469.32	442.36
469.50	400.23
469.69	390.87
469.87	358.10
470.05	402.57
470.23	470.45
470.41	400.23
470.59	402.57
470.77	411.93
470.95	362.78
471.14	423.64
471.32	397.89
471.50	397.89
471.68	381.51
471.86	430.66
472.04	395.55
472.22	454.06
472.40	444.70
472.58	470.45
472.77	444.70
472.95	449.38
473.13	451.72
473.31	395.55
473.49	362.78
473.67	353.42
473.85	425.98
474.03	386.19
474.21	362.78
474.39	461.09
474.57	454.06
474.75	381.51
474.93	337.04
475.12	376.83
475.30	442.36
475.48	440.02
475.66	404.91
475.84	416.62
476.02	418.96
476.20	524.28
476.38	470.45
476.56	458.74
476.74	454.06
476.92	421.30
477.10	479.81
477.28	428.32
477.46	430.66
477.64	451.72
477.82	440.02
478.00	407.25
478.18	461.09
478.36	411.93
478.54	409.59
478.72	390.87
478.90	440.02
479.08	397.89
479.26	367.46
479.44	461.09
479.62	337.04
479.80	360.44
479.98	407.25
480.16	458.74
480.34	369.80
480.52	369.80
480.70	390.87
480.88	411.93
481.06	475.13
481.24	383.85
481.41	435.34
481.59	442.36
481.77	442.36
481.95	407.25
482.13	374.49
482.31	503.22
482.49	358.10
482.67	400.23
482.85	402.57
483.03	409.59
483.21	386.19
483.39	425.98
483.57	400.23
483.74	388.53
483.92	411.93
484.10	484.49
484.28	400.23
484.46	442.36
484.64	444.70
484.82	374.49
485.00	440.02
485.18	451.72
485.35	411.93
485.53	351.08
485.71	421.30
485.89	330.02
486.07	395.55
486.25	496.19
486.43	315.97
486.61	409.59
486.78	444.70
486.96	388.53
487.14	402.57
487.32	430.66
487.50	519.60
487.68	456.40
487.85	393.21
488.03	383.85
488.21	486.83
488.39	421.30
488.57	430.66
488.75	395.55
488.92	505.56
489.10	383.85
489.28	428.32
489.46	358.10
489.64	374.49
489.81	318.31
489.99	416.62
490.17	447.04
490.35	465.77
490.53	437.68
490.70	397.89
490.88	465.77
491.06	390.87
491.24	360.44
491.41	428.32
491.59	341.72
491.77	409.59
491.95	416.62
492.13	407.25
492.30	339.38
492.48	433.00
492.66	381.51
492.84	365.12
493.01	444.70
493.19	339.38
493.37	428.32
493.54	458.74
493.72	472.79
493.90	358.10
494.08	397.89
494.25	407.25
494.43	402.57
494.61	409.59
494.79	402.57
494.96	421.30
495.14	428.32
495.32	486.83
495.49	386.19
495.67	381.51
495.85	442.36
496.02	421.30
496.20	414.27
496.38	440.02
496.55	393.21
496.73	418.96
496.91	404.91
497.09	407.25
497.26	358.10
497.44	353.42
497.62	416.62
497.79	411.93
497.97	379.17
498.14	451.72
498.32	409.59
498.50	374.49
498.67	360.44
498.85	461.09
499.03	461.09
499.20	458.74
499.38	355.76
499.56	351.08
499.73	468.11
499.91	397.89
500.08	440.02
500.26	386.19
500.44	374.49
500.61	404.91
500.79	461.09
500.97	465.77
501.14	475.13
501.32	470.45
501.49	376.83
501.67	435.34
501.84	416.62
502.02	367.46
502.20	437.68
502.37	369.80
502.55	355.76
502.72	423.64
502.90	381.51
503.07	484.49
503.25	472.79
503.43	395.55
503.60	421.30
503.78	430.66
503.95	475.13
504.13	428.32
504.30	468.11
504.48	435.34
504.65	447.04
504.83	472.79
505.01	465.77
505.18	374.49
505.36	397.89
505.53	376.83
505.71	409.59
505.88	421.30
506.06	404.91
506.23	386.19
506.41	425.98
506.58	425.98
506.76	379.17
506.93	376.83
507.11	404.91
507.28	390.87
507.46	367.46
507.63	425.98
507.81	397.89
507.98	381.51
508.16	489.17
508.33	418.96
508.50	390.87
508.68	395.55
508.85	428.32
509.03	409.59
509.20	407.25
509.38	421.30
509.55	437.68
509.73	418.96
509.90	451.72
510.08	395.55
510.25	437.68
510.42	479.81
510.60	428.32
510.77	416.62
510.95	433.00
511.12	407.25
511.30	486.83
511.47	451.72
511.64	423.64
511.82	461.09
511.99	458.74
512.17	449.38
512.34	430.66
512.51	402.57
512.69	407.25
512.86	442.36
513.04	395.55
513.21	407.25
513.38	332.36
513.56	381.51
513.73	458.74
513.90	395.55
514.08	386.19
514.25	404.91
514.43	421.30
514.60	400.23
514.77	362.78
514.95	517.26
515.12	430.66
515.29	458.74
515.47	458.74
515.64	362.78
515.81	449.38
515.99	416.62
516.16	425.98
516.33	416.62
516.51	393.21
516.68	475.13
516.85	400.23
517.03	442.36
517.20	400.23
517.37	409.59
517.54	351.08
517.72	395.55
517.89	437.68
518.06	414.27
518.24	458.74
518.41	425.98
518.58	454.06
518.75	433.00
518.93	402.57
519.10	365.12
519.27	416.62
519.45	374.49
519.62	409.59
519.79	500.87
519.96	449.38
520.14	437.68
520.31	496.19
520.48	519.60
520.65	447.04
520.83	468.11
521.00	456.40
521.17	456.40
521.34	355.76
521.52	407.25
521.69	390.87
521.86	407.25
522.03	407.25
522.20	393.21
522.38	369.80
522.55	479.81
522.72	409.59
522.89	425.98
523.07	503.22
523.24	477.47
523.41	411.93
523.58	430.66
523.75	456.40
523.92	451.72
524.10	428.32
524.27	451.72
524.44	440.02
524.61	440.02
524.78	362.78
524.96	461.09
525.13	423.64
525.30	376.83
525.47	484.49
525.64	435.34
525.81	381.51
525.98	472.79
526.16	397.89
526.33	339.38
526.50	447.04
526.67	332.36
526.84	435.34
527.01	414.27
527.18	400.23
527.36	388.53
527.53	372.15
527.70	484.49
527.87	409.59
528.04	477.47
528.21	393.21
528.38	437.68
528.55	395.55
528.72	428.32
528.89	482.15
529.07	374.49
529.24	379.17
529.41	475.13
529.58	404.91
529.75	456.40
529.92	421.30
530.09	440.02
530.26	442.36
530.43	482.15
530.60	337.04
530.77	416.62
530.94	454.06
531.11	351.08
531.28	470.45
531.46	414.27
531.63	421.30
531.80	440.02
531.97	430.66
532.14	425.98
532.31	383.85
532.48	409.59
532.65	397.89
532.82	447.04
532.99	400.23
533.16	409.59
533.33	407.25
533.50	407.25
533.67	390.87
533.84	454.06
534.01	400.23
534.18	381.51
534.35	470.45
534.52	447.04
534.69	433.00
534.86	433.00
535.03	355.76
535.20	440.02
535.37	369.80
535.54	376.83
535.71	334.70
535.88	388.53
536.05	430.66
536.22	430.66
536.38	421.30
536.55	383.85
536.72	374.49
536.89	409.59
537.06	411.93
537.23	425.98
537.40	376.83
537.57	435.34
537.74	411.93
537.91	395.55
538.08	440.02
538.25	407.25
538.42	451.72
538.59	442.36
538.75	421.30
538.92	383.85
539.09	353.42
539.26	390.87
539.43	437.68
539.60	477.47
539.77	411.93
539.94	433.00
540.11	433.00
540.28	493.85
540.44	433.00
540.61	400.23
540.78	437.68
540.95	390.87
541.12	449.38
541.29	351.08
541.46	514.92
541.62	449.38
541.79	437.68
541.96	383.85
542.13	393.21
542.30	470.45
542.47	428.32
542.63	397.89
542.80	479.81
542.97	430.66
543.14	456.40
543.31	428.32
543.48	421.30
543.64	484.49
543.81	397.89
543.98	348.74
544.15	404.91
544.32	470.45
544.48	425.98
544.65	430.66
544.82	447.04
544.99	435.34
545.16	468.11
545.32	451.72
545.49	409.59
545.66	442.36
545.83	409.59
546.00	341.72
546.16	423.64
546.33	416.62
546.50	416.62
546.67	433.00
546.83	393.21
547.00	472.79
547.17	376.83
547.34	409.59
547.50	470.45
547.67	402.57
547.84	416.62
548.00	355.76
548.17	386.19
548.34	423.64
548.51	397.89
548.67	437.68
548.84	421.30
549.01	388.53
549.18	416.62
549.34	388.53
549.51	397.89
549.68	402.57
549.84	475.13
550.01	376.83
550.18	395.55
550.34	456.40
550.51	454.06
550.68	433.00
550.84	454.06
551.01	538.32
551.18	369.80
551.34	397.89
551.51	468.11
551.68	433.00
551.84	374.49
552.01	369.80
552.18	407.25
552.34	404.91
552.51	428.32
552.68	479.81
552.84	353.42
553.01	461.09
553.18	393.21
553.34	369.80
553.51	409.59
553.67	425.98
553.84	463.43
554.01	421.30
554.17	409.59
554.34	383.85
554.51	421.30
554.67	472.79
554.84	461.09
555.00	507.90
555.17	437.68
555.33	451.72
555.50	470.45
555.67	428.32
555.83	369.80
556.00	372.15
556.16	491.51
556.33	472.79
556.50	409.59
556.66	437.68
556.83	395.55
556.99	498.53
557.16	472.79
557.32	374.49
557.49	395.55
557.65	358.10
557.82	449.38
557.98	379.17
558.15	393.21
558.32	404.91
558.48	430.66
558.65	379.17
558.81	400.23
558.98	397.89
559.14	440.02
559.31	414.27
559.47	451.72
559.64	435.34
559.80	440.02
559.97	468.11
560.13	393.21
560.30	437.68
560.46	433.00
560.63	390.87
560.79	451.72
560.96	421.30
561.12	379.17
561.29	416.62
561.45	388.53
561.61	393.21
561.78	440.02
561.94	428.32
562.11	348.74
562.27	437.68
562.44	379.17
562.60	449.38
562.77	425.98
562.93	381.51
563.10	353.42
563.26	423.64
563.42	414.27
563.59	416.62
563.75	435.34
563.92	388.53
564.08	369.80
564.24	390.87
564.41	428.32
564.57	435.34
564.74	400.23
564.90	409.59
565.07	475.13
565.23	404.91
565.39	454.06
565.56	484.49
565.72	454.06
565.88	400.23
566.05	442.36
566.21	386.19
566.38	477.47
566.54	442.36
566.70	416.62
566.87	376.83
567.03	451.72
567.19	360.44
567.36	411.93
567.52	435.34
567.68	479.81
567.85	418.96
568.01	461.09
568.17	365.12
568.34	381.51
568.50	414.27
568.66	409.59
568.83	470.45
568.99	395.55
569.15	454.06
569.32	383.85
569.48	472.79
569.64	400.23
569.81	421.30
569.97	404.91
570.13	472.79
570.30	470.45
570.46	362.78
570.62	400.23
570.78	416.62
570.95	360.44
571.11	449.38
571.27	418.96
571.43	409.59
571.60	451.72
571.76	421.30
571.92	344.06
572.09	379.17
572.25	484.49
572.41	433.00
572.57	465.77
572.74	407.25
572.90	404.91
573.06	440.02
573.22	454.06
573.38	451.72
573.55	390.87
573.71	491.51
573.87	416.62
574.03	414.27
574.20	423.64
574.36	461.09
574.52	449.38
574.68	344.06
574.84	456.40
575.01	400.23
575.17	493.85
575.33	430.66
575.49	447.04
575.65	463.43
575.82	475.13
575.98	379.17
576.14	372.15
576.30	430.66
576.46	454.06
576.62	437.68
576.79	489.17
576.95	437.68
577.11	395.55
577.27	355.76
577.43	451.72
577.59	397.89
577.75	440.02
577.92	372.15
578.08	433.00
578.24	409.59
578.40	433.00
578.56	423.64
578.72	507.90
578.88	442.36
579.04	423.64
579.21	404.91
579.37	503.22
579.53	400.23
579.69	430.66
579.85	411.93
580.01	433.00
580.17	451.72
580.33	418.96
580.49	440.02
580.65	374.49
580.82	442.36
580.98	447.04
581.14	381.51
581.30	414.27
581.46	430.66
581.62	376.83
581.78	381.51
581.94	435.34
582.10	369.80
582.26	411.93
582.42	393.21
582.58	409.59
582.74	477.47
582.90	433.00
583.06	465.77
583.22	372.15
583.38	341.72
583.54	409.59
583.70	458.74
583.86	442.36
584.02	444.70
584.18	407.25
584.34	365.12
584.50	421.30
584.66	430.66
584.82	433.00
584.98	421.30
585.14	411.93
585.30	465.77
585.46	393.21
585.62	386.19
585.78	411.93
585.94	421.30
586.10	395.55
586.26	463.43
586.42	407.25
586.58	409.59
586.74	507.90
586.90	444.70
587.06	416.62
587.22	437.68
587.38	360.44
587.54	454.06
587.70	447.04
587.86	442.36
588.02	402.57
588.18	428.32
588.34	433.00
588.49	395.55
588.65	407.25
588.81	472.79
588.97	444.70
589.13	489.17
589.29	510.24
589.45	458.74
589.61	409.59
589.77	447.04
589.93	433.00
590.08	449.38
590.24	430.66
590.40	381.51
590.56	411.93
590.72	322.99
590.88	374.49
591.04	468.11
591.20	407.25
591.35	482.15
591.51	465.77
591.67	447.04
591.83	461.09
591.99	390.87
592.15	393.21
592.31	463.43
592.46	505.56
592.62	416.62
592.78	365.12
592.94	425.98
593.10	409.59
593.26	395.55
593.41	456.40
593.57	505.56
593.73	388.53
593.89	409.59
594.05	416.62
594.20	386.19
594.36	390.87
594.52	425.98
594.68	400.23
594.84	402.57
594.99	404.91
595.15	437.68
595.31	477.47
595.47	493.85
595.62	367.46
595.78	369.80
595.94	484.49
596.10	365.12
596.25	404.91
596.41	479.81
596.57	395.55
596.73	423.64
596.88	404.91
597.04	451.72
597.20	416.62
597.36	433.00
597.51	414.27
597.67	381.51
597.83	388.53
597.99	416.62
598.14	465.77
598.30	428.32
598.46	423.64
598.61	423.64
598.77	393.21
598.93	421.30
599.09	400.23
599.24	491.51
599.40	454.06
599.56	435.34
599.71	369.80
599.87	369.80
600.03	425.98
600.18	486.83
600.34	486.83
600.50	418.96
600.65	444.70
600.81	458.74
600.97	388.53
601.12	456.40
601.28	500.87
601.44	451.72
601.59	407.25
601.75	447.04
601.91	444.70
602.06	470.45
602.22	447.04
602.37	428.32
602.53	348.74
602.69	465.77
602.84	423.64
603.00	451.72
603.16	428.32
603.31	451.72
603.47	442.36
603.62	442.36
603.78	374.49
603.94	451.72
604.09	421.30
604.25	395.55
604.40	437.68
604.56	386.19
604.71	390.87
604.87	440.02
605.03	393.21
605.18	440.02
605.34	470.45
605.49	468.11
605.65	458.74
605.80	411.93
605.96	468.11
606.12	418.96
606.27	390.87
606.43	416.62
606.58	437.68
606.74	472.79
606.89	409.59
607.05	496.19
607.20	449.38
607.36	510.24
607.51	402.57
607.67	430.66
607.82	428.32
607.98	484.49
608.13	454.06
608.29	411.93
608.44	484.49
608.60	416.62
608.75	496.19
608.91	402.57
609.06	442.36
609.22	435.34
609.37	433.00
609.53	400.23
609.68	442.36
609.84	367.46
609.99	404.91
610.15	404.91
