SpectraSuite Data File
++++++++++++++++++++++++++++++++++++
Date: Fri Oct 25 12:10:29 EDT 2013
User: price-jones
Dark Spectrum Present: No
Reference Spectrum Present: No
Number of Sampled Component Spectra: 1
Spectrometers: USB2+H05261
Integration Time (usec): 100000 (USB2+H05261)
Spectra Averaged: 1 (USB2+H05261)
Boxcar Smoothing: 0 (USB2+H05261)
Correct for Electrical Dark: No (USB2+H05261)
Strobe/Lamp Enabled: No (USB2+H05261)
Correct for Detector Non-linearity: No (USB2+H05261)
Correct for Stray Light: No (USB2+H05261)
Number of Pixels in Processed Spectrum: 2048
>>>>>Begin Processed Spectral Data<<<<<
365.73	322.99
365.92	322.99
366.12	322.99
366.32	299.59
366.52	292.57
366.72	271.50
366.91	341.72
367.11	220.01
367.31	241.08
367.51	269.16
367.70	301.93
367.90	229.37
368.10	198.95
368.30	248.10
368.49	252.78
368.69	217.67
368.89	234.05
369.09	220.01
369.28	248.10
369.48	248.10
369.68	280.86
369.87	234.05
370.07	259.80
370.27	313.63
370.47	369.80
370.66	301.93
370.86	341.72
371.06	383.85
371.25	379.17
371.45	304.27
371.65	322.99
371.84	421.30
372.04	358.10
372.24	367.46
372.44	402.57
372.63	468.11
372.83	447.04
373.03	404.91
373.22	358.10
373.42	440.02
373.62	374.49
373.81	425.98
374.01	482.15
374.21	447.04
374.40	409.59
374.60	365.12
374.79	428.32
374.99	372.15
375.19	393.21
375.38	369.80
375.58	437.68
375.78	472.79
375.97	421.30
376.17	456.40
376.37	458.74
376.56	421.30
376.76	440.02
376.95	433.00
377.15	386.19
377.35	463.43
377.54	489.17
377.74	472.79
377.93	409.59
378.13	409.59
378.33	498.53
378.52	444.70
378.72	437.68
378.91	433.00
379.11	395.55
379.31	386.19
379.50	400.23
379.70	442.36
379.89	437.68
380.09	379.17
380.28	423.64
380.48	351.08
380.68	376.83
380.87	348.74
381.07	428.32
381.26	442.36
381.46	341.72
381.65	372.15
381.85	409.59
382.04	315.97
382.24	301.93
382.43	425.98
382.63	407.25
382.83	414.27
383.02	381.51
383.22	451.72
383.41	365.12
383.61	367.46
383.80	393.21
384.00	334.70
384.19	386.19
384.39	425.98
384.58	395.55
384.78	369.80
384.97	435.34
385.17	404.91
385.36	416.62
385.56	425.98
385.75	344.06
385.95	379.17
386.14	374.49
386.34	390.87
386.53	386.19
386.72	409.59
386.92	475.13
387.11	425.98
387.31	414.27
387.50	404.91
387.70	418.96
387.89	355.76
388.09	381.51
388.28	344.06
388.48	379.17
388.67	414.27
388.86	433.00
389.06	386.19
389.25	397.89
389.45	383.85
389.64	421.30
389.84	402.57
390.03	409.59
390.22	397.89
390.42	411.93
390.61	388.53
390.81	395.55
391.00	379.17
391.19	418.96
391.39	421.30
391.58	451.72
391.78	435.34
391.97	430.66
392.16	360.44
392.36	397.89
392.55	423.64
392.75	472.79
392.94	369.80
393.13	409.59
393.33	414.27
393.52	437.68
393.71	444.70
393.91	330.02
394.10	400.23
394.29	372.15
394.49	402.57
394.68	409.59
394.88	372.15
395.07	416.62
395.26	418.96
395.46	383.85
395.65	465.77
395.84	400.23
396.04	449.38
396.23	339.38
396.42	369.80
396.62	435.34
396.81	423.64
397.00	397.89
397.19	407.25
397.39	435.34
397.58	418.96
397.77	351.08
397.97	372.15
398.16	390.87
398.35	402.57
398.55	360.44
398.74	383.85
398.93	423.64
399.12	409.59
399.32	512.58
399.51	470.45
399.70	442.36
399.90	416.62
400.09	397.89
400.28	475.13
400.47	428.32
400.67	358.10
400.86	397.89
401.05	425.98
401.24	379.17
401.44	383.85
401.63	418.96
401.82	409.59
402.01	339.38
402.21	386.19
402.40	414.27
402.59	404.91
402.78	433.00
402.97	367.46
403.17	447.04
403.36	449.38
403.55	454.06
403.74	421.30
403.93	348.74
404.13	407.25
404.32	416.62
404.51	367.46
404.70	430.66
404.89	379.17
405.09	421.30
405.28	437.68
405.47	362.78
405.66	344.06
405.85	484.49
406.05	433.00
406.24	362.78
406.43	463.43
406.62	479.81
406.81	505.56
407.00	400.23
407.20	407.25
407.39	353.42
407.58	369.80
407.77	395.55
407.96	400.23
408.15	393.21
408.34	447.04
408.54	360.44
408.73	411.93
408.92	404.91
409.11	402.57
409.30	451.72
409.49	367.46
409.68	362.78
409.87	355.76
410.07	379.17
410.26	341.72
410.45	353.42
410.64	386.19
410.83	374.49
411.02	414.27
411.21	372.15
411.40	360.44
411.59	449.38
411.78	400.23
411.98	362.78
412.17	367.46
412.36	383.85
412.55	447.04
412.74	430.66
412.93	402.57
413.12	470.45
413.31	440.02
413.50	402.57
413.69	437.68
413.88	393.21
414.07	402.57
414.26	395.55
414.45	425.98
414.64	404.91
414.83	395.55
415.02	386.19
415.22	322.99
415.41	404.91
415.60	451.72
415.79	421.30
415.98	468.11
416.17	369.80
416.36	400.23
416.55	423.64
416.74	339.38
416.93	507.90
417.12	404.91
417.31	390.87
417.50	461.09
417.69	458.74
417.88	367.46
418.07	451.72
418.26	393.21
418.45	421.30
418.64	451.72
418.83	393.21
419.02	402.57
419.21	334.70
419.39	477.47
419.58	411.93
419.77	402.57
419.96	355.76
420.15	475.13
420.34	442.36
420.53	400.23
420.72	416.62
420.91	404.91
421.10	341.72
421.29	404.91
421.48	444.70
421.67	393.21
421.86	475.13
422.05	414.27
422.24	383.85
422.43	433.00
422.61	428.32
422.80	381.51
422.99	444.70
423.18	369.80
423.37	435.34
423.56	425.98
423.75	472.79
423.94	393.21
424.13	468.11
424.32	430.66
424.50	423.64
424.69	409.59
424.88	421.30
425.07	400.23
425.26	390.87
425.45	421.30
425.64	367.46
425.83	386.19
426.01	376.83
426.20	383.85
426.39	386.19
426.58	390.87
426.77	423.64
426.96	386.19
427.15	393.21
427.33	430.66
427.52	395.55
427.71	383.85
427.90	411.93
428.09	409.59
428.28	447.04
428.46	271.50
428.65	421.30
428.84	435.34
429.03	411.93
429.22	402.57
429.40	421.30
429.59	355.76
429.78	418.96
429.97	414.27
430.16	351.08
430.34	376.83
430.53	409.59
430.72	425.98
430.91	421.30
431.10	369.80
431.28	402.57
431.47	425.98
431.66	393.21
431.85	414.27
432.03	454.06
432.22	470.45
432.41	414.27
432.60	482.15
432.79	423.64
432.97	402.57
433.16	451.72
433.35	407.25
433.54	386.19
433.72	449.38
433.91	404.91
434.10	411.93
434.28	437.68
434.47	444.70
434.66	421.30
434.85	388.53
435.03	402.57
435.22	454.06
435.41	458.74
435.59	390.87
435.78	456.40
435.97	454.06
436.16	386.19
436.34	397.89
436.53	400.23
436.72	470.45
436.90	400.23
437.09	444.70
437.28	381.51
437.46	437.68
437.65	440.02
437.84	435.34
438.02	386.19
438.21	437.68
438.40	376.83
438.58	425.98
438.77	409.59
438.96	365.12
439.14	430.66
439.33	449.38
439.52	440.02
439.70	344.06
439.89	404.91
440.08	430.66
440.26	407.25
440.45	430.66
440.63	449.38
440.82	393.21
441.01	308.95
441.19	437.68
441.38	355.76
441.57	367.46
441.75	362.78
441.94	442.36
442.12	374.49
442.31	341.72
442.50	386.19
442.68	386.19
442.87	423.64
443.05	374.49
443.24	496.19
443.43	447.04
443.61	468.11
443.80	458.74
443.98	346.40
444.17	393.21
444.35	498.53
444.54	414.27
444.73	395.55
444.91	404.91
445.10	397.89
445.28	367.46
445.47	383.85
445.65	404.91
445.84	414.27
446.02	395.55
446.21	386.19
446.39	423.64
446.58	428.32
446.77	381.51
446.95	423.64
447.14	379.17
447.32	458.74
447.51	360.44
447.69	461.09
447.88	416.62
448.06	421.30
448.25	444.70
448.43	477.47
448.62	411.93
448.80	388.53
448.99	388.53
449.17	409.59
449.36	400.23
449.54	444.70
449.73	416.62
449.91	440.02
450.10	404.91
450.28	498.53
450.46	503.22
450.65	440.02
450.83	477.47
451.02	414.27
451.20	390.87
451.39	428.32
451.57	404.91
451.76	444.70
451.94	400.23
452.13	397.89
452.31	372.15
452.49	351.08
452.68	355.76
452.86	477.47
453.05	400.23
453.23	386.19
453.42	367.46
453.60	414.27
453.78	451.72
453.97	411.93
454.15	360.44
454.34	374.49
454.52	355.76
454.70	479.81
454.89	477.47
455.07	418.96
455.26	395.55
455.44	421.30
455.62	458.74
455.81	433.00
455.99	393.21
456.17	442.36
456.36	395.55
456.54	430.66
456.73	435.34
456.91	397.89
457.09	390.87
457.28	435.34
457.46	447.04
457.64	482.15
457.83	397.89
458.01	433.00
458.19	407.25
458.38	374.49
458.56	472.79
458.74	351.08
458.93	447.04
459.11	435.34
459.29	390.87
459.48	425.98
459.66	477.47
459.84	360.44
460.03	463.43
460.21	514.92
460.39	404.91
460.57	437.68
460.76	404.91
460.94	400.23
461.12	425.98
461.31	433.00
461.49	409.59
461.67	365.12
461.85	411.93
462.04	386.19
462.22	784.08
462.40	461.09
462.59	472.79
462.77	339.38
462.95	414.27
463.13	379.17
463.32	442.36
463.50	423.64
463.68	491.51
463.86	365.12
464.05	423.64
464.23	421.30
464.41	437.68
464.59	407.25
464.78	362.78
464.96	414.27
465.14	362.78
465.32	386.19
465.50	449.38
465.69	376.83
465.87	367.46
466.05	449.38
466.23	397.89
466.41	418.96
466.60	397.89
466.78	430.66
466.96	423.64
467.14	416.62
467.32	479.81
467.51	454.06
467.69	449.38
467.87	421.30
468.05	379.17
468.23	322.99
468.41	449.38
468.60	489.17
468.78	489.17
468.96	472.79
469.14	409.59
469.32	414.27
469.50	374.49
469.69	465.77
469.87	395.55
470.05	418.96
470.23	449.38
470.41	409.59
470.59	395.55
470.77	393.21
470.95	442.36
471.14	411.93
471.32	440.02
471.50	444.70
471.68	416.62
471.86	421.30
472.04	374.49
472.22	465.77
472.40	358.10
472.58	388.53
472.77	404.91
472.95	327.68
473.13	468.11
473.31	416.62
473.49	344.06
473.67	365.12
473.85	461.09
474.03	479.81
474.21	393.21
474.39	411.93
474.57	521.94
474.75	397.89
474.93	451.72
475.12	388.53
475.30	425.98
475.48	411.93
475.66	358.10
475.84	465.77
476.02	440.02
476.20	418.96
476.38	430.66
476.56	444.70
476.74	430.66
476.92	463.43
477.10	386.19
477.28	414.27
477.46	353.42
477.64	365.12
477.82	404.91
478.00	428.32
478.18	390.87
478.36	397.89
478.54	358.10
478.72	346.40
478.90	482.15
479.08	514.92
479.26	425.98
479.44	386.19
479.62	411.93
479.80	372.15
479.98	444.70
480.16	409.59
480.34	468.11
480.52	470.45
480.70	386.19
480.88	379.17
481.06	379.17
481.24	458.74
481.41	458.74
481.59	423.64
481.77	411.93
481.95	390.87
482.13	484.49
482.31	444.70
482.49	444.70
482.67	444.70
482.85	428.32
483.03	435.34
483.21	355.76
483.39	414.27
483.57	365.12
483.74	463.43
483.92	407.25
484.10	461.09
484.28	376.83
484.46	411.93
484.64	327.68
484.82	421.30
485.00	358.10
485.18	463.43
485.35	372.15
485.53	444.70
485.71	491.51
485.89	425.98
486.07	482.15
486.25	454.06
486.43	444.70
486.61	447.04
486.78	407.25
486.96	397.89
487.14	383.85
487.32	334.70
487.50	472.79
487.68	418.96
487.85	404.91
488.03	395.55
488.21	418.96
488.39	351.08
488.57	308.95
488.75	308.95
488.92	496.19
489.10	430.66
489.28	435.34
489.46	409.59
489.64	416.62
489.81	397.89
489.99	414.27
490.17	421.30
490.35	449.38
490.53	454.06
490.70	437.68
490.88	435.34
491.06	374.49
491.24	442.36
491.41	402.57
491.59	358.10
491.77	390.87
491.95	393.21
492.13	334.70
492.30	425.98
492.48	418.96
492.66	404.91
492.84	458.74
493.01	388.53
493.19	397.89
493.37	402.57
493.54	416.62
493.72	400.23
493.90	451.72
494.08	400.23
494.25	374.49
494.43	433.00
494.61	397.89
494.79	393.21
494.96	468.11
495.14	411.93
495.32	353.42
495.49	376.83
495.67	463.43
495.85	372.15
496.02	423.64
496.20	454.06
496.38	409.59
496.55	341.72
496.73	416.62
496.91	435.34
497.09	386.19
497.26	428.32
497.44	402.57
497.62	465.77
497.79	404.91
497.97	517.26
498.14	435.34
498.32	390.87
498.50	409.59
498.67	337.04
498.85	435.34
499.03	402.57
499.20	465.77
499.38	411.93
499.56	402.57
499.73	409.59
499.91	433.00
500.08	421.30
500.26	404.91
500.44	376.83
500.61	362.78
500.79	437.68
500.97	430.66
501.14	463.43
501.32	461.09
501.49	458.74
501.67	369.80
501.84	449.38
502.02	388.53
502.20	437.68
502.37	440.02
502.55	402.57
502.72	416.62
502.90	372.15
503.07	465.77
503.25	447.04
503.43	451.72
503.60	418.96
503.78	411.93
503.95	390.87
504.13	379.17
504.30	433.00
504.48	409.59
504.65	437.68
504.83	456.40
505.01	423.64
505.18	470.45
505.36	379.17
505.53	421.30
505.71	397.89
505.88	512.58
506.06	395.55
506.23	409.59
506.41	383.85
506.58	423.64
506.76	423.64
506.93	393.21
507.11	416.62
507.28	355.76
507.46	442.36
507.63	421.30
507.81	433.00
507.98	334.70
508.16	393.21
508.33	461.09
508.50	418.96
508.68	428.32
508.85	402.57
509.03	433.00
509.20	395.55
509.38	440.02
509.55	482.15
509.73	423.64
509.90	442.36
510.08	400.23
510.25	433.00
510.42	428.32
510.60	404.91
510.77	411.93
510.95	395.55
511.12	374.49
511.30	388.53
511.47	451.72
511.64	418.96
511.82	449.38
511.99	397.89
512.17	428.32
512.34	416.62
512.51	304.27
512.69	409.59
512.86	468.11
513.04	479.81
513.21	414.27
513.38	367.46
513.56	351.08
513.73	409.59
513.90	355.76
514.08	444.70
514.25	407.25
514.43	395.55
514.60	397.89
514.77	421.30
514.95	463.43
515.12	383.85
515.29	379.17
515.47	404.91
515.64	395.55
515.81	393.21
515.99	454.06
516.16	461.09
516.33	451.72
516.51	402.57
516.68	397.89
516.85	374.49
517.03	414.27
517.20	430.66
517.37	400.23
517.54	442.36
517.72	393.21
517.89	407.25
518.06	341.72
518.24	393.21
518.41	430.66
518.58	456.40
518.75	379.17
518.93	416.62
519.10	346.40
519.27	437.68
519.45	407.25
519.62	449.38
519.79	449.38
519.96	463.43
520.14	463.43
520.31	430.66
520.48	423.64
520.65	456.40
520.83	491.51
521.00	461.09
521.17	418.96
521.34	393.21
521.52	386.19
521.69	437.68
521.86	430.66
522.03	447.04
522.20	423.64
522.38	386.19
522.55	423.64
522.72	416.62
522.89	409.59
523.07	442.36
523.24	372.15
523.41	425.98
523.58	411.93
523.75	465.77
523.92	395.55
524.10	416.62
524.27	503.22
524.44	381.51
524.61	428.32
524.78	470.45
524.96	444.70
525.13	355.76
525.30	484.49
525.47	416.62
525.64	388.53
525.81	390.87
525.98	456.40
526.16	425.98
526.33	442.36
526.50	362.78
526.67	421.30
526.84	447.04
527.01	437.68
527.18	428.32
527.36	402.57
527.53	421.30
527.70	451.72
527.87	379.17
528.04	393.21
528.21	404.91
528.38	440.02
528.55	395.55
528.72	411.93
528.89	369.80
529.07	390.87
529.24	365.12
529.41	430.66
529.58	489.17
529.75	451.72
529.92	479.81
530.09	393.21
530.26	383.85
530.43	425.98
530.60	416.62
530.77	468.11
530.94	500.87
531.11	400.23
531.28	390.87
531.46	425.98
531.63	395.55
531.80	327.68
531.97	484.49
532.14	409.59
532.31	437.68
532.48	362.78
532.65	482.15
532.82	458.74
532.99	367.46
533.16	376.83
533.33	414.27
533.50	451.72
533.67	379.17
533.84	479.81
534.01	418.96
534.18	395.55
534.35	409.59
534.52	425.98
534.69	372.15
534.86	447.04
535.03	388.53
535.20	444.70
535.37	463.43
535.54	360.44
535.71	437.68
535.88	507.90
536.05	369.80
536.22	475.13
536.38	444.70
536.55	397.89
536.72	477.47
536.89	456.40
537.06	386.19
537.23	440.02
537.40	433.00
537.57	395.55
537.74	433.00
537.91	451.72
538.08	360.44
538.25	449.38
538.42	493.85
538.59	433.00
538.75	421.30
538.92	421.30
539.09	454.06
539.26	325.33
539.43	372.15
539.60	376.83
539.77	400.23
539.94	353.42
540.11	423.64
540.28	416.62
540.44	428.32
540.61	372.15
540.78	428.32
540.95	449.38
541.12	451.72
541.29	390.87
541.46	458.74
541.62	414.27
541.79	409.59
541.96	433.00
542.13	407.25
542.30	437.68
542.47	400.23
542.63	397.89
542.80	526.62
542.97	388.53
543.14	435.34
543.31	407.25
543.48	388.53
543.64	435.34
543.81	433.00
543.98	463.43
544.15	362.78
544.32	381.51
544.48	372.15
544.65	411.93
544.82	425.98
544.99	367.46
545.16	430.66
545.32	416.62
545.49	437.68
545.66	454.06
545.83	433.00
546.00	402.57
546.16	407.25
546.33	402.57
546.50	468.11
546.67	402.57
546.83	428.32
547.00	369.80
547.17	449.38
547.34	388.53
547.50	437.68
547.67	484.49
547.84	421.30
548.00	437.68
548.17	440.02
548.34	482.15
548.51	381.51
548.67	418.96
548.84	465.77
549.01	486.83
549.18	428.32
549.34	425.98
549.51	358.10
549.68	404.91
549.84	425.98
550.01	421.30
550.18	447.04
550.34	470.45
550.51	362.78
550.68	456.40
550.84	435.34
551.01	376.83
551.18	444.70
551.34	447.04
551.51	379.17
551.68	421.30
551.84	409.59
552.01	383.85
552.18	355.76
552.34	547.69
552.51	381.51
552.68	475.13
552.84	409.59
553.01	397.89
553.18	346.40
553.34	395.55
553.51	374.49
553.67	433.00
553.84	503.22
554.01	449.38
554.17	423.64
554.34	393.21
554.51	416.62
554.67	489.17
554.84	437.68
555.00	458.74
555.17	463.43
555.33	456.40
555.50	428.32
555.67	411.93
555.83	360.44
556.00	418.96
556.16	559.39
556.33	491.51
556.50	416.62
556.66	397.89
556.83	440.02
556.99	433.00
557.16	435.34
557.32	386.19
557.49	409.59
557.65	376.83
557.82	414.27
557.98	505.56
558.15	379.17
558.32	425.98
558.48	390.87
558.65	402.57
558.81	442.36
558.98	404.91
559.14	463.43
559.31	433.00
559.47	376.83
559.64	458.74
559.80	437.68
559.97	425.98
560.13	444.70
560.30	386.19
560.46	355.76
560.63	404.91
560.79	433.00
560.96	404.91
561.12	435.34
561.29	444.70
561.45	414.27
561.61	442.36
561.78	493.85
561.94	449.38
562.11	388.53
562.27	451.72
562.44	442.36
562.60	433.00
562.77	430.66
562.93	454.06
563.10	437.68
563.26	437.68
563.42	365.12
563.59	433.00
563.75	442.36
563.92	479.81
564.08	409.59
564.24	437.68
564.41	475.13
564.57	390.87
564.74	444.70
564.90	397.89
565.07	430.66
565.23	491.51
565.39	421.30
565.56	360.44
565.72	386.19
565.88	346.40
566.05	451.72
566.21	351.08
566.38	433.00
566.54	421.30
566.70	461.09
566.87	379.17
567.03	334.70
567.19	313.63
567.36	402.57
567.52	402.57
567.68	411.93
567.85	493.85
568.01	440.02
568.17	418.96
568.34	402.57
568.50	381.51
568.66	444.70
568.83	463.43
568.99	388.53
569.15	433.00
569.32	411.93
569.48	369.80
569.64	414.27
569.81	425.98
569.97	454.06
570.13	381.51
570.30	404.91
570.46	444.70
570.62	360.44
570.78	440.02
570.95	362.78
571.11	479.81
571.27	367.46
571.43	395.55
571.60	454.06
571.76	447.04
571.92	362.78
572.09	465.77
572.25	386.19
572.41	437.68
572.57	430.66
572.74	437.68
572.90	493.85
573.06	435.34
573.22	400.23
573.38	444.70
573.55	383.85
573.71	484.49
573.87	425.98
574.03	454.06
574.20	423.64
574.36	465.77
574.52	414.27
574.68	428.32
574.84	411.93
575.01	386.19
575.17	407.25
575.33	435.34
575.49	458.74
575.65	423.64
575.82	404.91
575.98	454.06
576.14	519.60
576.30	376.83
576.46	400.23
576.62	425.98
576.79	358.10
576.95	482.15
577.11	421.30
577.27	451.72
577.43	430.66
577.59	442.36
577.75	484.49
577.92	521.94
578.08	437.68
578.24	395.55
578.40	411.93
578.56	315.97
578.72	388.53
578.88	538.32
579.04	442.36
579.21	425.98
579.37	395.55
579.53	465.77
579.69	423.64
579.85	458.74
580.01	388.53
580.17	444.70
580.33	402.57
580.49	447.04
580.65	374.49
580.82	353.42
580.98	379.17
581.14	381.51
581.30	472.79
581.46	369.80
581.62	477.47
581.78	425.98
581.94	411.93
582.10	503.22
582.26	393.21
582.42	386.19
582.58	400.23
582.74	348.74
582.90	440.02
583.06	381.51
583.22	423.64
583.38	381.51
583.54	444.70
583.70	449.38
583.86	461.09
584.02	449.38
584.18	416.62
584.34	444.70
584.50	393.21
584.66	400.23
584.82	510.24
584.98	517.26
585.14	461.09
585.30	351.08
585.46	444.70
585.62	330.02
585.78	397.89
585.94	376.83
586.10	400.23
586.26	376.83
586.42	451.72
586.58	428.32
586.74	496.19
586.90	447.04
587.06	435.34
587.22	369.80
587.38	440.02
587.54	362.78
587.70	454.06
587.86	358.10
588.02	409.59
588.18	477.47
588.34	425.98
588.49	386.19
588.65	355.76
588.81	423.64
588.97	470.45
589.13	358.10
589.29	393.21
589.45	395.55
589.61	386.19
589.77	425.98
589.93	421.30
590.08	404.91
590.24	435.34
590.40	451.72
590.56	428.32
590.72	428.32
590.88	449.38
591.04	430.66
591.20	482.15
591.35	411.93
591.51	397.89
591.67	423.64
591.83	344.06
591.99	374.49
592.15	440.02
592.31	402.57
592.46	381.51
592.62	421.30
592.78	402.57
592.94	414.27
593.10	447.04
593.26	447.04
593.41	400.23
593.57	379.17
593.73	407.25
593.89	411.93
594.05	407.25
594.20	435.34
594.36	435.34
594.52	374.49
594.68	437.68
594.84	393.21
594.99	503.22
595.15	395.55
595.31	458.74
595.47	397.89
595.62	493.85
595.78	369.80
595.94	463.43
596.10	393.21
596.25	430.66
596.41	447.04
596.57	386.19
596.73	393.21
596.88	379.17
597.04	411.93
597.20	400.23
597.36	395.55
597.51	393.21
597.67	430.66
597.83	447.04
597.99	449.38
598.14	486.83
598.30	458.74
598.46	437.68
598.61	512.58
598.77	461.09
598.93	477.47
599.09	407.25
599.24	423.64
599.40	407.25
599.56	416.62
599.71	433.00
599.87	437.68
600.03	470.45
600.18	358.10
600.34	381.51
600.50	423.64
600.65	423.64
600.81	463.43
600.97	407.25
601.12	393.21
601.28	479.81
601.44	372.15
601.59	416.62
601.75	421.30
601.91	482.15
602.06	402.57
602.22	442.36
602.37	428.32
602.53	463.43
602.69	463.43
602.84	390.87
603.00	430.66
603.16	393.21
603.31	442.36
603.47	395.55
603.62	437.68
603.78	477.47
603.94	435.34
604.09	421.30
604.25	454.06
604.40	470.45
604.56	449.38
604.71	400.23
604.87	358.10
605.03	388.53
605.18	360.44
605.34	496.19
605.49	386.19
605.65	353.42
605.80	355.76
605.96	437.68
606.12	456.40
606.27	416.62
606.43	444.70
606.58	437.68
606.74	358.10
606.89	404.91
607.05	421.30
607.20	437.68
607.36	372.15
607.51	402.57
607.67	416.62
607.82	454.06
607.98	421.30
608.13	418.96
608.29	369.80
608.44	468.11
608.60	423.64
608.75	503.22
608.91	444.70
609.06	465.77
609.22	454.06
609.37	416.62
609.53	341.72
609.68	451.72
609.84	465.77
609.99	472.79
610.15	388.53
