SpectraSuite Data File
++++++++++++++++++++++++++++++++++++
Date: Fri Oct 25 12:10:57 EDT 2013
User: price-jones
Dark Spectrum Present: No
Reference Spectrum Present: No
Number of Sampled Component Spectra: 1
Spectrometers: USB2+H05261
Integration Time (usec): 100000 (USB2+H05261)
Spectra Averaged: 1 (USB2+H05261)
Boxcar Smoothing: 0 (USB2+H05261)
Correct for Electrical Dark: No (USB2+H05261)
Strobe/Lamp Enabled: No (USB2+H05261)
Correct for Detector Non-linearity: No (USB2+H05261)
Correct for Stray Light: No (USB2+H05261)
Number of Pixels in Processed Spectrum: 2048
>>>>>Begin Processed Spectral Data<<<<<
365.73	271.50
365.92	271.50
366.12	271.50
366.32	222.35
366.52	294.91
366.72	315.97
366.91	220.01
367.11	245.76
367.31	224.69
367.51	245.76
367.70	245.76
367.90	212.99
368.10	259.80
368.30	250.44
368.49	191.92
368.69	215.33
368.89	236.39
369.09	294.91
369.28	271.50
369.48	217.67
369.68	294.91
369.87	341.72
370.07	334.70
370.27	365.12
370.47	322.99
370.66	369.80
370.86	428.32
371.06	383.85
371.25	365.12
371.45	348.74
371.65	458.74
371.84	369.80
372.04	379.17
372.24	468.11
372.44	447.04
372.63	365.12
372.83	409.59
373.03	430.66
373.22	444.70
373.42	388.53
373.62	388.53
373.81	407.25
374.01	433.00
374.21	421.30
374.40	461.09
374.60	409.59
374.79	402.57
374.99	393.21
375.19	346.40
375.38	411.93
375.58	374.49
375.78	479.81
375.97	404.91
376.17	463.43
376.37	451.72
376.56	454.06
376.76	411.93
376.95	447.04
377.15	425.98
377.35	407.25
377.54	435.34
377.74	442.36
377.93	379.17
378.13	383.85
378.33	388.53
378.52	430.66
378.72	397.89
378.91	430.66
379.11	418.96
379.31	400.23
379.50	327.68
379.70	456.40
379.89	475.13
380.09	421.30
380.28	383.85
380.48	397.89
380.68	351.08
380.87	407.25
381.07	407.25
381.26	440.02
381.46	381.51
381.65	376.83
381.85	428.32
382.04	376.83
382.24	411.93
382.43	507.90
382.63	395.55
382.83	475.13
383.02	395.55
383.22	444.70
383.41	390.87
383.61	402.57
383.80	411.93
384.00	435.34
384.19	404.91
384.39	320.65
384.58	454.06
384.78	465.77
384.97	411.93
385.17	418.96
385.36	397.89
385.56	456.40
385.75	430.66
385.95	409.59
386.14	360.44
386.34	437.68
386.53	425.98
386.72	465.77
386.92	496.19
387.11	407.25
387.31	416.62
387.50	407.25
387.70	386.19
387.89	491.51
388.09	468.11
388.28	395.55
388.48	358.10
388.67	414.27
388.86	402.57
389.06	418.96
389.25	386.19
389.45	470.45
389.64	358.10
389.84	475.13
390.03	475.13
390.22	341.72
390.42	423.64
390.61	428.32
390.81	379.17
391.00	337.04
391.19	386.19
391.39	383.85
391.58	482.15
391.78	404.91
391.97	383.85
392.16	414.27
392.36	447.04
392.55	409.59
392.75	381.51
392.94	451.72
393.13	444.70
393.33	425.98
393.52	407.25
393.71	430.66
393.91	341.72
394.10	451.72
394.29	388.53
394.49	395.55
394.68	367.46
394.88	416.62
395.07	437.68
395.26	367.46
395.46	456.40
395.65	449.38
395.84	428.32
396.04	507.90
396.23	442.36
396.42	416.62
396.62	365.12
396.81	430.66
397.00	428.32
397.19	400.23
397.39	404.91
397.58	409.59
397.77	477.47
397.97	489.17
398.16	418.96
398.35	372.15
398.55	440.02
398.74	404.91
398.93	402.57
399.12	440.02
399.32	390.87
399.51	339.38
399.70	381.51
399.90	472.79
400.09	404.91
400.28	421.30
400.47	421.30
400.67	395.55
400.86	416.62
401.05	491.51
401.24	463.43
401.44	425.98
401.63	425.98
401.82	507.90
402.01	447.04
402.21	393.21
402.40	440.02
402.59	393.21
402.78	397.89
402.97	440.02
403.17	374.49
403.36	409.59
403.55	423.64
403.74	425.98
403.93	451.72
404.13	440.02
404.32	374.49
404.51	430.66
404.70	374.49
404.89	369.80
405.09	463.43
405.28	428.32
405.47	376.83
405.66	414.27
405.85	409.59
406.05	407.25
406.24	430.66
406.43	423.64
406.62	407.25
406.81	418.96
407.00	407.25
407.20	428.32
407.39	435.34
407.58	416.62
407.77	365.12
407.96	449.38
408.15	433.00
408.34	437.68
408.54	442.36
408.73	421.30
408.92	414.27
409.11	444.70
409.30	430.66
409.49	379.17
409.68	355.76
409.87	365.12
410.07	400.23
410.26	463.43
410.45	414.27
410.64	411.93
410.83	325.33
411.02	423.64
411.21	496.19
411.40	433.00
411.59	449.38
411.78	397.89
411.98	409.59
412.17	404.91
412.36	437.68
412.55	458.74
412.74	512.58
412.93	447.04
413.12	395.55
413.31	404.91
413.50	397.89
413.69	388.53
413.88	402.57
414.07	383.85
414.26	416.62
414.45	414.27
414.64	437.68
414.83	435.34
415.02	390.87
415.22	425.98
415.41	430.66
415.60	411.93
415.79	449.38
415.98	383.85
416.17	442.36
416.36	381.51
416.55	428.32
416.74	395.55
416.93	449.38
417.12	339.38
417.31	458.74
417.50	414.27
417.69	475.13
417.88	355.76
418.07	390.87
418.26	418.96
418.45	376.83
418.64	407.25
418.83	369.80
419.02	435.34
419.21	461.09
419.39	486.83
419.58	395.55
419.77	402.57
419.96	479.81
420.15	454.06
420.34	418.96
420.53	393.21
420.72	407.25
420.91	358.10
421.10	414.27
421.29	358.10
421.48	365.12
421.67	390.87
421.86	400.23
422.05	374.49
422.24	418.96
422.43	397.89
422.61	393.21
422.80	430.66
422.99	365.12
423.18	402.57
423.37	465.77
423.56	390.87
423.75	421.30
423.94	330.02
424.13	428.32
424.32	425.98
424.50	465.77
424.69	435.34
424.88	430.66
425.07	393.21
425.26	425.98
425.45	393.21
425.64	447.04
425.83	416.62
426.01	491.51
426.20	411.93
426.39	454.06
426.58	365.12
426.77	468.11
426.96	440.02
427.15	472.79
427.33	447.04
427.52	339.38
427.71	496.19
427.90	409.59
428.09	414.27
428.28	416.62
428.46	440.02
428.65	379.17
428.84	395.55
429.03	435.34
429.22	383.85
429.40	388.53
429.59	486.83
429.78	374.49
429.97	451.72
430.16	402.57
430.34	440.02
430.53	379.17
430.72	458.74
430.91	449.38
431.10	428.32
431.28	421.30
431.47	409.59
431.66	407.25
431.85	393.21
432.03	414.27
432.22	418.96
432.41	379.17
432.60	402.57
432.79	456.40
432.97	447.04
433.16	402.57
433.35	360.44
433.54	435.34
433.72	379.17
433.91	367.46
434.10	355.76
434.28	365.12
434.47	444.70
434.66	411.93
434.85	430.66
435.03	461.09
435.22	418.96
435.41	421.30
435.59	475.13
435.78	442.36
435.97	442.36
436.16	395.55
436.34	311.29
436.53	465.77
436.72	465.77
436.90	484.49
437.09	404.91
437.28	351.08
437.46	421.30
437.65	372.15
437.84	442.36
438.02	442.36
438.21	472.79
438.40	451.72
438.58	383.85
438.77	379.17
438.96	442.36
439.14	454.06
439.33	374.49
439.52	376.83
439.70	444.70
439.89	414.27
440.08	416.62
440.26	454.06
440.45	482.15
440.63	437.68
440.82	311.29
441.01	442.36
441.19	414.27
441.38	440.02
441.57	376.83
441.75	430.66
441.94	463.43
442.12	447.04
442.31	433.00
442.50	433.00
442.68	404.91
442.87	397.89
443.05	334.70
443.24	397.89
443.43	395.55
443.61	367.46
443.80	360.44
443.98	428.32
444.17	365.12
444.35	486.83
444.54	411.93
444.73	451.72
444.91	463.43
445.10	374.49
445.28	414.27
445.47	341.72
445.65	379.17
445.84	386.19
446.02	447.04
446.21	383.85
446.39	456.40
446.58	458.74
446.77	418.96
446.95	475.13
447.14	428.32
447.32	524.28
447.51	458.74
447.69	353.42
447.88	402.57
448.06	465.77
448.25	400.23
448.43	463.43
448.62	381.51
448.80	425.98
448.99	425.98
449.17	365.12
449.36	418.96
449.54	421.30
449.73	393.21
449.91	428.32
450.10	451.72
450.28	437.68
450.46	428.32
450.65	428.32
450.83	360.44
451.02	414.27
451.20	388.53
451.39	421.30
451.57	365.12
451.76	395.55
451.94	425.98
452.13	465.77
452.31	491.51
452.49	437.68
452.68	402.57
452.86	379.17
453.05	379.17
453.23	425.98
453.42	341.72
453.60	376.83
453.78	435.34
453.97	472.79
454.15	388.53
454.34	425.98
454.52	451.72
454.70	440.02
454.89	421.30
455.07	430.66
455.26	430.66
455.44	437.68
455.62	414.27
455.81	374.49
455.99	524.28
456.17	477.47
456.36	393.21
456.54	400.23
456.73	444.70
456.91	411.93
457.09	440.02
457.28	449.38
457.46	383.85
457.64	470.45
457.83	383.85
458.01	397.89
458.19	440.02
458.38	402.57
458.56	440.02
458.74	444.70
458.93	437.68
459.11	414.27
459.29	393.21
459.48	521.94
459.66	409.59
459.84	421.30
460.03	428.32
460.21	496.19
460.39	456.40
460.57	435.34
460.76	458.74
460.94	433.00
461.12	470.45
461.31	437.68
461.49	430.66
461.67	390.87
461.85	465.77
462.04	444.70
462.22	767.70
462.40	369.80
462.59	479.81
462.77	365.12
462.95	463.43
463.13	430.66
463.32	397.89
463.50	393.21
463.68	437.68
463.86	400.23
464.05	414.27
464.23	451.72
464.41	493.85
464.59	437.68
464.78	372.15
464.96	447.04
465.14	477.47
465.32	493.85
465.50	362.78
465.69	451.72
465.87	400.23
466.05	402.57
466.23	386.19
466.41	428.32
466.60	376.83
466.78	379.17
466.96	440.02
467.14	407.25
467.32	425.98
467.51	430.66
467.69	430.66
467.87	444.70
468.05	402.57
468.23	470.45
468.41	379.17
468.60	407.25
468.78	451.72
468.96	465.77
469.14	379.17
469.32	400.23
469.50	428.32
469.69	397.89
469.87	423.64
470.05	404.91
470.23	433.00
470.41	409.59
470.59	437.68
470.77	393.21
470.95	451.72
471.14	379.17
471.32	514.92
471.50	444.70
471.68	433.00
471.86	440.02
472.04	367.46
472.22	372.15
472.40	423.64
472.58	393.21
472.77	355.76
472.95	313.63
473.13	463.43
473.31	416.62
473.49	440.02
473.67	346.40
473.85	423.64
474.03	400.23
474.21	482.15
474.39	468.11
474.57	442.36
474.75	510.24
474.93	477.47
475.12	440.02
475.30	421.30
475.48	449.38
475.66	442.36
475.84	414.27
476.02	390.87
476.20	369.80
476.38	402.57
476.56	475.13
476.74	416.62
476.92	433.00
477.10	355.76
477.28	407.25
477.46	414.27
477.64	447.04
477.82	440.02
478.00	482.15
478.18	433.00
478.36	418.96
478.54	409.59
478.72	421.30
478.90	435.34
479.08	404.91
479.26	435.34
479.44	416.62
479.62	386.19
479.80	409.59
479.98	416.62
480.16	428.32
480.34	475.13
480.52	465.77
480.70	465.77
480.88	402.57
481.06	334.70
481.24	428.32
481.41	404.91
481.59	353.42
481.77	386.19
481.95	362.78
482.13	407.25
482.31	454.06
482.49	404.91
482.67	414.27
482.85	479.81
483.03	386.19
483.21	404.91
483.39	454.06
483.57	411.93
483.74	409.59
483.92	330.02
484.10	360.44
484.28	430.66
484.46	475.13
484.64	390.87
484.82	416.62
485.00	372.15
485.18	411.93
485.35	416.62
485.53	395.55
485.71	414.27
485.89	388.53
486.07	407.25
486.25	468.11
486.43	411.93
486.61	465.77
486.78	444.70
486.96	430.66
487.14	407.25
487.32	388.53
487.50	388.53
487.68	451.72
487.85	486.83
488.03	465.77
488.21	475.13
488.39	435.34
488.57	418.96
488.75	348.74
488.92	423.64
489.10	458.74
489.28	444.70
489.46	423.64
489.64	411.93
489.81	458.74
489.99	400.23
490.17	337.04
490.35	517.26
490.53	400.23
490.70	430.66
490.88	416.62
491.06	430.66
491.24	402.57
491.41	442.36
491.59	444.70
491.77	409.59
491.95	374.49
492.13	390.87
492.30	379.17
492.48	411.93
492.66	421.30
492.84	337.04
493.01	442.36
493.19	386.19
493.37	421.30
493.54	477.47
493.72	388.53
493.90	418.96
494.08	421.30
494.25	440.02
494.43	454.06
494.61	372.15
494.79	454.06
494.96	435.34
495.14	479.81
495.32	402.57
495.49	388.53
495.67	372.15
495.85	383.85
496.02	444.70
496.20	372.15
496.38	440.02
496.55	414.27
496.73	433.00
496.91	379.17
497.09	379.17
497.26	428.32
497.44	416.62
497.62	468.11
497.79	454.06
497.97	411.93
498.14	386.19
498.32	348.74
498.50	425.98
498.67	372.15
498.85	447.04
499.03	386.19
499.20	454.06
499.38	334.70
499.56	470.45
499.73	437.68
499.91	477.47
500.08	440.02
500.26	379.17
500.44	372.15
500.61	376.83
500.79	463.43
500.97	437.68
501.14	468.11
501.32	444.70
501.49	454.06
501.67	437.68
501.84	468.11
502.02	433.00
502.20	411.93
502.37	465.77
502.55	390.87
502.72	397.89
502.90	524.28
503.07	358.10
503.25	425.98
503.43	416.62
503.60	383.85
503.78	472.79
503.95	388.53
504.13	428.32
504.30	472.79
504.48	423.64
504.65	449.38
504.83	397.89
505.01	376.83
505.18	463.43
505.36	440.02
505.53	454.06
505.71	461.09
505.88	395.55
506.06	369.80
506.23	423.64
506.41	433.00
506.58	470.45
506.76	503.22
506.93	414.27
507.11	346.40
507.28	437.68
507.46	390.87
507.63	468.11
507.81	369.80
507.98	421.30
508.16	381.51
508.33	337.04
508.50	390.87
508.68	411.93
508.85	376.83
509.03	454.06
509.20	468.11
509.38	369.80
509.55	465.77
509.73	383.85
509.90	463.43
510.08	388.53
510.25	491.51
510.42	409.59
510.60	482.15
510.77	430.66
510.95	444.70
511.12	423.64
511.30	442.36
511.47	402.57
511.64	514.92
511.82	428.32
511.99	421.30
512.17	409.59
512.34	367.46
512.51	437.68
512.69	360.44
512.86	447.04
513.04	362.78
513.21	430.66
513.38	367.46
513.56	379.17
513.73	421.30
513.90	381.51
514.08	292.57
514.25	435.34
514.43	395.55
514.60	416.62
514.77	395.55
514.95	435.34
515.12	390.87
515.29	409.59
515.47	430.66
515.64	367.46
515.81	409.59
515.99	477.47
516.16	428.32
516.33	465.77
516.51	444.70
516.68	409.59
516.85	341.72
517.03	381.51
517.20	475.13
517.37	456.40
517.54	465.77
517.72	365.12
517.89	416.62
518.06	407.25
518.24	458.74
518.41	517.26
518.58	414.27
518.75	376.83
518.93	428.32
519.10	416.62
519.27	482.15
519.45	404.91
519.62	521.94
519.79	379.17
519.96	475.13
520.14	470.45
520.31	447.04
520.48	421.30
520.65	400.23
520.83	489.17
521.00	421.30
521.17	411.93
521.34	456.40
521.52	444.70
521.69	421.30
521.86	411.93
522.03	461.09
522.20	498.53
522.38	393.21
522.55	390.87
522.72	386.19
522.89	407.25
523.07	390.87
523.24	437.68
523.41	383.85
523.58	362.78
523.75	409.59
523.92	433.00
524.10	367.46
524.27	393.21
524.44	386.19
524.61	468.11
524.78	430.66
524.96	440.02
525.13	430.66
525.30	470.45
525.47	409.59
525.64	404.91
525.81	397.89
525.98	393.21
526.16	409.59
526.33	411.93
526.50	418.96
526.67	402.57
526.84	332.36
527.01	390.87
527.18	465.77
527.36	428.32
527.53	315.97
527.70	381.51
527.87	444.70
528.04	409.59
528.21	407.25
528.38	468.11
528.55	393.21
528.72	444.70
528.89	430.66
529.07	433.00
529.24	421.30
529.41	372.15
529.58	423.64
529.75	376.83
529.92	444.70
530.09	435.34
530.26	407.25
530.43	418.96
530.60	451.72
530.77	435.34
530.94	402.57
531.11	451.72
531.28	409.59
531.46	416.62
531.63	458.74
531.80	491.51
531.97	423.64
532.14	456.40
532.31	362.78
532.48	416.62
532.65	463.43
532.82	409.59
532.99	259.80
533.16	425.98
533.33	369.80
533.50	418.96
533.67	362.78
533.84	400.23
534.01	484.49
534.18	435.34
534.35	395.55
534.52	425.98
534.69	418.96
534.86	386.19
535.03	433.00
535.20	353.42
535.37	505.56
535.54	437.68
535.71	351.08
535.88	461.09
536.05	379.17
536.22	430.66
536.38	360.44
536.55	440.02
536.72	468.11
536.89	395.55
537.06	400.23
537.23	409.59
537.40	367.46
537.57	437.68
537.74	430.66
537.91	411.93
538.08	447.04
538.25	397.89
538.42	437.68
538.59	318.31
538.75	437.68
538.92	451.72
539.09	428.32
539.26	484.49
539.43	407.25
539.60	404.91
539.77	442.36
539.94	400.23
540.11	440.02
540.28	472.79
540.44	477.47
540.61	393.21
540.78	477.47
540.95	421.30
541.12	468.11
541.29	402.57
541.46	372.15
541.62	409.59
541.79	404.91
541.96	447.04
542.13	330.02
542.30	451.72
542.47	430.66
542.63	472.79
542.80	395.55
542.97	470.45
543.14	482.15
543.31	461.09
543.48	393.21
543.64	425.98
543.81	411.93
543.98	456.40
544.15	414.27
544.32	374.49
544.48	437.68
544.65	425.98
544.82	444.70
544.99	437.68
545.16	402.57
545.32	475.13
545.49	390.87
545.66	430.66
545.83	367.46
546.00	433.00
546.16	402.57
546.33	383.85
546.50	421.30
546.67	418.96
546.83	407.25
547.00	388.53
547.17	461.09
547.34	444.70
547.50	400.23
547.67	458.74
547.84	433.00
548.00	465.77
548.17	383.85
548.34	437.68
548.51	433.00
548.67	486.83
548.84	381.51
549.01	444.70
549.18	489.17
549.34	372.15
549.51	440.02
549.68	428.32
549.84	395.55
550.01	322.99
550.18	498.53
550.34	470.45
550.51	400.23
550.68	383.85
550.84	421.30
551.01	435.34
551.18	414.27
551.34	414.27
551.51	435.34
551.68	369.80
551.84	346.40
552.01	423.64
552.18	430.66
552.34	463.43
552.51	491.51
552.68	416.62
552.84	451.72
553.01	444.70
553.18	402.57
553.34	421.30
553.51	430.66
553.67	454.06
553.84	479.81
554.01	407.25
554.17	433.00
554.34	442.36
554.51	425.98
554.67	510.24
554.84	475.13
555.00	407.25
555.17	447.04
555.33	451.72
555.50	491.51
555.67	433.00
555.83	369.80
556.00	468.11
556.16	580.45
556.33	463.43
556.50	372.15
556.66	430.66
556.83	472.79
556.99	461.09
557.16	344.06
557.32	416.62
557.49	465.77
557.65	423.64
557.82	440.02
557.98	482.15
558.15	395.55
558.32	505.56
558.48	449.38
558.65	411.93
558.81	454.06
558.98	470.45
559.14	381.51
559.31	369.80
559.47	418.96
559.64	397.89
559.80	472.79
559.97	449.38
560.13	428.32
560.30	418.96
560.46	421.30
560.63	414.27
560.79	507.90
560.96	379.17
561.12	367.46
561.29	365.12
561.45	451.72
561.61	386.19
561.78	458.74
561.94	372.15
562.11	442.36
562.27	442.36
562.44	332.36
562.60	444.70
562.77	440.02
562.93	428.32
563.10	409.59
563.26	444.70
563.42	393.21
563.59	451.72
563.75	484.49
563.92	421.30
564.08	454.06
564.24	482.15
564.41	411.93
564.57	379.17
564.74	395.55
564.90	418.96
565.07	442.36
565.23	486.83
565.39	416.62
565.56	404.91
565.72	423.64
565.88	458.74
566.05	461.09
566.21	465.77
566.38	498.53
566.54	449.38
566.70	503.22
566.87	388.53
567.03	451.72
567.19	444.70
567.36	456.40
567.52	430.66
567.68	421.30
567.85	451.72
568.01	388.53
568.17	390.87
568.34	409.59
568.50	383.85
568.66	435.34
568.83	491.51
568.99	437.68
569.15	402.57
569.32	423.64
569.48	381.51
569.64	416.62
569.81	379.17
569.97	451.72
570.13	351.08
570.30	386.19
570.46	449.38
570.62	397.89
570.78	393.21
570.95	372.15
571.11	428.32
571.27	444.70
571.43	346.40
571.60	409.59
571.76	407.25
571.92	425.98
572.09	475.13
572.25	395.55
572.41	437.68
572.57	407.25
572.74	404.91
572.90	393.21
573.06	503.22
573.22	437.68
573.38	423.64
573.55	442.36
573.71	456.40
573.87	376.83
574.03	449.38
574.20	416.62
574.36	430.66
574.52	423.64
574.68	337.04
574.84	458.74
575.01	421.30
575.17	414.27
575.33	400.23
575.49	456.40
575.65	407.25
575.82	503.22
575.98	475.13
576.14	503.22
576.30	430.66
576.46	409.59
576.62	414.27
576.79	456.40
576.95	386.19
577.11	348.74
577.27	365.12
577.43	400.23
577.59	475.13
577.75	372.15
577.92	482.15
578.08	423.64
578.24	414.27
578.40	437.68
578.56	500.87
578.72	407.25
578.88	461.09
579.04	374.49
579.21	421.30
579.37	418.96
579.53	358.10
579.69	390.87
579.85	395.55
580.01	388.53
580.17	472.79
580.33	411.93
580.49	470.45
580.65	388.53
580.82	409.59
580.98	369.80
581.14	451.72
581.30	484.49
581.46	456.40
581.62	400.23
581.78	498.53
581.94	388.53
582.10	409.59
582.26	362.78
582.42	430.66
582.58	514.92
582.74	372.15
582.90	414.27
583.06	456.40
583.22	437.68
583.38	454.06
583.54	369.80
583.70	404.91
583.86	376.83
584.02	397.89
584.18	353.42
584.34	468.11
584.50	486.83
584.66	409.59
584.82	395.55
584.98	470.45
585.14	397.89
585.30	456.40
585.46	416.62
585.62	421.30
585.78	402.57
585.94	461.09
586.10	383.85
586.26	388.53
586.42	475.13
586.58	505.56
586.74	496.19
586.90	461.09
587.06	423.64
587.22	304.27
587.38	423.64
587.54	383.85
587.70	435.34
587.86	376.83
588.02	437.68
588.18	395.55
588.34	362.78
588.49	397.89
588.65	353.42
588.81	362.78
588.97	416.62
589.13	339.38
589.29	463.43
589.45	463.43
589.61	365.12
589.77	411.93
589.93	440.02
590.08	397.89
590.24	402.57
590.40	437.68
590.56	430.66
590.72	372.15
590.88	358.10
591.04	425.98
591.20	449.38
591.35	463.43
591.51	449.38
591.67	458.74
591.83	435.34
591.99	416.62
592.15	372.15
592.31	482.15
592.46	367.46
592.62	463.43
592.78	437.68
592.94	407.25
593.10	463.43
593.26	414.27
593.41	414.27
593.57	358.10
593.73	393.21
593.89	425.98
594.05	428.32
594.20	411.93
594.36	437.68
594.52	449.38
594.68	402.57
594.84	353.42
594.99	393.21
595.15	421.30
595.31	435.34
595.47	458.74
595.62	365.12
595.78	475.13
595.94	351.08
596.10	472.79
596.25	428.32
596.41	456.40
596.57	390.87
596.73	416.62
596.88	468.11
597.04	447.04
597.20	395.55
597.36	402.57
597.51	442.36
597.67	397.89
597.83	365.12
597.99	376.83
598.14	379.17
598.30	411.93
598.46	414.27
598.61	433.00
598.77	468.11
598.93	409.59
599.09	393.21
599.24	454.06
599.40	421.30
599.56	365.12
599.71	409.59
599.87	421.30
600.03	428.32
600.18	458.74
600.34	421.30
600.50	456.40
600.65	397.89
600.81	409.59
600.97	423.64
601.12	367.46
601.28	414.27
601.44	414.27
601.59	409.59
601.75	358.10
601.91	444.70
602.06	447.04
602.22	465.77
602.37	395.55
602.53	404.91
602.69	496.19
602.84	367.46
603.00	386.19
603.16	437.68
603.31	447.04
603.47	458.74
603.62	437.68
603.78	442.36
603.94	374.49
604.09	463.43
604.25	383.85
604.40	372.15
604.56	386.19
604.71	393.21
604.87	433.00
605.03	404.91
605.18	430.66
605.34	435.34
605.49	458.74
605.65	433.00
605.80	407.25
605.96	376.83
606.12	367.46
606.27	430.66
606.43	440.02
606.58	454.06
606.74	353.42
606.89	444.70
607.05	472.79
607.20	449.38
607.36	400.23
607.51	430.66
607.67	428.32
607.82	393.21
607.98	491.51
608.13	383.85
608.29	372.15
608.44	407.25
608.60	491.51
608.75	409.59
608.91	447.04
609.06	348.74
609.22	461.09
609.37	421.30
609.53	388.53
609.68	433.00
609.84	440.02
609.99	411.93
610.15	521.94
