SpectraSuite Data File
++++++++++++++++++++++++++++++++++++
Date: Fri Oct 25 12:10:46 EDT 2013
User: price-jones
Dark Spectrum Present: No
Reference Spectrum Present: No
Number of Sampled Component Spectra: 1
Spectrometers: USB2+H05261
Integration Time (usec): 100000 (USB2+H05261)
Spectra Averaged: 1 (USB2+H05261)
Boxcar Smoothing: 0 (USB2+H05261)
Correct for Electrical Dark: No (USB2+H05261)
Strobe/Lamp Enabled: No (USB2+H05261)
Correct for Detector Non-linearity: No (USB2+H05261)
Correct for Stray Light: No (USB2+H05261)
Number of Pixels in Processed Spectrum: 2048
>>>>>Begin Processed Spectral Data<<<<<
365.73	358.10
365.92	358.10
366.12	358.10
366.32	365.12
366.52	236.39
366.72	259.80
366.91	238.73
367.11	259.80
367.31	203.63
367.51	222.35
367.70	184.90
367.90	264.48
368.10	243.42
368.30	262.14
368.49	210.65
368.69	259.80
368.89	292.57
369.09	262.14
369.28	257.46
369.48	262.14
369.68	229.37
369.87	297.25
370.07	407.25
370.27	304.27
370.47	308.95
370.66	325.33
370.86	330.02
371.06	280.86
371.25	400.23
371.45	383.85
371.65	402.57
371.84	374.49
372.04	388.53
372.24	402.57
372.44	430.66
372.63	390.87
372.83	414.27
373.03	360.44
373.22	372.15
373.42	381.51
373.62	437.68
373.81	430.66
374.01	388.53
374.21	449.38
374.40	425.98
374.60	402.57
374.79	437.68
374.99	360.44
375.19	393.21
375.38	423.64
375.58	435.34
375.78	484.49
375.97	489.17
376.17	444.70
376.37	428.32
376.56	423.64
376.76	407.25
376.95	458.74
377.15	404.91
377.35	423.64
377.54	444.70
377.74	442.36
377.93	425.98
378.13	372.15
378.33	374.49
378.52	442.36
378.72	409.59
378.91	351.08
379.11	351.08
379.31	379.17
379.50	428.32
379.70	390.87
379.89	451.72
380.09	444.70
380.28	425.98
380.48	388.53
380.68	301.93
380.87	423.64
381.07	337.04
381.26	374.49
381.46	451.72
381.65	418.96
381.85	440.02
382.04	414.27
382.24	369.80
382.43	390.87
382.63	447.04
382.83	339.38
383.02	416.62
383.22	447.04
383.41	374.49
383.61	433.00
383.80	418.96
384.00	411.93
384.19	388.53
384.39	390.87
384.58	358.10
384.78	437.68
384.97	409.59
385.17	402.57
385.36	367.46
385.56	475.13
385.75	430.66
385.95	447.04
386.14	442.36
386.34	383.85
386.53	430.66
386.72	409.59
386.92	465.77
387.11	414.27
387.31	440.02
387.50	409.59
387.70	381.51
387.89	416.62
388.09	369.80
388.28	456.40
388.48	437.68
388.67	360.44
388.86	404.91
389.06	416.62
389.25	423.64
389.45	393.21
389.64	423.64
389.84	470.45
390.03	470.45
390.22	470.45
390.42	372.15
390.61	418.96
390.81	376.83
391.00	414.27
391.19	433.00
391.39	381.51
391.58	383.85
391.78	365.12
391.97	414.27
392.16	383.85
392.36	454.06
392.55	454.06
392.75	379.17
392.94	386.19
393.13	463.43
393.33	332.36
393.52	369.80
393.71	458.74
393.91	437.68
394.10	402.57
394.29	449.38
394.49	400.23
394.68	456.40
394.88	402.57
395.07	379.17
395.26	388.53
395.46	458.74
395.65	465.77
395.84	440.02
396.04	456.40
396.23	397.89
396.42	440.02
396.62	397.89
396.81	498.53
397.00	367.46
397.19	397.89
397.39	369.80
397.58	496.19
397.77	451.72
397.97	393.21
398.16	362.78
398.35	386.19
398.55	360.44
398.74	386.19
398.93	365.12
399.12	388.53
399.32	472.79
399.51	437.68
399.70	442.36
399.90	379.17
400.09	383.85
400.28	500.87
400.47	360.44
400.67	503.22
400.86	465.77
401.05	461.09
401.24	425.98
401.44	416.62
401.63	388.53
401.82	395.55
402.01	404.91
402.21	355.76
402.40	400.23
402.59	428.32
402.78	428.32
402.97	416.62
403.17	397.89
403.36	404.91
403.55	404.91
403.74	374.49
403.93	486.83
404.13	346.40
404.32	421.30
404.51	358.10
404.70	404.91
404.89	475.13
405.09	461.09
405.28	346.40
405.47	395.55
405.66	407.25
405.85	472.79
406.05	454.06
406.24	407.25
406.43	433.00
406.62	449.38
406.81	454.06
407.00	414.27
407.20	414.27
407.39	374.49
407.58	376.83
407.77	379.17
407.96	425.98
408.15	374.49
408.34	348.74
408.54	383.85
408.73	407.25
408.92	358.10
409.11	395.55
409.30	418.96
409.49	400.23
409.68	500.87
409.87	411.93
410.07	386.19
410.26	418.96
410.45	344.06
410.64	418.96
410.83	477.47
411.02	416.62
411.21	470.45
411.40	353.42
411.59	430.66
411.78	390.87
411.98	423.64
412.17	407.25
412.36	425.98
412.55	425.98
412.74	430.66
412.93	433.00
413.12	475.13
413.31	411.93
413.50	362.78
413.69	346.40
413.88	435.34
414.07	400.23
414.26	376.83
414.45	425.98
414.64	358.10
414.83	489.17
415.02	440.02
415.22	437.68
415.41	433.00
415.60	386.19
415.79	421.30
415.98	404.91
416.17	367.46
416.36	395.55
416.55	330.02
416.74	404.91
416.93	322.99
417.12	339.38
417.31	428.32
417.50	376.83
417.69	423.64
417.88	393.21
418.07	482.15
418.26	404.91
418.45	472.79
418.64	397.89
418.83	402.57
419.02	383.85
419.21	409.59
419.39	358.10
419.58	369.80
419.77	421.30
419.96	447.04
420.15	442.36
420.34	404.91
420.53	454.06
420.72	435.34
420.91	428.32
421.10	409.59
421.29	475.13
421.48	458.74
421.67	430.66
421.86	423.64
422.05	367.46
422.24	421.30
422.43	411.93
422.61	472.79
422.80	421.30
422.99	393.21
423.18	442.36
423.37	407.25
423.56	386.19
423.75	381.51
423.94	365.12
424.13	454.06
424.32	423.64
424.50	435.34
424.69	435.34
424.88	383.85
425.07	315.97
425.26	379.17
425.45	421.30
425.64	430.66
425.83	411.93
426.01	425.98
426.20	416.62
426.39	463.43
426.58	400.23
426.77	423.64
426.96	456.40
427.15	451.72
427.33	421.30
427.52	463.43
427.71	465.77
427.90	447.04
428.09	423.64
428.28	442.36
428.46	407.25
428.65	463.43
428.84	409.59
429.03	383.85
429.22	407.25
429.40	374.49
429.59	393.21
429.78	355.76
429.97	447.04
430.16	369.80
430.34	407.25
430.53	362.78
430.72	433.00
430.91	425.98
431.10	381.51
431.28	475.13
431.47	430.66
431.66	416.62
431.85	421.30
432.03	411.93
432.22	409.59
432.41	376.83
432.60	470.45
432.79	416.62
432.97	414.27
433.16	486.83
433.35	367.46
433.54	386.19
433.72	411.93
433.91	430.66
434.10	386.19
434.28	341.72
434.47	327.68
434.66	404.91
434.85	367.46
435.03	472.79
435.22	454.06
435.41	449.38
435.59	414.27
435.78	414.27
435.97	430.66
436.16	421.30
436.34	400.23
436.53	407.25
436.72	423.64
436.90	470.45
437.09	416.62
437.28	404.91
437.46	416.62
437.65	423.64
437.84	486.83
438.02	425.98
438.21	442.36
438.40	395.55
438.58	407.25
438.77	449.38
438.96	404.91
439.14	475.13
439.33	411.93
439.52	503.22
439.70	444.70
439.89	421.30
440.08	414.27
440.26	386.19
440.45	379.17
440.63	449.38
440.82	404.91
441.01	489.17
441.19	433.00
441.38	442.36
441.57	404.91
441.75	435.34
441.94	388.53
442.12	418.96
442.31	470.45
442.50	428.32
442.68	372.15
442.87	411.93
443.05	414.27
443.24	416.62
443.43	444.70
443.61	484.49
443.80	545.34
443.98	433.00
444.17	393.21
444.35	365.12
444.54	411.93
444.73	372.15
444.91	388.53
445.10	430.66
445.28	348.74
445.47	397.89
445.65	440.02
445.84	397.89
446.02	442.36
446.21	393.21
446.39	451.72
446.58	402.57
446.77	451.72
446.95	461.09
447.14	451.72
447.32	472.79
447.51	435.34
447.69	465.77
447.88	386.19
448.06	498.53
448.25	430.66
448.43	402.57
448.62	376.83
448.80	381.51
448.99	472.79
449.17	437.68
449.36	383.85
449.54	404.91
449.73	400.23
449.91	500.87
450.10	416.62
450.28	456.40
450.46	465.77
450.65	461.09
450.83	407.25
451.02	402.57
451.20	339.38
451.39	386.19
451.57	369.80
451.76	414.27
451.94	447.04
452.13	463.43
452.31	390.87
452.49	461.09
452.68	435.34
452.86	362.78
453.05	463.43
453.23	449.38
453.42	367.46
453.60	348.74
453.78	388.53
453.97	411.93
454.15	397.89
454.34	414.27
454.52	318.31
454.70	421.30
454.89	386.19
455.07	428.32
455.26	456.40
455.44	463.43
455.62	395.55
455.81	428.32
455.99	402.57
456.17	355.76
456.36	337.04
456.54	416.62
456.73	409.59
456.91	351.08
457.09	433.00
457.28	416.62
457.46	421.30
457.64	451.72
457.83	367.46
458.01	362.78
458.19	404.91
458.38	325.33
458.56	386.19
458.74	355.76
458.93	388.53
459.11	418.96
459.29	355.76
459.48	355.76
459.66	472.79
459.84	393.21
460.03	540.66
460.21	386.19
460.39	409.59
460.57	444.70
460.76	332.36
460.94	397.89
461.12	437.68
461.31	421.30
461.49	341.72
461.67	395.55
461.85	418.96
462.04	463.43
462.22	807.48
462.40	514.92
462.59	440.02
462.77	334.70
462.95	397.89
463.13	430.66
463.32	411.93
463.50	400.23
463.68	444.70
463.86	348.74
464.05	383.85
464.23	390.87
464.41	430.66
464.59	414.27
464.78	381.51
464.96	334.70
465.14	461.09
465.32	404.91
465.50	395.55
465.69	411.93
465.87	381.51
466.05	372.15
466.23	440.02
466.41	369.80
466.60	479.81
466.78	458.74
466.96	433.00
467.14	369.80
467.32	388.53
467.51	423.64
467.69	428.32
467.87	447.04
468.05	435.34
468.23	393.21
468.41	435.34
468.60	454.06
468.78	407.25
468.96	433.00
469.14	414.27
469.32	423.64
469.50	423.64
469.69	465.77
469.87	390.87
470.05	489.17
470.23	475.13
470.41	449.38
470.59	386.19
470.77	416.62
470.95	418.96
471.14	482.15
471.32	423.64
471.50	421.30
471.68	402.57
471.86	449.38
472.04	458.74
472.22	418.96
472.40	365.12
472.58	381.51
472.77	372.15
472.95	435.34
473.13	433.00
473.31	470.45
473.49	423.64
473.67	351.08
473.85	411.93
474.03	393.21
474.21	425.98
474.39	472.79
474.57	454.06
474.75	418.96
474.93	348.74
475.12	386.19
475.30	435.34
475.48	416.62
475.66	418.96
475.84	433.00
476.02	444.70
476.20	430.66
476.38	318.31
476.56	437.68
476.74	437.68
476.92	362.78
477.10	362.78
477.28	409.59
477.46	358.10
477.64	367.46
477.82	334.70
478.00	449.38
478.18	372.15
478.36	430.66
478.54	379.17
478.72	395.55
478.90	393.21
479.08	442.36
479.26	386.19
479.44	409.59
479.62	435.34
479.80	440.02
479.98	383.85
480.16	397.89
480.34	421.30
480.52	416.62
480.70	379.17
480.88	404.91
481.06	315.97
481.24	404.91
481.41	411.93
481.59	447.04
481.77	418.96
481.95	435.34
482.13	475.13
482.31	456.40
482.49	397.89
482.67	475.13
482.85	465.77
483.03	381.51
483.21	428.32
483.39	430.66
483.57	414.27
483.74	456.40
483.92	428.32
484.10	341.72
484.28	348.74
484.46	507.90
484.64	416.62
484.82	386.19
485.00	376.83
485.18	414.27
485.35	362.78
485.53	337.04
485.71	444.70
485.89	404.91
486.07	390.87
486.25	496.19
486.43	386.19
486.61	428.32
486.78	390.87
486.96	365.12
487.14	355.76
487.32	461.09
487.50	388.53
487.68	409.59
487.85	440.02
488.03	388.53
488.21	437.68
488.39	397.89
488.57	454.06
488.75	407.25
488.92	402.57
489.10	425.98
489.28	463.43
489.46	388.53
489.64	437.68
489.81	397.89
489.99	423.64
490.17	365.12
490.35	468.11
490.53	416.62
490.70	369.80
490.88	397.89
491.06	383.85
491.24	365.12
491.41	425.98
491.59	437.68
491.77	465.77
491.95	355.76
492.13	365.12
492.30	332.36
492.48	390.87
492.66	437.68
492.84	402.57
493.01	430.66
493.19	386.19
493.37	416.62
493.54	409.59
493.72	421.30
493.90	400.23
494.08	388.53
494.25	404.91
494.43	414.27
494.61	395.55
494.79	416.62
494.96	390.87
495.14	400.23
495.32	435.34
495.49	325.33
495.67	451.72
495.85	430.66
496.02	390.87
496.20	351.08
496.38	477.47
496.55	435.34
496.73	400.23
496.91	440.02
497.09	416.62
497.26	397.89
497.44	381.51
497.62	393.21
497.79	411.93
497.97	346.40
498.14	433.00
498.32	414.27
498.50	393.21
498.67	409.59
498.85	440.02
499.03	411.93
499.20	395.55
499.38	510.24
499.56	458.74
499.73	489.17
499.91	444.70
500.08	444.70
500.26	458.74
500.44	440.02
500.61	395.55
500.79	365.12
500.97	407.25
501.14	404.91
501.32	425.98
501.49	433.00
501.67	402.57
501.84	360.44
502.02	348.74
502.20	482.15
502.37	407.25
502.55	461.09
502.72	486.83
502.90	383.85
503.07	479.81
503.25	379.17
503.43	365.12
503.60	409.59
503.78	404.91
503.95	444.70
504.13	461.09
504.30	425.98
504.48	482.15
504.65	437.68
504.83	360.44
505.01	411.93
505.18	428.32
505.36	430.66
505.53	388.53
505.71	486.83
505.88	447.04
506.06	428.32
506.23	344.06
506.41	484.49
506.58	360.44
506.76	388.53
506.93	353.42
507.11	390.87
507.28	440.02
507.46	372.15
507.63	402.57
507.81	440.02
507.98	346.40
508.16	465.77
508.33	376.83
508.50	423.64
508.68	376.83
508.85	411.93
509.03	414.27
509.20	451.72
509.38	404.91
509.55	414.27
509.73	482.15
509.90	397.89
510.08	332.36
510.25	437.68
510.42	444.70
510.60	425.98
510.77	428.32
510.95	482.15
511.12	337.04
511.30	472.79
511.47	489.17
511.64	423.64
511.82	322.99
511.99	404.91
512.17	444.70
512.34	409.59
512.51	411.93
512.69	486.83
512.86	507.90
513.04	388.53
513.21	381.51
513.38	374.49
513.56	416.62
513.73	407.25
513.90	388.53
514.08	447.04
514.25	465.77
514.43	461.09
514.60	425.98
514.77	409.59
514.95	505.56
515.12	414.27
515.29	430.66
515.47	339.38
515.64	421.30
515.81	442.36
515.99	496.19
516.16	423.64
516.33	449.38
516.51	376.83
516.68	344.06
516.85	376.83
517.03	468.11
517.20	437.68
517.37	421.30
517.54	400.23
517.72	376.83
517.89	327.68
518.06	393.21
518.24	477.47
518.41	489.17
518.58	454.06
518.75	486.83
518.93	365.12
519.10	430.66
519.27	411.93
519.45	423.64
519.62	472.79
519.79	447.04
519.96	402.57
520.14	425.98
520.31	395.55
520.48	397.89
520.65	411.93
520.83	421.30
521.00	470.45
521.17	433.00
521.34	390.87
521.52	475.13
521.69	425.98
521.86	433.00
522.03	447.04
522.20	381.51
522.38	414.27
522.55	449.38
522.72	320.65
522.89	400.23
523.07	423.64
523.24	397.89
523.41	383.85
523.58	421.30
523.75	348.74
523.92	447.04
524.10	456.40
524.27	409.59
524.44	393.21
524.61	395.55
524.78	402.57
524.96	449.38
525.13	437.68
525.30	411.93
525.47	428.32
525.64	435.34
525.81	339.38
525.98	430.66
526.16	390.87
526.33	383.85
526.50	461.09
526.67	421.30
526.84	411.93
527.01	360.44
527.18	428.32
527.36	369.80
527.53	367.46
527.70	425.98
527.87	411.93
528.04	440.02
528.21	353.42
528.38	358.10
528.55	395.55
528.72	404.91
528.89	393.21
529.07	362.78
529.24	425.98
529.41	433.00
529.58	465.77
529.75	362.78
529.92	433.00
530.09	470.45
530.26	440.02
530.43	442.36
530.60	423.64
530.77	414.27
530.94	390.87
531.11	409.59
531.28	393.21
531.46	437.68
531.63	402.57
531.80	451.72
531.97	440.02
532.14	402.57
532.31	402.57
532.48	428.32
532.65	411.93
532.82	454.06
532.99	395.55
533.16	344.06
533.33	388.53
533.50	416.62
533.67	442.36
533.84	444.70
534.01	451.72
534.18	409.59
534.35	484.49
534.52	440.02
534.69	451.72
534.86	421.30
535.03	440.02
535.20	407.25
535.37	540.66
535.54	400.23
535.71	463.43
535.88	470.45
536.05	423.64
536.22	428.32
536.38	395.55
536.55	418.96
536.72	468.11
536.89	414.27
537.06	430.66
537.23	435.34
537.40	507.90
537.57	440.02
537.74	444.70
537.91	409.59
538.08	393.21
538.25	435.34
538.42	411.93
538.59	486.83
538.75	472.79
538.92	421.30
539.09	393.21
539.26	386.19
539.43	437.68
539.60	395.55
539.77	425.98
539.94	409.59
540.11	437.68
540.28	458.74
540.44	372.15
540.61	393.21
540.78	526.62
540.95	372.15
541.12	393.21
541.29	409.59
541.46	411.93
541.62	449.38
541.79	416.62
541.96	360.44
542.13	358.10
542.30	435.34
542.47	456.40
542.63	400.23
542.80	461.09
542.97	435.34
543.14	388.53
543.31	435.34
543.48	372.15
543.64	435.34
543.81	369.80
543.98	444.70
544.15	423.64
544.32	423.64
544.48	390.87
544.65	458.74
544.82	430.66
544.99	400.23
545.16	477.47
545.32	400.23
545.49	477.47
545.66	423.64
545.83	440.02
546.00	423.64
546.16	418.96
546.33	367.46
546.50	428.32
546.67	440.02
546.83	372.15
547.00	447.04
547.17	482.15
547.34	425.98
547.50	397.89
547.67	409.59
547.84	383.85
548.00	393.21
548.17	407.25
548.34	334.70
548.51	379.17
548.67	442.36
548.84	400.23
549.01	461.09
549.18	435.34
549.34	411.93
549.51	421.30
549.68	402.57
549.84	421.30
550.01	315.97
550.18	477.47
550.34	468.11
550.51	447.04
550.68	456.40
550.84	388.53
551.01	465.77
551.18	442.36
551.34	477.47
551.51	440.02
551.68	423.64
551.84	454.06
552.01	383.85
552.18	400.23
552.34	454.06
552.51	381.51
552.68	463.43
552.84	451.72
553.01	498.53
553.18	458.74
553.34	421.30
553.51	395.55
553.67	435.34
553.84	374.49
554.01	400.23
554.17	418.96
554.34	458.74
554.51	390.87
554.67	463.43
554.84	390.87
555.00	428.32
555.17	456.40
555.33	393.21
555.50	458.74
555.67	479.81
555.83	395.55
556.00	397.89
556.16	575.77
556.33	477.47
556.50	369.80
556.66	418.96
556.83	400.23
556.99	379.17
557.16	489.17
557.32	442.36
557.49	421.30
557.65	393.21
557.82	400.23
557.98	362.78
558.15	416.62
558.32	482.15
558.48	407.25
558.65	411.93
558.81	425.98
558.98	435.34
559.14	402.57
559.31	454.06
559.47	395.55
559.64	458.74
559.80	425.98
559.97	397.89
560.13	360.44
560.30	423.64
560.46	372.15
560.63	411.93
560.79	353.42
560.96	379.17
561.12	407.25
561.29	486.83
561.45	430.66
561.61	407.25
561.78	447.04
561.94	416.62
562.11	440.02
562.27	395.55
562.44	390.87
562.60	402.57
562.77	409.59
562.93	493.85
563.10	454.06
563.26	374.49
563.42	468.11
563.59	449.38
563.75	444.70
563.92	500.87
564.08	409.59
564.24	425.98
564.41	444.70
564.57	395.55
564.74	344.06
564.90	421.30
565.07	433.00
565.23	374.49
565.39	425.98
565.56	397.89
565.72	383.85
565.88	353.42
566.05	430.66
566.21	397.89
566.38	425.98
566.54	442.36
566.70	423.64
566.87	365.12
567.03	344.06
567.19	404.91
567.36	421.30
567.52	411.93
567.68	430.66
567.85	355.76
568.01	404.91
568.17	421.30
568.34	435.34
568.50	400.23
568.66	418.96
568.83	465.77
568.99	421.30
569.15	372.15
569.32	404.91
569.48	386.19
569.64	456.40
569.81	390.87
569.97	407.25
570.13	418.96
570.30	400.23
570.46	416.62
570.62	381.51
570.78	409.59
570.95	414.27
571.11	440.02
571.27	397.89
571.43	421.30
571.60	388.53
571.76	341.72
571.92	447.04
572.09	388.53
572.25	388.53
572.41	386.19
572.57	421.30
572.74	386.19
572.90	414.27
573.06	440.02
573.22	397.89
573.38	444.70
573.55	449.38
573.71	451.72
573.87	388.53
574.03	461.09
574.20	372.15
574.36	425.98
574.52	449.38
574.68	440.02
574.84	458.74
575.01	400.23
575.17	409.59
575.33	416.62
575.49	393.21
575.65	395.55
575.82	411.93
575.98	435.34
576.14	418.96
576.30	454.06
576.46	421.30
576.62	351.08
576.79	404.91
576.95	428.32
577.11	428.32
577.27	365.12
577.43	421.30
577.59	510.24
577.75	449.38
577.92	374.49
578.08	482.15
578.24	418.96
578.40	402.57
578.56	440.02
578.72	458.74
578.88	428.32
579.04	402.57
579.21	454.06
579.37	353.42
579.53	351.08
579.69	407.25
579.85	365.12
580.01	451.72
580.17	388.53
580.33	411.93
580.49	444.70
580.65	416.62
580.82	425.98
580.98	444.70
581.14	447.04
581.30	454.06
581.46	477.47
581.62	463.43
581.78	395.55
581.94	470.45
582.10	433.00
582.26	463.43
582.42	442.36
582.58	355.76
582.74	421.30
582.90	440.02
583.06	423.64
583.22	372.15
583.38	461.09
583.54	374.49
583.70	404.91
583.86	339.38
584.02	383.85
584.18	444.70
584.34	449.38
584.50	423.64
584.66	390.87
584.82	411.93
584.98	402.57
585.14	393.21
585.30	461.09
585.46	379.17
585.62	360.44
585.78	411.93
585.94	379.17
586.10	390.87
586.26	362.78
586.42	386.19
586.58	397.89
586.74	395.55
586.90	428.32
587.06	400.23
587.22	409.59
587.38	407.25
587.54	456.40
587.70	421.30
587.86	449.38
588.02	386.19
588.18	472.79
588.34	458.74
588.49	458.74
588.65	416.62
588.81	407.25
588.97	369.80
589.13	407.25
589.29	318.31
589.45	517.26
589.61	458.74
589.77	440.02
589.93	444.70
590.08	425.98
590.24	411.93
590.40	456.40
590.56	449.38
590.72	383.85
590.88	390.87
591.04	451.72
591.20	430.66
591.35	442.36
591.51	404.91
591.67	416.62
591.83	393.21
591.99	416.62
592.15	379.17
592.31	379.17
592.46	386.19
592.62	447.04
592.78	376.83
592.94	400.23
593.10	400.23
593.26	383.85
593.41	463.43
593.57	395.55
593.73	386.19
593.89	395.55
594.05	425.98
594.20	430.66
594.36	376.83
594.52	414.27
594.68	449.38
594.84	444.70
594.99	414.27
595.15	428.32
595.31	433.00
595.47	440.02
595.62	447.04
595.78	414.27
595.94	463.43
596.10	404.91
596.25	411.93
596.41	456.40
596.57	435.34
596.73	386.19
596.88	404.91
597.04	456.40
597.20	400.23
597.36	430.66
597.51	404.91
597.67	423.64
597.83	407.25
597.99	404.91
598.14	355.76
598.30	465.77
598.46	428.32
598.61	472.79
598.77	425.98
598.93	304.27
599.09	423.64
599.24	355.76
599.40	390.87
599.56	372.15
599.71	430.66
599.87	376.83
600.03	447.04
600.18	447.04
600.34	411.93
600.50	435.34
600.65	458.74
600.81	416.62
600.97	454.06
601.12	409.59
601.28	404.91
601.44	440.02
601.59	449.38
601.75	404.91
601.91	341.72
602.06	390.87
602.22	486.83
602.37	400.23
602.53	304.27
602.69	308.95
602.84	418.96
603.00	449.38
603.16	379.17
603.31	358.10
603.47	447.04
603.62	444.70
603.78	369.80
603.94	409.59
604.09	468.11
604.25	411.93
604.40	416.62
604.56	397.89
604.71	381.51
604.87	423.64
605.03	402.57
605.18	498.53
605.34	430.66
605.49	386.19
605.65	367.46
605.80	383.85
605.96	355.76
606.12	379.17
606.27	425.98
606.43	454.06
606.58	533.64
606.74	435.34
606.89	381.51
607.05	348.74
607.20	407.25
607.36	428.32
607.51	386.19
607.67	461.09
607.82	440.02
607.98	451.72
608.13	365.12
608.29	358.10
608.44	449.38
608.60	421.30
608.75	468.11
608.91	463.43
609.06	463.43
609.22	430.66
609.37	418.96
609.53	421.30
609.68	383.85
609.84	421.30
609.99	388.53
610.15	388.53
