SpectraSuite Data File
++++++++++++++++++++++++++++++++++++
Date: Fri Oct 25 12:11:29 EDT 2013
User: price-jones
Dark Spectrum Present: No
Reference Spectrum Present: No
Number of Sampled Component Spectra: 1
Spectrometers: USB2+H05261
Integration Time (usec): 100000 (USB2+H05261)
Spectra Averaged: 1 (USB2+H05261)
Boxcar Smoothing: 0 (USB2+H05261)
Correct for Electrical Dark: No (USB2+H05261)
Strobe/Lamp Enabled: No (USB2+H05261)
Correct for Detector Non-linearity: No (USB2+H05261)
Correct for Stray Light: No (USB2+H05261)
Number of Pixels in Processed Spectrum: 2048
>>>>>Begin Processed Spectral Data<<<<<
365.73	386.19
365.92	386.19
366.12	386.19
366.32	301.93
366.52	294.91
366.72	262.14
366.91	238.73
367.11	231.71
367.31	259.80
367.51	198.95
367.70	224.69
367.90	266.82
368.10	238.73
368.30	224.69
368.49	229.37
368.69	238.73
368.89	299.59
369.09	229.37
369.28	283.20
369.48	322.99
369.68	217.67
369.87	304.27
370.07	245.76
370.27	327.68
370.47	411.93
370.66	369.80
370.86	435.34
371.06	381.51
371.25	393.21
371.45	341.72
371.65	418.96
371.84	337.04
372.04	353.42
372.24	418.96
372.44	395.55
372.63	451.72
372.83	407.25
373.03	402.57
373.22	379.17
373.42	369.80
373.62	468.11
373.81	379.17
374.01	472.79
374.21	507.90
374.40	458.74
374.60	475.13
374.79	444.70
374.99	496.19
375.19	388.53
375.38	470.45
375.58	367.46
375.78	416.62
375.97	437.68
376.17	468.11
376.37	379.17
376.56	402.57
376.76	414.27
376.95	386.19
377.15	425.98
377.35	433.00
377.54	346.40
377.74	397.89
377.93	456.40
378.13	397.89
378.33	416.62
378.52	395.55
378.72	447.04
378.91	418.96
379.11	435.34
379.31	393.21
379.50	379.17
379.70	395.55
379.89	360.44
380.09	407.25
380.28	322.99
380.48	433.00
380.68	390.87
380.87	447.04
381.07	498.53
381.26	395.55
381.46	395.55
381.65	451.72
381.85	409.59
382.04	386.19
382.24	437.68
382.43	315.97
382.63	400.23
382.83	369.80
383.02	463.43
383.22	362.78
383.41	353.42
383.61	397.89
383.80	489.17
384.00	454.06
384.19	404.91
384.39	369.80
384.58	351.08
384.78	388.53
384.97	337.04
385.17	400.23
385.36	414.27
385.56	409.59
385.75	358.10
385.95	421.30
386.14	430.66
386.34	407.25
386.53	407.25
386.72	372.15
386.92	341.72
387.11	458.74
387.31	376.83
387.50	341.72
387.70	376.83
387.89	337.04
388.09	376.83
388.28	397.89
388.48	475.13
388.67	418.96
388.86	367.46
389.06	390.87
389.25	433.00
389.45	395.55
389.64	386.19
389.84	416.62
390.03	416.62
390.22	369.80
390.42	397.89
390.61	365.12
390.81	411.93
391.00	421.30
391.19	416.62
391.39	433.00
391.58	472.79
391.78	447.04
391.97	423.64
392.16	400.23
392.36	423.64
392.55	418.96
392.75	395.55
392.94	372.15
393.13	451.72
393.33	341.72
393.52	393.21
393.71	444.70
393.91	355.76
394.10	372.15
394.29	367.46
394.49	463.43
394.68	435.34
394.88	409.59
395.07	367.46
395.26	442.36
395.46	416.62
395.65	437.68
395.84	393.21
396.04	418.96
396.23	486.83
396.42	386.19
396.62	456.40
396.81	433.00
397.00	397.89
397.19	411.93
397.39	325.33
397.58	461.09
397.77	367.46
397.97	425.98
398.16	372.15
398.35	372.15
398.55	493.85
398.74	440.02
398.93	402.57
399.12	402.57
399.32	355.76
399.51	433.00
399.70	381.51
399.90	355.76
400.09	346.40
400.28	428.32
400.47	421.30
400.67	433.00
400.86	421.30
401.05	447.04
401.24	428.32
401.44	437.68
401.63	477.47
401.82	376.83
402.01	388.53
402.21	374.49
402.40	414.27
402.59	388.53
402.78	402.57
402.97	402.57
403.17	416.62
403.36	418.96
403.55	381.51
403.74	421.30
403.93	386.19
404.13	468.11
404.32	365.12
404.51	451.72
404.70	411.93
404.89	414.27
405.09	437.68
405.28	409.59
405.47	482.15
405.66	461.09
405.85	365.12
406.05	372.15
406.24	365.12
406.43	416.62
406.62	433.00
406.81	447.04
407.00	433.00
407.20	353.42
407.39	418.96
407.58	451.72
407.77	400.23
407.96	416.62
408.15	437.68
408.34	470.45
408.54	402.57
408.73	409.59
408.92	449.38
409.11	393.21
409.30	402.57
409.49	433.00
409.68	440.02
409.87	416.62
410.07	477.47
410.26	395.55
410.45	423.64
410.64	379.17
410.83	414.27
411.02	397.89
411.21	451.72
411.40	383.85
411.59	458.74
411.78	400.23
411.98	416.62
412.17	393.21
412.36	367.46
412.55	435.34
412.74	425.98
412.93	454.06
413.12	461.09
413.31	475.13
413.50	444.70
413.69	374.49
413.88	433.00
414.07	437.68
414.26	428.32
414.45	416.62
414.64	484.49
414.83	397.89
415.02	425.98
415.22	461.09
415.41	505.56
415.60	461.09
415.79	374.49
415.98	433.00
416.17	374.49
416.36	404.91
416.55	311.29
416.74	449.38
416.93	444.70
417.12	428.32
417.31	372.15
417.50	435.34
417.69	454.06
417.88	440.02
418.07	395.55
418.26	395.55
418.45	393.21
418.64	390.87
418.83	430.66
419.02	404.91
419.21	407.25
419.39	393.21
419.58	379.17
419.77	428.32
419.96	381.51
420.15	430.66
420.34	430.66
420.53	454.06
420.72	430.66
420.91	400.23
421.10	358.10
421.29	461.09
421.48	397.89
421.67	383.85
421.86	390.87
422.05	416.62
422.24	416.62
422.43	411.93
422.61	395.55
422.80	435.34
422.99	369.80
423.18	383.85
423.37	416.62
423.56	397.89
423.75	397.89
423.94	390.87
424.13	397.89
424.32	428.32
424.50	461.09
424.69	423.64
424.88	496.19
425.07	456.40
425.26	322.99
425.45	458.74
425.64	409.59
425.83	421.30
426.01	404.91
426.20	383.85
426.39	418.96
426.58	374.49
426.77	411.93
426.96	367.46
427.15	320.65
427.33	416.62
427.52	510.24
427.71	442.36
427.90	353.42
428.09	409.59
428.28	402.57
428.46	388.53
428.65	386.19
428.84	383.85
429.03	404.91
429.22	444.70
429.40	390.87
429.59	414.27
429.78	442.36
429.97	454.06
430.16	369.80
430.34	411.93
430.53	454.06
430.72	489.17
430.91	353.42
431.10	402.57
431.28	428.32
431.47	388.53
431.66	404.91
431.85	390.87
432.03	442.36
432.22	411.93
432.41	344.06
432.60	414.27
432.79	397.89
432.97	339.38
433.16	365.12
433.35	362.78
433.54	395.55
433.72	447.04
433.91	395.55
434.10	374.49
434.28	367.46
434.47	402.57
434.66	355.76
434.85	381.51
435.03	320.65
435.22	416.62
435.41	458.74
435.59	437.68
435.78	425.98
435.97	407.25
436.16	496.19
436.34	388.53
436.53	425.98
436.72	381.51
436.90	381.51
437.09	451.72
437.28	393.21
437.46	386.19
437.65	489.17
437.84	404.91
438.02	484.49
438.21	447.04
438.40	395.55
438.58	409.59
438.77	409.59
438.96	491.51
439.14	425.98
439.33	393.21
439.52	315.97
439.70	409.59
439.89	421.30
440.08	479.81
440.26	400.23
440.45	425.98
440.63	491.51
440.82	383.85
441.01	383.85
441.19	430.66
441.38	388.53
441.57	524.28
441.75	430.66
441.94	442.36
442.12	472.79
442.31	428.32
442.50	409.59
442.68	400.23
442.87	435.34
443.05	414.27
443.24	414.27
443.43	454.06
443.61	407.25
443.80	416.62
443.98	416.62
444.17	400.23
444.35	433.00
444.54	400.23
444.73	409.59
444.91	435.34
445.10	407.25
445.28	463.43
445.47	449.38
445.65	383.85
445.84	367.46
446.02	330.02
446.21	372.15
446.39	461.09
446.58	472.79
446.77	353.42
446.95	414.27
447.14	465.77
447.32	411.93
447.51	353.42
447.69	404.91
447.88	390.87
448.06	430.66
448.25	339.38
448.43	353.42
448.62	411.93
448.80	379.17
448.99	442.36
449.17	407.25
449.36	400.23
449.54	433.00
449.73	430.66
449.91	489.17
450.10	372.15
450.28	496.19
450.46	500.87
450.65	418.96
450.83	468.11
451.02	404.91
451.20	444.70
451.39	409.59
451.57	402.57
451.76	400.23
451.94	404.91
452.13	374.49
452.31	456.40
452.49	444.70
452.68	407.25
452.86	454.06
453.05	468.11
453.23	421.30
453.42	395.55
453.60	425.98
453.78	407.25
453.97	465.77
454.15	358.10
454.34	388.53
454.52	430.66
454.70	376.83
454.89	461.09
455.07	386.19
455.26	463.43
455.44	372.15
455.62	353.42
455.81	414.27
455.99	411.93
456.17	411.93
456.36	484.49
456.54	414.27
456.73	472.79
456.91	418.96
457.09	484.49
457.28	435.34
457.46	411.93
457.64	489.17
457.83	360.44
458.01	372.15
458.19	418.96
458.38	461.09
458.56	402.57
458.74	390.87
458.93	421.30
459.11	430.66
459.29	386.19
459.48	397.89
459.66	376.83
459.84	447.04
460.03	519.60
460.21	409.59
460.39	374.49
460.57	414.27
460.76	416.62
460.94	388.53
461.12	430.66
461.31	493.85
461.49	433.00
461.67	456.40
461.85	454.06
462.04	433.00
462.22	828.55
462.40	418.96
462.59	477.47
462.77	409.59
462.95	379.17
463.13	390.87
463.32	444.70
463.50	374.49
463.68	505.56
463.86	463.43
464.05	358.10
464.23	456.40
464.41	416.62
464.59	425.98
464.78	430.66
464.96	407.25
465.14	428.32
465.32	383.85
465.50	479.81
465.69	437.68
465.87	337.04
466.05	423.64
466.23	414.27
466.41	381.51
466.60	369.80
466.78	362.78
466.96	411.93
467.14	418.96
467.32	407.25
467.51	381.51
467.69	334.70
467.87	449.38
468.05	390.87
468.23	505.56
468.41	447.04
468.60	437.68
468.78	355.76
468.96	379.17
469.14	407.25
469.32	395.55
469.50	472.79
469.69	430.66
469.87	451.72
470.05	407.25
470.23	374.49
470.41	397.89
470.59	451.72
470.77	372.15
470.95	395.55
471.14	414.27
471.32	472.79
471.50	447.04
471.68	423.64
471.86	423.64
472.04	402.57
472.22	430.66
472.40	374.49
472.58	315.97
472.77	435.34
472.95	411.93
473.13	407.25
473.31	475.13
473.49	409.59
473.67	402.57
473.85	409.59
474.03	472.79
474.21	449.38
474.39	425.98
474.57	442.36
474.75	404.91
474.93	395.55
475.12	435.34
475.30	416.62
475.48	404.91
475.66	418.96
475.84	440.02
476.02	423.64
476.20	376.83
476.38	416.62
476.56	395.55
476.74	458.74
476.92	414.27
477.10	400.23
477.28	400.23
477.46	344.06
477.64	414.27
477.82	444.70
478.00	421.30
478.18	397.89
478.36	409.59
478.54	447.04
478.72	472.79
478.90	409.59
479.08	435.34
479.26	404.91
479.44	451.72
479.62	355.76
479.80	454.06
479.98	465.77
480.16	440.02
480.34	444.70
480.52	374.49
480.70	442.36
480.88	421.30
481.06	430.66
481.24	395.55
481.41	388.53
481.59	416.62
481.77	397.89
481.95	404.91
482.13	388.53
482.31	390.87
482.49	479.81
482.67	400.23
482.85	449.38
483.03	435.34
483.21	423.64
483.39	376.83
483.57	435.34
483.74	440.02
483.92	435.34
484.10	465.77
484.28	397.89
484.46	442.36
484.64	365.12
484.82	411.93
485.00	381.51
485.18	430.66
485.35	425.98
485.53	404.91
485.71	477.47
485.89	388.53
486.07	496.19
486.25	540.66
486.43	395.55
486.61	458.74
486.78	346.40
486.96	454.06
487.14	365.12
487.32	402.57
487.50	395.55
487.68	397.89
487.85	491.51
488.03	447.04
488.21	437.68
488.39	435.34
488.57	383.85
488.75	454.06
488.92	571.09
489.10	447.04
489.28	374.49
489.46	423.64
489.64	433.00
489.81	428.32
489.99	454.06
490.17	388.53
490.35	517.26
490.53	346.40
490.70	421.30
490.88	435.34
491.06	400.23
491.24	397.89
491.41	479.81
491.59	425.98
491.77	470.45
491.95	376.83
492.13	411.93
492.30	458.74
492.48	411.93
492.66	358.10
492.84	425.98
493.01	397.89
493.19	437.68
493.37	484.49
493.54	416.62
493.72	418.96
493.90	437.68
494.08	461.09
494.25	409.59
494.43	386.19
494.61	337.04
494.79	425.98
494.96	425.98
495.14	414.27
495.32	379.17
495.49	465.77
495.67	421.30
495.85	404.91
496.02	447.04
496.20	440.02
496.38	423.64
496.55	360.44
496.73	381.51
496.91	493.85
497.09	468.11
497.26	444.70
497.44	418.96
497.62	440.02
497.79	454.06
497.97	400.23
498.14	475.13
498.32	447.04
498.50	402.57
498.67	315.97
498.85	360.44
499.03	393.21
499.20	397.89
499.38	416.62
499.56	423.64
499.73	435.34
499.91	367.46
500.08	395.55
500.26	367.46
500.44	411.93
500.61	421.30
500.79	409.59
500.97	447.04
501.14	421.30
501.32	472.79
501.49	465.77
501.67	388.53
501.84	425.98
502.02	367.46
502.20	421.30
502.37	395.55
502.55	472.79
502.72	449.38
502.90	416.62
503.07	388.53
503.25	414.27
503.43	435.34
503.60	388.53
503.78	489.17
503.95	430.66
504.13	442.36
504.30	407.25
504.48	395.55
504.65	416.62
504.83	407.25
505.01	395.55
505.18	449.38
505.36	351.08
505.53	418.96
505.71	414.27
505.88	416.62
506.06	423.64
506.23	418.96
506.41	348.74
506.58	454.06
506.76	425.98
506.93	407.25
507.11	430.66
507.28	358.10
507.46	369.80
507.63	437.68
507.81	400.23
507.98	430.66
508.16	355.76
508.33	388.53
508.50	472.79
508.68	407.25
508.85	414.27
509.03	390.87
509.20	400.23
509.38	425.98
509.55	428.32
509.73	395.55
509.90	423.64
510.08	369.80
510.25	409.59
510.42	383.85
510.60	456.40
510.77	507.90
510.95	475.13
511.12	353.42
511.30	376.83
511.47	404.91
511.64	430.66
511.82	411.93
511.99	367.46
512.17	365.12
512.34	367.46
512.51	484.49
512.69	440.02
512.86	440.02
513.04	355.76
513.21	428.32
513.38	409.59
513.56	390.87
513.73	362.78
513.90	400.23
514.08	421.30
514.25	411.93
514.43	430.66
514.60	440.02
514.77	440.02
514.95	407.25
515.12	358.10
515.29	390.87
515.47	322.99
515.64	360.44
515.81	407.25
515.99	454.06
516.16	402.57
516.33	463.43
516.51	360.44
516.68	411.93
516.85	428.32
517.03	545.34
517.20	442.36
517.37	390.87
517.54	351.08
517.72	463.43
517.89	411.93
518.06	442.36
518.24	475.13
518.41	493.85
518.58	435.34
518.75	376.83
518.93	428.32
519.10	433.00
519.27	428.32
519.45	407.25
519.62	463.43
519.79	517.26
519.96	425.98
520.14	454.06
520.31	475.13
520.48	404.91
520.65	381.51
520.83	428.32
521.00	404.91
521.17	430.66
521.34	337.04
521.52	411.93
521.69	458.74
521.86	475.13
522.03	500.87
522.20	407.25
522.38	372.15
522.55	463.43
522.72	358.10
522.89	381.51
523.07	430.66
523.24	362.78
523.41	409.59
523.58	358.10
523.75	437.68
523.92	428.32
524.10	388.53
524.27	369.80
524.44	440.02
524.61	395.55
524.78	456.40
524.96	341.72
525.13	463.43
525.30	388.53
525.47	442.36
525.64	381.51
525.81	461.09
525.98	458.74
526.16	409.59
526.33	423.64
526.50	421.30
526.67	390.87
526.84	411.93
527.01	395.55
527.18	372.15
527.36	386.19
527.53	454.06
527.70	463.43
527.87	472.79
528.04	468.11
528.21	423.64
528.38	369.80
528.55	425.98
528.72	421.30
528.89	463.43
529.07	358.10
529.24	393.21
529.41	456.40
529.58	402.57
529.75	461.09
529.92	390.87
530.09	407.25
530.26	407.25
530.43	447.04
530.60	376.83
530.77	440.02
530.94	519.60
531.11	442.36
531.28	456.40
531.46	425.98
531.63	433.00
531.80	463.43
531.97	447.04
532.14	421.30
532.31	437.68
532.48	418.96
532.65	386.19
532.82	334.70
532.99	397.89
533.16	358.10
533.33	444.70
533.50	376.83
533.67	411.93
533.84	428.32
534.01	461.09
534.18	383.85
534.35	451.72
534.52	388.53
534.69	400.23
534.86	428.32
535.03	320.65
535.20	395.55
535.37	503.22
535.54	404.91
535.71	402.57
535.88	545.34
536.05	402.57
536.22	543.00
536.38	451.72
536.55	440.02
536.72	465.77
536.89	355.76
537.06	454.06
537.23	393.21
537.40	393.21
537.57	383.85
537.74	428.32
537.91	369.80
538.08	383.85
538.25	313.63
538.42	456.40
538.59	416.62
538.75	491.51
538.92	381.51
539.09	444.70
539.26	484.49
539.43	416.62
539.60	365.12
539.77	517.26
539.94	365.12
540.11	409.59
540.28	393.21
540.44	435.34
540.61	372.15
540.78	507.90
540.95	341.72
541.12	470.45
541.29	477.47
541.46	465.77
541.62	414.27
541.79	255.12
541.96	388.53
542.13	421.30
542.30	376.83
542.47	489.17
542.63	423.64
542.80	423.64
542.97	423.64
543.14	402.57
543.31	414.27
543.48	365.12
543.64	414.27
543.81	428.32
543.98	461.09
544.15	339.38
544.32	451.72
544.48	393.21
544.65	418.96
544.82	355.76
544.99	372.15
545.16	449.38
545.32	369.80
545.49	414.27
545.66	430.66
545.83	411.93
546.00	477.47
546.16	449.38
546.33	411.93
546.50	409.59
546.67	421.30
546.83	451.72
547.00	465.77
547.17	369.80
547.34	425.98
547.50	404.91
547.67	304.27
547.84	372.15
548.00	397.89
548.17	404.91
548.34	393.21
548.51	388.53
548.67	402.57
548.84	409.59
549.01	409.59
549.18	418.96
549.34	428.32
549.51	444.70
549.68	442.36
549.84	463.43
550.01	409.59
550.18	430.66
550.34	451.72
550.51	440.02
550.68	496.19
550.84	416.62
551.01	435.34
551.18	440.02
551.34	425.98
551.51	430.66
551.68	479.81
551.84	468.11
552.01	390.87
552.18	444.70
552.34	433.00
552.51	386.19
552.68	402.57
552.84	369.80
553.01	442.36
553.18	425.98
553.34	372.15
553.51	416.62
553.67	444.70
553.84	421.30
554.01	390.87
554.17	484.49
554.34	465.77
554.51	491.51
554.67	472.79
554.84	491.51
555.00	409.59
555.17	421.30
555.33	447.04
555.50	428.32
555.67	362.78
555.83	348.74
556.00	346.40
556.16	552.37
556.33	489.17
556.50	402.57
556.66	358.10
556.83	433.00
556.99	388.53
557.16	433.00
557.32	475.13
557.49	407.25
557.65	465.77
557.82	397.89
557.98	388.53
558.15	397.89
558.32	451.72
558.48	449.38
558.65	409.59
558.81	482.15
558.98	374.49
559.14	454.06
559.31	430.66
559.47	421.30
559.64	456.40
559.80	428.32
559.97	418.96
560.13	395.55
560.30	451.72
560.46	353.42
560.63	374.49
560.79	376.83
560.96	449.38
561.12	353.42
561.29	484.49
561.45	428.32
561.61	435.34
561.78	512.58
561.94	435.34
562.11	390.87
562.27	468.11
562.44	383.85
562.60	458.74
562.77	402.57
562.93	500.87
563.10	423.64
563.26	346.40
563.42	538.32
563.59	393.21
563.75	372.15
563.92	428.32
564.08	404.91
564.24	444.70
564.41	416.62
564.57	416.62
564.74	407.25
564.90	407.25
565.07	388.53
565.23	411.93
565.39	411.93
565.56	395.55
565.72	409.59
565.88	407.25
566.05	465.77
566.21	355.76
566.38	379.17
566.54	454.06
566.70	444.70
566.87	409.59
567.03	418.96
567.19	351.08
567.36	454.06
567.52	411.93
567.68	414.27
567.85	447.04
568.01	400.23
568.17	402.57
568.34	365.12
568.50	477.47
568.66	484.49
568.83	465.77
568.99	414.27
569.15	430.66
569.32	411.93
569.48	440.02
569.64	440.02
569.81	358.10
569.97	393.21
570.13	374.49
570.30	458.74
570.46	395.55
570.62	383.85
570.78	395.55
570.95	463.43
571.11	409.59
571.27	437.68
571.43	433.00
571.60	442.36
571.76	470.45
571.92	409.59
572.09	428.32
572.25	393.21
572.41	386.19
572.57	411.93
572.74	458.74
572.90	447.04
573.06	386.19
573.22	430.66
573.38	435.34
573.55	440.02
573.71	423.64
573.87	372.15
574.03	461.09
574.20	461.09
574.36	437.68
574.52	402.57
574.68	440.02
574.84	461.09
575.01	472.79
575.17	414.27
575.33	425.98
575.49	437.68
575.65	484.49
575.82	440.02
575.98	421.30
576.14	383.85
576.30	421.30
576.46	372.15
576.62	411.93
576.79	400.23
576.95	393.21
577.11	454.06
577.27	449.38
577.43	477.47
577.59	442.36
577.75	404.91
577.92	402.57
578.08	390.87
578.24	447.04
578.40	433.00
578.56	386.19
578.72	341.72
578.88	383.85
579.04	374.49
579.21	388.53
579.37	428.32
579.53	435.34
579.69	465.77
579.85	348.74
580.01	449.38
580.17	433.00
580.33	395.55
580.49	376.83
580.65	376.83
580.82	411.93
580.98	449.38
581.14	402.57
581.30	369.80
581.46	463.43
581.62	468.11
581.78	437.68
581.94	475.13
582.10	447.04
582.26	348.74
582.42	395.55
582.58	341.72
582.74	470.45
582.90	386.19
583.06	418.96
583.22	416.62
583.38	423.64
583.54	315.97
583.70	425.98
583.86	447.04
584.02	449.38
584.18	449.38
584.34	423.64
584.50	372.15
584.66	388.53
584.82	374.49
584.98	390.87
585.14	414.27
585.30	386.19
585.46	416.62
585.62	468.11
585.78	348.74
585.94	404.91
586.10	442.36
586.26	379.17
586.42	440.02
586.58	358.10
586.74	433.00
586.90	447.04
587.06	414.27
587.22	444.70
587.38	451.72
587.54	437.68
587.70	468.11
587.86	407.25
588.02	395.55
588.18	404.91
588.34	372.15
588.49	414.27
588.65	421.30
588.81	400.23
588.97	444.70
589.13	425.98
589.29	407.25
589.45	479.81
589.61	407.25
589.77	360.44
589.93	367.46
590.08	416.62
590.24	416.62
590.40	379.17
590.56	376.83
590.72	496.19
590.88	400.23
591.04	442.36
591.20	430.66
591.35	477.47
591.51	428.32
591.67	409.59
591.83	379.17
591.99	397.89
592.15	496.19
592.31	423.64
592.46	386.19
592.62	463.43
592.78	388.53
592.94	374.49
593.10	465.77
593.26	468.11
593.41	369.80
593.57	458.74
593.73	318.31
593.89	407.25
594.05	404.91
594.20	421.30
594.36	400.23
594.52	423.64
594.68	388.53
594.84	475.13
594.99	463.43
595.15	409.59
595.31	433.00
595.47	437.68
595.62	507.90
595.78	440.02
595.94	372.15
596.10	454.06
596.25	425.98
596.41	360.44
596.57	477.47
596.73	430.66
596.88	411.93
597.04	339.38
597.20	442.36
597.36	425.98
597.51	407.25
597.67	421.30
597.83	393.21
597.99	433.00
598.14	372.15
598.30	477.47
598.46	386.19
598.61	425.98
598.77	461.09
598.93	435.34
599.09	421.30
599.24	395.55
599.40	472.79
599.56	456.40
599.71	423.64
599.87	393.21
600.03	360.44
600.18	437.68
600.34	409.59
600.50	404.91
600.65	440.02
600.81	491.51
600.97	414.27
601.12	428.32
601.28	491.51
601.44	362.78
601.59	397.89
601.75	393.21
601.91	449.38
602.06	493.85
602.22	451.72
602.37	425.98
602.53	425.98
602.69	477.47
602.84	407.25
603.00	411.93
603.16	365.12
603.31	461.09
603.47	414.27
603.62	379.17
603.78	388.53
603.94	395.55
604.09	411.93
604.25	425.98
604.40	390.87
604.56	358.10
604.71	444.70
604.87	404.91
605.03	482.15
605.18	447.04
605.34	493.85
605.49	395.55
605.65	372.15
605.80	423.64
605.96	402.57
606.12	472.79
606.27	479.81
606.43	386.19
606.58	449.38
606.74	435.34
606.89	404.91
607.05	512.58
607.20	463.43
607.36	355.76
607.51	444.70
607.67	519.60
607.82	383.85
607.98	437.68
608.13	461.09
608.29	428.32
608.44	435.34
608.60	433.00
608.75	397.89
608.91	479.81
609.06	524.28
609.22	496.19
609.37	435.34
609.53	386.19
609.68	461.09
609.84	322.99
609.99	465.77
610.15	442.36
