SpectraSuite Data File
++++++++++++++++++++++++++++++++++++
Date: Fri Oct 25 12:11:37 EDT 2013
User: price-jones
Dark Spectrum Present: No
Reference Spectrum Present: No
Number of Sampled Component Spectra: 1
Spectrometers: USB2+H05261
Integration Time (usec): 100000 (USB2+H05261)
Spectra Averaged: 1 (USB2+H05261)
Boxcar Smoothing: 0 (USB2+H05261)
Correct for Electrical Dark: No (USB2+H05261)
Strobe/Lamp Enabled: No (USB2+H05261)
Correct for Detector Non-linearity: No (USB2+H05261)
Correct for Stray Light: No (USB2+H05261)
Number of Pixels in Processed Spectrum: 2048
>>>>>Begin Processed Spectral Data<<<<<
365.73	304.27
365.92	304.27
366.12	304.27
366.32	238.73
366.52	222.35
366.72	311.29
366.91	257.46
367.11	255.12
367.31	222.35
367.51	238.73
367.70	201.29
367.90	311.29
368.10	271.50
368.30	252.78
368.49	266.82
368.69	245.76
368.89	222.35
369.09	210.65
369.28	241.08
369.48	257.46
369.68	299.59
369.87	271.50
370.07	257.46
370.27	360.44
370.47	346.40
370.66	290.23
370.86	393.21
371.06	372.15
371.25	418.96
371.45	404.91
371.65	369.80
371.84	353.42
372.04	430.66
372.24	416.62
372.44	348.74
372.63	423.64
372.83	381.51
373.03	379.17
373.22	409.59
373.42	447.04
373.62	421.30
373.81	374.49
374.01	451.72
374.21	468.11
374.40	379.17
374.60	486.83
374.79	388.53
374.99	374.49
375.19	465.77
375.38	454.06
375.58	423.64
375.78	414.27
375.97	442.36
376.17	475.13
376.37	433.00
376.56	463.43
376.76	404.91
376.95	390.87
377.15	442.36
377.35	369.80
377.54	437.68
377.74	383.85
377.93	383.85
378.13	376.83
378.33	435.34
378.52	386.19
378.72	428.32
378.91	416.62
379.11	433.00
379.31	433.00
379.50	402.57
379.70	404.91
379.89	400.23
380.09	386.19
380.28	437.68
380.48	393.21
380.68	409.59
380.87	355.76
381.07	451.72
381.26	402.57
381.46	369.80
381.65	390.87
381.85	433.00
382.04	465.77
382.24	386.19
382.43	418.96
382.63	440.02
382.83	425.98
383.02	519.60
383.22	435.34
383.41	472.79
383.61	402.57
383.80	339.38
384.00	397.89
384.19	425.98
384.39	416.62
384.58	407.25
384.78	421.30
384.97	393.21
385.17	402.57
385.36	435.34
385.56	402.57
385.75	327.68
385.95	402.57
386.14	465.77
386.34	451.72
386.53	358.10
386.72	397.89
386.92	369.80
387.11	433.00
387.31	463.43
387.50	379.17
387.70	383.85
387.89	339.38
388.09	383.85
388.28	390.87
388.48	418.96
388.67	449.38
388.86	388.53
389.06	418.96
389.25	442.36
389.45	400.23
389.64	444.70
389.84	355.76
390.03	402.57
390.22	397.89
390.42	449.38
390.61	484.49
390.81	383.85
391.00	386.19
391.19	402.57
391.39	360.44
391.58	421.30
391.78	402.57
391.97	454.06
392.16	461.09
392.36	409.59
392.55	472.79
392.75	393.21
392.94	381.51
393.13	442.36
393.33	383.85
393.52	421.30
393.71	498.53
393.91	465.77
394.10	360.44
394.29	362.78
394.49	423.64
394.68	451.72
394.88	447.04
395.07	482.15
395.26	383.85
395.46	421.30
395.65	393.21
395.84	421.30
396.04	449.38
396.23	402.57
396.42	395.55
396.62	465.77
396.81	552.37
397.00	442.36
397.19	430.66
397.39	407.25
397.58	390.87
397.77	346.40
397.97	433.00
398.16	423.64
398.35	418.96
398.55	400.23
398.74	458.74
398.93	428.32
399.12	421.30
399.32	416.62
399.51	402.57
399.70	430.66
399.90	416.62
400.09	395.55
400.28	451.72
400.47	388.53
400.67	409.59
400.86	447.04
401.05	381.51
401.24	475.13
401.44	395.55
401.63	395.55
401.82	411.93
402.01	388.53
402.21	369.80
402.40	425.98
402.59	430.66
402.78	400.23
402.97	388.53
403.17	416.62
403.36	348.74
403.55	409.59
403.74	411.93
403.93	463.43
404.13	440.02
404.32	409.59
404.51	421.30
404.70	468.11
404.89	461.09
405.09	456.40
405.28	400.23
405.47	379.17
405.66	404.91
405.85	442.36
406.05	416.62
406.24	393.21
406.43	367.46
406.62	411.93
406.81	507.90
407.00	414.27
407.20	428.32
407.39	514.92
407.58	332.36
407.77	423.64
407.96	423.64
408.15	395.55
408.34	386.19
408.54	435.34
408.73	386.19
408.92	416.62
409.11	395.55
409.30	411.93
409.49	435.34
409.68	482.15
409.87	440.02
410.07	346.40
410.26	362.78
410.45	351.08
410.64	353.42
410.83	428.32
411.02	376.83
411.21	435.34
411.40	430.66
411.59	388.53
411.78	355.76
411.98	353.42
412.17	365.12
412.36	344.06
412.55	407.25
412.74	402.57
412.93	472.79
413.12	337.04
413.31	421.30
413.50	442.36
413.69	407.25
413.88	456.40
414.07	379.17
414.26	409.59
414.45	428.32
414.64	334.70
414.83	414.27
415.02	456.40
415.22	388.53
415.41	407.25
415.60	315.97
415.79	390.87
415.98	409.59
416.17	430.66
416.36	416.62
416.55	388.53
416.74	461.09
416.93	416.62
417.12	425.98
417.31	383.85
417.50	379.17
417.69	388.53
417.88	430.66
418.07	365.12
418.26	365.12
418.45	451.72
418.64	383.85
418.83	367.46
419.02	444.70
419.21	421.30
419.39	454.06
419.58	367.46
419.77	355.76
419.96	442.36
420.15	400.23
420.34	407.25
420.53	454.06
420.72	369.80
420.91	451.72
421.10	440.02
421.29	447.04
421.48	444.70
421.67	468.11
421.86	468.11
422.05	402.57
422.24	395.55
422.43	376.83
422.61	360.44
422.80	447.04
422.99	411.93
423.18	447.04
423.37	519.60
423.56	362.78
423.75	402.57
423.94	435.34
424.13	376.83
424.32	402.57
424.50	402.57
424.69	409.59
424.88	341.72
425.07	404.91
425.26	423.64
425.45	458.74
425.64	386.19
425.83	416.62
426.01	442.36
426.20	381.51
426.39	390.87
426.58	400.23
426.77	395.55
426.96	411.93
427.15	468.11
427.33	430.66
427.52	421.30
427.71	449.38
427.90	465.77
428.09	360.44
428.28	397.89
428.46	507.90
428.65	425.98
428.84	425.98
429.03	425.98
429.22	437.68
429.40	379.17
429.59	374.49
429.78	416.62
429.97	397.89
430.16	376.83
430.34	402.57
430.53	355.76
430.72	400.23
430.91	449.38
431.10	390.87
431.28	379.17
431.47	540.66
431.66	395.55
431.85	411.93
432.03	397.89
432.22	442.36
432.41	411.93
432.60	376.83
432.79	353.42
432.97	362.78
433.16	409.59
433.35	458.74
433.54	470.45
433.72	402.57
433.91	407.25
434.10	454.06
434.28	475.13
434.47	442.36
434.66	369.80
434.85	482.15
435.03	442.36
435.22	465.77
435.41	500.87
435.59	482.15
435.78	491.51
435.97	372.15
436.16	435.34
436.34	383.85
436.53	381.51
436.72	404.91
436.90	400.23
437.09	407.25
437.28	465.77
437.46	454.06
437.65	454.06
437.84	416.62
438.02	472.79
438.21	444.70
438.40	397.89
438.58	360.44
438.77	400.23
438.96	461.09
439.14	482.15
439.33	423.64
439.52	355.76
439.70	383.85
439.89	341.72
440.08	402.57
440.26	365.12
440.45	372.15
440.63	430.66
440.82	402.57
441.01	416.62
441.19	360.44
441.38	388.53
441.57	409.59
441.75	393.21
441.94	421.30
442.12	423.64
442.31	437.68
442.50	393.21
442.68	418.96
442.87	379.17
443.05	407.25
443.24	430.66
443.43	367.46
443.61	411.93
443.80	381.51
443.98	400.23
444.17	383.85
444.35	355.76
444.54	339.38
444.73	383.85
444.91	433.00
445.10	379.17
445.28	390.87
445.47	409.59
445.65	437.68
445.84	440.02
446.02	358.10
446.21	381.51
446.39	386.19
446.58	430.66
446.77	315.97
446.95	425.98
447.14	421.30
447.32	421.30
447.51	379.17
447.69	423.64
447.88	372.15
448.06	428.32
448.25	402.57
448.43	433.00
448.62	454.06
448.80	348.74
448.99	409.59
449.17	400.23
449.36	430.66
449.54	376.83
449.73	435.34
449.91	397.89
450.10	402.57
450.28	458.74
450.46	351.08
450.65	456.40
450.83	402.57
451.02	440.02
451.20	397.89
451.39	386.19
451.57	425.98
451.76	430.66
451.94	388.53
452.13	421.30
452.31	447.04
452.49	353.42
452.68	400.23
452.86	397.89
453.05	433.00
453.23	458.74
453.42	425.98
453.60	397.89
453.78	456.40
453.97	322.99
454.15	388.53
454.34	367.46
454.52	379.17
454.70	411.93
454.89	470.45
455.07	388.53
455.26	433.00
455.44	456.40
455.62	407.25
455.81	465.77
455.99	470.45
456.17	416.62
456.36	435.34
456.54	423.64
456.73	414.27
456.91	430.66
457.09	425.98
457.28	423.64
457.46	362.78
457.64	454.06
457.83	510.24
458.01	404.91
458.19	472.79
458.38	433.00
458.56	461.09
458.74	449.38
458.93	388.53
459.11	428.32
459.29	390.87
459.48	425.98
459.66	444.70
459.84	456.40
460.03	519.60
460.21	456.40
460.39	440.02
460.57	472.79
460.76	437.68
460.94	390.87
461.12	404.91
461.31	449.38
461.49	484.49
461.67	397.89
461.85	358.10
462.04	400.23
462.22	779.40
462.40	414.27
462.59	465.77
462.77	430.66
462.95	390.87
463.13	442.36
463.32	409.59
463.50	510.24
463.68	404.91
463.86	407.25
464.05	360.44
464.23	414.27
464.41	421.30
464.59	451.72
464.78	437.68
464.96	404.91
465.14	437.68
465.32	374.49
465.50	423.64
465.69	456.40
465.87	337.04
466.05	369.80
466.23	372.15
466.41	374.49
466.60	400.23
466.78	425.98
466.96	409.59
467.14	344.06
467.32	404.91
467.51	468.11
467.69	470.45
467.87	458.74
468.05	353.42
468.23	524.28
468.41	381.51
468.60	435.34
468.78	477.47
468.96	430.66
469.14	465.77
469.32	381.51
469.50	430.66
469.69	461.09
469.87	447.04
470.05	344.06
470.23	430.66
470.41	430.66
470.59	440.02
470.77	449.38
470.95	435.34
471.14	402.57
471.32	454.06
471.50	461.09
471.68	372.15
471.86	430.66
472.04	451.72
472.22	416.62
472.40	416.62
472.58	451.72
472.77	421.30
472.95	454.06
473.13	409.59
473.31	489.17
473.49	402.57
473.67	458.74
473.85	512.58
474.03	433.00
474.21	451.72
474.39	461.09
474.57	418.96
474.75	437.68
474.93	463.43
475.12	407.25
475.30	353.42
475.48	454.06
475.66	437.68
475.84	409.59
476.02	393.21
476.20	482.15
476.38	468.11
476.56	433.00
476.74	395.55
476.92	360.44
477.10	414.27
477.28	465.77
477.46	451.72
477.64	407.25
477.82	430.66
478.00	409.59
478.18	442.36
478.36	510.24
478.54	341.72
478.72	461.09
478.90	379.17
479.08	369.80
479.26	414.27
479.44	477.47
479.62	449.38
479.80	386.19
479.98	409.59
480.16	360.44
480.34	409.59
480.52	365.12
480.70	390.87
480.88	423.64
481.06	383.85
481.24	470.45
481.41	440.02
481.59	475.13
481.77	458.74
481.95	447.04
482.13	447.04
482.31	449.38
482.49	468.11
482.67	397.89
482.85	402.57
483.03	435.34
483.21	456.40
483.39	372.15
483.57	416.62
483.74	430.66
483.92	390.87
484.10	458.74
484.28	433.00
484.46	416.62
484.64	397.89
484.82	425.98
485.00	390.87
485.18	402.57
485.35	418.96
485.53	407.25
485.71	461.09
485.89	360.44
486.07	447.04
486.25	484.49
486.43	440.02
486.61	440.02
486.78	454.06
486.96	397.89
487.14	454.06
487.32	479.81
487.50	435.34
487.68	332.36
487.85	400.23
488.03	470.45
488.21	433.00
488.39	372.15
488.57	404.91
488.75	409.59
488.92	510.24
489.10	404.91
489.28	390.87
489.46	372.15
489.64	376.83
489.81	360.44
489.99	409.59
490.17	397.89
490.35	440.02
490.53	430.66
490.70	355.76
490.88	430.66
491.06	456.40
491.24	437.68
491.41	442.36
491.59	458.74
491.77	327.68
491.95	428.32
492.13	425.98
492.30	388.53
492.48	372.15
492.66	433.00
492.84	355.76
493.01	425.98
493.19	407.25
493.37	379.17
493.54	475.13
493.72	458.74
493.90	404.91
494.08	341.72
494.25	428.32
494.43	383.85
494.61	376.83
494.79	365.12
494.96	409.59
495.14	404.91
495.32	395.55
495.49	367.46
495.67	388.53
495.85	351.08
496.02	376.83
496.20	395.55
496.38	489.17
496.55	409.59
496.73	461.09
496.91	372.15
497.09	409.59
497.26	433.00
497.44	322.99
497.62	440.02
497.79	468.11
497.97	355.76
498.14	367.46
498.32	440.02
498.50	402.57
498.67	411.93
498.85	447.04
499.03	409.59
499.20	365.12
499.38	435.34
499.56	369.80
499.73	468.11
499.91	402.57
500.08	433.00
500.26	423.64
500.44	411.93
500.61	411.93
500.79	425.98
500.97	463.43
501.14	484.49
501.32	425.98
501.49	421.30
501.67	442.36
501.84	430.66
502.02	416.62
502.20	409.59
502.37	428.32
502.55	404.91
502.72	428.32
502.90	475.13
503.07	383.85
503.25	379.17
503.43	435.34
503.60	470.45
503.78	484.49
503.95	447.04
504.13	374.49
504.30	393.21
504.48	421.30
504.65	435.34
504.83	477.47
505.01	423.64
505.18	437.68
505.36	337.04
505.53	362.78
505.71	381.51
505.88	442.36
506.06	397.89
506.23	358.10
506.41	458.74
506.58	454.06
506.76	358.10
506.93	444.70
507.11	484.49
507.28	381.51
507.46	383.85
507.63	444.70
507.81	418.96
507.98	372.15
508.16	379.17
508.33	430.66
508.50	498.53
508.68	388.53
508.85	440.02
509.03	348.74
509.20	381.51
509.38	348.74
509.55	447.04
509.73	437.68
509.90	411.93
510.08	416.62
510.25	428.32
510.42	330.02
510.60	402.57
510.77	437.68
510.95	390.87
511.12	463.43
511.30	440.02
511.47	416.62
511.64	456.40
511.82	430.66
511.99	423.64
512.17	454.06
512.34	404.91
512.51	376.83
512.69	353.42
512.86	437.68
513.04	397.89
513.21	423.64
513.38	430.66
513.56	348.74
513.73	416.62
513.90	409.59
514.08	428.32
514.25	409.59
514.43	482.15
514.60	421.30
514.77	365.12
514.95	428.32
515.12	451.72
515.29	428.32
515.47	362.78
515.64	390.87
515.81	472.79
515.99	463.43
516.16	397.89
516.33	437.68
516.51	444.70
516.68	404.91
516.85	367.46
517.03	421.30
517.20	433.00
517.37	369.80
517.54	407.25
517.72	414.27
517.89	360.44
518.06	421.30
518.24	418.96
518.41	425.98
518.58	423.64
518.75	433.00
518.93	440.02
519.10	418.96
519.27	351.08
519.45	428.32
519.62	421.30
519.79	418.96
519.96	395.55
520.14	423.64
520.31	416.62
520.48	423.64
520.65	423.64
520.83	409.59
521.00	421.30
521.17	433.00
521.34	353.42
521.52	372.15
521.69	428.32
521.86	428.32
522.03	498.53
522.20	468.11
522.38	491.51
522.55	407.25
522.72	315.97
522.89	414.27
523.07	468.11
523.24	414.27
523.41	428.32
523.58	407.25
523.75	402.57
523.92	414.27
524.10	351.08
524.27	428.32
524.44	346.40
524.61	414.27
524.78	400.23
524.96	435.34
525.13	435.34
525.30	367.46
525.47	395.55
525.64	376.83
525.81	386.19
525.98	416.62
526.16	447.04
526.33	444.70
526.50	402.57
526.67	407.25
526.84	437.68
527.01	404.91
527.18	397.89
527.36	388.53
527.53	468.11
527.70	440.02
527.87	404.91
528.04	437.68
528.21	475.13
528.38	437.68
528.55	407.25
528.72	491.51
528.89	428.32
529.07	393.21
529.24	407.25
529.41	421.30
529.58	433.00
529.75	372.15
529.92	395.55
530.09	358.10
530.26	435.34
530.43	362.78
530.60	402.57
530.77	465.77
530.94	458.74
531.11	376.83
531.28	374.49
531.46	393.21
531.63	400.23
531.80	425.98
531.97	447.04
532.14	463.43
532.31	433.00
532.48	451.72
532.65	355.76
532.82	353.42
532.99	456.40
533.16	456.40
533.33	430.66
533.50	493.85
533.67	386.19
533.84	409.59
534.01	404.91
534.18	386.19
534.35	416.62
534.52	430.66
534.69	428.32
534.86	425.98
535.03	421.30
535.20	372.15
535.37	496.19
535.54	411.93
535.71	440.02
535.88	435.34
536.05	425.98
536.22	475.13
536.38	390.87
536.55	477.47
536.72	449.38
536.89	433.00
537.06	447.04
537.23	330.02
537.40	397.89
537.57	337.04
537.74	472.79
537.91	458.74
538.08	477.47
538.25	407.25
538.42	379.17
538.59	409.59
538.75	463.43
538.92	465.77
539.09	397.89
539.26	437.68
539.43	444.70
539.60	402.57
539.77	395.55
539.94	416.62
540.11	428.32
540.28	447.04
540.44	397.89
540.61	433.00
540.78	449.38
540.95	409.59
541.12	430.66
541.29	402.57
541.46	418.96
541.62	409.59
541.79	444.70
541.96	397.89
542.13	414.27
542.30	397.89
542.47	418.96
542.63	360.44
542.80	437.68
542.97	428.32
543.14	397.89
543.31	428.32
543.48	376.83
543.64	449.38
543.81	409.59
543.98	376.83
544.15	365.12
544.32	318.31
544.48	400.23
544.65	447.04
544.82	379.17
544.99	468.11
545.16	411.93
545.32	379.17
545.49	428.32
545.66	367.46
545.83	376.83
546.00	313.63
546.16	369.80
546.33	383.85
546.50	463.43
546.67	390.87
546.83	454.06
547.00	430.66
547.17	393.21
547.34	437.68
547.50	463.43
547.67	458.74
547.84	360.44
548.00	472.79
548.17	400.23
548.34	449.38
548.51	409.59
548.67	341.72
548.84	414.27
549.01	397.89
549.18	404.91
549.34	428.32
549.51	383.85
549.68	482.15
549.84	416.62
550.01	388.53
550.18	491.51
550.34	521.94
550.51	430.66
550.68	491.51
550.84	486.83
551.01	404.91
551.18	493.85
551.34	423.64
551.51	411.93
551.68	404.91
551.84	425.98
552.01	428.32
552.18	362.78
552.34	456.40
552.51	332.36
552.68	407.25
552.84	414.27
553.01	393.21
553.18	451.72
553.34	390.87
553.51	397.89
553.67	444.70
553.84	444.70
554.01	435.34
554.17	425.98
554.34	433.00
554.51	369.80
554.67	440.02
554.84	402.57
555.00	461.09
555.17	430.66
555.33	386.19
555.50	393.21
555.67	400.23
555.83	332.36
556.00	409.59
556.16	582.79
556.33	437.68
556.50	486.83
556.66	409.59
556.83	451.72
556.99	456.40
557.16	461.09
557.32	358.10
557.49	526.62
557.65	397.89
557.82	362.78
557.98	411.93
558.15	463.43
558.32	435.34
558.48	416.62
558.65	472.79
558.81	442.36
558.98	437.68
559.14	519.60
559.31	437.68
559.47	423.64
559.64	372.15
559.80	393.21
559.97	465.77
560.13	461.09
560.30	383.85
560.46	393.21
560.63	407.25
560.79	360.44
560.96	390.87
561.12	355.76
561.29	407.25
561.45	444.70
561.61	407.25
561.78	416.62
561.94	409.59
562.11	383.85
562.27	458.74
562.44	379.17
562.60	416.62
562.77	367.46
562.93	489.17
563.10	463.43
563.26	425.98
563.42	409.59
563.59	409.59
563.75	418.96
563.92	421.30
564.08	348.74
564.24	376.83
564.41	433.00
564.57	433.00
564.74	374.49
564.90	519.60
565.07	461.09
565.23	402.57
565.39	388.53
565.56	468.11
565.72	402.57
565.88	425.98
566.05	458.74
566.21	395.55
566.38	428.32
566.54	395.55
566.70	489.17
566.87	447.04
567.03	407.25
567.19	444.70
567.36	397.89
567.52	423.64
567.68	407.25
567.85	451.72
568.01	395.55
568.17	374.49
568.34	395.55
568.50	407.25
568.66	379.17
568.83	545.34
568.99	458.74
569.15	456.40
569.32	397.89
569.48	440.02
569.64	442.36
569.81	388.53
569.97	421.30
570.13	425.98
570.30	468.11
570.46	463.43
570.62	447.04
570.78	423.64
570.95	355.76
571.11	447.04
571.27	458.74
571.43	388.53
571.60	346.40
571.76	397.89
571.92	411.93
572.09	402.57
572.25	414.27
572.41	425.98
572.57	402.57
572.74	456.40
572.90	433.00
573.06	428.32
573.22	353.42
573.38	435.34
573.55	383.85
573.71	400.23
573.87	435.34
574.03	379.17
574.20	444.70
574.36	397.89
574.52	397.89
574.68	383.85
574.84	372.15
575.01	411.93
575.17	442.36
575.33	505.56
575.49	500.87
575.65	409.59
575.82	409.59
575.98	449.38
576.14	458.74
576.30	451.72
576.46	287.89
576.62	346.40
576.79	435.34
576.95	447.04
577.11	456.40
577.27	500.87
577.43	482.15
577.59	414.27
577.75	482.15
577.92	386.19
578.08	477.47
578.24	376.83
578.40	411.93
578.56	428.32
578.72	430.66
578.88	402.57
579.04	470.45
579.21	393.21
579.37	433.00
579.53	465.77
579.69	414.27
579.85	449.38
580.01	395.55
580.17	440.02
580.33	407.25
580.49	512.58
580.65	458.74
580.82	456.40
580.98	393.21
581.14	367.46
581.30	461.09
581.46	444.70
581.62	404.91
581.78	339.38
581.94	425.98
582.10	404.91
582.26	423.64
582.42	435.34
582.58	449.38
582.74	372.15
582.90	362.78
583.06	374.49
583.22	362.78
583.38	423.64
583.54	355.76
583.70	402.57
583.86	463.43
584.02	423.64
584.18	409.59
584.34	498.53
584.50	360.44
584.66	379.17
584.82	414.27
584.98	409.59
585.14	353.42
585.30	320.65
585.46	376.83
585.62	442.36
585.78	386.19
585.94	423.64
586.10	421.30
586.26	393.21
586.42	367.46
586.58	421.30
586.74	475.13
586.90	489.17
587.06	409.59
587.22	461.09
587.38	421.30
587.54	388.53
587.70	444.70
587.86	493.85
588.02	346.40
588.18	468.11
588.34	423.64
588.49	334.70
588.65	388.53
588.81	409.59
588.97	397.89
589.13	407.25
589.29	440.02
589.45	428.32
589.61	428.32
589.77	444.70
589.93	428.32
590.08	482.15
590.24	498.53
590.40	458.74
590.56	444.70
590.72	383.85
590.88	465.77
591.04	461.09
591.20	461.09
591.35	423.64
591.51	355.76
591.67	418.96
591.83	416.62
591.99	444.70
592.15	372.15
592.31	421.30
592.46	433.00
592.62	390.87
592.78	411.93
592.94	461.09
593.10	379.17
593.26	411.93
593.41	447.04
593.57	402.57
593.73	404.91
593.89	400.23
594.05	355.76
594.20	421.30
594.36	517.26
594.52	449.38
594.68	456.40
594.84	418.96
594.99	456.40
595.15	454.06
595.31	404.91
595.47	451.72
595.62	433.00
595.78	360.44
595.94	416.62
596.10	470.45
596.25	418.96
596.41	444.70
596.57	447.04
596.73	430.66
596.88	388.53
597.04	442.36
597.20	449.38
597.36	383.85
597.51	365.12
597.67	404.91
597.83	421.30
597.99	390.87
598.14	393.21
598.30	440.02
598.46	397.89
598.61	435.34
598.77	416.62
598.93	423.64
599.09	444.70
599.24	407.25
599.40	360.44
599.56	414.27
599.71	416.62
599.87	397.89
600.03	386.19
600.18	440.02
600.34	374.49
600.50	411.93
600.65	451.72
600.81	414.27
600.97	444.70
601.12	390.87
601.28	491.51
601.44	358.10
601.59	423.64
601.75	390.87
601.91	393.21
602.06	477.47
602.22	409.59
602.37	365.12
602.53	449.38
602.69	475.13
602.84	381.51
603.00	425.98
603.16	407.25
603.31	444.70
603.47	404.91
603.62	376.83
603.78	414.27
603.94	479.81
604.09	388.53
604.25	416.62
604.40	449.38
604.56	418.96
604.71	367.46
604.87	379.17
605.03	451.72
605.18	421.30
605.34	381.51
605.49	390.87
605.65	414.27
605.80	414.27
605.96	414.27
606.12	456.40
606.27	442.36
606.43	458.74
606.58	362.78
606.74	437.68
606.89	428.32
607.05	402.57
607.20	304.27
607.36	421.30
607.51	395.55
607.67	411.93
607.82	404.91
607.98	507.90
608.13	393.21
608.29	442.36
608.44	390.87
608.60	330.02
608.75	400.23
608.91	369.80
609.06	404.91
609.22	479.81
609.37	430.66
609.53	397.89
609.68	369.80
609.84	402.57
609.99	442.36
610.15	365.12
