SpectraSuite Data File
++++++++++++++++++++++++++++++++++++
Date: Fri Oct 25 12:11:40 EDT 2013
User: price-jones
Dark Spectrum Present: No
Reference Spectrum Present: No
Number of Sampled Component Spectra: 1
Spectrometers: USB2+H05261
Integration Time (usec): 100000 (USB2+H05261)
Spectra Averaged: 1 (USB2+H05261)
Boxcar Smoothing: 0 (USB2+H05261)
Correct for Electrical Dark: No (USB2+H05261)
Strobe/Lamp Enabled: No (USB2+H05261)
Correct for Detector Non-linearity: No (USB2+H05261)
Correct for Stray Light: No (USB2+H05261)
Number of Pixels in Processed Spectrum: 2048
>>>>>Begin Processed Spectral Data<<<<<
365.73	325.33
365.92	325.33
366.12	325.33
366.32	250.44
366.52	257.46
366.72	248.10
366.91	198.95
367.11	243.42
367.31	220.01
367.51	229.37
367.70	224.69
367.90	205.97
368.10	236.39
368.30	238.73
368.49	201.29
368.69	283.20
368.89	264.48
369.09	250.44
369.28	248.10
369.48	224.69
369.68	205.97
369.87	327.68
370.07	315.97
370.27	369.80
370.47	344.06
370.66	330.02
370.86	393.21
371.06	369.80
371.25	379.17
371.45	442.36
371.65	416.62
371.84	304.27
372.04	428.32
372.24	372.15
372.44	435.34
372.63	393.21
372.83	344.06
373.03	407.25
373.22	407.25
373.42	360.44
373.62	372.15
373.81	484.49
374.01	397.89
374.21	477.47
374.40	411.93
374.60	475.13
374.79	428.32
374.99	414.27
375.19	505.56
375.38	414.27
375.58	383.85
375.78	351.08
375.97	421.30
376.17	524.28
376.37	479.81
376.56	393.21
376.76	388.53
376.95	379.17
377.15	458.74
377.35	386.19
377.54	437.68
377.74	395.55
377.93	418.96
378.13	468.11
378.33	400.23
378.52	379.17
378.72	395.55
378.91	390.87
379.11	418.96
379.31	423.64
379.50	411.93
379.70	430.66
379.89	484.49
380.09	376.83
380.28	369.80
380.48	358.10
380.68	409.59
380.87	386.19
381.07	407.25
381.26	425.98
381.46	411.93
381.65	437.68
381.85	383.85
382.04	358.10
382.24	486.83
382.43	360.44
382.63	383.85
382.83	374.49
383.02	360.44
383.22	390.87
383.41	388.53
383.61	421.30
383.80	416.62
384.00	407.25
384.19	421.30
384.39	449.38
384.58	404.91
384.78	386.19
384.97	404.91
385.17	423.64
385.36	437.68
385.56	381.51
385.75	327.68
385.95	388.53
386.14	440.02
386.34	416.62
386.53	416.62
386.72	409.59
386.92	421.30
387.11	437.68
387.31	430.66
387.50	458.74
387.70	409.59
387.89	407.25
388.09	400.23
388.28	395.55
388.48	407.25
388.67	421.30
388.86	400.23
389.06	407.25
389.25	367.46
389.45	428.32
389.64	442.36
389.84	402.57
390.03	397.89
390.22	383.85
390.42	416.62
390.61	449.38
390.81	367.46
391.00	440.02
391.19	470.45
391.39	435.34
391.58	423.64
391.78	454.06
391.97	397.89
392.16	433.00
392.36	428.32
392.55	472.79
392.75	386.19
392.94	344.06
393.13	390.87
393.33	423.64
393.52	416.62
393.71	390.87
393.91	447.04
394.10	362.78
394.29	365.12
394.49	381.51
394.68	447.04
394.88	407.25
395.07	454.06
395.26	421.30
395.46	433.00
395.65	393.21
395.84	402.57
396.04	519.60
396.23	372.15
396.42	374.49
396.62	369.80
396.81	411.93
397.00	395.55
397.19	362.78
397.39	418.96
397.58	451.72
397.77	409.59
397.97	397.89
398.16	390.87
398.35	360.44
398.55	440.02
398.74	372.15
398.93	397.89
399.12	411.93
399.32	388.53
399.51	430.66
399.70	442.36
399.90	458.74
400.09	409.59
400.28	395.55
400.47	440.02
400.67	465.77
400.86	381.51
401.05	388.53
401.24	447.04
401.44	447.04
401.63	421.30
401.82	402.57
402.01	409.59
402.21	404.91
402.40	435.34
402.59	428.32
402.78	433.00
402.97	407.25
403.17	325.33
403.36	383.85
403.55	395.55
403.74	414.27
403.93	379.17
404.13	381.51
404.32	428.32
404.51	465.77
404.70	454.06
404.89	393.21
405.09	421.30
405.28	379.17
405.47	402.57
405.66	379.17
405.85	418.96
406.05	475.13
406.24	411.93
406.43	489.17
406.62	383.85
406.81	442.36
407.00	395.55
407.20	395.55
407.39	421.30
407.58	409.59
407.77	479.81
407.96	449.38
408.15	374.49
408.34	400.23
408.54	444.70
408.73	414.27
408.92	372.15
409.11	374.49
409.30	425.98
409.49	407.25
409.68	376.83
409.87	330.02
410.07	388.53
410.26	404.91
410.45	435.34
410.64	428.32
410.83	383.85
411.02	346.40
411.21	440.02
411.40	428.32
411.59	433.00
411.78	351.08
411.98	362.78
412.17	409.59
412.36	395.55
412.55	372.15
412.74	346.40
412.93	383.85
413.12	390.87
413.31	449.38
413.50	367.46
413.69	416.62
413.88	416.62
414.07	407.25
414.26	362.78
414.45	404.91
414.64	454.06
414.83	454.06
415.02	346.40
415.22	458.74
415.41	395.55
415.60	444.70
415.79	493.85
415.98	400.23
416.17	423.64
416.36	372.15
416.55	442.36
416.74	447.04
416.93	423.64
417.12	444.70
417.31	383.85
417.50	449.38
417.69	411.93
417.88	411.93
418.07	479.81
418.26	440.02
418.45	528.96
418.64	505.56
418.83	379.17
419.02	456.40
419.21	376.83
419.39	433.00
419.58	430.66
419.77	411.93
419.96	418.96
420.15	428.32
420.34	367.46
420.53	362.78
420.72	369.80
420.91	381.51
421.10	421.30
421.29	423.64
421.48	400.23
421.67	472.79
421.86	430.66
422.05	407.25
422.24	425.98
422.43	444.70
422.61	365.12
422.80	388.53
422.99	418.96
423.18	395.55
423.37	322.99
423.56	465.77
423.75	421.30
423.94	435.34
424.13	465.77
424.32	397.89
424.50	379.17
424.69	402.57
424.88	428.32
425.07	400.23
425.26	390.87
425.45	379.17
425.64	334.70
425.83	332.36
426.01	397.89
426.20	374.49
426.39	407.25
426.58	430.66
426.77	454.06
426.96	423.64
427.15	393.21
427.33	437.68
427.52	430.66
427.71	341.72
427.90	454.06
428.09	353.42
428.28	411.93
428.46	435.34
428.65	468.11
428.84	360.44
429.03	423.64
429.22	421.30
429.40	390.87
429.59	421.30
429.78	421.30
429.97	451.72
430.16	376.83
430.34	381.51
430.53	444.70
430.72	423.64
430.91	465.77
431.10	404.91
431.28	418.96
431.47	409.59
431.66	367.46
431.85	423.64
432.03	451.72
432.22	451.72
432.41	461.09
432.60	411.93
432.79	414.27
432.97	362.78
433.16	397.89
433.35	358.10
433.54	386.19
433.72	418.96
433.91	322.99
434.10	428.32
434.28	390.87
434.47	400.23
434.66	367.46
434.85	409.59
435.03	397.89
435.22	425.98
435.41	482.15
435.59	369.80
435.78	388.53
435.97	486.83
436.16	402.57
436.34	400.23
436.53	491.51
436.72	407.25
436.90	461.09
437.09	369.80
437.28	411.93
437.46	393.21
437.65	400.23
437.84	395.55
438.02	505.56
438.21	500.87
438.40	437.68
438.58	409.59
438.77	416.62
438.96	433.00
439.14	404.91
439.33	468.11
439.52	409.59
439.70	374.49
439.89	383.85
440.08	433.00
440.26	369.80
440.45	423.64
440.63	374.49
440.82	411.93
441.01	486.83
441.19	430.66
441.38	407.25
441.57	433.00
441.75	444.70
441.94	397.89
442.12	402.57
442.31	430.66
442.50	374.49
442.68	404.91
442.87	388.53
443.05	425.98
443.24	404.91
443.43	449.38
443.61	454.06
443.80	418.96
443.98	444.70
444.17	421.30
444.35	442.36
444.54	451.72
444.73	423.64
444.91	465.77
445.10	440.02
445.28	447.04
445.47	330.02
445.65	386.19
445.84	411.93
446.02	404.91
446.21	400.23
446.39	369.80
446.58	402.57
446.77	386.19
446.95	383.85
447.14	465.77
447.32	442.36
447.51	470.45
447.69	395.55
447.88	414.27
448.06	442.36
448.25	447.04
448.43	454.06
448.62	437.68
448.80	458.74
448.99	416.62
449.17	449.38
449.36	383.85
449.54	442.36
449.73	430.66
449.91	367.46
450.10	376.83
450.28	484.49
450.46	430.66
450.65	425.98
450.83	451.72
451.02	421.30
451.20	388.53
451.39	390.87
451.57	430.66
451.76	423.64
451.94	353.42
452.13	428.32
452.31	461.09
452.49	358.10
452.68	313.63
452.86	400.23
453.05	416.62
453.23	421.30
453.42	400.23
453.60	367.46
453.78	409.59
453.97	433.00
454.15	353.42
454.34	397.89
454.52	498.53
454.70	447.04
454.89	421.30
455.07	423.64
455.26	451.72
455.44	423.64
455.62	388.53
455.81	400.23
455.99	461.09
456.17	400.23
456.36	425.98
456.54	447.04
456.73	346.40
456.91	409.59
457.09	341.72
457.28	407.25
457.46	456.40
457.64	493.85
457.83	332.36
458.01	400.23
458.19	397.89
458.38	358.10
458.56	372.15
458.74	390.87
458.93	376.83
459.11	386.19
459.29	397.89
459.48	421.30
459.66	423.64
459.84	395.55
460.03	372.15
460.21	440.02
460.39	437.68
460.57	416.62
460.76	414.27
460.94	421.30
461.12	456.40
461.31	447.04
461.49	461.09
461.67	407.25
461.85	428.32
462.04	407.25
462.22	770.04
462.40	435.34
462.59	416.62
462.77	344.06
462.95	484.49
463.13	409.59
463.32	503.22
463.50	367.46
463.68	402.57
463.86	442.36
464.05	414.27
464.23	400.23
464.41	421.30
464.59	437.68
464.78	383.85
464.96	390.87
465.14	461.09
465.32	372.15
465.50	407.25
465.69	393.21
465.87	458.74
466.05	442.36
466.23	365.12
466.41	425.98
466.60	334.70
466.78	395.55
466.96	383.85
467.14	409.59
467.32	430.66
467.51	414.27
467.69	442.36
467.87	430.66
468.05	376.83
468.23	454.06
468.41	451.72
468.60	351.08
468.78	386.19
468.96	468.11
469.14	433.00
469.32	409.59
469.50	376.83
469.69	463.43
469.87	360.44
470.05	379.17
470.23	449.38
470.41	346.40
470.59	435.34
470.77	397.89
470.95	505.56
471.14	437.68
471.32	402.57
471.50	411.93
471.68	409.59
471.86	397.89
472.04	435.34
472.22	486.83
472.40	456.40
472.58	383.85
472.77	430.66
472.95	376.83
473.13	393.21
473.31	428.32
473.49	369.80
473.67	346.40
473.85	461.09
474.03	353.42
474.21	411.93
474.39	409.59
474.57	369.80
474.75	423.64
474.93	379.17
475.12	358.10
475.30	388.53
475.48	395.55
475.66	435.34
475.84	390.87
476.02	454.06
476.20	479.81
476.38	402.57
476.56	433.00
476.74	369.80
476.92	383.85
477.10	379.17
477.28	372.15
477.46	365.12
477.64	367.46
477.82	390.87
478.00	407.25
478.18	428.32
478.36	388.53
478.54	393.21
478.72	344.06
478.90	383.85
479.08	402.57
479.26	421.30
479.44	372.15
479.62	421.30
479.80	383.85
479.98	348.74
480.16	374.49
480.34	393.21
480.52	404.91
480.70	409.59
480.88	416.62
481.06	425.98
481.24	400.23
481.41	414.27
481.59	390.87
481.77	383.85
481.95	423.64
482.13	503.22
482.31	442.36
482.49	444.70
482.67	407.25
482.85	367.46
483.03	404.91
483.21	435.34
483.39	397.89
483.57	458.74
483.74	358.10
483.92	433.00
484.10	433.00
484.28	339.38
484.46	442.36
484.64	437.68
484.82	395.55
485.00	440.02
485.18	395.55
485.35	430.66
485.53	334.70
485.71	414.27
485.89	465.77
486.07	372.15
486.25	468.11
486.43	395.55
486.61	437.68
486.78	442.36
486.96	390.87
487.14	372.15
487.32	386.19
487.50	416.62
487.68	416.62
487.85	407.25
488.03	395.55
488.21	425.98
488.39	379.17
488.57	449.38
488.75	372.15
488.92	461.09
489.10	395.55
489.28	409.59
489.46	407.25
489.64	395.55
489.81	390.87
489.99	461.09
490.17	475.13
490.35	493.85
490.53	451.72
490.70	386.19
490.88	367.46
491.06	468.11
491.24	381.51
491.41	437.68
491.59	393.21
491.77	395.55
491.95	362.78
492.13	411.93
492.30	397.89
492.48	400.23
492.66	475.13
492.84	379.17
493.01	402.57
493.19	379.17
493.37	472.79
493.54	416.62
493.72	393.21
493.90	346.40
494.08	416.62
494.25	449.38
494.43	358.10
494.61	395.55
494.79	383.85
494.96	456.40
495.14	519.60
495.32	440.02
495.49	428.32
495.67	451.72
495.85	456.40
496.02	414.27
496.20	383.85
496.38	386.19
496.55	411.93
496.73	407.25
496.91	365.12
497.09	425.98
497.26	374.49
497.44	437.68
497.62	320.65
497.79	362.78
497.97	365.12
498.14	407.25
498.32	418.96
498.50	362.78
498.67	454.06
498.85	374.49
499.03	454.06
499.20	440.02
499.38	435.34
499.56	423.64
499.73	404.91
499.91	416.62
500.08	437.68
500.26	388.53
500.44	388.53
500.61	489.17
500.79	423.64
500.97	430.66
501.14	442.36
501.32	435.34
501.49	390.87
501.67	330.02
501.84	411.93
502.02	358.10
502.20	416.62
502.37	376.83
502.55	411.93
502.72	369.80
502.90	458.74
503.07	367.46
503.25	435.34
503.43	402.57
503.60	337.04
503.78	395.55
503.95	418.96
504.13	428.32
504.30	400.23
504.48	444.70
504.65	433.00
504.83	437.68
505.01	421.30
505.18	463.43
505.36	484.49
505.53	365.12
505.71	433.00
505.88	477.47
506.06	346.40
506.23	444.70
506.41	418.96
506.58	428.32
506.76	381.51
506.93	465.77
507.11	477.47
507.28	386.19
507.46	308.95
507.63	430.66
507.81	376.83
507.98	353.42
508.16	404.91
508.33	386.19
508.50	409.59
508.68	411.93
508.85	411.93
509.03	404.91
509.20	367.46
509.38	475.13
509.55	451.72
509.73	428.32
509.90	381.51
510.08	449.38
510.25	411.93
510.42	425.98
510.60	397.89
510.77	451.72
510.95	397.89
511.12	397.89
511.30	381.51
511.47	503.22
511.64	472.79
511.82	489.17
511.99	390.87
512.17	367.46
512.34	423.64
512.51	374.49
512.69	416.62
512.86	444.70
513.04	383.85
513.21	397.89
513.38	472.79
513.56	435.34
513.73	430.66
513.90	430.66
514.08	395.55
514.25	437.68
514.43	418.96
514.60	458.74
514.77	397.89
514.95	407.25
515.12	458.74
515.29	418.96
515.47	437.68
515.64	461.09
515.81	365.12
515.99	388.53
516.16	367.46
516.33	428.32
516.51	454.06
516.68	376.83
516.85	386.19
517.03	425.98
517.20	404.91
517.37	353.42
517.54	428.32
517.72	430.66
517.89	411.93
518.06	395.55
518.24	423.64
518.41	442.36
518.58	470.45
518.75	367.46
518.93	395.55
519.10	395.55
519.27	360.44
519.45	465.77
519.62	400.23
519.79	440.02
519.96	409.59
520.14	388.53
520.31	465.77
520.48	402.57
520.65	400.23
520.83	400.23
521.00	346.40
521.17	468.11
521.34	437.68
521.52	468.11
521.69	465.77
521.86	435.34
522.03	479.81
522.20	461.09
522.38	397.89
522.55	444.70
522.72	407.25
522.89	475.13
523.07	454.06
523.24	423.64
523.41	383.85
523.58	430.66
523.75	407.25
523.92	425.98
524.10	402.57
524.27	400.23
524.44	393.21
524.61	400.23
524.78	470.45
524.96	519.60
525.13	437.68
525.30	454.06
525.47	393.21
525.64	411.93
525.81	421.30
525.98	433.00
526.16	456.40
526.33	437.68
526.50	423.64
526.67	330.02
526.84	440.02
527.01	386.19
527.18	404.91
527.36	407.25
527.53	355.76
527.70	435.34
527.87	397.89
528.04	393.21
528.21	418.96
528.38	395.55
528.55	440.02
528.72	362.78
528.89	416.62
529.07	411.93
529.24	496.19
529.41	433.00
529.58	414.27
529.75	383.85
529.92	388.53
530.09	449.38
530.26	418.96
530.43	407.25
530.60	435.34
530.77	386.19
530.94	444.70
531.11	386.19
531.28	400.23
531.46	404.91
531.63	386.19
531.80	425.98
531.97	358.10
532.14	386.19
532.31	423.64
532.48	390.87
532.65	367.46
532.82	386.19
532.99	451.72
533.16	404.91
533.33	423.64
533.50	442.36
533.67	381.51
533.84	444.70
534.01	461.09
534.18	463.43
534.35	428.32
534.52	390.87
534.69	456.40
534.86	395.55
535.03	442.36
535.20	491.51
535.37	456.40
535.54	442.36
535.71	421.30
535.88	454.06
536.05	414.27
536.22	388.53
536.38	430.66
536.55	421.30
536.72	428.32
536.89	421.30
537.06	425.98
537.23	437.68
537.40	430.66
537.57	388.53
537.74	451.72
537.91	440.02
538.08	472.79
538.25	379.17
538.42	388.53
538.59	395.55
538.75	360.44
538.92	484.49
539.09	447.04
539.26	400.23
539.43	418.96
539.60	440.02
539.77	381.51
539.94	414.27
540.11	449.38
540.28	428.32
540.44	393.21
540.61	416.62
540.78	409.59
540.95	442.36
541.12	425.98
541.29	402.57
541.46	465.77
541.62	379.17
541.79	397.89
541.96	369.80
542.13	463.43
542.30	411.93
542.47	418.96
542.63	367.46
542.80	421.30
542.97	482.15
543.14	477.47
543.31	372.15
543.48	435.34
543.64	489.17
543.81	365.12
543.98	447.04
544.15	376.83
544.32	411.93
544.48	442.36
544.65	416.62
544.82	449.38
544.99	358.10
545.16	421.30
545.32	423.64
545.49	472.79
545.66	395.55
545.83	390.87
546.00	404.91
546.16	461.09
546.33	414.27
546.50	430.66
546.67	440.02
546.83	433.00
547.00	397.89
547.17	390.87
547.34	402.57
547.50	395.55
547.67	423.64
547.84	437.68
548.00	390.87
548.17	430.66
548.34	437.68
548.51	437.68
548.67	479.81
548.84	461.09
549.01	395.55
549.18	468.11
549.34	407.25
549.51	411.93
549.68	493.85
549.84	451.72
550.01	411.93
550.18	507.90
550.34	479.81
550.51	442.36
550.68	482.15
550.84	451.72
551.01	435.34
551.18	442.36
551.34	390.87
551.51	475.13
551.68	416.62
551.84	428.32
552.01	397.89
552.18	433.00
552.34	470.45
552.51	463.43
552.68	433.00
552.84	355.76
553.01	376.83
553.18	470.45
553.34	430.66
553.51	397.89
553.67	397.89
553.84	456.40
554.01	498.53
554.17	400.23
554.34	458.74
554.51	491.51
554.67	409.59
554.84	433.00
555.00	456.40
555.17	404.91
555.33	454.06
555.50	440.02
555.67	447.04
555.83	423.64
556.00	416.62
556.16	533.64
556.33	517.26
556.50	374.49
556.66	376.83
556.83	447.04
556.99	393.21
557.16	472.79
557.32	430.66
557.49	458.74
557.65	433.00
557.82	440.02
557.98	388.53
558.15	376.83
558.32	456.40
558.48	374.49
558.65	430.66
558.81	486.83
558.98	388.53
559.14	376.83
559.31	411.93
559.47	479.81
559.64	440.02
559.80	411.93
559.97	376.83
560.13	418.96
560.30	489.17
560.46	447.04
560.63	435.34
560.79	435.34
560.96	423.64
561.12	367.46
561.29	397.89
561.45	463.43
561.61	440.02
561.78	454.06
561.94	409.59
562.11	428.32
562.27	409.59
562.44	411.93
562.60	409.59
562.77	425.98
562.93	479.81
563.10	409.59
563.26	425.98
563.42	451.72
563.59	353.42
563.75	397.89
563.92	465.77
564.08	444.70
564.24	393.21
564.41	451.72
564.57	500.87
564.74	425.98
564.90	402.57
565.07	421.30
565.23	435.34
565.39	402.57
565.56	381.51
565.72	442.36
565.88	379.17
566.05	400.23
566.21	456.40
566.38	430.66
566.54	379.17
566.70	425.98
566.87	454.06
567.03	374.49
567.19	430.66
567.36	386.19
567.52	421.30
567.68	433.00
567.85	477.47
568.01	444.70
568.17	400.23
568.34	425.98
568.50	575.77
568.66	425.98
568.83	484.49
568.99	437.68
569.15	479.81
569.32	409.59
569.48	435.34
569.64	444.70
569.81	416.62
569.97	475.13
570.13	425.98
570.30	447.04
570.46	395.55
570.62	397.89
570.78	458.74
570.95	421.30
571.11	393.21
571.27	449.38
571.43	425.98
571.60	379.17
571.76	421.30
571.92	407.25
572.09	395.55
572.25	423.64
572.41	416.62
572.57	400.23
572.74	423.64
572.90	381.51
573.06	404.91
573.22	409.59
573.38	390.87
573.55	409.59
573.71	447.04
573.87	435.34
574.03	479.81
574.20	400.23
574.36	440.02
574.52	395.55
574.68	367.46
574.84	390.87
575.01	444.70
575.17	358.10
575.33	337.04
575.49	430.66
575.65	402.57
575.82	416.62
575.98	365.12
576.14	444.70
576.30	369.80
576.46	489.17
576.62	395.55
576.79	496.19
576.95	491.51
577.11	433.00
577.27	423.64
577.43	528.96
577.59	404.91
577.75	421.30
577.92	414.27
578.08	381.51
578.24	376.83
578.40	404.91
578.56	451.72
578.72	449.38
578.88	447.04
579.04	416.62
579.21	465.77
579.37	400.23
579.53	430.66
579.69	400.23
579.85	425.98
580.01	386.19
580.17	498.53
580.33	407.25
580.49	461.09
580.65	461.09
580.82	423.64
580.98	447.04
581.14	449.38
581.30	435.34
581.46	442.36
581.62	472.79
581.78	393.21
581.94	437.68
582.10	379.17
582.26	402.57
582.42	386.19
582.58	491.51
582.74	348.74
582.90	416.62
583.06	416.62
583.22	414.27
583.38	442.36
583.54	449.38
583.70	402.57
583.86	381.51
584.02	418.96
584.18	423.64
584.34	435.34
584.50	407.25
584.66	437.68
584.82	362.78
584.98	393.21
585.14	430.66
585.30	409.59
585.46	489.17
585.62	383.85
585.78	414.27
585.94	397.89
586.10	390.87
586.26	372.15
586.42	395.55
586.58	348.74
586.74	397.89
586.90	397.89
587.06	418.96
587.22	468.11
587.38	388.53
587.54	397.89
587.70	437.68
587.86	484.49
588.02	358.10
588.18	463.43
588.34	395.55
588.49	423.64
588.65	381.51
588.81	423.64
588.97	376.83
589.13	451.72
589.29	409.59
589.45	365.12
589.61	411.93
589.77	491.51
589.93	374.49
590.08	425.98
590.24	461.09
590.40	322.99
590.56	442.36
590.72	407.25
590.88	428.32
591.04	383.85
591.20	423.64
591.35	524.28
591.51	416.62
591.67	353.42
591.83	407.25
591.99	416.62
592.15	414.27
592.31	397.89
592.46	383.85
592.62	484.49
592.78	458.74
592.94	447.04
593.10	437.68
593.26	395.55
593.41	423.64
593.57	425.98
593.73	388.53
593.89	458.74
594.05	327.68
594.20	475.13
594.36	402.57
594.52	444.70
594.68	425.98
594.84	477.47
594.99	395.55
595.15	477.47
595.31	428.32
595.47	425.98
595.62	395.55
595.78	423.64
595.94	388.53
596.10	393.21
596.25	458.74
596.41	470.45
596.57	414.27
596.73	425.98
596.88	468.11
597.04	421.30
597.20	411.93
597.36	362.78
597.51	400.23
597.67	442.36
597.83	365.12
597.99	433.00
598.14	365.12
598.30	449.38
598.46	383.85
598.61	435.34
598.77	353.42
598.93	423.64
599.09	365.12
599.24	395.55
599.40	489.17
599.56	383.85
599.71	397.89
599.87	454.06
600.03	451.72
600.18	381.51
600.34	414.27
600.50	428.32
600.65	386.19
600.81	463.43
600.97	421.30
601.12	430.66
601.28	528.96
601.44	454.06
601.59	461.09
601.75	414.27
601.91	425.98
602.06	386.19
602.22	444.70
602.37	435.34
602.53	393.21
602.69	470.45
602.84	365.12
603.00	327.68
603.16	367.46
603.31	442.36
603.47	425.98
603.62	393.21
603.78	418.96
603.94	493.85
604.09	414.27
604.25	374.49
604.40	379.17
604.56	411.93
604.71	383.85
604.87	315.97
605.03	425.98
605.18	496.19
605.34	447.04
605.49	414.27
605.65	360.44
605.80	400.23
605.96	451.72
606.12	479.81
606.27	433.00
606.43	390.87
606.58	428.32
606.74	456.40
606.89	388.53
607.05	458.74
607.20	402.57
607.36	379.17
607.51	423.64
607.67	409.59
607.82	435.34
607.98	428.32
608.13	411.93
608.29	393.21
608.44	475.13
608.60	456.40
608.75	482.15
608.91	456.40
609.06	402.57
609.22	383.85
609.37	425.98
609.53	437.68
609.68	383.85
609.84	393.21
609.99	407.25
610.15	400.23
