SpectraSuite Data File
++++++++++++++++++++++++++++++++++++
Date: Fri Oct 25 12:10:48 EDT 2013
User: price-jones
Dark Spectrum Present: No
Reference Spectrum Present: No
Number of Sampled Component Spectra: 1
Spectrometers: USB2+H05261
Integration Time (usec): 100000 (USB2+H05261)
Spectra Averaged: 1 (USB2+H05261)
Boxcar Smoothing: 0 (USB2+H05261)
Correct for Electrical Dark: No (USB2+H05261)
Strobe/Lamp Enabled: No (USB2+H05261)
Correct for Detector Non-linearity: No (USB2+H05261)
Correct for Stray Light: No (USB2+H05261)
Number of Pixels in Processed Spectrum: 2048
>>>>>Begin Processed Spectral Data<<<<<
365.73	325.33
365.92	325.33
366.12	325.33
366.32	290.23
366.52	271.50
366.72	311.29
366.91	224.69
367.11	276.18
367.31	154.48
367.51	238.73
367.70	198.95
367.90	285.55
368.10	191.92
368.30	191.92
368.49	224.69
368.69	243.42
368.89	191.92
369.09	266.82
369.28	365.12
369.48	315.97
369.68	346.40
369.87	318.31
370.07	304.27
370.27	330.02
370.47	351.08
370.66	374.49
370.86	372.15
371.06	348.74
371.25	407.25
371.45	348.74
371.65	372.15
371.84	304.27
372.04	320.65
372.24	339.38
372.44	423.64
372.63	411.93
372.83	416.62
373.03	334.70
373.22	440.02
373.42	411.93
373.62	433.00
373.81	374.49
374.01	449.38
374.21	465.77
374.40	383.85
374.60	416.62
374.79	437.68
374.99	379.17
375.19	390.87
375.38	400.23
375.58	379.17
375.78	484.49
375.97	463.43
376.17	472.79
376.37	423.64
376.56	512.58
376.76	423.64
376.95	458.74
377.15	470.45
377.35	433.00
377.54	423.64
377.74	308.95
377.93	372.15
378.13	418.96
378.33	404.91
378.52	365.12
378.72	468.11
378.91	428.32
379.11	358.10
379.31	353.42
379.50	372.15
379.70	409.59
379.89	433.00
380.09	433.00
380.28	346.40
380.48	433.00
380.68	353.42
380.87	444.70
381.07	404.91
381.26	414.27
381.46	334.70
381.65	423.64
381.85	395.55
382.04	411.93
382.24	421.30
382.43	418.96
382.63	374.49
382.83	400.23
383.02	339.38
383.22	463.43
383.41	416.62
383.61	414.27
383.80	369.80
384.00	379.17
384.19	367.46
384.39	383.85
384.58	381.51
384.78	355.76
384.97	390.87
385.17	369.80
385.36	411.93
385.56	451.72
385.75	393.21
385.95	435.34
386.14	383.85
386.34	437.68
386.53	496.19
386.72	369.80
386.92	456.40
387.11	369.80
387.31	330.02
387.50	418.96
387.70	337.04
387.89	383.85
388.09	458.74
388.28	388.53
388.48	365.12
388.67	449.38
388.86	414.27
389.06	447.04
389.25	411.93
389.45	444.70
389.64	423.64
389.84	463.43
390.03	433.00
390.22	447.04
390.42	421.30
390.61	449.38
390.81	416.62
391.00	404.91
391.19	337.04
391.39	402.57
391.58	447.04
391.78	341.72
391.97	409.59
392.16	411.93
392.36	393.21
392.55	393.21
392.75	339.38
392.94	330.02
393.13	397.89
393.33	414.27
393.52	414.27
393.71	451.72
393.91	320.65
394.10	400.23
394.29	393.21
394.49	348.74
394.68	372.15
394.88	376.83
395.07	397.89
395.26	351.08
395.46	400.23
395.65	449.38
395.84	390.87
396.04	411.93
396.23	486.83
396.42	402.57
396.62	458.74
396.81	430.66
397.00	395.55
397.19	362.78
397.39	449.38
397.58	442.36
397.77	376.83
397.97	411.93
398.16	330.02
398.35	435.34
398.55	461.09
398.74	404.91
398.93	388.53
399.12	400.23
399.32	393.21
399.51	346.40
399.70	388.53
399.90	304.27
400.09	447.04
400.28	430.66
400.47	404.91
400.67	402.57
400.86	381.51
401.05	402.57
401.24	362.78
401.44	393.21
401.63	425.98
401.82	470.45
402.01	428.32
402.21	374.49
402.40	374.49
402.59	358.10
402.78	454.06
402.97	381.51
403.17	322.99
403.36	395.55
403.55	395.55
403.74	360.44
403.93	355.76
404.13	430.66
404.32	418.96
404.51	440.02
404.70	397.89
404.89	421.30
405.09	367.46
405.28	400.23
405.47	421.30
405.66	418.96
405.85	407.25
406.05	437.68
406.24	411.93
406.43	463.43
406.62	341.72
406.81	397.89
407.00	416.62
407.20	414.27
407.39	369.80
407.58	379.17
407.77	437.68
407.96	526.62
408.15	374.49
408.34	395.55
408.54	461.09
408.73	421.30
408.92	376.83
409.11	407.25
409.30	395.55
409.49	437.68
409.68	395.55
409.87	423.64
410.07	355.76
410.26	421.30
410.45	379.17
410.64	353.42
410.83	428.32
411.02	379.17
411.21	425.98
411.40	400.23
411.59	383.85
411.78	386.19
411.98	449.38
412.17	409.59
412.36	433.00
412.55	383.85
412.74	404.91
412.93	510.24
413.12	442.36
413.31	514.92
413.50	505.56
413.69	402.57
413.88	472.79
414.07	362.78
414.26	402.57
414.45	395.55
414.64	425.98
414.83	376.83
415.02	395.55
415.22	414.27
415.41	428.32
415.60	437.68
415.79	358.10
415.98	489.17
416.17	425.98
416.36	393.21
416.55	320.65
416.74	400.23
416.93	449.38
417.12	451.72
417.31	397.89
417.50	388.53
417.69	407.25
417.88	397.89
418.07	318.31
418.26	367.46
418.45	388.53
418.64	348.74
418.83	395.55
419.02	376.83
419.21	416.62
419.39	372.15
419.58	355.76
419.77	355.76
419.96	404.91
420.15	388.53
420.34	362.78
420.53	442.36
420.72	454.06
420.91	372.15
421.10	386.19
421.29	369.80
421.48	425.98
421.67	376.83
421.86	386.19
422.05	400.23
422.24	341.72
422.43	407.25
422.61	367.46
422.80	418.96
422.99	376.83
423.18	425.98
423.37	444.70
423.56	414.27
423.75	395.55
423.94	418.96
424.13	411.93
424.32	400.23
424.50	435.34
424.69	365.12
424.88	482.15
425.07	341.72
425.26	454.06
425.45	390.87
425.64	393.21
425.83	404.91
426.01	440.02
426.20	393.21
426.39	367.46
426.58	456.40
426.77	381.51
426.96	433.00
427.15	430.66
427.33	500.87
427.52	383.85
427.71	425.98
427.90	400.23
428.09	358.10
428.28	435.34
428.46	358.10
428.65	454.06
428.84	372.15
429.03	456.40
429.22	376.83
429.40	379.17
429.59	365.12
429.78	423.64
429.97	409.59
430.16	404.91
430.34	430.66
430.53	348.74
430.72	404.91
430.91	376.83
431.10	430.66
431.28	435.34
431.47	435.34
431.66	411.93
431.85	435.34
432.03	449.38
432.22	374.49
432.41	397.89
432.60	444.70
432.79	404.91
432.97	400.23
433.16	437.68
433.35	383.85
433.54	414.27
433.72	430.66
433.91	458.74
434.10	383.85
434.28	348.74
434.47	425.98
434.66	390.87
434.85	458.74
435.03	381.51
435.22	440.02
435.41	404.91
435.59	451.72
435.78	411.93
435.97	498.53
436.16	402.57
436.34	372.15
436.53	435.34
436.72	428.32
436.90	393.21
437.09	386.19
437.28	449.38
437.46	425.98
437.65	440.02
437.84	468.11
438.02	418.96
438.21	428.32
438.40	505.56
438.58	428.32
438.77	437.68
438.96	388.53
439.14	395.55
439.33	414.27
439.52	411.93
439.70	425.98
439.89	472.79
440.08	468.11
440.26	367.46
440.45	386.19
440.63	465.77
440.82	458.74
441.01	400.23
441.19	379.17
441.38	376.83
441.57	477.47
441.75	423.64
441.94	463.43
442.12	386.19
442.31	458.74
442.50	423.64
442.68	360.44
442.87	418.96
443.05	489.17
443.24	479.81
443.43	367.46
443.61	465.77
443.80	404.91
443.98	451.72
444.17	407.25
444.35	365.12
444.54	425.98
444.73	454.06
444.91	470.45
445.10	393.21
445.28	390.87
445.47	491.51
445.65	430.66
445.84	416.62
446.02	421.30
446.21	418.96
446.39	416.62
446.58	383.85
446.77	334.70
446.95	327.68
447.14	444.70
447.32	411.93
447.51	404.91
447.69	402.57
447.88	484.49
448.06	402.57
448.25	376.83
448.43	423.64
448.62	395.55
448.80	409.59
448.99	404.91
449.17	351.08
449.36	397.89
449.54	416.62
449.73	351.08
449.91	358.10
450.10	411.93
450.28	456.40
450.46	440.02
450.65	423.64
450.83	376.83
451.02	447.04
451.20	421.30
451.39	351.08
451.57	374.49
451.76	433.00
451.94	447.04
452.13	458.74
452.31	414.27
452.49	407.25
452.68	346.40
452.86	447.04
453.05	409.59
453.23	407.25
453.42	437.68
453.60	383.85
453.78	416.62
453.97	409.59
454.15	367.46
454.34	395.55
454.52	454.06
454.70	489.17
454.89	416.62
455.07	360.44
455.26	414.27
455.44	367.46
455.62	341.72
455.81	402.57
455.99	421.30
456.17	376.83
456.36	404.91
456.54	418.96
456.73	411.93
456.91	348.74
457.09	475.13
457.28	414.27
457.46	465.77
457.64	365.12
457.83	454.06
458.01	404.91
458.19	383.85
458.38	444.70
458.56	395.55
458.74	318.31
458.93	479.81
459.11	430.66
459.29	383.85
459.48	409.59
459.66	437.68
459.84	437.68
460.03	507.90
460.21	404.91
460.39	416.62
460.57	444.70
460.76	444.70
460.94	381.51
461.12	456.40
461.31	428.32
461.49	332.36
461.67	421.30
461.85	383.85
462.04	425.98
462.22	781.74
462.40	418.96
462.59	484.49
462.77	383.85
462.95	421.30
463.13	430.66
463.32	374.49
463.50	393.21
463.68	538.32
463.86	416.62
464.05	437.68
464.23	425.98
464.41	418.96
464.59	402.57
464.78	348.74
464.96	421.30
465.14	402.57
465.32	346.40
465.50	390.87
465.69	393.21
465.87	339.38
466.05	381.51
466.23	454.06
466.41	465.77
466.60	393.21
466.78	430.66
466.96	418.96
467.14	402.57
467.32	449.38
467.51	416.62
467.69	442.36
467.87	482.15
468.05	428.32
468.23	489.17
468.41	416.62
468.60	421.30
468.78	428.32
468.96	463.43
469.14	470.45
469.32	407.25
469.50	425.98
469.69	458.74
469.87	437.68
470.05	369.80
470.23	379.17
470.41	344.06
470.59	393.21
470.77	395.55
470.95	414.27
471.14	444.70
471.32	428.32
471.50	411.93
471.68	383.85
471.86	421.30
472.04	402.57
472.22	390.87
472.40	386.19
472.58	447.04
472.77	414.27
472.95	454.06
473.13	449.38
473.31	440.02
473.49	435.34
473.67	447.04
473.85	477.47
474.03	484.49
474.21	404.91
474.39	463.43
474.57	339.38
474.75	411.93
474.93	388.53
475.12	407.25
475.30	421.30
475.48	447.04
475.66	454.06
475.84	393.21
476.02	421.30
476.20	433.00
476.38	418.96
476.56	404.91
476.74	489.17
476.92	374.49
477.10	337.04
477.28	423.64
477.46	400.23
477.64	465.77
477.82	346.40
478.00	416.62
478.18	341.72
478.36	416.62
478.54	468.11
478.72	428.32
478.90	425.98
479.08	411.93
479.26	348.74
479.44	381.51
479.62	292.57
479.80	414.27
479.98	440.02
480.16	400.23
480.34	397.89
480.52	397.89
480.70	393.21
480.88	379.17
481.06	451.72
481.24	376.83
481.41	423.64
481.59	428.32
481.77	482.15
481.95	372.15
482.13	400.23
482.31	334.70
482.49	489.17
482.67	472.79
482.85	510.24
483.03	397.89
483.21	365.12
483.39	444.70
483.57	395.55
483.74	409.59
483.92	390.87
484.10	402.57
484.28	484.49
484.46	475.13
484.64	381.51
484.82	411.93
485.00	407.25
485.18	418.96
485.35	355.76
485.53	383.85
485.71	468.11
485.89	348.74
486.07	390.87
486.25	428.32
486.43	393.21
486.61	379.17
486.78	383.85
486.96	393.21
487.14	397.89
487.32	437.68
487.50	428.32
487.68	411.93
487.85	404.91
488.03	383.85
488.21	447.04
488.39	468.11
488.57	379.17
488.75	395.55
488.92	470.45
489.10	517.26
489.28	433.00
489.46	470.45
489.64	442.36
489.81	444.70
489.99	444.70
490.17	390.87
490.35	500.87
490.53	472.79
490.70	440.02
490.88	484.49
491.06	430.66
491.24	383.85
491.41	479.81
491.59	437.68
491.77	381.51
491.95	416.62
492.13	423.64
492.30	372.15
492.48	430.66
492.66	395.55
492.84	351.08
493.01	430.66
493.19	372.15
493.37	444.70
493.54	344.06
493.72	425.98
493.90	428.32
494.08	360.44
494.25	344.06
494.43	465.77
494.61	411.93
494.79	397.89
494.96	433.00
495.14	393.21
495.32	386.19
495.49	512.58
495.67	447.04
495.85	414.27
496.02	444.70
496.20	414.27
496.38	430.66
496.55	437.68
496.73	362.78
496.91	423.64
497.09	475.13
497.26	393.21
497.44	381.51
497.62	379.17
497.79	402.57
497.97	454.06
498.14	461.09
498.32	451.72
498.50	416.62
498.67	444.70
498.85	430.66
499.03	395.55
499.20	409.59
499.38	386.19
499.56	454.06
499.73	484.49
499.91	498.53
500.08	463.43
500.26	395.55
500.44	393.21
500.61	423.64
500.79	362.78
500.97	451.72
501.14	407.25
501.32	447.04
501.49	449.38
501.67	428.32
501.84	468.11
502.02	430.66
502.20	402.57
502.37	444.70
502.55	397.89
502.72	416.62
502.90	433.00
503.07	440.02
503.25	360.44
503.43	362.78
503.60	400.23
503.78	395.55
503.95	435.34
504.13	348.74
504.30	411.93
504.48	449.38
504.65	433.00
504.83	409.59
505.01	374.49
505.18	358.10
505.36	400.23
505.53	416.62
505.71	348.74
505.88	458.74
506.06	433.00
506.23	437.68
506.41	381.51
506.58	404.91
506.76	362.78
506.93	463.43
507.11	421.30
507.28	404.91
507.46	402.57
507.63	360.44
507.81	416.62
507.98	423.64
508.16	433.00
508.33	397.89
508.50	367.46
508.68	437.68
508.85	367.46
509.03	369.80
509.20	372.15
509.38	449.38
509.55	411.93
509.73	390.87
509.90	440.02
510.08	386.19
510.25	379.17
510.42	325.33
510.60	369.80
510.77	435.34
510.95	425.98
511.12	468.11
511.30	456.40
511.47	360.44
511.64	468.11
511.82	383.85
511.99	402.57
512.17	437.68
512.34	411.93
512.51	421.30
512.69	372.15
512.86	428.32
513.04	379.17
513.21	433.00
513.38	440.02
513.56	369.80
513.73	341.72
513.90	386.19
514.08	416.62
514.25	381.51
514.43	358.10
514.60	397.89
514.77	337.04
514.95	414.27
515.12	463.43
515.29	451.72
515.47	409.59
515.64	463.43
515.81	365.12
515.99	409.59
516.16	383.85
516.33	491.51
516.51	465.77
516.68	400.23
516.85	393.21
517.03	425.98
517.20	447.04
517.37	416.62
517.54	353.42
517.72	433.00
517.89	386.19
518.06	470.45
518.24	507.90
518.41	437.68
518.58	454.06
518.75	416.62
518.93	430.66
519.10	475.13
519.27	442.36
519.45	505.56
519.62	461.09
519.79	454.06
519.96	390.87
520.14	496.19
520.31	416.62
520.48	395.55
520.65	365.12
520.83	388.53
521.00	435.34
521.17	421.30
521.34	383.85
521.52	423.64
521.69	395.55
521.86	430.66
522.03	489.17
522.20	449.38
522.38	386.19
522.55	409.59
522.72	367.46
522.89	418.96
523.07	444.70
523.24	402.57
523.41	332.36
523.58	360.44
523.75	423.64
523.92	409.59
524.10	379.17
524.27	390.87
524.44	400.23
524.61	472.79
524.78	437.68
524.96	400.23
525.13	451.72
525.30	451.72
525.47	454.06
525.64	379.17
525.81	447.04
525.98	507.90
526.16	444.70
526.33	369.80
526.50	362.78
526.67	358.10
526.84	374.49
527.01	355.76
527.18	454.06
527.36	393.21
527.53	381.51
527.70	468.11
527.87	379.17
528.04	521.94
528.21	440.02
528.38	425.98
528.55	414.27
528.72	383.85
528.89	400.23
529.07	409.59
529.24	440.02
529.41	442.36
529.58	372.15
529.75	463.43
529.92	355.76
530.09	313.63
530.26	416.62
530.43	447.04
530.60	339.38
530.77	400.23
530.94	433.00
531.11	402.57
531.28	393.21
531.46	372.15
531.63	411.93
531.80	444.70
531.97	404.91
532.14	374.49
532.31	334.70
532.48	383.85
532.65	449.38
532.82	379.17
532.99	393.21
533.16	386.19
533.33	475.13
533.50	454.06
533.67	425.98
533.84	402.57
534.01	379.17
534.18	428.32
534.35	454.06
534.52	435.34
534.69	449.38
534.86	386.19
535.03	407.25
535.20	404.91
535.37	447.04
535.54	437.68
535.71	428.32
535.88	402.57
536.05	376.83
536.22	362.78
536.38	409.59
536.55	425.98
536.72	400.23
536.89	351.08
537.06	428.32
537.23	397.89
537.40	423.64
537.57	334.70
537.74	425.98
537.91	435.34
538.08	442.36
538.25	491.51
538.42	409.59
538.59	404.91
538.75	437.68
538.92	423.64
539.09	454.06
539.26	454.06
539.43	390.87
539.60	465.77
539.77	388.53
539.94	367.46
540.11	496.19
540.28	395.55
540.44	491.51
540.61	395.55
540.78	442.36
540.95	416.62
541.12	465.77
541.29	461.09
541.46	402.57
541.62	456.40
541.79	353.42
541.96	374.49
542.13	358.10
542.30	428.32
542.47	449.38
542.63	414.27
542.80	423.64
542.97	454.06
543.14	496.19
543.31	414.27
543.48	407.25
543.64	404.91
543.81	409.59
543.98	381.51
544.15	433.00
544.32	404.91
544.48	379.17
544.65	402.57
544.82	409.59
544.99	440.02
545.16	442.36
545.32	407.25
545.49	379.17
545.66	388.53
545.83	393.21
546.00	447.04
546.16	404.91
546.33	456.40
546.50	418.96
546.67	456.40
546.83	418.96
547.00	442.36
547.17	372.15
547.34	395.55
547.50	388.53
547.67	418.96
547.84	437.68
548.00	425.98
548.17	435.34
548.34	388.53
548.51	407.25
548.67	397.89
548.84	379.17
549.01	418.96
549.18	500.87
549.34	418.96
549.51	451.72
549.68	428.32
549.84	414.27
550.01	367.46
550.18	470.45
550.34	493.85
550.51	437.68
550.68	465.77
550.84	503.22
551.01	395.55
551.18	407.25
551.34	379.17
551.51	472.79
551.68	423.64
551.84	369.80
552.01	393.21
552.18	451.72
552.34	388.53
552.51	418.96
552.68	437.68
552.84	376.83
553.01	372.15
553.18	418.96
553.34	421.30
553.51	388.53
553.67	475.13
553.84	381.51
554.01	461.09
554.17	358.10
554.34	388.53
554.51	395.55
554.67	451.72
554.84	365.12
555.00	341.72
555.17	442.36
555.33	390.87
555.50	507.90
555.67	407.25
555.83	374.49
556.00	454.06
556.16	552.37
556.33	458.74
556.50	442.36
556.66	454.06
556.83	390.87
556.99	379.17
557.16	414.27
557.32	423.64
557.49	397.89
557.65	372.15
557.82	404.91
557.98	428.32
558.15	451.72
558.32	416.62
558.48	447.04
558.65	402.57
558.81	447.04
558.98	447.04
559.14	463.43
559.31	369.80
559.47	433.00
559.64	365.12
559.80	395.55
559.97	355.76
560.13	369.80
560.30	409.59
560.46	360.44
560.63	461.09
560.79	435.34
560.96	418.96
561.12	390.87
561.29	372.15
561.45	355.76
561.61	411.93
561.78	418.96
561.94	418.96
562.11	395.55
562.27	468.11
562.44	435.34
562.60	400.23
562.77	395.55
562.93	421.30
563.10	496.19
563.26	447.04
563.42	444.70
563.59	475.13
563.75	442.36
563.92	470.45
564.08	397.89
564.24	444.70
564.41	421.30
564.57	416.62
564.74	421.30
564.90	416.62
565.07	440.02
565.23	465.77
565.39	395.55
565.56	437.68
565.72	414.27
565.88	383.85
566.05	442.36
566.21	376.83
566.38	442.36
566.54	299.59
566.70	381.51
566.87	435.34
567.03	418.96
567.19	360.44
567.36	404.91
567.52	339.38
567.68	486.83
567.85	458.74
568.01	472.79
568.17	404.91
568.34	400.23
568.50	430.66
568.66	383.85
568.83	498.53
568.99	365.12
569.15	353.42
569.32	437.68
569.48	428.32
569.64	400.23
569.81	393.21
569.97	390.87
570.13	358.10
570.30	414.27
570.46	341.72
570.62	395.55
570.78	379.17
570.95	313.63
571.11	435.34
571.27	451.72
571.43	402.57
571.60	440.02
571.76	402.57
571.92	444.70
572.09	404.91
572.25	444.70
572.41	404.91
572.57	404.91
572.74	461.09
572.90	428.32
573.06	423.64
573.22	437.68
573.38	402.57
573.55	379.17
573.71	367.46
573.87	484.49
574.03	470.45
574.20	421.30
574.36	489.17
574.52	358.10
574.68	421.30
574.84	421.30
575.01	470.45
575.17	418.96
575.33	461.09
575.49	425.98
575.65	451.72
575.82	367.46
575.98	423.64
576.14	479.81
576.30	362.78
576.46	381.51
576.62	433.00
576.79	341.72
576.95	433.00
577.11	444.70
577.27	379.17
577.43	428.32
577.59	386.19
577.75	379.17
577.92	407.25
578.08	322.99
578.24	418.96
578.40	449.38
578.56	416.62
578.72	489.17
578.88	372.15
579.04	362.78
579.21	411.93
579.37	442.36
579.53	397.89
579.69	404.91
579.85	444.70
580.01	482.15
580.17	433.00
580.33	409.59
580.49	433.00
580.65	409.59
580.82	472.79
580.98	430.66
581.14	414.27
581.30	477.47
581.46	449.38
581.62	451.72
581.78	479.81
581.94	472.79
582.10	381.51
582.26	404.91
582.42	400.23
582.58	465.77
582.74	404.91
582.90	360.44
583.06	374.49
583.22	346.40
583.38	428.32
583.54	346.40
583.70	437.68
583.86	390.87
584.02	376.83
584.18	475.13
584.34	425.98
584.50	479.81
584.66	351.08
584.82	428.32
584.98	479.81
585.14	367.46
585.30	395.55
585.46	418.96
585.62	386.19
585.78	418.96
585.94	440.02
586.10	372.15
586.26	414.27
586.42	440.02
586.58	407.25
586.74	348.74
586.90	461.09
587.06	400.23
587.22	430.66
587.38	411.93
587.54	411.93
587.70	468.11
587.86	468.11
588.02	454.06
588.18	351.08
588.34	411.93
588.49	397.89
588.65	367.46
588.81	383.85
588.97	433.00
589.13	386.19
589.29	461.09
589.45	477.47
589.61	402.57
589.77	381.51
589.93	386.19
590.08	454.06
590.24	388.53
590.40	353.42
590.56	428.32
590.72	367.46
590.88	411.93
591.04	463.43
591.20	416.62
591.35	463.43
591.51	362.78
591.67	421.30
591.83	348.74
591.99	423.64
592.15	397.89
592.31	402.57
592.46	440.02
592.62	379.17
592.78	395.55
592.94	374.49
593.10	421.30
593.26	372.15
593.41	362.78
593.57	442.36
593.73	428.32
593.89	402.57
594.05	475.13
594.20	348.74
594.36	477.47
594.52	423.64
594.68	435.34
594.84	423.64
594.99	486.83
595.15	416.62
595.31	423.64
595.47	430.66
595.62	397.89
595.78	362.78
595.94	414.27
596.10	477.47
596.25	409.59
596.41	435.34
596.57	374.49
596.73	430.66
596.88	393.21
597.04	402.57
597.20	397.89
597.36	369.80
597.51	425.98
597.67	447.04
597.83	365.12
597.99	395.55
598.14	379.17
598.30	472.79
598.46	404.91
598.61	493.85
598.77	500.87
598.93	397.89
599.09	477.47
599.24	407.25
599.40	418.96
599.56	374.49
599.71	407.25
599.87	454.06
600.03	454.06
600.18	454.06
600.34	472.79
600.50	358.10
600.65	414.27
600.81	388.53
600.97	372.15
601.12	447.04
601.28	437.68
601.44	454.06
601.59	381.51
601.75	463.43
601.91	393.21
602.06	383.85
602.22	444.70
602.37	418.96
602.53	444.70
602.69	458.74
602.84	388.53
603.00	390.87
603.16	353.42
603.31	379.17
603.47	416.62
603.62	393.21
603.78	400.23
603.94	381.51
604.09	428.32
604.25	395.55
604.40	442.36
604.56	418.96
604.71	383.85
604.87	423.64
605.03	386.19
605.18	395.55
605.34	442.36
605.49	407.25
605.65	437.68
605.80	425.98
605.96	369.80
606.12	411.93
606.27	400.23
606.43	489.17
606.58	421.30
606.74	374.49
606.89	407.25
607.05	393.21
607.20	381.51
607.36	383.85
607.51	404.91
607.67	397.89
607.82	414.27
607.98	444.70
608.13	423.64
608.29	388.53
608.44	421.30
608.60	421.30
608.75	395.55
608.91	433.00
609.06	449.38
609.22	442.36
609.37	414.27
609.53	465.77
609.68	353.42
609.84	437.68
609.99	454.06
610.15	454.06
