SpectraSuite Data File
++++++++++++++++++++++++++++++++++++
Date: Fri Oct 25 12:10:56 EDT 2013
User: price-jones
Dark Spectrum Present: No
Reference Spectrum Present: No
Number of Sampled Component Spectra: 1
Spectrometers: USB2+H05261
Integration Time (usec): 100000 (USB2+H05261)
Spectra Averaged: 1 (USB2+H05261)
Boxcar Smoothing: 0 (USB2+H05261)
Correct for Electrical Dark: No (USB2+H05261)
Strobe/Lamp Enabled: No (USB2+H05261)
Correct for Detector Non-linearity: No (USB2+H05261)
Correct for Stray Light: No (USB2+H05261)
Number of Pixels in Processed Spectrum: 2048
>>>>>Begin Processed Spectral Data<<<<<
365.73	381.51
365.92	381.51
366.12	381.51
366.32	236.39
366.52	250.44
366.72	238.73
366.91	163.84
367.11	215.33
367.31	187.24
367.51	217.67
367.70	234.05
367.90	337.04
368.10	231.71
368.30	208.31
368.49	131.07
368.69	245.76
368.89	182.56
369.09	269.16
369.28	290.23
369.48	255.12
369.68	271.50
369.87	255.12
370.07	322.99
370.27	346.40
370.47	308.95
370.66	362.78
370.86	301.93
371.06	369.80
371.25	430.66
371.45	330.02
371.65	372.15
371.84	320.65
372.04	381.51
372.24	358.10
372.44	353.42
372.63	463.43
372.83	388.53
373.03	348.74
373.22	414.27
373.42	409.59
373.62	433.00
373.81	379.17
374.01	411.93
374.21	397.89
374.40	423.64
374.60	475.13
374.79	440.02
374.99	379.17
375.19	402.57
375.38	451.72
375.58	463.43
375.78	444.70
375.97	430.66
376.17	423.64
376.37	416.62
376.56	409.59
376.76	388.53
376.95	381.51
377.15	348.74
377.35	411.93
377.54	381.51
377.74	418.96
377.93	479.81
378.13	379.17
378.33	423.64
378.52	355.76
378.72	374.49
378.91	395.55
379.11	411.93
379.31	409.59
379.50	402.57
379.70	442.36
379.89	425.98
380.09	437.68
380.28	348.74
380.48	407.25
380.68	381.51
380.87	351.08
381.07	458.74
381.26	395.55
381.46	395.55
381.65	376.83
381.85	449.38
382.04	402.57
382.24	404.91
382.43	379.17
382.63	379.17
382.83	313.63
383.02	440.02
383.22	383.85
383.41	381.51
383.61	407.25
383.80	421.30
384.00	435.34
384.19	346.40
384.39	425.98
384.58	379.17
384.78	475.13
384.97	341.72
385.17	463.43
385.36	407.25
385.56	416.62
385.75	351.08
385.95	400.23
386.14	491.51
386.34	400.23
386.53	444.70
386.72	456.40
386.92	425.98
387.11	454.06
387.31	409.59
387.50	451.72
387.70	423.64
387.89	456.40
388.09	325.33
388.28	383.85
388.48	393.21
388.67	381.51
388.86	390.87
389.06	353.42
389.25	472.79
389.45	404.91
389.64	358.10
389.84	402.57
390.03	393.21
390.22	407.25
390.42	421.30
390.61	407.25
390.81	360.44
391.00	376.83
391.19	423.64
391.39	423.64
391.58	348.74
391.78	451.72
391.97	449.38
392.16	400.23
392.36	404.91
392.55	437.68
392.75	393.21
392.94	344.06
393.13	437.68
393.33	416.62
393.52	404.91
393.71	423.64
393.91	477.47
394.10	400.23
394.29	320.65
394.49	411.93
394.68	430.66
394.88	440.02
395.07	322.99
395.26	475.13
395.46	390.87
395.65	402.57
395.84	425.98
396.04	440.02
396.23	388.53
396.42	409.59
396.62	372.15
396.81	449.38
397.00	461.09
397.19	444.70
397.39	365.12
397.58	372.15
397.77	407.25
397.97	330.02
398.16	421.30
398.35	470.45
398.55	372.15
398.74	367.46
398.93	351.08
399.12	414.27
399.32	379.17
399.51	360.44
399.70	388.53
399.90	416.62
400.09	463.43
400.28	395.55
400.47	421.30
400.67	437.68
400.86	449.38
401.05	416.62
401.24	425.98
401.44	458.74
401.63	428.32
401.82	353.42
402.01	348.74
402.21	409.59
402.40	461.09
402.59	430.66
402.78	369.80
402.97	449.38
403.17	360.44
403.36	423.64
403.55	433.00
403.74	400.23
403.93	379.17
404.13	444.70
404.32	421.30
404.51	435.34
404.70	479.81
404.89	418.96
405.09	386.19
405.28	425.98
405.47	383.85
405.66	344.06
405.85	386.19
406.05	423.64
406.24	395.55
406.43	383.85
406.62	444.70
406.81	402.57
407.00	416.62
407.20	411.93
407.39	358.10
407.58	393.21
407.77	423.64
407.96	470.45
408.15	369.80
408.34	425.98
408.54	449.38
408.73	472.79
408.92	407.25
409.11	454.06
409.30	479.81
409.49	444.70
409.68	423.64
409.87	395.55
410.07	383.85
410.26	362.78
410.45	362.78
410.64	421.30
410.83	388.53
411.02	433.00
411.21	461.09
411.40	503.22
411.59	456.40
411.78	351.08
411.98	355.76
412.17	402.57
412.36	421.30
412.55	414.27
412.74	404.91
412.93	381.51
413.12	311.29
413.31	358.10
413.50	491.51
413.69	486.83
413.88	451.72
414.07	397.89
414.26	435.34
414.45	461.09
414.64	365.12
414.83	388.53
415.02	463.43
415.22	404.91
415.41	458.74
415.60	433.00
415.79	376.83
415.98	362.78
416.17	454.06
416.36	433.00
416.55	411.93
416.74	451.72
416.93	379.17
417.12	379.17
417.31	397.89
417.50	374.49
417.69	440.02
417.88	320.65
418.07	360.44
418.26	411.93
418.45	390.87
418.64	449.38
418.83	421.30
419.02	456.40
419.21	320.65
419.39	388.53
419.58	442.36
419.77	386.19
419.96	397.89
420.15	421.30
420.34	407.25
420.53	407.25
420.72	435.34
420.91	425.98
421.10	411.93
421.29	428.32
421.48	376.83
421.67	428.32
421.86	414.27
422.05	395.55
422.24	397.89
422.43	358.10
422.61	407.25
422.80	397.89
422.99	418.96
423.18	470.45
423.37	402.57
423.56	388.53
423.75	411.93
423.94	355.76
424.13	386.19
424.32	416.62
424.50	287.89
424.69	416.62
424.88	447.04
425.07	383.85
425.26	449.38
425.45	414.27
425.64	369.80
425.83	407.25
426.01	423.64
426.20	353.42
426.39	435.34
426.58	372.15
426.77	383.85
426.96	409.59
427.15	437.68
427.33	393.21
427.52	437.68
427.71	407.25
427.90	454.06
428.09	360.44
428.28	414.27
428.46	456.40
428.65	477.47
428.84	447.04
429.03	409.59
429.22	433.00
429.40	362.78
429.59	437.68
429.78	461.09
429.97	411.93
430.16	407.25
430.34	402.57
430.53	404.91
430.72	437.68
430.91	376.83
431.10	379.17
431.28	374.49
431.47	416.62
431.66	442.36
431.85	400.23
432.03	447.04
432.22	442.36
432.41	402.57
432.60	437.68
432.79	416.62
432.97	386.19
433.16	407.25
433.35	376.83
433.54	390.87
433.72	425.98
433.91	447.04
434.10	376.83
434.28	468.11
434.47	416.62
434.66	414.27
434.85	423.64
435.03	404.91
435.22	458.74
435.41	461.09
435.59	477.47
435.78	414.27
435.97	465.77
436.16	418.96
436.34	404.91
436.53	428.32
436.72	402.57
436.90	433.00
437.09	479.81
437.28	393.21
437.46	400.23
437.65	433.00
437.84	365.12
438.02	386.19
438.21	376.83
438.40	395.55
438.58	379.17
438.77	390.87
438.96	416.62
439.14	416.62
439.33	496.19
439.52	379.17
439.70	489.17
439.89	442.36
440.08	409.59
440.26	367.46
440.45	353.42
440.63	409.59
440.82	498.53
441.01	479.81
441.19	423.64
441.38	397.89
441.57	440.02
441.75	468.11
441.94	449.38
442.12	402.57
442.31	395.55
442.50	358.10
442.68	468.11
442.87	524.28
443.05	402.57
443.24	348.74
443.43	461.09
443.61	414.27
443.80	411.93
443.98	468.11
444.17	418.96
444.35	456.40
444.54	421.30
444.73	372.15
444.91	430.66
445.10	414.27
445.28	421.30
445.47	425.98
445.65	355.76
445.84	423.64
446.02	327.68
446.21	444.70
446.39	402.57
446.58	355.76
446.77	372.15
446.95	379.17
447.14	418.96
447.32	482.15
447.51	433.00
447.69	397.89
447.88	447.04
448.06	369.80
448.25	414.27
448.43	402.57
448.62	400.23
448.80	402.57
448.99	468.11
449.17	451.72
449.36	390.87
449.54	437.68
449.73	397.89
449.91	393.21
450.10	421.30
450.28	461.09
450.46	418.96
450.65	381.51
450.83	411.93
451.02	372.15
451.20	393.21
451.39	395.55
451.57	355.76
451.76	425.98
451.94	470.45
452.13	418.96
452.31	372.15
452.49	437.68
452.68	348.74
452.86	379.17
453.05	447.04
453.23	383.85
453.42	402.57
453.60	465.77
453.78	362.78
453.97	390.87
454.15	428.32
454.34	454.06
454.52	376.83
454.70	418.96
454.89	444.70
455.07	477.47
455.26	465.77
455.44	400.23
455.62	414.27
455.81	414.27
455.99	395.55
456.17	454.06
456.36	437.68
456.54	475.13
456.73	409.59
456.91	390.87
457.09	404.91
457.28	477.47
457.46	416.62
457.64	404.91
457.83	498.53
458.01	369.80
458.19	423.64
458.38	440.02
458.56	435.34
458.74	395.55
458.93	374.49
459.11	386.19
459.29	383.85
459.48	461.09
459.66	407.25
459.84	414.27
460.03	447.04
460.21	444.70
460.39	437.68
460.57	430.66
460.76	442.36
460.94	404.91
461.12	449.38
461.31	433.00
461.49	447.04
461.67	423.64
461.85	430.66
462.04	437.68
462.22	767.70
462.40	454.06
462.59	454.06
462.77	409.59
462.95	334.70
463.13	416.62
463.32	451.72
463.50	395.55
463.68	383.85
463.86	418.96
464.05	430.66
464.23	454.06
464.41	458.74
464.59	400.23
464.78	346.40
464.96	409.59
465.14	458.74
465.32	379.17
465.50	416.62
465.69	475.13
465.87	458.74
466.05	393.21
466.23	353.42
466.41	477.47
466.60	442.36
466.78	411.93
466.96	468.11
467.14	425.98
467.32	465.77
467.51	386.19
467.69	393.21
467.87	418.96
468.05	388.53
468.23	400.23
468.41	425.98
468.60	430.66
468.78	447.04
468.96	400.23
469.14	388.53
469.32	386.19
469.50	428.32
469.69	486.83
469.87	404.91
470.05	428.32
470.23	365.12
470.41	404.91
470.59	358.10
470.77	388.53
470.95	428.32
471.14	475.13
471.32	416.62
471.50	360.44
471.68	423.64
471.86	472.79
472.04	411.93
472.22	397.89
472.40	402.57
472.58	407.25
472.77	390.87
472.95	414.27
473.13	383.85
473.31	468.11
473.49	397.89
473.67	376.83
473.85	404.91
474.03	430.66
474.21	423.64
474.39	500.87
474.57	411.93
474.75	388.53
474.93	423.64
475.12	409.59
475.30	423.64
475.48	475.13
475.66	374.49
475.84	440.02
476.02	416.62
476.20	383.85
476.38	472.79
476.56	463.43
476.74	397.89
476.92	465.77
477.10	379.17
477.28	416.62
477.46	372.15
477.64	414.27
477.82	447.04
478.00	411.93
478.18	374.49
478.36	376.83
478.54	390.87
478.72	507.90
478.90	454.06
479.08	423.64
479.26	379.17
479.44	348.74
479.62	423.64
479.80	440.02
479.98	322.99
480.16	395.55
480.34	400.23
480.52	421.30
480.70	395.55
480.88	360.44
481.06	425.98
481.24	421.30
481.41	486.83
481.59	461.09
481.77	442.36
481.95	379.17
482.13	496.19
482.31	402.57
482.49	397.89
482.67	402.57
482.85	425.98
483.03	461.09
483.21	418.96
483.39	397.89
483.57	475.13
483.74	461.09
483.92	341.72
484.10	393.21
484.28	505.56
484.46	444.70
484.64	468.11
484.82	407.25
485.00	409.59
485.18	472.79
485.35	479.81
485.53	351.08
485.71	435.34
485.89	393.21
486.07	421.30
486.25	447.04
486.43	468.11
486.61	425.98
486.78	423.64
486.96	374.49
487.14	402.57
487.32	379.17
487.50	423.64
487.68	369.80
487.85	458.74
488.03	418.96
488.21	479.81
488.39	372.15
488.57	400.23
488.75	379.17
488.92	503.22
489.10	418.96
489.28	425.98
489.46	416.62
489.64	486.83
489.81	404.91
489.99	437.68
490.17	355.76
490.35	395.55
490.53	484.49
490.70	421.30
490.88	451.72
491.06	400.23
491.24	390.87
491.41	440.02
491.59	477.47
491.77	402.57
491.95	407.25
492.13	379.17
492.30	470.45
492.48	444.70
492.66	496.19
492.84	407.25
493.01	440.02
493.19	416.62
493.37	442.36
493.54	404.91
493.72	437.68
493.90	409.59
494.08	425.98
494.25	463.43
494.43	372.15
494.61	383.85
494.79	362.78
494.96	322.99
495.14	458.74
495.32	390.87
495.49	437.68
495.67	376.83
495.85	418.96
496.02	313.63
496.20	407.25
496.38	442.36
496.55	449.38
496.73	386.19
496.91	437.68
497.09	407.25
497.26	404.91
497.44	454.06
497.62	433.00
497.79	407.25
497.97	454.06
498.14	435.34
498.32	465.77
498.50	390.87
498.67	367.46
498.85	365.12
499.03	435.34
499.20	442.36
499.38	421.30
499.56	449.38
499.73	400.23
499.91	374.49
500.08	402.57
500.26	433.00
500.44	395.55
500.61	423.64
500.79	337.04
500.97	472.79
501.14	418.96
501.32	440.02
501.49	507.90
501.67	360.44
501.84	388.53
502.02	386.19
502.20	388.53
502.37	435.34
502.55	388.53
502.72	372.15
502.90	395.55
503.07	367.46
503.25	390.87
503.43	353.42
503.60	397.89
503.78	433.00
503.95	421.30
504.13	449.38
504.30	421.30
504.48	348.74
504.65	430.66
504.83	442.36
505.01	397.89
505.18	395.55
505.36	437.68
505.53	390.87
505.71	383.85
505.88	437.68
506.06	461.09
506.23	456.40
506.41	416.62
506.58	442.36
506.76	421.30
506.93	421.30
507.11	468.11
507.28	447.04
507.46	348.74
507.63	440.02
507.81	374.49
507.98	393.21
508.16	472.79
508.33	341.72
508.50	365.12
508.68	435.34
508.85	468.11
509.03	447.04
509.20	451.72
509.38	409.59
509.55	517.26
509.73	440.02
509.90	465.77
510.08	430.66
510.25	425.98
510.42	388.53
510.60	416.62
510.77	461.09
510.95	461.09
511.12	393.21
511.30	444.70
511.47	472.79
511.64	524.28
511.82	440.02
511.99	372.15
512.17	397.89
512.34	383.85
512.51	351.08
512.69	294.91
512.86	400.23
513.04	477.47
513.21	421.30
513.38	404.91
513.56	388.53
513.73	395.55
513.90	468.11
514.08	454.06
514.25	297.25
514.43	376.83
514.60	353.42
514.77	388.53
514.95	418.96
515.12	428.32
515.29	428.32
515.47	411.93
515.64	442.36
515.81	425.98
515.99	451.72
516.16	454.06
516.33	449.38
516.51	393.21
516.68	435.34
516.85	404.91
517.03	358.10
517.20	367.46
517.37	407.25
517.54	496.19
517.72	433.00
517.89	414.27
518.06	433.00
518.24	433.00
518.41	491.51
518.58	372.15
518.75	397.89
518.93	440.02
519.10	372.15
519.27	383.85
519.45	404.91
519.62	477.47
519.79	374.49
519.96	423.64
520.14	379.17
520.31	409.59
520.48	440.02
520.65	479.81
520.83	339.38
521.00	479.81
521.17	425.98
521.34	449.38
521.52	393.21
521.69	447.04
521.86	388.53
522.03	482.15
522.20	425.98
522.38	400.23
522.55	409.59
522.72	388.53
522.89	451.72
523.07	451.72
523.24	416.62
523.41	395.55
523.58	425.98
523.75	421.30
523.92	341.72
524.10	418.96
524.27	344.06
524.44	372.15
524.61	433.00
524.78	355.76
524.96	423.64
525.13	440.02
525.30	489.17
525.47	409.59
525.64	472.79
525.81	468.11
525.98	428.32
526.16	472.79
526.33	437.68
526.50	418.96
526.67	379.17
526.84	411.93
527.01	400.23
527.18	414.27
527.36	404.91
527.53	440.02
527.70	482.15
527.87	449.38
528.04	423.64
528.21	362.78
528.38	369.80
528.55	400.23
528.72	397.89
528.89	461.09
529.07	360.44
529.24	374.49
529.41	465.77
529.58	433.00
529.75	444.70
529.92	444.70
530.09	449.38
530.26	416.62
530.43	388.53
530.60	440.02
530.77	493.85
530.94	402.57
531.11	395.55
531.28	381.51
531.46	374.49
531.63	440.02
531.80	393.21
531.97	479.81
532.14	402.57
532.31	416.62
532.48	421.30
532.65	402.57
532.82	435.34
532.99	416.62
533.16	411.93
533.33	423.64
533.50	418.96
533.67	482.15
533.84	421.30
534.01	428.32
534.18	353.42
534.35	430.66
534.52	482.15
534.69	461.09
534.86	407.25
535.03	433.00
535.20	435.34
535.37	442.36
535.54	430.66
535.71	414.27
535.88	461.09
536.05	421.30
536.22	416.62
536.38	400.23
536.55	407.25
536.72	374.49
536.89	388.53
537.06	468.11
537.23	374.49
537.40	365.12
537.57	306.61
537.74	428.32
537.91	421.30
538.08	409.59
538.25	447.04
538.42	447.04
538.59	390.87
538.75	458.74
538.92	430.66
539.09	465.77
539.26	428.32
539.43	505.56
539.60	423.64
539.77	390.87
539.94	379.17
540.11	437.68
540.28	433.00
540.44	411.93
540.61	404.91
540.78	416.62
540.95	414.27
541.12	404.91
541.29	447.04
541.46	416.62
541.62	381.51
541.79	360.44
541.96	334.70
542.13	365.12
542.30	435.34
542.47	456.40
542.63	411.93
542.80	409.59
542.97	433.00
543.14	379.17
543.31	423.64
543.48	360.44
543.64	428.32
543.81	421.30
543.98	344.06
544.15	407.25
544.32	360.44
544.48	397.89
544.65	386.19
544.82	397.89
544.99	404.91
545.16	402.57
545.32	440.02
545.49	496.19
545.66	428.32
545.83	386.19
546.00	442.36
546.16	472.79
546.33	458.74
546.50	404.91
546.67	437.68
546.83	425.98
547.00	397.89
547.17	421.30
547.34	346.40
547.50	465.77
547.67	447.04
547.84	325.33
548.00	449.38
548.17	362.78
548.34	395.55
548.51	397.89
548.67	400.23
548.84	496.19
549.01	381.51
549.18	442.36
549.34	430.66
549.51	411.93
549.68	430.66
549.84	447.04
550.01	400.23
550.18	486.83
550.34	489.17
550.51	421.30
550.68	386.19
550.84	369.80
551.01	414.27
551.18	418.96
551.34	379.17
551.51	388.53
551.68	374.49
551.84	433.00
552.01	447.04
552.18	447.04
552.34	383.85
552.51	458.74
552.68	451.72
552.84	440.02
553.01	463.43
553.18	435.34
553.34	402.57
553.51	447.04
553.67	440.02
553.84	362.78
554.01	503.22
554.17	440.02
554.34	442.36
554.51	465.77
554.67	477.47
554.84	503.22
555.00	475.13
555.17	376.83
555.33	444.70
555.50	477.47
555.67	416.62
555.83	348.74
556.00	475.13
556.16	524.28
556.33	425.98
556.50	451.72
556.66	404.91
556.83	407.25
556.99	407.25
557.16	425.98
557.32	430.66
557.49	428.32
557.65	418.96
557.82	390.87
557.98	425.98
558.15	341.72
558.32	402.57
558.48	372.15
558.65	386.19
558.81	451.72
558.98	355.76
559.14	458.74
559.31	395.55
559.47	451.72
559.64	416.62
559.80	428.32
559.97	402.57
560.13	400.23
560.30	390.87
560.46	465.77
560.63	454.06
560.79	449.38
560.96	428.32
561.12	407.25
561.29	414.27
561.45	451.72
561.61	418.96
561.78	472.79
561.94	318.31
562.11	503.22
562.27	479.81
562.44	447.04
562.60	435.34
562.77	437.68
562.93	425.98
563.10	351.08
563.26	386.19
563.42	409.59
563.59	442.36
563.75	404.91
563.92	416.62
564.08	491.51
564.24	414.27
564.41	456.40
564.57	372.15
564.74	491.51
564.90	451.72
565.07	418.96
565.23	430.66
565.39	344.06
565.56	404.91
565.72	475.13
565.88	503.22
566.05	395.55
566.21	489.17
566.38	379.17
566.54	428.32
566.70	337.04
566.87	435.34
567.03	440.02
567.19	404.91
567.36	388.53
567.52	411.93
567.68	407.25
567.85	447.04
568.01	421.30
568.17	383.85
568.34	510.24
568.50	411.93
568.66	440.02
568.83	477.47
568.99	416.62
569.15	484.49
569.32	468.11
569.48	440.02
569.64	402.57
569.81	421.30
569.97	386.19
570.13	440.02
570.30	390.87
570.46	430.66
570.62	428.32
570.78	367.46
570.95	360.44
571.11	393.21
571.27	425.98
571.43	418.96
571.60	376.83
571.76	388.53
571.92	376.83
572.09	346.40
572.25	372.15
572.41	402.57
572.57	437.68
572.74	486.83
572.90	451.72
573.06	388.53
573.22	493.85
573.38	444.70
573.55	416.62
573.71	433.00
573.87	442.36
574.03	454.06
574.20	451.72
574.36	442.36
574.52	435.34
574.68	400.23
574.84	451.72
575.01	463.43
575.17	423.64
575.33	435.34
575.49	486.83
575.65	451.72
575.82	430.66
575.98	409.59
576.14	374.49
576.30	379.17
576.46	393.21
576.62	418.96
576.79	418.96
576.95	421.30
577.11	425.98
577.27	416.62
577.43	418.96
577.59	451.72
577.75	418.96
577.92	437.68
578.08	435.34
578.24	486.83
578.40	437.68
578.56	442.36
578.72	475.13
578.88	416.62
579.04	409.59
579.21	409.59
579.37	365.12
579.53	461.09
579.69	449.38
579.85	390.87
580.01	353.42
580.17	411.93
580.33	447.04
580.49	440.02
580.65	402.57
580.82	418.96
580.98	437.68
581.14	395.55
581.30	465.77
581.46	351.08
581.62	463.43
581.78	411.93
581.94	458.74
582.10	386.19
582.26	383.85
582.42	369.80
582.58	435.34
582.74	376.83
582.90	423.64
583.06	454.06
583.22	458.74
583.38	400.23
583.54	379.17
583.70	433.00
583.86	477.47
584.02	451.72
584.18	390.87
584.34	402.57
584.50	409.59
584.66	404.91
584.82	369.80
584.98	475.13
585.14	416.62
585.30	374.49
585.46	365.12
585.62	449.38
585.78	365.12
585.94	461.09
586.10	381.51
586.26	456.40
586.42	437.68
586.58	369.80
586.74	418.96
586.90	423.64
587.06	400.23
587.22	447.04
587.38	425.98
587.54	440.02
587.70	339.38
587.86	418.96
588.02	463.43
588.18	421.30
588.34	454.06
588.49	397.89
588.65	430.66
588.81	383.85
588.97	393.21
589.13	395.55
589.29	465.77
589.45	458.74
589.61	416.62
589.77	477.47
589.93	425.98
590.08	386.19
590.24	418.96
590.40	458.74
590.56	468.11
590.72	430.66
590.88	376.83
591.04	418.96
591.20	381.51
591.35	418.96
591.51	425.98
591.67	444.70
591.83	416.62
591.99	404.91
592.15	461.09
592.31	440.02
592.46	411.93
592.62	456.40
592.78	348.74
592.94	404.91
593.10	348.74
593.26	418.96
593.41	409.59
593.57	407.25
593.73	463.43
593.89	444.70
594.05	400.23
594.20	400.23
594.36	437.68
594.52	362.78
594.68	381.51
594.84	435.34
594.99	454.06
595.15	428.32
595.31	400.23
595.47	463.43
595.62	379.17
595.78	409.59
595.94	390.87
596.10	449.38
596.25	409.59
596.41	400.23
596.57	418.96
596.73	418.96
596.88	449.38
597.04	428.32
597.20	404.91
597.36	484.49
597.51	379.17
597.67	404.91
597.83	418.96
597.99	458.74
598.14	416.62
598.30	430.66
598.46	428.32
598.61	425.98
598.77	425.98
598.93	376.83
599.09	374.49
599.24	386.19
599.40	437.68
599.56	353.42
599.71	374.49
599.87	411.93
600.03	505.56
600.18	393.21
600.34	461.09
600.50	376.83
600.65	372.15
600.81	465.77
600.97	430.66
601.12	437.68
601.28	433.00
601.44	402.57
601.59	353.42
601.75	463.43
601.91	409.59
602.06	454.06
602.22	498.53
602.37	486.83
602.53	353.42
602.69	388.53
602.84	334.70
603.00	440.02
603.16	344.06
603.31	447.04
603.47	430.66
603.62	472.79
603.78	435.34
603.94	425.98
604.09	447.04
604.25	400.23
604.40	463.43
604.56	463.43
604.71	440.02
604.87	451.72
605.03	416.62
605.18	411.93
605.34	404.91
605.49	372.15
605.65	381.51
605.80	421.30
605.96	451.72
606.12	454.06
606.27	362.78
606.43	430.66
606.58	421.30
606.74	411.93
606.89	395.55
607.05	381.51
607.20	411.93
607.36	472.79
607.51	418.96
607.67	451.72
607.82	510.24
607.98	425.98
608.13	425.98
608.29	421.30
608.44	528.96
608.60	414.27
608.75	423.64
608.91	390.87
609.06	449.38
609.22	451.72
609.37	409.59
609.53	379.17
609.68	449.38
609.84	320.65
609.99	397.89
610.15	414.27
