SpectraSuite Data File
++++++++++++++++++++++++++++++++++++
Date: Fri Oct 25 12:10:27 EDT 2013
User: price-jones
Dark Spectrum Present: No
Reference Spectrum Present: No
Number of Sampled Component Spectra: 1
Spectrometers: USB2+H05261
Integration Time (usec): 100000 (USB2+H05261)
Spectra Averaged: 1 (USB2+H05261)
Boxcar Smoothing: 0 (USB2+H05261)
Correct for Electrical Dark: No (USB2+H05261)
Strobe/Lamp Enabled: No (USB2+H05261)
Correct for Detector Non-linearity: No (USB2+H05261)
Correct for Stray Light: No (USB2+H05261)
Number of Pixels in Processed Spectrum: 2048
>>>>>Begin Processed Spectral Data<<<<<
365.73	325.33
365.92	325.33
366.12	325.33
366.32	318.31
366.52	271.50
366.72	278.52
366.91	229.37
367.11	257.46
367.31	220.01
367.51	229.37
367.70	224.69
367.90	236.39
368.10	217.67
368.30	308.95
368.49	227.03
368.69	243.42
368.89	308.95
369.09	196.60
369.28	191.92
369.48	248.10
369.68	304.27
369.87	318.31
370.07	306.61
370.27	390.87
370.47	383.85
370.66	381.51
370.86	386.19
371.06	369.80
371.25	404.91
371.45	388.53
371.65	381.51
371.84	381.51
372.04	360.44
372.24	393.21
372.44	348.74
372.63	381.51
372.83	341.72
373.03	425.98
373.22	315.97
373.42	374.49
373.62	451.72
373.81	388.53
374.01	397.89
374.21	517.26
374.40	454.06
374.60	418.96
374.79	425.98
374.99	468.11
375.19	491.51
375.38	339.38
375.58	447.04
375.78	390.87
375.97	404.91
376.17	435.34
376.37	358.10
376.56	468.11
376.76	407.25
376.95	388.53
377.15	451.72
377.35	411.93
377.54	379.17
377.74	409.59
377.93	437.68
378.13	447.04
378.33	428.32
378.52	362.78
378.72	376.83
378.91	449.38
379.11	433.00
379.31	395.55
379.50	447.04
379.70	430.66
379.89	484.49
380.09	360.44
380.28	386.19
380.48	369.80
380.68	395.55
380.87	425.98
381.07	491.51
381.26	454.06
381.46	365.12
381.65	397.89
381.85	395.55
382.04	297.25
382.24	334.70
382.43	435.34
382.63	383.85
382.83	402.57
383.02	409.59
383.22	451.72
383.41	404.91
383.61	423.64
383.80	440.02
384.00	433.00
384.19	404.91
384.39	477.47
384.58	421.30
384.78	383.85
384.97	407.25
385.17	442.36
385.36	362.78
385.56	437.68
385.75	383.85
385.95	383.85
386.14	428.32
386.34	358.10
386.53	407.25
386.72	416.62
386.92	360.44
387.11	395.55
387.31	472.79
387.50	428.32
387.70	411.93
387.89	390.87
388.09	400.23
388.28	411.93
388.48	447.04
388.67	442.36
388.86	339.38
389.06	390.87
389.25	388.53
389.45	409.59
389.64	449.38
389.84	442.36
390.03	404.91
390.22	425.98
390.42	386.19
390.61	416.62
390.81	407.25
391.00	414.27
391.19	477.47
391.39	393.21
391.58	463.43
391.78	372.15
391.97	458.74
392.16	454.06
392.36	444.70
392.55	472.79
392.75	449.38
392.94	458.74
393.13	461.09
393.33	423.64
393.52	404.91
393.71	454.06
393.91	379.17
394.10	388.53
394.29	411.93
394.49	407.25
394.68	435.34
394.88	493.85
395.07	386.19
395.26	386.19
395.46	379.17
395.65	318.31
395.84	409.59
396.04	395.55
396.23	393.21
396.42	374.49
396.62	397.89
396.81	472.79
397.00	416.62
397.19	355.76
397.39	348.74
397.58	414.27
397.77	346.40
397.97	407.25
398.16	433.00
398.35	472.79
398.55	367.46
398.74	425.98
398.93	381.51
399.12	437.68
399.32	374.49
399.51	468.11
399.70	379.17
399.90	472.79
400.09	397.89
400.28	414.27
400.47	402.57
400.67	358.10
400.86	388.53
401.05	393.21
401.24	397.89
401.44	451.72
401.63	414.27
401.82	442.36
402.01	397.89
402.21	386.19
402.40	365.12
402.59	442.36
402.78	367.46
402.97	358.10
403.17	416.62
403.36	414.27
403.55	475.13
403.74	407.25
403.93	379.17
404.13	456.40
404.32	461.09
404.51	400.23
404.70	414.27
404.89	386.19
405.09	409.59
405.28	409.59
405.47	402.57
405.66	430.66
405.85	414.27
406.05	411.93
406.24	386.19
406.43	393.21
406.62	376.83
406.81	372.15
407.00	402.57
407.20	395.55
407.39	437.68
407.58	468.11
407.77	435.34
407.96	400.23
408.15	456.40
408.34	430.66
408.54	409.59
408.73	388.53
408.92	407.25
409.11	421.30
409.30	372.15
409.49	393.21
409.68	416.62
409.87	390.87
410.07	362.78
410.26	409.59
410.45	440.02
410.64	440.02
410.83	435.34
411.02	381.51
411.21	376.83
411.40	451.72
411.59	444.70
411.78	458.74
411.98	407.25
412.17	442.36
412.36	447.04
412.55	402.57
412.74	365.12
412.93	463.43
413.12	425.98
413.31	449.38
413.50	451.72
413.69	365.12
413.88	402.57
414.07	491.51
414.26	437.68
414.45	397.89
414.64	400.23
414.83	411.93
415.02	447.04
415.22	486.83
415.41	402.57
415.60	322.99
415.79	421.30
415.98	416.62
416.17	411.93
416.36	390.87
416.55	388.53
416.74	430.66
416.93	428.32
417.12	390.87
417.31	393.21
417.50	393.21
417.69	411.93
417.88	386.19
418.07	372.15
418.26	397.89
418.45	376.83
418.64	458.74
418.83	454.06
419.02	407.25
419.21	374.49
419.39	430.66
419.58	444.70
419.77	428.32
419.96	489.17
420.15	472.79
420.34	374.49
420.53	423.64
420.72	369.80
420.91	442.36
421.10	430.66
421.29	423.64
421.48	353.42
421.67	421.30
421.86	442.36
422.05	428.32
422.24	465.77
422.43	454.06
422.61	393.21
422.80	421.30
422.99	428.32
423.18	386.19
423.37	477.47
423.56	369.80
423.75	409.59
423.94	402.57
424.13	430.66
424.32	395.55
424.50	475.13
424.69	411.93
424.88	463.43
425.07	477.47
425.26	440.02
425.45	456.40
425.64	358.10
425.83	365.12
426.01	444.70
426.20	430.66
426.39	437.68
426.58	397.89
426.77	376.83
426.96	430.66
427.15	451.72
427.33	430.66
427.52	397.89
427.71	390.87
427.90	379.17
428.09	409.59
428.28	428.32
428.46	397.89
428.65	388.53
428.84	346.40
429.03	416.62
429.22	379.17
429.40	381.51
429.59	379.17
429.78	423.64
429.97	409.59
430.16	428.32
430.34	421.30
430.53	449.38
430.72	390.87
430.91	482.15
431.10	365.12
431.28	395.55
431.47	402.57
431.66	360.44
431.85	355.76
432.03	358.10
432.22	465.77
432.41	430.66
432.60	416.62
432.79	358.10
432.97	425.98
433.16	379.17
433.35	407.25
433.54	379.17
433.72	425.98
433.91	358.10
434.10	425.98
434.28	376.83
434.47	376.83
434.66	400.23
434.85	411.93
435.03	397.89
435.22	454.06
435.41	449.38
435.59	440.02
435.78	386.19
435.97	437.68
436.16	360.44
436.34	437.68
436.53	449.38
436.72	433.00
436.90	411.93
437.09	421.30
437.28	395.55
437.46	423.64
437.65	425.98
437.84	444.70
438.02	472.79
438.21	451.72
438.40	479.81
438.58	423.64
438.77	454.06
438.96	435.34
439.14	381.51
439.33	484.49
439.52	395.55
439.70	397.89
439.89	407.25
440.08	358.10
440.26	390.87
440.45	379.17
440.63	409.59
440.82	346.40
441.01	447.04
441.19	369.80
441.38	421.30
441.57	440.02
441.75	496.19
441.94	428.32
442.12	393.21
442.31	430.66
442.50	395.55
442.68	440.02
442.87	418.96
443.05	414.27
443.24	376.83
443.43	407.25
443.61	409.59
443.80	444.70
443.98	437.68
444.17	437.68
444.35	442.36
444.54	383.85
444.73	440.02
444.91	421.30
445.10	472.79
445.28	444.70
445.47	414.27
445.65	437.68
445.84	440.02
446.02	423.64
446.21	451.72
446.39	465.77
446.58	475.13
446.77	444.70
446.95	430.66
447.14	463.43
447.32	442.36
447.51	428.32
447.69	451.72
447.88	376.83
448.06	411.93
448.25	465.77
448.43	428.32
448.62	369.80
448.80	372.15
448.99	442.36
449.17	365.12
449.36	411.93
449.54	430.66
449.73	433.00
449.91	386.19
450.10	409.59
450.28	430.66
450.46	475.13
450.65	461.09
450.83	456.40
451.02	390.87
451.20	393.21
451.39	402.57
451.57	407.25
451.76	433.00
451.94	454.06
452.13	430.66
452.31	463.43
452.49	421.30
452.68	421.30
452.86	402.57
453.05	423.64
453.23	440.02
453.42	383.85
453.60	388.53
453.78	381.51
453.97	386.19
454.15	435.34
454.34	458.74
454.52	376.83
454.70	425.98
454.89	442.36
455.07	322.99
455.26	442.36
455.44	461.09
455.62	376.83
455.81	332.36
455.99	442.36
456.17	461.09
456.36	454.06
456.54	416.62
456.73	388.53
456.91	362.78
457.09	437.68
457.28	369.80
457.46	400.23
457.64	528.96
457.83	367.46
458.01	379.17
458.19	355.76
458.38	388.53
458.56	400.23
458.74	381.51
458.93	379.17
459.11	418.96
459.29	416.62
459.48	423.64
459.66	369.80
459.84	416.62
460.03	449.38
460.21	423.64
460.39	418.96
460.57	437.68
460.76	374.49
460.94	430.66
461.12	461.09
461.31	451.72
461.49	374.49
461.67	468.11
461.85	372.15
462.04	381.51
462.22	770.04
462.40	407.25
462.59	388.53
462.77	461.09
462.95	325.33
463.13	339.38
463.32	437.68
463.50	428.32
463.68	390.87
463.86	435.34
464.05	444.70
464.23	482.15
464.41	376.83
464.59	402.57
464.78	421.30
464.96	353.42
465.14	444.70
465.32	379.17
465.50	435.34
465.69	409.59
465.87	414.27
466.05	425.98
466.23	388.53
466.41	428.32
466.60	449.38
466.78	344.06
466.96	433.00
467.14	393.21
467.32	430.66
467.51	414.27
467.69	425.98
467.87	421.30
468.05	519.60
468.23	395.55
468.41	437.68
468.60	386.19
468.78	393.21
468.96	421.30
469.14	369.80
469.32	379.17
469.50	395.55
469.69	393.21
469.87	407.25
470.05	451.72
470.23	379.17
470.41	414.27
470.59	418.96
470.77	381.51
470.95	430.66
471.14	376.83
471.32	393.21
471.50	407.25
471.68	472.79
471.86	500.87
472.04	463.43
472.22	414.27
472.40	360.44
472.58	416.62
472.77	367.46
472.95	383.85
473.13	454.06
473.31	330.02
473.49	383.85
473.67	451.72
473.85	358.10
474.03	477.47
474.21	463.43
474.39	397.89
474.57	435.34
474.75	454.06
474.93	400.23
475.12	374.49
475.30	449.38
475.48	435.34
475.66	444.70
475.84	400.23
476.02	353.42
476.20	442.36
476.38	428.32
476.56	463.43
476.74	402.57
476.92	437.68
477.10	418.96
477.28	409.59
477.46	454.06
477.64	308.95
477.82	409.59
478.00	409.59
478.18	404.91
478.36	428.32
478.54	454.06
478.72	428.32
478.90	381.51
479.08	367.46
479.26	402.57
479.44	393.21
479.62	390.87
479.80	346.40
479.98	397.89
480.16	390.87
480.34	416.62
480.52	374.49
480.70	437.68
480.88	360.44
481.06	339.38
481.24	416.62
481.41	353.42
481.59	451.72
481.77	437.68
481.95	440.02
482.13	440.02
482.31	479.81
482.49	395.55
482.67	468.11
482.85	421.30
483.03	393.21
483.21	374.49
483.39	430.66
483.57	444.70
483.74	498.53
483.92	468.11
484.10	425.98
484.28	388.53
484.46	437.68
484.64	442.36
484.82	423.64
485.00	440.02
485.18	369.80
485.35	400.23
485.53	355.76
485.71	461.09
485.89	428.32
486.07	482.15
486.25	491.51
486.43	421.30
486.61	482.15
486.78	379.17
486.96	372.15
487.14	379.17
487.32	416.62
487.50	341.72
487.68	507.90
487.85	428.32
488.03	433.00
488.21	456.40
488.39	407.25
488.57	430.66
488.75	334.70
488.92	451.72
489.10	442.36
489.28	437.68
489.46	428.32
489.64	388.53
489.81	388.53
489.99	395.55
490.17	437.68
490.35	465.77
490.53	348.74
490.70	397.89
490.88	397.89
491.06	421.30
491.24	421.30
491.41	444.70
491.59	409.59
491.77	440.02
491.95	365.12
492.13	346.40
492.30	374.49
492.48	322.99
492.66	425.98
492.84	374.49
493.01	404.91
493.19	418.96
493.37	430.66
493.54	456.40
493.72	477.47
493.90	472.79
494.08	393.21
494.25	416.62
494.43	386.19
494.61	381.51
494.79	423.64
494.96	395.55
495.14	346.40
495.32	444.70
495.49	362.78
495.67	479.81
495.85	400.23
496.02	339.38
496.20	418.96
496.38	435.34
496.55	325.33
496.73	418.96
496.91	442.36
497.09	493.85
497.26	447.04
497.44	409.59
497.62	388.53
497.79	430.66
497.97	533.64
498.14	500.87
498.32	496.19
498.50	393.21
498.67	423.64
498.85	365.12
499.03	362.78
499.20	404.91
499.38	402.57
499.56	418.96
499.73	423.64
499.91	400.23
500.08	379.17
500.26	395.55
500.44	390.87
500.61	376.83
500.79	416.62
500.97	416.62
501.14	465.77
501.32	351.08
501.49	341.72
501.67	421.30
501.84	440.02
502.02	376.83
502.20	489.17
502.37	381.51
502.55	367.46
502.72	416.62
502.90	463.43
503.07	451.72
503.25	409.59
503.43	430.66
503.60	447.04
503.78	355.76
503.95	397.89
504.13	414.27
504.30	400.23
504.48	402.57
504.65	454.06
504.83	482.15
505.01	397.89
505.18	355.76
505.36	447.04
505.53	416.62
505.71	353.42
505.88	444.70
506.06	358.10
506.23	416.62
506.41	379.17
506.58	437.68
506.76	418.96
506.93	421.30
507.11	372.15
507.28	395.55
507.46	430.66
507.63	430.66
507.81	409.59
507.98	395.55
508.16	397.89
508.33	442.36
508.50	425.98
508.68	482.15
508.85	411.93
509.03	451.72
509.20	416.62
509.38	423.64
509.55	428.32
509.73	379.17
509.90	475.13
510.08	411.93
510.25	433.00
510.42	440.02
510.60	360.44
510.77	479.81
510.95	461.09
511.12	409.59
511.30	416.62
511.47	416.62
511.64	475.13
511.82	440.02
511.99	444.70
512.17	388.53
512.34	414.27
512.51	475.13
512.69	348.74
512.86	416.62
513.04	325.33
513.21	472.79
513.38	402.57
513.56	423.64
513.73	372.15
513.90	353.42
514.08	320.65
514.25	475.13
514.43	411.93
514.60	362.78
514.77	449.38
514.95	400.23
515.12	423.64
515.29	423.64
515.47	444.70
515.64	360.44
515.81	367.46
515.99	449.38
516.16	463.43
516.33	484.49
516.51	372.15
516.68	444.70
516.85	433.00
517.03	454.06
517.20	463.43
517.37	404.91
517.54	409.59
517.72	433.00
517.89	428.32
518.06	456.40
518.24	433.00
518.41	355.76
518.58	435.34
518.75	369.80
518.93	428.32
519.10	395.55
519.27	447.04
519.45	514.92
519.62	498.53
519.79	437.68
519.96	400.23
520.14	430.66
520.31	421.30
520.48	365.12
520.65	433.00
520.83	358.10
521.00	433.00
521.17	421.30
521.34	454.06
521.52	397.89
521.69	507.90
521.86	388.53
522.03	428.32
522.20	411.93
522.38	442.36
522.55	468.11
522.72	409.59
522.89	486.83
523.07	393.21
523.24	454.06
523.41	435.34
523.58	440.02
523.75	372.15
523.92	449.38
524.10	428.32
524.27	418.96
524.44	334.70
524.61	409.59
524.78	332.36
524.96	458.74
525.13	484.49
525.30	386.19
525.47	454.06
525.64	404.91
525.81	344.06
525.98	444.70
526.16	423.64
526.33	369.80
526.50	339.38
526.67	393.21
526.84	381.51
527.01	447.04
527.18	433.00
527.36	447.04
527.53	341.72
527.70	484.49
527.87	437.68
528.04	407.25
528.21	362.78
528.38	444.70
528.55	461.09
528.72	376.83
528.89	454.06
529.07	386.19
529.24	404.91
529.41	440.02
529.58	402.57
529.75	440.02
529.92	430.66
530.09	461.09
530.26	461.09
530.43	367.46
530.60	437.68
530.77	374.49
530.94	425.98
531.11	472.79
531.28	475.13
531.46	435.34
531.63	458.74
531.80	449.38
531.97	407.25
532.14	430.66
532.31	369.80
532.48	397.89
532.65	367.46
532.82	407.25
532.99	404.91
533.16	379.17
533.33	449.38
533.50	400.23
533.67	440.02
533.84	435.34
534.01	379.17
534.18	447.04
534.35	433.00
534.52	390.87
534.69	435.34
534.86	456.40
535.03	395.55
535.20	458.74
535.37	440.02
535.54	397.89
535.71	409.59
535.88	461.09
536.05	381.51
536.22	404.91
536.38	376.83
536.55	390.87
536.72	397.89
536.89	407.25
537.06	397.89
537.23	320.65
537.40	449.38
537.57	330.02
537.74	456.40
537.91	456.40
538.08	435.34
538.25	355.76
538.42	468.11
538.59	407.25
538.75	440.02
538.92	475.13
539.09	489.17
539.26	470.45
539.43	388.53
539.60	486.83
539.77	425.98
539.94	414.27
540.11	386.19
540.28	381.51
540.44	376.83
540.61	369.80
540.78	433.00
540.95	416.62
541.12	404.91
541.29	444.70
541.46	372.15
541.62	456.40
541.79	355.76
541.96	489.17
542.13	416.62
542.30	416.62
542.47	411.93
542.63	414.27
542.80	367.46
542.97	442.36
543.14	425.98
543.31	442.36
543.48	425.98
543.64	381.51
543.81	428.32
543.98	435.34
544.15	367.46
544.32	386.19
544.48	344.06
544.65	365.12
544.82	400.23
544.99	440.02
545.16	416.62
545.32	456.40
545.49	430.66
545.66	395.55
545.83	458.74
546.00	311.29
546.16	449.38
546.33	442.36
546.50	409.59
546.67	468.11
546.83	458.74
547.00	430.66
547.17	386.19
547.34	379.17
547.50	407.25
547.67	367.46
547.84	479.81
548.00	468.11
548.17	362.78
548.34	369.80
548.51	430.66
548.67	428.32
548.84	395.55
549.01	484.49
549.18	339.38
549.34	433.00
549.51	390.87
549.68	435.34
549.84	465.77
550.01	367.46
550.18	416.62
550.34	423.64
550.51	461.09
550.68	409.59
550.84	393.21
551.01	430.66
551.18	451.72
551.34	440.02
551.51	376.83
551.68	407.25
551.84	397.89
552.01	334.70
552.18	468.11
552.34	397.89
552.51	390.87
552.68	440.02
552.84	404.91
553.01	388.53
553.18	414.27
553.34	416.62
553.51	353.42
553.67	463.43
553.84	449.38
554.01	414.27
554.17	444.70
554.34	341.72
554.51	407.25
554.67	425.98
554.84	421.30
555.00	411.93
555.17	369.80
555.33	407.25
555.50	423.64
555.67	386.19
555.83	454.06
556.00	465.77
556.16	533.64
556.33	479.81
556.50	449.38
556.66	355.76
556.83	442.36
556.99	411.93
557.16	428.32
557.32	393.21
557.49	461.09
557.65	437.68
557.82	362.78
557.98	414.27
558.15	444.70
558.32	416.62
558.48	444.70
558.65	348.74
558.81	418.96
558.98	454.06
559.14	423.64
559.31	430.66
559.47	433.00
559.64	407.25
559.80	435.34
559.97	411.93
560.13	397.89
560.30	381.51
560.46	472.79
560.63	393.21
560.79	407.25
560.96	430.66
561.12	465.77
561.29	411.93
561.45	440.02
561.61	374.49
561.78	521.94
561.94	510.24
562.11	381.51
562.27	386.19
562.44	423.64
562.60	393.21
562.77	428.32
562.93	416.62
563.10	397.89
563.26	425.98
563.42	491.51
563.59	376.83
563.75	400.23
563.92	418.96
564.08	437.68
564.24	381.51
564.41	402.57
564.57	421.30
564.74	407.25
564.90	379.17
565.07	503.22
565.23	458.74
565.39	437.68
565.56	444.70
565.72	425.98
565.88	479.81
566.05	451.72
566.21	402.57
566.38	348.74
566.54	475.13
566.70	416.62
566.87	430.66
567.03	379.17
567.19	402.57
567.36	421.30
567.52	416.62
567.68	430.66
567.85	456.40
568.01	449.38
568.17	435.34
568.34	423.64
568.50	465.77
568.66	393.21
568.83	461.09
568.99	409.59
569.15	468.11
569.32	411.93
569.48	458.74
569.64	468.11
569.81	409.59
569.97	435.34
570.13	449.38
570.30	397.89
570.46	449.38
570.62	437.68
570.78	402.57
570.95	367.46
571.11	437.68
571.27	489.17
571.43	444.70
571.60	351.08
571.76	407.25
571.92	423.64
572.09	449.38
572.25	397.89
572.41	402.57
572.57	442.36
572.74	454.06
572.90	390.87
573.06	395.55
573.22	411.93
573.38	409.59
573.55	435.34
573.71	400.23
573.87	402.57
574.03	442.36
574.20	477.47
574.36	461.09
574.52	416.62
574.68	409.59
574.84	435.34
575.01	423.64
575.17	430.66
575.33	416.62
575.49	468.11
575.65	397.89
575.82	423.64
575.98	374.49
576.14	416.62
576.30	430.66
576.46	407.25
576.62	456.40
576.79	372.15
576.95	486.83
577.11	449.38
577.27	365.12
577.43	372.15
577.59	421.30
577.75	449.38
577.92	430.66
578.08	374.49
578.24	414.27
578.40	458.74
578.56	400.23
578.72	418.96
578.88	454.06
579.04	404.91
579.21	470.45
579.37	433.00
579.53	355.76
579.69	383.85
579.85	468.11
580.01	461.09
580.17	451.72
580.33	393.21
580.49	421.30
580.65	454.06
580.82	376.83
580.98	376.83
581.14	430.66
581.30	437.68
581.46	383.85
581.62	477.47
581.78	395.55
581.94	409.59
582.10	425.98
582.26	440.02
582.42	475.13
582.58	461.09
582.74	433.00
582.90	407.25
583.06	402.57
583.22	454.06
583.38	442.36
583.54	456.40
583.70	435.34
583.86	442.36
584.02	397.89
584.18	416.62
584.34	416.62
584.50	456.40
584.66	404.91
584.82	386.19
584.98	430.66
585.14	393.21
585.30	393.21
585.46	386.19
585.62	472.79
585.78	477.47
585.94	437.68
586.10	435.34
586.26	503.22
586.42	531.30
586.58	428.32
586.74	454.06
586.90	400.23
587.06	365.12
587.22	397.89
587.38	402.57
587.54	421.30
587.70	451.72
587.86	475.13
588.02	414.27
588.18	376.83
588.34	393.21
588.49	440.02
588.65	383.85
588.81	365.12
588.97	493.85
589.13	404.91
589.29	425.98
589.45	351.08
589.61	433.00
589.77	458.74
589.93	386.19
590.08	390.87
590.24	322.99
590.40	393.21
590.56	482.15
590.72	416.62
590.88	404.91
591.04	463.43
591.20	472.79
591.35	521.94
591.51	404.91
591.67	374.49
591.83	454.06
591.99	381.51
592.15	386.19
592.31	425.98
592.46	388.53
592.62	376.83
592.78	458.74
592.94	486.83
593.10	458.74
593.26	411.93
593.41	367.46
593.57	437.68
593.73	411.93
593.89	489.17
594.05	454.06
594.20	388.53
594.36	463.43
594.52	379.17
594.68	395.55
594.84	390.87
594.99	440.02
595.15	479.81
595.31	449.38
595.47	365.12
595.62	393.21
595.78	440.02
595.94	407.25
596.10	376.83
596.25	472.79
596.41	393.21
596.57	407.25
596.73	383.85
596.88	376.83
597.04	421.30
597.20	425.98
597.36	454.06
597.51	435.34
597.67	395.55
597.83	409.59
597.99	447.04
598.14	402.57
598.30	416.62
598.46	489.17
598.61	411.93
598.77	437.68
598.93	421.30
599.09	381.51
599.24	402.57
599.40	409.59
599.56	430.66
599.71	479.81
599.87	353.42
600.03	458.74
600.18	472.79
600.34	493.85
600.50	505.56
600.65	381.51
600.81	418.96
600.97	407.25
601.12	372.15
601.28	440.02
601.44	421.30
601.59	418.96
601.75	407.25
601.91	390.87
602.06	510.24
602.22	479.81
602.37	397.89
602.53	351.08
602.69	416.62
602.84	440.02
603.00	416.62
603.16	449.38
603.31	386.19
603.47	451.72
603.62	447.04
603.78	390.87
603.94	404.91
604.09	449.38
604.25	447.04
604.40	451.72
604.56	418.96
604.71	421.30
604.87	414.27
605.03	365.12
605.18	372.15
605.34	425.98
605.49	447.04
605.65	341.72
605.80	442.36
605.96	348.74
606.12	456.40
606.27	489.17
606.43	325.33
606.58	428.32
606.74	465.77
606.89	395.55
607.05	372.15
607.20	454.06
607.36	346.40
607.51	351.08
607.67	428.32
607.82	362.78
607.98	444.70
608.13	421.30
608.29	379.17
608.44	454.06
608.60	386.19
608.75	381.51
608.91	421.30
609.06	437.68
609.22	430.66
609.37	411.93
609.53	435.34
609.68	433.00
609.84	388.53
609.99	320.65
610.15	341.72
