SpectraSuite Data File
++++++++++++++++++++++++++++++++++++
Date: Fri Oct 25 12:10:20 EDT 2013
User: price-jones
Dark Spectrum Present: No
Reference Spectrum Present: No
Number of Sampled Component Spectra: 1
Spectrometers: USB2+H05261
Integration Time (usec): 100000 (USB2+H05261)
Spectra Averaged: 1 (USB2+H05261)
Boxcar Smoothing: 0 (USB2+H05261)
Correct for Electrical Dark: No (USB2+H05261)
Strobe/Lamp Enabled: No (USB2+H05261)
Correct for Detector Non-linearity: No (USB2+H05261)
Correct for Stray Light: No (USB2+H05261)
Number of Pixels in Processed Spectrum: 2048
>>>>>Begin Processed Spectral Data<<<<<
365.73	252.78
365.92	252.78
366.12	252.78
366.32	337.04
366.52	266.82
366.72	264.48
366.91	241.08
367.11	292.57
367.31	180.22
367.51	231.71
367.70	180.22
367.90	280.86
368.10	231.71
368.30	311.29
368.49	222.35
368.69	238.73
368.89	271.50
369.09	271.50
369.28	231.71
369.48	311.29
369.68	250.44
369.87	294.91
370.07	348.74
370.27	308.95
370.47	320.65
370.66	362.78
370.86	311.29
371.06	437.68
371.25	444.70
371.45	334.70
371.65	414.27
371.84	318.31
372.04	313.63
372.24	468.11
372.44	365.12
372.63	437.68
372.83	442.36
373.03	365.12
373.22	454.06
373.42	486.83
373.62	416.62
373.81	418.96
374.01	376.83
374.21	428.32
374.40	416.62
374.60	409.59
374.79	449.38
374.99	463.43
375.19	421.30
375.38	465.77
375.58	491.51
375.78	521.94
375.97	521.94
376.17	486.83
376.37	341.72
376.56	369.80
376.76	404.91
376.95	404.91
377.15	418.96
377.35	416.62
377.54	500.87
377.74	330.02
377.93	433.00
378.13	374.49
378.33	374.49
378.52	411.93
378.72	430.66
378.91	386.19
379.11	383.85
379.31	376.83
379.50	386.19
379.70	374.49
379.89	416.62
380.09	304.27
380.28	374.49
380.48	367.46
380.68	315.97
380.87	355.76
381.07	386.19
381.26	388.53
381.46	365.12
381.65	383.85
381.85	372.15
382.04	421.30
382.24	360.44
382.43	369.80
382.63	390.87
382.83	416.62
383.02	442.36
383.22	414.27
383.41	425.98
383.61	379.17
383.80	365.12
384.00	407.25
384.19	369.80
384.39	362.78
384.58	388.53
384.78	430.66
384.97	416.62
385.17	404.91
385.36	351.08
385.56	381.51
385.75	393.21
385.95	407.25
386.14	397.89
386.34	334.70
386.53	402.57
386.72	430.66
386.92	440.02
387.11	322.99
387.31	444.70
387.50	437.68
387.70	433.00
387.89	376.83
388.09	444.70
388.28	526.62
388.48	435.34
388.67	393.21
388.86	369.80
389.06	407.25
389.25	414.27
389.45	437.68
389.64	348.74
389.84	407.25
390.03	402.57
390.22	388.53
390.42	332.36
390.61	409.59
390.81	369.80
391.00	330.02
391.19	381.51
391.39	416.62
391.58	407.25
391.78	365.12
391.97	393.21
392.16	402.57
392.36	465.77
392.55	400.23
392.75	428.32
392.94	360.44
393.13	388.53
393.33	341.72
393.52	482.15
393.71	388.53
393.91	447.04
394.10	390.87
394.29	376.83
394.49	327.68
394.68	456.40
394.88	379.17
395.07	372.15
395.26	372.15
395.46	451.72
395.65	425.98
395.84	355.76
396.04	442.36
396.23	447.04
396.42	353.42
396.62	404.91
396.81	379.17
397.00	381.51
397.19	451.72
397.39	393.21
397.58	433.00
397.77	358.10
397.97	369.80
398.16	390.87
398.35	397.89
398.55	421.30
398.74	365.12
398.93	369.80
399.12	428.32
399.32	430.66
399.51	468.11
399.70	440.02
399.90	381.51
400.09	425.98
400.28	407.25
400.47	423.64
400.67	407.25
400.86	388.53
401.05	397.89
401.24	414.27
401.44	437.68
401.63	442.36
401.82	425.98
402.01	360.44
402.21	421.30
402.40	411.93
402.59	409.59
402.78	407.25
402.97	444.70
403.17	374.49
403.36	383.85
403.55	409.59
403.74	351.08
403.93	381.51
404.13	407.25
404.32	404.91
404.51	353.42
404.70	372.15
404.89	374.49
405.09	435.34
405.28	423.64
405.47	447.04
405.66	447.04
405.85	358.10
406.05	372.15
406.24	372.15
406.43	393.21
406.62	416.62
406.81	463.43
407.00	409.59
407.20	458.74
407.39	423.64
407.58	360.44
407.77	402.57
407.96	456.40
408.15	383.85
408.34	393.21
408.54	416.62
408.73	454.06
408.92	395.55
409.11	407.25
409.30	402.57
409.49	367.46
409.68	374.49
409.87	402.57
410.07	381.51
410.26	416.62
410.45	421.30
410.64	416.62
410.83	414.27
411.02	379.17
411.21	430.66
411.40	458.74
411.59	330.02
411.78	435.34
411.98	358.10
412.17	346.40
412.36	360.44
412.55	383.85
412.74	379.17
412.93	479.81
413.12	386.19
413.31	407.25
413.50	402.57
413.69	395.55
413.88	428.32
414.07	365.12
414.26	376.83
414.45	433.00
414.64	390.87
414.83	400.23
415.02	414.27
415.22	435.34
415.41	477.47
415.60	390.87
415.79	346.40
415.98	383.85
416.17	400.23
416.36	437.68
416.55	353.42
416.74	416.62
416.93	418.96
417.12	360.44
417.31	400.23
417.50	390.87
417.69	463.43
417.88	381.51
418.07	461.09
418.26	442.36
418.45	353.42
418.64	397.89
418.83	376.83
419.02	390.87
419.21	402.57
419.39	351.08
419.58	444.70
419.77	372.15
419.96	461.09
420.15	411.93
420.34	411.93
420.53	402.57
420.72	440.02
420.91	397.89
421.10	411.93
421.29	442.36
421.48	477.47
421.67	402.57
421.86	393.21
422.05	358.10
422.24	362.78
422.43	360.44
422.61	386.19
422.80	479.81
422.99	425.98
423.18	360.44
423.37	451.72
423.56	458.74
423.75	435.34
423.94	430.66
424.13	477.47
424.32	444.70
424.50	465.77
424.69	325.33
424.88	414.27
425.07	442.36
425.26	428.32
425.45	390.87
425.64	479.81
425.83	428.32
426.01	475.13
426.20	411.93
426.39	397.89
426.58	402.57
426.77	435.34
426.96	409.59
427.15	407.25
427.33	435.34
427.52	390.87
427.71	440.02
427.90	395.55
428.09	428.32
428.28	428.32
428.46	372.15
428.65	451.72
428.84	348.74
429.03	486.83
429.22	435.34
429.40	440.02
429.59	400.23
429.78	475.13
429.97	437.68
430.16	463.43
430.34	454.06
430.53	381.51
430.72	390.87
430.91	463.43
431.10	367.46
431.28	367.46
431.47	407.25
431.66	388.53
431.85	447.04
432.03	440.02
432.22	348.74
432.41	402.57
432.60	442.36
432.79	456.40
432.97	409.59
433.16	435.34
433.35	402.57
433.54	423.64
433.72	390.87
433.91	505.56
434.10	395.55
434.28	355.76
434.47	397.89
434.66	404.91
434.85	388.53
435.03	388.53
435.22	465.77
435.41	386.19
435.59	395.55
435.78	360.44
435.97	386.19
436.16	479.81
436.34	430.66
436.53	404.91
436.72	418.96
436.90	400.23
437.09	433.00
437.28	327.68
437.46	365.12
437.65	421.30
437.84	416.62
438.02	409.59
438.21	416.62
438.40	376.83
438.58	390.87
438.77	367.46
438.96	365.12
439.14	393.21
439.33	358.10
439.52	456.40
439.70	360.44
439.89	433.00
440.08	362.78
440.26	465.77
440.45	409.59
440.63	437.68
440.82	393.21
441.01	393.21
441.19	451.72
441.38	395.55
441.57	430.66
441.75	489.17
441.94	421.30
442.12	353.42
442.31	397.89
442.50	449.38
442.68	402.57
442.87	376.83
443.05	355.76
443.24	407.25
443.43	440.02
443.61	470.45
443.80	376.83
443.98	442.36
444.17	297.25
444.35	425.98
444.54	395.55
444.73	425.98
444.91	402.57
445.10	404.91
445.28	362.78
445.47	395.55
445.65	358.10
445.84	379.17
446.02	435.34
446.21	369.80
446.39	367.46
446.58	423.64
446.77	379.17
446.95	423.64
447.14	444.70
447.32	435.34
447.51	435.34
447.69	437.68
447.88	423.64
448.06	547.69
448.25	444.70
448.43	365.12
448.62	449.38
448.80	397.89
448.99	393.21
449.17	475.13
449.36	421.30
449.54	449.38
449.73	411.93
449.91	418.96
450.10	372.15
450.28	435.34
450.46	470.45
450.65	367.46
450.83	381.51
451.02	463.43
451.20	416.62
451.39	374.49
451.57	407.25
451.76	411.93
451.94	456.40
452.13	388.53
452.31	372.15
452.49	468.11
452.68	428.32
452.86	365.12
453.05	449.38
453.23	409.59
453.42	379.17
453.60	442.36
453.78	435.34
453.97	397.89
454.15	395.55
454.34	376.83
454.52	456.40
454.70	428.32
454.89	442.36
455.07	409.59
455.26	458.74
455.44	454.06
455.62	425.98
455.81	383.85
455.99	425.98
456.17	472.79
456.36	402.57
456.54	404.91
456.73	472.79
456.91	388.53
457.09	393.21
457.28	470.45
457.46	449.38
457.64	416.62
457.83	351.08
458.01	404.91
458.19	395.55
458.38	411.93
458.56	395.55
458.74	332.36
458.93	395.55
459.11	395.55
459.29	407.25
459.48	353.42
459.66	444.70
459.84	400.23
460.03	458.74
460.21	440.02
460.39	395.55
460.57	411.93
460.76	418.96
460.94	376.83
461.12	454.06
461.31	355.76
461.49	433.00
461.67	386.19
461.85	404.91
462.04	365.12
462.22	802.80
462.40	411.93
462.59	390.87
462.77	437.68
462.95	404.91
463.13	437.68
463.32	435.34
463.50	435.34
463.68	433.00
463.86	423.64
464.05	418.96
464.23	470.45
464.41	454.06
464.59	409.59
464.78	367.46
464.96	332.36
465.14	414.27
465.32	404.91
465.50	430.66
465.69	400.23
465.87	407.25
466.05	423.64
466.23	327.68
466.41	390.87
466.60	444.70
466.78	444.70
466.96	393.21
467.14	533.64
467.32	409.59
467.51	458.74
467.69	337.04
467.87	430.66
468.05	468.11
468.23	449.38
468.41	463.43
468.60	428.32
468.78	465.77
468.96	402.57
469.14	475.13
469.32	386.19
469.50	407.25
469.69	395.55
469.87	440.02
470.05	475.13
470.23	444.70
470.41	346.40
470.59	418.96
470.77	479.81
470.95	493.85
471.14	437.68
471.32	388.53
471.50	433.00
471.68	416.62
471.86	400.23
472.04	355.76
472.22	423.64
472.40	411.93
472.58	411.93
472.77	421.30
472.95	451.72
473.13	442.36
473.31	425.98
473.49	430.66
473.67	451.72
473.85	477.47
474.03	397.89
474.21	440.02
474.39	430.66
474.57	411.93
474.75	416.62
474.93	365.12
475.12	402.57
475.30	409.59
475.48	360.44
475.66	442.36
475.84	430.66
476.02	388.53
476.20	407.25
476.38	454.06
476.56	411.93
476.74	397.89
476.92	414.27
477.10	388.53
477.28	409.59
477.46	430.66
477.64	388.53
477.82	390.87
478.00	402.57
478.18	430.66
478.36	381.51
478.54	355.76
478.72	374.49
478.90	379.17
479.08	442.36
479.26	454.06
479.44	351.08
479.62	379.17
479.80	369.80
479.98	390.87
480.16	390.87
480.34	430.66
480.52	383.85
480.70	433.00
480.88	390.87
481.06	330.02
481.24	369.80
481.41	442.36
481.59	451.72
481.77	404.91
481.95	484.49
482.13	475.13
482.31	447.04
482.49	395.55
482.67	407.25
482.85	400.23
483.03	409.59
483.21	433.00
483.39	411.93
483.57	463.43
483.74	486.83
483.92	330.02
484.10	425.98
484.28	416.62
484.46	484.49
484.64	386.19
484.82	449.38
485.00	360.44
485.18	360.44
485.35	423.64
485.53	402.57
485.71	461.09
485.89	353.42
486.07	477.47
486.25	470.45
486.43	463.43
486.61	458.74
486.78	484.49
486.96	383.85
487.14	425.98
487.32	402.57
487.50	440.02
487.68	402.57
487.85	428.32
488.03	411.93
488.21	463.43
488.39	428.32
488.57	397.89
488.75	390.87
488.92	461.09
489.10	430.66
489.28	498.53
489.46	379.17
489.64	379.17
489.81	386.19
489.99	491.51
490.17	472.79
490.35	540.66
490.53	416.62
490.70	409.59
490.88	400.23
491.06	421.30
491.24	449.38
491.41	470.45
491.59	423.64
491.77	407.25
491.95	423.64
492.13	397.89
492.30	411.93
492.48	362.78
492.66	423.64
492.84	416.62
493.01	355.76
493.19	472.79
493.37	447.04
493.54	376.83
493.72	308.95
493.90	444.70
494.08	447.04
494.25	407.25
494.43	421.30
494.61	397.89
494.79	411.93
494.96	374.49
495.14	451.72
495.32	351.08
495.49	372.15
495.67	400.23
495.85	376.83
496.02	411.93
496.20	465.77
496.38	407.25
496.55	463.43
496.73	376.83
496.91	376.83
497.09	416.62
497.26	496.19
497.44	428.32
497.62	425.98
497.79	421.30
497.97	386.19
498.14	477.47
498.32	418.96
498.50	447.04
498.67	414.27
498.85	430.66
499.03	367.46
499.20	358.10
499.38	397.89
499.56	425.98
499.73	433.00
499.91	400.23
500.08	395.55
500.26	388.53
500.44	414.27
500.61	456.40
500.79	393.21
500.97	442.36
501.14	458.74
501.32	416.62
501.49	465.77
501.67	395.55
501.84	444.70
502.02	374.49
502.20	444.70
502.37	482.15
502.55	430.66
502.72	369.80
502.90	442.36
503.07	442.36
503.25	444.70
503.43	381.51
503.60	369.80
503.78	458.74
503.95	423.64
504.13	372.15
504.30	390.87
504.48	428.32
504.65	409.59
504.83	428.32
505.01	430.66
505.18	407.25
505.36	430.66
505.53	402.57
505.71	442.36
505.88	411.93
506.06	451.72
506.23	407.25
506.41	423.64
506.58	433.00
506.76	449.38
506.93	416.62
507.11	428.32
507.28	475.13
507.46	379.17
507.63	367.46
507.81	376.83
507.98	418.96
508.16	386.19
508.33	454.06
508.50	440.02
508.68	416.62
508.85	400.23
509.03	362.78
509.20	379.17
509.38	423.64
509.55	402.57
509.73	400.23
509.90	433.00
510.08	395.55
510.25	400.23
510.42	418.96
510.60	454.06
510.77	472.79
510.95	486.83
511.12	407.25
511.30	395.55
511.47	358.10
511.64	468.11
511.82	503.22
511.99	395.55
512.17	414.27
512.34	386.19
512.51	397.89
512.69	388.53
512.86	411.93
513.04	402.57
513.21	393.21
513.38	404.91
513.56	397.89
513.73	388.53
513.90	388.53
514.08	482.15
514.25	407.25
514.43	367.46
514.60	409.59
514.77	437.68
514.95	330.02
515.12	393.21
515.29	372.15
515.47	409.59
515.64	367.46
515.81	433.00
515.99	381.51
516.16	442.36
516.33	369.80
516.51	437.68
516.68	334.70
516.85	404.91
517.03	353.42
517.20	468.11
517.37	425.98
517.54	414.27
517.72	500.87
517.89	355.76
518.06	365.12
518.24	498.53
518.41	444.70
518.58	393.21
518.75	369.80
518.93	414.27
519.10	505.56
519.27	395.55
519.45	449.38
519.62	383.85
519.79	437.68
519.96	477.47
520.14	395.55
520.31	461.09
520.48	388.53
520.65	400.23
520.83	409.59
521.00	428.32
521.17	411.93
521.34	472.79
521.52	374.49
521.69	407.25
521.86	477.47
522.03	358.10
522.20	397.89
522.38	393.21
522.55	390.87
522.72	447.04
522.89	423.64
523.07	418.96
523.24	390.87
523.41	404.91
523.58	425.98
523.75	376.83
523.92	346.40
524.10	458.74
524.27	421.30
524.44	409.59
524.61	456.40
524.78	390.87
524.96	463.43
525.13	414.27
525.30	461.09
525.47	449.38
525.64	425.98
525.81	493.85
525.98	423.64
526.16	294.91
526.33	433.00
526.50	397.89
526.67	369.80
526.84	421.30
527.01	383.85
527.18	372.15
527.36	425.98
527.53	390.87
527.70	423.64
527.87	318.31
528.04	447.04
528.21	433.00
528.38	437.68
528.55	423.64
528.72	395.55
528.89	514.92
529.07	512.58
529.24	355.76
529.41	433.00
529.58	348.74
529.75	390.87
529.92	376.83
530.09	461.09
530.26	447.04
530.43	390.87
530.60	449.38
530.77	437.68
530.94	322.99
531.11	430.66
531.28	409.59
531.46	379.17
531.63	383.85
531.80	393.21
531.97	421.30
532.14	461.09
532.31	437.68
532.48	449.38
532.65	447.04
532.82	411.93
532.99	407.25
533.16	404.91
533.33	421.30
533.50	444.70
533.67	423.64
533.84	404.91
534.01	383.85
534.18	449.38
534.35	390.87
534.52	418.96
534.69	407.25
534.86	463.43
535.03	416.62
535.20	397.89
535.37	451.72
535.54	454.06
535.71	449.38
535.88	486.83
536.05	402.57
536.22	421.30
536.38	486.83
536.55	433.00
536.72	425.98
536.89	379.17
537.06	393.21
537.23	407.25
537.40	451.72
537.57	428.32
537.74	507.90
537.91	404.91
538.08	337.04
538.25	393.21
538.42	365.12
538.59	468.11
538.75	423.64
538.92	386.19
539.09	493.85
539.26	409.59
539.43	428.32
539.60	468.11
539.77	409.59
539.94	372.15
540.11	461.09
540.28	468.11
540.44	409.59
540.61	374.49
540.78	404.91
540.95	404.91
541.12	430.66
541.29	346.40
541.46	447.04
541.62	358.10
541.79	397.89
541.96	428.32
542.13	510.24
542.30	435.34
542.47	423.64
542.63	395.55
542.80	472.79
542.97	512.58
543.14	414.27
543.31	449.38
543.48	339.38
543.64	358.10
543.81	421.30
543.98	472.79
544.15	433.00
544.32	355.76
544.48	404.91
544.65	451.72
544.82	411.93
544.99	444.70
545.16	379.17
545.32	437.68
545.49	454.06
545.66	404.91
545.83	374.49
546.00	353.42
546.16	451.72
546.33	386.19
546.50	470.45
546.67	369.80
546.83	456.40
547.00	407.25
547.17	437.68
547.34	447.04
547.50	456.40
547.67	411.93
547.84	442.36
548.00	430.66
548.17	418.96
548.34	402.57
548.51	477.47
548.67	447.04
548.84	407.25
549.01	383.85
549.18	472.79
549.34	444.70
549.51	454.06
549.68	430.66
549.84	479.81
550.01	440.02
550.18	475.13
550.34	475.13
550.51	482.15
550.68	484.49
550.84	388.53
551.01	376.83
551.18	423.64
551.34	404.91
551.51	437.68
551.68	390.87
551.84	430.66
552.01	461.09
552.18	395.55
552.34	430.66
552.51	395.55
552.68	423.64
552.84	402.57
553.01	444.70
553.18	425.98
553.34	425.98
553.51	416.62
553.67	451.72
553.84	484.49
554.01	442.36
554.17	496.19
554.34	435.34
554.51	454.06
554.67	435.34
554.84	496.19
555.00	353.42
555.17	393.21
555.33	433.00
555.50	372.15
555.67	435.34
555.83	351.08
556.00	479.81
556.16	507.90
556.33	379.17
556.50	430.66
556.66	339.38
556.83	367.46
556.99	437.68
557.16	447.04
557.32	482.15
557.49	386.19
557.65	369.80
557.82	444.70
557.98	444.70
558.15	339.38
558.32	421.30
558.48	454.06
558.65	400.23
558.81	374.49
558.98	458.74
559.14	376.83
559.31	447.04
559.47	393.21
559.64	383.85
559.80	393.21
559.97	367.46
560.13	454.06
560.30	470.45
560.46	386.19
560.63	477.47
560.79	491.51
560.96	442.36
561.12	428.32
561.29	437.68
561.45	397.89
561.61	465.77
561.78	454.06
561.94	472.79
562.11	383.85
562.27	395.55
562.44	381.51
562.60	386.19
562.77	365.12
562.93	365.12
563.10	433.00
563.26	517.26
563.42	472.79
563.59	449.38
563.75	402.57
563.92	395.55
564.08	468.11
564.24	465.77
564.41	418.96
564.57	484.49
564.74	358.10
564.90	372.15
565.07	409.59
565.23	437.68
565.39	444.70
565.56	386.19
565.72	407.25
565.88	353.42
566.05	402.57
566.21	433.00
566.38	388.53
566.54	393.21
566.70	351.08
566.87	456.40
567.03	430.66
567.19	433.00
567.36	414.27
567.52	397.89
567.68	353.42
567.85	397.89
568.01	454.06
568.17	437.68
568.34	388.53
568.50	461.09
568.66	390.87
568.83	416.62
568.99	400.23
569.15	362.78
569.32	451.72
569.48	369.80
569.64	395.55
569.81	444.70
569.97	374.49
570.13	404.91
570.30	447.04
570.46	376.83
570.62	418.96
570.78	416.62
570.95	416.62
571.11	493.85
571.27	421.30
571.43	414.27
571.60	383.85
571.76	472.79
571.92	383.85
572.09	369.80
572.25	423.64
572.41	470.45
572.57	404.91
572.74	496.19
572.90	517.26
573.06	369.80
573.22	367.46
573.38	402.57
573.55	390.87
573.71	461.09
573.87	479.81
574.03	400.23
574.20	482.15
574.36	449.38
574.52	463.43
574.68	409.59
574.84	388.53
575.01	449.38
575.17	444.70
575.33	458.74
575.49	390.87
575.65	397.89
575.82	472.79
575.98	409.59
576.14	369.80
576.30	430.66
576.46	351.08
576.62	355.76
576.79	458.74
576.95	472.79
577.11	435.34
577.27	348.74
577.43	379.17
577.59	414.27
577.75	407.25
577.92	440.02
578.08	358.10
578.24	470.45
578.40	428.32
578.56	383.85
578.72	390.87
578.88	524.28
579.04	421.30
579.21	395.55
579.37	442.36
579.53	447.04
579.69	433.00
579.85	433.00
580.01	404.91
580.17	390.87
580.33	433.00
580.49	440.02
580.65	395.55
580.82	442.36
580.98	379.17
581.14	425.98
581.30	507.90
581.46	416.62
581.62	454.06
581.78	397.89
581.94	404.91
582.10	416.62
582.26	416.62
582.42	444.70
582.58	500.87
582.74	386.19
582.90	425.98
583.06	440.02
583.22	463.43
583.38	404.91
583.54	358.10
583.70	425.98
583.86	465.77
584.02	407.25
584.18	447.04
584.34	348.74
584.50	400.23
584.66	421.30
584.82	367.46
584.98	414.27
585.14	433.00
585.30	390.87
585.46	414.27
585.62	397.89
585.78	475.13
585.94	479.81
586.10	416.62
586.26	407.25
586.42	482.15
586.58	425.98
586.74	362.78
586.90	430.66
587.06	437.68
587.22	374.49
587.38	414.27
587.54	400.23
587.70	449.38
587.86	503.22
588.02	386.19
588.18	358.10
588.34	397.89
588.49	444.70
588.65	435.34
588.81	437.68
588.97	379.17
589.13	379.17
589.29	381.51
589.45	489.17
589.61	428.32
589.77	456.40
589.93	388.53
590.08	421.30
590.24	414.27
590.40	337.04
590.56	411.93
590.72	458.74
590.88	367.46
591.04	411.93
591.20	367.46
591.35	442.36
591.51	510.24
591.67	430.66
591.83	416.62
591.99	430.66
592.15	451.72
592.31	437.68
592.46	397.89
592.62	386.19
592.78	400.23
592.94	447.04
593.10	346.40
593.26	365.12
593.41	360.44
593.57	428.32
593.73	456.40
593.89	454.06
594.05	414.27
594.20	390.87
594.36	428.32
594.52	400.23
594.68	437.68
594.84	512.58
594.99	514.92
595.15	418.96
595.31	397.89
595.47	449.38
595.62	430.66
595.78	418.96
595.94	397.89
596.10	468.11
596.25	358.10
596.41	449.38
596.57	421.30
596.73	414.27
596.88	428.32
597.04	395.55
597.20	346.40
597.36	461.09
597.51	423.64
597.67	395.55
597.83	414.27
597.99	320.65
598.14	447.04
598.30	463.43
598.46	472.79
598.61	416.62
598.77	414.27
598.93	393.21
599.09	421.30
599.24	454.06
599.40	458.74
599.56	454.06
599.71	437.68
599.87	433.00
600.03	393.21
600.18	369.80
600.34	414.27
600.50	477.47
600.65	383.85
600.81	437.68
600.97	386.19
601.12	463.43
601.28	442.36
601.44	353.42
601.59	337.04
601.75	386.19
601.91	395.55
602.06	397.89
602.22	528.96
602.37	416.62
602.53	400.23
602.69	404.91
602.84	423.64
603.00	440.02
603.16	442.36
603.31	411.93
603.47	411.93
603.62	409.59
603.78	404.91
603.94	379.17
604.09	430.66
604.25	470.45
604.40	477.47
604.56	440.02
604.71	395.55
604.87	423.64
605.03	477.47
605.18	435.34
605.34	360.44
605.49	365.12
605.65	397.89
605.80	404.91
605.96	430.66
606.12	395.55
606.27	397.89
606.43	416.62
606.58	407.25
606.74	416.62
606.89	400.23
607.05	447.04
607.20	484.49
607.36	397.89
607.51	397.89
607.67	414.27
607.82	400.23
607.98	346.40
608.13	430.66
608.29	362.78
608.44	423.64
608.60	400.23
608.75	376.83
608.91	479.81
609.06	510.24
609.22	465.77
609.37	423.64
609.53	442.36
609.68	477.47
609.84	386.19
609.99	442.36
610.15	442.36
