SpectraSuite Data File
++++++++++++++++++++++++++++++++++++
Date: Fri Oct 25 12:11:34 EDT 2013
User: price-jones
Dark Spectrum Present: No
Reference Spectrum Present: No
Number of Sampled Component Spectra: 1
Spectrometers: USB2+H05261
Integration Time (usec): 100000 (USB2+H05261)
Spectra Averaged: 1 (USB2+H05261)
Boxcar Smoothing: 0 (USB2+H05261)
Correct for Electrical Dark: No (USB2+H05261)
Strobe/Lamp Enabled: No (USB2+H05261)
Correct for Detector Non-linearity: No (USB2+H05261)
Correct for Stray Light: No (USB2+H05261)
Number of Pixels in Processed Spectrum: 2048
>>>>>Begin Processed Spectral Data<<<<<
365.73	400.23
365.92	400.23
366.12	400.23
366.32	262.14
366.52	259.80
366.72	215.33
366.91	250.44
367.11	243.42
367.31	283.20
367.51	217.67
367.70	208.31
367.90	245.76
368.10	229.37
368.30	269.16
368.49	299.59
368.69	299.59
368.89	292.57
369.09	215.33
369.28	271.50
369.48	273.84
369.68	234.05
369.87	271.50
370.07	280.86
370.27	346.40
370.47	257.46
370.66	299.59
370.86	355.76
371.06	402.57
371.25	386.19
371.45	332.36
371.65	433.00
371.84	388.53
372.04	355.76
372.24	418.96
372.44	376.83
372.63	358.10
372.83	428.32
373.03	411.93
373.22	393.21
373.42	465.77
373.62	418.96
373.81	475.13
374.01	425.98
374.21	404.91
374.40	425.98
374.60	482.15
374.79	315.97
374.99	447.04
375.19	444.70
375.38	430.66
375.58	365.12
375.78	421.30
375.97	425.98
376.17	421.30
376.37	430.66
376.56	418.96
376.76	454.06
376.95	414.27
377.15	383.85
377.35	435.34
377.54	475.13
377.74	381.51
377.93	421.30
378.13	428.32
378.33	393.21
378.52	418.96
378.72	456.40
378.91	351.08
379.11	437.68
379.31	428.32
379.50	425.98
379.70	425.98
379.89	437.68
380.09	393.21
380.28	477.47
380.48	425.98
380.68	369.80
380.87	416.62
381.07	442.36
381.26	416.62
381.46	388.53
381.65	472.79
381.85	390.87
382.04	423.64
382.24	444.70
382.43	437.68
382.63	362.78
382.83	416.62
383.02	451.72
383.22	442.36
383.41	369.80
383.61	402.57
383.80	421.30
384.00	379.17
384.19	388.53
384.39	440.02
384.58	472.79
384.78	449.38
384.97	425.98
385.17	367.46
385.36	337.04
385.56	404.91
385.75	395.55
385.95	393.21
386.14	449.38
386.34	334.70
386.53	383.85
386.72	451.72
386.92	421.30
387.11	383.85
387.31	407.25
387.50	416.62
387.70	395.55
387.89	421.30
388.09	442.36
388.28	404.91
388.48	411.93
388.67	414.27
388.86	411.93
389.06	390.87
389.25	404.91
389.45	407.25
389.64	386.19
389.84	425.98
390.03	341.72
390.22	407.25
390.42	334.70
390.61	381.51
390.81	383.85
391.00	444.70
391.19	433.00
391.39	418.96
391.58	367.46
391.78	458.74
391.97	428.32
392.16	372.15
392.36	435.34
392.55	470.45
392.75	407.25
392.94	330.02
393.13	440.02
393.33	404.91
393.52	451.72
393.71	440.02
393.91	393.21
394.10	397.89
394.29	362.78
394.49	447.04
394.68	456.40
394.88	440.02
395.07	409.59
395.26	372.15
395.46	393.21
395.65	447.04
395.84	447.04
396.04	524.28
396.23	369.80
396.42	437.68
396.62	433.00
396.81	372.15
397.00	397.89
397.19	461.09
397.39	521.94
397.58	442.36
397.77	440.02
397.97	402.57
398.16	447.04
398.35	409.59
398.55	411.93
398.74	374.49
398.93	416.62
399.12	402.57
399.32	425.98
399.51	433.00
399.70	458.74
399.90	383.85
400.09	402.57
400.28	421.30
400.47	440.02
400.67	435.34
400.86	344.06
401.05	390.87
401.24	433.00
401.44	395.55
401.63	397.89
401.82	416.62
402.01	435.34
402.21	388.53
402.40	430.66
402.59	411.93
402.78	390.87
402.97	355.76
403.17	437.68
403.36	393.21
403.55	421.30
403.74	437.68
403.93	362.78
404.13	393.21
404.32	379.17
404.51	397.89
404.70	421.30
404.89	402.57
405.09	477.47
405.28	393.21
405.47	381.51
405.66	386.19
405.85	414.27
406.05	468.11
406.24	423.64
406.43	395.55
406.62	386.19
406.81	395.55
407.00	519.60
407.20	400.23
407.39	367.46
407.58	376.83
407.77	379.17
407.96	409.59
408.15	322.99
408.34	435.34
408.54	407.25
408.73	367.46
408.92	367.46
409.11	407.25
409.30	496.19
409.49	404.91
409.68	393.21
409.87	479.81
410.07	407.25
410.26	407.25
410.45	444.70
410.64	351.08
410.83	449.38
411.02	418.96
411.21	407.25
411.40	463.43
411.59	486.83
411.78	339.38
411.98	430.66
412.17	458.74
412.36	414.27
412.55	409.59
412.74	435.34
412.93	337.04
413.12	409.59
413.31	386.19
413.50	404.91
413.69	404.91
413.88	430.66
414.07	433.00
414.26	477.47
414.45	425.98
414.64	409.59
414.83	404.91
415.02	383.85
415.22	379.17
415.41	411.93
415.60	435.34
415.79	395.55
415.98	428.32
416.17	418.96
416.36	461.09
416.55	425.98
416.74	390.87
416.93	433.00
417.12	386.19
417.31	358.10
417.50	423.64
417.69	482.15
417.88	428.32
418.07	376.83
418.26	425.98
418.45	346.40
418.64	383.85
418.83	348.74
419.02	386.19
419.21	362.78
419.39	407.25
419.58	430.66
419.77	306.61
419.96	369.80
420.15	416.62
420.34	437.68
420.53	355.76
420.72	458.74
420.91	430.66
421.10	442.36
421.29	395.55
421.48	447.04
421.67	409.59
421.86	374.49
422.05	404.91
422.24	416.62
422.43	414.27
422.61	313.63
422.80	407.25
422.99	430.66
423.18	421.30
423.37	489.17
423.56	451.72
423.75	416.62
423.94	344.06
424.13	470.45
424.32	409.59
424.50	411.93
424.69	297.25
424.88	402.57
425.07	440.02
425.26	407.25
425.45	430.66
425.64	425.98
425.83	395.55
426.01	402.57
426.20	421.30
426.39	430.66
426.58	449.38
426.77	423.64
426.96	390.87
427.15	437.68
427.33	381.51
427.52	409.59
427.71	341.72
427.90	411.93
428.09	402.57
428.28	423.64
428.46	381.51
428.65	503.22
428.84	346.40
429.03	435.34
429.22	416.62
429.40	358.10
429.59	442.36
429.78	465.77
429.97	372.15
430.16	463.43
430.34	461.09
430.53	369.80
430.72	397.89
430.91	402.57
431.10	404.91
431.28	407.25
431.47	428.32
431.66	409.59
431.85	447.04
432.03	362.78
432.22	528.96
432.41	327.68
432.60	489.17
432.79	397.89
432.97	442.36
433.16	407.25
433.35	404.91
433.54	425.98
433.72	491.51
433.91	449.38
434.10	447.04
434.28	381.51
434.47	402.57
434.66	447.04
434.85	421.30
435.03	414.27
435.22	372.15
435.41	423.64
435.59	435.34
435.78	397.89
435.97	404.91
436.16	458.74
436.34	437.68
436.53	463.43
436.72	458.74
436.90	505.56
437.09	433.00
437.28	411.93
437.46	337.04
437.65	451.72
437.84	437.68
438.02	440.02
438.21	510.24
438.40	418.96
438.58	425.98
438.77	430.66
438.96	390.87
439.14	433.00
439.33	463.43
439.52	428.32
439.70	440.02
439.89	393.21
440.08	409.59
440.26	442.36
440.45	428.32
440.63	400.23
440.82	433.00
441.01	461.09
441.19	433.00
441.38	477.47
441.57	482.15
441.75	388.53
441.94	486.83
442.12	346.40
442.31	400.23
442.50	430.66
442.68	388.53
442.87	404.91
443.05	404.91
443.24	414.27
443.43	416.62
443.61	484.49
443.80	433.00
443.98	458.74
444.17	332.36
444.35	397.89
444.54	451.72
444.73	435.34
444.91	477.47
445.10	433.00
445.28	463.43
445.47	440.02
445.65	409.59
445.84	404.91
446.02	397.89
446.21	374.49
446.39	421.30
446.58	395.55
446.77	379.17
446.95	442.36
447.14	416.62
447.32	379.17
447.51	397.89
447.69	507.90
447.88	425.98
448.06	390.87
448.25	411.93
448.43	358.10
448.62	390.87
448.80	482.15
448.99	411.93
449.17	358.10
449.36	428.32
449.54	468.11
449.73	358.10
449.91	454.06
450.10	418.96
450.28	454.06
450.46	416.62
450.65	470.45
450.83	416.62
451.02	407.25
451.20	458.74
451.39	482.15
451.57	332.36
451.76	360.44
451.94	414.27
452.13	402.57
452.31	449.38
452.49	451.72
452.68	397.89
452.86	451.72
453.05	454.06
453.23	386.19
453.42	404.91
453.60	433.00
453.78	454.06
453.97	428.32
454.15	379.17
454.34	430.66
454.52	386.19
454.70	404.91
454.89	409.59
455.07	477.47
455.26	416.62
455.44	386.19
455.62	400.23
455.81	414.27
455.99	383.85
456.17	423.64
456.36	358.10
456.54	372.15
456.73	395.55
456.91	423.64
457.09	458.74
457.28	381.51
457.46	433.00
457.64	411.93
457.83	454.06
458.01	437.68
458.19	418.96
458.38	393.21
458.56	390.87
458.74	397.89
458.93	465.77
459.11	402.57
459.29	404.91
459.48	418.96
459.66	512.58
459.84	407.25
460.03	479.81
460.21	390.87
460.39	503.22
460.57	454.06
460.76	428.32
460.94	390.87
461.12	519.60
461.31	482.15
461.49	421.30
461.67	402.57
461.85	400.23
462.04	482.15
462.22	746.63
462.40	369.80
462.59	414.27
462.77	435.34
462.95	386.19
463.13	411.93
463.32	440.02
463.50	397.89
463.68	404.91
463.86	383.85
464.05	411.93
464.23	421.30
464.41	447.04
464.59	440.02
464.78	339.38
464.96	344.06
465.14	430.66
465.32	423.64
465.50	374.49
465.69	388.53
465.87	418.96
466.05	423.64
466.23	418.96
466.41	407.25
466.60	428.32
466.78	379.17
466.96	423.64
467.14	402.57
467.32	505.56
467.51	386.19
467.69	433.00
467.87	386.19
468.05	409.59
468.23	447.04
468.41	372.15
468.60	425.98
468.78	486.83
468.96	381.51
469.14	430.66
469.32	418.96
469.50	330.02
469.69	409.59
469.87	383.85
470.05	421.30
470.23	421.30
470.41	425.98
470.59	379.17
470.77	332.36
470.95	414.27
471.14	447.04
471.32	313.63
471.50	454.06
471.68	442.36
471.86	428.32
472.04	397.89
472.22	435.34
472.40	442.36
472.58	383.85
472.77	402.57
472.95	393.21
473.13	369.80
473.31	472.79
473.49	411.93
473.67	390.87
473.85	503.22
474.03	475.13
474.21	390.87
474.39	451.72
474.57	514.92
474.75	379.17
474.93	376.83
475.12	381.51
475.30	489.17
475.48	479.81
475.66	423.64
475.84	390.87
476.02	374.49
476.20	407.25
476.38	418.96
476.56	472.79
476.74	388.53
476.92	437.68
477.10	404.91
477.28	435.34
477.46	437.68
477.64	454.06
477.82	400.23
478.00	376.83
478.18	444.70
478.36	442.36
478.54	421.30
478.72	383.85
478.90	404.91
479.08	442.36
479.26	402.57
479.44	468.11
479.62	440.02
479.80	442.36
479.98	358.10
480.16	383.85
480.34	418.96
480.52	449.38
480.70	386.19
480.88	411.93
481.06	397.89
481.24	383.85
481.41	442.36
481.59	362.78
481.77	369.80
481.95	381.51
482.13	489.17
482.31	421.30
482.49	423.64
482.67	365.12
482.85	428.32
483.03	414.27
483.21	430.66
483.39	479.81
483.57	433.00
483.74	416.62
483.92	458.74
484.10	390.87
484.28	367.46
484.46	500.87
484.64	362.78
484.82	407.25
485.00	440.02
485.18	421.30
485.35	404.91
485.53	383.85
485.71	496.19
485.89	372.15
486.07	433.00
486.25	479.81
486.43	418.96
486.61	402.57
486.78	442.36
486.96	404.91
487.14	358.10
487.32	393.21
487.50	409.59
487.68	369.80
487.85	390.87
488.03	444.70
488.21	435.34
488.39	386.19
488.57	470.45
488.75	407.25
488.92	449.38
489.10	500.87
489.28	402.57
489.46	435.34
489.64	416.62
489.81	444.70
489.99	468.11
490.17	388.53
490.35	442.36
490.53	393.21
490.70	393.21
490.88	482.15
491.06	367.46
491.24	397.89
491.41	475.13
491.59	430.66
491.77	397.89
491.95	297.25
492.13	388.53
492.30	400.23
492.48	390.87
492.66	386.19
492.84	433.00
493.01	416.62
493.19	367.46
493.37	353.42
493.54	407.25
493.72	383.85
493.90	468.11
494.08	390.87
494.25	418.96
494.43	458.74
494.61	404.91
494.79	416.62
494.96	372.15
495.14	407.25
495.32	360.44
495.49	411.93
495.67	444.70
495.85	360.44
496.02	360.44
496.20	440.02
496.38	411.93
496.55	435.34
496.73	404.91
496.91	451.72
497.09	442.36
497.26	425.98
497.44	433.00
497.62	475.13
497.79	395.55
497.97	418.96
498.14	493.85
498.32	341.72
498.50	376.83
498.67	418.96
498.85	372.15
499.03	447.04
499.20	386.19
499.38	306.61
499.56	344.06
499.73	451.72
499.91	402.57
500.08	437.68
500.26	454.06
500.44	388.53
500.61	458.74
500.79	376.83
500.97	369.80
501.14	440.02
501.32	397.89
501.49	449.38
501.67	428.32
501.84	409.59
502.02	376.83
502.20	470.45
502.37	390.87
502.55	402.57
502.72	381.51
502.90	468.11
503.07	421.30
503.25	440.02
503.43	468.11
503.60	416.62
503.78	484.49
503.95	395.55
504.13	395.55
504.30	421.30
504.48	437.68
504.65	451.72
504.83	430.66
505.01	416.62
505.18	411.93
505.36	374.49
505.53	454.06
505.71	374.49
505.88	510.24
506.06	442.36
506.23	437.68
506.41	444.70
506.58	433.00
506.76	418.96
506.93	379.17
507.11	463.43
507.28	416.62
507.46	351.08
507.63	440.02
507.81	404.91
507.98	390.87
508.16	456.40
508.33	433.00
508.50	337.04
508.68	400.23
508.85	449.38
509.03	400.23
509.20	367.46
509.38	428.32
509.55	416.62
509.73	395.55
509.90	416.62
510.08	440.02
510.25	414.27
510.42	393.21
510.60	390.87
510.77	369.80
510.95	379.17
511.12	404.91
511.30	388.53
511.47	416.62
511.64	442.36
511.82	404.91
511.99	447.04
512.17	367.46
512.34	351.08
512.51	414.27
512.69	447.04
512.86	430.66
513.04	402.57
513.21	442.36
513.38	430.66
513.56	421.30
513.73	416.62
513.90	414.27
514.08	374.49
514.25	416.62
514.43	404.91
514.60	475.13
514.77	365.12
514.95	381.51
515.12	400.23
515.29	442.36
515.47	442.36
515.64	435.34
515.81	414.27
515.99	482.15
516.16	425.98
516.33	428.32
516.51	365.12
516.68	458.74
516.85	416.62
517.03	414.27
517.20	397.89
517.37	418.96
517.54	407.25
517.72	395.55
517.89	418.96
518.06	397.89
518.24	433.00
518.41	465.77
518.58	367.46
518.75	376.83
518.93	330.02
519.10	388.53
519.27	421.30
519.45	376.83
519.62	351.08
519.79	414.27
519.96	376.83
520.14	383.85
520.31	454.06
520.48	365.12
520.65	397.89
520.83	442.36
521.00	407.25
521.17	449.38
521.34	407.25
521.52	468.11
521.69	425.98
521.86	442.36
522.03	421.30
522.20	489.17
522.38	369.80
522.55	433.00
522.72	369.80
522.89	505.56
523.07	496.19
523.24	397.89
523.41	442.36
523.58	367.46
523.75	458.74
523.92	425.98
524.10	451.72
524.27	421.30
524.44	388.53
524.61	435.34
524.78	465.77
524.96	383.85
525.13	402.57
525.30	414.27
525.47	428.32
525.64	346.40
525.81	442.36
525.98	390.87
526.16	353.42
526.33	362.78
526.50	407.25
526.67	388.53
526.84	353.42
527.01	355.76
527.18	475.13
527.36	351.08
527.53	451.72
527.70	418.96
527.87	381.51
528.04	433.00
528.21	414.27
528.38	388.53
528.55	381.51
528.72	507.90
528.89	433.00
529.07	379.17
529.24	428.32
529.41	437.68
529.58	456.40
529.75	418.96
529.92	449.38
530.09	449.38
530.26	365.12
530.43	379.17
530.60	409.59
530.77	390.87
530.94	477.47
531.11	367.46
531.28	388.53
531.46	470.45
531.63	470.45
531.80	425.98
531.97	435.34
532.14	421.30
532.31	416.62
532.48	306.61
532.65	437.68
532.82	400.23
532.99	395.55
533.16	435.34
533.33	479.81
533.50	407.25
533.67	421.30
533.84	400.23
534.01	407.25
534.18	461.09
534.35	423.64
534.52	433.00
534.69	428.32
534.86	334.70
535.03	449.38
535.20	486.83
535.37	428.32
535.54	409.59
535.71	470.45
535.88	489.17
536.05	442.36
536.22	393.21
536.38	500.87
536.55	444.70
536.72	479.81
536.89	440.02
537.06	381.51
537.23	407.25
537.40	409.59
537.57	390.87
537.74	430.66
537.91	353.42
538.08	411.93
538.25	404.91
538.42	390.87
538.59	444.70
538.75	369.80
538.92	404.91
539.09	454.06
539.26	418.96
539.43	414.27
539.60	440.02
539.77	414.27
539.94	379.17
540.11	379.17
540.28	400.23
540.44	519.60
540.61	407.25
540.78	454.06
540.95	400.23
541.12	465.77
541.29	388.53
541.46	407.25
541.62	454.06
541.79	388.53
541.96	388.53
542.13	423.64
542.30	425.98
542.47	463.43
542.63	433.00
542.80	484.49
542.97	376.83
543.14	414.27
543.31	470.45
543.48	418.96
543.64	376.83
543.81	435.34
543.98	313.63
544.15	390.87
544.32	397.89
544.48	444.70
544.65	435.34
544.82	414.27
544.99	383.85
545.16	421.30
545.32	430.66
545.49	447.04
545.66	360.44
545.83	388.53
546.00	372.15
546.16	423.64
546.33	440.02
546.50	465.77
546.67	458.74
546.83	395.55
547.00	351.08
547.17	437.68
547.34	421.30
547.50	404.91
547.67	388.53
547.84	386.19
548.00	425.98
548.17	428.32
548.34	440.02
548.51	486.83
548.67	449.38
548.84	414.27
549.01	430.66
549.18	388.53
549.34	423.64
549.51	390.87
549.68	414.27
549.84	418.96
550.01	418.96
550.18	463.43
550.34	425.98
550.51	360.44
550.68	503.22
550.84	390.87
551.01	355.76
551.18	369.80
551.34	425.98
551.51	428.32
551.68	425.98
551.84	388.53
552.01	435.34
552.18	433.00
552.34	444.70
552.51	383.85
552.68	395.55
552.84	472.79
553.01	444.70
553.18	435.34
553.34	407.25
553.51	402.57
553.67	449.38
553.84	454.06
554.01	381.51
554.17	397.89
554.34	348.74
554.51	400.23
554.67	407.25
554.84	397.89
555.00	369.80
555.17	383.85
555.33	493.85
555.50	433.00
555.67	390.87
555.83	449.38
556.00	468.11
556.16	587.47
556.33	519.60
556.50	456.40
556.66	517.26
556.83	409.59
556.99	433.00
557.16	447.04
557.32	337.04
557.49	393.21
557.65	376.83
557.82	428.32
557.98	400.23
558.15	418.96
558.32	416.62
558.48	409.59
558.65	379.17
558.81	437.68
558.98	440.02
559.14	437.68
559.31	500.87
559.47	416.62
559.64	454.06
559.80	451.72
559.97	381.51
560.13	381.51
560.30	383.85
560.46	421.30
560.63	449.38
560.79	395.55
560.96	456.40
561.12	470.45
561.29	440.02
561.45	486.83
561.61	369.80
561.78	440.02
561.94	402.57
562.11	428.32
562.27	479.81
562.44	409.59
562.60	472.79
562.77	411.93
562.93	477.47
563.10	421.30
563.26	418.96
563.42	440.02
563.59	428.32
563.75	407.25
563.92	381.51
564.08	390.87
564.24	491.51
564.41	479.81
564.57	468.11
564.74	458.74
564.90	386.19
565.07	458.74
565.23	374.49
565.39	423.64
565.56	425.98
565.72	381.51
565.88	498.53
566.05	447.04
566.21	442.36
566.38	463.43
566.54	440.02
566.70	374.49
566.87	440.02
567.03	442.36
567.19	376.83
567.36	437.68
567.52	440.02
567.68	416.62
567.85	365.12
568.01	425.98
568.17	376.83
568.34	425.98
568.50	381.51
568.66	362.78
568.83	447.04
568.99	454.06
569.15	404.91
569.32	425.98
569.48	433.00
569.64	346.40
569.81	435.34
569.97	470.45
570.13	404.91
570.30	414.27
570.46	493.85
570.62	465.77
570.78	425.98
570.95	360.44
571.11	493.85
571.27	470.45
571.43	425.98
571.60	454.06
571.76	390.87
571.92	465.77
572.09	393.21
572.25	423.64
572.41	407.25
572.57	428.32
572.74	418.96
572.90	447.04
573.06	344.06
573.22	425.98
573.38	386.19
573.55	390.87
573.71	472.79
573.87	493.85
574.03	301.93
574.20	388.53
574.36	503.22
574.52	369.80
574.68	440.02
574.84	484.49
575.01	395.55
575.17	411.93
575.33	416.62
575.49	365.12
575.65	482.15
575.82	358.10
575.98	418.96
576.14	379.17
576.30	433.00
576.46	390.87
576.62	381.51
576.79	397.89
576.95	435.34
577.11	423.64
577.27	376.83
577.43	454.06
577.59	409.59
577.75	409.59
577.92	430.66
578.08	425.98
578.24	374.49
578.40	407.25
578.56	479.81
578.72	449.38
578.88	425.98
579.04	418.96
579.21	416.62
579.37	360.44
579.53	337.04
579.69	456.40
579.85	393.21
580.01	468.11
580.17	512.58
580.33	414.27
580.49	447.04
580.65	437.68
580.82	428.32
580.98	442.36
581.14	320.65
581.30	512.58
581.46	418.96
581.62	379.17
581.78	395.55
581.94	430.66
582.10	404.91
582.26	341.72
582.42	379.17
582.58	409.59
582.74	484.49
582.90	400.23
583.06	461.09
583.22	451.72
583.38	376.83
583.54	472.79
583.70	423.64
583.86	379.17
584.02	353.42
584.18	411.93
584.34	376.83
584.50	400.23
584.66	400.23
584.82	425.98
584.98	444.70
585.14	418.96
585.30	433.00
585.46	430.66
585.62	390.87
585.78	365.12
585.94	418.96
586.10	374.49
586.26	407.25
586.42	397.89
586.58	411.93
586.74	390.87
586.90	337.04
587.06	451.72
587.22	416.62
587.38	360.44
587.54	376.83
587.70	393.21
587.86	451.72
588.02	374.49
588.18	404.91
588.34	411.93
588.49	409.59
588.65	451.72
588.81	409.59
588.97	372.15
589.13	461.09
589.29	407.25
589.45	397.89
589.61	390.87
589.77	409.59
589.93	479.81
590.08	463.43
590.24	435.34
590.40	421.30
590.56	388.53
590.72	442.36
590.88	449.38
591.04	454.06
591.20	449.38
591.35	454.06
591.51	421.30
591.67	400.23
591.83	428.32
591.99	440.02
592.15	379.17
592.31	461.09
592.46	395.55
592.62	393.21
592.78	505.56
592.94	402.57
593.10	425.98
593.26	444.70
593.41	411.93
593.57	442.36
593.73	468.11
593.89	428.32
594.05	442.36
594.20	418.96
594.36	533.64
594.52	430.66
594.68	463.43
594.84	486.83
594.99	458.74
595.15	526.62
595.31	388.53
595.47	416.62
595.62	402.57
595.78	402.57
595.94	397.89
596.10	348.74
596.25	416.62
596.41	433.00
596.57	418.96
596.73	402.57
596.88	381.51
597.04	383.85
597.20	376.83
597.36	479.81
597.51	390.87
597.67	379.17
597.83	409.59
597.99	451.72
598.14	400.23
598.30	416.62
598.46	433.00
598.61	451.72
598.77	425.98
598.93	386.19
599.09	402.57
599.24	435.34
599.40	475.13
599.56	407.25
599.71	444.70
599.87	489.17
600.03	416.62
600.18	423.64
600.34	402.57
600.50	425.98
600.65	386.19
600.81	421.30
600.97	400.23
601.12	390.87
601.28	395.55
601.44	456.40
601.59	423.64
601.75	367.46
601.91	416.62
602.06	442.36
602.22	454.06
602.37	465.77
602.53	423.64
602.69	418.96
602.84	395.55
603.00	465.77
603.16	477.47
603.31	491.51
603.47	402.57
603.62	341.72
603.78	437.68
603.94	428.32
604.09	400.23
604.25	444.70
604.40	402.57
604.56	327.68
604.71	416.62
604.87	496.19
605.03	386.19
605.18	411.93
605.34	402.57
605.49	386.19
605.65	360.44
605.80	400.23
605.96	409.59
606.12	454.06
606.27	454.06
606.43	369.80
606.58	395.55
606.74	428.32
606.89	383.85
607.05	397.89
607.20	388.53
607.36	416.62
607.51	390.87
607.67	449.38
607.82	386.19
607.98	463.43
608.13	388.53
608.29	425.98
608.44	395.55
608.60	348.74
608.75	472.79
608.91	496.19
609.06	454.06
609.22	489.17
609.37	442.36
609.53	397.89
609.68	337.04
609.84	407.25
609.99	454.06
610.15	440.02
