SpectraSuite Data File
++++++++++++++++++++++++++++++++++++
Date: Fri Oct 25 12:10:24 EDT 2013
User: price-jones
Dark Spectrum Present: No
Reference Spectrum Present: No
Number of Sampled Component Spectra: 1
Spectrometers: USB2+H05261
Integration Time (usec): 100000 (USB2+H05261)
Spectra Averaged: 1 (USB2+H05261)
Boxcar Smoothing: 0 (USB2+H05261)
Correct for Electrical Dark: No (USB2+H05261)
Strobe/Lamp Enabled: No (USB2+H05261)
Correct for Detector Non-linearity: No (USB2+H05261)
Correct for Stray Light: No (USB2+H05261)
Number of Pixels in Processed Spectrum: 2048
>>>>>Begin Processed Spectral Data<<<<<
365.73	351.08
365.92	351.08
366.12	351.08
366.32	203.63
366.52	245.76
366.72	259.80
366.91	236.39
367.11	262.14
367.31	266.82
367.51	170.86
367.70	229.37
367.90	290.23
368.10	243.42
368.30	262.14
368.49	212.99
368.69	220.01
368.89	238.73
369.09	229.37
369.28	241.08
369.48	276.18
369.68	273.84
369.87	304.27
370.07	262.14
370.27	220.01
370.47	311.29
370.66	421.30
370.86	390.87
371.06	369.80
371.25	409.59
371.45	374.49
371.65	388.53
371.84	411.93
372.04	379.17
372.24	437.68
372.44	362.78
372.63	465.77
372.83	402.57
373.03	407.25
373.22	414.27
373.42	395.55
373.62	395.55
373.81	416.62
374.01	409.59
374.21	472.79
374.40	383.85
374.60	407.25
374.79	444.70
374.99	283.20
375.19	322.99
375.38	440.02
375.58	451.72
375.78	470.45
375.97	416.62
376.17	414.27
376.37	416.62
376.56	365.12
376.76	411.93
376.95	381.51
377.15	372.15
377.35	402.57
377.54	519.60
377.74	484.49
377.93	395.55
378.13	421.30
378.33	428.32
378.52	341.72
378.72	414.27
378.91	449.38
379.11	383.85
379.31	468.11
379.50	374.49
379.70	386.19
379.89	397.89
380.09	400.23
380.28	416.62
380.48	360.44
380.68	353.42
380.87	458.74
381.07	447.04
381.26	341.72
381.46	381.51
381.65	372.15
381.85	395.55
382.04	444.70
382.24	404.91
382.43	407.25
382.63	374.49
382.83	465.77
383.02	402.57
383.22	358.10
383.41	376.83
383.61	414.27
383.80	440.02
384.00	388.53
384.19	423.64
384.39	404.91
384.58	386.19
384.78	381.51
384.97	355.76
385.17	416.62
385.36	381.51
385.56	486.83
385.75	418.96
385.95	470.45
386.14	444.70
386.34	400.23
386.53	468.11
386.72	360.44
386.92	449.38
387.11	437.68
387.31	404.91
387.50	421.30
387.70	355.76
387.89	341.72
388.09	346.40
388.28	416.62
388.48	397.89
388.67	416.62
388.86	379.17
389.06	421.30
389.25	388.53
389.45	411.93
389.64	454.06
389.84	507.90
390.03	440.02
390.22	369.80
390.42	402.57
390.61	381.51
390.81	341.72
391.00	498.53
391.19	407.25
391.39	376.83
391.58	379.17
391.78	451.72
391.97	390.87
392.16	397.89
392.36	456.40
392.55	454.06
392.75	505.56
392.94	390.87
393.13	454.06
393.33	414.27
393.52	407.25
393.71	435.34
393.91	437.68
394.10	402.57
394.29	437.68
394.49	351.08
394.68	456.40
394.88	440.02
395.07	402.57
395.26	376.83
395.46	381.51
395.65	465.77
395.84	454.06
396.04	496.19
396.23	430.66
396.42	440.02
396.62	425.98
396.81	433.00
397.00	437.68
397.19	404.91
397.39	383.85
397.58	367.46
397.77	372.15
397.97	367.46
398.16	355.76
398.35	386.19
398.55	325.33
398.74	430.66
398.93	418.96
399.12	395.55
399.32	458.74
399.51	503.22
399.70	416.62
399.90	414.27
400.09	444.70
400.28	461.09
400.47	358.10
400.67	500.87
400.86	407.25
401.05	390.87
401.24	381.51
401.44	468.11
401.63	414.27
401.82	400.23
402.01	454.06
402.21	395.55
402.40	421.30
402.59	447.04
402.78	330.02
402.97	358.10
403.17	360.44
403.36	514.92
403.55	428.32
403.74	362.78
403.93	388.53
404.13	414.27
404.32	386.19
404.51	367.46
404.70	388.53
404.89	454.06
405.09	444.70
405.28	411.93
405.47	386.19
405.66	379.17
405.85	442.36
406.05	437.68
406.24	451.72
406.43	411.93
406.62	409.59
406.81	416.62
407.00	456.40
407.20	355.76
407.39	362.78
407.58	358.10
407.77	421.30
407.96	470.45
408.15	484.49
408.34	465.77
408.54	414.27
408.73	376.83
408.92	330.02
409.11	477.47
409.30	456.40
409.49	433.00
409.68	397.89
409.87	374.49
410.07	332.36
410.26	407.25
410.45	322.99
410.64	341.72
410.83	367.46
411.02	346.40
411.21	390.87
411.40	379.17
411.59	386.19
411.78	418.96
411.98	423.64
412.17	435.34
412.36	397.89
412.55	390.87
412.74	390.87
412.93	379.17
413.12	362.78
413.31	444.70
413.50	430.66
413.69	433.00
413.88	383.85
414.07	425.98
414.26	390.87
414.45	367.46
414.64	433.00
414.83	465.77
415.02	418.96
415.22	423.64
415.41	435.34
415.60	374.49
415.79	367.46
415.98	440.02
416.17	416.62
416.36	376.83
416.55	440.02
416.74	437.68
416.93	313.63
417.12	339.38
417.31	393.21
417.50	411.93
417.69	498.53
417.88	339.38
418.07	386.19
418.26	414.27
418.45	395.55
418.64	461.09
418.83	463.43
419.02	416.62
419.21	404.91
419.39	444.70
419.58	397.89
419.77	454.06
419.96	482.15
420.15	381.51
420.34	404.91
420.53	393.21
420.72	409.59
420.91	386.19
421.10	407.25
421.29	414.27
421.48	407.25
421.67	367.46
421.86	395.55
422.05	404.91
422.24	414.27
422.43	423.64
422.61	414.27
422.80	463.43
422.99	421.30
423.18	395.55
423.37	402.57
423.56	393.21
423.75	411.93
423.94	376.83
424.13	425.98
424.32	404.91
424.50	447.04
424.69	447.04
424.88	418.96
425.07	337.04
425.26	477.47
425.45	472.79
425.64	379.17
425.83	423.64
426.01	463.43
426.20	454.06
426.39	344.06
426.58	393.21
426.77	428.32
426.96	458.74
427.15	524.28
427.33	381.51
427.52	367.46
427.71	421.30
427.90	421.30
428.09	397.89
428.28	330.02
428.46	365.12
428.65	367.46
428.84	376.83
429.03	404.91
429.22	383.85
429.40	404.91
429.59	395.55
429.78	486.83
429.97	442.36
430.16	470.45
430.34	374.49
430.53	425.98
430.72	447.04
430.91	430.66
431.10	348.74
431.28	374.49
431.47	404.91
431.66	367.46
431.85	433.00
432.03	409.59
432.22	543.00
432.41	421.30
432.60	400.23
432.79	369.80
432.97	376.83
433.16	456.40
433.35	369.80
433.54	348.74
433.72	430.66
433.91	402.57
434.10	454.06
434.28	425.98
434.47	444.70
434.66	374.49
434.85	418.96
435.03	479.81
435.22	447.04
435.41	489.17
435.59	416.62
435.78	404.91
435.97	407.25
436.16	470.45
436.34	362.78
436.53	451.72
436.72	425.98
436.90	456.40
437.09	379.17
437.28	423.64
437.46	404.91
437.65	407.25
437.84	402.57
438.02	421.30
438.21	418.96
438.40	416.62
438.58	393.21
438.77	334.70
438.96	416.62
439.14	414.27
439.33	409.59
439.52	397.89
439.70	435.34
439.89	414.27
440.08	388.53
440.26	411.93
440.45	454.06
440.63	465.77
440.82	397.89
441.01	505.56
441.19	374.49
441.38	430.66
441.57	400.23
441.75	433.00
441.94	430.66
442.12	414.27
442.31	376.83
442.50	423.64
442.68	440.02
442.87	397.89
443.05	449.38
443.24	369.80
443.43	416.62
443.61	388.53
443.80	369.80
443.98	423.64
444.17	390.87
444.35	409.59
444.54	407.25
444.73	418.96
444.91	411.93
445.10	383.85
445.28	351.08
445.47	409.59
445.65	416.62
445.84	367.46
446.02	442.36
446.21	388.53
446.39	400.23
446.58	421.30
446.77	346.40
446.95	367.46
447.14	383.85
447.32	461.09
447.51	381.51
447.69	447.04
447.88	416.62
448.06	447.04
448.25	440.02
448.43	423.64
448.62	409.59
448.80	444.70
448.99	430.66
449.17	393.21
449.36	388.53
449.54	374.49
449.73	404.91
449.91	456.40
450.10	416.62
450.28	418.96
450.46	390.87
450.65	430.66
450.83	388.53
451.02	465.77
451.20	404.91
451.39	404.91
451.57	400.23
451.76	337.04
451.94	390.87
452.13	339.38
452.31	390.87
452.49	360.44
452.68	365.12
452.86	430.66
453.05	430.66
453.23	416.62
453.42	437.68
453.60	433.00
453.78	400.23
453.97	402.57
454.15	475.13
454.34	390.87
454.52	383.85
454.70	414.27
454.89	376.83
455.07	365.12
455.26	486.83
455.44	390.87
455.62	400.23
455.81	393.21
455.99	388.53
456.17	437.68
456.36	475.13
456.54	390.87
456.73	341.72
456.91	400.23
457.09	376.83
457.28	458.74
457.46	442.36
457.64	435.34
457.83	383.85
458.01	318.31
458.19	351.08
458.38	437.68
458.56	402.57
458.74	402.57
458.93	428.32
459.11	411.93
459.29	372.15
459.48	449.38
459.66	465.77
459.84	491.51
460.03	533.64
460.21	493.85
460.39	433.00
460.57	430.66
460.76	458.74
460.94	404.91
461.12	458.74
461.31	414.27
461.49	404.91
461.67	386.19
461.85	425.98
462.04	416.62
462.22	781.74
462.40	369.80
462.59	444.70
462.77	411.93
462.95	390.87
463.13	381.51
463.32	337.04
463.50	440.02
463.68	468.11
463.86	386.19
464.05	400.23
464.23	428.32
464.41	461.09
464.59	414.27
464.78	407.25
464.96	376.83
465.14	423.64
465.32	409.59
465.50	379.17
465.69	365.12
465.87	407.25
466.05	472.79
466.23	437.68
466.41	318.31
466.60	447.04
466.78	430.66
466.96	423.64
467.14	421.30
467.32	444.70
467.51	404.91
467.69	411.93
467.87	393.21
468.05	372.15
468.23	472.79
468.41	477.47
468.60	397.89
468.78	482.15
468.96	428.32
469.14	388.53
469.32	421.30
469.50	400.23
469.69	428.32
469.87	465.77
470.05	416.62
470.23	423.64
470.41	435.34
470.59	421.30
470.77	355.76
470.95	407.25
471.14	458.74
471.32	475.13
471.50	411.93
471.68	470.45
471.86	493.85
472.04	433.00
472.22	433.00
472.40	334.70
472.58	409.59
472.77	402.57
472.95	409.59
473.13	423.64
473.31	395.55
473.49	376.83
473.67	510.24
473.85	454.06
474.03	444.70
474.21	341.72
474.39	468.11
474.57	456.40
474.75	388.53
474.93	451.72
475.12	433.00
475.30	379.17
475.48	444.70
475.66	388.53
475.84	449.38
476.02	397.89
476.20	418.96
476.38	440.02
476.56	521.94
476.74	425.98
476.92	374.49
477.10	390.87
477.28	425.98
477.46	416.62
477.64	393.21
477.82	353.42
478.00	442.36
478.18	421.30
478.36	400.23
478.54	400.23
478.72	428.32
478.90	365.12
479.08	400.23
479.26	437.68
479.44	379.17
479.62	386.19
479.80	491.51
479.98	395.55
480.16	423.64
480.34	461.09
480.52	383.85
480.70	372.15
480.88	351.08
481.06	421.30
481.24	346.40
481.41	390.87
481.59	411.93
481.77	416.62
481.95	440.02
482.13	465.77
482.31	433.00
482.49	430.66
482.67	407.25
482.85	421.30
483.03	360.44
483.21	421.30
483.39	411.93
483.57	458.74
483.74	498.53
483.92	397.89
484.10	383.85
484.28	430.66
484.46	454.06
484.64	409.59
484.82	411.93
485.00	376.83
485.18	423.64
485.35	475.13
485.53	313.63
485.71	395.55
485.89	395.55
486.07	409.59
486.25	404.91
486.43	416.62
486.61	470.45
486.78	374.49
486.96	416.62
487.14	435.34
487.32	409.59
487.50	444.70
487.68	383.85
487.85	491.51
488.03	407.25
488.21	435.34
488.39	402.57
488.57	402.57
488.75	430.66
488.92	552.37
489.10	404.91
489.28	386.19
489.46	376.83
489.64	409.59
489.81	425.98
489.99	444.70
490.17	395.55
490.35	444.70
490.53	435.34
490.70	423.64
490.88	407.25
491.06	404.91
491.24	437.68
491.41	428.32
491.59	362.78
491.77	376.83
491.95	353.42
492.13	376.83
492.30	423.64
492.48	409.59
492.66	379.17
492.84	442.36
493.01	425.98
493.19	423.64
493.37	500.87
493.54	437.68
493.72	372.15
493.90	407.25
494.08	355.76
494.25	444.70
494.43	402.57
494.61	486.83
494.79	456.40
494.96	367.46
495.14	456.40
495.32	393.21
495.49	360.44
495.67	388.53
495.85	451.72
496.02	388.53
496.20	423.64
496.38	416.62
496.55	449.38
496.73	489.17
496.91	374.49
497.09	465.77
497.26	390.87
497.44	461.09
497.62	444.70
497.79	465.77
497.97	442.36
498.14	444.70
498.32	409.59
498.50	390.87
498.67	395.55
498.85	414.27
499.03	404.91
499.20	411.93
499.38	435.34
499.56	400.23
499.73	484.49
499.91	402.57
500.08	299.59
500.26	463.43
500.44	468.11
500.61	458.74
500.79	400.23
500.97	444.70
501.14	409.59
501.32	397.89
501.49	416.62
501.67	416.62
501.84	447.04
502.02	395.55
502.20	498.53
502.37	465.77
502.55	386.19
502.72	411.93
502.90	444.70
503.07	444.70
503.25	397.89
503.43	397.89
503.60	334.70
503.78	456.40
503.95	472.79
504.13	362.78
504.30	475.13
504.48	458.74
504.65	409.59
504.83	402.57
505.01	430.66
505.18	393.21
505.36	381.51
505.53	362.78
505.71	409.59
505.88	433.00
506.06	306.61
506.23	402.57
506.41	388.53
506.58	437.68
506.76	468.11
506.93	393.21
507.11	437.68
507.28	374.49
507.46	393.21
507.63	409.59
507.81	440.02
507.98	477.47
508.16	435.34
508.33	435.34
508.50	472.79
508.68	447.04
508.85	414.27
509.03	395.55
509.20	388.53
509.38	435.34
509.55	416.62
509.73	442.36
509.90	465.77
510.08	388.53
510.25	437.68
510.42	400.23
510.60	341.72
510.77	433.00
510.95	435.34
511.12	397.89
511.30	362.78
511.47	386.19
511.64	528.96
511.82	430.66
511.99	414.27
512.17	409.59
512.34	383.85
512.51	388.53
512.69	388.53
512.86	510.24
513.04	393.21
513.21	348.74
513.38	353.42
513.56	409.59
513.73	407.25
513.90	463.43
514.08	341.72
514.25	404.91
514.43	346.40
514.60	353.42
514.77	454.06
514.95	383.85
515.12	444.70
515.29	388.53
515.47	451.72
515.64	451.72
515.81	390.87
515.99	414.27
516.16	383.85
516.33	393.21
516.51	428.32
516.68	491.51
516.85	442.36
517.03	402.57
517.20	369.80
517.37	397.89
517.54	369.80
517.72	435.34
517.89	395.55
518.06	421.30
518.24	416.62
518.41	451.72
518.58	428.32
518.75	425.98
518.93	489.17
519.10	390.87
519.27	433.00
519.45	454.06
519.62	421.30
519.79	454.06
519.96	388.53
520.14	383.85
520.31	468.11
520.48	442.36
520.65	372.15
520.83	421.30
521.00	430.66
521.17	437.68
521.34	454.06
521.52	383.85
521.69	435.34
521.86	437.68
522.03	463.43
522.20	482.15
522.38	402.57
522.55	447.04
522.72	489.17
522.89	409.59
523.07	386.19
523.24	367.46
523.41	383.85
523.58	414.27
523.75	421.30
523.92	365.12
524.10	395.55
524.27	416.62
524.44	430.66
524.61	479.81
524.78	395.55
524.96	437.68
525.13	440.02
525.30	425.98
525.47	435.34
525.64	393.21
525.81	421.30
525.98	458.74
526.16	386.19
526.33	458.74
526.50	437.68
526.67	407.25
526.84	456.40
527.01	379.17
527.18	435.34
527.36	475.13
527.53	402.57
527.70	507.90
527.87	425.98
528.04	440.02
528.21	393.21
528.38	465.77
528.55	458.74
528.72	416.62
528.89	456.40
529.07	404.91
529.24	374.49
529.41	442.36
529.58	386.19
529.75	351.08
529.92	430.66
530.09	421.30
530.26	470.45
530.43	358.10
530.60	433.00
530.77	379.17
530.94	437.68
531.11	390.87
531.28	447.04
531.46	313.63
531.63	390.87
531.80	402.57
531.97	388.53
532.14	409.59
532.31	388.53
532.48	409.59
532.65	411.93
532.82	433.00
532.99	334.70
533.16	418.96
533.33	423.64
533.50	521.94
533.67	423.64
533.84	393.21
534.01	416.62
534.18	400.23
534.35	414.27
534.52	386.19
534.69	468.11
534.86	395.55
535.03	386.19
535.20	386.19
535.37	447.04
535.54	395.55
535.71	444.70
535.88	411.93
536.05	437.68
536.22	358.10
536.38	369.80
536.55	409.59
536.72	351.08
536.89	402.57
537.06	428.32
537.23	428.32
537.40	416.62
537.57	395.55
537.74	461.09
537.91	472.79
538.08	372.15
538.25	376.83
538.42	400.23
538.59	402.57
538.75	381.51
538.92	407.25
539.09	498.53
539.26	437.68
539.43	428.32
539.60	472.79
539.77	437.68
539.94	400.23
540.11	423.64
540.28	496.19
540.44	390.87
540.61	411.93
540.78	355.76
540.95	421.30
541.12	449.38
541.29	425.98
541.46	388.53
541.62	421.30
541.79	353.42
541.96	458.74
542.13	423.64
542.30	372.15
542.47	383.85
542.63	388.53
542.80	367.46
542.97	414.27
543.14	447.04
543.31	423.64
543.48	491.51
543.64	425.98
543.81	477.47
543.98	365.12
544.15	330.02
544.32	395.55
544.48	454.06
544.65	423.64
544.82	404.91
544.99	435.34
545.16	428.32
545.32	341.72
545.49	402.57
545.66	421.30
545.83	437.68
546.00	454.06
546.16	400.23
546.33	404.91
546.50	421.30
546.67	435.34
546.83	437.68
547.00	468.11
547.17	472.79
547.34	418.96
547.50	376.83
547.67	397.89
547.84	423.64
548.00	468.11
548.17	442.36
548.34	402.57
548.51	407.25
548.67	449.38
548.84	325.33
549.01	421.30
549.18	374.49
549.34	400.23
549.51	470.45
549.68	449.38
549.84	393.21
550.01	458.74
550.18	475.13
550.34	528.96
550.51	423.64
550.68	447.04
550.84	383.85
551.01	358.10
551.18	395.55
551.34	454.06
551.51	447.04
551.68	470.45
551.84	397.89
552.01	348.74
552.18	440.02
552.34	498.53
552.51	393.21
552.68	449.38
552.84	440.02
553.01	428.32
553.18	454.06
553.34	344.06
553.51	402.57
553.67	449.38
553.84	383.85
554.01	479.81
554.17	409.59
554.34	404.91
554.51	468.11
554.67	433.00
554.84	510.24
555.00	414.27
555.17	440.02
555.33	409.59
555.50	402.57
555.67	416.62
555.83	433.00
556.00	381.51
556.16	503.22
556.33	463.43
556.50	402.57
556.66	395.55
556.83	437.68
556.99	425.98
557.16	395.55
557.32	369.80
557.49	461.09
557.65	442.36
557.82	430.66
557.98	451.72
558.15	479.81
558.32	435.34
558.48	358.10
558.65	451.72
558.81	418.96
558.98	383.85
559.14	435.34
559.31	369.80
559.47	400.23
559.64	355.76
559.80	449.38
559.97	388.53
560.13	456.40
560.30	451.72
560.46	337.04
560.63	404.91
560.79	442.36
560.96	456.40
561.12	444.70
561.29	360.44
561.45	458.74
561.61	482.15
561.78	512.58
561.94	437.68
562.11	484.49
562.27	374.49
562.44	390.87
562.60	440.02
562.77	454.06
562.93	465.77
563.10	374.49
563.26	425.98
563.42	416.62
563.59	402.57
563.75	407.25
563.92	411.93
564.08	428.32
564.24	407.25
564.41	484.49
564.57	433.00
564.74	388.53
564.90	416.62
565.07	407.25
565.23	430.66
565.39	418.96
565.56	414.27
565.72	444.70
565.88	425.98
566.05	407.25
566.21	397.89
566.38	430.66
566.54	400.23
566.70	435.34
566.87	435.34
567.03	430.66
567.19	400.23
567.36	411.93
567.52	442.36
567.68	425.98
567.85	358.10
568.01	376.83
568.17	437.68
568.34	393.21
568.50	463.43
568.66	381.51
568.83	486.83
568.99	400.23
569.15	440.02
569.32	365.12
569.48	447.04
569.64	365.12
569.81	355.76
569.97	407.25
570.13	418.96
570.30	407.25
570.46	557.05
570.62	435.34
570.78	437.68
570.95	397.89
571.11	437.68
571.27	486.83
571.43	369.80
571.60	407.25
571.76	379.17
571.92	388.53
572.09	409.59
572.25	388.53
572.41	393.21
572.57	400.23
572.74	433.00
572.90	369.80
573.06	402.57
573.22	402.57
573.38	397.89
573.55	393.21
573.71	456.40
573.87	414.27
574.03	442.36
574.20	458.74
574.36	418.96
574.52	479.81
574.68	496.19
574.84	409.59
575.01	463.43
575.17	409.59
575.33	353.42
575.49	507.90
575.65	458.74
575.82	465.77
575.98	365.12
576.14	346.40
576.30	381.51
576.46	456.40
576.62	374.49
576.79	400.23
576.95	430.66
577.11	409.59
577.27	461.09
577.43	386.19
577.59	472.79
577.75	458.74
577.92	421.30
578.08	423.64
578.24	365.12
578.40	552.37
578.56	456.40
578.72	411.93
578.88	465.77
579.04	409.59
579.21	479.81
579.37	421.30
579.53	414.27
579.69	407.25
579.85	435.34
580.01	533.64
580.17	393.21
580.33	386.19
580.49	376.83
580.65	407.25
580.82	376.83
580.98	423.64
581.14	449.38
581.30	507.90
581.46	437.68
581.62	435.34
581.78	376.83
581.94	461.09
582.10	456.40
582.26	388.53
582.42	444.70
582.58	428.32
582.74	397.89
582.90	454.06
583.06	402.57
583.22	458.74
583.38	369.80
583.54	383.85
583.70	411.93
583.86	454.06
584.02	374.49
584.18	404.91
584.34	440.02
584.50	421.30
584.66	348.74
584.82	472.79
584.98	376.83
585.14	433.00
585.30	423.64
585.46	360.44
585.62	376.83
585.78	444.70
585.94	425.98
586.10	428.32
586.26	369.80
586.42	470.45
586.58	409.59
586.74	423.64
586.90	372.15
587.06	411.93
587.22	388.53
587.38	430.66
587.54	395.55
587.70	404.91
587.86	428.32
588.02	433.00
588.18	447.04
588.34	388.53
588.49	390.87
588.65	383.85
588.81	444.70
588.97	395.55
589.13	383.85
589.29	465.77
589.45	479.81
589.61	367.46
589.77	407.25
589.93	390.87
590.08	470.45
590.24	374.49
590.40	400.23
590.56	486.83
590.72	468.11
590.88	414.27
591.04	435.34
591.20	421.30
591.35	414.27
591.51	395.55
591.67	416.62
591.83	416.62
591.99	428.32
592.15	463.43
592.31	451.72
592.46	367.46
592.62	379.17
592.78	374.49
592.94	395.55
593.10	337.04
593.26	442.36
593.41	486.83
593.57	456.40
593.73	421.30
593.89	423.64
594.05	451.72
594.20	365.12
594.36	458.74
594.52	400.23
594.68	433.00
594.84	416.62
594.99	386.19
595.15	388.53
595.31	393.21
595.47	449.38
595.62	430.66
595.78	395.55
595.94	430.66
596.10	475.13
596.25	458.74
596.41	416.62
596.57	416.62
596.73	416.62
596.88	454.06
597.04	353.42
597.20	388.53
597.36	411.93
597.51	411.93
597.67	381.51
597.83	470.45
597.99	411.93
598.14	458.74
598.30	372.15
598.46	442.36
598.61	404.91
598.77	411.93
598.93	454.06
599.09	374.49
599.24	397.89
599.40	386.19
599.56	496.19
599.71	390.87
599.87	339.38
600.03	435.34
600.18	423.64
600.34	451.72
600.50	367.46
600.65	411.93
600.81	496.19
600.97	374.49
601.12	404.91
601.28	489.17
601.44	334.70
601.59	463.43
601.75	463.43
601.91	440.02
602.06	421.30
602.22	435.34
602.37	402.57
602.53	402.57
602.69	425.98
602.84	369.80
603.00	421.30
603.16	411.93
603.31	461.09
603.47	409.59
603.62	433.00
603.78	418.96
603.94	428.32
604.09	390.87
604.25	461.09
604.40	393.21
604.56	416.62
604.71	435.34
604.87	376.83
605.03	407.25
605.18	416.62
605.34	367.46
605.49	402.57
605.65	423.64
605.80	414.27
605.96	451.72
606.12	447.04
606.27	416.62
606.43	414.27
606.58	332.36
606.74	433.00
606.89	425.98
607.05	421.30
607.20	402.57
607.36	472.79
607.51	325.33
607.67	344.06
607.82	418.96
607.98	433.00
608.13	395.55
608.29	411.93
608.44	397.89
608.60	376.83
608.75	425.98
608.91	440.02
609.06	484.49
609.22	465.77
609.37	355.76
609.53	388.53
609.68	421.30
609.84	470.45
609.99	454.06
610.15	404.91
