SpectraSuite Data File
++++++++++++++++++++++++++++++++++++
Date: Fri Oct 25 12:11:27 EDT 2013
User: price-jones
Dark Spectrum Present: No
Reference Spectrum Present: No
Number of Sampled Component Spectra: 1
Spectrometers: USB2+H05261
Integration Time (usec): 100000 (USB2+H05261)
Spectra Averaged: 1 (USB2+H05261)
Boxcar Smoothing: 0 (USB2+H05261)
Correct for Electrical Dark: No (USB2+H05261)
Strobe/Lamp Enabled: No (USB2+H05261)
Correct for Detector Non-linearity: No (USB2+H05261)
Correct for Stray Light: No (USB2+H05261)
Number of Pixels in Processed Spectrum: 2048
>>>>>Begin Processed Spectral Data<<<<<
365.73	346.40
365.92	346.40
366.12	346.40
366.32	269.16
366.52	320.65
366.72	255.12
366.91	255.12
367.11	187.24
367.31	252.78
367.51	170.86
367.70	205.97
367.90	287.89
368.10	196.60
368.30	187.24
368.49	250.44
368.69	344.06
368.89	201.29
369.09	250.44
369.28	280.86
369.48	248.10
369.68	306.61
369.87	353.42
370.07	255.12
370.27	390.87
370.47	318.31
370.66	292.57
370.86	365.12
371.06	365.12
371.25	421.30
371.45	402.57
371.65	355.76
371.84	337.04
372.04	320.65
372.24	327.68
372.44	365.12
372.63	444.70
372.83	425.98
373.03	444.70
373.22	442.36
373.42	505.56
373.62	367.46
373.81	447.04
374.01	477.47
374.21	423.64
374.40	402.57
374.60	430.66
374.79	458.74
374.99	433.00
375.19	381.51
375.38	400.23
375.58	414.27
375.78	423.64
375.97	442.36
376.17	470.45
376.37	383.85
376.56	351.08
376.76	447.04
376.95	409.59
377.15	465.77
377.35	433.00
377.54	435.34
377.74	400.23
377.93	337.04
378.13	437.68
378.33	465.77
378.52	428.32
378.72	433.00
378.91	440.02
379.11	301.93
379.31	414.27
379.50	402.57
379.70	421.30
379.89	479.81
380.09	411.93
380.28	421.30
380.48	386.19
380.68	381.51
380.87	365.12
381.07	386.19
381.26	414.27
381.46	404.91
381.65	397.89
381.85	355.76
382.04	411.93
382.24	428.32
382.43	400.23
382.63	449.38
382.83	386.19
383.02	402.57
383.22	451.72
383.41	372.15
383.61	362.78
383.80	407.25
384.00	376.83
384.19	365.12
384.39	407.25
384.58	400.23
384.78	360.44
384.97	386.19
385.17	449.38
385.36	351.08
385.56	379.17
385.75	388.53
385.95	440.02
386.14	468.11
386.34	421.30
386.53	407.25
386.72	339.38
386.92	418.96
387.11	358.10
387.31	404.91
387.50	414.27
387.70	348.74
387.89	409.59
388.09	451.72
388.28	437.68
388.48	409.59
388.67	435.34
388.86	430.66
389.06	486.83
389.25	477.47
389.45	442.36
389.64	433.00
389.84	442.36
390.03	395.55
390.22	411.93
390.42	353.42
390.61	372.15
390.81	388.53
391.00	402.57
391.19	486.83
391.39	425.98
391.58	423.64
391.78	337.04
391.97	423.64
392.16	416.62
392.36	428.32
392.55	475.13
392.75	435.34
392.94	433.00
393.13	430.66
393.33	397.89
393.52	411.93
393.71	491.51
393.91	395.55
394.10	416.62
394.29	381.51
394.49	463.43
394.68	407.25
394.88	440.02
395.07	402.57
395.26	435.34
395.46	348.74
395.65	390.87
395.84	461.09
396.04	493.85
396.23	367.46
396.42	451.72
396.62	393.21
396.81	472.79
397.00	411.93
397.19	435.34
397.39	428.32
397.58	435.34
397.77	411.93
397.97	376.83
398.16	386.19
398.35	491.51
398.55	461.09
398.74	456.40
398.93	433.00
399.12	491.51
399.32	430.66
399.51	411.93
399.70	425.98
399.90	414.27
400.09	447.04
400.28	524.28
400.47	358.10
400.67	442.36
400.86	435.34
401.05	395.55
401.24	486.83
401.44	367.46
401.63	479.81
401.82	421.30
402.01	379.17
402.21	416.62
402.40	374.49
402.59	430.66
402.78	381.51
402.97	421.30
403.17	379.17
403.36	379.17
403.55	383.85
403.74	372.15
403.93	470.45
404.13	386.19
404.32	458.74
404.51	353.42
404.70	461.09
404.89	416.62
405.09	449.38
405.28	374.49
405.47	397.89
405.66	421.30
405.85	381.51
406.05	348.74
406.24	372.15
406.43	308.95
406.62	381.51
406.81	458.74
407.00	514.92
407.20	449.38
407.39	414.27
407.58	358.10
407.77	386.19
407.96	454.06
408.15	409.59
408.34	461.09
408.54	472.79
408.73	418.96
408.92	470.45
409.11	397.89
409.30	440.02
409.49	425.98
409.68	390.87
409.87	374.49
410.07	433.00
410.26	402.57
410.45	388.53
410.64	381.51
410.83	468.11
411.02	365.12
411.21	397.89
411.40	465.77
411.59	433.00
411.78	367.46
411.98	388.53
412.17	388.53
412.36	395.55
412.55	433.00
412.74	437.68
412.93	435.34
413.12	421.30
413.31	402.57
413.50	418.96
413.69	430.66
413.88	404.91
414.07	365.12
414.26	367.46
414.45	404.91
414.64	503.22
414.83	355.76
415.02	402.57
415.22	444.70
415.41	456.40
415.60	358.10
415.79	379.17
415.98	531.30
416.17	465.77
416.36	486.83
416.55	402.57
416.74	442.36
416.93	421.30
417.12	369.80
417.31	372.15
417.50	458.74
417.69	407.25
417.88	360.44
418.07	383.85
418.26	369.80
418.45	409.59
418.64	451.72
418.83	414.27
419.02	390.87
419.21	423.64
419.39	437.68
419.58	367.46
419.77	397.89
419.96	475.13
420.15	465.77
420.34	397.89
420.53	386.19
420.72	451.72
420.91	482.15
421.10	330.02
421.29	461.09
421.48	355.76
421.67	465.77
421.86	425.98
422.05	353.42
422.24	449.38
422.43	449.38
422.61	418.96
422.80	395.55
422.99	484.49
423.18	320.65
423.37	437.68
423.56	447.04
423.75	416.62
423.94	444.70
424.13	407.25
424.32	379.17
424.50	337.04
424.69	425.98
424.88	428.32
425.07	367.46
425.26	447.04
425.45	376.83
425.64	381.51
425.83	430.66
426.01	416.62
426.20	404.91
426.39	367.46
426.58	346.40
426.77	430.66
426.96	402.57
427.15	440.02
427.33	376.83
427.52	463.43
427.71	414.27
427.90	402.57
428.09	421.30
428.28	454.06
428.46	381.51
428.65	388.53
428.84	437.68
429.03	440.02
429.22	423.64
429.40	404.91
429.59	449.38
429.78	456.40
429.97	414.27
430.16	425.98
430.34	407.25
430.53	407.25
430.72	463.43
430.91	386.19
431.10	301.93
431.28	402.57
431.47	411.93
431.66	409.59
431.85	388.53
432.03	423.64
432.22	409.59
432.41	400.23
432.60	393.21
432.79	416.62
432.97	447.04
433.16	414.27
433.35	383.85
433.54	433.00
433.72	456.40
433.91	423.64
434.10	449.38
434.28	397.89
434.47	407.25
434.66	418.96
434.85	376.83
435.03	425.98
435.22	409.59
435.41	402.57
435.59	386.19
435.78	430.66
435.97	395.55
436.16	386.19
436.34	475.13
436.53	451.72
436.72	442.36
436.90	425.98
437.09	456.40
437.28	372.15
437.46	428.32
437.65	505.56
437.84	395.55
438.02	423.64
438.21	388.53
438.40	388.53
438.58	365.12
438.77	428.32
438.96	435.34
439.14	397.89
439.33	397.89
439.52	355.76
439.70	393.21
439.89	442.36
440.08	407.25
440.26	444.70
440.45	341.72
440.63	365.12
440.82	407.25
441.01	430.66
441.19	369.80
441.38	437.68
441.57	379.17
441.75	461.09
441.94	390.87
442.12	416.62
442.31	322.99
442.50	435.34
442.68	393.21
442.87	381.51
443.05	358.10
443.24	428.32
443.43	491.51
443.61	461.09
443.80	330.02
443.98	409.59
444.17	402.57
444.35	458.74
444.54	444.70
444.73	369.80
444.91	444.70
445.10	512.58
445.28	383.85
445.47	484.49
445.65	437.68
445.84	404.91
446.02	449.38
446.21	425.98
446.39	428.32
446.58	404.91
446.77	369.80
446.95	423.64
447.14	418.96
447.32	440.02
447.51	456.40
447.69	430.66
447.88	397.89
448.06	421.30
448.25	433.00
448.43	425.98
448.62	374.49
448.80	395.55
448.99	425.98
449.17	372.15
449.36	400.23
449.54	407.25
449.73	376.83
449.91	433.00
450.10	372.15
450.28	454.06
450.46	418.96
450.65	437.68
450.83	421.30
451.02	393.21
451.20	362.78
451.39	416.62
451.57	414.27
451.76	416.62
451.94	447.04
452.13	449.38
452.31	430.66
452.49	414.27
452.68	430.66
452.86	416.62
453.05	472.79
453.23	491.51
453.42	393.21
453.60	468.11
453.78	425.98
453.97	404.91
454.15	472.79
454.34	407.25
454.52	440.02
454.70	442.36
454.89	386.19
455.07	423.64
455.26	407.25
455.44	423.64
455.62	435.34
455.81	444.70
455.99	423.64
456.17	451.72
456.36	379.17
456.54	421.30
456.73	376.83
456.91	442.36
457.09	491.51
457.28	440.02
457.46	397.89
457.64	510.24
457.83	390.87
458.01	428.32
458.19	383.85
458.38	360.44
458.56	367.46
458.74	374.49
458.93	390.87
459.11	395.55
459.29	351.08
459.48	395.55
459.66	400.23
459.84	477.47
460.03	461.09
460.21	425.98
460.39	358.10
460.57	468.11
460.76	381.51
460.94	393.21
461.12	397.89
461.31	425.98
461.49	444.70
461.67	468.11
461.85	416.62
462.04	395.55
462.22	798.12
462.40	428.32
462.59	416.62
462.77	414.27
462.95	454.06
463.13	428.32
463.32	449.38
463.50	376.83
463.68	369.80
463.86	465.77
464.05	421.30
464.23	411.93
464.41	402.57
464.59	435.34
464.78	397.89
464.96	383.85
465.14	376.83
465.32	449.38
465.50	458.74
465.69	437.68
465.87	400.23
466.05	395.55
466.23	369.80
466.41	423.64
466.60	402.57
466.78	425.98
466.96	433.00
467.14	418.96
467.32	449.38
467.51	414.27
467.69	472.79
467.87	395.55
468.05	388.53
468.23	510.24
468.41	407.25
468.60	358.10
468.78	376.83
468.96	407.25
469.14	414.27
469.32	458.74
469.50	374.49
469.69	393.21
469.87	360.44
470.05	463.43
470.23	388.53
470.41	393.21
470.59	348.74
470.77	362.78
470.95	470.45
471.14	440.02
471.32	440.02
471.50	451.72
471.68	376.83
471.86	433.00
472.04	402.57
472.22	442.36
472.40	411.93
472.58	440.02
472.77	325.33
472.95	418.96
473.13	440.02
473.31	461.09
473.49	449.38
473.67	365.12
473.85	397.89
474.03	365.12
474.21	393.21
474.39	430.66
474.57	444.70
474.75	411.93
474.93	440.02
475.12	449.38
475.30	447.04
475.48	430.66
475.66	526.62
475.84	421.30
476.02	400.23
476.20	475.13
476.38	440.02
476.56	528.96
476.74	421.30
476.92	409.59
477.10	454.06
477.28	472.79
477.46	397.89
477.64	465.77
477.82	393.21
478.00	463.43
478.18	381.51
478.36	339.38
478.54	393.21
478.72	428.32
478.90	447.04
479.08	404.91
479.26	395.55
479.44	437.68
479.62	449.38
479.80	372.15
479.98	447.04
480.16	337.04
480.34	425.98
480.52	353.42
480.70	411.93
480.88	372.15
481.06	411.93
481.24	337.04
481.41	449.38
481.59	428.32
481.77	402.57
481.95	435.34
482.13	461.09
482.31	451.72
482.49	418.96
482.67	374.49
482.85	416.62
483.03	400.23
483.21	418.96
483.39	367.46
483.57	416.62
483.74	351.08
483.92	414.27
484.10	425.98
484.28	484.49
484.46	400.23
484.64	425.98
484.82	404.91
485.00	482.15
485.18	395.55
485.35	465.77
485.53	386.19
485.71	423.64
485.89	430.66
486.07	428.32
486.25	444.70
486.43	435.34
486.61	472.79
486.78	512.58
486.96	407.25
487.14	402.57
487.32	414.27
487.50	409.59
487.68	388.53
487.85	428.32
488.03	444.70
488.21	475.13
488.39	390.87
488.57	386.19
488.75	423.64
488.92	578.11
489.10	416.62
489.28	489.17
489.46	435.34
489.64	449.38
489.81	423.64
489.99	440.02
490.17	374.49
490.35	418.96
490.53	390.87
490.70	369.80
490.88	433.00
491.06	372.15
491.24	440.02
491.41	383.85
491.59	407.25
491.77	435.34
491.95	367.46
492.13	402.57
492.30	428.32
492.48	400.23
492.66	400.23
492.84	397.89
493.01	353.42
493.19	416.62
493.37	454.06
493.54	416.62
493.72	451.72
493.90	451.72
494.08	411.93
494.25	456.40
494.43	416.62
494.61	435.34
494.79	320.65
494.96	390.87
495.14	421.30
495.32	400.23
495.49	367.46
495.67	430.66
495.85	444.70
496.02	407.25
496.20	397.89
496.38	355.76
496.55	437.68
496.73	409.59
496.91	341.72
497.09	521.94
497.26	306.61
497.44	367.46
497.62	409.59
497.79	390.87
497.97	404.91
498.14	411.93
498.32	435.34
498.50	395.55
498.67	358.10
498.85	423.64
499.03	346.40
499.20	500.87
499.38	421.30
499.56	409.59
499.73	484.49
499.91	407.25
500.08	397.89
500.26	386.19
500.44	423.64
500.61	433.00
500.79	421.30
500.97	444.70
501.14	437.68
501.32	465.77
501.49	477.47
501.67	360.44
501.84	435.34
502.02	402.57
502.20	477.47
502.37	414.27
502.55	407.25
502.72	372.15
502.90	447.04
503.07	440.02
503.25	397.89
503.43	360.44
503.60	388.53
503.78	421.30
503.95	360.44
504.13	362.78
504.30	458.74
504.48	397.89
504.65	468.11
504.83	442.36
505.01	402.57
505.18	362.78
505.36	428.32
505.53	440.02
505.71	386.19
505.88	463.43
506.06	442.36
506.23	498.53
506.41	458.74
506.58	411.93
506.76	383.85
506.93	404.91
507.11	437.68
507.28	435.34
507.46	430.66
507.63	365.12
507.81	395.55
507.98	433.00
508.16	388.53
508.33	372.15
508.50	451.72
508.68	430.66
508.85	341.72
509.03	442.36
509.20	404.91
509.38	379.17
509.55	374.49
509.73	407.25
509.90	402.57
510.08	360.44
510.25	390.87
510.42	433.00
510.60	433.00
510.77	444.70
510.95	395.55
511.12	423.64
511.30	461.09
511.47	397.89
511.64	409.59
511.82	482.15
511.99	416.62
512.17	351.08
512.34	400.23
512.51	461.09
512.69	458.74
512.86	500.87
513.04	383.85
513.21	388.53
513.38	397.89
513.56	367.46
513.73	407.25
513.90	423.64
514.08	449.38
514.25	444.70
514.43	423.64
514.60	482.15
514.77	332.36
514.95	407.25
515.12	381.51
515.29	470.45
515.47	449.38
515.64	395.55
515.81	365.12
515.99	456.40
516.16	463.43
516.33	449.38
516.51	390.87
516.68	423.64
516.85	386.19
517.03	407.25
517.20	397.89
517.37	402.57
517.54	470.45
517.72	411.93
517.89	402.57
518.06	372.15
518.24	421.30
518.41	451.72
518.58	428.32
518.75	372.15
518.93	479.81
519.10	449.38
519.27	425.98
519.45	367.46
519.62	402.57
519.79	379.17
519.96	430.66
520.14	395.55
520.31	435.34
520.48	400.23
520.65	435.34
520.83	449.38
521.00	416.62
521.17	440.02
521.34	425.98
521.52	360.44
521.69	433.00
521.86	407.25
522.03	458.74
522.20	433.00
522.38	442.36
522.55	430.66
522.72	386.19
522.89	365.12
523.07	442.36
523.24	332.36
523.41	372.15
523.58	351.08
523.75	390.87
523.92	365.12
524.10	416.62
524.27	362.78
524.44	332.36
524.61	379.17
524.78	404.91
524.96	430.66
525.13	414.27
525.30	458.74
525.47	390.87
525.64	383.85
525.81	421.30
525.98	379.17
526.16	444.70
526.33	381.51
526.50	348.74
526.67	430.66
526.84	369.80
527.01	451.72
527.18	475.13
527.36	442.36
527.53	362.78
527.70	365.12
527.87	484.49
528.04	428.32
528.21	423.64
528.38	388.53
528.55	395.55
528.72	430.66
528.89	486.83
529.07	369.80
529.24	397.89
529.41	503.22
529.58	411.93
529.75	355.76
529.92	397.89
530.09	414.27
530.26	423.64
530.43	376.83
530.60	435.34
530.77	421.30
530.94	409.59
531.11	365.12
531.28	461.09
531.46	421.30
531.63	454.06
531.80	407.25
531.97	393.21
532.14	458.74
532.31	512.58
532.48	416.62
532.65	334.70
532.82	393.21
532.99	381.51
533.16	433.00
533.33	397.89
533.50	367.46
533.67	383.85
533.84	374.49
534.01	327.68
534.18	444.70
534.35	425.98
534.52	440.02
534.69	428.32
534.86	416.62
535.03	435.34
535.20	374.49
535.37	423.64
535.54	472.79
535.71	306.61
535.88	393.21
536.05	423.64
536.22	430.66
536.38	334.70
536.55	428.32
536.72	449.38
536.89	397.89
537.06	435.34
537.23	376.83
537.40	395.55
537.57	418.96
537.74	535.98
537.91	456.40
538.08	447.04
538.25	475.13
538.42	376.83
538.59	390.87
538.75	449.38
538.92	416.62
539.09	498.53
539.26	381.51
539.43	435.34
539.60	402.57
539.77	489.17
539.94	428.32
540.11	479.81
540.28	428.32
540.44	461.09
540.61	376.83
540.78	365.12
540.95	397.89
541.12	421.30
541.29	433.00
541.46	416.62
541.62	454.06
541.79	390.87
541.96	360.44
542.13	454.06
542.30	351.08
542.47	425.98
542.63	418.96
542.80	409.59
542.97	379.17
543.14	423.64
543.31	507.90
543.48	428.32
543.64	468.11
543.81	418.96
543.98	491.51
544.15	454.06
544.32	423.64
544.48	472.79
544.65	374.49
544.82	360.44
544.99	409.59
545.16	454.06
545.32	437.68
545.49	470.45
545.66	416.62
545.83	461.09
546.00	416.62
546.16	409.59
546.33	423.64
546.50	402.57
546.67	442.36
546.83	435.34
547.00	430.66
547.17	409.59
547.34	383.85
547.50	425.98
547.67	411.93
547.84	381.51
548.00	512.58
548.17	360.44
548.34	407.25
548.51	465.77
548.67	454.06
548.84	416.62
549.01	337.04
549.18	435.34
549.34	461.09
549.51	486.83
549.68	404.91
549.84	491.51
550.01	397.89
550.18	489.17
550.34	519.60
550.51	365.12
550.68	414.27
550.84	374.49
551.01	444.70
551.18	428.32
551.34	475.13
551.51	383.85
551.68	407.25
551.84	416.62
552.01	475.13
552.18	400.23
552.34	421.30
552.51	418.96
552.68	407.25
552.84	367.46
553.01	437.68
553.18	339.38
553.34	395.55
553.51	433.00
553.67	369.80
553.84	500.87
554.01	416.62
554.17	454.06
554.34	475.13
554.51	395.55
554.67	472.79
554.84	421.30
555.00	402.57
555.17	404.91
555.33	360.44
555.50	379.17
555.67	433.00
555.83	355.76
556.00	437.68
556.16	507.90
556.33	407.25
556.50	404.91
556.66	454.06
556.83	444.70
556.99	409.59
557.16	458.74
557.32	435.34
557.49	475.13
557.65	477.47
557.82	416.62
557.98	449.38
558.15	397.89
558.32	388.53
558.48	433.00
558.65	383.85
558.81	425.98
558.98	451.72
559.14	416.62
559.31	425.98
559.47	381.51
559.64	440.02
559.80	397.89
559.97	428.32
560.13	421.30
560.30	425.98
560.46	423.64
560.63	381.51
560.79	425.98
560.96	425.98
561.12	355.76
561.29	454.06
561.45	400.23
561.61	374.49
561.78	500.87
561.94	479.81
562.11	425.98
562.27	372.15
562.44	372.15
562.60	367.46
562.77	454.06
562.93	421.30
563.10	465.77
563.26	414.27
563.42	388.53
563.59	381.51
563.75	421.30
563.92	418.96
564.08	428.32
564.24	484.49
564.41	409.59
564.57	402.57
564.74	376.83
564.90	449.38
565.07	447.04
565.23	400.23
565.39	437.68
565.56	332.36
565.72	407.25
565.88	463.43
566.05	472.79
566.21	360.44
566.38	376.83
566.54	407.25
566.70	355.76
566.87	442.36
567.03	423.64
567.19	449.38
567.36	444.70
567.52	381.51
567.68	484.49
567.85	444.70
568.01	397.89
568.17	416.62
568.34	351.08
568.50	493.85
568.66	374.49
568.83	489.17
568.99	372.15
569.15	388.53
569.32	409.59
569.48	498.53
569.64	423.64
569.81	461.09
569.97	444.70
570.13	491.51
570.30	381.51
570.46	421.30
570.62	447.04
570.78	430.66
570.95	442.36
571.11	444.70
571.27	458.74
571.43	376.83
571.60	435.34
571.76	425.98
571.92	407.25
572.09	451.72
572.25	416.62
572.41	437.68
572.57	414.27
572.74	451.72
572.90	411.93
573.06	393.21
573.22	465.77
573.38	381.51
573.55	482.15
573.71	477.47
573.87	393.21
574.03	421.30
574.20	386.19
574.36	400.23
574.52	400.23
574.68	386.19
574.84	433.00
575.01	477.47
575.17	498.53
575.33	395.55
575.49	519.60
575.65	493.85
575.82	430.66
575.98	411.93
576.14	421.30
576.30	458.74
576.46	383.85
576.62	451.72
576.79	472.79
576.95	435.34
577.11	346.40
577.27	428.32
577.43	433.00
577.59	442.36
577.75	404.91
577.92	409.59
578.08	421.30
578.24	421.30
578.40	411.93
578.56	519.60
578.72	383.85
578.88	428.32
579.04	409.59
579.21	425.98
579.37	423.64
579.53	421.30
579.69	461.09
579.85	341.72
580.01	395.55
580.17	407.25
580.33	468.11
580.49	374.49
580.65	440.02
580.82	416.62
580.98	423.64
581.14	397.89
581.30	369.80
581.46	437.68
581.62	437.68
581.78	360.44
581.94	433.00
582.10	409.59
582.26	355.76
582.42	388.53
582.58	402.57
582.74	409.59
582.90	454.06
583.06	425.98
583.22	360.44
583.38	465.77
583.54	341.72
583.70	491.51
583.86	468.11
584.02	379.17
584.18	428.32
584.34	362.78
584.50	409.59
584.66	362.78
584.82	456.40
584.98	428.32
585.14	442.36
585.30	423.64
585.46	409.59
585.62	418.96
585.78	444.70
585.94	528.96
586.10	423.64
586.26	397.89
586.42	449.38
586.58	425.98
586.74	482.15
586.90	423.64
587.06	355.76
587.22	461.09
587.38	395.55
587.54	362.78
587.70	477.47
587.86	404.91
588.02	388.53
588.18	346.40
588.34	386.19
588.49	418.96
588.65	463.43
588.81	369.80
588.97	379.17
589.13	440.02
589.29	379.17
589.45	418.96
589.61	440.02
589.77	482.15
589.93	374.49
590.08	435.34
590.24	433.00
590.40	435.34
590.56	428.32
590.72	444.70
590.88	383.85
591.04	397.89
591.20	411.93
591.35	341.72
591.51	421.30
591.67	386.19
591.83	414.27
591.99	430.66
592.15	425.98
592.31	393.21
592.46	414.27
592.62	500.87
592.78	425.98
592.94	402.57
593.10	433.00
593.26	383.85
593.41	447.04
593.57	498.53
593.73	383.85
593.89	416.62
594.05	449.38
594.20	442.36
594.36	416.62
594.52	430.66
594.68	458.74
594.84	444.70
594.99	407.25
595.15	430.66
595.31	411.93
595.47	409.59
595.62	418.96
595.78	409.59
595.94	381.51
596.10	482.15
596.25	381.51
596.41	442.36
596.57	435.34
596.73	400.23
596.88	428.32
597.04	381.51
597.20	402.57
597.36	461.09
597.51	388.53
597.67	449.38
597.83	442.36
597.99	397.89
598.14	475.13
598.30	409.59
598.46	400.23
598.61	400.23
598.77	421.30
598.93	411.93
599.09	414.27
599.24	379.17
599.40	444.70
599.56	395.55
599.71	433.00
599.87	411.93
600.03	346.40
600.18	369.80
600.34	411.93
600.50	411.93
600.65	447.04
600.81	409.59
600.97	465.77
601.12	362.78
601.28	425.98
601.44	369.80
601.59	414.27
601.75	411.93
601.91	437.68
602.06	458.74
602.22	468.11
602.37	409.59
602.53	423.64
602.69	372.15
602.84	390.87
603.00	351.08
603.16	475.13
603.31	365.12
603.47	437.68
603.62	383.85
603.78	404.91
603.94	407.25
604.09	484.49
604.25	402.57
604.40	383.85
604.56	472.79
604.71	414.27
604.87	458.74
605.03	397.89
605.18	456.40
605.34	407.25
605.49	374.49
605.65	409.59
605.80	367.46
605.96	395.55
606.12	393.21
606.27	421.30
606.43	458.74
606.58	425.98
606.74	397.89
606.89	482.15
607.05	402.57
607.20	301.93
607.36	465.77
607.51	454.06
607.67	435.34
607.82	367.46
607.98	433.00
608.13	409.59
608.29	430.66
608.44	411.93
608.60	444.70
608.75	376.83
608.91	440.02
609.06	395.55
609.22	437.68
609.37	374.49
609.53	435.34
609.68	397.89
609.84	449.38
609.99	402.57
610.15	390.87
