SpectraSuite Data File
++++++++++++++++++++++++++++++++++++
Date: Fri Oct 25 12:10:23 EDT 2013
User: price-jones
Dark Spectrum Present: No
Reference Spectrum Present: No
Number of Sampled Component Spectra: 1
Spectrometers: USB2+H05261
Integration Time (usec): 100000 (USB2+H05261)
Spectra Averaged: 1 (USB2+H05261)
Boxcar Smoothing: 0 (USB2+H05261)
Correct for Electrical Dark: No (USB2+H05261)
Strobe/Lamp Enabled: No (USB2+H05261)
Correct for Detector Non-linearity: No (USB2+H05261)
Correct for Stray Light: No (USB2+H05261)
Number of Pixels in Processed Spectrum: 2048
>>>>>Begin Processed Spectral Data<<<<<
365.73	351.08
365.92	351.08
366.12	351.08
366.32	198.95
366.52	210.65
366.72	245.76
366.91	222.35
367.11	255.12
367.31	212.99
367.51	315.97
367.70	198.95
367.90	273.84
368.10	224.69
368.30	166.18
368.49	194.26
368.69	264.48
368.89	210.65
369.09	229.37
369.28	280.86
369.48	238.73
369.68	250.44
369.87	201.29
370.07	269.16
370.27	297.25
370.47	308.95
370.66	301.93
370.86	358.10
371.06	348.74
371.25	411.93
371.45	360.44
371.65	351.08
371.84	454.06
372.04	327.68
372.24	346.40
372.44	430.66
372.63	404.91
372.83	409.59
373.03	381.51
373.22	416.62
373.42	435.34
373.62	379.17
373.81	430.66
374.01	470.45
374.21	454.06
374.40	367.46
374.60	442.36
374.79	418.96
374.99	477.47
375.19	374.49
375.38	449.38
375.58	425.98
375.78	404.91
375.97	442.36
376.17	428.32
376.37	444.70
376.56	390.87
376.76	390.87
376.95	351.08
377.15	421.30
377.35	402.57
377.54	458.74
377.74	416.62
377.93	360.44
378.13	353.42
378.33	421.30
378.52	337.04
378.72	423.64
378.91	435.34
379.11	379.17
379.31	435.34
379.50	381.51
379.70	409.59
379.89	461.09
380.09	390.87
380.28	383.85
380.48	428.32
380.68	372.15
380.87	461.09
381.07	421.30
381.26	465.77
381.46	330.02
381.65	409.59
381.85	355.76
382.04	374.49
382.24	444.70
382.43	463.43
382.63	407.25
382.83	425.98
383.02	362.78
383.22	454.06
383.41	404.91
383.61	409.59
383.80	404.91
384.00	449.38
384.19	416.62
384.39	437.68
384.58	402.57
384.78	477.47
384.97	374.49
385.17	397.89
385.36	374.49
385.56	390.87
385.75	425.98
385.95	409.59
386.14	423.64
386.34	372.15
386.53	322.99
386.72	454.06
386.92	435.34
387.11	376.83
387.31	372.15
387.50	416.62
387.70	418.96
387.89	381.51
388.09	346.40
388.28	381.51
388.48	421.30
388.67	458.74
388.86	442.36
389.06	421.30
389.25	449.38
389.45	463.43
389.64	393.21
389.84	447.04
390.03	376.83
390.22	465.77
390.42	383.85
390.61	362.78
390.81	416.62
391.00	365.12
391.19	367.46
391.39	374.49
391.58	444.70
391.78	414.27
391.97	381.51
392.16	402.57
392.36	418.96
392.55	416.62
392.75	388.53
392.94	430.66
393.13	470.45
393.33	449.38
393.52	388.53
393.71	386.19
393.91	381.51
394.10	400.23
394.29	444.70
394.49	433.00
394.68	428.32
394.88	416.62
395.07	463.43
395.26	449.38
395.46	383.85
395.65	393.21
395.84	418.96
396.04	463.43
396.23	369.80
396.42	365.12
396.62	430.66
396.81	416.62
397.00	414.27
397.19	395.55
397.39	315.97
397.58	355.76
397.77	440.02
397.97	376.83
398.16	414.27
398.35	458.74
398.55	421.30
398.74	409.59
398.93	447.04
399.12	353.42
399.32	374.49
399.51	365.12
399.70	505.56
399.90	456.40
400.09	348.74
400.28	449.38
400.47	451.72
400.67	425.98
400.86	449.38
401.05	496.19
401.24	451.72
401.44	393.21
401.63	409.59
401.82	285.55
402.01	433.00
402.21	381.51
402.40	372.15
402.59	386.19
402.78	402.57
402.97	344.06
403.17	493.85
403.36	442.36
403.55	458.74
403.74	376.83
403.93	409.59
404.13	482.15
404.32	397.89
404.51	393.21
404.70	414.27
404.89	388.53
405.09	421.30
405.28	386.19
405.47	421.30
405.66	339.38
405.85	437.68
406.05	409.59
406.24	454.06
406.43	440.02
406.62	451.72
406.81	428.32
407.00	362.78
407.20	353.42
407.39	362.78
407.58	379.17
407.77	500.87
407.96	414.27
408.15	390.87
408.34	381.51
408.54	388.53
408.73	472.79
408.92	358.10
409.11	365.12
409.30	379.17
409.49	339.38
409.68	397.89
409.87	409.59
410.07	390.87
410.26	397.89
410.45	353.42
410.64	388.53
410.83	433.00
411.02	425.98
411.21	442.36
411.40	390.87
411.59	383.85
411.78	416.62
411.98	360.44
412.17	461.09
412.36	362.78
412.55	360.44
412.74	454.06
412.93	348.74
413.12	418.96
413.31	369.80
413.50	456.40
413.69	388.53
413.88	470.45
414.07	451.72
414.26	351.08
414.45	449.38
414.64	360.44
414.83	437.68
415.02	451.72
415.22	395.55
415.41	423.64
415.60	351.08
415.79	369.80
415.98	414.27
416.17	304.27
416.36	407.25
416.55	374.49
416.74	416.62
416.93	442.36
417.12	451.72
417.31	372.15
417.50	421.30
417.69	437.68
417.88	423.64
418.07	381.51
418.26	454.06
418.45	351.08
418.64	484.49
418.83	400.23
419.02	433.00
419.21	418.96
419.39	456.40
419.58	411.93
419.77	407.25
419.96	451.72
420.15	388.53
420.34	395.55
420.53	461.09
420.72	463.43
420.91	395.55
421.10	379.17
421.29	423.64
421.48	397.89
421.67	383.85
421.86	409.59
422.05	458.74
422.24	348.74
422.43	421.30
422.61	397.89
422.80	372.15
422.99	421.30
423.18	388.53
423.37	437.68
423.56	496.19
423.75	325.33
423.94	425.98
424.13	402.57
424.32	435.34
424.50	449.38
424.69	472.79
424.88	423.64
425.07	395.55
425.26	451.72
425.45	503.22
425.64	325.33
425.83	449.38
426.01	423.64
426.20	404.91
426.39	421.30
426.58	376.83
426.77	435.34
426.96	402.57
427.15	416.62
427.33	418.96
427.52	407.25
427.71	414.27
427.90	400.23
428.09	376.83
428.28	360.44
428.46	379.17
428.65	463.43
428.84	414.27
429.03	444.70
429.22	425.98
429.40	386.19
429.59	449.38
429.78	414.27
429.97	390.87
430.16	393.21
430.34	440.02
430.53	411.93
430.72	407.25
430.91	458.74
431.10	416.62
431.28	416.62
431.47	381.51
431.66	411.93
431.85	430.66
432.03	395.55
432.22	397.89
432.41	414.27
432.60	409.59
432.79	435.34
432.97	435.34
433.16	421.30
433.35	372.15
433.54	407.25
433.72	421.30
433.91	339.38
434.10	348.74
434.28	402.57
434.47	440.02
434.66	451.72
434.85	365.12
435.03	404.91
435.22	386.19
435.41	435.34
435.59	411.93
435.78	442.36
435.97	407.25
436.16	390.87
436.34	486.83
436.53	437.68
436.72	442.36
436.90	411.93
437.09	367.46
437.28	418.96
437.46	423.64
437.65	388.53
437.84	475.13
438.02	362.78
438.21	393.21
438.40	404.91
438.58	362.78
438.77	463.43
438.96	376.83
439.14	428.32
439.33	407.25
439.52	362.78
439.70	381.51
439.89	430.66
440.08	456.40
440.26	463.43
440.45	430.66
440.63	433.00
440.82	341.72
441.01	400.23
441.19	437.68
441.38	367.46
441.57	440.02
441.75	374.49
441.94	472.79
442.12	393.21
442.31	421.30
442.50	437.68
442.68	447.04
442.87	390.87
443.05	442.36
443.24	407.25
443.43	400.23
443.61	465.77
443.80	442.36
443.98	376.83
444.17	470.45
444.35	414.27
444.54	358.10
444.73	418.96
444.91	442.36
445.10	447.04
445.28	395.55
445.47	395.55
445.65	447.04
445.84	374.49
446.02	404.91
446.21	458.74
446.39	425.98
446.58	397.89
446.77	521.94
446.95	402.57
447.14	355.76
447.32	456.40
447.51	395.55
447.69	390.87
447.88	414.27
448.06	451.72
448.25	414.27
448.43	404.91
448.62	400.23
448.80	362.78
448.99	440.02
449.17	376.83
449.36	458.74
449.54	447.04
449.73	411.93
449.91	451.72
450.10	409.59
450.28	458.74
450.46	435.34
450.65	395.55
450.83	414.27
451.02	477.47
451.20	425.98
451.39	444.70
451.57	484.49
451.76	430.66
451.94	383.85
452.13	451.72
452.31	489.17
452.49	421.30
452.68	386.19
452.86	433.00
453.05	437.68
453.23	416.62
453.42	458.74
453.60	397.89
453.78	465.77
453.97	393.21
454.15	440.02
454.34	418.96
454.52	372.15
454.70	449.38
454.89	486.83
455.07	411.93
455.26	418.96
455.44	397.89
455.62	390.87
455.81	463.43
455.99	416.62
456.17	407.25
456.36	425.98
456.54	369.80
456.73	475.13
456.91	423.64
457.09	339.38
457.28	449.38
457.46	407.25
457.64	421.30
457.83	416.62
458.01	393.21
458.19	337.04
458.38	379.17
458.56	437.68
458.74	451.72
458.93	369.80
459.11	442.36
459.29	388.53
459.48	381.51
459.66	477.47
459.84	381.51
460.03	507.90
460.21	442.36
460.39	437.68
460.57	447.04
460.76	451.72
460.94	416.62
461.12	425.98
461.31	433.00
461.49	409.59
461.67	395.55
461.85	437.68
462.04	393.21
462.22	734.93
462.40	397.89
462.59	463.43
462.77	351.08
462.95	400.23
463.13	367.46
463.32	430.66
463.50	353.42
463.68	428.32
463.86	414.27
464.05	454.06
464.23	409.59
464.41	470.45
464.59	449.38
464.78	414.27
464.96	395.55
465.14	414.27
465.32	428.32
465.50	423.64
465.69	400.23
465.87	374.49
466.05	411.93
466.23	425.98
466.41	430.66
466.60	379.17
466.78	381.51
466.96	470.45
467.14	409.59
467.32	423.64
467.51	411.93
467.69	444.70
467.87	465.77
468.05	472.79
468.23	388.53
468.41	442.36
468.60	339.38
468.78	386.19
468.96	383.85
469.14	395.55
469.32	381.51
469.50	409.59
469.69	400.23
469.87	423.64
470.05	404.91
470.23	465.77
470.41	423.64
470.59	463.43
470.77	440.02
470.95	388.53
471.14	428.32
471.32	437.68
471.50	500.87
471.68	437.68
471.86	493.85
472.04	425.98
472.22	383.85
472.40	423.64
472.58	383.85
472.77	346.40
472.95	390.87
473.13	449.38
473.31	395.55
473.49	421.30
473.67	397.89
473.85	409.59
474.03	409.59
474.21	416.62
474.39	451.72
474.57	496.19
474.75	472.79
474.93	367.46
475.12	383.85
475.30	402.57
475.48	404.91
475.66	468.11
475.84	395.55
476.02	421.30
476.20	376.83
476.38	404.91
476.56	437.68
476.74	362.78
476.92	451.72
477.10	447.04
477.28	444.70
477.46	440.02
477.64	435.34
477.82	442.36
478.00	369.80
478.18	418.96
478.36	465.77
478.54	395.55
478.72	355.76
478.90	404.91
479.08	383.85
479.26	421.30
479.44	386.19
479.62	365.12
479.80	327.68
479.98	374.49
480.16	395.55
480.34	454.06
480.52	367.46
480.70	440.02
480.88	379.17
481.06	416.62
481.24	414.27
481.41	421.30
481.59	428.32
481.77	404.91
481.95	440.02
482.13	500.87
482.31	407.25
482.49	372.15
482.67	407.25
482.85	435.34
483.03	489.17
483.21	465.77
483.39	376.83
483.57	411.93
483.74	514.92
483.92	463.43
484.10	400.23
484.28	402.57
484.46	449.38
484.64	390.87
484.82	388.53
485.00	388.53
485.18	440.02
485.35	440.02
485.53	402.57
485.71	402.57
485.89	327.68
486.07	402.57
486.25	524.28
486.43	416.62
486.61	437.68
486.78	388.53
486.96	388.53
487.14	447.04
487.32	447.04
487.50	430.66
487.68	433.00
487.85	423.64
488.03	456.40
488.21	376.83
488.39	381.51
488.57	435.34
488.75	425.98
488.92	486.83
489.10	456.40
489.28	496.19
489.46	411.93
489.64	447.04
489.81	421.30
489.99	463.43
490.17	421.30
490.35	451.72
490.53	500.87
490.70	437.68
490.88	479.81
491.06	400.23
491.24	465.77
491.41	449.38
491.59	330.02
491.77	346.40
491.95	411.93
492.13	358.10
492.30	416.62
492.48	397.89
492.66	330.02
492.84	404.91
493.01	430.66
493.19	379.17
493.37	472.79
493.54	451.72
493.72	498.53
493.90	386.19
494.08	411.93
494.25	442.36
494.43	400.23
494.61	433.00
494.79	395.55
494.96	442.36
495.14	433.00
495.32	463.43
495.49	407.25
495.67	456.40
495.85	409.59
496.02	372.15
496.20	383.85
496.38	433.00
496.55	486.83
496.73	402.57
496.91	400.23
497.09	423.64
497.26	404.91
497.44	407.25
497.62	372.15
497.79	437.68
497.97	351.08
498.14	404.91
498.32	414.27
498.50	428.32
498.67	435.34
498.85	430.66
499.03	388.53
499.20	421.30
499.38	404.91
499.56	411.93
499.73	500.87
499.91	425.98
500.08	383.85
500.26	454.06
500.44	358.10
500.61	447.04
500.79	409.59
500.97	465.77
501.14	514.92
501.32	425.98
501.49	517.26
501.67	430.66
501.84	341.72
502.02	465.77
502.20	475.13
502.37	411.93
502.55	379.17
502.72	423.64
502.90	372.15
503.07	360.44
503.25	461.09
503.43	404.91
503.60	404.91
503.78	465.77
503.95	470.45
504.13	407.25
504.30	458.74
504.48	418.96
504.65	468.11
504.83	409.59
505.01	475.13
505.18	411.93
505.36	409.59
505.53	472.79
505.71	383.85
505.88	440.02
506.06	430.66
506.23	447.04
506.41	444.70
506.58	486.83
506.76	456.40
506.93	393.21
507.11	421.30
507.28	388.53
507.46	395.55
507.63	461.09
507.81	484.49
507.98	451.72
508.16	379.17
508.33	416.62
508.50	301.93
508.68	330.02
508.85	440.02
509.03	404.91
509.20	428.32
509.38	369.80
509.55	425.98
509.73	402.57
509.90	484.49
510.08	395.55
510.25	491.51
510.42	456.40
510.60	421.30
510.77	416.62
510.95	482.15
511.12	430.66
511.30	409.59
511.47	428.32
511.64	470.45
511.82	411.93
511.99	400.23
512.17	397.89
512.34	449.38
512.51	418.96
512.69	421.30
512.86	454.06
513.04	425.98
513.21	416.62
513.38	425.98
513.56	388.53
513.73	421.30
513.90	390.87
514.08	414.27
514.25	425.98
514.43	423.64
514.60	388.53
514.77	367.46
514.95	449.38
515.12	414.27
515.29	468.11
515.47	390.87
515.64	402.57
515.81	414.27
515.99	421.30
516.16	475.13
516.33	456.40
516.51	425.98
516.68	414.27
516.85	362.78
517.03	374.49
517.20	395.55
517.37	414.27
517.54	449.38
517.72	458.74
517.89	437.68
518.06	411.93
518.24	421.30
518.41	435.34
518.58	451.72
518.75	379.17
518.93	437.68
519.10	320.65
519.27	388.53
519.45	400.23
519.62	390.87
519.79	400.23
519.96	463.43
520.14	456.40
520.31	423.64
520.48	418.96
520.65	400.23
520.83	402.57
521.00	369.80
521.17	463.43
521.34	360.44
521.52	458.74
521.69	423.64
521.86	442.36
522.03	409.59
522.20	386.19
522.38	440.02
522.55	440.02
522.72	440.02
522.89	433.00
523.07	433.00
523.24	404.91
523.41	411.93
523.58	430.66
523.75	400.23
523.92	447.04
524.10	400.23
524.27	423.64
524.44	444.70
524.61	472.79
524.78	423.64
524.96	393.21
525.13	383.85
525.30	402.57
525.47	454.06
525.64	475.13
525.81	440.02
525.98	423.64
526.16	400.23
526.33	433.00
526.50	470.45
526.67	397.89
526.84	322.99
527.01	402.57
527.18	433.00
527.36	414.27
527.53	388.53
527.70	381.51
527.87	484.49
528.04	428.32
528.21	463.43
528.38	418.96
528.55	337.04
528.72	463.43
528.89	484.49
529.07	482.15
529.24	463.43
529.41	491.51
529.58	397.89
529.75	421.30
529.92	388.53
530.09	451.72
530.26	411.93
530.43	416.62
530.60	433.00
530.77	397.89
530.94	500.87
531.11	414.27
531.28	416.62
531.46	486.83
531.63	451.72
531.80	442.36
531.97	407.25
532.14	376.83
532.31	451.72
532.48	461.09
532.65	442.36
532.82	388.53
532.99	374.49
533.16	461.09
533.33	461.09
533.50	449.38
533.67	461.09
533.84	507.90
534.01	444.70
534.18	463.43
534.35	465.77
534.52	416.62
534.69	381.51
534.86	421.30
535.03	472.79
535.20	444.70
535.37	423.64
535.54	454.06
535.71	409.59
535.88	498.53
536.05	374.49
536.22	388.53
536.38	374.49
536.55	447.04
536.72	491.51
536.89	386.19
537.06	409.59
537.23	388.53
537.40	402.57
537.57	456.40
537.74	517.26
537.91	444.70
538.08	393.21
538.25	388.53
538.42	425.98
538.59	407.25
538.75	425.98
538.92	383.85
539.09	428.32
539.26	372.15
539.43	360.44
539.60	407.25
539.77	418.96
539.94	425.98
540.11	489.17
540.28	533.64
540.44	458.74
540.61	390.87
540.78	372.15
540.95	484.49
541.12	437.68
541.29	423.64
541.46	449.38
541.62	423.64
541.79	386.19
541.96	463.43
542.13	411.93
542.30	418.96
542.47	465.77
542.63	400.23
542.80	390.87
542.97	416.62
543.14	470.45
543.31	428.32
543.48	449.38
543.64	407.25
543.81	461.09
543.98	416.62
544.15	418.96
544.32	395.55
544.48	430.66
544.65	475.13
544.82	425.98
544.99	421.30
545.16	388.53
545.32	411.93
545.49	456.40
545.66	393.21
545.83	404.91
546.00	435.34
546.16	318.31
546.33	425.98
546.50	360.44
546.67	442.36
546.83	482.15
547.00	414.27
547.17	400.23
547.34	442.36
547.50	447.04
547.67	404.91
547.84	390.87
548.00	339.38
548.17	451.72
548.34	402.57
548.51	407.25
548.67	437.68
548.84	435.34
549.01	437.68
549.18	421.30
549.34	383.85
549.51	411.93
549.68	421.30
549.84	339.38
550.01	447.04
550.18	484.49
550.34	433.00
550.51	454.06
550.68	449.38
550.84	402.57
551.01	449.38
551.18	444.70
551.34	435.34
551.51	425.98
551.68	353.42
551.84	428.32
552.01	362.78
552.18	395.55
552.34	404.91
552.51	423.64
552.68	440.02
552.84	458.74
553.01	351.08
553.18	510.24
553.34	404.91
553.51	379.17
553.67	430.66
553.84	486.83
554.01	482.15
554.17	404.91
554.34	379.17
554.51	411.93
554.67	414.27
554.84	418.96
555.00	395.55
555.17	447.04
555.33	376.83
555.50	358.10
555.67	477.47
555.83	348.74
556.00	449.38
556.16	561.73
556.33	472.79
556.50	442.36
556.66	358.10
556.83	355.76
556.99	390.87
557.16	402.57
557.32	418.96
557.49	407.25
557.65	397.89
557.82	402.57
557.98	433.00
558.15	332.36
558.32	468.11
558.48	407.25
558.65	411.93
558.81	358.10
558.98	451.72
559.14	423.64
559.31	393.21
559.47	390.87
559.64	430.66
559.80	454.06
559.97	400.23
560.13	442.36
560.30	414.27
560.46	390.87
560.63	383.85
560.79	374.49
560.96	505.56
561.12	395.55
561.29	486.83
561.45	379.17
561.61	479.81
561.78	360.44
561.94	322.99
562.11	479.81
562.27	454.06
562.44	383.85
562.60	369.80
562.77	362.78
562.93	411.93
563.10	444.70
563.26	430.66
563.42	456.40
563.59	484.49
563.75	493.85
563.92	409.59
564.08	397.89
564.24	390.87
564.41	362.78
564.57	358.10
564.74	353.42
564.90	344.06
565.07	533.64
565.23	444.70
565.39	411.93
565.56	447.04
565.72	423.64
565.88	416.62
566.05	444.70
566.21	430.66
566.38	444.70
566.54	430.66
566.70	411.93
566.87	470.45
567.03	402.57
567.19	472.79
567.36	418.96
567.52	437.68
567.68	418.96
567.85	430.66
568.01	365.12
568.17	360.44
568.34	414.27
568.50	524.28
568.66	388.53
568.83	456.40
568.99	411.93
569.15	390.87
569.32	365.12
569.48	397.89
569.64	376.83
569.81	353.42
569.97	423.64
570.13	425.98
570.30	397.89
570.46	393.21
570.62	437.68
570.78	397.89
570.95	512.58
571.11	449.38
571.27	407.25
571.43	414.27
571.60	444.70
571.76	400.23
571.92	383.85
572.09	468.11
572.25	376.83
572.41	353.42
572.57	390.87
572.74	465.77
572.90	395.55
573.06	367.46
573.22	402.57
573.38	454.06
573.55	433.00
573.71	444.70
573.87	442.36
574.03	435.34
574.20	395.55
574.36	372.15
574.52	437.68
574.68	505.56
574.84	411.93
575.01	477.47
575.17	433.00
575.33	418.96
575.49	440.02
575.65	482.15
575.82	383.85
575.98	433.00
576.14	435.34
576.30	437.68
576.46	400.23
576.62	423.64
576.79	444.70
576.95	470.45
577.11	416.62
577.27	369.80
577.43	444.70
577.59	421.30
577.75	456.40
577.92	472.79
578.08	358.10
578.24	395.55
578.40	409.59
578.56	437.68
578.72	461.09
578.88	440.02
579.04	440.02
579.21	334.70
579.37	425.98
579.53	393.21
579.69	458.74
579.85	430.66
580.01	437.68
580.17	351.08
580.33	430.66
580.49	355.76
580.65	486.83
580.82	416.62
580.98	409.59
581.14	430.66
581.30	547.69
581.46	437.68
581.62	416.62
581.78	404.91
581.94	393.21
582.10	383.85
582.26	402.57
582.42	390.87
582.58	418.96
582.74	421.30
582.90	421.30
583.06	451.72
583.22	442.36
583.38	381.51
583.54	397.89
583.70	388.53
583.86	461.09
584.02	383.85
584.18	498.53
584.34	409.59
584.50	418.96
584.66	372.15
584.82	440.02
584.98	372.15
585.14	418.96
585.30	423.64
585.46	416.62
585.62	430.66
585.78	325.33
585.94	402.57
586.10	402.57
586.26	409.59
586.42	489.17
586.58	402.57
586.74	402.57
586.90	386.19
587.06	344.06
587.22	425.98
587.38	484.49
587.54	416.62
587.70	463.43
587.86	505.56
588.02	365.12
588.18	437.68
588.34	472.79
588.49	358.10
588.65	454.06
588.81	449.38
588.97	393.21
589.13	381.51
589.29	418.96
589.45	437.68
589.61	477.47
589.77	500.87
589.93	416.62
590.08	367.46
590.24	437.68
590.40	383.85
590.56	449.38
590.72	404.91
590.88	404.91
591.04	418.96
591.20	372.15
591.35	486.83
591.51	407.25
591.67	407.25
591.83	442.36
591.99	400.23
592.15	388.53
592.31	454.06
592.46	388.53
592.62	433.00
592.78	388.53
592.94	416.62
593.10	451.72
593.26	407.25
593.41	416.62
593.57	435.34
593.73	423.64
593.89	437.68
594.05	449.38
594.20	400.23
594.36	327.68
594.52	400.23
594.68	379.17
594.84	409.59
594.99	393.21
595.15	388.53
595.31	475.13
595.47	465.77
595.62	444.70
595.78	400.23
595.94	400.23
596.10	451.72
596.25	404.91
596.41	409.59
596.57	447.04
596.73	400.23
596.88	449.38
597.04	416.62
597.20	362.78
597.36	470.45
597.51	379.17
597.67	355.76
597.83	353.42
597.99	463.43
598.14	414.27
598.30	437.68
598.46	454.06
598.61	430.66
598.77	428.32
598.93	390.87
599.09	409.59
599.24	430.66
599.40	486.83
599.56	381.51
599.71	404.91
599.87	414.27
600.03	390.87
600.18	433.00
600.34	397.89
600.50	423.64
600.65	376.83
600.81	430.66
600.97	421.30
601.12	421.30
601.28	440.02
601.44	372.15
601.59	458.74
601.75	362.78
601.91	362.78
602.06	397.89
602.22	493.85
602.37	414.27
602.53	372.15
602.69	425.98
602.84	435.34
603.00	365.12
603.16	411.93
603.31	477.47
603.47	498.53
603.62	348.74
603.78	383.85
603.94	428.32
604.09	308.95
604.25	390.87
604.40	461.09
604.56	418.96
604.71	346.40
604.87	395.55
605.03	369.80
605.18	479.81
605.34	416.62
605.49	411.93
605.65	400.23
605.80	425.98
605.96	430.66
606.12	416.62
606.27	449.38
606.43	400.23
606.58	491.51
606.74	404.91
606.89	503.22
607.05	393.21
607.20	437.68
607.36	430.66
607.51	423.64
607.67	411.93
607.82	442.36
607.98	493.85
608.13	449.38
608.29	402.57
608.44	393.21
608.60	372.15
608.75	451.72
608.91	468.11
609.06	449.38
609.22	456.40
609.37	423.64
609.53	421.30
609.68	404.91
609.84	341.72
609.99	369.80
610.15	372.15
