SpectraSuite Data File
++++++++++++++++++++++++++++++++++++
Date: Fri Oct 25 12:10:40 EDT 2013
User: price-jones
Dark Spectrum Present: No
Reference Spectrum Present: No
Number of Sampled Component Spectra: 1
Spectrometers: USB2+H05261
Integration Time (usec): 100000 (USB2+H05261)
Spectra Averaged: 1 (USB2+H05261)
Boxcar Smoothing: 0 (USB2+H05261)
Correct for Electrical Dark: No (USB2+H05261)
Strobe/Lamp Enabled: No (USB2+H05261)
Correct for Detector Non-linearity: No (USB2+H05261)
Correct for Stray Light: No (USB2+H05261)
Number of Pixels in Processed Spectrum: 2048
>>>>>Begin Processed Spectral Data<<<<<
365.73	358.10
365.92	358.10
366.12	358.10
366.32	212.99
366.52	222.35
366.72	222.35
366.91	187.24
367.11	212.99
367.31	248.10
367.51	217.67
367.70	290.23
367.90	252.78
368.10	241.08
368.30	264.48
368.49	262.14
368.69	280.86
368.89	271.50
369.09	215.33
369.28	287.89
369.48	252.78
369.68	285.55
369.87	301.93
370.07	227.03
370.27	325.33
370.47	292.57
370.66	395.55
370.86	351.08
371.06	348.74
371.25	395.55
371.45	308.95
371.65	376.83
371.84	372.15
372.04	360.44
372.24	388.53
372.44	360.44
372.63	393.21
372.83	458.74
373.03	395.55
373.22	395.55
373.42	458.74
373.62	465.77
373.81	479.81
374.01	472.79
374.21	437.68
374.40	468.11
374.60	442.36
374.79	444.70
374.99	428.32
375.19	430.66
375.38	428.32
375.58	409.59
375.78	444.70
375.97	458.74
376.17	456.40
376.37	470.45
376.56	449.38
376.76	454.06
376.95	330.02
377.15	433.00
377.35	423.64
377.54	498.53
377.74	393.21
377.93	416.62
378.13	376.83
378.33	421.30
378.52	444.70
378.72	411.93
378.91	397.89
379.11	369.80
379.31	339.38
379.50	346.40
379.70	425.98
379.89	437.68
380.09	421.30
380.28	369.80
380.48	369.80
380.68	386.19
380.87	311.29
381.07	404.91
381.26	423.64
381.46	386.19
381.65	400.23
381.85	433.00
382.04	430.66
382.24	433.00
382.43	397.89
382.63	355.76
382.83	376.83
383.02	402.57
383.22	402.57
383.41	400.23
383.61	404.91
383.80	379.17
384.00	409.59
384.19	435.34
384.39	440.02
384.58	351.08
384.78	395.55
384.97	409.59
385.17	435.34
385.36	351.08
385.56	430.66
385.75	423.64
385.95	374.49
386.14	447.04
386.34	393.21
386.53	367.46
386.72	376.83
386.92	454.06
387.11	421.30
387.31	409.59
387.50	444.70
387.70	411.93
387.89	402.57
388.09	411.93
388.28	433.00
388.48	372.15
388.67	461.09
388.86	386.19
389.06	400.23
389.25	463.43
389.45	390.87
389.64	435.34
389.84	475.13
390.03	390.87
390.22	489.17
390.42	451.72
390.61	411.93
390.81	444.70
391.00	397.89
391.19	458.74
391.39	411.93
391.58	372.15
391.78	393.21
391.97	369.80
392.16	397.89
392.36	400.23
392.55	414.27
392.75	425.98
392.94	437.68
393.13	390.87
393.33	400.23
393.52	383.85
393.71	402.57
393.91	402.57
394.10	379.17
394.29	425.98
394.49	416.62
394.68	404.91
394.88	442.36
395.07	472.79
395.26	428.32
395.46	369.80
395.65	400.23
395.84	416.62
396.04	444.70
396.23	395.55
396.42	372.15
396.62	409.59
396.81	447.04
397.00	393.21
397.19	353.42
397.39	428.32
397.58	416.62
397.77	414.27
397.97	411.93
398.16	367.46
398.35	294.91
398.55	433.00
398.74	409.59
398.93	454.06
399.12	397.89
399.32	395.55
399.51	414.27
399.70	421.30
399.90	454.06
400.09	440.02
400.28	407.25
400.47	379.17
400.67	428.32
400.86	423.64
401.05	444.70
401.24	430.66
401.44	475.13
401.63	355.76
401.82	409.59
402.01	379.17
402.21	374.49
402.40	435.34
402.59	414.27
402.78	416.62
402.97	376.83
403.17	388.53
403.36	365.12
403.55	418.96
403.74	381.51
403.93	393.21
404.13	418.96
404.32	369.80
404.51	353.42
404.70	447.04
404.89	383.85
405.09	414.27
405.28	365.12
405.47	430.66
405.66	491.51
405.85	463.43
406.05	360.44
406.24	374.49
406.43	418.96
406.62	376.83
406.81	458.74
407.00	425.98
407.20	386.19
407.39	447.04
407.58	423.64
407.77	351.08
407.96	425.98
408.15	440.02
408.34	414.27
408.54	430.66
408.73	444.70
408.92	374.49
409.11	461.09
409.30	414.27
409.49	355.76
409.68	362.78
409.87	414.27
410.07	393.21
410.26	397.89
410.45	489.17
410.64	344.06
410.83	414.27
411.02	428.32
411.21	451.72
411.40	397.89
411.59	421.30
411.78	376.83
411.98	388.53
412.17	332.36
412.36	358.10
412.55	390.87
412.74	430.66
412.93	425.98
413.12	407.25
413.31	355.76
413.50	444.70
413.69	337.04
413.88	400.23
414.07	418.96
414.26	404.91
414.45	367.46
414.64	372.15
414.83	390.87
415.02	400.23
415.22	381.51
415.41	404.91
415.60	404.91
415.79	416.62
415.98	421.30
416.17	374.49
416.36	376.83
416.55	379.17
416.74	430.66
416.93	475.13
417.12	411.93
417.31	390.87
417.50	383.85
417.69	477.47
417.88	444.70
418.07	402.57
418.26	456.40
418.45	411.93
418.64	463.43
418.83	379.17
419.02	461.09
419.21	346.40
419.39	383.85
419.58	463.43
419.77	425.98
419.96	461.09
420.15	425.98
420.34	437.68
420.53	388.53
420.72	372.15
420.91	421.30
421.10	425.98
421.29	440.02
421.48	388.53
421.67	435.34
421.86	390.87
422.05	407.25
422.24	383.85
422.43	339.38
422.61	411.93
422.80	435.34
422.99	437.68
423.18	411.93
423.37	404.91
423.56	369.80
423.75	477.47
423.94	414.27
424.13	365.12
424.32	416.62
424.50	372.15
424.69	369.80
424.88	386.19
425.07	353.42
425.26	353.42
425.45	388.53
425.64	365.12
425.83	388.53
426.01	507.90
426.20	407.25
426.39	273.84
426.58	381.51
426.77	418.96
426.96	379.17
427.15	367.46
427.33	383.85
427.52	407.25
427.71	379.17
427.90	407.25
428.09	451.72
428.28	362.78
428.46	440.02
428.65	383.85
428.84	346.40
429.03	425.98
429.22	360.44
429.40	444.70
429.59	351.08
429.78	472.79
429.97	390.87
430.16	393.21
430.34	421.30
430.53	374.49
430.72	395.55
430.91	409.59
431.10	440.02
431.28	416.62
431.47	418.96
431.66	456.40
431.85	379.17
432.03	381.51
432.22	442.36
432.41	416.62
432.60	362.78
432.79	379.17
432.97	414.27
433.16	472.79
433.35	393.21
433.54	510.24
433.72	423.64
433.91	411.93
434.10	400.23
434.28	374.49
434.47	402.57
434.66	440.02
434.85	484.49
435.03	440.02
435.22	486.83
435.41	425.98
435.59	451.72
435.78	400.23
435.97	381.51
436.16	444.70
436.34	402.57
436.53	393.21
436.72	374.49
436.90	400.23
437.09	414.27
437.28	390.87
437.46	414.27
437.65	369.80
437.84	458.74
438.02	376.83
438.21	433.00
438.40	362.78
438.58	376.83
438.77	409.59
438.96	409.59
439.14	353.42
439.33	390.87
439.52	397.89
439.70	433.00
439.89	414.27
440.08	381.51
440.26	360.44
440.45	475.13
440.63	421.30
440.82	358.10
441.01	433.00
441.19	365.12
441.38	442.36
441.57	433.00
441.75	397.89
441.94	470.45
442.12	461.09
442.31	437.68
442.50	395.55
442.68	458.74
442.87	428.32
443.05	393.21
443.24	437.68
443.43	400.23
443.61	463.43
443.80	404.91
443.98	423.64
444.17	433.00
444.35	416.62
444.54	386.19
444.73	425.98
444.91	491.51
445.10	358.10
445.28	367.46
445.47	416.62
445.65	423.64
445.84	479.81
446.02	395.55
446.21	355.76
446.39	416.62
446.58	465.77
446.77	418.96
446.95	444.70
447.14	418.96
447.32	425.98
447.51	421.30
447.69	470.45
447.88	348.74
448.06	393.21
448.25	411.93
448.43	402.57
448.62	367.46
448.80	437.68
448.99	465.77
449.17	395.55
449.36	447.04
449.54	411.93
449.73	372.15
449.91	355.76
450.10	386.19
450.28	493.85
450.46	458.74
450.65	395.55
450.83	463.43
451.02	411.93
451.20	362.78
451.39	351.08
451.57	414.27
451.76	421.30
451.94	433.00
452.13	458.74
452.31	454.06
452.49	353.42
452.68	411.93
452.86	402.57
453.05	454.06
453.23	386.19
453.42	447.04
453.60	484.49
453.78	477.47
453.97	468.11
454.15	433.00
454.34	461.09
454.52	397.89
454.70	456.40
454.89	402.57
455.07	428.32
455.26	519.60
455.44	442.36
455.62	404.91
455.81	421.30
455.99	442.36
456.17	454.06
456.36	456.40
456.54	484.49
456.73	428.32
456.91	430.66
457.09	449.38
457.28	458.74
457.46	367.46
457.64	470.45
457.83	416.62
458.01	498.53
458.19	372.15
458.38	383.85
458.56	376.83
458.74	435.34
458.93	433.00
459.11	416.62
459.29	428.32
459.48	355.76
459.66	433.00
459.84	489.17
460.03	440.02
460.21	409.59
460.39	425.98
460.57	463.43
460.76	386.19
460.94	402.57
461.12	484.49
461.31	355.76
461.49	393.21
461.67	433.00
461.85	489.17
462.04	369.80
462.22	781.74
462.40	400.23
462.59	505.56
462.77	395.55
462.95	400.23
463.13	388.53
463.32	355.76
463.50	430.66
463.68	409.59
463.86	393.21
464.05	390.87
464.23	388.53
464.41	367.46
464.59	388.53
464.78	376.83
464.96	351.08
465.14	425.98
465.32	425.98
465.50	393.21
465.69	376.83
465.87	414.27
466.05	451.72
466.23	461.09
466.41	451.72
466.60	402.57
466.78	381.51
466.96	416.62
467.14	411.93
467.32	404.91
467.51	421.30
467.69	379.17
467.87	433.00
468.05	423.64
468.23	428.32
468.41	416.62
468.60	393.21
468.78	430.66
468.96	468.11
469.14	451.72
469.32	433.00
469.50	369.80
469.69	430.66
469.87	421.30
470.05	451.72
470.23	465.77
470.41	425.98
470.59	454.06
470.77	404.91
470.95	388.53
471.14	503.22
471.32	463.43
471.50	451.72
471.68	475.13
471.86	451.72
472.04	407.25
472.22	479.81
472.40	379.17
472.58	435.34
472.77	388.53
472.95	437.68
473.13	461.09
473.31	400.23
473.49	430.66
473.67	353.42
473.85	407.25
474.03	423.64
474.21	383.85
474.39	421.30
474.57	376.83
474.75	407.25
474.93	463.43
475.12	418.96
475.30	379.17
475.48	360.44
475.66	416.62
475.84	475.13
476.02	395.55
476.20	479.81
476.38	430.66
476.56	437.68
476.74	442.36
476.92	379.17
477.10	423.64
477.28	423.64
477.46	425.98
477.64	374.49
477.82	435.34
478.00	414.27
478.18	376.83
478.36	484.49
478.54	433.00
478.72	482.15
478.90	477.47
479.08	435.34
479.26	449.38
479.44	444.70
479.62	358.10
479.80	444.70
479.98	400.23
480.16	341.72
480.34	411.93
480.52	451.72
480.70	390.87
480.88	353.42
481.06	425.98
481.24	454.06
481.41	430.66
481.59	421.30
481.77	507.90
481.95	355.76
482.13	362.78
482.31	402.57
482.49	442.36
482.67	404.91
482.85	435.34
483.03	372.15
483.21	402.57
483.39	383.85
483.57	421.30
483.74	423.64
483.92	379.17
484.10	379.17
484.28	425.98
484.46	528.96
484.64	285.55
484.82	369.80
485.00	402.57
485.18	470.45
485.35	449.38
485.53	428.32
485.71	383.85
485.89	320.65
486.07	470.45
486.25	493.85
486.43	414.27
486.61	404.91
486.78	395.55
486.96	386.19
487.14	437.68
487.32	421.30
487.50	444.70
487.68	425.98
487.85	369.80
488.03	458.74
488.21	442.36
488.39	451.72
488.57	449.38
488.75	372.15
488.92	503.22
489.10	388.53
489.28	533.64
489.46	402.57
489.64	440.02
489.81	437.68
489.99	318.31
490.17	458.74
490.35	433.00
490.53	376.83
490.70	402.57
490.88	433.00
491.06	409.59
491.24	430.66
491.41	440.02
491.59	435.34
491.77	484.49
491.95	397.89
492.13	379.17
492.30	400.23
492.48	372.15
492.66	376.83
492.84	418.96
493.01	409.59
493.19	442.36
493.37	425.98
493.54	512.58
493.72	423.64
493.90	376.83
494.08	411.93
494.25	472.79
494.43	397.89
494.61	395.55
494.79	425.98
494.96	430.66
495.14	437.68
495.32	449.38
495.49	390.87
495.67	402.57
495.85	416.62
496.02	397.89
496.20	402.57
496.38	421.30
496.55	444.70
496.73	379.17
496.91	341.72
497.09	454.06
497.26	456.40
497.44	395.55
497.62	369.80
497.79	341.72
497.97	423.64
498.14	489.17
498.32	430.66
498.50	372.15
498.67	433.00
498.85	418.96
499.03	372.15
499.20	397.89
499.38	374.49
499.56	430.66
499.73	414.27
499.91	395.55
500.08	444.70
500.26	517.26
500.44	388.53
500.61	461.09
500.79	449.38
500.97	463.43
501.14	397.89
501.32	458.74
501.49	442.36
501.67	369.80
501.84	433.00
502.02	428.32
502.20	461.09
502.37	376.83
502.55	409.59
502.72	404.91
502.90	440.02
503.07	365.12
503.25	407.25
503.43	383.85
503.60	383.85
503.78	388.53
503.95	456.40
504.13	444.70
504.30	470.45
504.48	449.38
504.65	475.13
504.83	411.93
505.01	351.08
505.18	421.30
505.36	428.32
505.53	348.74
505.71	423.64
505.88	404.91
506.06	372.15
506.23	411.93
506.41	433.00
506.58	395.55
506.76	388.53
506.93	407.25
507.11	376.83
507.28	400.23
507.46	390.87
507.63	421.30
507.81	418.96
507.98	393.21
508.16	388.53
508.33	409.59
508.50	423.64
508.68	437.68
508.85	409.59
509.03	404.91
509.20	414.27
509.38	491.51
509.55	472.79
509.73	477.47
509.90	470.45
510.08	418.96
510.25	463.43
510.42	411.93
510.60	484.49
510.77	444.70
510.95	402.57
511.12	458.74
511.30	454.06
511.47	454.06
511.64	423.64
511.82	425.98
511.99	440.02
512.17	351.08
512.34	409.59
512.51	379.17
512.69	355.76
512.86	383.85
513.04	397.89
513.21	409.59
513.38	470.45
513.56	463.43
513.73	367.46
513.90	414.27
514.08	411.93
514.25	440.02
514.43	390.87
514.60	447.04
514.77	381.51
514.95	447.04
515.12	358.10
515.29	390.87
515.47	442.36
515.64	360.44
515.81	374.49
515.99	430.66
516.16	496.19
516.33	400.23
516.51	454.06
516.68	395.55
516.85	489.17
517.03	472.79
517.20	444.70
517.37	388.53
517.54	430.66
517.72	430.66
517.89	367.46
518.06	395.55
518.24	428.32
518.41	444.70
518.58	451.72
518.75	388.53
518.93	416.62
519.10	416.62
519.27	372.15
519.45	395.55
519.62	449.38
519.79	451.72
519.96	388.53
520.14	351.08
520.31	414.27
520.48	404.91
520.65	411.93
520.83	411.93
521.00	411.93
521.17	477.47
521.34	395.55
521.52	400.23
521.69	355.76
521.86	451.72
522.03	440.02
522.20	428.32
522.38	395.55
522.55	454.06
522.72	367.46
522.89	498.53
523.07	444.70
523.24	444.70
523.41	482.15
523.58	400.23
523.75	442.36
523.92	390.87
524.10	479.81
524.27	456.40
524.44	407.25
524.61	440.02
524.78	430.66
524.96	430.66
525.13	411.93
525.30	414.27
525.47	376.83
525.64	393.21
525.81	463.43
525.98	425.98
526.16	376.83
526.33	428.32
526.50	367.46
526.67	360.44
526.84	383.85
527.01	383.85
527.18	381.51
527.36	447.04
527.53	395.55
527.70	353.42
527.87	337.04
528.04	421.30
528.21	383.85
528.38	437.68
528.55	465.77
528.72	458.74
528.89	428.32
529.07	440.02
529.24	362.78
529.41	465.77
529.58	451.72
529.75	447.04
529.92	440.02
530.09	447.04
530.26	440.02
530.43	411.93
530.60	327.68
530.77	423.64
530.94	421.30
531.11	428.32
531.28	393.21
531.46	400.23
531.63	421.30
531.80	465.77
531.97	418.96
532.14	407.25
532.31	472.79
532.48	390.87
532.65	418.96
532.82	379.17
532.99	353.42
533.16	379.17
533.33	475.13
533.50	430.66
533.67	397.89
533.84	388.53
534.01	470.45
534.18	421.30
534.35	451.72
534.52	386.19
534.69	465.77
534.86	435.34
535.03	479.81
535.20	418.96
535.37	454.06
535.54	386.19
535.71	449.38
535.88	400.23
536.05	360.44
536.22	414.27
536.38	423.64
536.55	416.62
536.72	435.34
536.89	386.19
537.06	465.77
537.23	433.00
537.40	479.81
537.57	423.64
537.74	456.40
537.91	440.02
538.08	409.59
538.25	440.02
538.42	433.00
538.59	447.04
538.75	465.77
538.92	421.30
539.09	463.43
539.26	379.17
539.43	465.77
539.60	447.04
539.77	468.11
539.94	414.27
540.11	418.96
540.28	428.32
540.44	479.81
540.61	341.72
540.78	355.76
540.95	395.55
541.12	388.53
541.29	372.15
541.46	456.40
541.62	477.47
541.79	442.36
541.96	482.15
542.13	468.11
542.30	470.45
542.47	390.87
542.63	393.21
542.80	414.27
542.97	454.06
543.14	440.02
543.31	383.85
543.48	369.80
543.64	400.23
543.81	454.06
543.98	418.96
544.15	397.89
544.32	444.70
544.48	430.66
544.65	430.66
544.82	402.57
544.99	484.49
545.16	456.40
545.32	402.57
545.49	411.93
545.66	383.85
545.83	397.89
546.00	383.85
546.16	421.30
546.33	330.02
546.50	388.53
546.67	447.04
546.83	416.62
547.00	334.70
547.17	390.87
547.34	407.25
547.50	416.62
547.67	425.98
547.84	435.34
548.00	344.06
548.17	395.55
548.34	402.57
548.51	437.68
548.67	451.72
548.84	433.00
549.01	440.02
549.18	397.89
549.34	486.83
549.51	386.19
549.68	313.63
549.84	355.76
550.01	435.34
550.18	498.53
550.34	463.43
550.51	447.04
550.68	414.27
550.84	346.40
551.01	411.93
551.18	435.34
551.34	463.43
551.51	402.57
551.68	479.81
551.84	376.83
552.01	360.44
552.18	379.17
552.34	404.91
552.51	458.74
552.68	454.06
552.84	440.02
553.01	421.30
553.18	449.38
553.34	353.42
553.51	395.55
553.67	440.02
553.84	526.62
554.01	423.64
554.17	470.45
554.34	365.12
554.51	362.78
554.67	395.55
554.84	397.89
555.00	376.83
555.17	442.36
555.33	423.64
555.50	421.30
555.67	444.70
555.83	355.76
556.00	337.04
556.16	514.92
556.33	486.83
556.50	440.02
556.66	425.98
556.83	404.91
556.99	428.32
557.16	458.74
557.32	463.43
557.49	372.15
557.65	376.83
557.82	421.30
557.98	447.04
558.15	348.74
558.32	428.32
558.48	383.85
558.65	458.74
558.81	435.34
558.98	395.55
559.14	440.02
559.31	456.40
559.47	456.40
559.64	463.43
559.80	458.74
559.97	332.36
560.13	360.44
560.30	358.10
560.46	430.66
560.63	365.12
560.79	451.72
560.96	437.68
561.12	421.30
561.29	442.36
561.45	418.96
561.61	416.62
561.78	458.74
561.94	454.06
562.11	414.27
562.27	409.59
562.44	486.83
562.60	475.13
562.77	379.17
562.93	475.13
563.10	411.93
563.26	404.91
563.42	451.72
563.59	348.74
563.75	386.19
563.92	435.34
564.08	353.42
564.24	404.91
564.41	430.66
564.57	421.30
564.74	433.00
564.90	353.42
565.07	428.32
565.23	437.68
565.39	442.36
565.56	425.98
565.72	344.06
565.88	409.59
566.05	355.76
566.21	383.85
566.38	430.66
566.54	440.02
566.70	442.36
566.87	369.80
567.03	322.99
567.19	477.47
567.36	421.30
567.52	456.40
567.68	458.74
567.85	318.31
568.01	421.30
568.17	475.13
568.34	365.12
568.50	449.38
568.66	456.40
568.83	437.68
568.99	423.64
569.15	437.68
569.32	468.11
569.48	414.27
569.64	383.85
569.81	428.32
569.97	393.21
570.13	468.11
570.30	507.90
570.46	402.57
570.62	435.34
570.78	475.13
570.95	337.04
571.11	493.85
571.27	442.36
571.43	365.12
571.60	430.66
571.76	449.38
571.92	341.72
572.09	507.90
572.25	428.32
572.41	379.17
572.57	390.87
572.74	421.30
572.90	465.77
573.06	322.99
573.22	430.66
573.38	425.98
573.55	433.00
573.71	489.17
573.87	433.00
574.03	423.64
574.20	402.57
574.36	486.83
574.52	437.68
574.68	330.02
574.84	416.62
575.01	428.32
575.17	456.40
575.33	379.17
575.49	517.26
575.65	428.32
575.82	369.80
575.98	463.43
576.14	409.59
576.30	369.80
576.46	416.62
576.62	470.45
576.79	400.23
576.95	442.36
577.11	407.25
577.27	381.51
577.43	395.55
577.59	416.62
577.75	440.02
577.92	461.09
578.08	407.25
578.24	341.72
578.40	433.00
578.56	468.11
578.72	444.70
578.88	468.11
579.04	414.27
579.21	348.74
579.37	404.91
579.53	416.62
579.69	404.91
579.85	463.43
580.01	519.60
580.17	411.93
580.33	341.72
580.49	414.27
580.65	374.49
580.82	404.91
580.98	435.34
581.14	451.72
581.30	390.87
581.46	430.66
581.62	414.27
581.78	404.91
581.94	395.55
582.10	383.85
582.26	440.02
582.42	397.89
582.58	444.70
582.74	468.11
582.90	477.47
583.06	388.53
583.22	369.80
583.38	433.00
583.54	337.04
583.70	442.36
583.86	440.02
584.02	390.87
584.18	468.11
584.34	416.62
584.50	440.02
584.66	416.62
584.82	390.87
584.98	381.51
585.14	358.10
585.30	383.85
585.46	374.49
585.62	402.57
585.78	388.53
585.94	395.55
586.10	390.87
586.26	458.74
586.42	463.43
586.58	430.66
586.74	428.32
586.90	402.57
587.06	334.70
587.22	477.47
587.38	482.15
587.54	362.78
587.70	383.85
587.86	447.04
588.02	454.06
588.18	393.21
588.34	477.47
588.49	440.02
588.65	404.91
588.81	404.91
588.97	416.62
589.13	397.89
589.29	388.53
589.45	358.10
589.61	416.62
589.77	421.30
589.93	411.93
590.08	407.25
590.24	397.89
590.40	423.64
590.56	346.40
590.72	411.93
590.88	402.57
591.04	393.21
591.20	383.85
591.35	423.64
591.51	374.49
591.67	440.02
591.83	407.25
591.99	470.45
592.15	425.98
592.31	423.64
592.46	409.59
592.62	381.51
592.78	369.80
592.94	395.55
593.10	393.21
593.26	365.12
593.41	376.83
593.57	402.57
593.73	388.53
593.89	407.25
594.05	393.21
594.20	451.72
594.36	461.09
594.52	393.21
594.68	411.93
594.84	411.93
594.99	435.34
595.15	433.00
595.31	421.30
595.47	440.02
595.62	418.96
595.78	416.62
595.94	418.96
596.10	521.94
596.25	379.17
596.41	397.89
596.57	411.93
596.73	367.46
596.88	416.62
597.04	454.06
597.20	341.72
597.36	425.98
597.51	397.89
597.67	435.34
597.83	421.30
597.99	470.45
598.14	433.00
598.30	437.68
598.46	489.17
598.61	404.91
598.77	428.32
598.93	463.43
599.09	339.38
599.24	430.66
599.40	433.00
599.56	386.19
599.71	411.93
599.87	435.34
600.03	444.70
600.18	479.81
600.34	411.93
600.50	425.98
600.65	447.04
600.81	400.23
600.97	414.27
601.12	418.96
601.28	454.06
601.44	344.06
601.59	346.40
601.75	421.30
601.91	430.66
602.06	418.96
602.22	400.23
602.37	411.93
602.53	421.30
602.69	451.72
602.84	374.49
603.00	430.66
603.16	390.87
603.31	477.47
603.47	437.68
603.62	395.55
603.78	381.51
603.94	463.43
604.09	402.57
604.25	355.76
604.40	414.27
604.56	409.59
604.71	526.62
604.87	381.51
605.03	430.66
605.18	442.36
605.34	407.25
605.49	430.66
605.65	430.66
605.80	390.87
605.96	442.36
606.12	463.43
606.27	433.00
606.43	449.38
606.58	383.85
606.74	393.21
606.89	435.34
607.05	369.80
607.20	388.53
607.36	486.83
607.51	414.27
607.67	454.06
607.82	388.53
607.98	451.72
608.13	409.59
608.29	444.70
608.44	423.64
608.60	397.89
608.75	510.24
608.91	381.51
609.06	386.19
609.22	421.30
609.37	360.44
609.53	447.04
609.68	409.59
609.84	428.32
609.99	477.47
610.15	489.17
