SpectraSuite Data File
++++++++++++++++++++++++++++++++++++
Date: Fri Oct 25 12:11:31 EDT 2013
User: price-jones
Dark Spectrum Present: No
Reference Spectrum Present: No
Number of Sampled Component Spectra: 1
Spectrometers: USB2+H05261
Integration Time (usec): 100000 (USB2+H05261)
Spectra Averaged: 1 (USB2+H05261)
Boxcar Smoothing: 0 (USB2+H05261)
Correct for Electrical Dark: No (USB2+H05261)
Strobe/Lamp Enabled: No (USB2+H05261)
Correct for Detector Non-linearity: No (USB2+H05261)
Correct for Stray Light: No (USB2+H05261)
Number of Pixels in Processed Spectrum: 2048
>>>>>Begin Processed Spectral Data<<<<<
365.73	299.59
365.92	299.59
366.12	299.59
366.32	257.46
366.52	212.99
366.72	220.01
366.91	191.92
367.11	203.63
367.31	245.76
367.51	220.01
367.70	154.48
367.90	229.37
368.10	241.08
368.30	306.61
368.49	248.10
368.69	257.46
368.89	271.50
369.09	252.78
369.28	276.18
369.48	313.63
369.68	287.89
369.87	369.80
370.07	266.82
370.27	304.27
370.47	337.04
370.66	320.65
370.86	374.49
371.06	425.98
371.25	372.15
371.45	421.30
371.65	428.32
371.84	388.53
372.04	404.91
372.24	379.17
372.44	388.53
372.63	428.32
372.83	344.06
373.03	435.34
373.22	388.53
373.42	404.91
373.62	360.44
373.81	423.64
374.01	418.96
374.21	440.02
374.40	386.19
374.60	475.13
374.79	351.08
374.99	395.55
375.19	400.23
375.38	437.68
375.58	362.78
375.78	435.34
375.97	486.83
376.17	465.77
376.37	430.66
376.56	482.15
376.76	400.23
376.95	395.55
377.15	458.74
377.35	393.21
377.54	442.36
377.74	402.57
377.93	433.00
378.13	416.62
378.33	388.53
378.52	430.66
378.72	437.68
378.91	437.68
379.11	374.49
379.31	374.49
379.50	372.15
379.70	430.66
379.89	449.38
380.09	472.79
380.28	283.20
380.48	404.91
380.68	393.21
380.87	374.49
381.07	472.79
381.26	409.59
381.46	402.57
381.65	402.57
381.85	414.27
382.04	414.27
382.24	423.64
382.43	435.34
382.63	367.46
382.83	425.98
383.02	367.46
383.22	416.62
383.41	477.47
383.61	482.15
383.80	395.55
384.00	372.15
384.19	397.89
384.39	458.74
384.58	386.19
384.78	383.85
384.97	348.74
385.17	433.00
385.36	334.70
385.56	376.83
385.75	418.96
385.95	397.89
386.14	421.30
386.34	393.21
386.53	468.11
386.72	418.96
386.92	447.04
387.11	472.79
387.31	470.45
387.50	355.76
387.70	334.70
387.89	421.30
388.09	388.53
388.28	416.62
388.48	402.57
388.67	437.68
388.86	447.04
389.06	421.30
389.25	379.17
389.45	421.30
389.64	362.78
389.84	428.32
390.03	423.64
390.22	341.72
390.42	362.78
390.61	454.06
390.81	355.76
391.00	437.68
391.19	444.70
391.39	308.95
391.58	334.70
391.78	411.93
391.97	425.98
392.16	423.64
392.36	390.87
392.55	421.30
392.75	421.30
392.94	402.57
393.13	430.66
393.33	442.36
393.52	395.55
393.71	447.04
393.91	449.38
394.10	395.55
394.29	393.21
394.49	404.91
394.68	442.36
394.88	390.87
395.07	393.21
395.26	465.77
395.46	407.25
395.65	414.27
395.84	440.02
396.04	414.27
396.23	423.64
396.42	454.06
396.62	423.64
396.81	430.66
397.00	390.87
397.19	376.83
397.39	409.59
397.58	444.70
397.77	409.59
397.97	433.00
398.16	449.38
398.35	447.04
398.55	421.30
398.74	362.78
398.93	428.32
399.12	414.27
399.32	430.66
399.51	372.15
399.70	416.62
399.90	416.62
400.09	393.21
400.28	458.74
400.47	430.66
400.67	393.21
400.86	449.38
401.05	414.27
401.24	421.30
401.44	379.17
401.63	461.09
401.82	397.89
402.01	397.89
402.21	390.87
402.40	348.74
402.59	437.68
402.78	493.85
402.97	465.77
403.17	353.42
403.36	379.17
403.55	402.57
403.74	383.85
403.93	402.57
404.13	463.43
404.32	428.32
404.51	404.91
404.70	374.49
404.89	428.32
405.09	465.77
405.28	430.66
405.47	421.30
405.66	411.93
405.85	465.77
406.05	442.36
406.24	372.15
406.43	461.09
406.62	358.10
406.81	468.11
407.00	409.59
407.20	449.38
407.39	348.74
407.58	402.57
407.77	404.91
407.96	376.83
408.15	423.64
408.34	423.64
408.54	383.85
408.73	428.32
408.92	367.46
409.11	388.53
409.30	489.17
409.49	442.36
409.68	388.53
409.87	395.55
410.07	372.15
410.26	379.17
410.45	411.93
410.64	367.46
410.83	409.59
411.02	369.80
411.21	433.00
411.40	414.27
411.59	355.76
411.78	353.42
411.98	430.66
412.17	430.66
412.36	395.55
412.55	388.53
412.74	416.62
412.93	374.49
413.12	402.57
413.31	400.23
413.50	475.13
413.69	386.19
413.88	416.62
414.07	374.49
414.26	482.15
414.45	353.42
414.64	482.15
414.83	491.51
415.02	444.70
415.22	411.93
415.41	421.30
415.60	386.19
415.79	402.57
415.98	423.64
416.17	425.98
416.36	388.53
416.55	468.11
416.74	468.11
416.93	379.17
417.12	381.51
417.31	458.74
417.50	362.78
417.69	430.66
417.88	369.80
418.07	395.55
418.26	435.34
418.45	444.70
418.64	388.53
418.83	463.43
419.02	353.42
419.21	386.19
419.39	435.34
419.58	369.80
419.77	376.83
419.96	430.66
420.15	461.09
420.34	407.25
420.53	414.27
420.72	444.70
420.91	425.98
421.10	472.79
421.29	395.55
421.48	388.53
421.67	472.79
421.86	325.33
422.05	393.21
422.24	447.04
422.43	421.30
422.61	327.68
422.80	348.74
422.99	400.23
423.18	404.91
423.37	383.85
423.56	348.74
423.75	465.77
423.94	372.15
424.13	421.30
424.32	388.53
424.50	465.77
424.69	395.55
424.88	423.64
425.07	444.70
425.26	411.93
425.45	458.74
425.64	397.89
425.83	383.85
426.01	393.21
426.20	409.59
426.39	411.93
426.58	416.62
426.77	402.57
426.96	407.25
427.15	404.91
427.33	409.59
427.52	386.19
427.71	383.85
427.90	416.62
428.09	430.66
428.28	386.19
428.46	404.91
428.65	346.40
428.84	447.04
429.03	400.23
429.22	407.25
429.40	435.34
429.59	409.59
429.78	430.66
429.97	393.21
430.16	381.51
430.34	386.19
430.53	421.30
430.72	423.64
430.91	400.23
431.10	379.17
431.28	423.64
431.47	444.70
431.66	393.21
431.85	489.17
432.03	376.83
432.22	407.25
432.41	454.06
432.60	409.59
432.79	365.12
432.97	435.34
433.16	437.68
433.35	400.23
433.54	449.38
433.72	440.02
433.91	379.17
434.10	411.93
434.28	414.27
434.47	397.89
434.66	423.64
434.85	404.91
435.03	402.57
435.22	449.38
435.41	395.55
435.59	351.08
435.78	402.57
435.97	400.23
436.16	479.81
436.34	425.98
436.53	430.66
436.72	433.00
436.90	379.17
437.09	416.62
437.28	416.62
437.46	437.68
437.65	465.77
437.84	461.09
438.02	355.76
438.21	414.27
438.40	383.85
438.58	395.55
438.77	421.30
438.96	437.68
439.14	355.76
439.33	416.62
439.52	376.83
439.70	482.15
439.89	461.09
440.08	400.23
440.26	374.49
440.45	418.96
440.63	339.38
440.82	388.53
441.01	358.10
441.19	414.27
441.38	442.36
441.57	428.32
441.75	411.93
441.94	409.59
442.12	402.57
442.31	425.98
442.50	381.51
442.68	418.96
442.87	435.34
443.05	383.85
443.24	409.59
443.43	482.15
443.61	491.51
443.80	400.23
443.98	383.85
444.17	437.68
444.35	388.53
444.54	393.21
444.73	456.40
444.91	505.56
445.10	376.83
445.28	402.57
445.47	416.62
445.65	376.83
445.84	400.23
446.02	437.68
446.21	322.99
446.39	437.68
446.58	393.21
446.77	402.57
446.95	400.23
447.14	449.38
447.32	512.58
447.51	360.44
447.69	383.85
447.88	451.72
448.06	463.43
448.25	482.15
448.43	400.23
448.62	428.32
448.80	425.98
448.99	425.98
449.17	388.53
449.36	400.23
449.54	388.53
449.73	411.93
449.91	428.32
450.10	393.21
450.28	449.38
450.46	418.96
450.65	383.85
450.83	388.53
451.02	381.51
451.20	386.19
451.39	355.76
451.57	428.32
451.76	362.78
451.94	341.72
452.13	444.70
452.31	449.38
452.49	407.25
452.68	433.00
452.86	395.55
453.05	451.72
453.23	465.77
453.42	407.25
453.60	353.42
453.78	416.62
453.97	404.91
454.15	454.06
454.34	402.57
454.52	421.30
454.70	411.93
454.89	435.34
455.07	404.91
455.26	461.09
455.44	475.13
455.62	430.66
455.81	425.98
455.99	400.23
456.17	414.27
456.36	395.55
456.54	404.91
456.73	475.13
456.91	477.47
457.09	442.36
457.28	484.49
457.46	376.83
457.64	379.17
457.83	360.44
458.01	395.55
458.19	500.87
458.38	421.30
458.56	367.46
458.74	397.89
458.93	437.68
459.11	435.34
459.29	341.72
459.48	383.85
459.66	388.53
459.84	435.34
460.03	533.64
460.21	334.70
460.39	414.27
460.57	451.72
460.76	437.68
460.94	416.62
461.12	416.62
461.31	470.45
461.49	433.00
461.67	360.44
461.85	355.76
462.04	386.19
462.22	814.51
462.40	416.62
462.59	435.34
462.77	414.27
462.95	444.70
463.13	411.93
463.32	444.70
463.50	388.53
463.68	414.27
463.86	407.25
464.05	421.30
464.23	383.85
464.41	404.91
464.59	404.91
464.78	372.15
464.96	430.66
465.14	479.81
465.32	461.09
465.50	372.15
465.69	454.06
465.87	332.36
466.05	355.76
466.23	369.80
466.41	400.23
466.60	416.62
466.78	369.80
466.96	369.80
467.14	418.96
467.32	433.00
467.51	475.13
467.69	409.59
467.87	418.96
468.05	444.70
468.23	458.74
468.41	442.36
468.60	428.32
468.78	360.44
468.96	433.00
469.14	433.00
469.32	444.70
469.50	468.11
469.69	400.23
469.87	416.62
470.05	421.30
470.23	407.25
470.41	346.40
470.59	355.76
470.77	456.40
470.95	430.66
471.14	416.62
471.32	435.34
471.50	374.49
471.68	423.64
471.86	409.59
472.04	397.89
472.22	365.12
472.40	379.17
472.58	482.15
472.77	393.21
472.95	437.68
473.13	395.55
473.31	421.30
473.49	393.21
473.67	416.62
473.85	468.11
474.03	433.00
474.21	454.06
474.39	423.64
474.57	404.91
474.75	440.02
474.93	372.15
475.12	418.96
475.30	463.43
475.48	437.68
475.66	519.60
475.84	421.30
476.02	437.68
476.20	383.85
476.38	447.04
476.56	456.40
476.74	362.78
476.92	449.38
477.10	425.98
477.28	395.55
477.46	369.80
477.64	468.11
477.82	451.72
478.00	367.46
478.18	428.32
478.36	463.43
478.54	325.33
478.72	388.53
478.90	411.93
479.08	461.09
479.26	444.70
479.44	449.38
479.62	344.06
479.80	362.78
479.98	381.51
480.16	360.44
480.34	402.57
480.52	351.08
480.70	425.98
480.88	390.87
481.06	423.64
481.24	397.89
481.41	397.89
481.59	367.46
481.77	400.23
481.95	447.04
482.13	414.27
482.31	404.91
482.49	430.66
482.67	395.55
482.85	407.25
483.03	451.72
483.21	409.59
483.39	433.00
483.57	433.00
483.74	435.34
483.92	395.55
484.10	477.47
484.28	449.38
484.46	475.13
484.64	388.53
484.82	433.00
485.00	351.08
485.18	465.77
485.35	470.45
485.53	374.49
485.71	425.98
485.89	437.68
486.07	360.44
486.25	425.98
486.43	433.00
486.61	416.62
486.78	411.93
486.96	383.85
487.14	383.85
487.32	395.55
487.50	437.68
487.68	440.02
487.85	360.44
488.03	430.66
488.21	390.87
488.39	320.65
488.57	374.49
488.75	435.34
488.92	521.94
489.10	379.17
489.28	400.23
489.46	383.85
489.64	402.57
489.81	437.68
489.99	454.06
490.17	346.40
490.35	407.25
490.53	414.27
490.70	447.04
490.88	428.32
491.06	369.80
491.24	404.91
491.41	416.62
491.59	423.64
491.77	411.93
491.95	430.66
492.13	451.72
492.30	395.55
492.48	402.57
492.66	379.17
492.84	437.68
493.01	437.68
493.19	365.12
493.37	475.13
493.54	428.32
493.72	327.68
493.90	430.66
494.08	437.68
494.25	379.17
494.43	416.62
494.61	374.49
494.79	365.12
494.96	402.57
495.14	374.49
495.32	367.46
495.49	407.25
495.67	447.04
495.85	409.59
496.02	402.57
496.20	379.17
496.38	440.02
496.55	374.49
496.73	402.57
496.91	440.02
497.09	470.45
497.26	404.91
497.44	430.66
497.62	365.12
497.79	418.96
497.97	463.43
498.14	437.68
498.32	379.17
498.50	404.91
498.67	421.30
498.85	369.80
499.03	348.74
499.20	428.32
499.38	444.70
499.56	468.11
499.73	437.68
499.91	496.19
500.08	411.93
500.26	456.40
500.44	414.27
500.61	400.23
500.79	411.93
500.97	456.40
501.14	465.77
501.32	447.04
501.49	428.32
501.67	404.91
501.84	442.36
502.02	381.51
502.20	400.23
502.37	409.59
502.55	440.02
502.72	449.38
502.90	409.59
503.07	449.38
503.25	447.04
503.43	358.10
503.60	440.02
503.78	397.89
503.95	379.17
504.13	397.89
504.30	414.27
504.48	418.96
504.65	442.36
504.83	423.64
505.01	383.85
505.18	451.72
505.36	400.23
505.53	376.83
505.71	416.62
505.88	346.40
506.06	318.31
506.23	372.15
506.41	409.59
506.58	451.72
506.76	421.30
506.93	322.99
507.11	430.66
507.28	404.91
507.46	444.70
507.63	400.23
507.81	386.19
507.98	430.66
508.16	425.98
508.33	451.72
508.50	395.55
508.68	381.51
508.85	390.87
509.03	418.96
509.20	440.02
509.38	390.87
509.55	433.00
509.73	463.43
509.90	475.13
510.08	397.89
510.25	423.64
510.42	397.89
510.60	348.74
510.77	411.93
510.95	416.62
511.12	400.23
511.30	477.47
511.47	416.62
511.64	421.30
511.82	418.96
511.99	393.21
512.17	346.40
512.34	400.23
512.51	390.87
512.69	437.68
512.86	402.57
513.04	351.08
513.21	414.27
513.38	379.17
513.56	425.98
513.73	400.23
513.90	402.57
514.08	381.51
514.25	423.64
514.43	421.30
514.60	442.36
514.77	407.25
514.95	447.04
515.12	425.98
515.29	479.81
515.47	418.96
515.64	388.53
515.81	437.68
515.99	442.36
516.16	397.89
516.33	416.62
516.51	397.89
516.68	395.55
516.85	393.21
517.03	486.83
517.20	379.17
517.37	472.79
517.54	440.02
517.72	435.34
517.89	397.89
518.06	351.08
518.24	376.83
518.41	454.06
518.58	430.66
518.75	390.87
518.93	372.15
519.10	383.85
519.27	348.74
519.45	393.21
519.62	456.40
519.79	430.66
519.96	428.32
520.14	440.02
520.31	411.93
520.48	416.62
520.65	451.72
520.83	374.49
521.00	404.91
521.17	409.59
521.34	510.24
521.52	353.42
521.69	440.02
521.86	376.83
522.03	383.85
522.20	402.57
522.38	442.36
522.55	433.00
522.72	451.72
522.89	416.62
523.07	461.09
523.24	376.83
523.41	498.53
523.58	395.55
523.75	325.33
523.92	395.55
524.10	454.06
524.27	409.59
524.44	425.98
524.61	400.23
524.78	362.78
524.96	320.65
525.13	360.44
525.30	409.59
525.47	477.47
525.64	421.30
525.81	379.17
525.98	475.13
526.16	493.85
526.33	402.57
526.50	440.02
526.67	376.83
526.84	411.93
527.01	430.66
527.18	472.79
527.36	390.87
527.53	379.17
527.70	479.81
527.87	390.87
528.04	388.53
528.21	440.02
528.38	318.31
528.55	388.53
528.72	468.11
528.89	430.66
529.07	369.80
529.24	390.87
529.41	353.42
529.58	430.66
529.75	397.89
529.92	395.55
530.09	416.62
530.26	393.21
530.43	330.02
530.60	386.19
530.77	409.59
530.94	397.89
531.11	407.25
531.28	421.30
531.46	521.94
531.63	454.06
531.80	418.96
531.97	358.10
532.14	409.59
532.31	540.66
532.48	442.36
532.65	423.64
532.82	418.96
532.99	337.04
533.16	400.23
533.33	440.02
533.50	428.32
533.67	330.02
533.84	407.25
534.01	489.17
534.18	465.77
534.35	447.04
534.52	395.55
534.69	456.40
534.86	407.25
535.03	458.74
535.20	447.04
535.37	451.72
535.54	411.93
535.71	416.62
535.88	393.21
536.05	418.96
536.22	407.25
536.38	430.66
536.55	411.93
536.72	437.68
536.89	440.02
537.06	404.91
537.23	421.30
537.40	402.57
537.57	435.34
537.74	491.51
537.91	430.66
538.08	479.81
538.25	372.15
538.42	430.66
538.59	449.38
538.75	444.70
538.92	423.64
539.09	425.98
539.26	393.21
539.43	423.64
539.60	465.77
539.77	440.02
539.94	327.68
540.11	456.40
540.28	493.85
540.44	465.77
540.61	456.40
540.78	402.57
540.95	386.19
541.12	425.98
541.29	454.06
541.46	407.25
541.62	390.87
541.79	409.59
541.96	388.53
542.13	411.93
542.30	421.30
542.47	503.22
542.63	362.78
542.80	390.87
542.97	456.40
543.14	376.83
543.31	325.33
543.48	409.59
543.64	409.59
543.81	477.47
543.98	374.49
544.15	404.91
544.32	397.89
544.48	465.77
544.65	414.27
544.82	435.34
544.99	407.25
545.16	409.59
545.32	397.89
545.49	472.79
545.66	468.11
545.83	407.25
546.00	404.91
546.16	414.27
546.33	433.00
546.50	416.62
546.67	400.23
546.83	437.68
547.00	442.36
547.17	381.51
547.34	397.89
547.50	383.85
547.67	451.72
547.84	379.17
548.00	393.21
548.17	409.59
548.34	447.04
548.51	444.70
548.67	444.70
548.84	362.78
549.01	407.25
549.18	430.66
549.34	449.38
549.51	461.09
549.68	421.30
549.84	442.36
550.01	428.32
550.18	468.11
550.34	468.11
550.51	425.98
550.68	472.79
550.84	379.17
551.01	402.57
551.18	442.36
551.34	423.64
551.51	414.27
551.68	423.64
551.84	407.25
552.01	428.32
552.18	475.13
552.34	388.53
552.51	475.13
552.68	388.53
552.84	402.57
553.01	414.27
553.18	416.62
553.34	369.80
553.51	418.96
553.67	433.00
553.84	437.68
554.01	414.27
554.17	395.55
554.34	428.32
554.51	447.04
554.67	379.17
554.84	414.27
555.00	404.91
555.17	475.13
555.33	456.40
555.50	400.23
555.67	416.62
555.83	318.31
556.00	404.91
556.16	538.32
556.33	475.13
556.50	433.00
556.66	402.57
556.83	381.51
556.99	440.02
557.16	421.30
557.32	360.44
557.49	447.04
557.65	395.55
557.82	425.98
557.98	444.70
558.15	428.32
558.32	444.70
558.48	400.23
558.65	444.70
558.81	428.32
558.98	402.57
559.14	411.93
559.31	404.91
559.47	463.43
559.64	365.12
559.80	470.45
559.97	376.83
560.13	472.79
560.30	416.62
560.46	418.96
560.63	390.87
560.79	430.66
560.96	433.00
561.12	337.04
561.29	407.25
561.45	425.98
561.61	477.47
561.78	528.96
561.94	409.59
562.11	433.00
562.27	423.64
562.44	383.85
562.60	395.55
562.77	442.36
562.93	461.09
563.10	458.74
563.26	425.98
563.42	411.93
563.59	365.12
563.75	425.98
563.92	411.93
564.08	440.02
564.24	404.91
564.41	388.53
564.57	433.00
564.74	353.42
564.90	451.72
565.07	386.19
565.23	425.98
565.39	425.98
565.56	395.55
565.72	404.91
565.88	437.68
566.05	416.62
566.21	372.15
566.38	526.62
566.54	362.78
566.70	383.85
566.87	440.02
567.03	327.68
567.19	491.51
567.36	442.36
567.52	379.17
567.68	423.64
567.85	365.12
568.01	388.53
568.17	428.32
568.34	379.17
568.50	484.49
568.66	437.68
568.83	477.47
568.99	425.98
569.15	482.15
569.32	407.25
569.48	402.57
569.64	409.59
569.81	393.21
569.97	358.10
570.13	393.21
570.30	414.27
570.46	383.85
570.62	407.25
570.78	402.57
570.95	346.40
571.11	414.27
571.27	491.51
571.43	362.78
571.60	372.15
571.76	374.49
571.92	407.25
572.09	437.68
572.25	388.53
572.41	433.00
572.57	411.93
572.74	433.00
572.90	444.70
573.06	470.45
573.22	409.59
573.38	461.09
573.55	376.83
573.71	416.62
573.87	519.60
574.03	489.17
574.20	421.30
574.36	449.38
574.52	440.02
574.68	416.62
574.84	505.56
575.01	404.91
575.17	425.98
575.33	423.64
575.49	365.12
575.65	379.17
575.82	447.04
575.98	454.06
576.14	433.00
576.30	416.62
576.46	430.66
576.62	407.25
576.79	402.57
576.95	461.09
577.11	390.87
577.27	414.27
577.43	458.74
577.59	472.79
577.75	407.25
577.92	400.23
578.08	388.53
578.24	454.06
578.40	463.43
578.56	393.21
578.72	470.45
578.88	437.68
579.04	407.25
579.21	421.30
579.37	421.30
579.53	407.25
579.69	397.89
579.85	341.72
580.01	440.02
580.17	409.59
580.33	437.68
580.49	409.59
580.65	440.02
580.82	435.34
580.98	433.00
581.14	461.09
581.30	465.77
581.46	472.79
581.62	411.93
581.78	383.85
581.94	463.43
582.10	449.38
582.26	414.27
582.42	425.98
582.58	440.02
582.74	423.64
582.90	461.09
583.06	486.83
583.22	409.59
583.38	428.32
583.54	451.72
583.70	414.27
583.86	498.53
584.02	423.64
584.18	442.36
584.34	451.72
584.50	449.38
584.66	461.09
584.82	484.49
584.98	444.70
585.14	449.38
585.30	521.94
585.46	393.21
585.62	482.15
585.78	430.66
585.94	383.85
586.10	470.45
586.26	430.66
586.42	456.40
586.58	465.77
586.74	416.62
586.90	465.77
587.06	435.34
587.22	414.27
587.38	423.64
587.54	402.57
587.70	383.85
587.86	454.06
588.02	414.27
588.18	362.78
588.34	341.72
588.49	402.57
588.65	440.02
588.81	475.13
588.97	386.19
589.13	376.83
589.29	456.40
589.45	428.32
589.61	456.40
589.77	409.59
589.93	458.74
590.08	318.31
590.24	425.98
590.40	390.87
590.56	437.68
590.72	482.15
590.88	418.96
591.04	451.72
591.20	395.55
591.35	449.38
591.51	388.53
591.67	425.98
591.83	372.15
591.99	386.19
592.15	463.43
592.31	430.66
592.46	461.09
592.62	404.91
592.78	383.85
592.94	369.80
593.10	393.21
593.26	400.23
593.41	390.87
593.57	393.21
593.73	346.40
593.89	430.66
594.05	430.66
594.20	320.65
594.36	428.32
594.52	374.49
594.68	418.96
594.84	414.27
594.99	409.59
595.15	440.02
595.31	435.34
595.47	454.06
595.62	362.78
595.78	416.62
595.94	458.74
596.10	482.15
596.25	390.87
596.41	367.46
596.57	465.77
596.73	393.21
596.88	374.49
597.04	416.62
597.20	416.62
597.36	477.47
597.51	390.87
597.67	383.85
597.83	390.87
597.99	491.51
598.14	418.96
598.30	554.71
598.46	418.96
598.61	428.32
598.77	397.89
598.93	472.79
599.09	369.80
599.24	449.38
599.40	423.64
599.56	433.00
599.71	386.19
599.87	383.85
600.03	411.93
600.18	482.15
600.34	390.87
600.50	435.34
600.65	414.27
600.81	451.72
600.97	442.36
601.12	407.25
601.28	383.85
601.44	400.23
601.59	383.85
601.75	362.78
601.91	411.93
602.06	416.62
602.22	463.43
602.37	397.89
602.53	444.70
602.69	411.93
602.84	454.06
603.00	423.64
603.16	465.77
603.31	421.30
603.47	440.02
603.62	402.57
603.78	386.19
603.94	444.70
604.09	374.49
604.25	418.96
604.40	383.85
604.56	437.68
604.71	423.64
604.87	425.98
605.03	444.70
605.18	416.62
605.34	409.59
605.49	390.87
605.65	374.49
605.80	358.10
605.96	402.57
606.12	393.21
606.27	421.30
606.43	402.57
606.58	383.85
606.74	421.30
606.89	372.15
607.05	454.06
607.20	416.62
607.36	395.55
607.51	390.87
607.67	447.04
607.82	407.25
607.98	451.72
608.13	386.19
608.29	454.06
608.44	449.38
608.60	425.98
608.75	465.77
608.91	425.98
609.06	447.04
609.22	395.55
609.37	348.74
609.53	440.02
609.68	421.30
609.84	461.09
609.99	421.30
610.15	397.89
