SpectraSuite Data File
++++++++++++++++++++++++++++++++++++
Date: Fri Oct 25 12:11:44 EDT 2013
User: price-jones
Dark Spectrum Present: No
Reference Spectrum Present: No
Number of Sampled Component Spectra: 1
Spectrometers: USB2+H05261
Integration Time (usec): 100000 (USB2+H05261)
Spectra Averaged: 1 (USB2+H05261)
Boxcar Smoothing: 0 (USB2+H05261)
Correct for Electrical Dark: No (USB2+H05261)
Strobe/Lamp Enabled: No (USB2+H05261)
Correct for Detector Non-linearity: No (USB2+H05261)
Correct for Stray Light: No (USB2+H05261)
Number of Pixels in Processed Spectrum: 2048
>>>>>Begin Processed Spectral Data<<<<<
365.73	386.19
365.92	386.19
366.12	386.19
366.32	248.10
366.52	229.37
366.72	330.02
366.91	250.44
367.11	269.16
367.31	182.56
367.51	238.73
367.70	276.18
367.90	259.80
368.10	287.89
368.30	194.26
368.49	276.18
368.69	271.50
368.89	266.82
369.09	269.16
369.28	299.59
369.48	285.55
369.68	318.31
369.87	315.97
370.07	339.38
370.27	346.40
370.47	320.65
370.66	360.44
370.86	395.55
371.06	437.68
371.25	407.25
371.45	421.30
371.65	435.34
371.84	353.42
372.04	386.19
372.24	397.89
372.44	421.30
372.63	484.49
372.83	421.30
373.03	341.72
373.22	397.89
373.42	358.10
373.62	486.83
373.81	444.70
374.01	411.93
374.21	425.98
374.40	493.85
374.60	390.87
374.79	428.32
374.99	369.80
375.19	416.62
375.38	482.15
375.58	444.70
375.78	447.04
375.97	416.62
376.17	505.56
376.37	444.70
376.56	449.38
376.76	505.56
376.95	402.57
377.15	369.80
377.35	451.72
377.54	367.46
377.74	402.57
377.93	395.55
378.13	421.30
378.33	472.79
378.52	435.34
378.72	475.13
378.91	468.11
379.11	397.89
379.31	414.27
379.50	409.59
379.70	461.09
379.89	435.34
380.09	421.30
380.28	348.74
380.48	341.72
380.68	449.38
380.87	442.36
381.07	440.02
381.26	463.43
381.46	418.96
381.65	414.27
381.85	360.44
382.04	433.00
382.24	444.70
382.43	374.49
382.63	383.85
382.83	346.40
383.02	381.51
383.22	430.66
383.41	416.62
383.61	407.25
383.80	458.74
384.00	325.33
384.19	409.59
384.39	423.64
384.58	397.89
384.78	409.59
384.97	386.19
385.17	367.46
385.36	404.91
385.56	362.78
385.75	308.95
385.95	409.59
386.14	447.04
386.34	397.89
386.53	376.83
386.72	365.12
386.92	395.55
387.11	397.89
387.31	416.62
387.50	381.51
387.70	435.34
387.89	390.87
388.09	404.91
388.28	372.15
388.48	447.04
388.67	418.96
388.86	379.17
389.06	330.02
389.25	409.59
389.45	435.34
389.64	475.13
389.84	507.90
390.03	390.87
390.22	489.17
390.42	447.04
390.61	395.55
390.81	428.32
391.00	437.68
391.19	430.66
391.39	430.66
391.58	397.89
391.78	421.30
391.97	358.10
392.16	411.93
392.36	430.66
392.55	400.23
392.75	358.10
392.94	418.96
393.13	388.53
393.33	414.27
393.52	395.55
393.71	454.06
393.91	440.02
394.10	404.91
394.29	351.08
394.49	358.10
394.68	444.70
394.88	414.27
395.07	477.47
395.26	458.74
395.46	444.70
395.65	454.06
395.84	381.51
396.04	468.11
396.23	404.91
396.42	477.47
396.62	376.83
396.81	393.21
397.00	418.96
397.19	360.44
397.39	428.32
397.58	395.55
397.77	444.70
397.97	442.36
398.16	400.23
398.35	386.19
398.55	383.85
398.74	425.98
398.93	402.57
399.12	386.19
399.32	346.40
399.51	411.93
399.70	367.46
399.90	447.04
400.09	353.42
400.28	491.51
400.47	372.15
400.67	421.30
400.86	390.87
401.05	404.91
401.24	407.25
401.44	440.02
401.63	367.46
401.82	381.51
402.01	381.51
402.21	318.31
402.40	407.25
402.59	425.98
402.78	512.58
402.97	461.09
403.17	395.55
403.36	458.74
403.55	330.02
403.74	369.80
403.93	451.72
404.13	379.17
404.32	414.27
404.51	372.15
404.70	395.55
404.89	433.00
405.09	428.32
405.28	423.64
405.47	383.85
405.66	327.68
405.85	461.09
406.05	454.06
406.24	425.98
406.43	489.17
406.62	327.68
406.81	477.47
407.00	468.11
407.20	348.74
407.39	362.78
407.58	365.12
407.77	449.38
407.96	444.70
408.15	414.27
408.34	397.89
408.54	449.38
408.73	421.30
408.92	372.15
409.11	395.55
409.30	325.33
409.49	355.76
409.68	397.89
409.87	397.89
410.07	372.15
410.26	353.42
410.45	409.59
410.64	386.19
410.83	400.23
411.02	388.53
411.21	395.55
411.40	383.85
411.59	421.30
411.78	393.21
411.98	379.17
412.17	428.32
412.36	386.19
412.55	393.21
412.74	423.64
412.93	489.17
413.12	369.80
413.31	442.36
413.50	435.34
413.69	388.53
413.88	393.21
414.07	425.98
414.26	367.46
414.45	407.25
414.64	442.36
414.83	404.91
415.02	383.85
415.22	475.13
415.41	489.17
415.60	390.87
415.79	383.85
415.98	444.70
416.17	381.51
416.36	437.68
416.55	395.55
416.74	409.59
416.93	400.23
417.12	454.06
417.31	414.27
417.50	430.66
417.69	505.56
417.88	411.93
418.07	449.38
418.26	433.00
418.45	430.66
418.64	489.17
418.83	421.30
419.02	353.42
419.21	435.34
419.39	376.83
419.58	400.23
419.77	348.74
419.96	397.89
420.15	390.87
420.34	418.96
420.53	390.87
420.72	400.23
420.91	458.74
421.10	416.62
421.29	404.91
421.48	404.91
421.67	404.91
421.86	388.53
422.05	437.68
422.24	404.91
422.43	458.74
422.61	451.72
422.80	418.96
422.99	444.70
423.18	425.98
423.37	425.98
423.56	484.49
423.75	416.62
423.94	430.66
424.13	400.23
424.32	447.04
424.50	379.17
424.69	362.78
424.88	449.38
425.07	376.83
425.26	409.59
425.45	447.04
425.64	407.25
425.83	381.51
426.01	393.21
426.20	421.30
426.39	395.55
426.58	397.89
426.77	397.89
426.96	477.47
427.15	447.04
427.33	376.83
427.52	418.96
427.71	418.96
427.90	454.06
428.09	360.44
428.28	344.06
428.46	390.87
428.65	381.51
428.84	400.23
429.03	451.72
429.22	353.42
429.40	507.90
429.59	418.96
429.78	411.93
429.97	430.66
430.16	308.95
430.34	435.34
430.53	388.53
430.72	484.49
430.91	397.89
431.10	468.11
431.28	428.32
431.47	479.81
431.66	404.91
431.85	409.59
432.03	362.78
432.22	416.62
432.41	416.62
432.60	416.62
432.79	465.77
432.97	351.08
433.16	479.81
433.35	365.12
433.54	393.21
433.72	421.30
433.91	423.64
434.10	351.08
434.28	463.43
434.47	369.80
434.66	367.46
434.85	374.49
435.03	425.98
435.22	411.93
435.41	388.53
435.59	482.15
435.78	353.42
435.97	402.57
436.16	489.17
436.34	461.09
436.53	477.47
436.72	500.87
436.90	411.93
437.09	435.34
437.28	444.70
437.46	482.15
437.65	433.00
437.84	468.11
438.02	423.64
438.21	425.98
438.40	388.53
438.58	416.62
438.77	386.19
438.96	442.36
439.14	407.25
439.33	390.87
439.52	367.46
439.70	376.83
439.89	407.25
440.08	428.32
440.26	414.27
440.45	404.91
440.63	449.38
440.82	369.80
441.01	442.36
441.19	433.00
441.38	433.00
441.57	362.78
441.75	423.64
441.94	418.96
442.12	465.77
442.31	456.40
442.50	402.57
442.68	386.19
442.87	491.51
443.05	409.59
443.24	442.36
443.43	435.34
443.61	397.89
443.80	447.04
443.98	451.72
444.17	400.23
444.35	388.53
444.54	447.04
444.73	435.34
444.91	407.25
445.10	409.59
445.28	465.77
445.47	376.83
445.65	458.74
445.84	465.77
446.02	411.93
446.21	395.55
446.39	477.47
446.58	379.17
446.77	475.13
446.95	437.68
447.14	395.55
447.32	355.76
447.51	409.59
447.69	400.23
447.88	468.11
448.06	451.72
448.25	489.17
448.43	381.51
448.62	407.25
448.80	411.93
448.99	449.38
449.17	416.62
449.36	379.17
449.54	383.85
449.73	383.85
449.91	421.30
450.10	369.80
450.28	470.45
450.46	425.98
450.65	437.68
450.83	358.10
451.02	444.70
451.20	344.06
451.39	393.21
451.57	421.30
451.76	433.00
451.94	374.49
452.13	470.45
452.31	491.51
452.49	416.62
452.68	409.59
452.86	423.64
453.05	521.94
453.23	433.00
453.42	353.42
453.60	477.47
453.78	353.42
453.97	421.30
454.15	404.91
454.34	468.11
454.52	447.04
454.70	369.80
454.89	374.49
455.07	376.83
455.26	386.19
455.44	489.17
455.62	407.25
455.81	433.00
455.99	390.87
456.17	449.38
456.36	381.51
456.54	369.80
456.73	372.15
456.91	379.17
457.09	402.57
457.28	440.02
457.46	430.66
457.64	475.13
457.83	423.64
458.01	472.79
458.19	468.11
458.38	313.63
458.56	489.17
458.74	358.10
458.93	451.72
459.11	414.27
459.29	376.83
459.48	449.38
459.66	477.47
459.84	458.74
460.03	449.38
460.21	402.57
460.39	379.17
460.57	397.89
460.76	416.62
460.94	409.59
461.12	454.06
461.31	423.64
461.49	395.55
461.67	386.19
461.85	461.09
462.04	437.68
462.22	723.23
462.40	414.27
462.59	435.34
462.77	433.00
462.95	372.15
463.13	325.33
463.32	418.96
463.50	322.99
463.68	358.10
463.86	418.96
464.05	421.30
464.23	430.66
464.41	360.44
464.59	440.02
464.78	374.49
464.96	423.64
465.14	418.96
465.32	402.57
465.50	411.93
465.69	433.00
465.87	451.72
466.05	404.91
466.23	381.51
466.41	475.13
466.60	477.47
466.78	355.76
466.96	451.72
467.14	393.21
467.32	458.74
467.51	428.32
467.69	463.43
467.87	498.53
468.05	428.32
468.23	423.64
468.41	393.21
468.60	449.38
468.78	458.74
468.96	390.87
469.14	428.32
469.32	337.04
469.50	390.87
469.69	374.49
469.87	418.96
470.05	383.85
470.23	447.04
470.41	407.25
470.59	407.25
470.77	425.98
470.95	440.02
471.14	451.72
471.32	402.57
471.50	390.87
471.68	369.80
471.86	383.85
472.04	395.55
472.22	458.74
472.40	395.55
472.58	425.98
472.77	369.80
472.95	362.78
473.13	470.45
473.31	404.91
473.49	407.25
473.67	465.77
473.85	451.72
474.03	344.06
474.21	456.40
474.39	451.72
474.57	470.45
474.75	454.06
474.93	348.74
475.12	393.21
475.30	360.44
475.48	414.27
475.66	360.44
475.84	472.79
476.02	440.02
476.20	416.62
476.38	379.17
476.56	498.53
476.74	397.89
476.92	355.76
477.10	411.93
477.28	411.93
477.46	411.93
477.64	404.91
477.82	416.62
478.00	400.23
478.18	463.43
478.36	425.98
478.54	400.23
478.72	442.36
478.90	393.21
479.08	423.64
479.26	337.04
479.44	397.89
479.62	360.44
479.80	433.00
479.98	418.96
480.16	376.83
480.34	461.09
480.52	390.87
480.70	409.59
480.88	395.55
481.06	409.59
481.24	383.85
481.41	393.21
481.59	449.38
481.77	332.36
481.95	339.38
482.13	440.02
482.31	447.04
482.49	428.32
482.67	468.11
482.85	433.00
483.03	400.23
483.21	421.30
483.39	353.42
483.57	454.06
483.74	456.40
483.92	409.59
484.10	430.66
484.28	451.72
484.46	428.32
484.64	404.91
484.82	440.02
485.00	348.74
485.18	379.17
485.35	334.70
485.53	355.76
485.71	479.81
485.89	400.23
486.07	414.27
486.25	505.56
486.43	510.24
486.61	404.91
486.78	491.51
486.96	442.36
487.14	402.57
487.32	334.70
487.50	498.53
487.68	418.96
487.85	428.32
488.03	407.25
488.21	411.93
488.39	444.70
488.57	400.23
488.75	414.27
488.92	526.62
489.10	440.02
489.28	470.45
489.46	414.27
489.64	386.19
489.81	388.53
489.99	369.80
490.17	388.53
490.35	491.51
490.53	416.62
490.70	388.53
490.88	416.62
491.06	404.91
491.24	458.74
491.41	423.64
491.59	456.40
491.77	435.34
491.95	386.19
492.13	369.80
492.30	365.12
492.48	447.04
492.66	421.30
492.84	425.98
493.01	404.91
493.19	458.74
493.37	491.51
493.54	421.30
493.72	402.57
493.90	402.57
494.08	425.98
494.25	409.59
494.43	372.15
494.61	418.96
494.79	430.66
494.96	447.04
495.14	411.93
495.32	433.00
495.49	390.87
495.67	409.59
495.85	351.08
496.02	339.38
496.20	400.23
496.38	397.89
496.55	383.85
496.73	407.25
496.91	407.25
497.09	440.02
497.26	421.30
497.44	409.59
497.62	407.25
497.79	437.68
497.97	386.19
498.14	409.59
498.32	442.36
498.50	346.40
498.67	395.55
498.85	447.04
499.03	442.36
499.20	395.55
499.38	404.91
499.56	433.00
499.73	458.74
499.91	533.64
500.08	400.23
500.26	360.44
500.44	411.93
500.61	437.68
500.79	458.74
500.97	461.09
501.14	430.66
501.32	397.89
501.49	411.93
501.67	407.25
501.84	423.64
502.02	388.53
502.20	484.49
502.37	390.87
502.55	351.08
502.72	428.32
502.90	353.42
503.07	451.72
503.25	334.70
503.43	374.49
503.60	435.34
503.78	386.19
503.95	458.74
504.13	491.51
504.30	402.57
504.48	421.30
504.65	425.98
504.83	372.15
505.01	365.12
505.18	451.72
505.36	395.55
505.53	451.72
505.71	360.44
505.88	416.62
506.06	383.85
506.23	390.87
506.41	449.38
506.58	376.83
506.76	383.85
506.93	381.51
507.11	411.93
507.28	393.21
507.46	423.64
507.63	442.36
507.81	322.99
507.98	339.38
508.16	435.34
508.33	402.57
508.50	449.38
508.68	411.93
508.85	325.33
509.03	411.93
509.20	456.40
509.38	440.02
509.55	418.96
509.73	404.91
509.90	435.34
510.08	411.93
510.25	407.25
510.42	428.32
510.60	400.23
510.77	416.62
510.95	395.55
511.12	365.12
511.30	437.68
511.47	435.34
511.64	423.64
511.82	376.83
511.99	414.27
512.17	456.40
512.34	484.49
512.51	477.47
512.69	416.62
512.86	470.45
513.04	428.32
513.21	468.11
513.38	435.34
513.56	402.57
513.73	512.58
513.90	482.15
514.08	376.83
514.25	404.91
514.43	397.89
514.60	433.00
514.77	379.17
514.95	437.68
515.12	374.49
515.29	433.00
515.47	444.70
515.64	397.89
515.81	414.27
515.99	407.25
516.16	411.93
516.33	491.51
516.51	360.44
516.68	379.17
516.85	433.00
517.03	458.74
517.20	428.32
517.37	409.59
517.54	395.55
517.72	423.64
517.89	369.80
518.06	404.91
518.24	416.62
518.41	435.34
518.58	454.06
518.75	451.72
518.93	416.62
519.10	524.28
519.27	430.66
519.45	454.06
519.62	379.17
519.79	402.57
519.96	442.36
520.14	355.76
520.31	479.81
520.48	407.25
520.65	372.15
520.83	440.02
521.00	486.83
521.17	386.19
521.34	428.32
521.52	463.43
521.69	355.76
521.86	344.06
522.03	437.68
522.20	498.53
522.38	404.91
522.55	341.72
522.72	397.89
522.89	421.30
523.07	447.04
523.24	351.08
523.41	461.09
523.58	374.49
523.75	454.06
523.92	409.59
524.10	388.53
524.27	416.62
524.44	454.06
524.61	407.25
524.78	397.89
524.96	433.00
525.13	461.09
525.30	404.91
525.47	381.51
525.64	451.72
525.81	447.04
525.98	456.40
526.16	428.32
526.33	311.29
526.50	428.32
526.67	386.19
526.84	454.06
527.01	395.55
527.18	404.91
527.36	500.87
527.53	355.76
527.70	404.91
527.87	440.02
528.04	486.83
528.21	475.13
528.38	533.64
528.55	421.30
528.72	418.96
528.89	444.70
529.07	451.72
529.24	402.57
529.41	514.92
529.58	383.85
529.75	428.32
529.92	454.06
530.09	388.53
530.26	484.49
530.43	451.72
530.60	435.34
530.77	383.85
530.94	477.47
531.11	428.32
531.28	428.32
531.46	416.62
531.63	404.91
531.80	341.72
531.97	407.25
532.14	491.51
532.31	437.68
532.48	451.72
532.65	428.32
532.82	409.59
532.99	414.27
533.16	400.23
533.33	449.38
533.50	397.89
533.67	411.93
533.84	437.68
534.01	447.04
534.18	351.08
534.35	409.59
534.52	428.32
534.69	362.78
534.86	386.19
535.03	388.53
535.20	461.09
535.37	379.17
535.54	421.30
535.71	421.30
535.88	543.00
536.05	395.55
536.22	447.04
536.38	381.51
536.55	430.66
536.72	407.25
536.89	433.00
537.06	383.85
537.23	482.15
537.40	423.64
537.57	447.04
537.74	428.32
537.91	381.51
538.08	393.21
538.25	353.42
538.42	409.59
538.59	444.70
538.75	397.89
538.92	454.06
539.09	479.81
539.26	440.02
539.43	372.15
539.60	376.83
539.77	451.72
539.94	428.32
540.11	463.43
540.28	496.19
540.44	437.68
540.61	430.66
540.78	421.30
540.95	409.59
541.12	430.66
541.29	411.93
541.46	388.53
541.62	451.72
541.79	442.36
541.96	400.23
542.13	404.91
542.30	440.02
542.47	486.83
542.63	440.02
542.80	477.47
542.97	479.81
543.14	404.91
543.31	402.57
543.48	423.64
543.64	362.78
543.81	428.32
543.98	400.23
544.15	381.51
544.32	372.15
544.48	376.83
544.65	402.57
544.82	430.66
544.99	468.11
545.16	470.45
545.32	402.57
545.49	414.27
545.66	444.70
545.83	435.34
546.00	458.74
546.16	428.32
546.33	348.74
546.50	400.23
546.67	475.13
546.83	407.25
547.00	428.32
547.17	430.66
547.34	337.04
547.50	486.83
547.67	463.43
547.84	472.79
548.00	442.36
548.17	395.55
548.34	409.59
548.51	388.53
548.67	414.27
548.84	416.62
549.01	383.85
549.18	390.87
549.34	437.68
549.51	423.64
549.68	430.66
549.84	353.42
550.01	440.02
550.18	428.32
550.34	456.40
550.51	355.76
550.68	465.77
550.84	397.89
551.01	425.98
551.18	440.02
551.34	388.53
551.51	360.44
551.68	482.15
551.84	433.00
552.01	416.62
552.18	416.62
552.34	472.79
552.51	390.87
552.68	442.36
552.84	458.74
553.01	348.74
553.18	402.57
553.34	440.02
553.51	486.83
553.67	437.68
553.84	456.40
554.01	421.30
554.17	397.89
554.34	489.17
554.51	416.62
554.67	376.83
554.84	458.74
555.00	404.91
555.17	416.62
555.33	449.38
555.50	447.04
555.67	468.11
555.83	376.83
556.00	430.66
556.16	507.90
556.33	381.51
556.50	451.72
556.66	418.96
556.83	458.74
556.99	435.34
557.16	416.62
557.32	386.19
557.49	423.64
557.65	484.49
557.82	409.59
557.98	433.00
558.15	348.74
558.32	390.87
558.48	369.80
558.65	454.06
558.81	440.02
558.98	358.10
559.14	397.89
559.31	397.89
559.47	395.55
559.64	360.44
559.80	409.59
559.97	367.46
560.13	433.00
560.30	451.72
560.46	397.89
560.63	416.62
560.79	383.85
560.96	435.34
561.12	437.68
561.29	402.57
561.45	425.98
561.61	365.12
561.78	442.36
561.94	358.10
562.11	440.02
562.27	379.17
562.44	423.64
562.60	376.83
562.77	444.70
562.93	430.66
563.10	369.80
563.26	411.93
563.42	454.06
563.59	461.09
563.75	404.91
563.92	416.62
564.08	414.27
564.24	414.27
564.41	465.77
564.57	416.62
564.74	397.89
564.90	428.32
565.07	379.17
565.23	461.09
565.39	393.21
565.56	433.00
565.72	367.46
565.88	407.25
566.05	372.15
566.21	322.99
566.38	416.62
566.54	500.87
566.70	447.04
566.87	489.17
567.03	411.93
567.19	409.59
567.36	458.74
567.52	416.62
567.68	374.49
567.85	402.57
568.01	374.49
568.17	402.57
568.34	404.91
568.50	348.74
568.66	428.32
568.83	524.28
568.99	421.30
569.15	493.85
569.32	381.51
569.48	433.00
569.64	437.68
569.81	416.62
569.97	383.85
570.13	463.43
570.30	491.51
570.46	454.06
570.62	416.62
570.78	418.96
570.95	407.25
571.11	423.64
571.27	437.68
571.43	430.66
571.60	470.45
571.76	421.30
571.92	447.04
572.09	381.51
572.25	416.62
572.41	379.17
572.57	376.83
572.74	388.53
572.90	444.70
573.06	451.72
573.22	402.57
573.38	409.59
573.55	407.25
573.71	514.92
573.87	472.79
574.03	425.98
574.20	440.02
574.36	440.02
574.52	402.57
574.68	440.02
574.84	404.91
575.01	437.68
575.17	430.66
575.33	297.25
575.49	418.96
575.65	428.32
575.82	491.51
575.98	428.32
576.14	355.76
576.30	393.21
576.46	470.45
576.62	456.40
576.79	425.98
576.95	498.53
577.11	411.93
577.27	414.27
577.43	477.47
577.59	425.98
577.75	390.87
577.92	390.87
578.08	409.59
578.24	325.33
578.40	507.90
578.56	489.17
578.72	365.12
578.88	507.90
579.04	341.72
579.21	444.70
579.37	409.59
579.53	402.57
579.69	339.38
579.85	404.91
580.01	442.36
580.17	390.87
580.33	414.27
580.49	472.79
580.65	365.12
580.82	313.63
580.98	365.12
581.14	362.78
581.30	423.64
581.46	423.64
581.62	407.25
581.78	367.46
581.94	421.30
582.10	397.89
582.26	437.68
582.42	449.38
582.58	386.19
582.74	407.25
582.90	400.23
583.06	454.06
583.22	374.49
583.38	418.96
583.54	444.70
583.70	402.57
583.86	418.96
584.02	379.17
584.18	472.79
584.34	411.93
584.50	440.02
584.66	418.96
584.82	456.40
584.98	386.19
585.14	449.38
585.30	472.79
585.46	454.06
585.62	383.85
585.78	444.70
585.94	461.09
586.10	395.55
586.26	440.02
586.42	484.49
586.58	407.25
586.74	421.30
586.90	407.25
587.06	395.55
587.22	372.15
587.38	437.68
587.54	486.83
587.70	372.15
587.86	393.21
588.02	414.27
588.18	482.15
588.34	430.66
588.49	449.38
588.65	418.96
588.81	386.19
588.97	353.42
589.13	442.36
589.29	449.38
589.45	458.74
589.61	411.93
589.77	425.98
589.93	397.89
590.08	334.70
590.24	388.53
590.40	379.17
590.56	430.66
590.72	430.66
590.88	397.89
591.04	402.57
591.20	458.74
591.35	404.91
591.51	362.78
591.67	418.96
591.83	360.44
591.99	430.66
592.15	468.11
592.31	463.43
592.46	332.36
592.62	414.27
592.78	362.78
592.94	507.90
593.10	444.70
593.26	386.19
593.41	400.23
593.57	407.25
593.73	393.21
593.89	468.11
594.05	362.78
594.20	435.34
594.36	397.89
594.52	402.57
594.68	500.87
594.84	437.68
594.99	442.36
595.15	470.45
595.31	472.79
595.47	458.74
595.62	484.49
595.78	395.55
595.94	456.40
596.10	484.49
596.25	447.04
596.41	444.70
596.57	383.85
596.73	414.27
596.88	407.25
597.04	449.38
597.20	451.72
597.36	484.49
597.51	386.19
597.67	470.45
597.83	425.98
597.99	395.55
598.14	360.44
598.30	484.49
598.46	400.23
598.61	442.36
598.77	433.00
598.93	395.55
599.09	360.44
599.24	428.32
599.40	442.36
599.56	400.23
599.71	447.04
599.87	472.79
600.03	444.70
600.18	442.36
600.34	428.32
600.50	346.40
600.65	402.57
600.81	454.06
600.97	402.57
601.12	416.62
601.28	461.09
601.44	489.17
601.59	435.34
601.75	393.21
601.91	416.62
602.06	449.38
602.22	440.02
602.37	409.59
602.53	423.64
602.69	404.91
602.84	369.80
603.00	397.89
603.16	454.06
603.31	421.30
603.47	475.13
603.62	444.70
603.78	421.30
603.94	397.89
604.09	449.38
604.25	388.53
604.40	414.27
604.56	440.02
604.71	465.77
604.87	423.64
605.03	379.17
605.18	430.66
605.34	395.55
605.49	381.51
605.65	393.21
605.80	425.98
605.96	409.59
606.12	386.19
606.27	468.11
606.43	416.62
606.58	388.53
606.74	404.91
606.89	390.87
607.05	386.19
607.20	451.72
607.36	444.70
607.51	372.15
607.67	449.38
607.82	416.62
607.98	416.62
608.13	379.17
608.29	433.00
608.44	468.11
608.60	428.32
608.75	463.43
608.91	444.70
609.06	386.19
609.22	395.55
609.37	409.59
609.53	449.38
609.68	458.74
609.84	414.27
609.99	404.91
610.15	472.79
