SpectraSuite Data File
++++++++++++++++++++++++++++++++++++
Date: Fri Oct 25 12:11:07 EDT 2013
User: price-jones
Dark Spectrum Present: No
Reference Spectrum Present: No
Number of Sampled Component Spectra: 1
Spectrometers: USB2+H05261
Integration Time (usec): 100000 (USB2+H05261)
Spectra Averaged: 1 (USB2+H05261)
Boxcar Smoothing: 0 (USB2+H05261)
Correct for Electrical Dark: No (USB2+H05261)
Strobe/Lamp Enabled: No (USB2+H05261)
Correct for Detector Non-linearity: No (USB2+H05261)
Correct for Stray Light: No (USB2+H05261)
Number of Pixels in Processed Spectrum: 2048
>>>>>Begin Processed Spectral Data<<<<<
365.73	367.46
365.92	367.46
366.12	367.46
366.32	222.35
366.52	201.29
366.72	262.14
366.91	266.82
367.11	250.44
367.31	210.65
367.51	252.78
367.70	224.69
367.90	334.70
368.10	259.80
368.30	224.69
368.49	220.01
368.69	306.61
368.89	283.20
369.09	191.92
369.28	266.82
369.48	262.14
369.68	252.78
369.87	269.16
370.07	264.48
370.27	362.78
370.47	315.97
370.66	290.23
370.86	362.78
371.06	376.83
371.25	397.89
371.45	344.06
371.65	421.30
371.84	332.36
372.04	372.15
372.24	409.59
372.44	397.89
372.63	381.51
372.83	395.55
373.03	411.93
373.22	337.04
373.42	440.02
373.62	374.49
373.81	383.85
374.01	475.13
374.21	463.43
374.40	416.62
374.60	442.36
374.79	465.77
374.99	482.15
375.19	400.23
375.38	470.45
375.58	376.83
375.78	449.38
375.97	465.77
376.17	447.04
376.37	409.59
376.56	423.64
376.76	332.36
376.95	409.59
377.15	493.85
377.35	477.47
377.54	437.68
377.74	383.85
377.93	423.64
378.13	454.06
378.33	383.85
378.52	315.97
378.72	365.12
378.91	421.30
379.11	395.55
379.31	379.17
379.50	290.23
379.70	402.57
379.89	397.89
380.09	362.78
380.28	355.76
380.48	428.32
380.68	374.49
380.87	444.70
381.07	428.32
381.26	404.91
381.46	449.38
381.65	402.57
381.85	374.49
382.04	416.62
382.24	407.25
382.43	437.68
382.63	463.43
382.83	400.23
383.02	519.60
383.22	418.96
383.41	360.44
383.61	383.85
383.80	470.45
384.00	418.96
384.19	390.87
384.39	390.87
384.58	395.55
384.78	383.85
384.97	395.55
385.17	409.59
385.36	369.80
385.56	404.91
385.75	388.53
385.95	418.96
386.14	435.34
386.34	407.25
386.53	400.23
386.72	386.19
386.92	367.46
387.11	381.51
387.31	433.00
387.50	414.27
387.70	388.53
387.89	409.59
388.09	449.38
388.28	526.62
388.48	388.53
388.67	407.25
388.86	390.87
389.06	402.57
389.25	374.49
389.45	390.87
389.64	386.19
389.84	397.89
390.03	433.00
390.22	365.12
390.42	367.46
390.61	339.38
390.81	393.21
391.00	418.96
391.19	386.19
391.39	393.21
391.58	454.06
391.78	463.43
391.97	379.17
392.16	404.91
392.36	402.57
392.55	456.40
392.75	397.89
392.94	388.53
393.13	409.59
393.33	374.49
393.52	449.38
393.71	461.09
393.91	414.27
394.10	386.19
394.29	379.17
394.49	362.78
394.68	416.62
394.88	355.76
395.07	351.08
395.26	346.40
395.46	337.04
395.65	423.64
395.84	407.25
396.04	451.72
396.23	407.25
396.42	365.12
396.62	416.62
396.81	500.87
397.00	400.23
397.19	411.93
397.39	383.85
397.58	416.62
397.77	365.12
397.97	414.27
398.16	400.23
398.35	463.43
398.55	372.15
398.74	437.68
398.93	402.57
399.12	411.93
399.32	437.68
399.51	477.47
399.70	407.25
399.90	390.87
400.09	411.93
400.28	440.02
400.47	409.59
400.67	388.53
400.86	379.17
401.05	390.87
401.24	409.59
401.44	456.40
401.63	461.09
401.82	402.57
402.01	346.40
402.21	341.72
402.40	311.29
402.59	395.55
402.78	379.17
402.97	379.17
403.17	409.59
403.36	318.31
403.55	383.85
403.74	423.64
403.93	444.70
404.13	388.53
404.32	393.21
404.51	365.12
404.70	489.17
404.89	376.83
405.09	411.93
405.28	447.04
405.47	390.87
405.66	386.19
405.85	383.85
406.05	388.53
406.24	393.21
406.43	376.83
406.62	374.49
406.81	435.34
407.00	372.15
407.20	404.91
407.39	388.53
407.58	433.00
407.77	409.59
407.96	397.89
408.15	411.93
408.34	369.80
408.54	390.87
408.73	379.17
408.92	379.17
409.11	400.23
409.30	451.72
409.49	400.23
409.68	440.02
409.87	393.21
410.07	383.85
410.26	423.64
410.45	456.40
410.64	395.55
410.83	374.49
411.02	430.66
411.21	465.77
411.40	390.87
411.59	388.53
411.78	383.85
411.98	442.36
412.17	358.10
412.36	430.66
412.55	311.29
412.74	411.93
412.93	465.77
413.12	383.85
413.31	409.59
413.50	334.70
413.69	360.44
413.88	433.00
414.07	414.27
414.26	454.06
414.45	414.27
414.64	437.68
414.83	379.17
415.02	395.55
415.22	454.06
415.41	362.78
415.60	421.30
415.79	418.96
415.98	484.49
416.17	440.02
416.36	400.23
416.55	344.06
416.74	463.43
416.93	456.40
417.12	454.06
417.31	400.23
417.50	437.68
417.69	425.98
417.88	365.12
418.07	433.00
418.26	458.74
418.45	390.87
418.64	362.78
418.83	390.87
419.02	423.64
419.21	447.04
419.39	404.91
419.58	360.44
419.77	411.93
419.96	395.55
420.15	477.47
420.34	418.96
420.53	397.89
420.72	404.91
420.91	442.36
421.10	386.19
421.29	381.51
421.48	397.89
421.67	519.60
421.86	423.64
422.05	390.87
422.24	411.93
422.43	404.91
422.61	418.96
422.80	442.36
422.99	465.77
423.18	369.80
423.37	475.13
423.56	477.47
423.75	386.19
423.94	379.17
424.13	404.91
424.32	395.55
424.50	411.93
424.69	334.70
424.88	372.15
425.07	386.19
425.26	433.00
425.45	367.46
425.64	360.44
425.83	390.87
426.01	407.25
426.20	505.56
426.39	430.66
426.58	374.49
426.77	400.23
426.96	454.06
427.15	418.96
427.33	418.96
427.52	400.23
427.71	390.87
427.90	442.36
428.09	472.79
428.28	430.66
428.46	334.70
428.65	414.27
428.84	301.93
429.03	472.79
429.22	414.27
429.40	360.44
429.59	360.44
429.78	421.30
429.97	402.57
430.16	409.59
430.34	372.15
430.53	411.93
430.72	365.12
430.91	332.36
431.10	461.09
431.28	409.59
431.47	451.72
431.66	390.87
431.85	444.70
432.03	409.59
432.22	407.25
432.41	428.32
432.60	404.91
432.79	400.23
432.97	442.36
433.16	477.47
433.35	372.15
433.54	369.80
433.72	414.27
433.91	397.89
434.10	416.62
434.28	463.43
434.47	379.17
434.66	411.93
434.85	402.57
435.03	369.80
435.22	454.06
435.41	423.64
435.59	404.91
435.78	414.27
435.97	444.70
436.16	496.19
436.34	376.83
436.53	442.36
436.72	437.68
436.90	388.53
437.09	404.91
437.28	463.43
437.46	376.83
437.65	388.53
437.84	397.89
438.02	390.87
438.21	447.04
438.40	496.19
438.58	437.68
438.77	437.68
438.96	404.91
439.14	409.59
439.33	491.51
439.52	395.55
439.70	367.46
439.89	414.27
440.08	456.40
440.26	416.62
440.45	414.27
440.63	430.66
440.82	456.40
441.01	425.98
441.19	369.80
441.38	411.93
441.57	449.38
441.75	428.32
441.94	484.49
442.12	393.21
442.31	372.15
442.50	416.62
442.68	421.30
442.87	362.78
443.05	374.49
443.24	423.64
443.43	486.83
443.61	449.38
443.80	428.32
443.98	428.32
444.17	423.64
444.35	383.85
444.54	430.66
444.73	416.62
444.91	376.83
445.10	360.44
445.28	442.36
445.47	397.89
445.65	402.57
445.84	376.83
446.02	418.96
446.21	344.06
446.39	362.78
446.58	425.98
446.77	435.34
446.95	395.55
447.14	390.87
447.32	444.70
447.51	388.53
447.69	339.38
447.88	280.86
448.06	400.23
448.25	461.09
448.43	327.68
448.62	353.42
448.80	444.70
448.99	444.70
449.17	379.17
449.36	486.83
449.54	428.32
449.73	339.38
449.91	388.53
450.10	388.53
450.28	451.72
450.46	449.38
450.65	395.55
450.83	414.27
451.02	390.87
451.20	416.62
451.39	337.04
451.57	346.40
451.76	409.59
451.94	418.96
452.13	395.55
452.31	477.47
452.49	456.40
452.68	512.58
452.86	383.85
453.05	388.53
453.23	447.04
453.42	433.00
453.60	360.44
453.78	418.96
453.97	355.76
454.15	414.27
454.34	423.64
454.52	332.36
454.70	449.38
454.89	421.30
455.07	491.51
455.26	479.81
455.44	383.85
455.62	390.87
455.81	397.89
455.99	411.93
456.17	416.62
456.36	479.81
456.54	386.19
456.73	369.80
456.91	425.98
457.09	322.99
457.28	442.36
457.46	397.89
457.64	496.19
457.83	444.70
458.01	372.15
458.19	442.36
458.38	470.45
458.56	451.72
458.74	461.09
458.93	397.89
459.11	402.57
459.29	344.06
459.48	468.11
459.66	425.98
459.84	397.89
460.03	496.19
460.21	425.98
460.39	418.96
460.57	414.27
460.76	421.30
460.94	383.85
461.12	388.53
461.31	411.93
461.49	407.25
461.67	416.62
461.85	435.34
462.04	479.81
462.22	774.72
462.40	451.72
462.59	397.89
462.77	437.68
462.95	407.25
463.13	451.72
463.32	430.66
463.50	430.66
463.68	400.23
463.86	395.55
464.05	425.98
464.23	475.13
464.41	379.17
464.59	449.38
464.78	393.21
464.96	381.51
465.14	449.38
465.32	388.53
465.50	437.68
465.69	381.51
465.87	430.66
466.05	353.42
466.23	400.23
466.41	430.66
466.60	447.04
466.78	344.06
466.96	411.93
467.14	367.46
467.32	411.93
467.51	444.70
467.69	353.42
467.87	416.62
468.05	360.44
468.23	390.87
468.41	400.23
468.60	437.68
468.78	442.36
468.96	440.02
469.14	444.70
469.32	360.44
469.50	411.93
469.69	484.49
469.87	411.93
470.05	447.04
470.23	388.53
470.41	369.80
470.59	369.80
470.77	418.96
470.95	468.11
471.14	379.17
471.32	400.23
471.50	390.87
471.68	383.85
471.86	341.72
472.04	435.34
472.22	444.70
472.40	376.83
472.58	402.57
472.77	425.98
472.95	383.85
473.13	379.17
473.31	437.68
473.49	400.23
473.67	430.66
473.85	458.74
474.03	421.30
474.21	433.00
474.39	437.68
474.57	367.46
474.75	421.30
474.93	430.66
475.12	407.25
475.30	395.55
475.48	425.98
475.66	416.62
475.84	404.91
476.02	435.34
476.20	503.22
476.38	428.32
476.56	440.02
476.74	372.15
476.92	421.30
477.10	421.30
477.28	416.62
477.46	447.04
477.64	416.62
477.82	386.19
478.00	376.83
478.18	449.38
478.36	388.53
478.54	416.62
478.72	456.40
478.90	400.23
479.08	433.00
479.26	358.10
479.44	402.57
479.62	388.53
479.80	414.27
479.98	414.27
480.16	402.57
480.34	444.70
480.52	440.02
480.70	519.60
480.88	458.74
481.06	395.55
481.24	381.51
481.41	327.68
481.59	454.06
481.77	402.57
481.95	379.17
482.13	442.36
482.31	423.64
482.49	425.98
482.67	393.21
482.85	418.96
483.03	397.89
483.21	383.85
483.39	421.30
483.57	477.47
483.74	374.49
483.92	339.38
484.10	367.46
484.28	397.89
484.46	421.30
484.64	465.77
484.82	407.25
485.00	423.64
485.18	475.13
485.35	339.38
485.53	374.49
485.71	421.30
485.89	348.74
486.07	447.04
486.25	456.40
486.43	341.72
486.61	440.02
486.78	465.77
486.96	421.30
487.14	456.40
487.32	346.40
487.50	393.21
487.68	402.57
487.85	390.87
488.03	428.32
488.21	367.46
488.39	409.59
488.57	416.62
488.75	395.55
488.92	418.96
489.10	411.93
489.28	454.06
489.46	395.55
489.64	402.57
489.81	360.44
489.99	444.70
490.17	486.83
490.35	484.49
490.53	379.17
490.70	447.04
490.88	428.32
491.06	428.32
491.24	451.72
491.41	447.04
491.59	451.72
491.77	395.55
491.95	362.78
492.13	404.91
492.30	362.78
492.48	414.27
492.66	433.00
492.84	433.00
493.01	393.21
493.19	330.02
493.37	479.81
493.54	437.68
493.72	421.30
493.90	421.30
494.08	428.32
494.25	449.38
494.43	456.40
494.61	372.15
494.79	421.30
494.96	372.15
495.14	341.72
495.32	402.57
495.49	428.32
495.67	409.59
495.85	400.23
496.02	322.99
496.20	400.23
496.38	435.34
496.55	428.32
496.73	433.00
496.91	411.93
497.09	486.83
497.26	414.27
497.44	395.55
497.62	418.96
497.79	437.68
497.97	449.38
498.14	456.40
498.32	430.66
498.50	461.09
498.67	404.91
498.85	414.27
499.03	418.96
499.20	369.80
499.38	374.49
499.56	428.32
499.73	458.74
499.91	414.27
500.08	433.00
500.26	395.55
500.44	416.62
500.61	472.79
500.79	381.51
500.97	393.21
501.14	458.74
501.32	409.59
501.49	430.66
501.67	393.21
501.84	383.85
502.02	365.12
502.20	390.87
502.37	433.00
502.55	397.89
502.72	416.62
502.90	442.36
503.07	463.43
503.25	442.36
503.43	409.59
503.60	379.17
503.78	430.66
503.95	430.66
504.13	353.42
504.30	479.81
504.48	447.04
504.65	418.96
504.83	475.13
505.01	379.17
505.18	456.40
505.36	404.91
505.53	315.97
505.71	449.38
505.88	423.64
506.06	395.55
506.23	386.19
506.41	383.85
506.58	425.98
506.76	423.64
506.93	444.70
507.11	367.46
507.28	402.57
507.46	351.08
507.63	367.46
507.81	409.59
507.98	400.23
508.16	393.21
508.33	395.55
508.50	397.89
508.68	374.49
508.85	437.68
509.03	388.53
509.20	379.17
509.38	365.12
509.55	449.38
509.73	437.68
509.90	458.74
510.08	411.93
510.25	383.85
510.42	407.25
510.60	442.36
510.77	421.30
510.95	353.42
511.12	414.27
511.30	411.93
511.47	397.89
511.64	402.57
511.82	458.74
511.99	442.36
512.17	381.51
512.34	486.83
512.51	362.78
512.69	325.33
512.86	449.38
513.04	397.89
513.21	414.27
513.38	376.83
513.56	421.30
513.73	451.72
513.90	440.02
514.08	472.79
514.25	388.53
514.43	435.34
514.60	374.49
514.77	404.91
514.95	402.57
515.12	458.74
515.29	454.06
515.47	491.51
515.64	402.57
515.81	472.79
515.99	489.17
516.16	409.59
516.33	386.19
516.51	381.51
516.68	393.21
516.85	402.57
517.03	416.62
517.20	440.02
517.37	393.21
517.54	418.96
517.72	470.45
517.89	353.42
518.06	416.62
518.24	414.27
518.41	423.64
518.58	425.98
518.75	444.70
518.93	430.66
519.10	437.68
519.27	428.32
519.45	390.87
519.62	414.27
519.79	372.15
519.96	400.23
520.14	411.93
520.31	386.19
520.48	475.13
520.65	463.43
520.83	477.47
521.00	447.04
521.17	477.47
521.34	369.80
521.52	440.02
521.69	402.57
521.86	468.11
522.03	444.70
522.20	461.09
522.38	372.15
522.55	440.02
522.72	444.70
522.89	341.72
523.07	421.30
523.24	437.68
523.41	428.32
523.58	388.53
523.75	418.96
523.92	468.11
524.10	416.62
524.27	465.77
524.44	388.53
524.61	484.49
524.78	447.04
524.96	395.55
525.13	416.62
525.30	449.38
525.47	440.02
525.64	454.06
525.81	416.62
525.98	369.80
526.16	409.59
526.33	437.68
526.50	379.17
526.67	449.38
526.84	423.64
527.01	362.78
527.18	400.23
527.36	437.68
527.53	437.68
527.70	444.70
527.87	414.27
528.04	472.79
528.21	411.93
528.38	430.66
528.55	416.62
528.72	440.02
528.89	400.23
529.07	414.27
529.24	397.89
529.41	475.13
529.58	390.87
529.75	404.91
529.92	421.30
530.09	451.72
530.26	444.70
530.43	521.94
530.60	411.93
530.77	404.91
530.94	458.74
531.11	454.06
531.28	358.10
531.46	407.25
531.63	400.23
531.80	414.27
531.97	433.00
532.14	407.25
532.31	435.34
532.48	456.40
532.65	465.77
532.82	414.27
532.99	376.83
533.16	430.66
533.33	393.21
533.50	430.66
533.67	463.43
533.84	468.11
534.01	470.45
534.18	428.32
534.35	463.43
534.52	463.43
534.69	386.19
534.86	468.11
535.03	414.27
535.20	372.15
535.37	423.64
535.54	421.30
535.71	442.36
535.88	435.34
536.05	418.96
536.22	435.34
536.38	477.47
536.55	449.38
536.72	449.38
536.89	397.89
537.06	381.51
537.23	339.38
537.40	423.64
537.57	472.79
537.74	451.72
537.91	404.91
538.08	414.27
538.25	411.93
538.42	386.19
538.59	465.77
538.75	383.85
538.92	390.87
539.09	409.59
539.26	444.70
539.43	430.66
539.60	428.32
539.77	465.77
539.94	456.40
540.11	423.64
540.28	463.43
540.44	489.17
540.61	472.79
540.78	440.02
540.95	404.91
541.12	461.09
541.29	496.19
541.46	475.13
541.62	430.66
541.79	402.57
541.96	470.45
542.13	376.83
542.30	440.02
542.47	386.19
542.63	442.36
542.80	339.38
542.97	435.34
543.14	421.30
543.31	379.17
543.48	461.09
543.64	327.68
543.81	407.25
543.98	444.70
544.15	404.91
544.32	435.34
544.48	482.15
544.65	458.74
544.82	393.21
544.99	416.62
545.16	449.38
545.32	400.23
545.49	451.72
545.66	435.34
545.83	367.46
546.00	435.34
546.16	416.62
546.33	402.57
546.50	444.70
546.67	411.93
546.83	386.19
547.00	423.64
547.17	416.62
547.34	400.23
547.50	440.02
547.67	409.59
547.84	388.53
548.00	442.36
548.17	407.25
548.34	409.59
548.51	437.68
548.67	421.30
548.84	493.85
549.01	430.66
549.18	440.02
549.34	411.93
549.51	468.11
549.68	423.64
549.84	416.62
550.01	353.42
550.18	430.66
550.34	416.62
550.51	407.25
550.68	451.72
550.84	454.06
551.01	395.55
551.18	451.72
551.34	374.49
551.51	468.11
551.68	442.36
551.84	454.06
552.01	397.89
552.18	409.59
552.34	346.40
552.51	381.51
552.68	491.51
552.84	475.13
553.01	428.32
553.18	442.36
553.34	369.80
553.51	376.83
553.67	402.57
553.84	491.51
554.01	489.17
554.17	498.53
554.34	365.12
554.51	393.21
554.67	505.56
554.84	383.85
555.00	421.30
555.17	458.74
555.33	409.59
555.50	456.40
555.67	437.68
555.83	372.15
556.00	416.62
556.16	545.34
556.33	383.85
556.50	423.64
556.66	423.64
556.83	395.55
556.99	395.55
557.16	379.17
557.32	433.00
557.49	451.72
557.65	346.40
557.82	418.96
557.98	430.66
558.15	407.25
558.32	393.21
558.48	468.11
558.65	465.77
558.81	365.12
558.98	386.19
559.14	470.45
559.31	397.89
559.47	442.36
559.64	369.80
559.80	430.66
559.97	425.98
560.13	381.51
560.30	425.98
560.46	425.98
560.63	376.83
560.79	381.51
560.96	519.60
561.12	379.17
561.29	442.36
561.45	404.91
561.61	400.23
561.78	470.45
561.94	423.64
562.11	425.98
562.27	409.59
562.44	360.44
562.60	395.55
562.77	430.66
562.93	507.90
563.10	503.22
563.26	409.59
563.42	461.09
563.59	454.06
563.75	423.64
563.92	430.66
564.08	470.45
564.24	351.08
564.41	395.55
564.57	440.02
564.74	376.83
564.90	435.34
565.07	433.00
565.23	425.98
565.39	454.06
565.56	430.66
565.72	369.80
565.88	414.27
566.05	430.66
566.21	421.30
566.38	402.57
566.54	409.59
566.70	449.38
566.87	365.12
567.03	411.93
567.19	388.53
567.36	393.21
567.52	404.91
567.68	458.74
567.85	477.47
568.01	421.30
568.17	362.78
568.34	456.40
568.50	484.49
568.66	386.19
568.83	454.06
568.99	351.08
569.15	402.57
569.32	409.59
569.48	383.85
569.64	414.27
569.81	437.68
569.97	400.23
570.13	433.00
570.30	409.59
570.46	386.19
570.62	376.83
570.78	360.44
570.95	416.62
571.11	493.85
571.27	458.74
571.43	339.38
571.60	477.47
571.76	390.87
571.92	428.32
572.09	430.66
572.25	493.85
572.41	404.91
572.57	414.27
572.74	440.02
572.90	409.59
573.06	428.32
573.22	404.91
573.38	428.32
573.55	423.64
573.71	325.33
573.87	440.02
574.03	362.78
574.20	379.17
574.36	386.19
574.52	381.51
574.68	444.70
574.84	411.93
575.01	423.64
575.17	465.77
575.33	433.00
575.49	458.74
575.65	400.23
575.82	407.25
575.98	468.11
576.14	430.66
576.30	341.72
576.46	437.68
576.62	458.74
576.79	379.17
576.95	496.19
577.11	383.85
577.27	404.91
577.43	444.70
577.59	465.77
577.75	461.09
577.92	447.04
578.08	444.70
578.24	351.08
578.40	493.85
578.56	447.04
578.72	430.66
578.88	440.02
579.04	433.00
579.21	397.89
579.37	430.66
579.53	428.32
579.69	482.15
579.85	351.08
580.01	425.98
580.17	358.10
580.33	360.44
580.49	369.80
580.65	353.42
580.82	442.36
580.98	337.04
581.14	414.27
581.30	433.00
581.46	425.98
581.62	435.34
581.78	404.91
581.94	430.66
582.10	472.79
582.26	416.62
582.42	381.51
582.58	468.11
582.74	454.06
582.90	456.40
583.06	355.76
583.22	437.68
583.38	346.40
583.54	449.38
583.70	411.93
583.86	425.98
584.02	411.93
584.18	430.66
584.34	430.66
584.50	416.62
584.66	372.15
584.82	372.15
584.98	451.72
585.14	465.77
585.30	456.40
585.46	390.87
585.62	440.02
585.78	433.00
585.94	383.85
586.10	425.98
586.26	376.83
586.42	447.04
586.58	442.36
586.74	449.38
586.90	437.68
587.06	414.27
587.22	362.78
587.38	313.63
587.54	433.00
587.70	383.85
587.86	407.25
588.02	454.06
588.18	372.15
588.34	463.43
588.49	423.64
588.65	386.19
588.81	430.66
588.97	486.83
589.13	437.68
589.29	383.85
589.45	407.25
589.61	339.38
589.77	397.89
589.93	433.00
590.08	458.74
590.24	416.62
590.40	360.44
590.56	489.17
590.72	440.02
590.88	376.83
591.04	393.21
591.20	390.87
591.35	489.17
591.51	393.21
591.67	407.25
591.83	416.62
591.99	409.59
592.15	418.96
592.31	423.64
592.46	404.91
592.62	418.96
592.78	388.53
592.94	372.15
593.10	400.23
593.26	411.93
593.41	433.00
593.57	449.38
593.73	381.51
593.89	402.57
594.05	416.62
594.20	538.32
594.36	470.45
594.52	493.85
594.68	383.85
594.84	383.85
594.99	418.96
595.15	456.40
595.31	393.21
595.47	435.34
595.62	458.74
595.78	451.72
595.94	540.66
596.10	444.70
596.25	425.98
596.41	479.81
596.57	386.19
596.73	428.32
596.88	409.59
597.04	425.98
597.20	353.42
597.36	400.23
597.51	430.66
597.67	367.46
597.83	421.30
597.99	367.46
598.14	388.53
598.30	407.25
598.46	418.96
598.61	423.64
598.77	468.11
598.93	402.57
599.09	393.21
599.24	425.98
599.40	430.66
599.56	381.51
599.71	402.57
599.87	449.38
600.03	449.38
600.18	435.34
600.34	423.64
600.50	447.04
600.65	447.04
600.81	388.53
600.97	416.62
601.12	393.21
601.28	430.66
601.44	379.17
601.59	374.49
601.75	484.49
601.91	449.38
602.06	472.79
602.22	449.38
602.37	475.13
602.53	416.62
602.69	444.70
602.84	463.43
603.00	386.19
603.16	400.23
603.31	463.43
603.47	423.64
603.62	400.23
603.78	428.32
603.94	458.74
604.09	418.96
604.25	418.96
604.40	486.83
604.56	404.91
604.71	367.46
604.87	386.19
605.03	442.36
605.18	430.66
605.34	444.70
605.49	358.10
605.65	421.30
605.80	400.23
605.96	461.09
606.12	440.02
606.27	421.30
606.43	442.36
606.58	351.08
606.74	489.17
606.89	383.85
607.05	505.56
607.20	458.74
607.36	393.21
607.51	425.98
607.67	411.93
607.82	470.45
607.98	393.21
608.13	358.10
608.29	458.74
608.44	435.34
608.60	367.46
608.75	430.66
608.91	383.85
609.06	456.40
609.22	435.34
609.37	454.06
609.53	407.25
609.68	414.27
609.84	425.98
609.99	381.51
610.15	449.38
