SpectraSuite Data File
++++++++++++++++++++++++++++++++++++
Date: Fri Oct 25 12:10:13 EDT 2013
User: price-jones
Dark Spectrum Present: No
Reference Spectrum Present: No
Number of Sampled Component Spectra: 1
Spectrometers: USB2+H05261
Integration Time (usec): 100000 (USB2+H05261)
Spectra Averaged: 1 (USB2+H05261)
Boxcar Smoothing: 0 (USB2+H05261)
Correct for Electrical Dark: No (USB2+H05261)
Strobe/Lamp Enabled: No (USB2+H05261)
Correct for Detector Non-linearity: No (USB2+H05261)
Correct for Stray Light: No (USB2+H05261)
Number of Pixels in Processed Spectrum: 2048
>>>>>Begin Processed Spectral Data<<<<<
365.73	304.27
365.92	304.27
366.12	304.27
366.32	238.73
366.52	245.76
366.72	276.18
366.91	273.84
367.11	229.37
367.31	241.08
367.51	220.01
367.70	243.42
367.90	259.80
368.10	210.65
368.30	243.42
368.49	210.65
368.69	248.10
368.89	257.46
369.09	266.82
369.28	308.95
369.48	257.46
369.68	320.65
369.87	266.82
370.07	283.20
370.27	325.33
370.47	339.38
370.66	376.83
370.86	348.74
371.06	330.02
371.25	355.76
371.45	353.42
371.65	397.89
371.84	444.70
372.04	376.83
372.24	386.19
372.44	395.55
372.63	344.06
372.83	482.15
373.03	423.64
373.22	423.64
373.42	362.78
373.62	360.44
373.81	435.34
374.01	433.00
374.21	517.26
374.40	428.32
374.60	442.36
374.79	425.98
374.99	421.30
375.19	442.36
375.38	489.17
375.58	374.49
375.78	397.89
375.97	489.17
376.17	402.57
376.37	421.30
376.56	348.74
376.76	416.62
376.95	447.04
377.15	451.72
377.35	447.04
377.54	381.51
377.74	421.30
377.93	409.59
378.13	519.60
378.33	397.89
378.52	400.23
378.72	444.70
378.91	351.08
379.11	418.96
379.31	365.12
379.50	346.40
379.70	465.77
379.89	475.13
380.09	390.87
380.28	388.53
380.48	365.12
380.68	416.62
380.87	355.76
381.07	463.43
381.26	430.66
381.46	433.00
381.65	372.15
381.85	402.57
382.04	367.46
382.24	358.10
382.43	416.62
382.63	400.23
382.83	435.34
383.02	365.12
383.22	397.89
383.41	379.17
383.61	468.11
383.80	449.38
384.00	425.98
384.19	411.93
384.39	379.17
384.58	486.83
384.78	425.98
384.97	402.57
385.17	390.87
385.36	414.27
385.56	430.66
385.75	409.59
385.95	393.21
386.14	433.00
386.34	395.55
386.53	390.87
386.72	430.66
386.92	346.40
387.11	414.27
387.31	442.36
387.50	397.89
387.70	416.62
387.89	423.64
388.09	449.38
388.28	372.15
388.48	444.70
388.67	355.76
388.86	400.23
389.06	468.11
389.25	400.23
389.45	381.51
389.64	369.80
389.84	332.36
390.03	393.21
390.22	447.04
390.42	332.36
390.61	355.76
390.81	388.53
391.00	433.00
391.19	397.89
391.39	507.90
391.58	383.85
391.78	402.57
391.97	372.15
392.16	418.96
392.36	447.04
392.55	395.55
392.75	423.64
392.94	402.57
393.13	278.52
393.33	395.55
393.52	425.98
393.71	388.53
393.91	402.57
394.10	421.30
394.29	435.34
394.49	430.66
394.68	430.66
394.88	395.55
395.07	437.68
395.26	402.57
395.46	470.45
395.65	416.62
395.84	365.12
396.04	433.00
396.23	393.21
396.42	369.80
396.62	404.91
396.81	425.98
397.00	390.87
397.19	393.21
397.39	416.62
397.58	409.59
397.77	362.78
397.97	454.06
398.16	472.79
398.35	407.25
398.55	346.40
398.74	423.64
398.93	449.38
399.12	351.08
399.32	444.70
399.51	388.53
399.70	372.15
399.90	442.36
400.09	393.21
400.28	484.49
400.47	367.46
400.67	472.79
400.86	461.09
401.05	428.32
401.24	367.46
401.44	365.12
401.63	397.89
401.82	393.21
402.01	360.44
402.21	383.85
402.40	395.55
402.59	369.80
402.78	489.17
402.97	418.96
403.17	428.32
403.36	430.66
403.55	411.93
403.74	393.21
403.93	449.38
404.13	381.51
404.32	409.59
404.51	346.40
404.70	423.64
404.89	376.83
405.09	414.27
405.28	379.17
405.47	376.83
405.66	383.85
405.85	435.34
406.05	411.93
406.24	383.85
406.43	395.55
406.62	411.93
406.81	440.02
407.00	461.09
407.20	416.62
407.39	407.25
407.58	306.61
407.77	447.04
407.96	458.74
408.15	440.02
408.34	428.32
408.54	379.17
408.73	376.83
408.92	386.19
409.11	482.15
409.30	447.04
409.49	440.02
409.68	456.40
409.87	416.62
410.07	402.57
410.26	433.00
410.45	332.36
410.64	430.66
410.83	372.15
411.02	400.23
411.21	400.23
411.40	433.00
411.59	425.98
411.78	430.66
411.98	423.64
412.17	383.85
412.36	463.43
412.55	400.23
412.74	465.77
412.93	425.98
413.12	376.83
413.31	433.00
413.50	411.93
413.69	369.80
413.88	425.98
414.07	395.55
414.26	379.17
414.45	397.89
414.64	470.45
414.83	393.21
415.02	404.91
415.22	461.09
415.41	458.74
415.60	351.08
415.79	351.08
415.98	435.34
416.17	351.08
416.36	407.25
416.55	365.12
416.74	498.53
416.93	402.57
417.12	374.49
417.31	393.21
417.50	407.25
417.69	395.55
417.88	461.09
418.07	395.55
418.26	404.91
418.45	390.87
418.64	449.38
418.83	442.36
419.02	444.70
419.21	397.89
419.39	393.21
419.58	367.46
419.77	367.46
419.96	411.93
420.15	416.62
420.34	421.30
420.53	437.68
420.72	461.09
420.91	449.38
421.10	411.93
421.29	433.00
421.48	433.00
421.67	421.30
421.86	463.43
422.05	416.62
422.24	393.21
422.43	416.62
422.61	379.17
422.80	402.57
422.99	402.57
423.18	409.59
423.37	376.83
423.56	414.27
423.75	428.32
423.94	381.51
424.13	393.21
424.32	341.72
424.50	320.65
424.69	388.53
424.88	397.89
425.07	390.87
425.26	444.70
425.45	400.23
425.64	454.06
425.83	402.57
426.01	365.12
426.20	367.46
426.39	360.44
426.58	433.00
426.77	421.30
426.96	435.34
427.15	351.08
427.33	318.31
427.52	442.36
427.71	496.19
427.90	449.38
428.09	418.96
428.28	430.66
428.46	411.93
428.65	376.83
428.84	367.46
429.03	414.27
429.22	425.98
429.40	374.49
429.59	465.77
429.78	463.43
429.97	449.38
430.16	454.06
430.34	365.12
430.53	437.68
430.72	435.34
430.91	376.83
431.10	421.30
431.28	386.19
431.47	393.21
431.66	393.21
431.85	435.34
432.03	484.49
432.22	407.25
432.41	381.51
432.60	514.92
432.79	386.19
432.97	388.53
433.16	444.70
433.35	388.53
433.54	367.46
433.72	365.12
433.91	365.12
434.10	325.33
434.28	421.30
434.47	435.34
434.66	348.74
434.85	311.29
435.03	339.38
435.22	444.70
435.41	416.62
435.59	418.96
435.78	428.32
435.97	435.34
436.16	475.13
436.34	397.89
436.53	433.00
436.72	465.77
436.90	437.68
437.09	409.59
437.28	421.30
437.46	407.25
437.65	470.45
437.84	428.32
438.02	358.10
438.21	423.64
438.40	372.15
438.58	449.38
438.77	482.15
438.96	409.59
439.14	409.59
439.33	444.70
439.52	376.83
439.70	428.32
439.89	400.23
440.08	365.12
440.26	416.62
440.45	395.55
440.63	465.77
440.82	379.17
441.01	433.00
441.19	425.98
441.38	416.62
441.57	369.80
441.75	449.38
441.94	461.09
442.12	411.93
442.31	447.04
442.50	358.10
442.68	433.00
442.87	379.17
443.05	421.30
443.24	393.21
443.43	461.09
443.61	409.59
443.80	421.30
443.98	430.66
444.17	376.83
444.35	346.40
444.54	414.27
444.73	517.26
444.91	367.46
445.10	430.66
445.28	348.74
445.47	414.27
445.65	360.44
445.84	388.53
446.02	477.47
446.21	369.80
446.39	393.21
446.58	482.15
446.77	404.91
446.95	355.76
447.14	416.62
447.32	395.55
447.51	402.57
447.69	374.49
447.88	386.19
448.06	367.46
448.25	463.43
448.43	402.57
448.62	390.87
448.80	365.12
448.99	369.80
449.17	388.53
449.36	346.40
449.54	386.19
449.73	372.15
449.91	390.87
450.10	447.04
450.28	482.15
450.46	479.81
450.65	402.57
450.83	397.89
451.02	400.23
451.20	433.00
451.39	482.15
451.57	400.23
451.76	388.53
451.94	458.74
452.13	416.62
452.31	449.38
452.49	393.21
452.68	351.08
452.86	423.64
453.05	416.62
453.23	414.27
453.42	360.44
453.60	477.47
453.78	500.87
453.97	355.76
454.15	386.19
454.34	351.08
454.52	369.80
454.70	517.26
454.89	397.89
455.07	388.53
455.26	512.58
455.44	493.85
455.62	383.85
455.81	421.30
455.99	435.34
456.17	425.98
456.36	465.77
456.54	489.17
456.73	353.42
456.91	435.34
457.09	425.98
457.28	545.34
457.46	465.77
457.64	397.89
457.83	468.11
458.01	409.59
458.19	411.93
458.38	404.91
458.56	449.38
458.74	365.12
458.93	381.51
459.11	421.30
459.29	388.53
459.48	418.96
459.66	397.89
459.84	339.38
460.03	484.49
460.21	404.91
460.39	381.51
460.57	447.04
460.76	407.25
460.94	318.31
461.12	451.72
461.31	416.62
461.49	437.68
461.67	374.49
461.85	407.25
462.04	451.72
462.22	833.23
462.40	468.11
462.59	425.98
462.77	409.59
462.95	400.23
463.13	383.85
463.32	503.22
463.50	458.74
463.68	390.87
463.86	428.32
464.05	437.68
464.23	353.42
464.41	372.15
464.59	404.91
464.78	383.85
464.96	367.46
465.14	463.43
465.32	341.72
465.50	433.00
465.69	442.36
465.87	376.83
466.05	393.21
466.23	437.68
466.41	388.53
466.60	470.45
466.78	454.06
466.96	458.74
467.14	454.06
467.32	470.45
467.51	407.25
467.69	386.19
467.87	545.34
468.05	407.25
468.23	409.59
468.41	477.47
468.60	449.38
468.78	362.78
468.96	423.64
469.14	411.93
469.32	458.74
469.50	461.09
469.69	414.27
469.87	425.98
470.05	395.55
470.23	421.30
470.41	430.66
470.59	393.21
470.77	430.66
470.95	468.11
471.14	440.02
471.32	458.74
471.50	482.15
471.68	414.27
471.86	365.12
472.04	461.09
472.22	414.27
472.40	409.59
472.58	477.47
472.77	421.30
472.95	414.27
473.13	404.91
473.31	465.77
473.49	379.17
473.67	411.93
473.85	440.02
474.03	440.02
474.21	449.38
474.39	393.21
474.57	379.17
474.75	526.62
474.93	409.59
475.12	414.27
475.30	442.36
475.48	449.38
475.66	353.42
475.84	379.17
476.02	461.09
476.20	468.11
476.38	444.70
476.56	484.49
476.74	484.49
476.92	409.59
477.10	379.17
477.28	379.17
477.46	367.46
477.64	458.74
477.82	386.19
478.00	414.27
478.18	409.59
478.36	400.23
478.54	444.70
478.72	395.55
478.90	411.93
479.08	339.38
479.26	479.81
479.44	400.23
479.62	395.55
479.80	390.87
479.98	379.17
480.16	423.64
480.34	369.80
480.52	418.96
480.70	418.96
480.88	365.12
481.06	353.42
481.24	390.87
481.41	414.27
481.59	423.64
481.77	407.25
481.95	376.83
482.13	458.74
482.31	404.91
482.49	444.70
482.67	411.93
482.85	437.68
483.03	346.40
483.21	381.51
483.39	440.02
483.57	409.59
483.74	397.89
483.92	404.91
484.10	388.53
484.28	428.32
484.46	468.11
484.64	334.70
484.82	409.59
485.00	346.40
485.18	358.10
485.35	374.49
485.53	423.64
485.71	433.00
485.89	372.15
486.07	411.93
486.25	390.87
486.43	425.98
486.61	428.32
486.78	386.19
486.96	318.31
487.14	344.06
487.32	351.08
487.50	442.36
487.68	489.17
487.85	381.51
488.03	369.80
488.21	458.74
488.39	425.98
488.57	365.12
488.75	428.32
488.92	442.36
489.10	470.45
489.28	461.09
489.46	369.80
489.64	435.34
489.81	437.68
489.99	411.93
490.17	400.23
490.35	451.72
490.53	362.78
490.70	388.53
490.88	409.59
491.06	524.28
491.24	468.11
491.41	381.51
491.59	428.32
491.77	395.55
491.95	461.09
492.13	397.89
492.30	372.15
492.48	355.76
492.66	367.46
492.84	362.78
493.01	407.25
493.19	362.78
493.37	374.49
493.54	390.87
493.72	517.26
493.90	376.83
494.08	409.59
494.25	444.70
494.43	404.91
494.61	414.27
494.79	381.51
494.96	351.08
495.14	418.96
495.32	437.68
495.49	362.78
495.67	400.23
495.85	418.96
496.02	418.96
496.20	421.30
496.38	423.64
496.55	360.44
496.73	418.96
496.91	393.21
497.09	409.59
497.26	425.98
497.44	414.27
497.62	449.38
497.79	440.02
497.97	425.98
498.14	386.19
498.32	374.49
498.50	449.38
498.67	407.25
498.85	402.57
499.03	416.62
499.20	386.19
499.38	332.36
499.56	397.89
499.73	493.85
499.91	409.59
500.08	374.49
500.26	407.25
500.44	416.62
500.61	372.15
500.79	404.91
500.97	390.87
501.14	395.55
501.32	477.47
501.49	470.45
501.67	433.00
501.84	355.76
502.02	365.12
502.20	465.77
502.37	458.74
502.55	421.30
502.72	332.36
502.90	428.32
503.07	393.21
503.25	440.02
503.43	353.42
503.60	435.34
503.78	395.55
503.95	402.57
504.13	393.21
504.30	456.40
504.48	468.11
504.65	465.77
504.83	367.46
505.01	390.87
505.18	421.30
505.36	458.74
505.53	395.55
505.71	325.33
505.88	447.04
506.06	425.98
506.23	458.74
506.41	379.17
506.58	433.00
506.76	400.23
506.93	374.49
507.11	437.68
507.28	367.46
507.46	395.55
507.63	318.31
507.81	402.57
507.98	362.78
508.16	477.47
508.33	414.27
508.50	472.79
508.68	451.72
508.85	393.21
509.03	449.38
509.20	400.23
509.38	444.70
509.55	482.15
509.73	454.06
509.90	390.87
510.08	390.87
510.25	423.64
510.42	351.08
510.60	423.64
510.77	425.98
510.95	468.11
511.12	334.70
511.30	388.53
511.47	421.30
511.64	400.23
511.82	376.83
511.99	421.30
512.17	407.25
512.34	381.51
512.51	468.11
512.69	400.23
512.86	454.06
513.04	337.04
513.21	369.80
513.38	358.10
513.56	404.91
513.73	381.51
513.90	400.23
514.08	433.00
514.25	444.70
514.43	421.30
514.60	435.34
514.77	346.40
514.95	442.36
515.12	411.93
515.29	365.12
515.47	395.55
515.64	430.66
515.81	393.21
515.99	463.43
516.16	409.59
516.33	388.53
516.51	418.96
516.68	458.74
516.85	372.15
517.03	404.91
517.20	454.06
517.37	423.64
517.54	435.34
517.72	444.70
517.89	367.46
518.06	397.89
518.24	418.96
518.41	456.40
518.58	395.55
518.75	402.57
518.93	435.34
519.10	381.51
519.27	458.74
519.45	442.36
519.62	428.32
519.79	475.13
519.96	397.89
520.14	393.21
520.31	362.78
520.48	372.15
520.65	388.53
520.83	409.59
521.00	402.57
521.17	444.70
521.34	437.68
521.52	458.74
521.69	447.04
521.86	360.44
522.03	376.83
522.20	503.22
522.38	442.36
522.55	418.96
522.72	407.25
522.89	409.59
523.07	461.09
523.24	433.00
523.41	409.59
523.58	404.91
523.75	433.00
523.92	451.72
524.10	414.27
524.27	433.00
524.44	360.44
524.61	491.51
524.78	411.93
524.96	409.59
525.13	421.30
525.30	461.09
525.47	440.02
525.64	425.98
525.81	404.91
525.98	493.85
526.16	404.91
526.33	355.76
526.50	376.83
526.67	409.59
526.84	423.64
527.01	421.30
527.18	470.45
527.36	442.36
527.53	421.30
527.70	404.91
527.87	388.53
528.04	416.62
528.21	425.98
528.38	489.17
528.55	510.24
528.72	456.40
528.89	451.72
529.07	414.27
529.24	393.21
529.41	442.36
529.58	425.98
529.75	418.96
529.92	447.04
530.09	390.87
530.26	456.40
530.43	320.65
530.60	414.27
530.77	447.04
530.94	411.93
531.11	407.25
531.28	386.19
531.46	322.99
531.63	435.34
531.80	397.89
531.97	472.79
532.14	372.15
532.31	447.04
532.48	470.45
532.65	372.15
532.82	344.06
532.99	416.62
533.16	400.23
533.33	440.02
533.50	440.02
533.67	454.06
533.84	404.91
534.01	454.06
534.18	393.21
534.35	327.68
534.52	409.59
534.69	416.62
534.86	463.43
535.03	383.85
535.20	402.57
535.37	430.66
535.54	454.06
535.71	409.59
535.88	411.93
536.05	458.74
536.22	433.00
536.38	428.32
536.55	372.15
536.72	449.38
536.89	383.85
537.06	451.72
537.23	395.55
537.40	430.66
537.57	351.08
537.74	454.06
537.91	418.96
538.08	435.34
538.25	447.04
538.42	442.36
538.59	400.23
538.75	444.70
538.92	475.13
539.09	442.36
539.26	400.23
539.43	428.32
539.60	376.83
539.77	456.40
539.94	423.64
540.11	458.74
540.28	465.77
540.44	404.91
540.61	348.74
540.78	425.98
540.95	376.83
541.12	475.13
541.29	440.02
541.46	402.57
541.62	402.57
541.79	381.51
541.96	402.57
542.13	421.30
542.30	437.68
542.47	346.40
542.63	390.87
542.80	386.19
542.97	433.00
543.14	451.72
543.31	454.06
543.48	390.87
543.64	411.93
543.81	395.55
543.98	423.64
544.15	463.43
544.32	365.12
544.48	437.68
544.65	444.70
544.82	397.89
544.99	386.19
545.16	444.70
545.32	468.11
545.49	454.06
545.66	388.53
545.83	409.59
546.00	442.36
546.16	379.17
546.33	451.72
546.50	386.19
546.67	440.02
546.83	440.02
547.00	402.57
547.17	369.80
547.34	442.36
547.50	451.72
547.67	404.91
547.84	440.02
548.00	444.70
548.17	379.17
548.34	433.00
548.51	425.98
548.67	365.12
548.84	383.85
549.01	444.70
549.18	411.93
549.34	418.96
549.51	306.61
549.68	449.38
549.84	411.93
550.01	395.55
550.18	470.45
550.34	411.93
550.51	416.62
550.68	458.74
550.84	425.98
551.01	423.64
551.18	344.06
551.34	428.32
551.51	421.30
551.68	444.70
551.84	428.32
552.01	395.55
552.18	491.51
552.34	381.51
552.51	411.93
552.68	458.74
552.84	390.87
553.01	411.93
553.18	442.36
553.34	430.66
553.51	395.55
553.67	486.83
553.84	433.00
554.01	372.15
554.17	369.80
554.34	376.83
554.51	409.59
554.67	435.34
554.84	465.77
555.00	416.62
555.17	414.27
555.33	442.36
555.50	489.17
555.67	400.23
555.83	388.53
556.00	355.76
556.16	568.75
556.33	442.36
556.50	390.87
556.66	421.30
556.83	376.83
556.99	325.33
557.16	386.19
557.32	395.55
557.49	447.04
557.65	404.91
557.82	477.47
557.98	496.19
558.15	477.47
558.32	486.83
558.48	503.22
558.65	489.17
558.81	416.62
558.98	411.93
559.14	411.93
559.31	344.06
559.47	423.64
559.64	421.30
559.80	442.36
559.97	430.66
560.13	362.78
560.30	411.93
560.46	479.81
560.63	386.19
560.79	372.15
560.96	463.43
561.12	400.23
561.29	472.79
561.45	409.59
561.61	325.33
561.78	465.77
561.94	414.27
562.11	468.11
562.27	386.19
562.44	428.32
562.60	465.77
562.77	517.26
562.93	503.22
563.10	397.89
563.26	428.32
563.42	435.34
563.59	454.06
563.75	423.64
563.92	411.93
564.08	447.04
564.24	451.72
564.41	477.47
564.57	351.08
564.74	386.19
564.90	458.74
565.07	435.34
565.23	404.91
565.39	372.15
565.56	461.09
565.72	402.57
565.88	447.04
566.05	463.43
566.21	461.09
566.38	416.62
566.54	442.36
566.70	449.38
566.87	381.51
567.03	428.32
567.19	477.47
567.36	437.68
567.52	402.57
567.68	402.57
567.85	449.38
568.01	454.06
568.17	411.93
568.34	397.89
568.50	400.23
568.66	433.00
568.83	475.13
568.99	468.11
569.15	440.02
569.32	498.53
569.48	430.66
569.64	423.64
569.81	505.56
569.97	395.55
570.13	472.79
570.30	411.93
570.46	444.70
570.62	409.59
570.78	397.89
570.95	383.85
571.11	479.81
571.27	437.68
571.43	397.89
571.60	425.98
571.76	433.00
571.92	421.30
572.09	461.09
572.25	423.64
572.41	425.98
572.57	477.47
572.74	482.15
572.90	353.42
573.06	402.57
573.22	411.93
573.38	395.55
573.55	444.70
573.71	458.74
573.87	451.72
574.03	414.27
574.20	327.68
574.36	411.93
574.52	400.23
574.68	390.87
574.84	433.00
575.01	402.57
575.17	402.57
575.33	407.25
575.49	341.72
575.65	449.38
575.82	425.98
575.98	451.72
576.14	390.87
576.30	510.24
576.46	381.51
576.62	379.17
576.79	421.30
576.95	397.89
577.11	411.93
577.27	425.98
577.43	402.57
577.59	430.66
577.75	425.98
577.92	430.66
578.08	437.68
578.24	400.23
578.40	376.83
578.56	458.74
578.72	437.68
578.88	514.92
579.04	437.68
579.21	421.30
579.37	421.30
579.53	421.30
579.69	463.43
579.85	381.51
580.01	484.49
580.17	330.02
580.33	344.06
580.49	454.06
580.65	437.68
580.82	311.29
580.98	369.80
581.14	468.11
581.30	409.59
581.46	339.38
581.62	425.98
581.78	404.91
581.94	454.06
582.10	379.17
582.26	449.38
582.42	416.62
582.58	472.79
582.74	423.64
582.90	435.34
583.06	425.98
583.22	397.89
583.38	472.79
583.54	383.85
583.70	468.11
583.86	369.80
584.02	365.12
584.18	428.32
584.34	425.98
584.50	400.23
584.66	376.83
584.82	444.70
584.98	430.66
585.14	397.89
585.30	486.83
585.46	440.02
585.62	383.85
585.78	332.36
585.94	414.27
586.10	423.64
586.26	393.21
586.42	458.74
586.58	437.68
586.74	400.23
586.90	442.36
587.06	414.27
587.22	454.06
587.38	437.68
587.54	379.17
587.70	458.74
587.86	482.15
588.02	409.59
588.18	428.32
588.34	414.27
588.49	404.91
588.65	451.72
588.81	425.98
588.97	376.83
589.13	393.21
589.29	402.57
589.45	400.23
589.61	496.19
589.77	435.34
589.93	400.23
590.08	416.62
590.24	369.80
590.40	416.62
590.56	482.15
590.72	428.32
590.88	404.91
591.04	351.08
591.20	442.36
591.35	414.27
591.51	447.04
591.67	449.38
591.83	376.83
591.99	409.59
592.15	472.79
592.31	416.62
592.46	358.10
592.62	447.04
592.78	379.17
592.94	428.32
593.10	397.89
593.26	388.53
593.41	400.23
593.57	397.89
593.73	334.70
593.89	477.47
594.05	442.36
594.20	365.12
594.36	470.45
594.52	433.00
594.68	430.66
594.84	456.40
594.99	376.83
595.15	379.17
595.31	404.91
595.47	416.62
595.62	442.36
595.78	393.21
595.94	428.32
596.10	435.34
596.25	416.62
596.41	416.62
596.57	442.36
596.73	409.59
596.88	463.43
597.04	477.47
597.20	428.32
597.36	442.36
597.51	472.79
597.67	425.98
597.83	388.53
597.99	411.93
598.14	430.66
598.30	465.77
598.46	465.77
598.61	407.25
598.77	409.59
598.93	505.56
599.09	393.21
599.24	465.77
599.40	423.64
599.56	411.93
599.71	423.64
599.87	409.59
600.03	435.34
600.18	397.89
600.34	447.04
600.50	381.51
600.65	393.21
600.81	440.02
600.97	402.57
601.12	423.64
601.28	418.96
601.44	393.21
601.59	388.53
601.75	423.64
601.91	409.59
602.06	479.81
602.22	554.71
602.37	381.51
602.53	447.04
602.69	435.34
602.84	416.62
603.00	423.64
603.16	458.74
603.31	440.02
603.47	404.91
603.62	388.53
603.78	397.89
603.94	428.32
604.09	498.53
604.25	407.25
604.40	435.34
604.56	409.59
604.71	365.12
604.87	355.76
605.03	451.72
605.18	454.06
605.34	470.45
605.49	414.27
605.65	397.89
605.80	447.04
605.96	423.64
606.12	397.89
606.27	379.17
606.43	353.42
606.58	433.00
606.74	386.19
606.89	456.40
607.05	376.83
607.20	423.64
607.36	425.98
607.51	404.91
607.67	454.06
607.82	477.47
607.98	465.77
608.13	454.06
608.29	423.64
608.44	430.66
608.60	423.64
608.75	479.81
608.91	428.32
609.06	414.27
609.22	418.96
609.37	379.17
609.53	388.53
609.68	311.29
609.84	341.72
609.99	428.32
610.15	425.98
