SpectraSuite Data File
++++++++++++++++++++++++++++++++++++
Date: Fri Oct 25 12:10:43 EDT 2013
User: price-jones
Dark Spectrum Present: No
Reference Spectrum Present: No
Number of Sampled Component Spectra: 1
Spectrometers: USB2+H05261
Integration Time (usec): 100000 (USB2+H05261)
Spectra Averaged: 1 (USB2+H05261)
Boxcar Smoothing: 0 (USB2+H05261)
Correct for Electrical Dark: No (USB2+H05261)
Strobe/Lamp Enabled: No (USB2+H05261)
Correct for Detector Non-linearity: No (USB2+H05261)
Correct for Stray Light: No (USB2+H05261)
Number of Pixels in Processed Spectrum: 2048
>>>>>Begin Processed Spectral Data<<<<<
365.73	311.29
365.92	311.29
366.12	311.29
366.32	264.48
366.52	229.37
366.72	198.95
366.91	231.71
367.11	191.92
367.31	257.46
367.51	224.69
367.70	238.73
367.90	280.86
368.10	170.86
368.30	264.48
368.49	292.57
368.69	276.18
368.89	271.50
369.09	255.12
369.28	353.42
369.48	297.25
369.68	229.37
369.87	313.63
370.07	294.91
370.27	369.80
370.47	278.52
370.66	339.38
370.86	381.51
371.06	332.36
371.25	374.49
371.45	332.36
371.65	397.89
371.84	299.59
372.04	395.55
372.24	437.68
372.44	376.83
372.63	301.93
372.83	381.51
373.03	374.49
373.22	456.40
373.42	468.11
373.62	430.66
373.81	449.38
374.01	416.62
374.21	414.27
374.40	411.93
374.60	383.85
374.79	374.49
374.99	425.98
375.19	409.59
375.38	409.59
375.58	454.06
375.78	514.92
375.97	421.30
376.17	442.36
376.37	465.77
376.56	503.22
376.76	400.23
376.95	381.51
377.15	430.66
377.35	435.34
377.54	447.04
377.74	449.38
377.93	468.11
378.13	395.55
378.33	414.27
378.52	428.32
378.72	470.45
378.91	407.25
379.11	400.23
379.31	360.44
379.50	346.40
379.70	411.93
379.89	425.98
380.09	433.00
380.28	393.21
380.48	339.38
380.68	421.30
380.87	346.40
381.07	456.40
381.26	397.89
381.46	383.85
381.65	416.62
381.85	395.55
382.04	388.53
382.24	465.77
382.43	404.91
382.63	409.59
382.83	437.68
383.02	435.34
383.22	428.32
383.41	416.62
383.61	400.23
383.80	393.21
384.00	437.68
384.19	433.00
384.39	365.12
384.58	416.62
384.78	390.87
384.97	404.91
385.17	489.17
385.36	430.66
385.56	477.47
385.75	418.96
385.95	383.85
386.14	491.51
386.34	395.55
386.53	442.36
386.72	416.62
386.92	369.80
387.11	418.96
387.31	449.38
387.50	395.55
387.70	444.70
387.89	374.49
388.09	381.51
388.28	386.19
388.48	425.98
388.67	475.13
388.86	407.25
389.06	451.72
389.25	395.55
389.45	440.02
389.64	416.62
389.84	428.32
390.03	423.64
390.22	393.21
390.42	337.04
390.61	437.68
390.81	372.15
391.00	416.62
391.19	390.87
391.39	374.49
391.58	435.34
391.78	414.27
391.97	409.59
392.16	346.40
392.36	381.51
392.55	402.57
392.75	299.59
392.94	379.17
393.13	423.64
393.33	409.59
393.52	393.21
393.71	428.32
393.91	383.85
394.10	491.51
394.29	372.15
394.49	397.89
394.68	428.32
394.88	484.49
395.07	461.09
395.26	416.62
395.46	393.21
395.65	381.51
395.84	372.15
396.04	454.06
396.23	355.76
396.42	451.72
396.62	444.70
396.81	400.23
397.00	428.32
397.19	383.85
397.39	344.06
397.58	425.98
397.77	367.46
397.97	397.89
398.16	358.10
398.35	383.85
398.55	374.49
398.74	393.21
398.93	428.32
399.12	411.93
399.32	348.74
399.51	397.89
399.70	435.34
399.90	416.62
400.09	430.66
400.28	376.83
400.47	393.21
400.67	411.93
400.86	510.24
401.05	465.77
401.24	409.59
401.44	442.36
401.63	397.89
401.82	444.70
402.01	423.64
402.21	404.91
402.40	341.72
402.59	367.46
402.78	390.87
402.97	393.21
403.17	372.15
403.36	393.21
403.55	437.68
403.74	409.59
403.93	425.98
404.13	367.46
404.32	423.64
404.51	430.66
404.70	351.08
404.89	351.08
405.09	416.62
405.28	421.30
405.47	376.83
405.66	304.27
405.85	395.55
406.05	416.62
406.24	367.46
406.43	425.98
406.62	365.12
406.81	482.15
407.00	388.53
407.20	418.96
407.39	451.72
407.58	395.55
407.77	440.02
407.96	437.68
408.15	463.43
408.34	334.70
408.54	407.25
408.73	477.47
408.92	360.44
409.11	390.87
409.30	442.36
409.49	416.62
409.68	425.98
409.87	409.59
410.07	444.70
410.26	416.62
410.45	353.42
410.64	315.97
410.83	454.06
411.02	388.53
411.21	397.89
411.40	358.10
411.59	444.70
411.78	365.12
411.98	381.51
412.17	411.93
412.36	388.53
412.55	463.43
412.74	442.36
412.93	404.91
413.12	386.19
413.31	461.09
413.50	348.74
413.69	477.47
413.88	418.96
414.07	414.27
414.26	386.19
414.45	390.87
414.64	381.51
414.83	435.34
415.02	404.91
415.22	397.89
415.41	414.27
415.60	435.34
415.79	435.34
415.98	458.74
416.17	393.21
416.36	360.44
416.55	402.57
416.74	437.68
416.93	421.30
417.12	383.85
417.31	461.09
417.50	334.70
417.69	416.62
417.88	393.21
418.07	379.17
418.26	437.68
418.45	479.81
418.64	451.72
418.83	454.06
419.02	402.57
419.21	341.72
419.39	444.70
419.58	393.21
419.77	313.63
419.96	372.15
420.15	447.04
420.34	451.72
420.53	416.62
420.72	430.66
420.91	355.76
421.10	414.27
421.29	447.04
421.48	435.34
421.67	468.11
421.86	383.85
422.05	416.62
422.24	362.78
422.43	484.49
422.61	440.02
422.80	388.53
422.99	442.36
423.18	416.62
423.37	491.51
423.56	444.70
423.75	416.62
423.94	397.89
424.13	400.23
424.32	390.87
424.50	353.42
424.69	395.55
424.88	433.00
425.07	390.87
425.26	355.76
425.45	411.93
425.64	379.17
425.83	360.44
426.01	386.19
426.20	355.76
426.39	390.87
426.58	472.79
426.77	484.49
426.96	433.00
427.15	409.59
427.33	449.38
427.52	346.40
427.71	351.08
427.90	416.62
428.09	461.09
428.28	369.80
428.46	442.36
428.65	383.85
428.84	351.08
429.03	402.57
429.22	414.27
429.40	402.57
429.59	332.36
429.78	360.44
429.97	449.38
430.16	472.79
430.34	433.00
430.53	433.00
430.72	386.19
430.91	468.11
431.10	346.40
431.28	435.34
431.47	365.12
431.66	421.30
431.85	388.53
432.03	418.96
432.22	461.09
432.41	425.98
432.60	404.91
432.79	358.10
432.97	339.38
433.16	416.62
433.35	428.32
433.54	428.32
433.72	440.02
433.91	416.62
434.10	472.79
434.28	404.91
434.47	393.21
434.66	395.55
434.85	395.55
435.03	430.66
435.22	414.27
435.41	447.04
435.59	381.51
435.78	400.23
435.97	435.34
436.16	411.93
436.34	465.77
436.53	416.62
436.72	393.21
436.90	500.87
437.09	411.93
437.28	491.51
437.46	428.32
437.65	411.93
437.84	402.57
438.02	440.02
438.21	440.02
438.40	463.43
438.58	376.83
438.77	402.57
438.96	425.98
439.14	393.21
439.33	365.12
439.52	423.64
439.70	451.72
439.89	418.96
440.08	430.66
440.26	472.79
440.45	433.00
440.63	468.11
440.82	411.93
441.01	393.21
441.19	423.64
441.38	379.17
441.57	411.93
441.75	475.13
441.94	496.19
442.12	388.53
442.31	440.02
442.50	393.21
442.68	402.57
442.87	475.13
443.05	472.79
443.24	407.25
443.43	418.96
443.61	381.51
443.80	400.23
443.98	402.57
444.17	355.76
444.35	425.98
444.54	442.36
444.73	416.62
444.91	458.74
445.10	404.91
445.28	351.08
445.47	437.68
445.65	451.72
445.84	411.93
446.02	475.13
446.21	421.30
446.39	421.30
446.58	465.77
446.77	409.59
446.95	409.59
447.14	369.80
447.32	374.49
447.51	451.72
447.69	421.30
447.88	442.36
448.06	454.06
448.25	367.46
448.43	404.91
448.62	320.65
448.80	374.49
448.99	517.26
449.17	409.59
449.36	386.19
449.54	428.32
449.73	421.30
449.91	442.36
450.10	330.02
450.28	425.98
450.46	362.78
450.65	451.72
450.83	381.51
451.02	463.43
451.20	421.30
451.39	440.02
451.57	416.62
451.76	430.66
451.94	379.17
452.13	489.17
452.31	451.72
452.49	472.79
452.68	416.62
452.86	435.34
453.05	418.96
453.23	383.85
453.42	362.78
453.60	358.10
453.78	456.40
453.97	440.02
454.15	402.57
454.34	444.70
454.52	367.46
454.70	376.83
454.89	402.57
455.07	379.17
455.26	411.93
455.44	437.68
455.62	411.93
455.81	430.66
455.99	397.89
456.17	521.94
456.36	442.36
456.54	433.00
456.73	414.27
456.91	360.44
457.09	442.36
457.28	423.64
457.46	423.64
457.64	433.00
457.83	430.66
458.01	395.55
458.19	397.89
458.38	320.65
458.56	397.89
458.74	433.00
458.93	369.80
459.11	440.02
459.29	425.98
459.48	416.62
459.66	442.36
459.84	463.43
460.03	456.40
460.21	414.27
460.39	376.83
460.57	472.79
460.76	418.96
460.94	463.43
461.12	423.64
461.31	395.55
461.49	318.31
461.67	416.62
461.85	477.47
462.04	376.83
462.22	760.67
462.40	409.59
462.59	470.45
462.77	407.25
462.95	447.04
463.13	477.47
463.32	400.23
463.50	425.98
463.68	500.87
463.86	430.66
464.05	416.62
464.23	437.68
464.41	458.74
464.59	353.42
464.78	400.23
464.96	433.00
465.14	393.21
465.32	400.23
465.50	400.23
465.69	416.62
465.87	416.62
466.05	402.57
466.23	395.55
466.41	435.34
466.60	442.36
466.78	381.51
466.96	444.70
467.14	400.23
467.32	461.09
467.51	388.53
467.69	451.72
467.87	454.06
468.05	440.02
468.23	437.68
468.41	449.38
468.60	395.55
468.78	362.78
468.96	383.85
469.14	365.12
469.32	383.85
469.50	397.89
469.69	454.06
469.87	456.40
470.05	414.27
470.23	402.57
470.41	414.27
470.59	306.61
470.77	430.66
470.95	414.27
471.14	414.27
471.32	472.79
471.50	395.55
471.68	414.27
471.86	386.19
472.04	379.17
472.22	379.17
472.40	388.53
472.58	425.98
472.77	416.62
472.95	407.25
473.13	486.83
473.31	393.21
473.49	379.17
473.67	348.74
473.85	430.66
474.03	423.64
474.21	379.17
474.39	397.89
474.57	440.02
474.75	447.04
474.93	383.85
475.12	388.53
475.30	475.13
475.48	430.66
475.66	435.34
475.84	416.62
476.02	400.23
476.20	535.98
476.38	379.17
476.56	458.74
476.74	400.23
476.92	418.96
477.10	418.96
477.28	367.46
477.46	365.12
477.64	421.30
477.82	348.74
478.00	397.89
478.18	451.72
478.36	418.96
478.54	425.98
478.72	404.91
478.90	444.70
479.08	397.89
479.26	407.25
479.44	355.76
479.62	468.11
479.80	390.87
479.98	374.49
480.16	386.19
480.34	404.91
480.52	390.87
480.70	423.64
480.88	381.51
481.06	409.59
481.24	374.49
481.41	425.98
481.59	449.38
481.77	393.21
481.95	374.49
482.13	414.27
482.31	388.53
482.49	430.66
482.67	454.06
482.85	393.21
483.03	386.19
483.21	390.87
483.39	447.04
483.57	334.70
483.74	411.93
483.92	463.43
484.10	409.59
484.28	411.93
484.46	400.23
484.64	365.12
484.82	423.64
485.00	418.96
485.18	383.85
485.35	418.96
485.53	421.30
485.71	430.66
485.89	393.21
486.07	407.25
486.25	444.70
486.43	458.74
486.61	456.40
486.78	400.23
486.96	374.49
487.14	425.98
487.32	416.62
487.50	418.96
487.68	447.04
487.85	365.12
488.03	430.66
488.21	393.21
488.39	353.42
488.57	449.38
488.75	348.74
488.92	454.06
489.10	421.30
489.28	430.66
489.46	430.66
489.64	400.23
489.81	425.98
489.99	400.23
490.17	411.93
490.35	491.51
490.53	400.23
490.70	372.15
490.88	404.91
491.06	454.06
491.24	400.23
491.41	458.74
491.59	381.51
491.77	437.68
491.95	348.74
492.13	463.43
492.30	454.06
492.48	341.72
492.66	369.80
492.84	444.70
493.01	484.49
493.19	449.38
493.37	468.11
493.54	404.91
493.72	404.91
493.90	416.62
494.08	433.00
494.25	430.66
494.43	369.80
494.61	411.93
494.79	374.49
494.96	348.74
495.14	402.57
495.32	376.83
495.49	430.66
495.67	440.02
495.85	388.53
496.02	341.72
496.20	404.91
496.38	465.77
496.55	470.45
496.73	404.91
496.91	372.15
497.09	433.00
497.26	379.17
497.44	330.02
497.62	400.23
497.79	421.30
497.97	458.74
498.14	416.62
498.32	414.27
498.50	414.27
498.67	374.49
498.85	358.10
499.03	423.64
499.20	372.15
499.38	360.44
499.56	400.23
499.73	496.19
499.91	470.45
500.08	440.02
500.26	397.89
500.44	477.47
500.61	435.34
500.79	442.36
500.97	428.32
501.14	388.53
501.32	383.85
501.49	411.93
501.67	381.51
501.84	360.44
502.02	470.45
502.20	454.06
502.37	400.23
502.55	362.78
502.72	423.64
502.90	404.91
503.07	404.91
503.25	449.38
503.43	437.68
503.60	395.55
503.78	388.53
503.95	372.15
504.13	402.57
504.30	390.87
504.48	416.62
504.65	461.09
504.83	465.77
505.01	341.72
505.18	404.91
505.36	440.02
505.53	339.38
505.71	421.30
505.88	477.47
506.06	379.17
506.23	411.93
506.41	395.55
506.58	407.25
506.76	430.66
506.93	444.70
507.11	451.72
507.28	346.40
507.46	444.70
507.63	463.43
507.81	437.68
507.98	344.06
508.16	400.23
508.33	442.36
508.50	414.27
508.68	519.60
508.85	421.30
509.03	386.19
509.20	428.32
509.38	461.09
509.55	367.46
509.73	393.21
509.90	425.98
510.08	409.59
510.25	414.27
510.42	409.59
510.60	465.77
510.77	444.70
510.95	407.25
511.12	393.21
511.30	360.44
511.47	294.91
511.64	449.38
511.82	372.15
511.99	411.93
512.17	395.55
512.34	362.78
512.51	369.80
512.69	496.19
512.86	470.45
513.04	395.55
513.21	425.98
513.38	435.34
513.56	421.30
513.73	416.62
513.90	433.00
514.08	458.74
514.25	503.22
514.43	447.04
514.60	404.91
514.77	404.91
514.95	388.53
515.12	381.51
515.29	416.62
515.47	496.19
515.64	440.02
515.81	414.27
515.99	461.09
516.16	421.30
516.33	454.06
516.51	425.98
516.68	383.85
516.85	402.57
517.03	442.36
517.20	475.13
517.37	414.27
517.54	433.00
517.72	407.25
517.89	358.10
518.06	390.87
518.24	489.17
518.41	451.72
518.58	411.93
518.75	404.91
518.93	416.62
519.10	454.06
519.27	425.98
519.45	360.44
519.62	449.38
519.79	409.59
519.96	421.30
520.14	397.89
520.31	379.17
520.48	388.53
520.65	428.32
520.83	407.25
521.00	456.40
521.17	454.06
521.34	397.89
521.52	442.36
521.69	400.23
521.86	425.98
522.03	355.76
522.20	334.70
522.38	358.10
522.55	360.44
522.72	383.85
522.89	348.74
523.07	505.56
523.24	388.53
523.41	397.89
523.58	383.85
523.75	400.23
523.92	437.68
524.10	454.06
524.27	386.19
524.44	367.46
524.61	449.38
524.78	393.21
524.96	379.17
525.13	402.57
525.30	456.40
525.47	409.59
525.64	423.64
525.81	437.68
525.98	493.85
526.16	376.83
526.33	386.19
526.50	440.02
526.67	381.51
526.84	365.12
527.01	390.87
527.18	411.93
527.36	447.04
527.53	348.74
527.70	468.11
527.87	379.17
528.04	461.09
528.21	332.36
528.38	498.53
528.55	411.93
528.72	500.87
528.89	510.24
529.07	341.72
529.24	416.62
529.41	451.72
529.58	416.62
529.75	386.19
529.92	461.09
530.09	519.60
530.26	425.98
530.43	437.68
530.60	442.36
530.77	400.23
530.94	386.19
531.11	400.23
531.28	388.53
531.46	456.40
531.63	404.91
531.80	381.51
531.97	386.19
532.14	402.57
532.31	379.17
532.48	491.51
532.65	416.62
532.82	411.93
532.99	404.91
533.16	421.30
533.33	456.40
533.50	444.70
533.67	440.02
533.84	451.72
534.01	507.90
534.18	407.25
534.35	381.51
534.52	477.47
534.69	416.62
534.86	362.78
535.03	421.30
535.20	421.30
535.37	433.00
535.54	411.93
535.71	484.49
535.88	472.79
536.05	311.29
536.22	372.15
536.38	425.98
536.55	379.17
536.72	472.79
536.89	374.49
537.06	409.59
537.23	374.49
537.40	355.76
537.57	362.78
537.74	461.09
537.91	468.11
538.08	386.19
538.25	454.06
538.42	379.17
538.59	337.04
538.75	367.46
538.92	341.72
539.09	386.19
539.26	440.02
539.43	449.38
539.60	437.68
539.77	376.83
539.94	397.89
540.11	440.02
540.28	449.38
540.44	425.98
540.61	475.13
540.78	428.32
540.95	409.59
541.12	416.62
541.29	442.36
541.46	395.55
541.62	362.78
541.79	456.40
541.96	400.23
542.13	479.81
542.30	444.70
542.47	463.43
542.63	468.11
542.80	496.19
542.97	421.30
543.14	444.70
543.31	409.59
543.48	451.72
543.64	428.32
543.81	383.85
543.98	386.19
544.15	383.85
544.32	365.12
544.48	404.91
544.65	437.68
544.82	355.76
544.99	339.38
545.16	397.89
545.32	390.87
545.49	454.06
545.66	447.04
545.83	430.66
546.00	383.85
546.16	390.87
546.33	425.98
546.50	425.98
546.67	468.11
546.83	440.02
547.00	479.81
547.17	397.89
547.34	369.80
547.50	400.23
547.67	379.17
547.84	430.66
548.00	435.34
548.17	433.00
548.34	479.81
548.51	442.36
548.67	430.66
548.84	400.23
549.01	400.23
549.18	447.04
549.34	409.59
549.51	376.83
549.68	416.62
549.84	372.15
550.01	395.55
550.18	444.70
550.34	496.19
550.51	397.89
550.68	404.91
550.84	421.30
551.01	458.74
551.18	407.25
551.34	440.02
551.51	393.21
551.68	493.85
551.84	407.25
552.01	402.57
552.18	395.55
552.34	390.87
552.51	346.40
552.68	451.72
552.84	358.10
553.01	418.96
553.18	465.77
553.34	461.09
553.51	407.25
553.67	456.40
553.84	433.00
554.01	386.19
554.17	461.09
554.34	383.85
554.51	393.21
554.67	510.24
554.84	433.00
555.00	425.98
555.17	425.98
555.33	395.55
555.50	397.89
555.67	440.02
555.83	435.34
556.00	421.30
556.16	526.62
556.33	463.43
556.50	381.51
556.66	393.21
556.83	402.57
556.99	397.89
557.16	395.55
557.32	463.43
557.49	365.12
557.65	470.45
557.82	402.57
557.98	379.17
558.15	339.38
558.32	423.64
558.48	390.87
558.65	475.13
558.81	418.96
558.98	376.83
559.14	463.43
559.31	379.17
559.47	444.70
559.64	402.57
559.80	381.51
559.97	365.12
560.13	411.93
560.30	425.98
560.46	395.55
560.63	430.66
560.79	449.38
560.96	418.96
561.12	475.13
561.29	491.51
561.45	416.62
561.61	409.59
561.78	514.92
561.94	362.78
562.11	477.47
562.27	437.68
562.44	477.47
562.60	479.81
562.77	418.96
562.93	491.51
563.10	353.42
563.26	365.12
563.42	362.78
563.59	468.11
563.75	386.19
563.92	397.89
564.08	379.17
564.24	447.04
564.41	397.89
564.57	402.57
564.74	395.55
564.90	449.38
565.07	341.72
565.23	407.25
565.39	437.68
565.56	379.17
565.72	472.79
565.88	411.93
566.05	390.87
566.21	404.91
566.38	390.87
566.54	393.21
566.70	395.55
566.87	416.62
567.03	397.89
567.19	425.98
567.36	451.72
567.52	360.44
567.68	449.38
567.85	341.72
568.01	414.27
568.17	400.23
568.34	430.66
568.50	376.83
568.66	409.59
568.83	444.70
568.99	461.09
569.15	461.09
569.32	367.46
569.48	416.62
569.64	393.21
569.81	400.23
569.97	435.34
570.13	425.98
570.30	418.96
570.46	372.15
570.62	332.36
570.78	470.45
570.95	388.53
571.11	486.83
571.27	451.72
571.43	451.72
571.60	409.59
571.76	418.96
571.92	365.12
572.09	442.36
572.25	351.08
572.41	404.91
572.57	346.40
572.74	397.89
572.90	414.27
573.06	386.19
573.22	416.62
573.38	447.04
573.55	482.15
573.71	458.74
573.87	411.93
574.03	372.15
574.20	393.21
574.36	468.11
574.52	358.10
574.68	458.74
574.84	402.57
575.01	395.55
575.17	458.74
575.33	404.91
575.49	451.72
575.65	442.36
575.82	479.81
575.98	447.04
576.14	425.98
576.30	454.06
576.46	379.17
576.62	409.59
576.79	416.62
576.95	367.46
577.11	475.13
577.27	381.51
577.43	482.15
577.59	430.66
577.75	510.24
577.92	416.62
578.08	362.78
578.24	337.04
578.40	479.81
578.56	465.77
578.72	437.68
578.88	507.90
579.04	440.02
579.21	418.96
579.37	430.66
579.53	358.10
579.69	433.00
579.85	369.80
580.01	404.91
580.17	433.00
580.33	362.78
580.49	442.36
580.65	444.70
580.82	475.13
580.98	388.53
581.14	444.70
581.30	521.94
581.46	397.89
581.62	510.24
581.78	449.38
581.94	451.72
582.10	393.21
582.26	484.49
582.42	397.89
582.58	475.13
582.74	414.27
582.90	416.62
583.06	407.25
583.22	418.96
583.38	435.34
583.54	433.00
583.70	451.72
583.86	435.34
584.02	402.57
584.18	458.74
584.34	414.27
584.50	372.15
584.66	381.51
584.82	407.25
584.98	411.93
585.14	409.59
585.30	526.62
585.46	486.83
585.62	418.96
585.78	351.08
585.94	402.57
586.10	442.36
586.26	418.96
586.42	416.62
586.58	400.23
586.74	393.21
586.90	315.97
587.06	418.96
587.22	440.02
587.38	418.96
587.54	407.25
587.70	440.02
587.86	449.38
588.02	411.93
588.18	395.55
588.34	400.23
588.49	339.38
588.65	414.27
588.81	404.91
588.97	351.08
589.13	440.02
589.29	346.40
589.45	418.96
589.61	402.57
589.77	442.36
589.93	442.36
590.08	498.53
590.24	341.72
590.40	416.62
590.56	386.19
590.72	435.34
590.88	428.32
591.04	491.51
591.20	383.85
591.35	449.38
591.51	456.40
591.67	409.59
591.83	449.38
591.99	395.55
592.15	411.93
592.31	404.91
592.46	383.85
592.62	425.98
592.78	465.77
592.94	346.40
593.10	390.87
593.26	444.70
593.41	421.30
593.57	344.06
593.73	440.02
593.89	447.04
594.05	379.17
594.20	430.66
594.36	489.17
594.52	425.98
594.68	447.04
594.84	411.93
594.99	430.66
595.15	395.55
595.31	404.91
595.47	479.81
595.62	451.72
595.78	367.46
595.94	428.32
596.10	404.91
596.25	437.68
596.41	470.45
596.57	437.68
596.73	416.62
596.88	442.36
597.04	456.40
597.20	402.57
597.36	423.64
597.51	437.68
597.67	430.66
597.83	393.21
597.99	400.23
598.14	411.93
598.30	454.06
598.46	376.83
598.61	409.59
598.77	360.44
598.93	447.04
599.09	416.62
599.24	344.06
599.40	444.70
599.56	388.53
599.71	416.62
599.87	482.15
600.03	456.40
600.18	456.40
600.34	379.17
600.50	428.32
600.65	388.53
600.81	442.36
600.97	440.02
601.12	409.59
601.28	498.53
601.44	386.19
601.59	402.57
601.75	447.04
601.91	381.51
602.06	449.38
602.22	475.13
602.37	386.19
602.53	454.06
602.69	381.51
602.84	339.38
603.00	425.98
603.16	512.58
603.31	376.83
603.47	430.66
603.62	437.68
603.78	451.72
603.94	407.25
604.09	454.06
604.25	383.85
604.40	334.70
604.56	411.93
604.71	367.46
604.87	379.17
605.03	447.04
605.18	444.70
605.34	470.45
605.49	447.04
605.65	454.06
605.80	440.02
605.96	369.80
606.12	414.27
606.27	362.78
606.43	395.55
606.58	447.04
606.74	411.93
606.89	442.36
607.05	416.62
607.20	428.32
607.36	330.02
607.51	423.64
607.67	404.91
607.82	416.62
607.98	517.26
608.13	418.96
608.29	367.46
608.44	444.70
608.60	486.83
608.75	437.68
608.91	418.96
609.06	463.43
609.22	430.66
609.37	395.55
609.53	376.83
609.68	423.64
609.84	423.64
609.99	440.02
610.15	503.22
