SpectraSuite Data File
++++++++++++++++++++++++++++++++++++
Date: Fri Oct 25 12:11:10 EDT 2013
User: price-jones
Dark Spectrum Present: No
Reference Spectrum Present: No
Number of Sampled Component Spectra: 1
Spectrometers: USB2+H05261
Integration Time (usec): 100000 (USB2+H05261)
Spectra Averaged: 1 (USB2+H05261)
Boxcar Smoothing: 0 (USB2+H05261)
Correct for Electrical Dark: No (USB2+H05261)
Strobe/Lamp Enabled: No (USB2+H05261)
Correct for Detector Non-linearity: No (USB2+H05261)
Correct for Stray Light: No (USB2+H05261)
Number of Pixels in Processed Spectrum: 2048
>>>>>Begin Processed Spectral Data<<<<<
365.73	355.76
365.92	355.76
366.12	355.76
366.32	241.08
366.52	175.54
366.72	294.91
366.91	231.71
367.11	241.08
367.31	177.88
367.51	217.67
367.70	222.35
367.90	287.89
368.10	245.76
368.30	231.71
368.49	238.73
368.69	257.46
368.89	271.50
369.09	245.76
369.28	255.12
369.48	245.76
369.68	287.89
369.87	234.05
370.07	252.78
370.27	325.33
370.47	358.10
370.66	325.33
370.86	416.62
371.06	320.65
371.25	372.15
371.45	393.21
371.65	414.27
371.84	381.51
372.04	414.27
372.24	360.44
372.44	386.19
372.63	477.47
372.83	421.30
373.03	454.06
373.22	456.40
373.42	458.74
373.62	341.72
373.81	454.06
374.01	524.28
374.21	444.70
374.40	416.62
374.60	444.70
374.79	425.98
374.99	444.70
375.19	383.85
375.38	440.02
375.58	458.74
375.78	465.77
375.97	404.91
376.17	435.34
376.37	386.19
376.56	430.66
376.76	360.44
376.95	374.49
377.15	369.80
377.35	451.72
377.54	421.30
377.74	320.65
377.93	435.34
378.13	365.12
378.33	416.62
378.52	416.62
378.72	355.76
378.91	451.72
379.11	442.36
379.31	404.91
379.50	369.80
379.70	479.81
379.89	449.38
380.09	381.51
380.28	393.21
380.48	423.64
380.68	390.87
380.87	393.21
381.07	355.76
381.26	423.64
381.46	400.23
381.65	407.25
381.85	365.12
382.04	372.15
382.24	374.49
382.43	435.34
382.63	369.80
382.83	402.57
383.02	416.62
383.22	414.27
383.41	449.38
383.61	456.40
383.80	411.93
384.00	430.66
384.19	376.83
384.39	465.77
384.58	454.06
384.78	447.04
384.97	390.87
385.17	407.25
385.36	451.72
385.56	423.64
385.75	402.57
385.95	414.27
386.14	404.91
386.34	428.32
386.53	440.02
386.72	376.83
386.92	482.15
387.11	402.57
387.31	372.15
387.50	365.12
387.70	388.53
387.89	414.27
388.09	430.66
388.28	332.36
388.48	360.44
388.67	451.72
388.86	442.36
389.06	428.32
389.25	393.21
389.45	416.62
389.64	414.27
389.84	437.68
390.03	407.25
390.22	463.43
390.42	404.91
390.61	433.00
390.81	416.62
391.00	428.32
391.19	435.34
391.39	381.51
391.58	411.93
391.78	456.40
391.97	447.04
392.16	388.53
392.36	461.09
392.55	397.89
392.75	404.91
392.94	379.17
393.13	346.40
393.33	369.80
393.52	369.80
393.71	496.19
393.91	442.36
394.10	428.32
394.29	374.49
394.49	435.34
394.68	433.00
394.88	365.12
395.07	486.83
395.26	383.85
395.46	402.57
395.65	386.19
395.84	449.38
396.04	407.25
396.23	477.47
396.42	414.27
396.62	489.17
396.81	461.09
397.00	484.49
397.19	489.17
397.39	386.19
397.58	383.85
397.77	388.53
397.97	428.32
398.16	395.55
398.35	416.62
398.55	360.44
398.74	402.57
398.93	353.42
399.12	393.21
399.32	404.91
399.51	404.91
399.70	447.04
399.90	437.68
400.09	381.51
400.28	470.45
400.47	409.59
400.67	430.66
400.86	381.51
401.05	386.19
401.24	414.27
401.44	425.98
401.63	411.93
401.82	444.70
402.01	372.15
402.21	486.83
402.40	348.74
402.59	390.87
402.78	465.77
402.97	362.78
403.17	369.80
403.36	383.85
403.55	376.83
403.74	386.19
403.93	388.53
404.13	451.72
404.32	381.51
404.51	365.12
404.70	374.49
404.89	430.66
405.09	404.91
405.28	411.93
405.47	400.23
405.66	388.53
405.85	395.55
406.05	430.66
406.24	344.06
406.43	425.98
406.62	472.79
406.81	402.57
407.00	423.64
407.20	362.78
407.39	355.76
407.58	395.55
407.77	414.27
407.96	397.89
408.15	407.25
408.34	353.42
408.54	463.43
408.73	381.51
408.92	437.68
409.11	447.04
409.30	461.09
409.49	404.91
409.68	383.85
409.87	416.62
410.07	367.46
410.26	404.91
410.45	355.76
410.64	428.32
410.83	304.27
411.02	430.66
411.21	477.47
411.40	322.99
411.59	409.59
411.78	393.21
411.98	442.36
412.17	367.46
412.36	393.21
412.55	390.87
412.74	447.04
412.93	409.59
413.12	362.78
413.31	330.02
413.50	393.21
413.69	409.59
413.88	444.70
414.07	409.59
414.26	477.47
414.45	393.21
414.64	491.51
414.83	414.27
415.02	428.32
415.22	374.49
415.41	407.25
415.60	428.32
415.79	409.59
415.98	454.06
416.17	374.49
416.36	372.15
416.55	374.49
416.74	435.34
416.93	383.85
417.12	383.85
417.31	374.49
417.50	409.59
417.69	472.79
417.88	386.19
418.07	409.59
418.26	456.40
418.45	447.04
418.64	428.32
418.83	456.40
419.02	404.91
419.21	458.74
419.39	400.23
419.58	395.55
419.77	327.68
419.96	423.64
420.15	409.59
420.34	362.78
420.53	449.38
420.72	355.76
420.91	472.79
421.10	372.15
421.29	367.46
421.48	402.57
421.67	383.85
421.86	409.59
422.05	421.30
422.24	421.30
422.43	428.32
422.61	421.30
422.80	390.87
422.99	360.44
423.18	404.91
423.37	407.25
423.56	397.89
423.75	369.80
423.94	355.76
424.13	435.34
424.32	404.91
424.50	430.66
424.69	451.72
424.88	421.30
425.07	376.83
425.26	444.70
425.45	404.91
425.64	381.51
425.83	404.91
426.01	409.59
426.20	433.00
426.39	442.36
426.58	423.64
426.77	433.00
426.96	479.81
427.15	425.98
427.33	482.15
427.52	421.30
427.71	404.91
427.90	407.25
428.09	318.31
428.28	428.32
428.46	435.34
428.65	386.19
428.84	444.70
429.03	404.91
429.22	397.89
429.40	444.70
429.59	346.40
429.78	475.13
429.97	393.21
430.16	418.96
430.34	376.83
430.53	397.89
430.72	470.45
430.91	362.78
431.10	454.06
431.28	372.15
431.47	416.62
431.66	402.57
431.85	386.19
432.03	379.17
432.22	433.00
432.41	418.96
432.60	416.62
432.79	348.74
432.97	430.66
433.16	376.83
433.35	346.40
433.54	435.34
433.72	423.64
433.91	428.32
434.10	395.55
434.28	421.30
434.47	390.87
434.66	416.62
434.85	388.53
435.03	444.70
435.22	465.77
435.41	437.68
435.59	435.34
435.78	402.57
435.97	344.06
436.16	451.72
436.34	402.57
436.53	470.45
436.72	430.66
436.90	400.23
437.09	414.27
437.28	418.96
437.46	402.57
437.65	421.30
437.84	433.00
438.02	388.53
438.21	437.68
438.40	414.27
438.58	360.44
438.77	465.77
438.96	447.04
439.14	404.91
439.33	423.64
439.52	376.83
439.70	390.87
439.89	449.38
440.08	369.80
440.26	437.68
440.45	423.64
440.63	447.04
440.82	402.57
441.01	374.49
441.19	386.19
441.38	400.23
441.57	390.87
441.75	465.77
441.94	409.59
442.12	367.46
442.31	348.74
442.50	425.98
442.68	482.15
442.87	489.17
443.05	390.87
443.24	411.93
443.43	449.38
443.61	397.89
443.80	407.25
443.98	411.93
444.17	348.74
444.35	505.56
444.54	402.57
444.73	458.74
444.91	428.32
445.10	400.23
445.28	493.85
445.47	407.25
445.65	470.45
445.84	409.59
446.02	369.80
446.21	379.17
446.39	437.68
446.58	360.44
446.77	400.23
446.95	369.80
447.14	428.32
447.32	386.19
447.51	395.55
447.69	388.53
447.88	407.25
448.06	421.30
448.25	423.64
448.43	423.64
448.62	458.74
448.80	393.21
448.99	395.55
449.17	479.81
449.36	400.23
449.54	444.70
449.73	416.62
449.91	433.00
450.10	407.25
450.28	465.77
450.46	451.72
450.65	433.00
450.83	355.76
451.02	407.25
451.20	400.23
451.39	334.70
451.57	496.19
451.76	430.66
451.94	414.27
452.13	442.36
452.31	449.38
452.49	447.04
452.68	395.55
452.86	404.91
453.05	458.74
453.23	435.34
453.42	472.79
453.60	435.34
453.78	390.87
453.97	411.93
454.15	369.80
454.34	418.96
454.52	369.80
454.70	404.91
454.89	388.53
455.07	440.02
455.26	433.00
455.44	500.87
455.62	386.19
455.81	433.00
455.99	379.17
456.17	386.19
456.36	344.06
456.54	470.45
456.73	397.89
456.91	360.44
457.09	365.12
457.28	458.74
457.46	435.34
457.64	402.57
457.83	393.21
458.01	353.42
458.19	421.30
458.38	409.59
458.56	496.19
458.74	407.25
458.93	433.00
459.11	444.70
459.29	435.34
459.48	517.26
459.66	430.66
459.84	386.19
460.03	484.49
460.21	395.55
460.39	390.87
460.57	451.72
460.76	400.23
460.94	425.98
461.12	477.47
461.31	425.98
461.49	472.79
461.67	376.83
461.85	435.34
462.04	395.55
462.22	772.38
462.40	500.87
462.59	423.64
462.77	374.49
462.95	430.66
463.13	390.87
463.32	430.66
463.50	411.93
463.68	376.83
463.86	440.02
464.05	425.98
464.23	449.38
464.41	421.30
464.59	367.46
464.78	433.00
464.96	393.21
465.14	433.00
465.32	400.23
465.50	433.00
465.69	482.15
465.87	407.25
466.05	367.46
466.23	404.91
466.41	402.57
466.60	428.32
466.78	400.23
466.96	444.70
467.14	479.81
467.32	404.91
467.51	447.04
467.69	489.17
467.87	409.59
468.05	433.00
468.23	475.13
468.41	390.87
468.60	423.64
468.78	418.96
468.96	416.62
469.14	468.11
469.32	355.76
469.50	360.44
469.69	393.21
469.87	393.21
470.05	451.72
470.23	411.93
470.41	418.96
470.59	369.80
470.77	472.79
470.95	463.43
471.14	402.57
471.32	409.59
471.50	411.93
471.68	383.85
471.86	463.43
472.04	372.15
472.22	444.70
472.40	470.45
472.58	421.30
472.77	411.93
472.95	496.19
473.13	482.15
473.31	402.57
473.49	395.55
473.67	402.57
473.85	440.02
474.03	479.81
474.21	418.96
474.39	428.32
474.57	440.02
474.75	374.49
474.93	411.93
475.12	451.72
475.30	484.49
475.48	454.06
475.66	472.79
475.84	372.15
476.02	470.45
476.20	437.68
476.38	444.70
476.56	463.43
476.74	390.87
476.92	393.21
477.10	428.32
477.28	461.09
477.46	423.64
477.64	468.11
477.82	425.98
478.00	418.96
478.18	386.19
478.36	423.64
478.54	425.98
478.72	433.00
478.90	449.38
479.08	482.15
479.26	479.81
479.44	388.53
479.62	339.38
479.80	423.64
479.98	451.72
480.16	362.78
480.34	393.21
480.52	444.70
480.70	418.96
480.88	327.68
481.06	367.46
481.24	379.17
481.41	458.74
481.59	465.77
481.77	337.04
481.95	465.77
482.13	437.68
482.31	411.93
482.49	325.33
482.67	393.21
482.85	409.59
483.03	404.91
483.21	447.04
483.39	463.43
483.57	388.53
483.74	496.19
483.92	465.77
484.10	451.72
484.28	414.27
484.46	409.59
484.64	400.23
484.82	416.62
485.00	374.49
485.18	458.74
485.35	374.49
485.53	379.17
485.71	360.44
485.89	374.49
486.07	451.72
486.25	407.25
486.43	440.02
486.61	437.68
486.78	407.25
486.96	346.40
487.14	318.31
487.32	468.11
487.50	477.47
487.68	383.85
487.85	348.74
488.03	416.62
488.21	463.43
488.39	468.11
488.57	461.09
488.75	507.90
488.92	428.32
489.10	383.85
489.28	428.32
489.46	397.89
489.64	390.87
489.81	360.44
489.99	376.83
490.17	437.68
490.35	386.19
490.53	482.15
490.70	330.02
490.88	440.02
491.06	498.53
491.24	428.32
491.41	421.30
491.59	442.36
491.77	379.17
491.95	421.30
492.13	411.93
492.30	390.87
492.48	379.17
492.66	444.70
492.84	442.36
493.01	418.96
493.19	428.32
493.37	372.15
493.54	465.77
493.72	409.59
493.90	444.70
494.08	414.27
494.25	437.68
494.43	407.25
494.61	393.21
494.79	388.53
494.96	360.44
495.14	442.36
495.32	402.57
495.49	428.32
495.67	449.38
495.85	475.13
496.02	418.96
496.20	433.00
496.38	411.93
496.55	423.64
496.73	367.46
496.91	395.55
497.09	437.68
497.26	409.59
497.44	456.40
497.62	454.06
497.79	433.00
497.97	447.04
498.14	479.81
498.32	383.85
498.50	367.46
498.67	379.17
498.85	400.23
499.03	376.83
499.20	414.27
499.38	365.12
499.56	400.23
499.73	365.12
499.91	334.70
500.08	456.40
500.26	383.85
500.44	407.25
500.61	400.23
500.79	388.53
500.97	421.30
501.14	458.74
501.32	479.81
501.49	489.17
501.67	465.77
501.84	421.30
502.02	423.64
502.20	390.87
502.37	388.53
502.55	358.10
502.72	510.24
502.90	395.55
503.07	393.21
503.25	383.85
503.43	376.83
503.60	418.96
503.78	428.32
503.95	423.64
504.13	390.87
504.30	390.87
504.48	465.77
504.65	503.22
504.83	390.87
505.01	416.62
505.18	430.66
505.36	435.34
505.53	334.70
505.71	379.17
505.88	465.77
506.06	400.23
506.23	393.21
506.41	372.15
506.58	430.66
506.76	458.74
506.93	435.34
507.11	369.80
507.28	449.38
507.46	395.55
507.63	414.27
507.81	348.74
507.98	414.27
508.16	423.64
508.33	390.87
508.50	411.93
508.68	437.68
508.85	421.30
509.03	379.17
509.20	360.44
509.38	463.43
509.55	468.11
509.73	425.98
509.90	425.98
510.08	454.06
510.25	411.93
510.42	395.55
510.60	414.27
510.77	465.77
510.95	456.40
511.12	430.66
511.30	411.93
511.47	418.96
511.64	433.00
511.82	461.09
511.99	390.87
512.17	344.06
512.34	393.21
512.51	376.83
512.69	397.89
512.86	395.55
513.04	381.51
513.21	425.98
513.38	383.85
513.56	386.19
513.73	451.72
513.90	430.66
514.08	440.02
514.25	423.64
514.43	437.68
514.60	477.47
514.77	390.87
514.95	386.19
515.12	440.02
515.29	423.64
515.47	421.30
515.64	400.23
515.81	423.64
515.99	444.70
516.16	447.04
516.33	449.38
516.51	369.80
516.68	404.91
516.85	468.11
517.03	393.21
517.20	416.62
517.37	435.34
517.54	454.06
517.72	442.36
517.89	409.59
518.06	404.91
518.24	456.40
518.41	386.19
518.58	381.51
518.75	355.76
518.93	421.30
519.10	351.08
519.27	404.91
519.45	456.40
519.62	463.43
519.79	433.00
519.96	409.59
520.14	486.83
520.31	327.68
520.48	444.70
520.65	386.19
520.83	395.55
521.00	393.21
521.17	444.70
521.34	414.27
521.52	379.17
521.69	465.77
521.86	358.10
522.03	440.02
522.20	444.70
522.38	390.87
522.55	423.64
522.72	404.91
522.89	369.80
523.07	451.72
523.24	365.12
523.41	400.23
523.58	433.00
523.75	397.89
523.92	390.87
524.10	407.25
524.27	447.04
524.44	397.89
524.61	411.93
524.78	449.38
524.96	449.38
525.13	322.99
525.30	447.04
525.47	449.38
525.64	428.32
525.81	433.00
525.98	414.27
526.16	416.62
526.33	395.55
526.50	367.46
526.67	372.15
526.84	421.30
527.01	493.85
527.18	372.15
527.36	388.53
527.53	444.70
527.70	416.62
527.87	381.51
528.04	423.64
528.21	374.49
528.38	334.70
528.55	388.53
528.72	334.70
528.89	414.27
529.07	505.56
529.24	465.77
529.41	416.62
529.58	430.66
529.75	433.00
529.92	395.55
530.09	458.74
530.26	442.36
530.43	421.30
530.60	390.87
530.77	397.89
530.94	409.59
531.11	411.93
531.28	411.93
531.46	456.40
531.63	521.94
531.80	479.81
531.97	425.98
532.14	411.93
532.31	402.57
532.48	374.49
532.65	379.17
532.82	475.13
532.99	435.34
533.16	390.87
533.33	435.34
533.50	425.98
533.67	425.98
533.84	461.09
534.01	472.79
534.18	362.78
534.35	428.32
534.52	425.98
534.69	409.59
534.86	440.02
535.03	348.74
535.20	372.15
535.37	388.53
535.54	409.59
535.71	507.90
535.88	372.15
536.05	442.36
536.22	365.12
536.38	444.70
536.55	458.74
536.72	358.10
536.89	362.78
537.06	423.64
537.23	383.85
537.40	369.80
537.57	482.15
537.74	500.87
537.91	472.79
538.08	454.06
538.25	484.49
538.42	407.25
538.59	374.49
538.75	402.57
538.92	379.17
539.09	414.27
539.26	479.81
539.43	458.74
539.60	477.47
539.77	442.36
539.94	461.09
540.11	458.74
540.28	484.49
540.44	421.30
540.61	327.68
540.78	433.00
540.95	414.27
541.12	393.21
541.29	402.57
541.46	418.96
541.62	442.36
541.79	442.36
541.96	484.49
542.13	440.02
542.30	433.00
542.47	423.64
542.63	346.40
542.80	477.47
542.97	468.11
543.14	402.57
543.31	390.87
543.48	327.68
543.64	418.96
543.81	383.85
543.98	402.57
544.15	400.23
544.32	411.93
544.48	395.55
544.65	433.00
544.82	440.02
544.99	400.23
545.16	456.40
545.32	440.02
545.49	486.83
545.66	393.21
545.83	447.04
546.00	362.78
546.16	435.34
546.33	414.27
546.50	470.45
546.67	463.43
546.83	435.34
547.00	421.30
547.17	440.02
547.34	397.89
547.50	440.02
547.67	430.66
547.84	456.40
548.00	507.90
548.17	360.44
548.34	376.83
548.51	306.61
548.67	442.36
548.84	465.77
549.01	433.00
549.18	407.25
549.34	407.25
549.51	414.27
549.68	428.32
549.84	484.49
550.01	416.62
550.18	479.81
550.34	447.04
550.51	416.62
550.68	444.70
550.84	383.85
551.01	409.59
551.18	472.79
551.34	414.27
551.51	465.77
551.68	416.62
551.84	477.47
552.01	407.25
552.18	376.83
552.34	381.51
552.51	425.98
552.68	386.19
552.84	428.32
553.01	433.00
553.18	421.30
553.34	372.15
553.51	383.85
553.67	381.51
553.84	447.04
554.01	437.68
554.17	418.96
554.34	414.27
554.51	442.36
554.67	411.93
554.84	414.27
555.00	423.64
555.17	400.23
555.33	449.38
555.50	489.17
555.67	437.68
555.83	400.23
556.00	358.10
556.16	535.98
556.33	435.34
556.50	449.38
556.66	388.53
556.83	376.83
556.99	369.80
557.16	463.43
557.32	411.93
557.49	386.19
557.65	437.68
557.82	397.89
557.98	449.38
558.15	451.72
558.32	402.57
558.48	449.38
558.65	477.47
558.81	430.66
558.98	416.62
559.14	402.57
559.31	472.79
559.47	390.87
559.64	383.85
559.80	379.17
559.97	463.43
560.13	444.70
560.30	430.66
560.46	416.62
560.63	358.10
560.79	425.98
560.96	409.59
561.12	416.62
561.29	411.93
561.45	423.64
561.61	428.32
561.78	503.22
561.94	444.70
562.11	454.06
562.27	414.27
562.44	369.80
562.60	325.33
562.77	358.10
562.93	416.62
563.10	430.66
563.26	402.57
563.42	416.62
563.59	414.27
563.75	337.04
563.92	465.77
564.08	454.06
564.24	409.59
564.41	463.43
564.57	379.17
564.74	421.30
564.90	442.36
565.07	351.08
565.23	425.98
565.39	421.30
565.56	435.34
565.72	400.23
565.88	374.49
566.05	395.55
566.21	465.77
566.38	440.02
566.54	383.85
566.70	376.83
566.87	449.38
567.03	369.80
567.19	360.44
567.36	463.43
567.52	447.04
567.68	400.23
567.85	479.81
568.01	395.55
568.17	505.56
568.34	430.66
568.50	346.40
568.66	367.46
568.83	489.17
568.99	381.51
569.15	461.09
569.32	383.85
569.48	404.91
569.64	386.19
569.81	388.53
569.97	440.02
570.13	428.32
570.30	442.36
570.46	397.89
570.62	416.62
570.78	456.40
570.95	360.44
571.11	505.56
571.27	449.38
571.43	430.66
571.60	428.32
571.76	437.68
571.92	458.74
572.09	400.23
572.25	372.15
572.41	409.59
572.57	463.43
572.74	433.00
572.90	421.30
573.06	425.98
573.22	388.53
573.38	454.06
573.55	437.68
573.71	442.36
573.87	418.96
574.03	386.19
574.20	320.65
574.36	409.59
574.52	458.74
574.68	435.34
574.84	404.91
575.01	402.57
575.17	526.62
575.33	449.38
575.49	409.59
575.65	463.43
575.82	505.56
575.98	414.27
576.14	407.25
576.30	416.62
576.46	430.66
576.62	414.27
576.79	404.91
576.95	449.38
577.11	346.40
577.27	402.57
577.43	440.02
577.59	423.64
577.75	421.30
577.92	414.27
578.08	397.89
578.24	360.44
578.40	423.64
578.56	421.30
578.72	451.72
578.88	400.23
579.04	346.40
579.21	421.30
579.37	409.59
579.53	383.85
579.69	421.30
579.85	437.68
580.01	416.62
580.17	355.76
580.33	489.17
580.49	470.45
580.65	440.02
580.82	440.02
580.98	430.66
581.14	376.83
581.30	369.80
581.46	456.40
581.62	482.15
581.78	367.46
581.94	425.98
582.10	344.06
582.26	362.78
582.42	411.93
582.58	437.68
582.74	428.32
582.90	390.87
583.06	421.30
583.22	430.66
583.38	365.12
583.54	379.17
583.70	451.72
583.86	418.96
584.02	362.78
584.18	397.89
584.34	362.78
584.50	433.00
584.66	376.83
584.82	447.04
584.98	418.96
585.14	402.57
585.30	503.22
585.46	489.17
585.62	433.00
585.78	423.64
585.94	423.64
586.10	404.91
586.26	376.83
586.42	440.02
586.58	458.74
586.74	400.23
586.90	425.98
587.06	430.66
587.22	440.02
587.38	395.55
587.54	369.80
587.70	454.06
587.86	444.70
588.02	454.06
588.18	402.57
588.34	472.79
588.49	449.38
588.65	369.80
588.81	390.87
588.97	390.87
589.13	418.96
589.29	372.15
589.45	444.70
589.61	505.56
589.77	437.68
589.93	449.38
590.08	360.44
590.24	395.55
590.40	374.49
590.56	454.06
590.72	442.36
590.88	393.21
591.04	454.06
591.20	440.02
591.35	475.13
591.51	390.87
591.67	402.57
591.83	376.83
591.99	472.79
592.15	430.66
592.31	421.30
592.46	470.45
592.62	496.19
592.78	402.57
592.94	442.36
593.10	379.17
593.26	454.06
593.41	444.70
593.57	393.21
593.73	383.85
593.89	451.72
594.05	461.09
594.20	372.15
594.36	507.90
594.52	465.77
594.68	400.23
594.84	447.04
594.99	463.43
595.15	479.81
595.31	395.55
595.47	449.38
595.62	395.55
595.78	451.72
595.94	400.23
596.10	503.22
596.25	428.32
596.41	477.47
596.57	444.70
596.73	379.17
596.88	376.83
597.04	454.06
597.20	365.12
597.36	475.13
597.51	437.68
597.67	440.02
597.83	465.77
597.99	388.53
598.14	334.70
598.30	381.51
598.46	395.55
598.61	437.68
598.77	484.49
598.93	421.30
599.09	393.21
599.24	437.68
599.40	376.83
599.56	463.43
599.71	374.49
599.87	451.72
600.03	383.85
600.18	421.30
600.34	475.13
600.50	400.23
600.65	400.23
600.81	395.55
600.97	414.27
601.12	360.44
601.28	428.32
601.44	421.30
601.59	425.98
601.75	433.00
601.91	325.33
602.06	440.02
602.22	470.45
602.37	397.89
602.53	496.19
602.69	418.96
602.84	395.55
603.00	425.98
603.16	404.91
603.31	461.09
603.47	463.43
603.62	458.74
603.78	365.12
603.94	386.19
604.09	425.98
604.25	388.53
604.40	423.64
604.56	428.32
604.71	407.25
604.87	386.19
605.03	449.38
605.18	423.64
605.34	423.64
605.49	423.64
605.65	369.80
605.80	435.34
605.96	414.27
606.12	428.32
606.27	425.98
606.43	451.72
606.58	388.53
606.74	425.98
606.89	376.83
607.05	428.32
607.20	454.06
607.36	444.70
607.51	379.17
607.67	433.00
607.82	374.49
607.98	470.45
608.13	435.34
608.29	428.32
608.44	465.77
608.60	433.00
608.75	435.34
608.91	425.98
609.06	423.64
609.22	407.25
609.37	358.10
609.53	409.59
609.68	346.40
609.84	397.89
609.99	477.47
610.15	465.77
