SpectraSuite Data File
++++++++++++++++++++++++++++++++++++
Date: Fri Oct 25 12:11:21 EDT 2013
User: price-jones
Dark Spectrum Present: No
Reference Spectrum Present: No
Number of Sampled Component Spectra: 1
Spectrometers: USB2+H05261
Integration Time (usec): 100000 (USB2+H05261)
Spectra Averaged: 1 (USB2+H05261)
Boxcar Smoothing: 0 (USB2+H05261)
Correct for Electrical Dark: No (USB2+H05261)
Strobe/Lamp Enabled: No (USB2+H05261)
Correct for Detector Non-linearity: No (USB2+H05261)
Correct for Stray Light: No (USB2+H05261)
Number of Pixels in Processed Spectrum: 2048
>>>>>Begin Processed Spectral Data<<<<<
365.73	320.65
365.92	320.65
366.12	320.65
366.32	236.39
366.52	306.61
366.72	299.59
366.91	203.63
367.11	203.63
367.31	220.01
367.51	257.46
367.70	205.97
367.90	257.46
368.10	205.97
368.30	212.99
368.49	222.35
368.69	299.59
368.89	278.52
369.09	229.37
369.28	241.08
369.48	355.76
369.68	348.74
369.87	278.52
370.07	313.63
370.27	290.23
370.47	330.02
370.66	332.36
370.86	383.85
371.06	425.98
371.25	404.91
371.45	383.85
371.65	353.42
371.84	404.91
372.04	304.27
372.24	414.27
372.44	397.89
372.63	447.04
372.83	435.34
373.03	421.30
373.22	404.91
373.42	376.83
373.62	290.23
373.81	468.11
374.01	437.68
374.21	423.64
374.40	404.91
374.60	404.91
374.79	411.93
374.99	379.17
375.19	365.12
375.38	369.80
375.58	388.53
375.78	421.30
375.97	442.36
376.17	491.51
376.37	423.64
376.56	447.04
376.76	362.78
376.95	395.55
377.15	421.30
377.35	393.21
377.54	437.68
377.74	334.70
377.93	318.31
378.13	411.93
378.33	402.57
378.52	433.00
378.72	433.00
378.91	437.68
379.11	318.31
379.31	383.85
379.50	330.02
379.70	402.57
379.89	461.09
380.09	390.87
380.28	294.91
380.48	383.85
380.68	472.79
380.87	449.38
381.07	423.64
381.26	407.25
381.46	447.04
381.65	461.09
381.85	421.30
382.04	402.57
382.24	442.36
382.43	379.17
382.63	381.51
382.83	444.70
383.02	418.96
383.22	400.23
383.41	440.02
383.61	393.21
383.80	449.38
384.00	376.83
384.19	435.34
384.39	435.34
384.58	416.62
384.78	449.38
384.97	416.62
385.17	440.02
385.36	355.76
385.56	451.72
385.75	355.76
385.95	341.72
386.14	390.87
386.34	374.49
386.53	435.34
386.72	348.74
386.92	409.59
387.11	402.57
387.31	472.79
387.50	362.78
387.70	353.42
387.89	395.55
388.09	369.80
388.28	442.36
388.48	386.19
388.67	411.93
388.86	463.43
389.06	440.02
389.25	435.34
389.45	299.59
389.64	358.10
389.84	411.93
390.03	393.21
390.22	428.32
390.42	372.15
390.61	369.80
390.81	388.53
391.00	430.66
391.19	449.38
391.39	472.79
391.58	404.91
391.78	376.83
391.97	374.49
392.16	444.70
392.36	458.74
392.55	402.57
392.75	362.78
392.94	470.45
393.13	327.68
393.33	390.87
393.52	395.55
393.71	402.57
393.91	425.98
394.10	461.09
394.29	440.02
394.49	440.02
394.68	437.68
394.88	411.93
395.07	449.38
395.26	411.93
395.46	386.19
395.65	395.55
395.84	456.40
396.04	489.17
396.23	416.62
396.42	512.58
396.62	447.04
396.81	475.13
397.00	421.30
397.19	402.57
397.39	360.44
397.58	393.21
397.77	400.23
397.97	433.00
398.16	416.62
398.35	418.96
398.55	433.00
398.74	414.27
398.93	390.87
399.12	416.62
399.32	358.10
399.51	400.23
399.70	414.27
399.90	360.44
400.09	397.89
400.28	346.40
400.47	482.15
400.67	435.34
400.86	404.91
401.05	367.46
401.24	435.34
401.44	472.79
401.63	402.57
401.82	484.49
402.01	393.21
402.21	383.85
402.40	390.87
402.59	404.91
402.78	414.27
402.97	388.53
403.17	379.17
403.36	423.64
403.55	383.85
403.74	491.51
403.93	475.13
404.13	449.38
404.32	400.23
404.51	407.25
404.70	383.85
404.89	376.83
405.09	425.98
405.28	425.98
405.47	447.04
405.66	416.62
405.85	416.62
406.05	404.91
406.24	430.66
406.43	416.62
406.62	456.40
406.81	444.70
407.00	435.34
407.20	397.89
407.39	435.34
407.58	411.93
407.77	479.81
407.96	435.34
408.15	433.00
408.34	449.38
408.54	451.72
408.73	355.76
408.92	421.30
409.11	440.02
409.30	374.49
409.49	318.31
409.68	409.59
409.87	407.25
410.07	421.30
410.26	425.98
410.45	435.34
410.64	414.27
410.83	400.23
411.02	386.19
411.21	388.53
411.40	447.04
411.59	433.00
411.78	477.47
411.98	442.36
412.17	409.59
412.36	421.30
412.55	458.74
412.74	411.93
412.93	423.64
413.12	433.00
413.31	411.93
413.50	346.40
413.69	395.55
413.88	454.06
414.07	423.64
414.26	447.04
414.45	414.27
414.64	484.49
414.83	395.55
415.02	486.83
415.22	493.85
415.41	442.36
415.60	442.36
415.79	421.30
415.98	430.66
416.17	442.36
416.36	381.51
416.55	416.62
416.74	407.25
416.93	468.11
417.12	369.80
417.31	437.68
417.50	423.64
417.69	437.68
417.88	447.04
418.07	411.93
418.26	393.21
418.45	402.57
418.64	472.79
418.83	409.59
419.02	428.32
419.21	418.96
419.39	470.45
419.58	414.27
419.77	395.55
419.96	428.32
420.15	369.80
420.34	458.74
420.53	383.85
420.72	451.72
420.91	407.25
421.10	390.87
421.29	475.13
421.48	414.27
421.67	433.00
421.86	402.57
422.05	400.23
422.24	404.91
422.43	454.06
422.61	353.42
422.80	470.45
422.99	388.53
423.18	393.21
423.37	465.77
423.56	423.64
423.75	493.85
423.94	433.00
424.13	372.15
424.32	390.87
424.50	430.66
424.69	475.13
424.88	428.32
425.07	404.91
425.26	423.64
425.45	418.96
425.64	475.13
425.83	435.34
426.01	360.44
426.20	447.04
426.39	409.59
426.58	444.70
426.77	491.51
426.96	369.80
427.15	395.55
427.33	344.06
427.52	421.30
427.71	425.98
427.90	379.17
428.09	313.63
428.28	390.87
428.46	365.12
428.65	437.68
428.84	416.62
429.03	351.08
429.22	414.27
429.40	393.21
429.59	442.36
429.78	465.77
429.97	414.27
430.16	409.59
430.34	482.15
430.53	414.27
430.72	447.04
430.91	409.59
431.10	458.74
431.28	407.25
431.47	400.23
431.66	447.04
431.85	381.51
432.03	409.59
432.22	435.34
432.41	435.34
432.60	463.43
432.79	390.87
432.97	472.79
433.16	430.66
433.35	402.57
433.54	414.27
433.72	393.21
433.91	418.96
434.10	409.59
434.28	416.62
434.47	341.72
434.66	402.57
434.85	388.53
435.03	383.85
435.22	358.10
435.41	390.87
435.59	376.83
435.78	454.06
435.97	353.42
436.16	454.06
436.34	430.66
436.53	365.12
436.72	449.38
436.90	416.62
437.09	472.79
437.28	430.66
437.46	393.21
437.65	400.23
437.84	449.38
438.02	379.17
438.21	365.12
438.40	414.27
438.58	458.74
438.77	421.30
438.96	409.59
439.14	409.59
439.33	470.45
439.52	407.25
439.70	465.77
439.89	402.57
440.08	402.57
440.26	468.11
440.45	369.80
440.63	444.70
440.82	465.77
441.01	442.36
441.19	400.23
441.38	374.49
441.57	409.59
441.75	400.23
441.94	496.19
442.12	379.17
442.31	409.59
442.50	433.00
442.68	414.27
442.87	393.21
443.05	372.15
443.24	395.55
443.43	435.34
443.61	493.85
443.80	372.15
443.98	414.27
444.17	383.85
444.35	463.43
444.54	477.47
444.73	435.34
444.91	482.15
445.10	451.72
445.28	407.25
445.47	344.06
445.65	477.47
445.84	414.27
446.02	383.85
446.21	390.87
446.39	367.46
446.58	386.19
446.77	489.17
446.95	425.98
447.14	365.12
447.32	479.81
447.51	376.83
447.69	428.32
447.88	465.77
448.06	477.47
448.25	449.38
448.43	418.96
448.62	383.85
448.80	437.68
448.99	454.06
449.17	423.64
449.36	365.12
449.54	454.06
449.73	374.49
449.91	440.02
450.10	435.34
450.28	456.40
450.46	440.02
450.65	440.02
450.83	468.11
451.02	444.70
451.20	414.27
451.39	416.62
451.57	393.21
451.76	376.83
451.94	341.72
452.13	395.55
452.31	393.21
452.49	449.38
452.68	428.32
452.86	414.27
453.05	425.98
453.23	332.36
453.42	435.34
453.60	355.76
453.78	386.19
453.97	447.04
454.15	496.19
454.34	456.40
454.52	442.36
454.70	442.36
454.89	383.85
455.07	456.40
455.26	463.43
455.44	407.25
455.62	407.25
455.81	404.91
455.99	458.74
456.17	442.36
456.36	348.74
456.54	447.04
456.73	458.74
456.91	418.96
457.09	397.89
457.28	425.98
457.46	442.36
457.64	421.30
457.83	344.06
458.01	433.00
458.19	425.98
458.38	461.09
458.56	433.00
458.74	423.64
458.93	390.87
459.11	379.17
459.29	365.12
459.48	444.70
459.66	437.68
459.84	402.57
460.03	400.23
460.21	416.62
460.39	404.91
460.57	383.85
460.76	447.04
460.94	407.25
461.12	409.59
461.31	468.11
461.49	348.74
461.67	437.68
461.85	365.12
462.04	433.00
462.22	723.23
462.40	395.55
462.59	456.40
462.77	372.15
462.95	376.83
463.13	409.59
463.32	411.93
463.50	386.19
463.68	414.27
463.86	454.06
464.05	454.06
464.23	423.64
464.41	435.34
464.59	489.17
464.78	388.53
464.96	409.59
465.14	458.74
465.32	444.70
465.50	393.21
465.69	390.87
465.87	404.91
466.05	421.30
466.23	395.55
466.41	360.44
466.60	500.87
466.78	447.04
466.96	451.72
467.14	433.00
467.32	386.19
467.51	376.83
467.69	407.25
467.87	416.62
468.05	308.95
468.23	447.04
468.41	360.44
468.60	414.27
468.78	369.80
468.96	442.36
469.14	362.78
469.32	402.57
469.50	402.57
469.69	397.89
469.87	339.38
470.05	395.55
470.23	425.98
470.41	458.74
470.59	353.42
470.77	425.98
470.95	428.32
471.14	454.06
471.32	444.70
471.50	507.90
471.68	449.38
471.86	374.49
472.04	337.04
472.22	404.91
472.40	423.64
472.58	430.66
472.77	397.89
472.95	430.66
473.13	428.32
473.31	416.62
473.49	435.34
473.67	393.21
473.85	414.27
474.03	369.80
474.21	395.55
474.39	416.62
474.57	442.36
474.75	421.30
474.93	404.91
475.12	386.19
475.30	435.34
475.48	435.34
475.66	379.17
475.84	440.02
476.02	449.38
476.20	437.68
476.38	358.10
476.56	404.91
476.74	395.55
476.92	463.43
477.10	337.04
477.28	409.59
477.46	463.43
477.64	470.45
477.82	435.34
478.00	351.08
478.18	414.27
478.36	367.46
478.54	386.19
478.72	449.38
478.90	507.90
479.08	472.79
479.26	365.12
479.44	433.00
479.62	456.40
479.80	365.12
479.98	428.32
480.16	414.27
480.34	358.10
480.52	404.91
480.70	435.34
480.88	327.68
481.06	440.02
481.24	355.76
481.41	339.38
481.59	435.34
481.77	465.77
481.95	404.91
482.13	416.62
482.31	430.66
482.49	393.21
482.67	395.55
482.85	423.64
483.03	425.98
483.21	390.87
483.39	435.34
483.57	388.53
483.74	444.70
483.92	369.80
484.10	418.96
484.28	362.78
484.46	428.32
484.64	428.32
484.82	334.70
485.00	425.98
485.18	421.30
485.35	388.53
485.53	425.98
485.71	458.74
485.89	390.87
486.07	454.06
486.25	386.19
486.43	402.57
486.61	416.62
486.78	519.60
486.96	444.70
487.14	383.85
487.32	430.66
487.50	395.55
487.68	407.25
487.85	330.02
488.03	433.00
488.21	477.47
488.39	510.24
488.57	374.49
488.75	390.87
488.92	421.30
489.10	367.46
489.28	425.98
489.46	402.57
489.64	435.34
489.81	437.68
489.99	470.45
490.17	386.19
490.35	451.72
490.53	393.21
490.70	416.62
490.88	442.36
491.06	365.12
491.24	414.27
491.41	390.87
491.59	444.70
491.77	416.62
491.95	388.53
492.13	332.36
492.30	472.79
492.48	442.36
492.66	367.46
492.84	372.15
493.01	381.51
493.19	433.00
493.37	456.40
493.54	395.55
493.72	444.70
493.90	393.21
494.08	381.51
494.25	440.02
494.43	458.74
494.61	376.83
494.79	393.21
494.96	383.85
495.14	451.72
495.32	376.83
495.49	400.23
495.67	421.30
495.85	407.25
496.02	402.57
496.20	430.66
496.38	463.43
496.55	456.40
496.73	393.21
496.91	369.80
497.09	454.06
497.26	484.49
497.44	381.51
497.62	463.43
497.79	421.30
497.97	428.32
498.14	461.09
498.32	414.27
498.50	404.91
498.67	489.17
498.85	447.04
499.03	468.11
499.20	447.04
499.38	454.06
499.56	486.83
499.73	454.06
499.91	416.62
500.08	451.72
500.26	393.21
500.44	477.47
500.61	423.64
500.79	404.91
500.97	430.66
501.14	472.79
501.32	489.17
501.49	484.49
501.67	545.34
501.84	407.25
502.02	411.93
502.20	395.55
502.37	395.55
502.55	444.70
502.72	477.47
502.90	428.32
503.07	381.51
503.25	421.30
503.43	423.64
503.60	404.91
503.78	428.32
503.95	418.96
504.13	440.02
504.30	376.83
504.48	397.89
504.65	498.53
504.83	447.04
505.01	449.38
505.18	433.00
505.36	428.32
505.53	425.98
505.71	404.91
505.88	440.02
506.06	423.64
506.23	381.51
506.41	479.81
506.58	402.57
506.76	433.00
506.93	400.23
507.11	416.62
507.28	383.85
507.46	421.30
507.63	411.93
507.81	400.23
507.98	451.72
508.16	463.43
508.33	372.15
508.50	449.38
508.68	409.59
508.85	407.25
509.03	430.66
509.20	344.06
509.38	395.55
509.55	393.21
509.73	521.94
509.90	395.55
510.08	447.04
510.25	461.09
510.42	341.72
510.60	400.23
510.77	414.27
510.95	449.38
511.12	407.25
511.30	376.83
511.47	479.81
511.64	482.15
511.82	395.55
511.99	393.21
512.17	395.55
512.34	435.34
512.51	430.66
512.69	416.62
512.86	449.38
513.04	435.34
513.21	386.19
513.38	435.34
513.56	421.30
513.73	381.51
513.90	402.57
514.08	365.12
514.25	447.04
514.43	421.30
514.60	388.53
514.77	386.19
514.95	428.32
515.12	365.12
515.29	433.00
515.47	428.32
515.64	386.19
515.81	395.55
515.99	440.02
516.16	416.62
516.33	433.00
516.51	372.15
516.68	451.72
516.85	402.57
517.03	322.99
517.20	447.04
517.37	388.53
517.54	397.89
517.72	423.64
517.89	360.44
518.06	346.40
518.24	470.45
518.41	428.32
518.58	414.27
518.75	402.57
518.93	409.59
519.10	418.96
519.27	297.25
519.45	372.15
519.62	407.25
519.79	376.83
519.96	390.87
520.14	428.32
520.31	400.23
520.48	435.34
520.65	404.91
520.83	433.00
521.00	390.87
521.17	372.15
521.34	390.87
521.52	444.70
521.69	407.25
521.86	416.62
522.03	400.23
522.20	447.04
522.38	463.43
522.55	407.25
522.72	428.32
522.89	418.96
523.07	433.00
523.24	358.10
523.41	461.09
523.58	416.62
523.75	388.53
523.92	428.32
524.10	339.38
524.27	383.85
524.44	360.44
524.61	409.59
524.78	428.32
524.96	402.57
525.13	465.77
525.30	472.79
525.47	390.87
525.64	372.15
525.81	397.89
525.98	437.68
526.16	355.76
526.33	486.83
526.50	458.74
526.67	433.00
526.84	430.66
527.01	344.06
527.18	414.27
527.36	374.49
527.53	369.80
527.70	465.77
527.87	390.87
528.04	475.13
528.21	437.68
528.38	397.89
528.55	440.02
528.72	346.40
528.89	421.30
529.07	421.30
529.24	367.46
529.41	486.83
529.58	407.25
529.75	421.30
529.92	393.21
530.09	402.57
530.26	402.57
530.43	334.70
530.60	411.93
530.77	402.57
530.94	435.34
531.11	428.32
531.28	423.64
531.46	402.57
531.63	451.72
531.80	498.53
531.97	418.96
532.14	402.57
532.31	470.45
532.48	486.83
532.65	442.36
532.82	430.66
532.99	463.43
533.16	386.19
533.33	435.34
533.50	444.70
533.67	367.46
533.84	374.49
534.01	430.66
534.18	442.36
534.35	374.49
534.52	479.81
534.69	456.40
534.86	451.72
535.03	393.21
535.20	435.34
535.37	414.27
535.54	414.27
535.71	449.38
535.88	472.79
536.05	484.49
536.22	372.15
536.38	344.06
536.55	437.68
536.72	440.02
536.89	404.91
537.06	428.32
537.23	407.25
537.40	444.70
537.57	358.10
537.74	479.81
537.91	479.81
538.08	383.85
538.25	447.04
538.42	430.66
538.59	486.83
538.75	465.77
538.92	425.98
539.09	433.00
539.26	369.80
539.43	416.62
539.60	418.96
539.77	383.85
539.94	423.64
540.11	456.40
540.28	421.30
540.44	423.64
540.61	395.55
540.78	433.00
540.95	383.85
541.12	421.30
541.29	437.68
541.46	428.32
541.62	440.02
541.79	369.80
541.96	430.66
542.13	444.70
542.30	348.74
542.47	463.43
542.63	395.55
542.80	435.34
542.97	388.53
543.14	454.06
543.31	472.79
543.48	526.62
543.64	423.64
543.81	407.25
543.98	442.36
544.15	376.83
544.32	437.68
544.48	402.57
544.65	416.62
544.82	397.89
544.99	414.27
545.16	402.57
545.32	454.06
545.49	390.87
545.66	416.62
545.83	444.70
546.00	390.87
546.16	390.87
546.33	425.98
546.50	428.32
546.67	451.72
546.83	409.59
547.00	444.70
547.17	386.19
547.34	454.06
547.50	402.57
547.67	388.53
547.84	423.64
548.00	428.32
548.17	479.81
548.34	416.62
548.51	463.43
548.67	383.85
548.84	344.06
549.01	411.93
549.18	425.98
549.34	430.66
549.51	433.00
549.68	407.25
549.84	421.30
550.01	397.89
550.18	559.39
550.34	465.77
550.51	383.85
550.68	435.34
550.84	444.70
551.01	386.19
551.18	430.66
551.34	390.87
551.51	339.38
551.68	465.77
551.84	425.98
552.01	425.98
552.18	402.57
552.34	400.23
552.51	435.34
552.68	376.83
552.84	390.87
553.01	430.66
553.18	440.02
553.34	397.89
553.51	367.46
553.67	400.23
553.84	514.92
554.01	409.59
554.17	428.32
554.34	386.19
554.51	454.06
554.67	423.64
554.84	447.04
555.00	491.51
555.17	416.62
555.33	425.98
555.50	442.36
555.67	397.89
555.83	376.83
556.00	402.57
556.16	482.15
556.33	430.66
556.50	437.68
556.66	407.25
556.83	430.66
556.99	379.17
557.16	404.91
557.32	395.55
557.49	404.91
557.65	416.62
557.82	442.36
557.98	440.02
558.15	416.62
558.32	454.06
558.48	402.57
558.65	433.00
558.81	447.04
558.98	393.21
559.14	416.62
559.31	458.74
559.47	404.91
559.64	369.80
559.80	376.83
559.97	395.55
560.13	458.74
560.30	454.06
560.46	416.62
560.63	470.45
560.79	482.15
560.96	351.08
561.12	409.59
561.29	475.13
561.45	435.34
561.61	477.47
561.78	430.66
561.94	395.55
562.11	451.72
562.27	411.93
562.44	409.59
562.60	470.45
562.77	458.74
562.93	465.77
563.10	442.36
563.26	430.66
563.42	421.30
563.59	414.27
563.75	379.17
563.92	390.87
564.08	425.98
564.24	435.34
564.41	425.98
564.57	388.53
564.74	369.80
564.90	416.62
565.07	381.51
565.23	390.87
565.39	383.85
565.56	400.23
565.72	418.96
565.88	390.87
566.05	388.53
566.21	442.36
566.38	383.85
566.54	388.53
566.70	402.57
566.87	461.09
567.03	447.04
567.19	411.93
567.36	383.85
567.52	388.53
567.68	395.55
567.85	444.70
568.01	512.58
568.17	418.96
568.34	458.74
568.50	489.17
568.66	379.17
568.83	477.47
568.99	374.49
569.15	423.64
569.32	433.00
569.48	409.59
569.64	367.46
569.81	388.53
569.97	421.30
570.13	421.30
570.30	430.66
570.46	393.21
570.62	367.46
570.78	428.32
570.95	423.64
571.11	507.90
571.27	449.38
571.43	325.33
571.60	425.98
571.76	437.68
571.92	442.36
572.09	404.91
572.25	386.19
572.41	463.43
572.57	402.57
572.74	437.68
572.90	491.51
573.06	428.32
573.22	449.38
573.38	447.04
573.55	475.13
573.71	400.23
573.87	489.17
574.03	458.74
574.20	365.12
574.36	404.91
574.52	423.64
574.68	451.72
574.84	383.85
575.01	435.34
575.17	444.70
575.33	402.57
575.49	489.17
575.65	472.79
575.82	409.59
575.98	435.34
576.14	400.23
576.30	416.62
576.46	386.19
576.62	409.59
576.79	470.45
576.95	383.85
577.11	463.43
577.27	386.19
577.43	390.87
577.59	449.38
577.75	404.91
577.92	461.09
578.08	351.08
578.24	468.11
578.40	463.43
578.56	421.30
578.72	447.04
578.88	404.91
579.04	411.93
579.21	456.40
579.37	397.89
579.53	404.91
579.69	491.51
579.85	433.00
580.01	451.72
580.17	411.93
580.33	411.93
580.49	376.83
580.65	409.59
580.82	395.55
580.98	369.80
581.14	402.57
581.30	477.47
581.46	400.23
581.62	496.19
581.78	409.59
581.94	393.21
582.10	404.91
582.26	418.96
582.42	395.55
582.58	418.96
582.74	456.40
582.90	304.27
583.06	423.64
583.22	355.76
583.38	437.68
583.54	430.66
583.70	468.11
583.86	411.93
584.02	421.30
584.18	477.47
584.34	423.64
584.50	388.53
584.66	390.87
584.82	442.36
584.98	379.17
585.14	393.21
585.30	397.89
585.46	395.55
585.62	339.38
585.78	374.49
585.94	447.04
586.10	393.21
586.26	423.64
586.42	437.68
586.58	414.27
586.74	393.21
586.90	386.19
587.06	390.87
587.22	465.77
587.38	444.70
587.54	421.30
587.70	461.09
587.86	400.23
588.02	390.87
588.18	367.46
588.34	416.62
588.49	353.42
588.65	423.64
588.81	447.04
588.97	407.25
589.13	407.25
589.29	491.51
589.45	472.79
589.61	397.89
589.77	465.77
589.93	416.62
590.08	400.23
590.24	428.32
590.40	454.06
590.56	416.62
590.72	379.17
590.88	461.09
591.04	360.44
591.20	402.57
591.35	472.79
591.51	397.89
591.67	421.30
591.83	470.45
591.99	465.77
592.15	433.00
592.31	315.97
592.46	360.44
592.62	409.59
592.78	414.27
592.94	409.59
593.10	416.62
593.26	386.19
593.41	451.72
593.57	428.32
593.73	503.22
593.89	433.00
594.05	451.72
594.20	393.21
594.36	482.15
594.52	463.43
594.68	362.78
594.84	433.00
594.99	444.70
595.15	393.21
595.31	468.11
595.47	388.53
595.62	430.66
595.78	414.27
595.94	411.93
596.10	458.74
596.25	416.62
596.41	444.70
596.57	475.13
596.73	458.74
596.88	351.08
597.04	416.62
597.20	376.83
597.36	461.09
597.51	390.87
597.67	435.34
597.83	383.85
597.99	404.91
598.14	395.55
598.30	369.80
598.46	400.23
598.61	442.36
598.77	421.30
598.93	407.25
599.09	421.30
599.24	456.40
599.40	423.64
599.56	451.72
599.71	433.00
599.87	437.68
600.03	376.83
600.18	428.32
600.34	402.57
600.50	491.51
600.65	362.78
600.81	444.70
600.97	430.66
601.12	451.72
601.28	435.34
601.44	437.68
601.59	440.02
601.75	451.72
601.91	444.70
602.06	414.27
602.22	496.19
602.37	442.36
602.53	351.08
602.69	470.45
602.84	437.68
603.00	358.10
603.16	388.53
603.31	388.53
603.47	397.89
603.62	428.32
603.78	397.89
603.94	442.36
604.09	461.09
604.25	472.79
604.40	475.13
604.56	440.02
604.71	461.09
604.87	376.83
605.03	463.43
605.18	376.83
605.34	414.27
605.49	486.83
605.65	425.98
605.80	402.57
605.96	388.53
606.12	411.93
606.27	484.49
606.43	458.74
606.58	416.62
606.74	458.74
606.89	449.38
607.05	484.49
607.20	383.85
607.36	407.25
607.51	440.02
607.67	435.34
607.82	468.11
607.98	425.98
608.13	423.64
608.29	397.89
608.44	304.27
608.60	407.25
608.75	512.58
608.91	454.06
609.06	416.62
609.22	418.96
609.37	423.64
609.53	411.93
609.68	491.51
609.84	435.34
609.99	386.19
610.15	360.44
