SpectraSuite Data File
++++++++++++++++++++++++++++++++++++
Date: Fri Oct 25 12:10:25 EDT 2013
User: price-jones
Dark Spectrum Present: No
Reference Spectrum Present: No
Number of Sampled Component Spectra: 1
Spectrometers: USB2+H05261
Integration Time (usec): 100000 (USB2+H05261)
Spectra Averaged: 1 (USB2+H05261)
Boxcar Smoothing: 0 (USB2+H05261)
Correct for Electrical Dark: No (USB2+H05261)
Strobe/Lamp Enabled: No (USB2+H05261)
Correct for Detector Non-linearity: No (USB2+H05261)
Correct for Stray Light: No (USB2+H05261)
Number of Pixels in Processed Spectrum: 2048
>>>>>Begin Processed Spectral Data<<<<<
365.73	376.83
365.92	376.83
366.12	376.83
366.32	269.16
366.52	217.67
366.72	248.10
366.91	222.35
367.11	245.76
367.31	234.05
367.51	238.73
367.70	173.20
367.90	173.20
368.10	173.20
368.30	259.80
368.49	229.37
368.69	280.86
368.89	264.48
369.09	301.93
369.28	283.20
369.48	231.71
369.68	252.78
369.87	266.82
370.07	327.68
370.27	334.70
370.47	344.06
370.66	299.59
370.86	311.29
371.06	337.04
371.25	395.55
371.45	376.83
371.65	423.64
371.84	297.25
372.04	337.04
372.24	362.78
372.44	458.74
372.63	456.40
372.83	493.85
373.03	379.17
373.22	430.66
373.42	404.91
373.62	388.53
373.81	465.77
374.01	404.91
374.21	414.27
374.40	400.23
374.60	407.25
374.79	393.21
374.99	351.08
375.19	449.38
375.38	390.87
375.58	428.32
375.78	416.62
375.97	423.64
376.17	449.38
376.37	393.21
376.56	475.13
376.76	416.62
376.95	337.04
377.15	458.74
377.35	486.83
377.54	435.34
377.74	360.44
377.93	416.62
378.13	388.53
378.33	421.30
378.52	404.91
378.72	421.30
378.91	411.93
379.11	416.62
379.31	362.78
379.50	376.83
379.70	437.68
379.89	411.93
380.09	322.99
380.28	330.02
380.48	390.87
380.68	379.17
380.87	358.10
381.07	423.64
381.26	437.68
381.46	407.25
381.65	411.93
381.85	374.49
382.04	486.83
382.24	388.53
382.43	381.51
382.63	348.74
382.83	411.93
383.02	376.83
383.22	440.02
383.41	348.74
383.61	360.44
383.80	381.51
384.00	404.91
384.19	454.06
384.39	386.19
384.58	425.98
384.78	463.43
384.97	372.15
385.17	379.17
385.36	306.61
385.56	409.59
385.75	433.00
385.95	367.46
386.14	440.02
386.34	416.62
386.53	390.87
386.72	416.62
386.92	423.64
387.11	433.00
387.31	386.19
387.50	407.25
387.70	313.63
387.89	374.49
388.09	402.57
388.28	386.19
388.48	435.34
388.67	372.15
388.86	369.80
389.06	451.72
389.25	390.87
389.45	393.21
389.64	395.55
389.84	393.21
390.03	407.25
390.22	386.19
390.42	395.55
390.61	421.30
390.81	386.19
391.00	440.02
391.19	367.46
391.39	461.09
391.58	425.98
391.78	383.85
391.97	348.74
392.16	358.10
392.36	346.40
392.55	404.91
392.75	341.72
392.94	411.93
393.13	461.09
393.33	395.55
393.52	351.08
393.71	447.04
393.91	365.12
394.10	360.44
394.29	388.53
394.49	454.06
394.68	430.66
394.88	414.27
395.07	428.32
395.26	376.83
395.46	402.57
395.65	407.25
395.84	374.49
396.04	470.45
396.23	383.85
396.42	344.06
396.62	423.64
396.81	425.98
397.00	393.21
397.19	404.91
397.39	402.57
397.58	451.72
397.77	454.06
397.97	376.83
398.16	411.93
398.35	449.38
398.55	409.59
398.74	353.42
398.93	456.40
399.12	395.55
399.32	423.64
399.51	402.57
399.70	416.62
399.90	484.49
400.09	400.23
400.28	456.40
400.47	395.55
400.67	442.36
400.86	435.34
401.05	451.72
401.24	362.78
401.44	390.87
401.63	383.85
401.82	463.43
402.01	355.76
402.21	451.72
402.40	409.59
402.59	360.44
402.78	367.46
402.97	442.36
403.17	322.99
403.36	402.57
403.55	395.55
403.74	418.96
403.93	400.23
404.13	379.17
404.32	416.62
404.51	339.38
404.70	425.98
404.89	393.21
405.09	395.55
405.28	351.08
405.47	400.23
405.66	400.23
405.85	496.19
406.05	451.72
406.24	428.32
406.43	440.02
406.62	409.59
406.81	465.77
407.00	386.19
407.20	397.89
407.39	451.72
407.58	400.23
407.77	423.64
407.96	388.53
408.15	451.72
408.34	463.43
408.54	388.53
408.73	447.04
408.92	440.02
409.11	472.79
409.30	451.72
409.49	395.55
409.68	456.40
409.87	454.06
410.07	379.17
410.26	418.96
410.45	447.04
410.64	367.46
410.83	400.23
411.02	332.36
411.21	367.46
411.40	416.62
411.59	402.57
411.78	444.70
411.98	374.49
412.17	475.13
412.36	388.53
412.55	374.49
412.74	440.02
412.93	458.74
413.12	423.64
413.31	468.11
413.50	440.02
413.69	397.89
413.88	416.62
414.07	456.40
414.26	397.89
414.45	414.27
414.64	402.57
414.83	379.17
415.02	388.53
415.22	440.02
415.41	416.62
415.60	379.17
415.79	325.33
415.98	472.79
416.17	440.02
416.36	395.55
416.55	449.38
416.74	409.59
416.93	409.59
417.12	463.43
417.31	397.89
417.50	400.23
417.69	388.53
417.88	390.87
418.07	421.30
418.26	444.70
418.45	414.27
418.64	369.80
418.83	458.74
419.02	433.00
419.21	393.21
419.39	381.51
419.58	449.38
419.77	376.83
419.96	433.00
420.15	491.51
420.34	423.64
420.53	404.91
420.72	496.19
420.91	418.96
421.10	407.25
421.29	477.47
421.48	402.57
421.67	461.09
421.86	411.93
422.05	388.53
422.24	379.17
422.43	430.66
422.61	421.30
422.80	374.49
422.99	416.62
423.18	465.77
423.37	447.04
423.56	447.04
423.75	484.49
423.94	416.62
424.13	451.72
424.32	423.64
424.50	409.59
424.69	386.19
424.88	430.66
425.07	390.87
425.26	447.04
425.45	383.85
425.64	456.40
425.83	393.21
426.01	388.53
426.20	421.30
426.39	465.77
426.58	372.15
426.77	435.34
426.96	430.66
427.15	449.38
427.33	475.13
427.52	369.80
427.71	414.27
427.90	468.11
428.09	381.51
428.28	346.40
428.46	430.66
428.65	463.43
428.84	388.53
429.03	461.09
429.22	358.10
429.40	400.23
429.59	475.13
429.78	449.38
429.97	526.62
430.16	383.85
430.34	381.51
430.53	374.49
430.72	358.10
430.91	454.06
431.10	409.59
431.28	400.23
431.47	489.17
431.66	435.34
431.85	362.78
432.03	388.53
432.22	505.56
432.41	376.83
432.60	440.02
432.79	374.49
432.97	458.74
433.16	456.40
433.35	402.57
433.54	461.09
433.72	454.06
433.91	475.13
434.10	421.30
434.28	355.76
434.47	442.36
434.66	456.40
434.85	360.44
435.03	470.45
435.22	447.04
435.41	374.49
435.59	454.06
435.78	461.09
435.97	416.62
436.16	433.00
436.34	475.13
436.53	451.72
436.72	411.93
436.90	404.91
437.09	456.40
437.28	407.25
437.46	440.02
437.65	407.25
437.84	402.57
438.02	381.51
438.21	407.25
438.40	435.34
438.58	346.40
438.77	376.83
438.96	341.72
439.14	383.85
439.33	456.40
439.52	390.87
439.70	418.96
439.89	468.11
440.08	369.80
440.26	397.89
440.45	395.55
440.63	400.23
440.82	437.68
441.01	390.87
441.19	414.27
441.38	395.55
441.57	433.00
441.75	437.68
441.94	461.09
442.12	332.36
442.31	393.21
442.50	418.96
442.68	425.98
442.87	379.17
443.05	348.74
443.24	337.04
443.43	475.13
443.61	425.98
443.80	411.93
443.98	386.19
444.17	362.78
444.35	440.02
444.54	416.62
444.73	463.43
444.91	372.15
445.10	418.96
445.28	332.36
445.47	355.76
445.65	451.72
445.84	390.87
446.02	376.83
446.21	430.66
446.39	449.38
446.58	395.55
446.77	461.09
446.95	433.00
447.14	372.15
447.32	449.38
447.51	425.98
447.69	379.17
447.88	468.11
448.06	470.45
448.25	404.91
448.43	365.12
448.62	421.30
448.80	353.42
448.99	407.25
449.17	409.59
449.36	400.23
449.54	379.17
449.73	360.44
449.91	404.91
450.10	369.80
450.28	435.34
450.46	435.34
450.65	397.89
450.83	393.21
451.02	409.59
451.20	444.70
451.39	423.64
451.57	388.53
451.76	376.83
451.94	454.06
452.13	484.49
452.31	503.22
452.49	440.02
452.68	379.17
452.86	479.81
453.05	411.93
453.23	421.30
453.42	409.59
453.60	390.87
453.78	416.62
453.97	372.15
454.15	393.21
454.34	447.04
454.52	386.19
454.70	451.72
454.89	416.62
455.07	411.93
455.26	374.49
455.44	433.00
455.62	461.09
455.81	383.85
455.99	411.93
456.17	418.96
456.36	444.70
456.54	435.34
456.73	447.04
456.91	390.87
457.09	458.74
457.28	442.36
457.46	425.98
457.64	411.93
457.83	386.19
458.01	409.59
458.19	416.62
458.38	458.74
458.56	435.34
458.74	341.72
458.93	372.15
459.11	386.19
459.29	379.17
459.48	437.68
459.66	397.89
459.84	397.89
460.03	472.79
460.21	437.68
460.39	435.34
460.57	402.57
460.76	421.30
460.94	463.43
461.12	489.17
461.31	418.96
461.49	442.36
461.67	381.51
461.85	430.66
462.04	341.72
462.22	763.01
462.40	404.91
462.59	437.68
462.77	369.80
462.95	449.38
463.13	355.76
463.32	353.42
463.50	444.70
463.68	437.68
463.86	334.70
464.05	374.49
464.23	507.90
464.41	482.15
464.59	381.51
464.78	397.89
464.96	404.91
465.14	510.24
465.32	404.91
465.50	425.98
465.69	416.62
465.87	379.17
466.05	416.62
466.23	341.72
466.41	362.78
466.60	416.62
466.78	280.86
466.96	440.02
467.14	388.53
467.32	358.10
467.51	393.21
467.69	353.42
467.87	444.70
468.05	362.78
468.23	503.22
468.41	472.79
468.60	386.19
468.78	428.32
468.96	402.57
469.14	351.08
469.32	351.08
469.50	395.55
469.69	418.96
469.87	388.53
470.05	360.44
470.23	454.06
470.41	433.00
470.59	397.89
470.77	414.27
470.95	362.78
471.14	402.57
471.32	353.42
471.50	407.25
471.68	358.10
471.86	400.23
472.04	416.62
472.22	313.63
472.40	374.49
472.58	440.02
472.77	435.34
472.95	372.15
473.13	430.66
473.31	433.00
473.49	369.80
473.67	425.98
473.85	507.90
474.03	482.15
474.21	402.57
474.39	390.87
474.57	454.06
474.75	418.96
474.93	344.06
475.12	404.91
475.30	440.02
475.48	386.19
475.66	428.32
475.84	418.96
476.02	374.49
476.20	360.44
476.38	430.66
476.56	433.00
476.74	344.06
476.92	409.59
477.10	430.66
477.28	447.04
477.46	400.23
477.64	440.02
477.82	376.83
478.00	416.62
478.18	435.34
478.36	472.79
478.54	341.72
478.72	449.38
478.90	458.74
479.08	386.19
479.26	416.62
479.44	367.46
479.62	383.85
479.80	414.27
479.98	360.44
480.16	388.53
480.34	369.80
480.52	479.81
480.70	334.70
480.88	449.38
481.06	334.70
481.24	381.51
481.41	414.27
481.59	393.21
481.77	390.87
481.95	400.23
482.13	433.00
482.31	463.43
482.49	383.85
482.67	322.99
482.85	456.40
483.03	447.04
483.21	367.46
483.39	395.55
483.57	365.12
483.74	472.79
483.92	395.55
484.10	346.40
484.28	440.02
484.46	505.56
484.64	421.30
484.82	440.02
485.00	454.06
485.18	388.53
485.35	386.19
485.53	393.21
485.71	461.09
485.89	390.87
486.07	327.68
486.25	500.87
486.43	400.23
486.61	411.93
486.78	390.87
486.96	393.21
487.14	376.83
487.32	383.85
487.50	433.00
487.68	440.02
487.85	355.76
488.03	388.53
488.21	376.83
488.39	421.30
488.57	477.47
488.75	409.59
488.92	472.79
489.10	416.62
489.28	418.96
489.46	407.25
489.64	379.17
489.81	416.62
489.99	423.64
490.17	395.55
490.35	505.56
490.53	365.12
490.70	386.19
490.88	414.27
491.06	428.32
491.24	390.87
491.41	449.38
491.59	440.02
491.77	456.40
491.95	430.66
492.13	351.08
492.30	444.70
492.48	440.02
492.66	383.85
492.84	353.42
493.01	402.57
493.19	390.87
493.37	433.00
493.54	416.62
493.72	430.66
493.90	386.19
494.08	512.58
494.25	423.64
494.43	402.57
494.61	355.76
494.79	400.23
494.96	437.68
495.14	435.34
495.32	397.89
495.49	369.80
495.67	409.59
495.85	414.27
496.02	397.89
496.20	414.27
496.38	407.25
496.55	348.74
496.73	435.34
496.91	425.98
497.09	376.83
497.26	414.27
497.44	390.87
497.62	421.30
497.79	425.98
497.97	435.34
498.14	433.00
498.32	437.68
498.50	447.04
498.67	404.91
498.85	421.30
499.03	433.00
499.20	362.78
499.38	414.27
499.56	376.83
499.73	425.98
499.91	402.57
500.08	430.66
500.26	449.38
500.44	395.55
500.61	418.96
500.79	428.32
500.97	390.87
501.14	407.25
501.32	418.96
501.49	442.36
501.67	379.17
501.84	383.85
502.02	463.43
502.20	442.36
502.37	402.57
502.55	430.66
502.72	404.91
502.90	376.83
503.07	409.59
503.25	468.11
503.43	393.21
503.60	418.96
503.78	442.36
503.95	379.17
504.13	397.89
504.30	393.21
504.48	404.91
504.65	430.66
504.83	386.19
505.01	440.02
505.18	421.30
505.36	442.36
505.53	414.27
505.71	404.91
505.88	456.40
506.06	425.98
506.23	416.62
506.41	355.76
506.58	425.98
506.76	416.62
506.93	390.87
507.11	381.51
507.28	379.17
507.46	409.59
507.63	449.38
507.81	397.89
507.98	400.23
508.16	416.62
508.33	404.91
508.50	456.40
508.68	393.21
508.85	360.44
509.03	386.19
509.20	437.68
509.38	456.40
509.55	418.96
509.73	348.74
509.90	465.77
510.08	334.70
510.25	383.85
510.42	379.17
510.60	433.00
510.77	461.09
510.95	486.83
511.12	376.83
511.30	449.38
511.47	381.51
511.64	451.72
511.82	489.17
511.99	430.66
512.17	339.38
512.34	437.68
512.51	346.40
512.69	411.93
512.86	444.70
513.04	400.23
513.21	505.56
513.38	351.08
513.56	425.98
513.73	360.44
513.90	407.25
514.08	416.62
514.25	428.32
514.43	360.44
514.60	381.51
514.77	416.62
514.95	433.00
515.12	379.17
515.29	404.91
515.47	404.91
515.64	381.51
515.81	400.23
515.99	451.72
516.16	425.98
516.33	458.74
516.51	351.08
516.68	451.72
516.85	425.98
517.03	379.17
517.20	442.36
517.37	390.87
517.54	533.64
517.72	463.43
517.89	416.62
518.06	393.21
518.24	454.06
518.41	449.38
518.58	449.38
518.75	327.68
518.93	409.59
519.10	388.53
519.27	418.96
519.45	442.36
519.62	430.66
519.79	369.80
519.96	428.32
520.14	433.00
520.31	479.81
520.48	407.25
520.65	479.81
520.83	428.32
521.00	437.68
521.17	482.15
521.34	440.02
521.52	374.49
521.69	440.02
521.86	402.57
522.03	428.32
522.20	400.23
522.38	369.80
522.55	397.89
522.72	414.27
522.89	397.89
523.07	400.23
523.24	454.06
523.41	381.51
523.58	353.42
523.75	421.30
523.92	381.51
524.10	430.66
524.27	449.38
524.44	442.36
524.61	397.89
524.78	454.06
524.96	475.13
525.13	428.32
525.30	442.36
525.47	414.27
525.64	404.91
525.81	437.68
525.98	407.25
526.16	463.43
526.33	402.57
526.50	423.64
526.67	470.45
526.84	425.98
527.01	470.45
527.18	407.25
527.36	381.51
527.53	395.55
527.70	407.25
527.87	327.68
528.04	477.47
528.21	365.12
528.38	435.34
528.55	449.38
528.72	454.06
528.89	442.36
529.07	447.04
529.24	358.10
529.41	486.83
529.58	433.00
529.75	437.68
529.92	414.27
530.09	458.74
530.26	381.51
530.43	418.96
530.60	404.91
530.77	433.00
530.94	390.87
531.11	421.30
531.28	346.40
531.46	430.66
531.63	360.44
531.80	433.00
531.97	449.38
532.14	381.51
532.31	416.62
532.48	428.32
532.65	355.76
532.82	379.17
532.99	430.66
533.16	388.53
533.33	397.89
533.50	386.19
533.67	374.49
533.84	301.93
534.01	463.43
534.18	425.98
534.35	465.77
534.52	435.34
534.69	470.45
534.86	400.23
535.03	374.49
535.20	454.06
535.37	404.91
535.54	386.19
535.71	435.34
535.88	454.06
536.05	435.34
536.22	447.04
536.38	404.91
536.55	451.72
536.72	414.27
536.89	428.32
537.06	332.36
537.23	409.59
537.40	411.93
537.57	402.57
537.74	402.57
537.91	407.25
538.08	416.62
538.25	437.68
538.42	397.89
538.59	369.80
538.75	409.59
538.92	437.68
539.09	479.81
539.26	386.19
539.43	461.09
539.60	430.66
539.77	390.87
539.94	393.21
540.11	416.62
540.28	468.11
540.44	423.64
540.61	440.02
540.78	447.04
540.95	414.27
541.12	425.98
541.29	414.27
541.46	400.23
541.62	369.80
541.79	407.25
541.96	402.57
542.13	435.34
542.30	348.74
542.47	428.32
542.63	444.70
542.80	425.98
542.97	383.85
543.14	376.83
543.31	390.87
543.48	428.32
543.64	421.30
543.81	362.78
543.98	425.98
544.15	409.59
544.32	414.27
544.48	475.13
544.65	374.49
544.82	360.44
544.99	395.55
545.16	383.85
545.32	451.72
545.49	386.19
545.66	435.34
545.83	390.87
546.00	365.12
546.16	376.83
546.33	330.02
546.50	344.06
546.67	477.47
546.83	447.04
547.00	472.79
547.17	472.79
547.34	449.38
547.50	390.87
547.67	400.23
547.84	376.83
548.00	393.21
548.17	407.25
548.34	472.79
548.51	451.72
548.67	414.27
548.84	451.72
549.01	435.34
549.18	463.43
549.34	468.11
549.51	430.66
549.68	330.02
549.84	463.43
550.01	437.68
550.18	447.04
550.34	498.53
550.51	433.00
550.68	430.66
550.84	379.17
551.01	435.34
551.18	409.59
551.34	376.83
551.51	468.11
551.68	435.34
551.84	409.59
552.01	430.66
552.18	430.66
552.34	353.42
552.51	447.04
552.68	463.43
552.84	423.64
553.01	463.43
553.18	402.57
553.34	416.62
553.51	411.93
553.67	463.43
553.84	428.32
554.01	348.74
554.17	411.93
554.34	397.89
554.51	372.15
554.67	414.27
554.84	444.70
555.00	458.74
555.17	395.55
555.33	440.02
555.50	428.32
555.67	440.02
555.83	407.25
556.00	353.42
556.16	540.66
556.33	440.02
556.50	463.43
556.66	404.91
556.83	322.99
556.99	400.23
557.16	425.98
557.32	465.77
557.49	416.62
557.65	421.30
557.82	451.72
557.98	393.21
558.15	358.10
558.32	468.11
558.48	421.30
558.65	496.19
558.81	416.62
558.98	397.89
559.14	442.36
559.31	367.46
559.47	423.64
559.64	397.89
559.80	404.91
559.97	416.62
560.13	465.77
560.30	430.66
560.46	416.62
560.63	402.57
560.79	386.19
560.96	435.34
561.12	409.59
561.29	409.59
561.45	442.36
561.61	447.04
561.78	454.06
561.94	360.44
562.11	393.21
562.27	421.30
562.44	388.53
562.60	374.49
562.77	442.36
562.93	442.36
563.10	433.00
563.26	367.46
563.42	451.72
563.59	409.59
563.75	486.83
563.92	423.64
564.08	428.32
564.24	503.22
564.41	449.38
564.57	411.93
564.74	358.10
564.90	437.68
565.07	458.74
565.23	491.51
565.39	358.10
565.56	435.34
565.72	390.87
565.88	440.02
566.05	425.98
566.21	397.89
566.38	390.87
566.54	369.80
566.70	360.44
566.87	369.80
567.03	386.19
567.19	507.90
567.36	456.40
567.52	407.25
567.68	383.85
567.85	428.32
568.01	348.74
568.17	386.19
568.34	390.87
568.50	472.79
568.66	365.12
568.83	468.11
568.99	468.11
569.15	468.11
569.32	397.89
569.48	369.80
569.64	418.96
569.81	369.80
569.97	362.78
570.13	433.00
570.30	440.02
570.46	437.68
570.62	472.79
570.78	430.66
570.95	362.78
571.11	421.30
571.27	411.93
571.43	456.40
571.60	418.96
571.76	423.64
571.92	414.27
572.09	397.89
572.25	500.87
572.41	390.87
572.57	454.06
572.74	461.09
572.90	440.02
573.06	409.59
573.22	425.98
573.38	386.19
573.55	397.89
573.71	461.09
573.87	458.74
574.03	433.00
574.20	411.93
574.36	493.85
574.52	402.57
574.68	362.78
574.84	489.17
575.01	395.55
575.17	521.94
575.33	400.23
575.49	433.00
575.65	463.43
575.82	477.47
575.98	404.91
576.14	503.22
576.30	346.40
576.46	507.90
576.62	362.78
576.79	404.91
576.95	468.11
577.11	479.81
577.27	404.91
577.43	437.68
577.59	484.49
577.75	414.27
577.92	430.66
578.08	381.51
578.24	423.64
578.40	463.43
578.56	482.15
578.72	442.36
578.88	435.34
579.04	407.25
579.21	386.19
579.37	482.15
579.53	421.30
579.69	367.46
579.85	484.49
580.01	449.38
580.17	393.21
580.33	447.04
580.49	400.23
580.65	425.98
580.82	447.04
580.98	407.25
581.14	374.49
581.30	416.62
581.46	407.25
581.62	447.04
581.78	430.66
581.94	386.19
582.10	423.64
582.26	440.02
582.42	395.55
582.58	337.04
582.74	440.02
582.90	489.17
583.06	475.13
583.22	428.32
583.38	416.62
583.54	421.30
583.70	440.02
583.86	418.96
584.02	400.23
584.18	388.53
584.34	367.46
584.50	409.59
584.66	388.53
584.82	404.91
584.98	374.49
585.14	458.74
585.30	442.36
585.46	418.96
585.62	360.44
585.78	430.66
585.94	397.89
586.10	440.02
586.26	437.68
586.42	428.32
586.58	435.34
586.74	433.00
586.90	435.34
587.06	388.53
587.22	468.11
587.38	334.70
587.54	414.27
587.70	475.13
587.86	472.79
588.02	454.06
588.18	444.70
588.34	414.27
588.49	332.36
588.65	418.96
588.81	470.45
588.97	353.42
589.13	477.47
589.29	348.74
589.45	458.74
589.61	388.53
589.77	414.27
589.93	421.30
590.08	517.26
590.24	379.17
590.40	393.21
590.56	454.06
590.72	421.30
590.88	454.06
591.04	447.04
591.20	470.45
591.35	411.93
591.51	421.30
591.67	348.74
591.83	461.09
591.99	430.66
592.15	411.93
592.31	386.19
592.46	425.98
592.62	372.15
592.78	383.85
592.94	367.46
593.10	400.23
593.26	461.09
593.41	442.36
593.57	454.06
593.73	430.66
593.89	397.89
594.05	456.40
594.20	425.98
594.36	477.47
594.52	414.27
594.68	416.62
594.84	444.70
594.99	442.36
595.15	421.30
595.31	447.04
595.47	491.51
595.62	489.17
595.78	458.74
595.94	479.81
596.10	451.72
596.25	470.45
596.41	451.72
596.57	423.64
596.73	388.53
596.88	461.09
597.04	414.27
597.20	482.15
597.36	437.68
597.51	418.96
597.67	346.40
597.83	430.66
597.99	447.04
598.14	379.17
598.30	447.04
598.46	355.76
598.61	433.00
598.77	458.74
598.93	411.93
599.09	402.57
599.24	407.25
599.40	458.74
599.56	348.74
599.71	472.79
599.87	360.44
600.03	425.98
600.18	433.00
600.34	393.21
600.50	367.46
600.65	435.34
600.81	402.57
600.97	393.21
601.12	423.64
601.28	449.38
601.44	346.40
601.59	386.19
601.75	465.77
601.91	388.53
602.06	423.64
602.22	470.45
602.37	393.21
602.53	430.66
602.69	430.66
602.84	395.55
603.00	390.87
603.16	428.32
603.31	465.77
603.47	433.00
603.62	386.19
603.78	407.25
603.94	428.32
604.09	372.15
604.25	433.00
604.40	456.40
604.56	362.78
604.71	367.46
604.87	355.76
605.03	423.64
605.18	428.32
605.34	411.93
605.49	489.17
605.65	421.30
605.80	456.40
605.96	430.66
606.12	461.09
606.27	414.27
606.43	358.10
606.58	425.98
606.74	386.19
606.89	428.32
607.05	402.57
607.20	404.91
607.36	383.85
607.51	425.98
607.67	418.96
607.82	397.89
607.98	430.66
608.13	393.21
608.29	369.80
608.44	435.34
608.60	390.87
608.75	435.34
608.91	461.09
609.06	421.30
609.22	435.34
609.37	294.91
609.53	400.23
609.68	477.47
609.84	379.17
609.99	402.57
610.15	435.34
