SpectraSuite Data File
++++++++++++++++++++++++++++++++++++
Date: Fri Oct 25 12:11:04 EDT 2013
User: price-jones
Dark Spectrum Present: No
Reference Spectrum Present: No
Number of Sampled Component Spectra: 1
Spectrometers: USB2+H05261
Integration Time (usec): 100000 (USB2+H05261)
Spectra Averaged: 1 (USB2+H05261)
Boxcar Smoothing: 0 (USB2+H05261)
Correct for Electrical Dark: No (USB2+H05261)
Strobe/Lamp Enabled: No (USB2+H05261)
Correct for Detector Non-linearity: No (USB2+H05261)
Correct for Stray Light: No (USB2+H05261)
Number of Pixels in Processed Spectrum: 2048
>>>>>Begin Processed Spectral Data<<<<<
365.73	344.06
365.92	344.06
366.12	344.06
366.32	269.16
366.52	229.37
366.72	241.08
366.91	248.10
367.11	325.33
367.31	264.48
367.51	138.09
367.70	259.80
367.90	250.44
368.10	259.80
368.30	262.14
368.49	250.44
368.69	266.82
368.89	180.22
369.09	255.12
369.28	297.25
369.48	283.20
369.68	327.68
369.87	353.42
370.07	280.86
370.27	318.31
370.47	386.19
370.66	304.27
370.86	404.91
371.06	397.89
371.25	430.66
371.45	372.15
371.65	388.53
371.84	306.61
372.04	444.70
372.24	440.02
372.44	339.38
372.63	444.70
372.83	442.36
373.03	461.09
373.22	407.25
373.42	376.83
373.62	374.49
373.81	390.87
374.01	409.59
374.21	369.80
374.40	407.25
374.60	421.30
374.79	470.45
374.99	433.00
375.19	440.02
375.38	442.36
375.58	428.32
375.78	519.60
375.97	418.96
376.17	444.70
376.37	402.57
376.56	449.38
376.76	444.70
376.95	365.12
377.15	404.91
377.35	430.66
377.54	475.13
377.74	407.25
377.93	397.89
378.13	416.62
378.33	451.72
378.52	353.42
378.72	369.80
378.91	386.19
379.11	423.64
379.31	383.85
379.50	365.12
379.70	421.30
379.89	395.55
380.09	372.15
380.28	423.64
380.48	425.98
380.68	379.17
380.87	381.51
381.07	369.80
381.26	388.53
381.46	416.62
381.65	381.51
381.85	372.15
382.04	414.27
382.24	418.96
382.43	365.12
382.63	381.51
382.83	442.36
383.02	402.57
383.22	397.89
383.41	404.91
383.61	393.21
383.80	423.64
384.00	425.98
384.19	397.89
384.39	414.27
384.58	449.38
384.78	423.64
384.97	418.96
385.17	337.04
385.36	400.23
385.56	456.40
385.75	421.30
385.95	395.55
386.14	369.80
386.34	383.85
386.53	465.77
386.72	346.40
386.92	372.15
387.11	367.46
387.31	369.80
387.50	397.89
387.70	428.32
387.89	395.55
388.09	390.87
388.28	468.11
388.48	425.98
388.67	393.21
388.86	358.10
389.06	454.06
389.25	383.85
389.45	400.23
389.64	411.93
389.84	447.04
390.03	322.99
390.22	367.46
390.42	381.51
390.61	365.12
390.81	379.17
391.00	390.87
391.19	372.15
391.39	454.06
391.58	414.27
391.78	365.12
391.97	400.23
392.16	451.72
392.36	414.27
392.55	397.89
392.75	409.59
392.94	425.98
393.13	395.55
393.33	397.89
393.52	451.72
393.71	425.98
393.91	369.80
394.10	376.83
394.29	358.10
394.49	369.80
394.68	402.57
394.88	395.55
395.07	411.93
395.26	465.77
395.46	425.98
395.65	334.70
395.84	472.79
396.04	465.77
396.23	393.21
396.42	379.17
396.62	451.72
396.81	388.53
397.00	379.17
397.19	414.27
397.39	442.36
397.58	491.51
397.77	414.27
397.97	358.10
398.16	440.02
398.35	458.74
398.55	400.23
398.74	381.51
398.93	383.85
399.12	404.91
399.32	449.38
399.51	468.11
399.70	428.32
399.90	358.10
400.09	463.43
400.28	390.87
400.47	404.91
400.67	423.64
400.86	411.93
401.05	449.38
401.24	435.34
401.44	435.34
401.63	468.11
401.82	435.34
402.01	402.57
402.21	468.11
402.40	465.77
402.59	362.78
402.78	393.21
402.97	425.98
403.17	433.00
403.36	381.51
403.55	407.25
403.74	444.70
403.93	383.85
404.13	390.87
404.32	418.96
404.51	400.23
404.70	458.74
404.89	397.89
405.09	409.59
405.28	411.93
405.47	386.19
405.66	383.85
405.85	458.74
406.05	449.38
406.24	407.25
406.43	393.21
406.62	355.76
406.81	440.02
407.00	383.85
407.20	369.80
407.39	425.98
407.58	360.44
407.77	414.27
407.96	365.12
408.15	454.06
408.34	449.38
408.54	376.83
408.73	449.38
408.92	381.51
409.11	477.47
409.30	479.81
409.49	376.83
409.68	414.27
409.87	433.00
410.07	383.85
410.26	379.17
410.45	409.59
410.64	402.57
410.83	437.68
411.02	348.74
411.21	365.12
411.40	470.45
411.59	454.06
411.78	388.53
411.98	423.64
412.17	437.68
412.36	379.17
412.55	383.85
412.74	351.08
412.93	416.62
413.12	365.12
413.31	404.91
413.50	437.68
413.69	332.36
413.88	348.74
414.07	372.15
414.26	393.21
414.45	390.87
414.64	435.34
414.83	456.40
415.02	433.00
415.22	437.68
415.41	449.38
415.60	390.87
415.79	362.78
415.98	442.36
416.17	463.43
416.36	386.19
416.55	379.17
416.74	428.32
416.93	414.27
417.12	472.79
417.31	433.00
417.50	456.40
417.69	404.91
417.88	381.51
418.07	372.15
418.26	393.21
418.45	428.32
418.64	404.91
418.83	418.96
419.02	416.62
419.21	393.21
419.39	388.53
419.58	386.19
419.77	383.85
419.96	451.72
420.15	433.00
420.34	376.83
420.53	388.53
420.72	442.36
420.91	397.89
421.10	367.46
421.29	355.76
421.48	402.57
421.67	400.23
421.86	456.40
422.05	430.66
422.24	388.53
422.43	367.46
422.61	383.85
422.80	404.91
422.99	430.66
423.18	437.68
423.37	397.89
423.56	482.15
423.75	444.70
423.94	468.11
424.13	386.19
424.32	468.11
424.50	404.91
424.69	423.64
424.88	402.57
425.07	348.74
425.26	421.30
425.45	461.09
425.64	479.81
425.83	409.59
426.01	400.23
426.20	339.38
426.39	421.30
426.58	393.21
426.77	376.83
426.96	360.44
427.15	341.72
427.33	367.46
427.52	449.38
427.71	425.98
427.90	404.91
428.09	393.21
428.28	386.19
428.46	440.02
428.65	407.25
428.84	360.44
429.03	468.11
429.22	393.21
429.40	416.62
429.59	388.53
429.78	407.25
429.97	383.85
430.16	402.57
430.34	390.87
430.53	400.23
430.72	393.21
430.91	341.72
431.10	376.83
431.28	409.59
431.47	332.36
431.66	390.87
431.85	463.43
432.03	423.64
432.22	402.57
432.41	390.87
432.60	423.64
432.79	407.25
432.97	339.38
433.16	411.93
433.35	433.00
433.54	315.97
433.72	353.42
433.91	322.99
434.10	454.06
434.28	423.64
434.47	416.62
434.66	493.85
434.85	433.00
435.03	500.87
435.22	435.34
435.41	423.64
435.59	461.09
435.78	463.43
435.97	440.02
436.16	458.74
436.34	414.27
436.53	395.55
436.72	444.70
436.90	493.85
437.09	456.40
437.28	425.98
437.46	489.17
437.65	435.34
437.84	437.68
438.02	430.66
438.21	407.25
438.40	425.98
438.58	388.53
438.77	318.31
438.96	433.00
439.14	397.89
439.33	407.25
439.52	440.02
439.70	386.19
439.89	411.93
440.08	414.27
440.26	451.72
440.45	442.36
440.63	456.40
440.82	383.85
441.01	386.19
441.19	388.53
441.38	411.93
441.57	475.13
441.75	447.04
441.94	400.23
442.12	409.59
442.31	360.44
442.50	428.32
442.68	416.62
442.87	407.25
443.05	440.02
443.24	402.57
443.43	414.27
443.61	435.34
443.80	395.55
443.98	376.83
444.17	404.91
444.35	360.44
444.54	388.53
444.73	447.04
444.91	468.11
445.10	362.78
445.28	433.00
445.47	414.27
445.65	470.45
445.84	437.68
446.02	447.04
446.21	411.93
446.39	402.57
446.58	465.77
446.77	374.49
446.95	397.89
447.14	414.27
447.32	369.80
447.51	393.21
447.69	416.62
447.88	360.44
448.06	447.04
448.25	355.76
448.43	470.45
448.62	369.80
448.80	482.15
448.99	435.34
449.17	409.59
449.36	374.49
449.54	435.34
449.73	400.23
449.91	395.55
450.10	332.36
450.28	409.59
450.46	407.25
450.65	379.17
450.83	451.72
451.02	395.55
451.20	447.04
451.39	351.08
451.57	428.32
451.76	416.62
451.94	358.10
452.13	449.38
452.31	456.40
452.49	390.87
452.68	395.55
452.86	407.25
453.05	454.06
453.23	388.53
453.42	383.85
453.60	369.80
453.78	458.74
453.97	414.27
454.15	411.93
454.34	456.40
454.52	330.02
454.70	472.79
454.89	407.25
455.07	313.63
455.26	418.96
455.44	440.02
455.62	404.91
455.81	390.87
455.99	463.43
456.17	444.70
456.36	423.64
456.54	337.04
456.73	337.04
456.91	388.53
457.09	423.64
457.28	444.70
457.46	374.49
457.64	458.74
457.83	435.34
458.01	397.89
458.19	437.68
458.38	383.85
458.56	440.02
458.74	416.62
458.93	472.79
459.11	344.06
459.29	395.55
459.48	407.25
459.66	411.93
459.84	418.96
460.03	479.81
460.21	472.79
460.39	461.09
460.57	376.83
460.76	400.23
460.94	379.17
461.12	489.17
461.31	383.85
461.49	402.57
461.67	390.87
461.85	433.00
462.04	369.80
462.22	770.04
462.40	383.85
462.59	482.15
462.77	463.43
462.95	433.00
463.13	386.19
463.32	393.21
463.50	421.30
463.68	538.32
463.86	458.74
464.05	402.57
464.23	449.38
464.41	397.89
464.59	351.08
464.78	365.12
464.96	353.42
465.14	428.32
465.32	428.32
465.50	444.70
465.69	358.10
465.87	325.33
466.05	390.87
466.23	440.02
466.41	489.17
466.60	388.53
466.78	418.96
466.96	418.96
467.14	444.70
467.32	447.04
467.51	407.25
467.69	402.57
467.87	489.17
468.05	465.77
468.23	421.30
468.41	442.36
468.60	454.06
468.78	397.89
468.96	449.38
469.14	421.30
469.32	428.32
469.50	416.62
469.69	416.62
469.87	442.36
470.05	409.59
470.23	411.93
470.41	421.30
470.59	435.34
470.77	465.77
470.95	395.55
471.14	344.06
471.32	479.81
471.50	440.02
471.68	402.57
471.86	337.04
472.04	428.32
472.22	360.44
472.40	362.78
472.58	395.55
472.77	383.85
472.95	390.87
473.13	428.32
473.31	376.83
473.49	444.70
473.67	381.51
473.85	428.32
474.03	423.64
474.21	416.62
474.39	404.91
474.57	435.34
474.75	454.06
474.93	475.13
475.12	461.09
475.30	386.19
475.48	402.57
475.66	374.49
475.84	355.76
476.02	397.89
476.20	425.98
476.38	409.59
476.56	484.49
476.74	390.87
476.92	395.55
477.10	425.98
477.28	425.98
477.46	475.13
477.64	458.74
477.82	416.62
478.00	393.21
478.18	430.66
478.36	369.80
478.54	290.23
478.72	505.56
478.90	397.89
479.08	437.68
479.26	397.89
479.44	435.34
479.62	423.64
479.80	355.76
479.98	404.91
480.16	423.64
480.34	463.43
480.52	360.44
480.70	421.30
480.88	395.55
481.06	421.30
481.24	451.72
481.41	486.83
481.59	418.96
481.77	435.34
481.95	416.62
482.13	395.55
482.31	390.87
482.49	407.25
482.67	397.89
482.85	484.49
483.03	447.04
483.21	409.59
483.39	402.57
483.57	416.62
483.74	435.34
483.92	414.27
484.10	397.89
484.28	484.49
484.46	531.30
484.64	475.13
484.82	430.66
485.00	433.00
485.18	451.72
485.35	456.40
485.53	409.59
485.71	414.27
485.89	332.36
486.07	409.59
486.25	425.98
486.43	416.62
486.61	428.32
486.78	425.98
486.96	360.44
487.14	409.59
487.32	482.15
487.50	367.46
487.68	407.25
487.85	458.74
488.03	411.93
488.21	463.43
488.39	379.17
488.57	402.57
488.75	411.93
488.92	498.53
489.10	428.32
489.28	496.19
489.46	374.49
489.64	383.85
489.81	383.85
489.99	390.87
490.17	381.51
490.35	461.09
490.53	433.00
490.70	416.62
490.88	461.09
491.06	407.25
491.24	358.10
491.41	521.94
491.59	369.80
491.77	379.17
491.95	390.87
492.13	409.59
492.30	447.04
492.48	386.19
492.66	386.19
492.84	393.21
493.01	421.30
493.19	454.06
493.37	430.66
493.54	400.23
493.72	388.53
493.90	456.40
494.08	365.12
494.25	423.64
494.43	449.38
494.61	351.08
494.79	383.85
494.96	404.91
495.14	437.68
495.32	374.49
495.49	430.66
495.67	393.21
495.85	360.44
496.02	418.96
496.20	510.24
496.38	461.09
496.55	407.25
496.73	411.93
496.91	388.53
497.09	421.30
497.26	416.62
497.44	400.23
497.62	407.25
497.79	454.06
497.97	430.66
498.14	440.02
498.32	437.68
498.50	440.02
498.67	383.85
498.85	358.10
499.03	379.17
499.20	388.53
499.38	341.72
499.56	360.44
499.73	416.62
499.91	491.51
500.08	428.32
500.26	442.36
500.44	451.72
500.61	465.77
500.79	407.25
500.97	395.55
501.14	463.43
501.32	388.53
501.49	390.87
501.67	449.38
501.84	414.27
502.02	395.55
502.20	470.45
502.37	430.66
502.55	362.78
502.72	360.44
502.90	421.30
503.07	433.00
503.25	440.02
503.43	442.36
503.60	456.40
503.78	304.27
503.95	390.87
504.13	447.04
504.30	369.80
504.48	491.51
504.65	444.70
504.83	468.11
505.01	358.10
505.18	383.85
505.36	388.53
505.53	386.19
505.71	376.83
505.88	430.66
506.06	390.87
506.23	433.00
506.41	491.51
506.58	449.38
506.76	435.34
506.93	383.85
507.11	409.59
507.28	428.32
507.46	355.76
507.63	416.62
507.81	411.93
507.98	442.36
508.16	447.04
508.33	447.04
508.50	465.77
508.68	379.17
508.85	409.59
509.03	379.17
509.20	472.79
509.38	376.83
509.55	383.85
509.73	463.43
509.90	458.74
510.08	393.21
510.25	430.66
510.42	372.15
510.60	479.81
510.77	372.15
510.95	449.38
511.12	390.87
511.30	409.59
511.47	404.91
511.64	430.66
511.82	407.25
511.99	418.96
512.17	395.55
512.34	374.49
512.51	430.66
512.69	414.27
512.86	428.32
513.04	372.15
513.21	449.38
513.38	411.93
513.56	435.34
513.73	381.51
513.90	444.70
514.08	444.70
514.25	433.00
514.43	430.66
514.60	407.25
514.77	400.23
514.95	360.44
515.12	421.30
515.29	409.59
515.47	486.83
515.64	381.51
515.81	402.57
515.99	447.04
516.16	454.06
516.33	442.36
516.51	383.85
516.68	404.91
516.85	449.38
517.03	440.02
517.20	451.72
517.37	430.66
517.54	386.19
517.72	449.38
517.89	472.79
518.06	435.34
518.24	454.06
518.41	475.13
518.58	379.17
518.75	421.30
518.93	395.55
519.10	395.55
519.27	472.79
519.45	484.49
519.62	440.02
519.79	421.30
519.96	428.32
520.14	435.34
520.31	381.51
520.48	386.19
520.65	470.45
520.83	486.83
521.00	479.81
521.17	383.85
521.34	421.30
521.52	437.68
521.69	475.13
521.86	444.70
522.03	447.04
522.20	484.49
522.38	465.77
522.55	414.27
522.72	411.93
522.89	409.59
523.07	470.45
523.24	456.40
523.41	395.55
523.58	433.00
523.75	454.06
523.92	402.57
524.10	353.42
524.27	456.40
524.44	404.91
524.61	465.77
524.78	435.34
524.96	442.36
525.13	433.00
525.30	418.96
525.47	456.40
525.64	372.15
525.81	369.80
525.98	414.27
526.16	421.30
526.33	430.66
526.50	430.66
526.67	423.64
526.84	444.70
527.01	372.15
527.18	421.30
527.36	433.00
527.53	381.51
527.70	386.19
527.87	418.96
528.04	444.70
528.21	416.62
528.38	409.59
528.55	376.83
528.72	447.04
528.89	435.34
529.07	395.55
529.24	423.64
529.41	470.45
529.58	411.93
529.75	470.45
529.92	404.91
530.09	372.15
530.26	423.64
530.43	416.62
530.60	423.64
530.77	362.78
530.94	468.11
531.11	428.32
531.28	428.32
531.46	393.21
531.63	407.25
531.80	339.38
531.97	360.44
532.14	337.04
532.31	437.68
532.48	404.91
532.65	397.89
532.82	411.93
532.99	421.30
533.16	437.68
533.33	327.68
533.50	360.44
533.67	367.46
533.84	358.10
534.01	421.30
534.18	433.00
534.35	461.09
534.52	435.34
534.69	454.06
534.86	433.00
535.03	400.23
535.20	337.04
535.37	430.66
535.54	414.27
535.71	379.17
535.88	400.23
536.05	355.76
536.22	433.00
536.38	416.62
536.55	386.19
536.72	395.55
536.89	400.23
537.06	409.59
537.23	369.80
537.40	425.98
537.57	322.99
537.74	404.91
537.91	461.09
538.08	388.53
538.25	393.21
538.42	442.36
538.59	472.79
538.75	418.96
538.92	369.80
539.09	425.98
539.26	355.76
539.43	458.74
539.60	383.85
539.77	397.89
539.94	411.93
540.11	409.59
540.28	503.22
540.44	435.34
540.61	440.02
540.78	388.53
540.95	437.68
541.12	416.62
541.29	409.59
541.46	510.24
541.62	421.30
541.79	367.46
541.96	390.87
542.13	458.74
542.30	360.44
542.47	433.00
542.63	425.98
542.80	423.64
542.97	369.80
543.14	435.34
543.31	451.72
543.48	451.72
543.64	440.02
543.81	454.06
543.98	440.02
544.15	393.21
544.32	449.38
544.48	447.04
544.65	344.06
544.82	470.45
544.99	423.64
545.16	482.15
545.32	425.98
545.49	435.34
545.66	517.26
545.83	414.27
546.00	372.15
546.16	397.89
546.33	416.62
546.50	304.27
546.67	456.40
546.83	465.77
547.00	433.00
547.17	395.55
547.34	437.68
547.50	425.98
547.67	402.57
547.84	383.85
548.00	430.66
548.17	397.89
548.34	484.49
548.51	379.17
548.67	409.59
548.84	414.27
549.01	365.12
549.18	456.40
549.34	433.00
549.51	423.64
549.68	395.55
549.84	388.53
550.01	437.68
550.18	486.83
550.34	475.13
550.51	430.66
550.68	510.24
550.84	433.00
551.01	472.79
551.18	414.27
551.34	400.23
551.51	330.02
551.68	421.30
551.84	409.59
552.01	421.30
552.18	430.66
552.34	407.25
552.51	454.06
552.68	388.53
552.84	451.72
553.01	451.72
553.18	479.81
553.34	386.19
553.51	395.55
553.67	463.43
553.84	472.79
554.01	409.59
554.17	433.00
554.34	477.47
554.51	383.85
554.67	393.21
554.84	418.96
555.00	435.34
555.17	435.34
555.33	416.62
555.50	433.00
555.67	461.09
555.83	456.40
556.00	437.68
556.16	538.32
556.33	421.30
556.50	463.43
556.66	393.21
556.83	411.93
556.99	421.30
557.16	472.79
557.32	367.46
557.49	425.98
557.65	367.46
557.82	376.83
557.98	369.80
558.15	456.40
558.32	414.27
558.48	433.00
558.65	365.12
558.81	428.32
558.98	449.38
559.14	472.79
559.31	397.89
559.47	409.59
559.64	451.72
559.80	447.04
559.97	484.49
560.13	449.38
560.30	381.51
560.46	395.55
560.63	423.64
560.79	418.96
560.96	458.74
561.12	376.83
561.29	383.85
561.45	447.04
561.61	430.66
561.78	470.45
561.94	428.32
562.11	437.68
562.27	451.72
562.44	416.62
562.60	414.27
562.77	421.30
562.93	472.79
563.10	447.04
563.26	411.93
563.42	411.93
563.59	409.59
563.75	365.12
563.92	510.24
564.08	461.09
564.24	428.32
564.41	503.22
564.57	348.74
564.74	397.89
564.90	442.36
565.07	428.32
565.23	416.62
565.39	470.45
565.56	411.93
565.72	440.02
565.88	433.00
566.05	430.66
566.21	360.44
566.38	395.55
566.54	507.90
566.70	418.96
566.87	322.99
567.03	367.46
567.19	447.04
567.36	500.87
567.52	425.98
567.68	411.93
567.85	416.62
568.01	379.17
568.17	400.23
568.34	372.15
568.50	463.43
568.66	449.38
568.83	395.55
568.99	367.46
569.15	416.62
569.32	444.70
569.48	404.91
569.64	360.44
569.81	388.53
569.97	402.57
570.13	456.40
570.30	489.17
570.46	397.89
570.62	407.25
570.78	493.85
570.95	447.04
571.11	449.38
571.27	423.64
571.43	404.91
571.60	409.59
571.76	383.85
571.92	374.49
572.09	386.19
572.25	442.36
572.41	369.80
572.57	395.55
572.74	440.02
572.90	435.34
573.06	428.32
573.22	372.15
573.38	421.30
573.55	365.12
573.71	414.27
573.87	418.96
574.03	383.85
574.20	407.25
574.36	381.51
574.52	475.13
574.68	421.30
574.84	437.68
575.01	365.12
575.17	463.43
575.33	430.66
575.49	437.68
575.65	435.34
575.82	503.22
575.98	369.80
576.14	428.32
576.30	463.43
576.46	404.91
576.62	409.59
576.79	437.68
576.95	442.36
577.11	365.12
577.27	372.15
577.43	458.74
577.59	451.72
577.75	472.79
577.92	411.93
578.08	433.00
578.24	454.06
578.40	376.83
578.56	491.51
578.72	484.49
578.88	421.30
579.04	418.96
579.21	374.49
579.37	444.70
579.53	468.11
579.69	430.66
579.85	458.74
580.01	472.79
580.17	348.74
580.33	383.85
580.49	418.96
580.65	416.62
580.82	440.02
580.98	414.27
581.14	362.78
581.30	358.10
581.46	400.23
581.62	451.72
581.78	388.53
581.94	456.40
582.10	379.17
582.26	444.70
582.42	404.91
582.58	486.83
582.74	449.38
582.90	320.65
583.06	411.93
583.22	369.80
583.38	409.59
583.54	414.27
583.70	386.19
583.86	390.87
584.02	437.68
584.18	442.36
584.34	472.79
584.50	407.25
584.66	393.21
584.82	393.21
584.98	374.49
585.14	442.36
585.30	477.47
585.46	463.43
585.62	407.25
585.78	423.64
585.94	433.00
586.10	393.21
586.26	498.53
586.42	416.62
586.58	369.80
586.74	402.57
586.90	423.64
587.06	409.59
587.22	484.49
587.38	369.80
587.54	465.77
587.70	379.17
587.86	437.68
588.02	465.77
588.18	451.72
588.34	376.83
588.49	411.93
588.65	383.85
588.81	425.98
588.97	400.23
589.13	369.80
589.29	482.15
589.45	507.90
589.61	454.06
589.77	440.02
589.93	383.85
590.08	437.68
590.24	402.57
590.40	440.02
590.56	428.32
590.72	416.62
590.88	386.19
591.04	404.91
591.20	414.27
591.35	451.72
591.51	463.43
591.67	386.19
591.83	437.68
591.99	496.19
592.15	404.91
592.31	407.25
592.46	486.83
592.62	390.87
592.78	390.87
592.94	395.55
593.10	484.49
593.26	369.80
593.41	411.93
593.57	458.74
593.73	421.30
593.89	386.19
594.05	351.08
594.20	418.96
594.36	376.83
594.52	409.59
594.68	435.34
594.84	440.02
594.99	411.93
595.15	404.91
595.31	458.74
595.47	477.47
595.62	479.81
595.78	409.59
595.94	379.17
596.10	435.34
596.25	409.59
596.41	470.45
596.57	379.17
596.73	400.23
596.88	435.34
597.04	414.27
597.20	437.68
597.36	393.21
597.51	437.68
597.67	379.17
597.83	421.30
597.99	475.13
598.14	451.72
598.30	437.68
598.46	402.57
598.61	425.98
598.77	404.91
598.93	407.25
599.09	423.64
599.24	376.83
599.40	423.64
599.56	449.38
599.71	393.21
599.87	465.77
600.03	444.70
600.18	451.72
600.34	440.02
600.50	381.51
600.65	428.32
600.81	482.15
600.97	425.98
601.12	402.57
601.28	418.96
601.44	402.57
601.59	484.49
601.75	388.53
601.91	369.80
602.06	416.62
602.22	440.02
602.37	435.34
602.53	407.25
602.69	430.66
602.84	423.64
603.00	482.15
603.16	435.34
603.31	433.00
603.47	430.66
603.62	423.64
603.78	322.99
603.94	400.23
604.09	402.57
604.25	421.30
604.40	386.19
604.56	362.78
604.71	444.70
604.87	397.89
605.03	447.04
605.18	402.57
605.34	404.91
605.49	390.87
605.65	416.62
605.80	402.57
605.96	365.12
606.12	442.36
606.27	435.34
606.43	381.51
606.58	470.45
606.74	440.02
606.89	400.23
607.05	463.43
607.20	355.76
607.36	461.09
607.51	388.53
607.67	430.66
607.82	283.20
607.98	402.57
608.13	470.45
608.29	358.10
608.44	411.93
608.60	379.17
608.75	463.43
608.91	437.68
609.06	463.43
609.22	433.00
609.37	390.87
609.53	423.64
609.68	395.55
609.84	440.02
609.99	428.32
610.15	498.53
