SpectraSuite Data File
++++++++++++++++++++++++++++++++++++
Date: Fri Oct 25 12:10:45 EDT 2013
User: price-jones
Dark Spectrum Present: No
Reference Spectrum Present: No
Number of Sampled Component Spectra: 1
Spectrometers: USB2+H05261
Integration Time (usec): 100000 (USB2+H05261)
Spectra Averaged: 1 (USB2+H05261)
Boxcar Smoothing: 0 (USB2+H05261)
Correct for Electrical Dark: No (USB2+H05261)
Strobe/Lamp Enabled: No (USB2+H05261)
Correct for Detector Non-linearity: No (USB2+H05261)
Correct for Stray Light: No (USB2+H05261)
Number of Pixels in Processed Spectrum: 2048
>>>>>Begin Processed Spectral Data<<<<<
365.73	304.27
365.92	304.27
366.12	304.27
366.32	271.50
366.52	217.67
366.72	203.63
366.91	173.20
367.11	184.90
367.31	198.95
367.51	234.05
367.70	304.27
367.90	252.78
368.10	227.03
368.30	245.76
368.49	210.65
368.69	271.50
368.89	238.73
369.09	231.71
369.28	325.33
369.48	255.12
369.68	311.29
369.87	297.25
370.07	304.27
370.27	327.68
370.47	358.10
370.66	308.95
370.86	423.64
371.06	348.74
371.25	491.51
371.45	360.44
371.65	411.93
371.84	334.70
372.04	383.85
372.24	428.32
372.44	372.15
372.63	393.21
372.83	367.46
373.03	447.04
373.22	325.33
373.42	435.34
373.62	383.85
373.81	421.30
374.01	437.68
374.21	512.58
374.40	411.93
374.60	425.98
374.79	416.62
374.99	334.70
375.19	463.43
375.38	437.68
375.58	531.30
375.78	425.98
375.97	388.53
376.17	416.62
376.37	395.55
376.56	428.32
376.76	369.80
376.95	346.40
377.15	416.62
377.35	447.04
377.54	454.06
377.74	468.11
377.93	379.17
378.13	393.21
378.33	395.55
378.52	318.31
378.72	351.08
378.91	444.70
379.11	390.87
379.31	379.17
379.50	381.51
379.70	402.57
379.89	456.40
380.09	418.96
380.28	425.98
380.48	372.15
380.68	433.00
380.87	353.42
381.07	367.46
381.26	477.47
381.46	353.42
381.65	400.23
381.85	400.23
382.04	411.93
382.24	416.62
382.43	411.93
382.63	402.57
382.83	369.80
383.02	409.59
383.22	341.72
383.41	395.55
383.61	362.78
383.80	404.91
384.00	407.25
384.19	409.59
384.39	390.87
384.58	388.53
384.78	374.49
384.97	416.62
385.17	416.62
385.36	440.02
385.56	414.27
385.75	362.78
385.95	435.34
386.14	428.32
386.34	435.34
386.53	437.68
386.72	355.76
386.92	409.59
387.11	397.89
387.31	362.78
387.50	337.04
387.70	374.49
387.89	360.44
388.09	353.42
388.28	374.49
388.48	386.19
388.67	418.96
388.86	404.91
389.06	395.55
389.25	376.83
389.45	386.19
389.64	463.43
389.84	376.83
390.03	440.02
390.22	395.55
390.42	355.76
390.61	411.93
390.81	411.93
391.00	407.25
391.19	428.32
391.39	397.89
391.58	416.62
391.78	416.62
391.97	386.19
392.16	360.44
392.36	447.04
392.55	435.34
392.75	351.08
392.94	404.91
393.13	433.00
393.33	393.21
393.52	404.91
393.71	407.25
393.91	365.12
394.10	425.98
394.29	372.15
394.49	430.66
394.68	353.42
394.88	437.68
395.07	341.72
395.26	444.70
395.46	456.40
395.65	404.91
395.84	353.42
396.04	479.81
396.23	339.38
396.42	423.64
396.62	479.81
396.81	435.34
397.00	423.64
397.19	444.70
397.39	386.19
397.58	423.64
397.77	381.51
397.97	360.44
398.16	374.49
398.35	397.89
398.55	472.79
398.74	409.59
398.93	489.17
399.12	339.38
399.32	393.21
399.51	425.98
399.70	456.40
399.90	400.23
400.09	395.55
400.28	400.23
400.47	339.38
400.67	362.78
400.86	498.53
401.05	437.68
401.24	388.53
401.44	369.80
401.63	411.93
401.82	449.38
402.01	433.00
402.21	470.45
402.40	421.30
402.59	418.96
402.78	395.55
402.97	447.04
403.17	397.89
403.36	414.27
403.55	365.12
403.74	404.91
403.93	404.91
404.13	435.34
404.32	444.70
404.51	348.74
404.70	386.19
404.89	407.25
405.09	418.96
405.28	421.30
405.47	418.96
405.66	397.89
405.85	400.23
406.05	433.00
406.24	400.23
406.43	435.34
406.62	440.02
406.81	496.19
407.00	390.87
407.20	355.76
407.39	374.49
407.58	454.06
407.77	433.00
407.96	489.17
408.15	404.91
408.34	383.85
408.54	437.68
408.73	475.13
408.92	397.89
409.11	397.89
409.30	428.32
409.49	388.53
409.68	390.87
409.87	409.59
410.07	351.08
410.26	344.06
410.45	360.44
410.64	348.74
410.83	440.02
411.02	341.72
411.21	404.91
411.40	421.30
411.59	360.44
411.78	346.40
411.98	414.27
412.17	416.62
412.36	388.53
412.55	393.21
412.74	365.12
412.93	411.93
413.12	388.53
413.31	418.96
413.50	386.19
413.69	402.57
413.88	430.66
414.07	428.32
414.26	449.38
414.45	344.06
414.64	428.32
414.83	334.70
415.02	449.38
415.22	411.93
415.41	411.93
415.60	369.80
415.79	372.15
415.98	465.77
416.17	428.32
416.36	386.19
416.55	418.96
416.74	379.17
416.93	388.53
417.12	425.98
417.31	341.72
417.50	454.06
417.69	362.78
417.88	433.00
418.07	365.12
418.26	433.00
418.45	353.42
418.64	379.17
418.83	383.85
419.02	390.87
419.21	428.32
419.39	400.23
419.58	376.83
419.77	454.06
419.96	372.15
420.15	414.27
420.34	440.02
420.53	423.64
420.72	418.96
420.91	425.98
421.10	402.57
421.29	428.32
421.48	414.27
421.67	416.62
421.86	379.17
422.05	416.62
422.24	404.91
422.43	358.10
422.61	414.27
422.80	407.25
422.99	451.72
423.18	369.80
423.37	449.38
423.56	390.87
423.75	430.66
423.94	414.27
424.13	393.21
424.32	461.09
424.50	440.02
424.69	376.83
424.88	367.46
425.07	456.40
425.26	477.47
425.45	465.77
425.64	444.70
425.83	379.17
426.01	393.21
426.20	496.19
426.39	404.91
426.58	397.89
426.77	395.55
426.96	407.25
427.15	440.02
427.33	285.55
427.52	433.00
427.71	475.13
427.90	418.96
428.09	388.53
428.28	360.44
428.46	433.00
428.65	402.57
428.84	339.38
429.03	402.57
429.22	461.09
429.40	407.25
429.59	465.77
429.78	376.83
429.97	355.76
430.16	425.98
430.34	444.70
430.53	372.15
430.72	383.85
430.91	416.62
431.10	435.34
431.28	381.51
431.47	456.40
431.66	395.55
431.85	468.11
432.03	456.40
432.22	491.51
432.41	339.38
432.60	418.96
432.79	358.10
432.97	458.74
433.16	393.21
433.35	465.77
433.54	421.30
433.72	461.09
433.91	521.94
434.10	372.15
434.28	374.49
434.47	449.38
434.66	435.34
434.85	461.09
435.03	465.77
435.22	374.49
435.41	418.96
435.59	376.83
435.78	390.87
435.97	381.51
436.16	400.23
436.34	435.34
436.53	409.59
436.72	465.77
436.90	463.43
437.09	423.64
437.28	322.99
437.46	400.23
437.65	414.27
437.84	444.70
438.02	379.17
438.21	411.93
438.40	409.59
438.58	400.23
438.77	407.25
438.96	470.45
439.14	400.23
439.33	379.17
439.52	484.49
439.70	407.25
439.89	440.02
440.08	379.17
440.26	414.27
440.45	379.17
440.63	418.96
440.82	444.70
441.01	510.24
441.19	386.19
441.38	395.55
441.57	461.09
441.75	397.89
441.94	411.93
442.12	411.93
442.31	358.10
442.50	332.36
442.68	372.15
442.87	416.62
443.05	362.78
443.24	407.25
443.43	372.15
443.61	369.80
443.80	449.38
443.98	435.34
444.17	454.06
444.35	411.93
444.54	470.45
444.73	477.47
444.91	414.27
445.10	381.51
445.28	395.55
445.47	397.89
445.65	440.02
445.84	493.85
446.02	475.13
446.21	421.30
446.39	433.00
446.58	411.93
446.77	421.30
446.95	376.83
447.14	456.40
447.32	451.72
447.51	369.80
447.69	451.72
447.88	449.38
448.06	428.32
448.25	414.27
448.43	379.17
448.62	442.36
448.80	503.22
448.99	428.32
449.17	386.19
449.36	393.21
449.54	447.04
449.73	456.40
449.91	411.93
450.10	468.11
450.28	451.72
450.46	416.62
450.65	425.98
450.83	362.78
451.02	379.17
451.20	447.04
451.39	433.00
451.57	414.27
451.76	430.66
451.94	395.55
452.13	416.62
452.31	402.57
452.49	458.74
452.68	341.72
452.86	425.98
453.05	433.00
453.23	393.21
453.42	334.70
453.60	381.51
453.78	397.89
453.97	440.02
454.15	447.04
454.34	411.93
454.52	360.44
454.70	386.19
454.89	428.32
455.07	425.98
455.26	407.25
455.44	358.10
455.62	428.32
455.81	449.38
455.99	297.25
456.17	433.00
456.36	402.57
456.54	374.49
456.73	411.93
456.91	348.74
457.09	447.04
457.28	383.85
457.46	353.42
457.64	423.64
457.83	404.91
458.01	454.06
458.19	463.43
458.38	430.66
458.56	376.83
458.74	454.06
458.93	465.77
459.11	402.57
459.29	376.83
459.48	397.89
459.66	407.25
459.84	449.38
460.03	470.45
460.21	442.36
460.39	337.04
460.57	386.19
460.76	374.49
460.94	430.66
461.12	475.13
461.31	425.98
461.49	437.68
461.67	362.78
461.85	388.53
462.04	383.85
462.22	746.63
462.40	428.32
462.59	400.23
462.77	390.87
462.95	486.83
463.13	423.64
463.32	395.55
463.50	433.00
463.68	355.76
463.86	418.96
464.05	383.85
464.23	390.87
464.41	468.11
464.59	505.56
464.78	381.51
464.96	369.80
465.14	477.47
465.32	463.43
465.50	430.66
465.69	479.81
465.87	449.38
466.05	458.74
466.23	360.44
466.41	404.91
466.60	379.17
466.78	402.57
466.96	386.19
467.14	411.93
467.32	393.21
467.51	418.96
467.69	362.78
467.87	379.17
468.05	393.21
468.23	386.19
468.41	430.66
468.60	376.83
468.78	372.15
468.96	461.09
469.14	407.25
469.32	400.23
469.50	416.62
469.69	458.74
469.87	465.77
470.05	449.38
470.23	418.96
470.41	397.89
470.59	411.93
470.77	383.85
470.95	381.51
471.14	400.23
471.32	388.53
471.50	414.27
471.68	470.45
471.86	411.93
472.04	510.24
472.22	437.68
472.40	407.25
472.58	456.40
472.77	435.34
472.95	454.06
473.13	437.68
473.31	358.10
473.49	388.53
473.67	454.06
473.85	461.09
474.03	440.02
474.21	348.74
474.39	461.09
474.57	449.38
474.75	517.26
474.93	355.76
475.12	437.68
475.30	428.32
475.48	369.80
475.66	430.66
475.84	437.68
476.02	376.83
476.20	395.55
476.38	393.21
476.56	493.85
476.74	388.53
476.92	418.96
477.10	407.25
477.28	346.40
477.46	397.89
477.64	505.56
477.82	468.11
478.00	360.44
478.18	332.36
478.36	430.66
478.54	433.00
478.72	376.83
478.90	409.59
479.08	386.19
479.26	475.13
479.44	444.70
479.62	461.09
479.80	383.85
479.98	418.96
480.16	414.27
480.34	475.13
480.52	444.70
480.70	404.91
480.88	421.30
481.06	376.83
481.24	374.49
481.41	409.59
481.59	393.21
481.77	416.62
481.95	337.04
482.13	468.11
482.31	442.36
482.49	458.74
482.67	322.99
482.85	489.17
483.03	395.55
483.21	421.30
483.39	390.87
483.57	409.59
483.74	463.43
483.92	353.42
484.10	365.12
484.28	477.47
484.46	400.23
484.64	386.19
484.82	365.12
485.00	409.59
485.18	381.51
485.35	397.89
485.53	365.12
485.71	437.68
485.89	367.46
486.07	454.06
486.25	442.36
486.43	365.12
486.61	414.27
486.78	407.25
486.96	395.55
487.14	388.53
487.32	421.30
487.50	421.30
487.68	428.32
487.85	442.36
488.03	421.30
488.21	400.23
488.39	447.04
488.57	454.06
488.75	421.30
488.92	470.45
489.10	395.55
489.28	461.09
489.46	423.64
489.64	421.30
489.81	388.53
489.99	458.74
490.17	423.64
490.35	400.23
490.53	400.23
490.70	402.57
490.88	353.42
491.06	390.87
491.24	416.62
491.41	461.09
491.59	400.23
491.77	451.72
491.95	447.04
492.13	414.27
492.30	435.34
492.48	393.21
492.66	440.02
492.84	372.15
493.01	372.15
493.19	418.96
493.37	477.47
493.54	374.49
493.72	416.62
493.90	372.15
494.08	358.10
494.25	435.34
494.43	442.36
494.61	409.59
494.79	369.80
494.96	386.19
495.14	374.49
495.32	397.89
495.49	416.62
495.67	449.38
495.85	390.87
496.02	383.85
496.20	383.85
496.38	416.62
496.55	442.36
496.73	430.66
496.91	407.25
497.09	416.62
497.26	421.30
497.44	393.21
497.62	435.34
497.79	461.09
497.97	437.68
498.14	393.21
498.32	451.72
498.50	346.40
498.67	409.59
498.85	369.80
499.03	414.27
499.20	425.98
499.38	423.64
499.56	402.57
499.73	390.87
499.91	414.27
500.08	411.93
500.26	404.91
500.44	428.32
500.61	409.59
500.79	402.57
500.97	418.96
501.14	463.43
501.32	369.80
501.49	411.93
501.67	449.38
501.84	395.55
502.02	433.00
502.20	374.49
502.37	444.70
502.55	468.11
502.72	344.06
502.90	447.04
503.07	489.17
503.25	440.02
503.43	447.04
503.60	402.57
503.78	444.70
503.95	440.02
504.13	425.98
504.30	486.83
504.48	435.34
504.65	496.19
504.83	458.74
505.01	388.53
505.18	409.59
505.36	425.98
505.53	379.17
505.71	379.17
505.88	414.27
506.06	428.32
506.23	437.68
506.41	411.93
506.58	428.32
506.76	435.34
506.93	444.70
507.11	454.06
507.28	458.74
507.46	365.12
507.63	374.49
507.81	383.85
507.98	393.21
508.16	388.53
508.33	365.12
508.50	376.83
508.68	430.66
508.85	423.64
509.03	388.53
509.20	395.55
509.38	360.44
509.55	435.34
509.73	369.80
509.90	402.57
510.08	341.72
510.25	414.27
510.42	369.80
510.60	416.62
510.77	416.62
510.95	454.06
511.12	447.04
511.30	430.66
511.47	355.76
511.64	414.27
511.82	416.62
511.99	416.62
512.17	421.30
512.34	418.96
512.51	388.53
512.69	318.31
512.86	423.64
513.04	451.72
513.21	449.38
513.38	397.89
513.56	381.51
513.73	341.72
513.90	411.93
514.08	355.76
514.25	458.74
514.43	491.51
514.60	367.46
514.77	449.38
514.95	433.00
515.12	390.87
515.29	327.68
515.47	369.80
515.64	365.12
515.81	360.44
515.99	430.66
516.16	393.21
516.33	397.89
516.51	374.49
516.68	435.34
516.85	425.98
517.03	418.96
517.20	411.93
517.37	477.47
517.54	444.70
517.72	407.25
517.89	456.40
518.06	339.38
518.24	374.49
518.41	519.60
518.58	461.09
518.75	428.32
518.93	437.68
519.10	383.85
519.27	458.74
519.45	449.38
519.62	444.70
519.79	379.17
519.96	423.64
520.14	393.21
520.31	421.30
520.48	404.91
520.65	397.89
520.83	367.46
521.00	397.89
521.17	461.09
521.34	456.40
521.52	461.09
521.69	468.11
521.86	463.43
522.03	395.55
522.20	425.98
522.38	423.64
522.55	456.40
522.72	444.70
522.89	390.87
523.07	451.72
523.24	344.06
523.41	414.27
523.58	444.70
523.75	322.99
523.92	393.21
524.10	423.64
524.27	381.51
524.44	395.55
524.61	428.32
524.78	397.89
524.96	505.56
525.13	416.62
525.30	440.02
525.47	402.57
525.64	404.91
525.81	418.96
525.98	369.80
526.16	351.08
526.33	381.51
526.50	433.00
526.67	414.27
526.84	393.21
527.01	393.21
527.18	418.96
527.36	374.49
527.53	397.89
527.70	461.09
527.87	386.19
528.04	423.64
528.21	404.91
528.38	383.85
528.55	365.12
528.72	421.30
528.89	514.92
529.07	444.70
529.24	421.30
529.41	496.19
529.58	465.77
529.75	360.44
529.92	463.43
530.09	465.77
530.26	486.83
530.43	416.62
530.60	390.87
530.77	404.91
530.94	404.91
531.11	444.70
531.28	433.00
531.46	365.12
531.63	390.87
531.80	433.00
531.97	461.09
532.14	433.00
532.31	449.38
532.48	409.59
532.65	449.38
532.82	386.19
532.99	437.68
533.16	414.27
533.33	400.23
533.50	360.44
533.67	430.66
533.84	440.02
534.01	461.09
534.18	376.83
534.35	386.19
534.52	397.89
534.69	402.57
534.86	367.46
535.03	461.09
535.20	362.78
535.37	442.36
535.54	376.83
535.71	407.25
535.88	425.98
536.05	402.57
536.22	386.19
536.38	437.68
536.55	435.34
536.72	402.57
536.89	358.10
537.06	344.06
537.23	386.19
537.40	470.45
537.57	407.25
537.74	428.32
537.91	435.34
538.08	397.89
538.25	397.89
538.42	381.51
538.59	407.25
538.75	351.08
538.92	407.25
539.09	414.27
539.26	383.85
539.43	456.40
539.60	404.91
539.77	411.93
539.94	374.49
540.11	449.38
540.28	442.36
540.44	528.96
540.61	418.96
540.78	451.72
540.95	388.53
541.12	458.74
541.29	379.17
541.46	428.32
541.62	440.02
541.79	416.62
541.96	397.89
542.13	456.40
542.30	454.06
542.47	425.98
542.63	435.34
542.80	447.04
542.97	409.59
543.14	421.30
543.31	442.36
543.48	390.87
543.64	369.80
543.81	397.89
543.98	425.98
544.15	381.51
544.32	449.38
544.48	425.98
544.65	411.93
544.82	430.66
544.99	376.83
545.16	472.79
545.32	369.80
545.49	404.91
545.66	306.61
545.83	411.93
546.00	454.06
546.16	334.70
546.33	386.19
546.50	409.59
546.67	414.27
546.83	409.59
547.00	388.53
547.17	390.87
547.34	400.23
547.50	489.17
547.67	461.09
547.84	451.72
548.00	386.19
548.17	367.46
548.34	444.70
548.51	442.36
548.67	411.93
548.84	440.02
549.01	390.87
549.18	404.91
549.34	409.59
549.51	404.91
549.68	425.98
549.84	435.34
550.01	414.27
550.18	442.36
550.34	503.22
550.51	444.70
550.68	423.64
550.84	397.89
551.01	374.49
551.18	435.34
551.34	442.36
551.51	386.19
551.68	428.32
551.84	409.59
552.01	440.02
552.18	463.43
552.34	353.42
552.51	444.70
552.68	362.78
552.84	402.57
553.01	374.49
553.18	444.70
553.34	395.55
553.51	451.72
553.67	409.59
553.84	402.57
554.01	454.06
554.17	458.74
554.34	367.46
554.51	486.83
554.67	437.68
554.84	484.49
555.00	510.24
555.17	425.98
555.33	411.93
555.50	418.96
555.67	418.96
555.83	358.10
556.00	498.53
556.16	606.20
556.33	461.09
556.50	372.15
556.66	416.62
556.83	346.40
556.99	416.62
557.16	456.40
557.32	411.93
557.49	444.70
557.65	393.21
557.82	386.19
557.98	423.64
558.15	402.57
558.32	517.26
558.48	430.66
558.65	435.34
558.81	454.06
558.98	437.68
559.14	414.27
559.31	411.93
559.47	496.19
559.64	472.79
559.80	416.62
559.97	421.30
560.13	463.43
560.30	369.80
560.46	388.53
560.63	423.64
560.79	362.78
560.96	409.59
561.12	409.59
561.29	503.22
561.45	418.96
561.61	402.57
561.78	538.32
561.94	447.04
562.11	388.53
562.27	433.00
562.44	425.98
562.60	409.59
562.77	418.96
562.93	465.77
563.10	430.66
563.26	400.23
563.42	428.32
563.59	442.36
563.75	440.02
563.92	400.23
564.08	477.47
564.24	468.11
564.41	468.11
564.57	435.34
564.74	437.68
564.90	456.40
565.07	447.04
565.23	484.49
565.39	402.57
565.56	430.66
565.72	440.02
565.88	402.57
566.05	416.62
566.21	449.38
566.38	367.46
566.54	376.83
566.70	449.38
566.87	367.46
567.03	404.91
567.19	442.36
567.36	423.64
567.52	454.06
567.68	418.96
567.85	435.34
568.01	423.64
568.17	425.98
568.34	407.25
568.50	454.06
568.66	423.64
568.83	440.02
568.99	449.38
569.15	369.80
569.32	374.49
569.48	470.45
569.64	411.93
569.81	374.49
569.97	388.53
570.13	440.02
570.30	372.15
570.46	440.02
570.62	461.09
570.78	374.49
570.95	381.51
571.11	435.34
571.27	458.74
571.43	325.33
571.60	498.53
571.76	437.68
571.92	383.85
572.09	477.47
572.25	414.27
572.41	465.77
572.57	472.79
572.74	433.00
572.90	402.57
573.06	454.06
573.22	463.43
573.38	383.85
573.55	428.32
573.71	393.21
573.87	374.49
574.03	374.49
574.20	388.53
574.36	486.83
574.52	393.21
574.68	386.19
574.84	465.77
575.01	374.49
575.17	395.55
575.33	428.32
575.49	475.13
575.65	416.62
575.82	395.55
575.98	400.23
576.14	411.93
576.30	400.23
576.46	421.30
576.62	435.34
576.79	433.00
576.95	468.11
577.11	416.62
577.27	400.23
577.43	407.25
577.59	503.22
577.75	393.21
577.92	355.76
578.08	388.53
578.24	388.53
578.40	418.96
578.56	449.38
578.72	388.53
578.88	376.83
579.04	479.81
579.21	369.80
579.37	414.27
579.53	414.27
579.69	505.56
579.85	418.96
580.01	458.74
580.17	372.15
580.33	390.87
580.49	454.06
580.65	341.72
580.82	407.25
580.98	430.66
581.14	442.36
581.30	475.13
581.46	440.02
581.62	421.30
581.78	425.98
581.94	463.43
582.10	344.06
582.26	379.17
582.42	351.08
582.58	468.11
582.74	337.04
582.90	414.27
583.06	407.25
583.22	491.51
583.38	407.25
583.54	376.83
583.70	414.27
583.86	411.93
584.02	454.06
584.18	465.77
584.34	386.19
584.50	367.46
584.66	397.89
584.82	442.36
584.98	437.68
585.14	472.79
585.30	404.91
585.46	435.34
585.62	362.78
585.78	379.17
585.94	428.32
586.10	404.91
586.26	430.66
586.42	479.81
586.58	528.96
586.74	404.91
586.90	428.32
587.06	369.80
587.22	444.70
587.38	435.34
587.54	416.62
587.70	395.55
587.86	365.12
588.02	409.59
588.18	353.42
588.34	465.77
588.49	421.30
588.65	402.57
588.81	498.53
588.97	435.34
589.13	379.17
589.29	404.91
589.45	498.53
589.61	458.74
589.77	454.06
589.93	423.64
590.08	376.83
590.24	411.93
590.40	433.00
590.56	442.36
590.72	407.25
590.88	418.96
591.04	390.87
591.20	409.59
591.35	477.47
591.51	381.51
591.67	442.36
591.83	411.93
591.99	435.34
592.15	437.68
592.31	477.47
592.46	425.98
592.62	449.38
592.78	505.56
592.94	402.57
593.10	388.53
593.26	395.55
593.41	397.89
593.57	433.00
593.73	407.25
593.89	386.19
594.05	416.62
594.20	404.91
594.36	416.62
594.52	374.49
594.68	430.66
594.84	430.66
594.99	409.59
595.15	362.78
595.31	423.64
595.47	447.04
595.62	400.23
595.78	409.59
595.94	435.34
596.10	404.91
596.25	430.66
596.41	491.51
596.57	423.64
596.73	425.98
596.88	388.53
597.04	358.10
597.20	411.93
597.36	444.70
597.51	470.45
597.67	414.27
597.83	390.87
597.99	421.30
598.14	437.68
598.30	435.34
598.46	465.77
598.61	437.68
598.77	416.62
598.93	379.17
599.09	486.83
599.24	425.98
599.40	395.55
599.56	369.80
599.71	442.36
599.87	440.02
600.03	454.06
600.18	425.98
600.34	444.70
600.50	372.15
600.65	444.70
600.81	400.23
600.97	358.10
601.12	381.51
601.28	437.68
601.44	400.23
601.59	362.78
601.75	414.27
601.91	454.06
602.06	390.87
602.22	411.93
602.37	444.70
602.53	475.13
602.69	440.02
602.84	369.80
603.00	435.34
603.16	458.74
603.31	418.96
603.47	451.72
603.62	376.83
603.78	393.21
603.94	428.32
604.09	486.83
604.25	475.13
604.40	433.00
604.56	383.85
604.71	390.87
604.87	435.34
605.03	442.36
605.18	423.64
605.34	416.62
605.49	430.66
605.65	519.60
605.80	411.93
605.96	447.04
606.12	358.10
606.27	433.00
606.43	374.49
606.58	416.62
606.74	407.25
606.89	407.25
607.05	449.38
607.20	451.72
607.36	402.57
607.51	334.70
607.67	437.68
607.82	383.85
607.98	414.27
608.13	447.04
608.29	500.87
608.44	461.09
608.60	433.00
608.75	367.46
608.91	367.46
609.06	458.74
609.22	440.02
609.37	425.98
609.53	355.76
609.68	400.23
609.84	365.12
609.99	421.30
610.15	411.93
