SpectraSuite Data File
++++++++++++++++++++++++++++++++++++
Date: Fri Oct 25 12:11:31 EDT 2013
User: price-jones
Dark Spectrum Present: No
Reference Spectrum Present: No
Number of Sampled Component Spectra: 1
Spectrometers: USB2+H05261
Integration Time (usec): 100000 (USB2+H05261)
Spectra Averaged: 1 (USB2+H05261)
Boxcar Smoothing: 0 (USB2+H05261)
Correct for Electrical Dark: No (USB2+H05261)
Strobe/Lamp Enabled: No (USB2+H05261)
Correct for Detector Non-linearity: No (USB2+H05261)
Correct for Stray Light: No (USB2+H05261)
Number of Pixels in Processed Spectrum: 2048
>>>>>Begin Processed Spectral Data<<<<<
365.73	367.46
365.92	367.46
366.12	367.46
366.32	212.99
366.52	234.05
366.72	294.91
366.91	149.79
367.11	170.86
367.31	180.22
367.51	285.55
367.70	224.69
367.90	243.42
368.10	229.37
368.30	238.73
368.49	203.63
368.69	255.12
368.89	205.97
369.09	248.10
369.28	224.69
369.48	236.39
369.68	325.33
369.87	285.55
370.07	325.33
370.27	332.36
370.47	351.08
370.66	327.68
370.86	318.31
371.06	451.72
371.25	376.83
371.45	397.89
371.65	423.64
371.84	369.80
372.04	381.51
372.24	414.27
372.44	388.53
372.63	386.19
372.83	414.27
373.03	440.02
373.22	395.55
373.42	388.53
373.62	416.62
373.81	418.96
374.01	458.74
374.21	430.66
374.40	428.32
374.60	444.70
374.79	381.51
374.99	433.00
375.19	510.24
375.38	458.74
375.58	376.83
375.78	451.72
375.97	388.53
376.17	435.34
376.37	376.83
376.56	435.34
376.76	463.43
376.95	447.04
377.15	425.98
377.35	365.12
377.54	433.00
377.74	402.57
377.93	430.66
378.13	358.10
378.33	414.27
378.52	400.23
378.72	393.21
378.91	447.04
379.11	379.17
379.31	400.23
379.50	404.91
379.70	472.79
379.89	416.62
380.09	365.12
380.28	362.78
380.48	414.27
380.68	374.49
380.87	386.19
381.07	414.27
381.26	454.06
381.46	425.98
381.65	407.25
381.85	367.46
382.04	388.53
382.24	454.06
382.43	395.55
382.63	451.72
382.83	395.55
383.02	418.96
383.22	351.08
383.41	425.98
383.61	367.46
383.80	339.38
384.00	372.15
384.19	421.30
384.39	402.57
384.58	456.40
384.78	404.91
384.97	475.13
385.17	454.06
385.36	390.87
385.56	400.23
385.75	376.83
385.95	447.04
386.14	376.83
386.34	414.27
386.53	428.32
386.72	423.64
386.92	458.74
387.11	421.30
387.31	423.64
387.50	388.53
387.70	346.40
387.89	425.98
388.09	348.74
388.28	362.78
388.48	346.40
388.67	454.06
388.86	416.62
389.06	353.42
389.25	383.85
389.45	372.15
389.64	409.59
389.84	402.57
390.03	463.43
390.22	421.30
390.42	477.47
390.61	465.77
390.81	433.00
391.00	451.72
391.19	435.34
391.39	381.51
391.58	393.21
391.78	358.10
391.97	365.12
392.16	341.72
392.36	465.77
392.55	442.36
392.75	468.11
392.94	360.44
393.13	358.10
393.33	449.38
393.52	444.70
393.71	376.83
393.91	353.42
394.10	358.10
394.29	390.87
394.49	369.80
394.68	444.70
394.88	449.38
395.07	444.70
395.26	390.87
395.46	390.87
395.65	447.04
395.84	374.49
396.04	465.77
396.23	451.72
396.42	442.36
396.62	430.66
396.81	416.62
397.00	407.25
397.19	372.15
397.39	404.91
397.58	416.62
397.77	360.44
397.97	351.08
398.16	454.06
398.35	451.72
398.55	381.51
398.74	442.36
398.93	416.62
399.12	367.46
399.32	379.17
399.51	423.64
399.70	376.83
399.90	409.59
400.09	468.11
400.28	330.02
400.47	372.15
400.67	456.40
400.86	400.23
401.05	437.68
401.24	416.62
401.44	458.74
401.63	414.27
401.82	374.49
402.01	376.83
402.21	341.72
402.40	332.36
402.59	374.49
402.78	404.91
402.97	383.85
403.17	414.27
403.36	472.79
403.55	355.76
403.74	374.49
403.93	388.53
404.13	435.34
404.32	369.80
404.51	383.85
404.70	479.81
404.89	381.51
405.09	458.74
405.28	395.55
405.47	390.87
405.66	442.36
405.85	440.02
406.05	461.09
406.24	451.72
406.43	330.02
406.62	421.30
406.81	451.72
407.00	440.02
407.20	503.22
407.39	360.44
407.58	327.68
407.77	400.23
407.96	362.78
408.15	404.91
408.34	489.17
408.54	421.30
408.73	418.96
408.92	442.36
409.11	449.38
409.30	486.83
409.49	388.53
409.68	423.64
409.87	451.72
410.07	372.15
410.26	433.00
410.45	428.32
410.64	400.23
410.83	390.87
411.02	344.06
411.21	442.36
411.40	472.79
411.59	444.70
411.78	386.19
411.98	428.32
412.17	400.23
412.36	428.32
412.55	423.64
412.74	447.04
412.93	521.94
413.12	388.53
413.31	400.23
413.50	393.21
413.69	376.83
413.88	447.04
414.07	390.87
414.26	383.85
414.45	315.97
414.64	477.47
414.83	458.74
415.02	409.59
415.22	440.02
415.41	318.31
415.60	341.72
415.79	433.00
415.98	517.26
416.17	395.55
416.36	435.34
416.55	367.46
416.74	440.02
416.93	430.66
417.12	456.40
417.31	477.47
417.50	435.34
417.69	428.32
417.88	440.02
418.07	402.57
418.26	475.13
418.45	423.64
418.64	461.09
418.83	400.23
419.02	463.43
419.21	374.49
419.39	428.32
419.58	379.17
419.77	400.23
419.96	465.77
420.15	411.93
420.34	355.76
420.53	409.59
420.72	465.77
420.91	493.85
421.10	360.44
421.29	477.47
421.48	430.66
421.67	456.40
421.86	325.33
422.05	365.12
422.24	355.76
422.43	428.32
422.61	374.49
422.80	358.10
422.99	472.79
423.18	393.21
423.37	442.36
423.56	425.98
423.75	437.68
423.94	381.51
424.13	444.70
424.32	390.87
424.50	440.02
424.69	484.49
424.88	461.09
425.07	334.70
425.26	449.38
425.45	442.36
425.64	411.93
425.83	442.36
426.01	425.98
426.20	447.04
426.39	367.46
426.58	407.25
426.77	491.51
426.96	402.57
427.15	397.89
427.33	418.96
427.52	444.70
427.71	442.36
427.90	386.19
428.09	440.02
428.28	442.36
428.46	409.59
428.65	465.77
428.84	430.66
429.03	433.00
429.22	440.02
429.40	435.34
429.59	442.36
429.78	372.15
429.97	411.93
430.16	397.89
430.34	362.78
430.53	353.42
430.72	435.34
430.91	402.57
431.10	397.89
431.28	440.02
431.47	418.96
431.66	442.36
431.85	458.74
432.03	411.93
432.22	348.74
432.41	337.04
432.60	477.47
432.79	383.85
432.97	407.25
433.16	395.55
433.35	400.23
433.54	442.36
433.72	447.04
433.91	423.64
434.10	409.59
434.28	379.17
434.47	421.30
434.66	346.40
434.85	407.25
435.03	379.17
435.22	430.66
435.41	503.22
435.59	365.12
435.78	372.15
435.97	444.70
436.16	454.06
436.34	416.62
436.53	416.62
436.72	442.36
436.90	414.27
437.09	400.23
437.28	404.91
437.46	433.00
437.65	440.02
437.84	409.59
438.02	475.13
438.21	339.38
438.40	355.76
438.58	423.64
438.77	484.49
438.96	458.74
439.14	388.53
439.33	409.59
439.52	470.45
439.70	381.51
439.89	395.55
440.08	416.62
440.26	402.57
440.45	442.36
440.63	416.62
440.82	440.02
441.01	444.70
441.19	416.62
441.38	402.57
441.57	428.32
441.75	425.98
441.94	346.40
442.12	386.19
442.31	313.63
442.50	416.62
442.68	367.46
442.87	400.23
443.05	458.74
443.24	411.93
443.43	514.92
443.61	416.62
443.80	400.23
443.98	430.66
444.17	414.27
444.35	468.11
444.54	423.64
444.73	334.70
444.91	477.47
445.10	430.66
445.28	379.17
445.47	442.36
445.65	465.77
445.84	454.06
446.02	346.40
446.21	428.32
446.39	367.46
446.58	423.64
446.77	411.93
446.95	465.77
447.14	414.27
447.32	468.11
447.51	407.25
447.69	465.77
447.88	449.38
448.06	468.11
448.25	463.43
448.43	351.08
448.62	339.38
448.80	416.62
448.99	456.40
449.17	360.44
449.36	372.15
449.54	369.80
449.73	383.85
449.91	374.49
450.10	390.87
450.28	444.70
450.46	388.53
450.65	397.89
450.83	395.55
451.02	402.57
451.20	479.81
451.39	381.51
451.57	386.19
451.76	320.65
451.94	433.00
452.13	449.38
452.31	447.04
452.49	421.30
452.68	386.19
452.86	379.17
453.05	454.06
453.23	393.21
453.42	411.93
453.60	454.06
453.78	402.57
453.97	414.27
454.15	358.10
454.34	411.93
454.52	360.44
454.70	463.43
454.89	421.30
455.07	365.12
455.26	440.02
455.44	433.00
455.62	397.89
455.81	451.72
455.99	430.66
456.17	477.47
456.36	397.89
456.54	435.34
456.73	437.68
456.91	411.93
457.09	428.32
457.28	346.40
457.46	456.40
457.64	444.70
457.83	484.49
458.01	388.53
458.19	442.36
458.38	344.06
458.56	355.76
458.74	369.80
458.93	442.36
459.11	461.09
459.29	437.68
459.48	444.70
459.66	421.30
459.84	393.21
460.03	440.02
460.21	407.25
460.39	388.53
460.57	402.57
460.76	430.66
460.94	472.79
461.12	456.40
461.31	425.98
461.49	362.78
461.67	360.44
461.85	451.72
462.04	390.87
462.22	809.83
462.40	463.43
462.59	416.62
462.77	425.98
462.95	416.62
463.13	454.06
463.32	397.89
463.50	383.85
463.68	362.78
463.86	416.62
464.05	393.21
464.23	449.38
464.41	390.87
464.59	379.17
464.78	395.55
464.96	383.85
465.14	402.57
465.32	444.70
465.50	475.13
465.69	393.21
465.87	414.27
466.05	404.91
466.23	381.51
466.41	468.11
466.60	379.17
466.78	418.96
466.96	491.51
467.14	400.23
467.32	421.30
467.51	465.77
467.69	376.83
467.87	430.66
468.05	386.19
468.23	374.49
468.41	468.11
468.60	461.09
468.78	402.57
468.96	435.34
469.14	400.23
469.32	404.91
469.50	372.15
469.69	521.94
469.87	332.36
470.05	454.06
470.23	512.58
470.41	299.59
470.59	421.30
470.77	430.66
470.95	440.02
471.14	430.66
471.32	365.12
471.50	440.02
471.68	458.74
471.86	402.57
472.04	407.25
472.22	423.64
472.40	475.13
472.58	367.46
472.77	376.83
472.95	386.19
473.13	475.13
473.31	510.24
473.49	348.74
473.67	444.70
473.85	451.72
474.03	411.93
474.21	463.43
474.39	482.15
474.57	409.59
474.75	423.64
474.93	454.06
475.12	355.76
475.30	407.25
475.48	433.00
475.66	451.72
475.84	379.17
476.02	418.96
476.20	442.36
476.38	390.87
476.56	421.30
476.74	393.21
476.92	444.70
477.10	369.80
477.28	400.23
477.46	409.59
477.64	479.81
477.82	421.30
478.00	493.85
478.18	430.66
478.36	393.21
478.54	425.98
478.72	411.93
478.90	461.09
479.08	454.06
479.26	458.74
479.44	498.53
479.62	479.81
479.80	430.66
479.98	449.38
480.16	454.06
480.34	416.62
480.52	423.64
480.70	456.40
480.88	388.53
481.06	421.30
481.24	416.62
481.41	367.46
481.59	421.30
481.77	475.13
481.95	433.00
482.13	449.38
482.31	470.45
482.49	393.21
482.67	411.93
482.85	400.23
483.03	468.11
483.21	418.96
483.39	386.19
483.57	369.80
483.74	458.74
483.92	397.89
484.10	470.45
484.28	444.70
484.46	407.25
484.64	430.66
484.82	430.66
485.00	365.12
485.18	395.55
485.35	402.57
485.53	390.87
485.71	409.59
485.89	383.85
486.07	433.00
486.25	437.68
486.43	428.32
486.61	456.40
486.78	461.09
486.96	440.02
487.14	425.98
487.32	411.93
487.50	482.15
487.68	440.02
487.85	372.15
488.03	400.23
488.21	524.28
488.39	461.09
488.57	360.44
488.75	390.87
488.92	503.22
489.10	388.53
489.28	425.98
489.46	447.04
489.64	414.27
489.81	388.53
489.99	550.03
490.17	402.57
490.35	433.00
490.53	390.87
490.70	425.98
490.88	470.45
491.06	526.62
491.24	395.55
491.41	463.43
491.59	451.72
491.77	390.87
491.95	463.43
492.13	407.25
492.30	369.80
492.48	451.72
492.66	414.27
492.84	383.85
493.01	430.66
493.19	423.64
493.37	437.68
493.54	440.02
493.72	428.32
493.90	407.25
494.08	444.70
494.25	416.62
494.43	400.23
494.61	409.59
494.79	411.93
494.96	386.19
495.14	454.06
495.32	353.42
495.49	400.23
495.67	477.47
495.85	400.23
496.02	411.93
496.20	442.36
496.38	409.59
496.55	362.78
496.73	383.85
496.91	447.04
497.09	447.04
497.26	367.46
497.44	351.08
497.62	463.43
497.79	409.59
497.97	416.62
498.14	402.57
498.32	386.19
498.50	430.66
498.67	388.53
498.85	456.40
499.03	468.11
499.20	386.19
499.38	435.34
499.56	433.00
499.73	404.91
499.91	379.17
500.08	486.83
500.26	428.32
500.44	393.21
500.61	486.83
500.79	374.49
500.97	416.62
501.14	425.98
501.32	400.23
501.49	388.53
501.67	447.04
501.84	393.21
502.02	407.25
502.20	447.04
502.37	477.47
502.55	397.89
502.72	339.38
502.90	423.64
503.07	428.32
503.25	416.62
503.43	440.02
503.60	409.59
503.78	472.79
503.95	381.51
504.13	430.66
504.30	372.15
504.48	409.59
504.65	454.06
504.83	386.19
505.01	421.30
505.18	407.25
505.36	411.93
505.53	423.64
505.71	442.36
505.88	362.78
506.06	416.62
506.23	442.36
506.41	404.91
506.58	390.87
506.76	454.06
506.93	418.96
507.11	407.25
507.28	484.49
507.46	360.44
507.63	421.30
507.81	435.34
507.98	444.70
508.16	447.04
508.33	407.25
508.50	404.91
508.68	449.38
508.85	367.46
509.03	369.80
509.20	477.47
509.38	435.34
509.55	425.98
509.73	421.30
509.90	472.79
510.08	402.57
510.25	388.53
510.42	397.89
510.60	425.98
510.77	360.44
510.95	465.77
511.12	407.25
511.30	442.36
511.47	388.53
511.64	477.47
511.82	365.12
511.99	524.28
512.17	505.56
512.34	374.49
512.51	425.98
512.69	402.57
512.86	475.13
513.04	447.04
513.21	395.55
513.38	341.72
513.56	418.96
513.73	414.27
513.90	458.74
514.08	414.27
514.25	416.62
514.43	435.34
514.60	390.87
514.77	339.38
514.95	404.91
515.12	416.62
515.29	367.46
515.47	414.27
515.64	433.00
515.81	414.27
515.99	491.51
516.16	400.23
516.33	376.83
516.51	362.78
516.68	475.13
516.85	397.89
517.03	407.25
517.20	451.72
517.37	416.62
517.54	468.11
517.72	437.68
517.89	381.51
518.06	416.62
518.24	409.59
518.41	468.11
518.58	503.22
518.75	421.30
518.93	400.23
519.10	491.51
519.27	458.74
519.45	400.23
519.62	423.64
519.79	428.32
519.96	367.46
520.14	386.19
520.31	475.13
520.48	376.83
520.65	421.30
520.83	470.45
521.00	393.21
521.17	421.30
521.34	430.66
521.52	400.23
521.69	400.23
521.86	393.21
522.03	372.15
522.20	404.91
522.38	411.93
522.55	404.91
522.72	360.44
522.89	397.89
523.07	407.25
523.24	411.93
523.41	468.11
523.58	479.81
523.75	402.57
523.92	444.70
524.10	472.79
524.27	367.46
524.44	341.72
524.61	425.98
524.78	472.79
524.96	444.70
525.13	402.57
525.30	430.66
525.47	355.76
525.64	376.83
525.81	456.40
525.98	425.98
526.16	423.64
526.33	463.43
526.50	330.02
526.67	421.30
526.84	463.43
527.01	397.89
527.18	449.38
527.36	414.27
527.53	381.51
527.70	444.70
527.87	418.96
528.04	447.04
528.21	393.21
528.38	430.66
528.55	461.09
528.72	461.09
528.89	402.57
529.07	369.80
529.24	465.77
529.41	447.04
529.58	421.30
529.75	379.17
529.92	423.64
530.09	388.53
530.26	451.72
530.43	463.43
530.60	411.93
530.77	386.19
530.94	493.85
531.11	390.87
531.28	393.21
531.46	409.59
531.63	496.19
531.80	433.00
531.97	369.80
532.14	402.57
532.31	407.25
532.48	409.59
532.65	472.79
532.82	425.98
532.99	395.55
533.16	458.74
533.33	500.87
533.50	344.06
533.67	402.57
533.84	463.43
534.01	341.72
534.18	461.09
534.35	475.13
534.52	456.40
534.69	444.70
534.86	423.64
535.03	388.53
535.20	372.15
535.37	449.38
535.54	407.25
535.71	472.79
535.88	416.62
536.05	355.76
536.22	355.76
536.38	360.44
536.55	397.89
536.72	454.06
536.89	435.34
537.06	367.46
537.23	376.83
537.40	383.85
537.57	463.43
537.74	493.85
537.91	430.66
538.08	411.93
538.25	330.02
538.42	388.53
538.59	379.17
538.75	383.85
538.92	442.36
539.09	458.74
539.26	341.72
539.43	430.66
539.60	386.19
539.77	456.40
539.94	411.93
540.11	496.19
540.28	414.27
540.44	442.36
540.61	486.83
540.78	411.93
540.95	440.02
541.12	505.56
541.29	348.74
541.46	397.89
541.62	435.34
541.79	423.64
541.96	376.83
542.13	404.91
542.30	351.08
542.47	444.70
542.63	430.66
542.80	409.59
542.97	447.04
543.14	428.32
543.31	477.47
543.48	519.60
543.64	433.00
543.81	451.72
543.98	468.11
544.15	348.74
544.32	425.98
544.48	393.21
544.65	381.51
544.82	482.15
544.99	449.38
545.16	451.72
545.32	512.58
545.49	348.74
545.66	407.25
545.83	402.57
546.00	428.32
546.16	414.27
546.33	386.19
546.50	397.89
546.67	463.43
546.83	437.68
547.00	430.66
547.17	407.25
547.34	477.47
547.50	414.27
547.67	491.51
547.84	433.00
548.00	435.34
548.17	425.98
548.34	437.68
548.51	440.02
548.67	437.68
548.84	414.27
549.01	463.43
549.18	383.85
549.34	414.27
549.51	428.32
549.68	407.25
549.84	388.53
550.01	425.98
550.18	465.77
550.34	454.06
550.51	409.59
550.68	500.87
550.84	489.17
551.01	402.57
551.18	475.13
551.34	374.49
551.51	430.66
551.68	404.91
551.84	388.53
552.01	442.36
552.18	344.06
552.34	470.45
552.51	409.59
552.68	461.09
552.84	435.34
553.01	435.34
553.18	461.09
553.34	444.70
553.51	365.12
553.67	390.87
553.84	489.17
554.01	456.40
554.17	397.89
554.34	393.21
554.51	440.02
554.67	400.23
554.84	442.36
555.00	444.70
555.17	451.72
555.33	444.70
555.50	449.38
555.67	400.23
555.83	418.96
556.00	442.36
556.16	571.09
556.33	482.15
556.50	496.19
556.66	447.04
556.83	456.40
556.99	421.30
557.16	430.66
557.32	477.47
557.49	404.91
557.65	411.93
557.82	433.00
557.98	428.32
558.15	416.62
558.32	407.25
558.48	414.27
558.65	393.21
558.81	402.57
558.98	416.62
559.14	449.38
559.31	355.76
559.47	390.87
559.64	451.72
559.80	458.74
559.97	444.70
560.13	486.83
560.30	491.51
560.46	388.53
560.63	397.89
560.79	428.32
560.96	404.91
561.12	433.00
561.29	379.17
561.45	346.40
561.61	402.57
561.78	500.87
561.94	454.06
562.11	449.38
562.27	379.17
562.44	433.00
562.60	402.57
562.77	461.09
562.93	463.43
563.10	447.04
563.26	428.32
563.42	425.98
563.59	435.34
563.75	425.98
563.92	463.43
564.08	409.59
564.24	386.19
564.41	372.15
564.57	402.57
564.74	400.23
564.90	362.78
565.07	407.25
565.23	454.06
565.39	388.53
565.56	414.27
565.72	369.80
565.88	440.02
566.05	456.40
566.21	437.68
566.38	376.83
566.54	397.89
566.70	404.91
566.87	407.25
567.03	423.64
567.19	461.09
567.36	526.62
567.52	390.87
567.68	404.91
567.85	440.02
568.01	477.47
568.17	318.31
568.34	437.68
568.50	397.89
568.66	430.66
568.83	437.68
568.99	421.30
569.15	433.00
569.32	451.72
569.48	367.46
569.64	388.53
569.81	386.19
569.97	355.76
570.13	524.28
570.30	465.77
570.46	500.87
570.62	341.72
570.78	449.38
570.95	479.81
571.11	444.70
571.27	486.83
571.43	440.02
571.60	409.59
571.76	390.87
571.92	376.83
572.09	409.59
572.25	358.10
572.41	475.13
572.57	407.25
572.74	444.70
572.90	456.40
573.06	437.68
573.22	430.66
573.38	465.77
573.55	442.36
573.71	500.87
573.87	425.98
574.03	390.87
574.20	327.68
574.36	390.87
574.52	444.70
574.68	472.79
574.84	461.09
575.01	433.00
575.17	379.17
575.33	444.70
575.49	440.02
575.65	425.98
575.82	472.79
575.98	402.57
576.14	346.40
576.30	367.46
576.46	421.30
576.62	425.98
576.79	421.30
576.95	451.72
577.11	486.83
577.27	374.49
577.43	264.48
577.59	402.57
577.75	440.02
577.92	461.09
578.08	444.70
578.24	451.72
578.40	421.30
578.56	444.70
578.72	388.53
578.88	379.17
579.04	379.17
579.21	444.70
579.37	472.79
579.53	414.27
579.69	463.43
579.85	409.59
580.01	390.87
580.17	435.34
580.33	430.66
580.49	386.19
580.65	404.91
580.82	437.68
580.98	383.85
581.14	437.68
581.30	444.70
581.46	442.36
581.62	400.23
581.78	463.43
581.94	386.19
582.10	397.89
582.26	458.74
582.42	411.93
582.58	365.12
582.74	388.53
582.90	451.72
583.06	428.32
583.22	411.93
583.38	320.65
583.54	409.59
583.70	430.66
583.86	447.04
584.02	435.34
584.18	498.53
584.34	409.59
584.50	442.36
584.66	435.34
584.82	447.04
584.98	360.44
585.14	383.85
585.30	451.72
585.46	414.27
585.62	433.00
585.78	449.38
585.94	334.70
586.10	355.76
586.26	386.19
586.42	386.19
586.58	456.40
586.74	463.43
586.90	351.08
587.06	414.27
587.22	360.44
587.38	402.57
587.54	451.72
587.70	390.87
587.86	386.19
588.02	435.34
588.18	440.02
588.34	409.59
588.49	386.19
588.65	379.17
588.81	465.77
588.97	400.23
589.13	372.15
589.29	393.21
589.45	491.51
589.61	383.85
589.77	444.70
589.93	451.72
590.08	425.98
590.24	400.23
590.40	444.70
590.56	379.17
590.72	416.62
590.88	315.97
591.04	440.02
591.20	400.23
591.35	472.79
591.51	351.08
591.67	388.53
591.83	421.30
591.99	463.43
592.15	444.70
592.31	337.04
592.46	444.70
592.62	463.43
592.78	402.57
592.94	435.34
593.10	400.23
593.26	489.17
593.41	423.64
593.57	423.64
593.73	400.23
593.89	407.25
594.05	395.55
594.20	365.12
594.36	367.46
594.52	390.87
594.68	423.64
594.84	451.72
594.99	500.87
595.15	458.74
595.31	435.34
595.47	472.79
595.62	402.57
595.78	454.06
595.94	362.78
596.10	430.66
596.25	416.62
596.41	463.43
596.57	435.34
596.73	367.46
596.88	423.64
597.04	407.25
597.20	369.80
597.36	433.00
597.51	479.81
597.67	421.30
597.83	367.46
597.99	482.15
598.14	444.70
598.30	442.36
598.46	386.19
598.61	465.77
598.77	500.87
598.93	442.36
599.09	433.00
599.24	351.08
599.40	454.06
599.56	430.66
599.71	381.51
599.87	489.17
600.03	379.17
600.18	442.36
600.34	435.34
600.50	470.45
600.65	379.17
600.81	442.36
600.97	423.64
601.12	444.70
601.28	477.47
601.44	435.34
601.59	372.15
601.75	437.68
601.91	411.93
602.06	449.38
602.22	433.00
602.37	416.62
602.53	425.98
602.69	409.59
602.84	428.32
603.00	465.77
603.16	407.25
603.31	442.36
603.47	454.06
603.62	393.21
603.78	409.59
603.94	374.49
604.09	433.00
604.25	397.89
604.40	456.40
604.56	318.31
604.71	390.87
604.87	353.42
605.03	416.62
605.18	440.02
605.34	421.30
605.49	400.23
605.65	344.06
605.80	421.30
605.96	393.21
606.12	442.36
606.27	407.25
606.43	404.91
606.58	552.37
606.74	411.93
606.89	428.32
607.05	411.93
607.20	379.17
607.36	437.68
607.51	465.77
607.67	409.59
607.82	428.32
607.98	416.62
608.13	437.68
608.29	479.81
608.44	383.85
608.60	472.79
608.75	489.17
608.91	451.72
609.06	411.93
609.22	451.72
609.37	386.19
609.53	411.93
609.68	409.59
609.84	421.30
609.99	372.15
610.15	435.34
