SpectraSuite Data File
++++++++++++++++++++++++++++++++++++
Date: Fri Oct 25 12:10:34 EDT 2013
User: price-jones
Dark Spectrum Present: No
Reference Spectrum Present: No
Number of Sampled Component Spectra: 1
Spectrometers: USB2+H05261
Integration Time (usec): 100000 (USB2+H05261)
Spectra Averaged: 1 (USB2+H05261)
Boxcar Smoothing: 0 (USB2+H05261)
Correct for Electrical Dark: No (USB2+H05261)
Strobe/Lamp Enabled: No (USB2+H05261)
Correct for Detector Non-linearity: No (USB2+H05261)
Correct for Stray Light: No (USB2+H05261)
Number of Pixels in Processed Spectrum: 2048
>>>>>Begin Processed Spectral Data<<<<<
365.73	341.72
365.92	341.72
366.12	341.72
366.32	248.10
366.52	234.05
366.72	243.42
366.91	257.46
367.11	229.37
367.31	196.60
367.51	245.76
367.70	222.35
367.90	215.33
368.10	252.78
368.30	287.89
368.49	196.60
368.69	262.14
368.89	224.69
369.09	229.37
369.28	252.78
369.48	229.37
369.68	280.86
369.87	355.76
370.07	287.89
370.27	402.57
370.47	271.50
370.66	301.93
370.86	327.68
371.06	379.17
371.25	346.40
371.45	348.74
371.65	379.17
371.84	348.74
372.04	358.10
372.24	407.25
372.44	353.42
372.63	360.44
372.83	425.98
373.03	369.80
373.22	388.53
373.42	351.08
373.62	372.15
373.81	463.43
374.01	395.55
374.21	477.47
374.40	369.80
374.60	369.80
374.79	379.17
374.99	390.87
375.19	393.21
375.38	390.87
375.58	390.87
375.78	512.58
375.97	402.57
376.17	435.34
376.37	346.40
376.56	430.66
376.76	407.25
376.95	411.93
377.15	341.72
377.35	430.66
377.54	465.77
377.74	435.34
377.93	409.59
378.13	444.70
378.33	383.85
378.52	428.32
378.72	402.57
378.91	365.12
379.11	430.66
379.31	449.38
379.50	395.55
379.70	404.91
379.89	416.62
380.09	423.64
380.28	393.21
380.48	489.17
380.68	379.17
380.87	334.70
381.07	383.85
381.26	409.59
381.46	409.59
381.65	465.77
381.85	414.27
382.04	383.85
382.24	423.64
382.43	470.45
382.63	447.04
382.83	376.83
383.02	433.00
383.22	444.70
383.41	358.10
383.61	390.87
383.80	381.51
384.00	383.85
384.19	358.10
384.39	379.17
384.58	435.34
384.78	461.09
384.97	430.66
385.17	428.32
385.36	393.21
385.56	414.27
385.75	423.64
385.95	416.62
386.14	390.87
386.34	423.64
386.53	358.10
386.72	416.62
386.92	411.93
387.11	458.74
387.31	458.74
387.50	334.70
387.70	416.62
387.89	409.59
388.09	407.25
388.28	388.53
388.48	437.68
388.67	433.00
388.86	337.04
389.06	479.81
389.25	503.22
389.45	390.87
389.64	395.55
389.84	416.62
390.03	440.02
390.22	374.49
390.42	416.62
390.61	433.00
390.81	442.36
391.00	435.34
391.19	407.25
391.39	379.17
391.58	379.17
391.78	388.53
391.97	402.57
392.16	376.83
392.36	400.23
392.55	440.02
392.75	376.83
392.94	393.21
393.13	421.30
393.33	397.89
393.52	407.25
393.71	379.17
393.91	407.25
394.10	346.40
394.29	428.32
394.49	428.32
394.68	423.64
394.88	500.87
395.07	430.66
395.26	351.08
395.46	433.00
395.65	418.96
395.84	386.19
396.04	411.93
396.23	423.64
396.42	437.68
396.62	367.46
396.81	421.30
397.00	372.15
397.19	451.72
397.39	386.19
397.58	411.93
397.77	402.57
397.97	440.02
398.16	365.12
398.35	414.27
398.55	322.99
398.74	348.74
398.93	444.70
399.12	428.32
399.32	376.83
399.51	414.27
399.70	362.78
399.90	430.66
400.09	374.49
400.28	477.47
400.47	395.55
400.67	358.10
400.86	325.33
401.05	428.32
401.24	393.21
401.44	421.30
401.63	435.34
401.82	376.83
402.01	425.98
402.21	461.09
402.40	430.66
402.59	409.59
402.78	386.19
402.97	353.42
403.17	440.02
403.36	404.91
403.55	351.08
403.74	351.08
403.93	397.89
404.13	404.91
404.32	435.34
404.51	388.53
404.70	407.25
404.89	447.04
405.09	433.00
405.28	397.89
405.47	339.38
405.66	479.81
405.85	472.79
406.05	411.93
406.24	400.23
406.43	435.34
406.62	372.15
406.81	395.55
407.00	381.51
407.20	374.49
407.39	369.80
407.58	337.04
407.77	374.49
407.96	407.25
408.15	409.59
408.34	395.55
408.54	374.49
408.73	428.32
408.92	505.56
409.11	400.23
409.30	475.13
409.49	416.62
409.68	400.23
409.87	449.38
410.07	393.21
410.26	388.53
410.45	400.23
410.64	397.89
410.83	386.19
411.02	496.19
411.21	414.27
411.40	379.17
411.59	423.64
411.78	414.27
411.98	379.17
412.17	334.70
412.36	397.89
412.55	430.66
412.74	423.64
412.93	496.19
413.12	456.40
413.31	393.21
413.50	362.78
413.69	444.70
413.88	479.81
414.07	390.87
414.26	437.68
414.45	353.42
414.64	428.32
414.83	416.62
415.02	425.98
415.22	369.80
415.41	397.89
415.60	381.51
415.79	325.33
415.98	397.89
416.17	421.30
416.36	428.32
416.55	435.34
416.74	444.70
416.93	444.70
417.12	393.21
417.31	411.93
417.50	428.32
417.69	486.83
417.88	407.25
418.07	454.06
418.26	386.19
418.45	402.57
418.64	402.57
418.83	414.27
419.02	454.06
419.21	402.57
419.39	379.17
419.58	386.19
419.77	381.51
419.96	442.36
420.15	458.74
420.34	437.68
420.53	435.34
420.72	442.36
420.91	449.38
421.10	433.00
421.29	435.34
421.48	372.15
421.67	435.34
421.86	414.27
422.05	407.25
422.24	409.59
422.43	456.40
422.61	456.40
422.80	383.85
422.99	423.64
423.18	430.66
423.37	421.30
423.56	451.72
423.75	369.80
423.94	353.42
424.13	449.38
424.32	440.02
424.50	458.74
424.69	351.08
424.88	444.70
425.07	365.12
425.26	428.32
425.45	425.98
425.64	430.66
425.83	409.59
426.01	458.74
426.20	414.27
426.39	435.34
426.58	421.30
426.77	456.40
426.96	423.64
427.15	409.59
427.33	365.12
427.52	381.51
427.71	411.93
427.90	421.30
428.09	390.87
428.28	388.53
428.46	437.68
428.65	407.25
428.84	447.04
429.03	386.19
429.22	411.93
429.40	404.91
429.59	402.57
429.78	425.98
429.97	437.68
430.16	369.80
430.34	423.64
430.53	374.49
430.72	414.27
430.91	437.68
431.10	390.87
431.28	386.19
431.47	449.38
431.66	421.30
431.85	418.96
432.03	440.02
432.22	479.81
432.41	386.19
432.60	433.00
432.79	386.19
432.97	365.12
433.16	355.76
433.35	404.91
433.54	327.68
433.72	330.02
433.91	435.34
434.10	430.66
434.28	325.33
434.47	444.70
434.66	411.93
434.85	454.06
435.03	428.32
435.22	484.49
435.41	409.59
435.59	402.57
435.78	411.93
435.97	411.93
436.16	463.43
436.34	435.34
436.53	435.34
436.72	404.91
436.90	376.83
437.09	444.70
437.28	440.02
437.46	386.19
437.65	449.38
437.84	409.59
438.02	411.93
438.21	327.68
438.40	437.68
438.58	435.34
438.77	372.15
438.96	496.19
439.14	447.04
439.33	334.70
439.52	395.55
439.70	383.85
439.89	376.83
440.08	418.96
440.26	482.15
440.45	421.30
440.63	416.62
440.82	447.04
441.01	425.98
441.19	411.93
441.38	393.21
441.57	397.89
441.75	461.09
441.94	440.02
442.12	360.44
442.31	383.85
442.50	430.66
442.68	379.17
442.87	416.62
443.05	402.57
443.24	362.78
443.43	397.89
443.61	440.02
443.80	442.36
443.98	411.93
444.17	337.04
444.35	411.93
444.54	430.66
444.73	423.64
444.91	470.45
445.10	418.96
445.28	344.06
445.47	404.91
445.65	442.36
445.84	362.78
446.02	447.04
446.21	430.66
446.39	400.23
446.58	444.70
446.77	444.70
446.95	416.62
447.14	449.38
447.32	402.57
447.51	358.10
447.69	440.02
447.88	440.02
448.06	376.83
448.25	468.11
448.43	365.12
448.62	344.06
448.80	437.68
448.99	407.25
449.17	458.74
449.36	423.64
449.54	472.79
449.73	411.93
449.91	397.89
450.10	374.49
450.28	524.28
450.46	449.38
450.65	435.34
450.83	381.51
451.02	442.36
451.20	372.15
451.39	379.17
451.57	470.45
451.76	397.89
451.94	416.62
452.13	339.38
452.31	402.57
452.49	423.64
452.68	383.85
452.86	395.55
453.05	484.49
453.23	442.36
453.42	379.17
453.60	449.38
453.78	430.66
453.97	425.98
454.15	418.96
454.34	358.10
454.52	397.89
454.70	449.38
454.89	479.81
455.07	430.66
455.26	369.80
455.44	449.38
455.62	472.79
455.81	493.85
455.99	397.89
456.17	472.79
456.36	414.27
456.54	442.36
456.73	402.57
456.91	418.96
457.09	393.21
457.28	444.70
457.46	418.96
457.64	428.32
457.83	435.34
458.01	428.32
458.19	409.59
458.38	372.15
458.56	461.09
458.74	400.23
458.93	465.77
459.11	451.72
459.29	430.66
459.48	454.06
459.66	409.59
459.84	374.49
460.03	407.25
460.21	388.53
460.39	360.44
460.57	486.83
460.76	402.57
460.94	423.64
461.12	440.02
461.31	444.70
461.49	393.21
461.67	402.57
461.85	416.62
462.04	365.12
462.22	814.51
462.40	435.34
462.59	437.68
462.77	337.04
462.95	365.12
463.13	440.02
463.32	449.38
463.50	390.87
463.68	379.17
463.86	437.68
464.05	383.85
464.23	458.74
464.41	486.83
464.59	465.77
464.78	379.17
464.96	397.89
465.14	416.62
465.32	360.44
465.50	472.79
465.69	400.23
465.87	360.44
466.05	407.25
466.23	334.70
466.41	416.62
466.60	440.02
466.78	425.98
466.96	433.00
467.14	433.00
467.32	444.70
467.51	428.32
467.69	430.66
467.87	461.09
468.05	475.13
468.23	411.93
468.41	510.24
468.60	386.19
468.78	386.19
468.96	470.45
469.14	465.77
469.32	416.62
469.50	425.98
469.69	451.72
469.87	390.87
470.05	351.08
470.23	440.02
470.41	407.25
470.59	423.64
470.77	381.51
470.95	423.64
471.14	507.90
471.32	440.02
471.50	470.45
471.68	411.93
471.86	468.11
472.04	369.80
472.22	416.62
472.40	365.12
472.58	433.00
472.77	395.55
472.95	404.91
473.13	397.89
473.31	407.25
473.49	395.55
473.67	428.32
473.85	510.24
474.03	386.19
474.21	512.58
474.39	423.64
474.57	383.85
474.75	397.89
474.93	479.81
475.12	440.02
475.30	365.12
475.48	351.08
475.66	454.06
475.84	400.23
476.02	421.30
476.20	491.51
476.38	348.74
476.56	447.04
476.74	337.04
476.92	437.68
477.10	383.85
477.28	372.15
477.46	320.65
477.64	477.47
477.82	449.38
478.00	416.62
478.18	400.23
478.36	428.32
478.54	395.55
478.72	362.78
478.90	489.17
479.08	348.74
479.26	418.96
479.44	454.06
479.62	362.78
479.80	407.25
479.98	344.06
480.16	367.46
480.34	493.85
480.52	372.15
480.70	367.46
480.88	337.04
481.06	411.93
481.24	388.53
481.41	404.91
481.59	484.49
481.77	425.98
481.95	407.25
482.13	409.59
482.31	472.79
482.49	395.55
482.67	458.74
482.85	451.72
483.03	472.79
483.21	369.80
483.39	411.93
483.57	400.23
483.74	374.49
483.92	416.62
484.10	381.51
484.28	444.70
484.46	451.72
484.64	320.65
484.82	414.27
485.00	421.30
485.18	407.25
485.35	442.36
485.53	418.96
485.71	470.45
485.89	440.02
486.07	456.40
486.25	477.47
486.43	372.15
486.61	425.98
486.78	381.51
486.96	393.21
487.14	386.19
487.32	449.38
487.50	449.38
487.68	482.15
487.85	386.19
488.03	435.34
488.21	355.76
488.39	390.87
488.57	409.59
488.75	365.12
488.92	498.53
489.10	430.66
489.28	447.04
489.46	411.93
489.64	444.70
489.81	379.17
489.99	500.87
490.17	423.64
490.35	484.49
490.53	346.40
490.70	421.30
490.88	355.76
491.06	442.36
491.24	428.32
491.41	435.34
491.59	496.19
491.77	421.30
491.95	435.34
492.13	390.87
492.30	402.57
492.48	423.64
492.66	353.42
492.84	477.47
493.01	465.77
493.19	475.13
493.37	484.49
493.54	362.78
493.72	383.85
493.90	367.46
494.08	404.91
494.25	409.59
494.43	472.79
494.61	374.49
494.79	449.38
494.96	369.80
495.14	414.27
495.32	388.53
495.49	376.83
495.67	447.04
495.85	388.53
496.02	395.55
496.20	437.68
496.38	465.77
496.55	407.25
496.73	416.62
496.91	442.36
497.09	435.34
497.26	346.40
497.44	447.04
497.62	461.09
497.79	430.66
497.97	374.49
498.14	500.87
498.32	435.34
498.50	395.55
498.67	447.04
498.85	414.27
499.03	381.51
499.20	374.49
499.38	376.83
499.56	428.32
499.73	484.49
499.91	400.23
500.08	388.53
500.26	447.04
500.44	379.17
500.61	428.32
500.79	421.30
500.97	393.21
501.14	442.36
501.32	444.70
501.49	423.64
501.67	440.02
501.84	451.72
502.02	449.38
502.20	470.45
502.37	440.02
502.55	447.04
502.72	409.59
502.90	348.74
503.07	440.02
503.25	447.04
503.43	451.72
503.60	393.21
503.78	414.27
503.95	447.04
504.13	489.17
504.30	348.74
504.48	404.91
504.65	475.13
504.83	454.06
505.01	386.19
505.18	402.57
505.36	386.19
505.53	416.62
505.71	390.87
505.88	435.34
506.06	418.96
506.23	393.21
506.41	374.49
506.58	447.04
506.76	360.44
506.93	411.93
507.11	468.11
507.28	442.36
507.46	489.17
507.63	400.23
507.81	330.02
507.98	465.77
508.16	428.32
508.33	407.25
508.50	447.04
508.68	393.21
508.85	454.06
509.03	409.59
509.20	437.68
509.38	409.59
509.55	374.49
509.73	440.02
509.90	397.89
510.08	376.83
510.25	393.21
510.42	400.23
510.60	451.72
510.77	449.38
510.95	479.81
511.12	407.25
511.30	470.45
511.47	425.98
511.64	454.06
511.82	433.00
511.99	388.53
512.17	430.66
512.34	369.80
512.51	383.85
512.69	411.93
512.86	379.17
513.04	447.04
513.21	437.68
513.38	482.15
513.56	395.55
513.73	386.19
513.90	430.66
514.08	416.62
514.25	433.00
514.43	545.34
514.60	327.68
514.77	449.38
514.95	475.13
515.12	311.29
515.29	418.96
515.47	407.25
515.64	456.40
515.81	400.23
515.99	500.87
516.16	477.47
516.33	428.32
516.51	411.93
516.68	430.66
516.85	397.89
517.03	444.70
517.20	414.27
517.37	379.17
517.54	454.06
517.72	468.11
517.89	369.80
518.06	390.87
518.24	421.30
518.41	451.72
518.58	468.11
518.75	447.04
518.93	421.30
519.10	435.34
519.27	416.62
519.45	493.85
519.62	470.45
519.79	447.04
519.96	423.64
520.14	402.57
520.31	447.04
520.48	456.40
520.65	484.49
520.83	423.64
521.00	461.09
521.17	383.85
521.34	402.57
521.52	409.59
521.69	451.72
521.86	416.62
522.03	493.85
522.20	479.81
522.38	430.66
522.55	430.66
522.72	404.91
522.89	414.27
523.07	454.06
523.24	472.79
523.41	393.21
523.58	451.72
523.75	402.57
523.92	444.70
524.10	486.83
524.27	472.79
524.44	442.36
524.61	461.09
524.78	397.89
524.96	409.59
525.13	425.98
525.30	435.34
525.47	468.11
525.64	428.32
525.81	517.26
525.98	418.96
526.16	395.55
526.33	400.23
526.50	381.51
526.67	369.80
526.84	411.93
527.01	470.45
527.18	489.17
527.36	440.02
527.53	418.96
527.70	468.11
527.87	418.96
528.04	423.64
528.21	374.49
528.38	482.15
528.55	437.68
528.72	507.90
528.89	379.17
529.07	442.36
529.24	486.83
529.41	482.15
529.58	376.83
529.75	369.80
529.92	421.30
530.09	425.98
530.26	376.83
530.43	425.98
530.60	430.66
530.77	421.30
530.94	465.77
531.11	393.21
531.28	397.89
531.46	423.64
531.63	435.34
531.80	430.66
531.97	449.38
532.14	416.62
532.31	447.04
532.48	484.49
532.65	491.51
532.82	400.23
532.99	404.91
533.16	404.91
533.33	367.46
533.50	400.23
533.67	425.98
533.84	475.13
534.01	428.32
534.18	437.68
534.35	414.27
534.52	428.32
534.69	421.30
534.86	461.09
535.03	402.57
535.20	365.12
535.37	463.43
535.54	416.62
535.71	388.53
535.88	440.02
536.05	454.06
536.22	383.85
536.38	440.02
536.55	395.55
536.72	463.43
536.89	477.47
537.06	388.53
537.23	374.49
537.40	458.74
537.57	400.23
537.74	407.25
537.91	514.92
538.08	458.74
538.25	433.00
538.42	414.27
538.59	468.11
538.75	433.00
538.92	465.77
539.09	458.74
539.26	435.34
539.43	421.30
539.60	428.32
539.77	414.27
539.94	381.51
540.11	409.59
540.28	379.17
540.44	435.34
540.61	489.17
540.78	397.89
540.95	404.91
541.12	442.36
541.29	383.85
541.46	465.77
541.62	386.19
541.79	400.23
541.96	425.98
542.13	454.06
542.30	411.93
542.47	395.55
542.63	402.57
542.80	468.11
542.97	386.19
543.14	374.49
543.31	409.59
543.48	376.83
543.64	442.36
543.81	369.80
543.98	428.32
544.15	482.15
544.32	447.04
544.48	428.32
544.65	376.83
544.82	346.40
544.99	395.55
545.16	365.12
545.32	411.93
545.49	461.09
545.66	379.17
545.83	386.19
546.00	332.36
546.16	376.83
546.33	454.06
546.50	447.04
546.67	468.11
546.83	416.62
547.00	355.76
547.17	383.85
547.34	395.55
547.50	355.76
547.67	386.19
547.84	386.19
548.00	428.32
548.17	386.19
548.34	362.78
548.51	430.66
548.67	414.27
548.84	451.72
549.01	444.70
549.18	428.32
549.34	425.98
549.51	416.62
549.68	379.17
549.84	355.76
550.01	397.89
550.18	461.09
550.34	491.51
550.51	425.98
550.68	449.38
550.84	437.68
551.01	395.55
551.18	367.46
551.34	437.68
551.51	461.09
551.68	440.02
551.84	433.00
552.01	423.64
552.18	416.62
552.34	435.34
552.51	358.10
552.68	404.91
552.84	435.34
553.01	521.94
553.18	451.72
553.34	456.40
553.51	423.64
553.67	489.17
553.84	440.02
554.01	386.19
554.17	353.42
554.34	451.72
554.51	400.23
554.67	468.11
554.84	491.51
555.00	395.55
555.17	402.57
555.33	421.30
555.50	407.25
555.67	437.68
555.83	472.79
556.00	514.92
556.16	533.64
556.33	414.27
556.50	388.53
556.66	400.23
556.83	421.30
556.99	449.38
557.16	442.36
557.32	374.49
557.49	425.98
557.65	491.51
557.82	444.70
557.98	421.30
558.15	397.89
558.32	407.25
558.48	344.06
558.65	383.85
558.81	393.21
558.98	372.15
559.14	484.49
559.31	362.78
559.47	411.93
559.64	407.25
559.80	332.36
559.97	369.80
560.13	379.17
560.30	372.15
560.46	437.68
560.63	454.06
560.79	421.30
560.96	440.02
561.12	440.02
561.29	475.13
561.45	397.89
561.61	381.51
561.78	451.72
561.94	435.34
562.11	421.30
562.27	463.43
562.44	388.53
562.60	461.09
562.77	418.96
562.93	463.43
563.10	365.12
563.26	423.64
563.42	531.30
563.59	440.02
563.75	414.27
563.92	358.10
564.08	411.93
564.24	479.81
564.41	435.34
564.57	416.62
564.74	486.83
564.90	388.53
565.07	468.11
565.23	465.77
565.39	365.12
565.56	341.72
565.72	442.36
565.88	423.64
566.05	351.08
566.21	395.55
566.38	395.55
566.54	477.47
566.70	393.21
566.87	442.36
567.03	433.00
567.19	430.66
567.36	407.25
567.52	353.42
567.68	348.74
567.85	346.40
568.01	386.19
568.17	440.02
568.34	390.87
568.50	423.64
568.66	390.87
568.83	472.79
568.99	463.43
569.15	407.25
569.32	395.55
569.48	433.00
569.64	386.19
569.81	447.04
569.97	425.98
570.13	440.02
570.30	416.62
570.46	355.76
570.62	444.70
570.78	294.91
570.95	428.32
571.11	437.68
571.27	449.38
571.43	411.93
571.60	477.47
571.76	421.30
571.92	327.68
572.09	435.34
572.25	407.25
572.41	477.47
572.57	404.91
572.74	435.34
572.90	475.13
573.06	402.57
573.22	400.23
573.38	491.51
573.55	393.21
573.71	418.96
573.87	437.68
574.03	379.17
574.20	425.98
574.36	491.51
574.52	362.78
574.68	355.76
574.84	475.13
575.01	383.85
575.17	433.00
575.33	390.87
575.49	524.28
575.65	463.43
575.82	465.77
575.98	381.51
576.14	463.43
576.30	456.40
576.46	496.19
576.62	407.25
576.79	355.76
576.95	423.64
577.11	444.70
577.27	428.32
577.43	390.87
577.59	435.34
577.75	477.47
577.92	353.42
578.08	409.59
578.24	418.96
578.40	395.55
578.56	444.70
578.72	440.02
578.88	425.98
579.04	416.62
579.21	428.32
579.37	447.04
579.53	414.27
579.69	442.36
579.85	404.91
580.01	388.53
580.17	395.55
580.33	402.57
580.49	442.36
580.65	355.76
580.82	433.00
580.98	386.19
581.14	395.55
581.30	472.79
581.46	393.21
581.62	440.02
581.78	395.55
581.94	395.55
582.10	440.02
582.26	484.49
582.42	435.34
582.58	449.38
582.74	381.51
582.90	435.34
583.06	395.55
583.22	400.23
583.38	421.30
583.54	393.21
583.70	449.38
583.86	425.98
584.02	407.25
584.18	433.00
584.34	451.72
584.50	440.02
584.66	407.25
584.82	442.36
584.98	451.72
585.14	451.72
585.30	404.91
585.46	421.30
585.62	430.66
585.78	465.77
585.94	479.81
586.10	383.85
586.26	465.77
586.42	440.02
586.58	416.62
586.74	313.63
586.90	449.38
587.06	423.64
587.22	397.89
587.38	444.70
587.54	372.15
587.70	479.81
587.86	444.70
588.02	386.19
588.18	444.70
588.34	388.53
588.49	386.19
588.65	379.17
588.81	428.32
588.97	472.79
589.13	390.87
589.29	365.12
589.45	437.68
589.61	510.24
589.77	404.91
589.93	458.74
590.08	395.55
590.24	433.00
590.40	463.43
590.56	400.23
590.72	358.10
590.88	407.25
591.04	369.80
591.20	407.25
591.35	404.91
591.51	425.98
591.67	477.47
591.83	348.74
591.99	414.27
592.15	461.09
592.31	404.91
592.46	416.62
592.62	493.85
592.78	409.59
592.94	402.57
593.10	458.74
593.26	395.55
593.41	433.00
593.57	423.64
593.73	458.74
593.89	470.45
594.05	372.15
594.20	355.76
594.36	407.25
594.52	423.64
594.68	344.06
594.84	348.74
594.99	433.00
595.15	400.23
595.31	425.98
595.47	428.32
595.62	437.68
595.78	374.49
595.94	414.27
596.10	461.09
596.25	425.98
596.41	449.38
596.57	411.93
596.73	397.89
596.88	442.36
597.04	409.59
597.20	428.32
597.36	400.23
597.51	411.93
597.67	365.12
597.83	484.49
597.99	379.17
598.14	444.70
598.30	416.62
598.46	414.27
598.61	454.06
598.77	507.90
598.93	404.91
599.09	421.30
599.24	346.40
599.40	437.68
599.56	461.09
599.71	379.17
599.87	423.64
600.03	519.60
600.18	411.93
600.34	472.79
600.50	372.15
600.65	407.25
600.81	383.85
600.97	372.15
601.12	407.25
601.28	416.62
601.44	400.23
601.59	402.57
601.75	400.23
601.91	397.89
602.06	386.19
602.22	437.68
602.37	386.19
602.53	442.36
602.69	421.30
602.84	362.78
603.00	477.47
603.16	400.23
603.31	449.38
603.47	355.76
603.62	360.44
603.78	318.31
603.94	425.98
604.09	477.47
604.25	421.30
604.40	451.72
604.56	381.51
604.71	440.02
604.87	388.53
605.03	456.40
605.18	411.93
605.34	416.62
605.49	402.57
605.65	430.66
605.80	430.66
605.96	430.66
606.12	463.43
606.27	437.68
606.43	477.47
606.58	393.21
606.74	418.96
606.89	425.98
607.05	360.44
607.20	397.89
607.36	379.17
607.51	433.00
607.67	440.02
607.82	447.04
607.98	444.70
608.13	449.38
608.29	418.96
608.44	451.72
608.60	418.96
608.75	479.81
608.91	402.57
609.06	449.38
609.22	416.62
609.37	465.77
609.53	379.17
609.68	421.30
609.84	456.40
609.99	421.30
610.15	451.72
