SpectraSuite Data File
++++++++++++++++++++++++++++++++++++
Date: Fri Oct 25 12:11:37 EDT 2013
User: price-jones
Dark Spectrum Present: No
Reference Spectrum Present: No
Number of Sampled Component Spectra: 1
Spectrometers: USB2+H05261
Integration Time (usec): 100000 (USB2+H05261)
Spectra Averaged: 1 (USB2+H05261)
Boxcar Smoothing: 0 (USB2+H05261)
Correct for Electrical Dark: No (USB2+H05261)
Strobe/Lamp Enabled: No (USB2+H05261)
Correct for Detector Non-linearity: No (USB2+H05261)
Correct for Stray Light: No (USB2+H05261)
Number of Pixels in Processed Spectrum: 2048
>>>>>Begin Processed Spectral Data<<<<<
365.73	360.44
365.92	360.44
366.12	360.44
366.32	311.29
366.52	255.12
366.72	304.27
366.91	231.71
367.11	283.20
367.31	184.90
367.51	224.69
367.70	203.63
367.90	243.42
368.10	245.76
368.30	290.23
368.49	283.20
368.69	285.55
368.89	229.37
369.09	231.71
369.28	348.74
369.48	250.44
369.68	313.63
369.87	308.95
370.07	248.10
370.27	367.46
370.47	322.99
370.66	330.02
370.86	330.02
371.06	276.18
371.25	322.99
371.45	374.49
371.65	353.42
371.84	337.04
372.04	372.15
372.24	362.78
372.44	306.61
372.63	367.46
372.83	395.55
373.03	381.51
373.22	365.12
373.42	402.57
373.62	411.93
373.81	454.06
374.01	482.15
374.21	400.23
374.40	351.08
374.60	456.40
374.79	404.91
374.99	440.02
375.19	395.55
375.38	442.36
375.58	496.19
375.78	458.74
375.97	468.11
376.17	447.04
376.37	421.30
376.56	421.30
376.76	440.02
376.95	437.68
377.15	402.57
377.35	407.25
377.54	400.23
377.74	416.62
377.93	475.13
378.13	360.44
378.33	425.98
378.52	365.12
378.72	388.53
378.91	379.17
379.11	367.46
379.31	407.25
379.50	454.06
379.70	461.09
379.89	444.70
380.09	379.17
380.28	458.74
380.48	407.25
380.68	421.30
380.87	355.76
381.07	393.21
381.26	475.13
381.46	409.59
381.65	418.96
381.85	397.89
382.04	374.49
382.24	451.72
382.43	374.49
382.63	358.10
382.83	423.64
383.02	435.34
383.22	388.53
383.41	381.51
383.61	421.30
383.80	458.74
384.00	461.09
384.19	444.70
384.39	437.68
384.58	463.43
384.78	395.55
384.97	449.38
385.17	386.19
385.36	393.21
385.56	423.64
385.75	437.68
385.95	383.85
386.14	475.13
386.34	435.34
386.53	393.21
386.72	339.38
386.92	444.70
387.11	404.91
387.31	430.66
387.50	411.93
387.70	395.55
387.89	421.30
388.09	381.51
388.28	428.32
388.48	416.62
388.67	414.27
388.86	386.19
389.06	395.55
389.25	454.06
389.45	449.38
389.64	433.00
389.84	369.80
390.03	433.00
390.22	379.17
390.42	437.68
390.61	383.85
390.81	414.27
391.00	411.93
391.19	388.53
391.39	374.49
391.58	411.93
391.78	379.17
391.97	444.70
392.16	346.40
392.36	461.09
392.55	468.11
392.75	425.98
392.94	416.62
393.13	390.87
393.33	470.45
393.52	423.64
393.71	344.06
393.91	369.80
394.10	388.53
394.29	379.17
394.49	337.04
394.68	397.89
394.88	418.96
395.07	435.34
395.26	414.27
395.46	411.93
395.65	414.27
395.84	400.23
396.04	491.51
396.23	404.91
396.42	416.62
396.62	418.96
396.81	430.66
397.00	383.85
397.19	458.74
397.39	292.57
397.58	430.66
397.77	477.47
397.97	346.40
398.16	440.02
398.35	430.66
398.55	425.98
398.74	470.45
398.93	409.59
399.12	374.49
399.32	409.59
399.51	330.02
399.70	447.04
399.90	388.53
400.09	425.98
400.28	428.32
400.47	435.34
400.67	400.23
400.86	475.13
401.05	409.59
401.24	428.32
401.44	442.36
401.63	430.66
401.82	435.34
402.01	425.98
402.21	437.68
402.40	411.93
402.59	407.25
402.78	367.46
402.97	397.89
403.17	447.04
403.36	463.43
403.55	395.55
403.74	374.49
403.93	390.87
404.13	393.21
404.32	400.23
404.51	425.98
404.70	390.87
404.89	388.53
405.09	416.62
405.28	411.93
405.47	416.62
405.66	383.85
405.85	402.57
406.05	334.70
406.24	444.70
406.43	411.93
406.62	435.34
406.81	425.98
407.00	430.66
407.20	433.00
407.39	379.17
407.58	463.43
407.77	395.55
407.96	365.12
408.15	461.09
408.34	411.93
408.54	332.36
408.73	407.25
408.92	395.55
409.11	430.66
409.30	411.93
409.49	442.36
409.68	409.59
409.87	285.55
410.07	407.25
410.26	454.06
410.45	414.27
410.64	397.89
410.83	372.15
411.02	372.15
411.21	451.72
411.40	414.27
411.59	404.91
411.78	344.06
411.98	402.57
412.17	437.68
412.36	409.59
412.55	351.08
412.74	442.36
412.93	470.45
413.12	332.36
413.31	437.68
413.50	430.66
413.69	379.17
413.88	454.06
414.07	451.72
414.26	458.74
414.45	390.87
414.64	411.93
414.83	358.10
415.02	360.44
415.22	433.00
415.41	383.85
415.60	418.96
415.79	418.96
415.98	421.30
416.17	430.66
416.36	400.23
416.55	390.87
416.74	468.11
416.93	475.13
417.12	376.83
417.31	428.32
417.50	451.72
417.69	425.98
417.88	383.85
418.07	409.59
418.26	407.25
418.45	430.66
418.64	475.13
418.83	444.70
419.02	461.09
419.21	409.59
419.39	425.98
419.58	437.68
419.77	372.15
419.96	425.98
420.15	472.79
420.34	360.44
420.53	414.27
420.72	381.51
420.91	409.59
421.10	442.36
421.29	393.21
421.48	451.72
421.67	404.91
421.86	397.89
422.05	414.27
422.24	407.25
422.43	400.23
422.61	400.23
422.80	423.64
422.99	383.85
423.18	505.56
423.37	461.09
423.56	418.96
423.75	418.96
423.94	369.80
424.13	379.17
424.32	402.57
424.50	449.38
424.69	454.06
424.88	379.17
425.07	397.89
425.26	351.08
425.45	437.68
425.64	409.59
425.83	369.80
426.01	395.55
426.20	416.62
426.39	407.25
426.58	447.04
426.77	414.27
426.96	454.06
427.15	444.70
427.33	442.36
427.52	395.55
427.71	407.25
427.90	425.98
428.09	430.66
428.28	468.11
428.46	348.74
428.65	428.32
428.84	400.23
429.03	435.34
429.22	372.15
429.40	451.72
429.59	418.96
429.78	372.15
429.97	425.98
430.16	411.93
430.34	402.57
430.53	411.93
430.72	416.62
430.91	388.53
431.10	390.87
431.28	465.77
431.47	421.30
431.66	330.02
431.85	418.96
432.03	437.68
432.22	425.98
432.41	407.25
432.60	388.53
432.79	461.09
432.97	423.64
433.16	376.83
433.35	360.44
433.54	386.19
433.72	475.13
433.91	411.93
434.10	372.15
434.28	421.30
434.47	449.38
434.66	451.72
434.85	451.72
435.03	428.32
435.22	395.55
435.41	456.40
435.59	440.02
435.78	402.57
435.97	383.85
436.16	491.51
436.34	433.00
436.53	400.23
436.72	402.57
436.90	440.02
437.09	397.89
437.28	428.32
437.46	407.25
437.65	451.72
437.84	479.81
438.02	435.34
438.21	351.08
438.40	493.85
438.58	411.93
438.77	414.27
438.96	421.30
439.14	386.19
439.33	475.13
439.52	407.25
439.70	376.83
439.89	425.98
440.08	402.57
440.26	444.70
440.45	369.80
440.63	423.64
440.82	341.72
441.01	407.25
441.19	433.00
441.38	383.85
441.57	393.21
441.75	433.00
441.94	404.91
442.12	430.66
442.31	465.77
442.50	353.42
442.68	358.10
442.87	374.49
443.05	461.09
443.24	383.85
443.43	381.51
443.61	416.62
443.80	435.34
443.98	437.68
444.17	421.30
444.35	411.93
444.54	402.57
444.73	442.36
444.91	365.12
445.10	458.74
445.28	341.72
445.47	397.89
445.65	400.23
445.84	444.70
446.02	411.93
446.21	416.62
446.39	447.04
446.58	433.00
446.77	477.47
446.95	440.02
447.14	461.09
447.32	463.43
447.51	440.02
447.69	411.93
447.88	442.36
448.06	437.68
448.25	440.02
448.43	381.51
448.62	383.85
448.80	404.91
448.99	386.19
449.17	435.34
449.36	425.98
449.54	400.23
449.73	402.57
449.91	411.93
450.10	470.45
450.28	543.00
450.46	451.72
450.65	463.43
450.83	414.27
451.02	458.74
451.20	369.80
451.39	447.04
451.57	402.57
451.76	390.87
451.94	414.27
452.13	414.27
452.31	479.81
452.49	428.32
452.68	409.59
452.86	479.81
453.05	355.76
453.23	456.40
453.42	430.66
453.60	332.36
453.78	451.72
453.97	395.55
454.15	414.27
454.34	388.53
454.52	407.25
454.70	440.02
454.89	449.38
455.07	397.89
455.26	374.49
455.44	416.62
455.62	458.74
455.81	447.04
455.99	369.80
456.17	411.93
456.36	397.89
456.54	442.36
456.73	414.27
456.91	442.36
457.09	397.89
457.28	444.70
457.46	367.46
457.64	461.09
457.83	407.25
458.01	423.64
458.19	437.68
458.38	433.00
458.56	395.55
458.74	404.91
458.93	418.96
459.11	456.40
459.29	409.59
459.48	393.21
459.66	454.06
459.84	433.00
460.03	479.81
460.21	421.30
460.39	332.36
460.57	414.27
460.76	374.49
460.94	442.36
461.12	468.11
461.31	421.30
461.49	463.43
461.67	346.40
461.85	369.80
462.04	372.15
462.22	716.20
462.40	461.09
462.59	456.40
462.77	411.93
462.95	407.25
463.13	346.40
463.32	465.77
463.50	409.59
463.68	447.04
463.86	416.62
464.05	447.04
464.23	472.79
464.41	414.27
464.59	421.30
464.78	435.34
464.96	468.11
465.14	428.32
465.32	411.93
465.50	423.64
465.69	447.04
465.87	461.09
466.05	381.51
466.23	388.53
466.41	437.68
466.60	414.27
466.78	437.68
466.96	430.66
467.14	369.80
467.32	418.96
467.51	470.45
467.69	397.89
467.87	472.79
468.05	355.76
468.23	421.30
468.41	409.59
468.60	437.68
468.78	344.06
468.96	407.25
469.14	444.70
469.32	423.64
469.50	411.93
469.69	409.59
469.87	425.98
470.05	451.72
470.23	374.49
470.41	407.25
470.59	407.25
470.77	437.68
470.95	418.96
471.14	456.40
471.32	411.93
471.50	423.64
471.68	421.30
471.86	404.91
472.04	395.55
472.22	351.08
472.40	397.89
472.58	390.87
472.77	393.21
472.95	393.21
473.13	418.96
473.31	444.70
473.49	414.27
473.67	397.89
473.85	332.36
474.03	491.51
474.21	423.64
474.39	381.51
474.57	430.66
474.75	407.25
474.93	388.53
475.12	425.98
475.30	388.53
475.48	428.32
475.66	386.19
475.84	428.32
476.02	442.36
476.20	421.30
476.38	376.83
476.56	433.00
476.74	374.49
476.92	425.98
477.10	449.38
477.28	428.32
477.46	465.77
477.64	454.06
477.82	409.59
478.00	407.25
478.18	409.59
478.36	451.72
478.54	461.09
478.72	437.68
478.90	470.45
479.08	433.00
479.26	376.83
479.44	395.55
479.62	386.19
479.80	397.89
479.98	409.59
480.16	409.59
480.34	416.62
480.52	407.25
480.70	409.59
480.88	390.87
481.06	411.93
481.24	472.79
481.41	444.70
481.59	409.59
481.77	407.25
481.95	414.27
482.13	418.96
482.31	388.53
482.49	388.53
482.67	423.64
482.85	449.38
483.03	437.68
483.21	440.02
483.39	395.55
483.57	456.40
483.74	512.58
483.92	416.62
484.10	444.70
484.28	475.13
484.46	493.85
484.64	390.87
484.82	535.98
485.00	411.93
485.18	428.32
485.35	477.47
485.53	407.25
485.71	418.96
485.89	327.68
486.07	430.66
486.25	395.55
486.43	421.30
486.61	404.91
486.78	388.53
486.96	437.68
487.14	484.49
487.32	435.34
487.50	435.34
487.68	383.85
487.85	458.74
488.03	416.62
488.21	430.66
488.39	463.43
488.57	409.59
488.75	344.06
488.92	521.94
489.10	409.59
489.28	414.27
489.46	468.11
489.64	381.51
489.81	402.57
489.99	395.55
490.17	433.00
490.35	407.25
490.53	372.15
490.70	409.59
490.88	428.32
491.06	404.91
491.24	477.47
491.41	447.04
491.59	442.36
491.77	425.98
491.95	421.30
492.13	360.44
492.30	388.53
492.48	411.93
492.66	454.06
492.84	372.15
493.01	374.49
493.19	416.62
493.37	500.87
493.54	390.87
493.72	409.59
493.90	416.62
494.08	395.55
494.25	435.34
494.43	433.00
494.61	369.80
494.79	486.83
494.96	355.76
495.14	381.51
495.32	470.45
495.49	402.57
495.67	435.34
495.85	472.79
496.02	376.83
496.20	397.89
496.38	400.23
496.55	397.89
496.73	397.89
496.91	400.23
497.09	463.43
497.26	344.06
497.44	393.21
497.62	395.55
497.79	416.62
497.97	425.98
498.14	461.09
498.32	428.32
498.50	407.25
498.67	425.98
498.85	461.09
499.03	386.19
499.20	416.62
499.38	463.43
499.56	482.15
499.73	423.64
499.91	430.66
500.08	395.55
500.26	482.15
500.44	437.68
500.61	465.77
500.79	449.38
500.97	454.06
501.14	465.77
501.32	442.36
501.49	463.43
501.67	372.15
501.84	472.79
502.02	421.30
502.20	451.72
502.37	402.57
502.55	421.30
502.72	367.46
502.90	433.00
503.07	416.62
503.25	461.09
503.43	339.38
503.60	400.23
503.78	428.32
503.95	433.00
504.13	374.49
504.30	463.43
504.48	442.36
504.65	444.70
504.83	400.23
505.01	430.66
505.18	468.11
505.36	365.12
505.53	372.15
505.71	458.74
505.88	435.34
506.06	456.40
506.23	458.74
506.41	386.19
506.58	493.85
506.76	477.47
506.93	418.96
507.11	400.23
507.28	444.70
507.46	421.30
507.63	414.27
507.81	393.21
507.98	374.49
508.16	468.11
508.33	440.02
508.50	400.23
508.68	411.93
508.85	381.51
509.03	433.00
509.20	362.78
509.38	456.40
509.55	418.96
509.73	402.57
509.90	416.62
510.08	428.32
510.25	437.68
510.42	404.91
510.60	458.74
510.77	362.78
510.95	447.04
511.12	395.55
511.30	493.85
511.47	479.81
511.64	514.92
511.82	365.12
511.99	468.11
512.17	390.87
512.34	416.62
512.51	428.32
512.69	397.89
512.86	423.64
513.04	437.68
513.21	435.34
513.38	463.43
513.56	421.30
513.73	400.23
513.90	395.55
514.08	433.00
514.25	418.96
514.43	414.27
514.60	414.27
514.77	374.49
514.95	442.36
515.12	379.17
515.29	383.85
515.47	458.74
515.64	465.77
515.81	383.85
515.99	365.12
516.16	409.59
516.33	423.64
516.51	407.25
516.68	388.53
516.85	468.11
517.03	416.62
517.20	423.64
517.37	393.21
517.54	397.89
517.72	379.17
517.89	395.55
518.06	461.09
518.24	465.77
518.41	468.11
518.58	376.83
518.75	404.91
518.93	376.83
519.10	388.53
519.27	442.36
519.45	400.23
519.62	461.09
519.79	425.98
519.96	330.02
520.14	482.15
520.31	402.57
520.48	451.72
520.65	381.51
520.83	414.27
521.00	442.36
521.17	395.55
521.34	447.04
521.52	505.56
521.69	498.53
521.86	393.21
522.03	505.56
522.20	444.70
522.38	400.23
522.55	440.02
522.72	383.85
522.89	444.70
523.07	447.04
523.24	409.59
523.41	425.98
523.58	411.93
523.75	414.27
523.92	411.93
524.10	376.83
524.27	383.85
524.44	407.25
524.61	456.40
524.78	425.98
524.96	374.49
525.13	421.30
525.30	407.25
525.47	435.34
525.64	418.96
525.81	449.38
525.98	444.70
526.16	440.02
526.33	379.17
526.50	456.40
526.67	386.19
526.84	416.62
527.01	428.32
527.18	428.32
527.36	437.68
527.53	402.57
527.70	374.49
527.87	447.04
528.04	442.36
528.21	433.00
528.38	461.09
528.55	433.00
528.72	456.40
528.89	510.24
529.07	451.72
529.24	386.19
529.41	348.74
529.58	393.21
529.75	440.02
529.92	447.04
530.09	404.91
530.26	428.32
530.43	407.25
530.60	407.25
530.77	437.68
530.94	360.44
531.11	435.34
531.28	381.51
531.46	433.00
531.63	507.90
531.80	414.27
531.97	428.32
532.14	390.87
532.31	526.62
532.48	500.87
532.65	440.02
532.82	320.65
532.99	454.06
533.16	402.57
533.33	402.57
533.50	395.55
533.67	365.12
533.84	346.40
534.01	433.00
534.18	437.68
534.35	475.13
534.52	362.78
534.69	435.34
534.86	409.59
535.03	461.09
535.20	461.09
535.37	442.36
535.54	442.36
535.71	423.64
535.88	400.23
536.05	475.13
536.22	447.04
536.38	393.21
536.55	407.25
536.72	451.72
536.89	383.85
537.06	425.98
537.23	456.40
537.40	454.06
537.57	365.12
537.74	456.40
537.91	521.94
538.08	425.98
538.25	468.11
538.42	397.89
538.59	416.62
538.75	416.62
538.92	365.12
539.09	411.93
539.26	440.02
539.43	400.23
539.60	458.74
539.77	451.72
539.94	470.45
540.11	388.53
540.28	435.34
540.44	447.04
540.61	435.34
540.78	463.43
540.95	468.11
541.12	456.40
541.29	475.13
541.46	510.24
541.62	423.64
541.79	409.59
541.96	355.76
542.13	428.32
542.30	402.57
542.47	386.19
542.63	437.68
542.80	386.19
542.97	463.43
543.14	407.25
543.31	449.38
543.48	454.06
543.64	491.51
543.81	468.11
543.98	383.85
544.15	451.72
544.32	458.74
544.48	381.51
544.65	428.32
544.82	369.80
544.99	383.85
545.16	360.44
545.32	374.49
545.49	451.72
545.66	444.70
545.83	395.55
546.00	397.89
546.16	411.93
546.33	383.85
546.50	421.30
546.67	372.15
546.83	360.44
547.00	402.57
547.17	414.27
547.34	451.72
547.50	477.47
547.67	465.77
547.84	353.42
548.00	498.53
548.17	404.91
548.34	479.81
548.51	472.79
548.67	440.02
548.84	376.83
549.01	454.06
549.18	388.53
549.34	414.27
549.51	468.11
549.68	353.42
549.84	437.68
550.01	418.96
550.18	465.77
550.34	564.07
550.51	365.12
550.68	456.40
550.84	383.85
551.01	447.04
551.18	397.89
551.34	388.53
551.51	425.98
551.68	437.68
551.84	407.25
552.01	346.40
552.18	472.79
552.34	484.49
552.51	440.02
552.68	421.30
552.84	458.74
553.01	395.55
553.18	433.00
553.34	395.55
553.51	400.23
553.67	376.83
553.84	400.23
554.01	428.32
554.17	440.02
554.34	411.93
554.51	348.74
554.67	397.89
554.84	388.53
555.00	465.77
555.17	491.51
555.33	395.55
555.50	393.21
555.67	468.11
555.83	355.76
556.00	416.62
556.16	503.22
556.33	421.30
556.50	454.06
556.66	423.64
556.83	358.10
556.99	358.10
557.16	404.91
557.32	440.02
557.49	365.12
557.65	418.96
557.82	435.34
557.98	418.96
558.15	442.36
558.32	463.43
558.48	540.66
558.65	404.91
558.81	500.87
558.98	390.87
559.14	433.00
559.31	437.68
559.47	437.68
559.64	365.12
559.80	365.12
559.97	400.23
560.13	451.72
560.30	313.63
560.46	435.34
560.63	447.04
560.79	395.55
560.96	414.27
561.12	416.62
561.29	442.36
561.45	348.74
561.61	325.33
561.78	449.38
561.94	409.59
562.11	395.55
562.27	395.55
562.44	369.80
562.60	395.55
562.77	468.11
562.93	428.32
563.10	461.09
563.26	440.02
563.42	447.04
563.59	440.02
563.75	374.49
563.92	486.83
564.08	360.44
564.24	428.32
564.41	463.43
564.57	400.23
564.74	294.91
564.90	463.43
565.07	468.11
565.23	475.13
565.39	482.15
565.56	477.47
565.72	388.53
565.88	444.70
566.05	421.30
566.21	386.19
566.38	374.49
566.54	402.57
566.70	435.34
566.87	461.09
567.03	416.62
567.19	374.49
567.36	386.19
567.52	400.23
567.68	475.13
567.85	524.28
568.01	407.25
568.17	353.42
568.34	404.91
568.50	463.43
568.66	334.70
568.83	484.49
568.99	421.30
569.15	409.59
569.32	451.72
569.48	416.62
569.64	409.59
569.81	346.40
569.97	472.79
570.13	496.19
570.30	430.66
570.46	397.89
570.62	463.43
570.78	475.13
570.95	468.11
571.11	407.25
571.27	444.70
571.43	468.11
571.60	433.00
571.76	435.34
571.92	430.66
572.09	358.10
572.25	388.53
572.41	402.57
572.57	360.44
572.74	489.17
572.90	395.55
573.06	463.43
573.22	418.96
573.38	449.38
573.55	425.98
573.71	475.13
573.87	468.11
574.03	414.27
574.20	414.27
574.36	465.77
574.52	442.36
574.68	418.96
574.84	411.93
575.01	421.30
575.17	381.51
575.33	442.36
575.49	409.59
575.65	418.96
575.82	472.79
575.98	425.98
576.14	430.66
576.30	416.62
576.46	456.40
576.62	440.02
576.79	365.12
576.95	493.85
577.11	393.21
577.27	402.57
577.43	482.15
577.59	468.11
577.75	390.87
577.92	442.36
578.08	383.85
578.24	393.21
578.40	407.25
578.56	393.21
578.72	496.19
578.88	369.80
579.04	337.04
579.21	386.19
579.37	369.80
579.53	381.51
579.69	461.09
579.85	414.27
580.01	461.09
580.17	482.15
580.33	458.74
580.49	454.06
580.65	388.53
580.82	400.23
580.98	423.64
581.14	397.89
581.30	407.25
581.46	435.34
581.62	416.62
581.78	402.57
581.94	463.43
582.10	430.66
582.26	423.64
582.42	351.08
582.58	411.93
582.74	411.93
582.90	454.06
583.06	390.87
583.22	339.38
583.38	376.83
583.54	388.53
583.70	454.06
583.86	433.00
584.02	407.25
584.18	423.64
584.34	390.87
584.50	409.59
584.66	433.00
584.82	369.80
584.98	425.98
585.14	402.57
585.30	454.06
585.46	411.93
585.62	393.21
585.78	381.51
585.94	444.70
586.10	351.08
586.26	416.62
586.42	475.13
586.58	402.57
586.74	440.02
586.90	409.59
587.06	437.68
587.22	430.66
587.38	379.17
587.54	367.46
587.70	454.06
587.86	435.34
588.02	388.53
588.18	414.27
588.34	372.15
588.49	362.78
588.65	423.64
588.81	458.74
588.97	404.91
589.13	388.53
589.29	435.34
589.45	440.02
589.61	461.09
589.77	442.36
589.93	393.21
590.08	379.17
590.24	440.02
590.40	418.96
590.56	395.55
590.72	379.17
590.88	404.91
591.04	379.17
591.20	407.25
591.35	477.47
591.51	425.98
591.67	393.21
591.83	369.80
591.99	433.00
592.15	444.70
592.31	425.98
592.46	341.72
592.62	440.02
592.78	388.53
592.94	411.93
593.10	402.57
593.26	409.59
593.41	484.49
593.57	437.68
593.73	475.13
593.89	437.68
594.05	454.06
594.20	393.21
594.36	482.15
594.52	451.72
594.68	465.77
594.84	437.68
594.99	442.36
595.15	376.83
595.31	400.23
595.47	461.09
595.62	355.76
595.78	433.00
595.94	360.44
596.10	477.47
596.25	430.66
596.41	400.23
596.57	421.30
596.73	369.80
596.88	507.90
597.04	435.34
597.20	456.40
597.36	428.32
597.51	498.53
597.67	386.19
597.83	444.70
597.99	414.27
598.14	421.30
598.30	390.87
598.46	454.06
598.61	433.00
598.77	463.43
598.93	313.63
599.09	425.98
599.24	411.93
599.40	468.11
599.56	435.34
599.71	414.27
599.87	421.30
600.03	440.02
600.18	418.96
600.34	479.81
600.50	383.85
600.65	369.80
600.81	374.49
600.97	428.32
601.12	442.36
601.28	486.83
601.44	409.59
601.59	437.68
601.75	458.74
601.91	461.09
602.06	381.51
602.22	444.70
602.37	367.46
602.53	369.80
602.69	486.83
602.84	428.32
603.00	423.64
603.16	484.49
603.31	482.15
603.47	395.55
603.62	393.21
603.78	400.23
603.94	390.87
604.09	414.27
604.25	437.68
604.40	421.30
604.56	365.12
604.71	381.51
604.87	496.19
605.03	369.80
605.18	456.40
605.34	435.34
605.49	393.21
605.65	360.44
605.80	383.85
605.96	383.85
606.12	393.21
606.27	449.38
606.43	435.34
606.58	479.81
606.74	393.21
606.89	465.77
607.05	470.45
607.20	332.36
607.36	360.44
607.51	395.55
607.67	397.89
607.82	409.59
607.98	491.51
608.13	407.25
608.29	416.62
608.44	461.09
608.60	440.02
608.75	428.32
608.91	360.44
609.06	437.68
609.22	507.90
609.37	416.62
609.53	425.98
609.68	362.78
609.84	402.57
609.99	423.64
610.15	493.85
