SpectraSuite Data File
++++++++++++++++++++++++++++++++++++
Date: Fri Oct 25 12:10:32 EDT 2013
User: price-jones
Dark Spectrum Present: No
Reference Spectrum Present: No
Number of Sampled Component Spectra: 1
Spectrometers: USB2+H05261
Integration Time (usec): 100000 (USB2+H05261)
Spectra Averaged: 1 (USB2+H05261)
Boxcar Smoothing: 0 (USB2+H05261)
Correct for Electrical Dark: No (USB2+H05261)
Strobe/Lamp Enabled: No (USB2+H05261)
Correct for Detector Non-linearity: No (USB2+H05261)
Correct for Stray Light: No (USB2+H05261)
Number of Pixels in Processed Spectrum: 2048
>>>>>Begin Processed Spectral Data<<<<<
365.73	332.36
365.92	332.36
366.12	332.36
366.32	287.89
366.52	170.86
366.72	276.18
366.91	229.37
367.11	231.71
367.31	273.84
367.51	215.33
367.70	205.97
367.90	287.89
368.10	257.46
368.30	301.93
368.49	252.78
368.69	224.69
368.89	269.16
369.09	243.42
369.28	184.90
369.48	297.25
369.68	304.27
369.87	334.70
370.07	262.14
370.27	306.61
370.47	322.99
370.66	313.63
370.86	280.86
371.06	348.74
371.25	337.04
371.45	383.85
371.65	442.36
371.84	374.49
372.04	355.76
372.24	447.04
372.44	344.06
372.63	362.78
372.83	423.64
373.03	365.12
373.22	407.25
373.42	407.25
373.62	367.46
373.81	418.96
374.01	318.31
374.21	379.17
374.40	404.91
374.60	447.04
374.79	362.78
374.99	421.30
375.19	400.23
375.38	346.40
375.58	416.62
375.78	447.04
375.97	496.19
376.17	425.98
376.37	423.64
376.56	428.32
376.76	409.59
376.95	362.78
377.15	395.55
377.35	414.27
377.54	388.53
377.74	421.30
377.93	407.25
378.13	421.30
378.33	409.59
378.52	395.55
378.72	414.27
378.91	498.53
379.11	388.53
379.31	472.79
379.50	341.72
379.70	390.87
379.89	433.00
380.09	421.30
380.28	278.52
380.48	425.98
380.68	365.12
380.87	358.10
381.07	344.06
381.26	437.68
381.46	404.91
381.65	400.23
381.85	456.40
382.04	425.98
382.24	456.40
382.43	397.89
382.63	397.89
382.83	388.53
383.02	433.00
383.22	379.17
383.41	353.42
383.61	381.51
383.80	433.00
384.00	475.13
384.19	369.80
384.39	437.68
384.58	372.15
384.78	393.21
384.97	411.93
385.17	440.02
385.36	379.17
385.56	447.04
385.75	395.55
385.95	374.49
386.14	337.04
386.34	397.89
386.53	407.25
386.72	348.74
386.92	458.74
387.11	437.68
387.31	383.85
387.50	372.15
387.70	379.17
387.89	374.49
388.09	400.23
388.28	409.59
388.48	395.55
388.67	449.38
388.86	379.17
389.06	400.23
389.25	381.51
389.45	498.53
389.64	407.25
389.84	348.74
390.03	461.09
390.22	423.64
390.42	440.02
390.61	395.55
390.81	386.19
391.00	308.95
391.19	430.66
391.39	411.93
391.58	421.30
391.78	414.27
391.97	379.17
392.16	397.89
392.36	334.70
392.55	374.49
392.75	367.46
392.94	416.62
393.13	416.62
393.33	414.27
393.52	458.74
393.71	444.70
393.91	351.08
394.10	379.17
394.29	423.64
394.49	390.87
394.68	421.30
394.88	472.79
395.07	447.04
395.26	409.59
395.46	341.72
395.65	409.59
395.84	386.19
396.04	458.74
396.23	428.32
396.42	376.83
396.62	351.08
396.81	355.76
397.00	442.36
397.19	379.17
397.39	418.96
397.58	444.70
397.77	365.12
397.97	395.55
398.16	402.57
398.35	433.00
398.55	390.87
398.74	435.34
398.93	458.74
399.12	435.34
399.32	397.89
399.51	433.00
399.70	444.70
399.90	430.66
400.09	411.93
400.28	507.90
400.47	444.70
400.67	456.40
400.86	425.98
401.05	416.62
401.24	360.44
401.44	395.55
401.63	440.02
401.82	351.08
402.01	414.27
402.21	369.80
402.40	390.87
402.59	423.64
402.78	433.00
402.97	479.81
403.17	440.02
403.36	423.64
403.55	383.85
403.74	416.62
403.93	379.17
404.13	428.32
404.32	388.53
404.51	404.91
404.70	409.59
404.89	437.68
405.09	447.04
405.28	425.98
405.47	355.76
405.66	388.53
405.85	360.44
406.05	418.96
406.24	400.23
406.43	362.78
406.62	308.95
406.81	418.96
407.00	421.30
407.20	393.21
407.39	379.17
407.58	351.08
407.77	414.27
407.96	482.15
408.15	390.87
408.34	407.25
408.54	390.87
408.73	400.23
408.92	402.57
409.11	456.40
409.30	510.24
409.49	355.76
409.68	411.93
409.87	454.06
410.07	369.80
410.26	430.66
410.45	402.57
410.64	390.87
410.83	372.15
411.02	339.38
411.21	388.53
411.40	355.76
411.59	358.10
411.78	400.23
411.98	409.59
412.17	428.32
412.36	421.30
412.55	358.10
412.74	416.62
412.93	386.19
413.12	414.27
413.31	411.93
413.50	451.72
413.69	402.57
413.88	421.30
414.07	456.40
414.26	346.40
414.45	409.59
414.64	400.23
414.83	458.74
415.02	402.57
415.22	341.72
415.41	374.49
415.60	351.08
415.79	486.83
415.98	388.53
416.17	414.27
416.36	416.62
416.55	367.46
416.74	355.76
416.93	374.49
417.12	409.59
417.31	404.91
417.50	416.62
417.69	402.57
417.88	320.65
418.07	353.42
418.26	465.77
418.45	365.12
418.64	404.91
418.83	341.72
419.02	404.91
419.21	411.93
419.39	484.49
419.58	421.30
419.77	369.80
419.96	376.83
420.15	461.09
420.34	433.00
420.53	475.13
420.72	421.30
420.91	402.57
421.10	468.11
421.29	458.74
421.48	416.62
421.67	451.72
421.86	404.91
422.05	444.70
422.24	411.93
422.43	379.17
422.61	414.27
422.80	491.51
422.99	374.49
423.18	428.32
423.37	388.53
423.56	397.89
423.75	421.30
423.94	433.00
424.13	400.23
424.32	463.43
424.50	428.32
424.69	353.42
424.88	433.00
425.07	472.79
425.26	435.34
425.45	411.93
425.64	369.80
425.83	402.57
426.01	463.43
426.20	433.00
426.39	468.11
426.58	402.57
426.77	437.68
426.96	440.02
427.15	400.23
427.33	374.49
427.52	390.87
427.71	388.53
427.90	386.19
428.09	379.17
428.28	395.55
428.46	454.06
428.65	404.91
428.84	440.02
429.03	463.43
429.22	353.42
429.40	395.55
429.59	421.30
429.78	477.47
429.97	411.93
430.16	402.57
430.34	440.02
430.53	383.85
430.72	454.06
430.91	358.10
431.10	390.87
431.28	416.62
431.47	353.42
431.66	407.25
431.85	414.27
432.03	423.64
432.22	447.04
432.41	409.59
432.60	346.40
432.79	421.30
432.97	418.96
433.16	386.19
433.35	442.36
433.54	409.59
433.72	479.81
433.91	428.32
434.10	400.23
434.28	442.36
434.47	383.85
434.66	430.66
434.85	456.40
435.03	367.46
435.22	470.45
435.41	428.32
435.59	374.49
435.78	437.68
435.97	367.46
436.16	418.96
436.34	344.06
436.53	386.19
436.72	397.89
436.90	456.40
437.09	379.17
437.28	388.53
437.46	430.66
437.65	376.83
437.84	442.36
438.02	397.89
438.21	402.57
438.40	374.49
438.58	358.10
438.77	393.21
438.96	442.36
439.14	407.25
439.33	454.06
439.52	416.62
439.70	437.68
439.89	372.15
440.08	430.66
440.26	425.98
440.45	397.89
440.63	351.08
440.82	390.87
441.01	381.51
441.19	454.06
441.38	351.08
441.57	423.64
441.75	395.55
441.94	437.68
442.12	442.36
442.31	397.89
442.50	390.87
442.68	416.62
442.87	395.55
443.05	409.59
443.24	461.09
443.43	409.59
443.61	425.98
443.80	374.49
443.98	372.15
444.17	435.34
444.35	444.70
444.54	395.55
444.73	444.70
444.91	383.85
445.10	374.49
445.28	411.93
445.47	360.44
445.65	423.64
445.84	442.36
446.02	418.96
446.21	465.77
446.39	430.66
446.58	463.43
446.77	411.93
446.95	435.34
447.14	493.85
447.32	449.38
447.51	454.06
447.69	407.25
447.88	397.89
448.06	383.85
448.25	444.70
448.43	407.25
448.62	458.74
448.80	433.00
448.99	381.51
449.17	376.83
449.36	374.49
449.54	381.51
449.73	418.96
449.91	397.89
450.10	395.55
450.28	496.19
450.46	440.02
450.65	423.64
450.83	475.13
451.02	372.15
451.20	454.06
451.39	407.25
451.57	430.66
451.76	365.12
451.94	421.30
452.13	430.66
452.31	397.89
452.49	451.72
452.68	440.02
452.86	330.02
453.05	475.13
453.23	440.02
453.42	341.72
453.60	472.79
453.78	395.55
453.97	447.04
454.15	428.32
454.34	369.80
454.52	451.72
454.70	477.47
454.89	379.17
455.07	440.02
455.26	454.06
455.44	358.10
455.62	447.04
455.81	440.02
455.99	430.66
456.17	411.93
456.36	416.62
456.54	386.19
456.73	433.00
456.91	414.27
457.09	454.06
457.28	402.57
457.46	428.32
457.64	454.06
457.83	451.72
458.01	465.77
458.19	433.00
458.38	365.12
458.56	397.89
458.74	489.17
458.93	454.06
459.11	395.55
459.29	362.78
459.48	341.72
459.66	479.81
459.84	414.27
460.03	451.72
460.21	477.47
460.39	411.93
460.57	433.00
460.76	470.45
460.94	402.57
461.12	409.59
461.31	407.25
461.49	376.83
461.67	423.64
461.85	362.78
462.04	468.11
462.22	753.65
462.40	418.96
462.59	402.57
462.77	407.25
462.95	411.93
463.13	383.85
463.32	454.06
463.50	376.83
463.68	397.89
463.86	397.89
464.05	395.55
464.23	362.78
464.41	346.40
464.59	372.15
464.78	414.27
464.96	400.23
465.14	390.87
465.32	369.80
465.50	322.99
465.69	388.53
465.87	449.38
466.05	369.80
466.23	379.17
466.41	381.51
466.60	421.30
466.78	386.19
466.96	451.72
467.14	447.04
467.32	414.27
467.51	313.63
467.69	456.40
467.87	425.98
468.05	418.96
468.23	514.92
468.41	430.66
468.60	332.36
468.78	379.17
468.96	425.98
469.14	409.59
469.32	411.93
469.50	322.99
469.69	423.64
469.87	411.93
470.05	425.98
470.23	404.91
470.41	367.46
470.59	449.38
470.77	348.74
470.95	362.78
471.14	409.59
471.32	397.89
471.50	463.43
471.68	428.32
471.86	428.32
472.04	421.30
472.22	404.91
472.40	397.89
472.58	414.27
472.77	407.25
472.95	428.32
473.13	468.11
473.31	369.80
473.49	423.64
473.67	395.55
473.85	470.45
474.03	425.98
474.21	425.98
474.39	500.87
474.57	437.68
474.75	461.09
474.93	416.62
475.12	360.44
475.30	409.59
475.48	374.49
475.66	423.64
475.84	409.59
476.02	421.30
476.20	421.30
476.38	402.57
476.56	468.11
476.74	404.91
476.92	425.98
477.10	383.85
477.28	423.64
477.46	468.11
477.64	468.11
477.82	414.27
478.00	409.59
478.18	367.46
478.36	355.76
478.54	465.77
478.72	442.36
478.90	451.72
479.08	409.59
479.26	393.21
479.44	397.89
479.62	390.87
479.80	418.96
479.98	379.17
480.16	383.85
480.34	404.91
480.52	383.85
480.70	395.55
480.88	344.06
481.06	379.17
481.24	393.21
481.41	351.08
481.59	304.27
481.77	435.34
481.95	402.57
482.13	376.83
482.31	337.04
482.49	351.08
482.67	330.02
482.85	414.27
483.03	447.04
483.21	381.51
483.39	332.36
483.57	395.55
483.74	472.79
483.92	404.91
484.10	334.70
484.28	430.66
484.46	491.51
484.64	411.93
484.82	386.19
485.00	404.91
485.18	383.85
485.35	470.45
485.53	428.32
485.71	482.15
485.89	425.98
486.07	390.87
486.25	381.51
486.43	407.25
486.61	423.64
486.78	435.34
486.96	442.36
487.14	447.04
487.32	482.15
487.50	372.15
487.68	491.51
487.85	379.17
488.03	454.06
488.21	470.45
488.39	400.23
488.57	416.62
488.75	437.68
488.92	514.92
489.10	388.53
489.28	418.96
489.46	369.80
489.64	351.08
489.81	411.93
489.99	425.98
490.17	444.70
490.35	491.51
490.53	374.49
490.70	379.17
490.88	388.53
491.06	418.96
491.24	418.96
491.41	376.83
491.59	447.04
491.77	402.57
491.95	440.02
492.13	421.30
492.30	407.25
492.48	393.21
492.66	367.46
492.84	423.64
493.01	404.91
493.19	374.49
493.37	430.66
493.54	440.02
493.72	470.45
493.90	358.10
494.08	468.11
494.25	463.43
494.43	447.04
494.61	409.59
494.79	393.21
494.96	376.83
495.14	414.27
495.32	411.93
495.49	386.19
495.67	367.46
495.85	348.74
496.02	353.42
496.20	447.04
496.38	463.43
496.55	376.83
496.73	355.76
496.91	332.36
497.09	388.53
497.26	376.83
497.44	418.96
497.62	423.64
497.79	461.09
497.97	404.91
498.14	428.32
498.32	421.30
498.50	416.62
498.67	400.23
498.85	414.27
499.03	451.72
499.20	383.85
499.38	367.46
499.56	449.38
499.73	430.66
499.91	491.51
500.08	421.30
500.26	430.66
500.44	414.27
500.61	418.96
500.79	437.68
500.97	358.10
501.14	376.83
501.32	390.87
501.49	388.53
501.67	423.64
501.84	482.15
502.02	407.25
502.20	402.57
502.37	383.85
502.55	458.74
502.72	367.46
502.90	411.93
503.07	425.98
503.25	440.02
503.43	393.21
503.60	451.72
503.78	430.66
503.95	346.40
504.13	409.59
504.30	475.13
504.48	397.89
504.65	381.51
504.83	468.11
505.01	433.00
505.18	430.66
505.36	381.51
505.53	454.06
505.71	351.08
505.88	414.27
506.06	433.00
506.23	348.74
506.41	433.00
506.58	397.89
506.76	374.49
506.93	395.55
507.11	374.49
507.28	381.51
507.46	304.27
507.63	451.72
507.81	360.44
507.98	433.00
508.16	404.91
508.33	407.25
508.50	451.72
508.68	425.98
508.85	440.02
509.03	362.78
509.20	386.19
509.38	444.70
509.55	383.85
509.73	449.38
509.90	486.83
510.08	400.23
510.25	444.70
510.42	409.59
510.60	407.25
510.77	421.30
510.95	395.55
511.12	360.44
511.30	404.91
511.47	402.57
511.64	461.09
511.82	433.00
511.99	421.30
512.17	442.36
512.34	362.78
512.51	425.98
512.69	386.19
512.86	404.91
513.04	397.89
513.21	397.89
513.38	409.59
513.56	428.32
513.73	372.15
513.90	423.64
514.08	433.00
514.25	358.10
514.43	411.93
514.60	381.51
514.77	479.81
514.95	402.57
515.12	402.57
515.29	411.93
515.47	362.78
515.64	332.36
515.81	407.25
515.99	447.04
516.16	423.64
516.33	383.85
516.51	421.30
516.68	463.43
516.85	458.74
517.03	451.72
517.20	437.68
517.37	423.64
517.54	463.43
517.72	468.11
517.89	400.23
518.06	477.47
518.24	440.02
518.41	404.91
518.58	416.62
518.75	395.55
518.93	379.17
519.10	423.64
519.27	374.49
519.45	444.70
519.62	379.17
519.79	458.74
519.96	372.15
520.14	449.38
520.31	428.32
520.48	414.27
520.65	435.34
520.83	440.02
521.00	423.64
521.17	409.59
521.34	376.83
521.52	444.70
521.69	376.83
521.86	402.57
522.03	465.77
522.20	472.79
522.38	414.27
522.55	430.66
522.72	409.59
522.89	404.91
523.07	451.72
523.24	421.30
523.41	383.85
523.58	472.79
523.75	339.38
523.92	348.74
524.10	444.70
524.27	425.98
524.44	479.81
524.61	428.32
524.78	402.57
524.96	393.21
525.13	430.66
525.30	407.25
525.47	404.91
525.64	409.59
525.81	421.30
525.98	468.11
526.16	444.70
526.33	430.66
526.50	367.46
526.67	365.12
526.84	386.19
527.01	360.44
527.18	430.66
527.36	376.83
527.53	451.72
527.70	465.77
527.87	369.80
528.04	430.66
528.21	423.64
528.38	477.47
528.55	458.74
528.72	472.79
528.89	402.57
529.07	444.70
529.24	339.38
529.41	468.11
529.58	407.25
529.75	423.64
529.92	411.93
530.09	425.98
530.26	496.19
530.43	475.13
530.60	418.96
530.77	390.87
530.94	416.62
531.11	435.34
531.28	458.74
531.46	379.17
531.63	423.64
531.80	404.91
531.97	470.45
532.14	397.89
532.31	470.45
532.48	409.59
532.65	348.74
532.82	411.93
532.99	442.36
533.16	440.02
533.33	365.12
533.50	423.64
533.67	461.09
533.84	402.57
534.01	477.47
534.18	456.40
534.35	381.51
534.52	402.57
534.69	388.53
534.86	416.62
535.03	463.43
535.20	400.23
535.37	505.56
535.54	423.64
535.71	503.22
535.88	423.64
536.05	374.49
536.22	416.62
536.38	421.30
536.55	397.89
536.72	489.17
536.89	472.79
537.06	404.91
537.23	390.87
537.40	465.77
537.57	444.70
537.74	397.89
537.91	475.13
538.08	449.38
538.25	404.91
538.42	402.57
538.59	458.74
538.75	404.91
538.92	435.34
539.09	447.04
539.26	411.93
539.43	442.36
539.60	390.87
539.77	365.12
539.94	404.91
540.11	449.38
540.28	449.38
540.44	440.02
540.61	416.62
540.78	386.19
540.95	456.40
541.12	442.36
541.29	348.74
541.46	383.85
541.62	423.64
541.79	449.38
541.96	416.62
542.13	418.96
542.30	388.53
542.47	435.34
542.63	397.89
542.80	500.87
542.97	503.22
543.14	365.12
543.31	383.85
543.48	393.21
543.64	393.21
543.81	433.00
543.98	395.55
544.15	351.08
544.32	421.30
544.48	402.57
544.65	451.72
544.82	390.87
544.99	444.70
545.16	393.21
545.32	397.89
545.49	456.40
545.66	437.68
545.83	437.68
546.00	402.57
546.16	437.68
546.33	442.36
546.50	344.06
546.67	418.96
546.83	458.74
547.00	402.57
547.17	355.76
547.34	404.91
547.50	376.83
547.67	435.34
547.84	346.40
548.00	390.87
548.17	322.99
548.34	341.72
548.51	393.21
548.67	390.87
548.84	411.93
549.01	463.43
549.18	465.77
549.34	423.64
549.51	440.02
549.68	409.59
549.84	447.04
550.01	423.64
550.18	545.34
550.34	447.04
550.51	468.11
550.68	458.74
550.84	383.85
551.01	456.40
551.18	416.62
551.34	383.85
551.51	369.80
551.68	433.00
551.84	440.02
552.01	372.15
552.18	376.83
552.34	440.02
552.51	365.12
552.68	461.09
552.84	411.93
553.01	411.93
553.18	407.25
553.34	400.23
553.51	414.27
553.67	388.53
553.84	479.81
554.01	444.70
554.17	489.17
554.34	346.40
554.51	369.80
554.67	381.51
554.84	444.70
555.00	411.93
555.17	433.00
555.33	479.81
555.50	470.45
555.67	425.98
555.83	397.89
556.00	404.91
556.16	550.03
556.33	423.64
556.50	484.49
556.66	421.30
556.83	428.32
556.99	383.85
557.16	430.66
557.32	423.64
557.49	423.64
557.65	444.70
557.82	454.06
557.98	430.66
558.15	344.06
558.32	416.62
558.48	418.96
558.65	369.80
558.81	435.34
558.98	372.15
559.14	444.70
559.31	498.53
559.47	395.55
559.64	376.83
559.80	475.13
559.97	386.19
560.13	402.57
560.30	386.19
560.46	437.68
560.63	334.70
560.79	451.72
560.96	440.02
561.12	367.46
561.29	409.59
561.45	400.23
561.61	376.83
561.78	400.23
561.94	351.08
562.11	414.27
562.27	416.62
562.44	355.76
562.60	461.09
562.77	379.17
562.93	416.62
563.10	425.98
563.26	411.93
563.42	395.55
563.59	440.02
563.75	372.15
563.92	430.66
564.08	411.93
564.24	437.68
564.41	402.57
564.57	374.49
564.74	376.83
564.90	362.78
565.07	397.89
565.23	358.10
565.39	456.40
565.56	397.89
565.72	414.27
565.88	482.15
566.05	402.57
566.21	414.27
566.38	414.27
566.54	465.77
566.70	440.02
566.87	379.17
567.03	395.55
567.19	374.49
567.36	442.36
567.52	388.53
567.68	496.19
567.85	402.57
568.01	418.96
568.17	409.59
568.34	332.36
568.50	447.04
568.66	388.53
568.83	461.09
568.99	414.27
569.15	468.11
569.32	440.02
569.48	397.89
569.64	395.55
569.81	407.25
569.97	411.93
570.13	381.51
570.30	444.70
570.46	430.66
570.62	477.47
570.78	425.98
570.95	423.64
571.11	444.70
571.27	437.68
571.43	322.99
571.60	430.66
571.76	381.51
571.92	397.89
572.09	421.30
572.25	381.51
572.41	416.62
572.57	416.62
572.74	395.55
572.90	435.34
573.06	437.68
573.22	421.30
573.38	519.60
573.55	477.47
573.71	411.93
573.87	468.11
574.03	411.93
574.20	475.13
574.36	435.34
574.52	348.74
574.68	463.43
574.84	381.51
575.01	400.23
575.17	372.15
575.33	365.12
575.49	447.04
575.65	411.93
575.82	456.40
575.98	369.80
576.14	461.09
576.30	468.11
576.46	390.87
576.62	402.57
576.79	451.72
576.95	486.83
577.11	348.74
577.27	365.12
577.43	437.68
577.59	503.22
577.75	454.06
577.92	402.57
578.08	440.02
578.24	365.12
578.40	416.62
578.56	430.66
578.72	404.91
578.88	456.40
579.04	395.55
579.21	414.27
579.37	404.91
579.53	425.98
579.69	430.66
579.85	430.66
580.01	404.91
580.17	358.10
580.33	447.04
580.49	461.09
580.65	402.57
580.82	397.89
580.98	390.87
581.14	390.87
581.30	404.91
581.46	372.15
581.62	437.68
581.78	351.08
581.94	479.81
582.10	444.70
582.26	390.87
582.42	428.32
582.58	421.30
582.74	397.89
582.90	470.45
583.06	433.00
583.22	437.68
583.38	393.21
583.54	414.27
583.70	447.04
583.86	414.27
584.02	383.85
584.18	395.55
584.34	433.00
584.50	440.02
584.66	409.59
584.82	365.12
584.98	409.59
585.14	465.77
585.30	404.91
585.46	404.91
585.62	444.70
585.78	484.49
585.94	404.91
586.10	428.32
586.26	330.02
586.42	404.91
586.58	430.66
586.74	395.55
586.90	355.76
587.06	407.25
587.22	456.40
587.38	383.85
587.54	397.89
587.70	430.66
587.86	402.57
588.02	355.76
588.18	386.19
588.34	407.25
588.49	388.53
588.65	409.59
588.81	381.51
588.97	355.76
589.13	407.25
589.29	416.62
589.45	421.30
589.61	447.04
589.77	510.24
589.93	418.96
590.08	472.79
590.24	369.80
590.40	376.83
590.56	409.59
590.72	346.40
590.88	369.80
591.04	447.04
591.20	416.62
591.35	442.36
591.51	369.80
591.67	409.59
591.83	388.53
591.99	411.93
592.15	437.68
592.31	435.34
592.46	404.91
592.62	430.66
592.78	362.78
592.94	423.64
593.10	411.93
593.26	433.00
593.41	433.00
593.57	484.49
593.73	332.36
593.89	433.00
594.05	388.53
594.20	475.13
594.36	461.09
594.52	428.32
594.68	400.23
594.84	372.15
594.99	388.53
595.15	442.36
595.31	475.13
595.47	475.13
595.62	383.85
595.78	388.53
595.94	465.77
596.10	421.30
596.25	407.25
596.41	407.25
596.57	437.68
596.73	507.90
596.88	498.53
597.04	456.40
597.20	470.45
597.36	397.89
597.51	402.57
597.67	400.23
597.83	390.87
597.99	355.76
598.14	472.79
598.30	416.62
598.46	388.53
598.61	369.80
598.77	496.19
598.93	433.00
599.09	374.49
599.24	433.00
599.40	444.70
599.56	397.89
599.71	376.83
599.87	421.30
600.03	386.19
600.18	437.68
600.34	435.34
600.50	421.30
600.65	388.53
600.81	440.02
600.97	423.64
601.12	440.02
601.28	428.32
601.44	421.30
601.59	383.85
601.75	416.62
601.91	369.80
602.06	437.68
602.22	456.40
602.37	421.30
602.53	414.27
602.69	411.93
602.84	444.70
603.00	433.00
603.16	411.93
603.31	489.17
603.47	484.49
603.62	365.12
603.78	388.53
603.94	395.55
604.09	400.23
604.25	423.64
604.40	390.87
604.56	358.10
604.71	402.57
604.87	421.30
605.03	379.17
605.18	381.51
605.34	447.04
605.49	395.55
605.65	421.30
605.80	472.79
605.96	369.80
606.12	397.89
606.27	407.25
606.43	435.34
606.58	388.53
606.74	423.64
606.89	367.46
607.05	423.64
607.20	365.12
607.36	435.34
607.51	404.91
607.67	444.70
607.82	390.87
607.98	524.28
608.13	430.66
608.29	407.25
608.44	507.90
608.60	369.80
608.75	472.79
608.91	458.74
609.06	461.09
609.22	397.89
609.37	416.62
609.53	425.98
609.68	369.80
609.84	360.44
609.99	397.89
610.15	393.21
