SpectraSuite Data File
++++++++++++++++++++++++++++++++++++
Date: Fri Oct 25 12:11:14 EDT 2013
User: price-jones
Dark Spectrum Present: No
Reference Spectrum Present: No
Number of Sampled Component Spectra: 1
Spectrometers: USB2+H05261
Integration Time (usec): 100000 (USB2+H05261)
Spectra Averaged: 1 (USB2+H05261)
Boxcar Smoothing: 0 (USB2+H05261)
Correct for Electrical Dark: No (USB2+H05261)
Strobe/Lamp Enabled: No (USB2+H05261)
Correct for Detector Non-linearity: No (USB2+H05261)
Correct for Stray Light: No (USB2+H05261)
Number of Pixels in Processed Spectrum: 2048
>>>>>Begin Processed Spectral Data<<<<<
365.73	456.40
365.92	456.40
366.12	456.40
366.32	301.93
366.52	187.24
366.72	264.48
366.91	194.26
367.11	252.78
367.31	229.37
367.51	208.31
367.70	278.52
367.90	220.01
368.10	217.67
368.30	170.86
368.49	224.69
368.69	187.24
368.89	257.46
369.09	243.42
369.28	262.14
369.48	255.12
369.68	327.68
369.87	304.27
370.07	306.61
370.27	348.74
370.47	301.93
370.66	255.12
370.86	341.72
371.06	346.40
371.25	397.89
371.45	365.12
371.65	376.83
371.84	421.30
372.04	407.25
372.24	425.98
372.44	388.53
372.63	435.34
372.83	451.72
373.03	381.51
373.22	337.04
373.42	358.10
373.62	430.66
373.81	435.34
374.01	442.36
374.21	404.91
374.40	447.04
374.60	379.17
374.79	428.32
374.99	428.32
375.19	367.46
375.38	444.70
375.58	407.25
375.78	437.68
375.97	440.02
376.17	425.98
376.37	418.96
376.56	381.51
376.76	430.66
376.95	456.40
377.15	444.70
377.35	402.57
377.54	400.23
377.74	404.91
377.93	404.91
378.13	447.04
378.33	442.36
378.52	348.74
378.72	449.38
378.91	433.00
379.11	386.19
379.31	381.51
379.50	393.21
379.70	454.06
379.89	388.53
380.09	386.19
380.28	320.65
380.48	425.98
380.68	376.83
380.87	404.91
381.07	423.64
381.26	463.43
381.46	437.68
381.65	475.13
381.85	376.83
382.04	360.44
382.24	372.15
382.43	393.21
382.63	362.78
382.83	383.85
383.02	414.27
383.22	442.36
383.41	423.64
383.61	395.55
383.80	416.62
384.00	400.23
384.19	383.85
384.39	433.00
384.58	456.40
384.78	379.17
384.97	430.66
385.17	454.06
385.36	395.55
385.56	379.17
385.75	367.46
385.95	397.89
386.14	458.74
386.34	374.49
386.53	390.87
386.72	320.65
386.92	456.40
387.11	437.68
387.31	374.49
387.50	409.59
387.70	425.98
387.89	362.78
388.09	376.83
388.28	449.38
388.48	454.06
388.67	437.68
388.86	465.77
389.06	400.23
389.25	421.30
389.45	407.25
389.64	451.72
389.84	463.43
390.03	379.17
390.22	433.00
390.42	423.64
390.61	440.02
390.81	348.74
391.00	440.02
391.19	411.93
391.39	348.74
391.58	355.76
391.78	355.76
391.97	409.59
392.16	456.40
392.36	435.34
392.55	332.36
392.75	381.51
392.94	454.06
393.13	444.70
393.33	393.21
393.52	379.17
393.71	437.68
393.91	369.80
394.10	369.80
394.29	386.19
394.49	320.65
394.68	428.32
394.88	486.83
395.07	393.21
395.26	360.44
395.46	463.43
395.65	447.04
395.84	465.77
396.04	418.96
396.23	386.19
396.42	381.51
396.62	482.15
396.81	470.45
397.00	390.87
397.19	386.19
397.39	428.32
397.58	437.68
397.77	449.38
397.97	470.45
398.16	461.09
398.35	374.49
398.55	348.74
398.74	400.23
398.93	449.38
399.12	433.00
399.32	444.70
399.51	330.02
399.70	447.04
399.90	433.00
400.09	404.91
400.28	367.46
400.47	353.42
400.67	327.68
400.86	376.83
401.05	400.23
401.24	400.23
401.44	433.00
401.63	383.85
401.82	433.00
402.01	437.68
402.21	437.68
402.40	451.72
402.59	383.85
402.78	388.53
402.97	313.63
403.17	367.46
403.36	360.44
403.55	362.78
403.74	337.04
403.93	346.40
404.13	416.62
404.32	365.12
404.51	353.42
404.70	449.38
404.89	386.19
405.09	423.64
405.28	421.30
405.47	337.04
405.66	344.06
405.85	388.53
406.05	402.57
406.24	400.23
406.43	463.43
406.62	400.23
406.81	444.70
407.00	400.23
407.20	369.80
407.39	374.49
407.58	376.83
407.77	430.66
407.96	437.68
408.15	411.93
408.34	358.10
408.54	367.46
408.73	379.17
408.92	400.23
409.11	435.34
409.30	447.04
409.49	330.02
409.68	402.57
409.87	468.11
410.07	435.34
410.26	428.32
410.45	423.64
410.64	320.65
410.83	376.83
411.02	351.08
411.21	423.64
411.40	348.74
411.59	463.43
411.78	404.91
411.98	372.15
412.17	358.10
412.36	306.61
412.55	433.00
412.74	425.98
412.93	454.06
413.12	397.89
413.31	470.45
413.50	386.19
413.69	470.45
413.88	489.17
414.07	442.36
414.26	362.78
414.45	351.08
414.64	442.36
414.83	404.91
415.02	414.27
415.22	411.93
415.41	409.59
415.60	393.21
415.79	414.27
415.98	444.70
416.17	442.36
416.36	425.98
416.55	381.51
416.74	418.96
416.93	374.49
417.12	397.89
417.31	468.11
417.50	409.59
417.69	362.78
417.88	444.70
418.07	369.80
418.26	416.62
418.45	372.15
418.64	379.17
418.83	440.02
419.02	411.93
419.21	339.38
419.39	425.98
419.58	388.53
419.77	437.68
419.96	421.30
420.15	374.49
420.34	386.19
420.53	365.12
420.72	458.74
420.91	351.08
421.10	397.89
421.29	430.66
421.48	442.36
421.67	407.25
421.86	435.34
422.05	383.85
422.24	386.19
422.43	433.00
422.61	414.27
422.80	470.45
422.99	451.72
423.18	428.32
423.37	440.02
423.56	437.68
423.75	365.12
423.94	421.30
424.13	407.25
424.32	381.51
424.50	381.51
424.69	423.64
424.88	524.28
425.07	416.62
425.26	428.32
425.45	416.62
425.64	470.45
425.83	423.64
426.01	407.25
426.20	351.08
426.39	430.66
426.58	397.89
426.77	360.44
426.96	461.09
427.15	376.83
427.33	381.51
427.52	358.10
427.71	388.53
427.90	482.15
428.09	458.74
428.28	416.62
428.46	423.64
428.65	409.59
428.84	407.25
429.03	489.17
429.22	386.19
429.40	411.93
429.59	372.15
429.78	456.40
429.97	421.30
430.16	463.43
430.34	411.93
430.53	409.59
430.72	379.17
430.91	386.19
431.10	402.57
431.28	367.46
431.47	362.78
431.66	437.68
431.85	355.76
432.03	414.27
432.22	397.89
432.41	315.97
432.60	484.49
432.79	463.43
432.97	463.43
433.16	386.19
433.35	423.64
433.54	388.53
433.72	423.64
433.91	367.46
434.10	381.51
434.28	381.51
434.47	440.02
434.66	454.06
434.85	367.46
435.03	388.53
435.22	447.04
435.41	390.87
435.59	500.87
435.78	491.51
435.97	463.43
436.16	379.17
436.34	416.62
436.53	440.02
436.72	414.27
436.90	447.04
437.09	402.57
437.28	393.21
437.46	409.59
437.65	486.83
437.84	407.25
438.02	400.23
438.21	461.09
438.40	372.15
438.58	386.19
438.77	407.25
438.96	435.34
439.14	395.55
439.33	346.40
439.52	379.17
439.70	421.30
439.89	444.70
440.08	402.57
440.26	379.17
440.45	386.19
440.63	374.49
440.82	449.38
441.01	409.59
441.19	386.19
441.38	411.93
441.57	435.34
441.75	407.25
441.94	456.40
442.12	482.15
442.31	355.76
442.50	428.32
442.68	383.85
442.87	442.36
443.05	456.40
443.24	301.93
443.43	374.49
443.61	414.27
443.80	449.38
443.98	454.06
444.17	423.64
444.35	425.98
444.54	411.93
444.73	409.59
444.91	400.23
445.10	458.74
445.28	400.23
445.47	447.04
445.65	470.45
445.84	374.49
446.02	395.55
446.21	472.79
446.39	407.25
446.58	444.70
446.77	362.78
446.95	388.53
447.14	423.64
447.32	454.06
447.51	315.97
447.69	365.12
447.88	409.59
448.06	486.83
448.25	428.32
448.43	411.93
448.62	346.40
448.80	351.08
448.99	430.66
449.17	421.30
449.36	360.44
449.54	344.06
449.73	449.38
449.91	433.00
450.10	379.17
450.28	461.09
450.46	493.85
450.65	486.83
450.83	400.23
451.02	437.68
451.20	402.57
451.39	346.40
451.57	411.93
451.76	470.45
451.94	383.85
452.13	456.40
452.31	418.96
452.49	437.68
452.68	447.04
452.86	437.68
453.05	472.79
453.23	454.06
453.42	454.06
453.60	330.02
453.78	421.30
453.97	337.04
454.15	407.25
454.34	404.91
454.52	351.08
454.70	451.72
454.89	416.62
455.07	351.08
455.26	440.02
455.44	395.55
455.62	418.96
455.81	430.66
455.99	423.64
456.17	454.06
456.36	416.62
456.54	449.38
456.73	477.47
456.91	416.62
457.09	456.40
457.28	397.89
457.46	383.85
457.64	472.79
457.83	472.79
458.01	491.51
458.19	402.57
458.38	437.68
458.56	414.27
458.74	344.06
458.93	414.27
459.11	395.55
459.29	449.38
459.48	411.93
459.66	414.27
459.84	390.87
460.03	517.26
460.21	379.17
460.39	369.80
460.57	482.15
460.76	374.49
460.94	454.06
461.12	458.74
461.31	468.11
461.49	367.46
461.67	468.11
461.85	465.77
462.04	458.74
462.22	788.76
462.40	461.09
462.59	447.04
462.77	365.12
462.95	416.62
463.13	358.10
463.32	348.74
463.50	407.25
463.68	395.55
463.86	404.91
464.05	479.81
464.23	456.40
464.41	444.70
464.59	353.42
464.78	454.06
464.96	393.21
465.14	376.83
465.32	451.72
465.50	390.87
465.69	505.56
465.87	365.12
466.05	404.91
466.23	367.46
466.41	411.93
466.60	397.89
466.78	442.36
466.96	423.64
467.14	437.68
467.32	461.09
467.51	437.68
467.69	402.57
467.87	461.09
468.05	383.85
468.23	421.30
468.41	447.04
468.60	388.53
468.78	465.77
468.96	416.62
469.14	472.79
469.32	437.68
469.50	362.78
469.69	386.19
469.87	416.62
470.05	416.62
470.23	440.02
470.41	355.76
470.59	404.91
470.77	430.66
470.95	463.43
471.14	479.81
471.32	430.66
471.50	444.70
471.68	402.57
471.86	435.34
472.04	468.11
472.22	400.23
472.40	393.21
472.58	463.43
472.77	409.59
472.95	339.38
473.13	400.23
473.31	442.36
473.49	372.15
473.67	339.38
473.85	383.85
474.03	372.15
474.21	421.30
474.39	454.06
474.57	447.04
474.75	428.32
474.93	409.59
475.12	407.25
475.30	428.32
475.48	437.68
475.66	407.25
475.84	411.93
476.02	444.70
476.20	381.51
476.38	365.12
476.56	458.74
476.74	468.11
476.92	386.19
477.10	454.06
477.28	383.85
477.46	311.29
477.64	496.19
477.82	461.09
478.00	456.40
478.18	451.72
478.36	388.53
478.54	458.74
478.72	400.23
478.90	411.93
479.08	449.38
479.26	369.80
479.44	400.23
479.62	358.10
479.80	421.30
479.98	433.00
480.16	400.23
480.34	444.70
480.52	348.74
480.70	402.57
480.88	320.65
481.06	397.89
481.24	407.25
481.41	425.98
481.59	463.43
481.77	465.77
481.95	386.19
482.13	463.43
482.31	402.57
482.49	381.51
482.67	451.72
482.85	346.40
483.03	346.40
483.21	365.12
483.39	416.62
483.57	468.11
483.74	390.87
483.92	362.78
484.10	355.76
484.28	437.68
484.46	402.57
484.64	409.59
484.82	395.55
485.00	365.12
485.18	390.87
485.35	292.57
485.53	374.49
485.71	479.81
485.89	454.06
486.07	454.06
486.25	409.59
486.43	397.89
486.61	440.02
486.78	386.19
486.96	437.68
487.14	390.87
487.32	402.57
487.50	425.98
487.68	409.59
487.85	322.99
488.03	400.23
488.21	451.72
488.39	428.32
488.57	475.13
488.75	440.02
488.92	535.98
489.10	421.30
489.28	449.38
489.46	369.80
489.64	456.40
489.81	362.78
489.99	414.27
490.17	411.93
490.35	475.13
490.53	463.43
490.70	379.17
490.88	440.02
491.06	369.80
491.24	400.23
491.41	379.17
491.59	442.36
491.77	358.10
491.95	454.06
492.13	353.42
492.30	379.17
492.48	348.74
492.66	416.62
492.84	414.27
493.01	416.62
493.19	484.49
493.37	400.23
493.54	451.72
493.72	425.98
493.90	367.46
494.08	376.83
494.25	386.19
494.43	435.34
494.61	404.91
494.79	374.49
494.96	395.55
495.14	393.21
495.32	386.19
495.49	465.77
495.67	447.04
495.85	409.59
496.02	397.89
496.20	507.90
496.38	414.27
496.55	390.87
496.73	400.23
496.91	470.45
497.09	423.64
497.26	407.25
497.44	381.51
497.62	388.53
497.79	374.49
497.97	510.24
498.14	433.00
498.32	388.53
498.50	428.32
498.67	416.62
498.85	409.59
499.03	475.13
499.20	409.59
499.38	444.70
499.56	395.55
499.73	388.53
499.91	402.57
500.08	397.89
500.26	383.85
500.44	388.53
500.61	423.64
500.79	409.59
500.97	433.00
501.14	428.32
501.32	369.80
501.49	440.02
501.67	416.62
501.84	409.59
502.02	425.98
502.20	421.30
502.37	393.21
502.55	339.38
502.72	383.85
502.90	346.40
503.07	470.45
503.25	421.30
503.43	381.51
503.60	461.09
503.78	430.66
503.95	447.04
504.13	386.19
504.30	365.12
504.48	407.25
504.65	430.66
504.83	404.91
505.01	440.02
505.18	397.89
505.36	374.49
505.53	440.02
505.71	449.38
505.88	472.79
506.06	430.66
506.23	369.80
506.41	379.17
506.58	369.80
506.76	428.32
506.93	341.72
507.11	423.64
507.28	407.25
507.46	421.30
507.63	421.30
507.81	360.44
507.98	400.23
508.16	414.27
508.33	440.02
508.50	414.27
508.68	423.64
508.85	454.06
509.03	484.49
509.20	383.85
509.38	407.25
509.55	421.30
509.73	376.83
509.90	433.00
510.08	362.78
510.25	423.64
510.42	404.91
510.60	461.09
510.77	512.58
510.95	358.10
511.12	402.57
511.30	414.27
511.47	374.49
511.64	442.36
511.82	397.89
511.99	444.70
512.17	409.59
512.34	367.46
512.51	416.62
512.69	437.68
512.86	510.24
513.04	454.06
513.21	416.62
513.38	365.12
513.56	437.68
513.73	458.74
513.90	414.27
514.08	418.96
514.25	407.25
514.43	433.00
514.60	358.10
514.77	393.21
514.95	444.70
515.12	372.15
515.29	416.62
515.47	421.30
515.64	379.17
515.81	397.89
515.99	451.72
516.16	372.15
516.33	468.11
516.51	465.77
516.68	456.40
516.85	360.44
517.03	418.96
517.20	379.17
517.37	463.43
517.54	407.25
517.72	491.51
517.89	388.53
518.06	451.72
518.24	388.53
518.41	524.28
518.58	437.68
518.75	383.85
518.93	423.64
519.10	407.25
519.27	376.83
519.45	437.68
519.62	400.23
519.79	430.66
519.96	461.09
520.14	496.19
520.31	472.79
520.48	449.38
520.65	407.25
520.83	437.68
521.00	477.47
521.17	337.04
521.34	440.02
521.52	418.96
521.69	414.27
521.86	393.21
522.03	381.51
522.20	437.68
522.38	390.87
522.55	433.00
522.72	435.34
522.89	442.36
523.07	404.91
523.24	442.36
523.41	458.74
523.58	433.00
523.75	411.93
523.92	365.12
524.10	421.30
524.27	404.91
524.44	437.68
524.61	390.87
524.78	395.55
524.96	407.25
525.13	386.19
525.30	376.83
525.47	362.78
525.64	337.04
525.81	449.38
525.98	440.02
526.16	425.98
526.33	449.38
526.50	416.62
526.67	400.23
526.84	353.42
527.01	437.68
527.18	409.59
527.36	372.15
527.53	372.15
527.70	451.72
527.87	372.15
528.04	449.38
528.21	404.91
528.38	461.09
528.55	372.15
528.72	430.66
528.89	545.34
529.07	376.83
529.24	390.87
529.41	414.27
529.58	360.44
529.75	444.70
529.92	383.85
530.09	475.13
530.26	503.22
530.43	395.55
530.60	374.49
530.77	444.70
530.94	402.57
531.11	447.04
531.28	440.02
531.46	421.30
531.63	435.34
531.80	472.79
531.97	449.38
532.14	393.21
532.31	517.26
532.48	442.36
532.65	465.77
532.82	451.72
532.99	386.19
533.16	416.62
533.33	367.46
533.50	449.38
533.67	470.45
533.84	379.17
534.01	454.06
534.18	400.23
534.35	393.21
534.52	393.21
534.69	386.19
534.86	386.19
535.03	348.74
535.20	423.64
535.37	461.09
535.54	411.93
535.71	379.17
535.88	552.37
536.05	374.49
536.22	397.89
536.38	475.13
536.55	447.04
536.72	362.78
536.89	411.93
537.06	376.83
537.23	402.57
537.40	449.38
537.57	397.89
537.74	444.70
537.91	440.02
538.08	458.74
538.25	407.25
538.42	376.83
538.59	404.91
538.75	411.93
538.92	475.13
539.09	411.93
539.26	372.15
539.43	404.91
539.60	418.96
539.77	376.83
539.94	430.66
540.11	386.19
540.28	454.06
540.44	395.55
540.61	386.19
540.78	358.10
540.95	437.68
541.12	454.06
541.29	402.57
541.46	484.49
541.62	409.59
541.79	454.06
541.96	402.57
542.13	440.02
542.30	395.55
542.47	440.02
542.63	409.59
542.80	393.21
542.97	418.96
543.14	388.53
543.31	442.36
543.48	409.59
543.64	416.62
543.81	458.74
543.98	388.53
544.15	355.76
544.32	484.49
544.48	458.74
544.65	475.13
544.82	374.49
544.99	379.17
545.16	500.87
545.32	444.70
545.49	395.55
545.66	365.12
545.83	379.17
546.00	430.66
546.16	421.30
546.33	465.77
546.50	407.25
546.67	390.87
546.83	442.36
547.00	376.83
547.17	393.21
547.34	390.87
547.50	388.53
547.67	421.30
547.84	390.87
548.00	414.27
548.17	390.87
548.34	381.51
548.51	416.62
548.67	397.89
548.84	346.40
549.01	381.51
549.18	430.66
549.34	449.38
549.51	383.85
549.68	388.53
549.84	383.85
550.01	458.74
550.18	477.47
550.34	454.06
550.51	423.64
550.68	409.59
550.84	360.44
551.01	444.70
551.18	475.13
551.34	442.36
551.51	428.32
551.68	442.36
551.84	475.13
552.01	388.53
552.18	397.89
552.34	337.04
552.51	421.30
552.68	390.87
552.84	482.15
553.01	435.34
553.18	404.91
553.34	442.36
553.51	414.27
553.67	404.91
553.84	472.79
554.01	447.04
554.17	454.06
554.34	451.72
554.51	395.55
554.67	404.91
554.84	449.38
555.00	463.43
555.17	425.98
555.33	425.98
555.50	360.44
555.67	510.24
555.83	358.10
556.00	433.00
556.16	444.70
556.33	423.64
556.50	365.12
556.66	416.62
556.83	421.30
556.99	454.06
557.16	447.04
557.32	379.17
557.49	444.70
557.65	421.30
557.82	362.78
557.98	423.64
558.15	402.57
558.32	416.62
558.48	376.83
558.65	351.08
558.81	416.62
558.98	369.80
559.14	430.66
559.31	449.38
559.47	402.57
559.64	381.51
559.80	379.17
559.97	304.27
560.13	397.89
560.30	409.59
560.46	430.66
560.63	498.53
560.79	472.79
560.96	433.00
561.12	390.87
561.29	484.49
561.45	388.53
561.61	379.17
561.78	456.40
561.94	351.08
562.11	404.91
562.27	407.25
562.44	353.42
562.60	458.74
562.77	456.40
562.93	468.11
563.10	440.02
563.26	374.49
563.42	409.59
563.59	470.45
563.75	383.85
563.92	472.79
564.08	381.51
564.24	404.91
564.41	404.91
564.57	409.59
564.74	402.57
564.90	409.59
565.07	444.70
565.23	353.42
565.39	372.15
565.56	339.38
565.72	395.55
565.88	449.38
566.05	510.24
566.21	402.57
566.38	442.36
566.54	475.13
566.70	388.53
566.87	407.25
567.03	397.89
567.19	407.25
567.36	395.55
567.52	376.83
567.68	545.34
567.85	416.62
568.01	372.15
568.17	376.83
568.34	418.96
568.50	430.66
568.66	365.12
568.83	512.58
568.99	388.53
569.15	442.36
569.32	475.13
569.48	395.55
569.64	423.64
569.81	386.19
569.97	379.17
570.13	374.49
570.30	376.83
570.46	440.02
570.62	411.93
570.78	428.32
570.95	514.92
571.11	430.66
571.27	512.58
571.43	430.66
571.60	360.44
571.76	414.27
571.92	423.64
572.09	353.42
572.25	482.15
572.41	503.22
572.57	374.49
572.74	482.15
572.90	440.02
573.06	397.89
573.22	433.00
573.38	383.85
573.55	339.38
573.71	348.74
573.87	388.53
574.03	376.83
574.20	400.23
574.36	489.17
574.52	402.57
574.68	388.53
574.84	454.06
575.01	386.19
575.17	451.72
575.33	381.51
575.49	449.38
575.65	444.70
575.82	409.59
575.98	379.17
576.14	337.04
576.30	442.36
576.46	358.10
576.62	433.00
576.79	404.91
576.95	463.43
577.11	393.21
577.27	421.30
577.43	503.22
577.59	440.02
577.75	411.93
577.92	362.78
578.08	465.77
578.24	407.25
578.40	468.11
578.56	449.38
578.72	470.45
578.88	482.15
579.04	395.55
579.21	404.91
579.37	444.70
579.53	409.59
579.69	440.02
579.85	397.89
580.01	334.70
580.17	425.98
580.33	315.97
580.49	482.15
580.65	423.64
580.82	409.59
580.98	386.19
581.14	337.04
581.30	430.66
581.46	362.78
581.62	430.66
581.78	409.59
581.94	451.72
582.10	451.72
582.26	416.62
582.42	414.27
582.58	449.38
582.74	428.32
582.90	395.55
583.06	458.74
583.22	407.25
583.38	369.80
583.54	395.55
583.70	468.11
583.86	411.93
584.02	428.32
584.18	470.45
584.34	440.02
584.50	411.93
584.66	404.91
584.82	362.78
584.98	395.55
585.14	428.32
585.30	489.17
585.46	425.98
585.62	379.17
585.78	390.87
585.94	404.91
586.10	337.04
586.26	447.04
586.42	461.09
586.58	423.64
586.74	433.00
586.90	393.21
587.06	381.51
587.22	447.04
587.38	461.09
587.54	414.27
587.70	475.13
587.86	418.96
588.02	416.62
588.18	437.68
588.34	458.74
588.49	437.68
588.65	393.21
588.81	355.76
588.97	367.46
589.13	404.91
589.29	409.59
589.45	451.72
589.61	463.43
589.77	388.53
589.93	376.83
590.08	454.06
590.24	411.93
590.40	414.27
590.56	379.17
590.72	395.55
590.88	484.49
591.04	475.13
591.20	318.31
591.35	461.09
591.51	435.34
591.67	383.85
591.83	437.68
591.99	423.64
592.15	411.93
592.31	475.13
592.46	393.21
592.62	444.70
592.78	341.72
592.94	386.19
593.10	381.51
593.26	437.68
593.41	397.89
593.57	404.91
593.73	421.30
593.89	411.93
594.05	393.21
594.20	379.17
594.36	425.98
594.52	374.49
594.68	414.27
594.84	402.57
594.99	435.34
595.15	454.06
595.31	414.27
595.47	449.38
595.62	367.46
595.78	351.08
595.94	407.25
596.10	397.89
596.25	449.38
596.41	418.96
596.57	421.30
596.73	444.70
596.88	390.87
597.04	379.17
597.20	491.51
597.36	379.17
597.51	372.15
597.67	402.57
597.83	461.09
597.99	421.30
598.14	451.72
598.30	341.72
598.46	325.33
598.61	421.30
598.77	407.25
598.93	404.91
599.09	498.53
599.24	418.96
599.40	404.91
599.56	425.98
599.71	482.15
599.87	369.80
600.03	381.51
600.18	402.57
600.34	451.72
600.50	372.15
600.65	374.49
600.81	339.38
600.97	407.25
601.12	418.96
601.28	414.27
601.44	444.70
601.59	418.96
601.75	430.66
601.91	404.91
602.06	442.36
602.22	479.81
602.37	463.43
602.53	390.87
602.69	383.85
602.84	297.25
603.00	425.98
603.16	397.89
603.31	376.83
603.47	411.93
603.62	409.59
603.78	395.55
603.94	491.51
604.09	395.55
604.25	346.40
604.40	437.68
604.56	381.51
604.71	404.91
604.87	489.17
605.03	444.70
605.18	351.08
605.34	402.57
605.49	386.19
605.65	402.57
605.80	442.36
605.96	440.02
606.12	393.21
606.27	444.70
606.43	437.68
606.58	362.78
606.74	400.23
606.89	433.00
607.05	435.34
607.20	428.32
607.36	423.64
607.51	428.32
607.67	388.53
607.82	402.57
607.98	397.89
608.13	451.72
608.29	421.30
608.44	470.45
608.60	397.89
608.75	435.34
608.91	418.96
609.06	437.68
609.22	517.26
609.37	390.87
609.53	353.42
609.68	395.55
609.84	402.57
609.99	447.04
610.15	425.98
