SpectraSuite Data File
++++++++++++++++++++++++++++++++++++
Date: Fri Oct 25 12:11:02 EDT 2013
User: price-jones
Dark Spectrum Present: No
Reference Spectrum Present: No
Number of Sampled Component Spectra: 1
Spectrometers: USB2+H05261
Integration Time (usec): 100000 (USB2+H05261)
Spectra Averaged: 1 (USB2+H05261)
Boxcar Smoothing: 0 (USB2+H05261)
Correct for Electrical Dark: No (USB2+H05261)
Strobe/Lamp Enabled: No (USB2+H05261)
Correct for Detector Non-linearity: No (USB2+H05261)
Correct for Stray Light: No (USB2+H05261)
Number of Pixels in Processed Spectrum: 2048
>>>>>Begin Processed Spectral Data<<<<<
365.73	395.55
365.92	395.55
366.12	395.55
366.32	208.31
366.52	231.71
366.72	241.08
366.91	208.31
367.11	236.39
367.31	224.69
367.51	236.39
367.70	182.56
367.90	229.37
368.10	252.78
368.30	215.33
368.49	262.14
368.69	220.01
368.89	234.05
369.09	315.97
369.28	311.29
369.48	262.14
369.68	341.72
369.87	245.76
370.07	339.38
370.27	388.53
370.47	379.17
370.66	386.19
370.86	322.99
371.06	409.59
371.25	325.33
371.45	423.64
371.65	435.34
371.84	374.49
372.04	393.21
372.24	447.04
372.44	411.93
372.63	386.19
372.83	322.99
373.03	362.78
373.22	484.49
373.42	369.80
373.62	465.77
373.81	449.38
374.01	395.55
374.21	414.27
374.40	404.91
374.60	442.36
374.79	400.23
374.99	465.77
375.19	428.32
375.38	409.59
375.58	402.57
375.78	369.80
375.97	404.91
376.17	491.51
376.37	479.81
376.56	449.38
376.76	386.19
376.95	423.64
377.15	440.02
377.35	278.52
377.54	451.72
377.74	337.04
377.93	416.62
378.13	444.70
378.33	465.77
378.52	355.76
378.72	400.23
378.91	376.83
379.11	421.30
379.31	332.36
379.50	346.40
379.70	390.87
379.89	379.17
380.09	372.15
380.28	390.87
380.48	442.36
380.68	421.30
380.87	440.02
381.07	437.68
381.26	390.87
381.46	435.34
381.65	369.80
381.85	402.57
382.04	374.49
382.24	442.36
382.43	355.76
382.63	383.85
382.83	442.36
383.02	425.98
383.22	414.27
383.41	353.42
383.61	423.64
383.80	425.98
384.00	414.27
384.19	411.93
384.39	411.93
384.58	404.91
384.78	355.76
384.97	365.12
385.17	414.27
385.36	374.49
385.56	456.40
385.75	379.17
385.95	421.30
386.14	444.70
386.34	393.21
386.53	393.21
386.72	418.96
386.92	390.87
387.11	414.27
387.31	355.76
387.50	369.80
387.70	400.23
387.89	400.23
388.09	442.36
388.28	390.87
388.48	489.17
388.67	498.53
388.86	421.30
389.06	339.38
389.25	369.80
389.45	454.06
389.64	339.38
389.84	400.23
390.03	365.12
390.22	365.12
390.42	393.21
390.61	409.59
390.81	351.08
391.00	367.46
391.19	397.89
391.39	402.57
391.58	381.51
391.78	416.62
391.97	472.79
392.16	351.08
392.36	423.64
392.55	418.96
392.75	440.02
392.94	372.15
393.13	346.40
393.33	376.83
393.52	416.62
393.71	388.53
393.91	430.66
394.10	437.68
394.29	433.00
394.49	362.78
394.68	451.72
394.88	428.32
395.07	433.00
395.26	339.38
395.46	416.62
395.65	372.15
395.84	337.04
396.04	390.87
396.23	402.57
396.42	381.51
396.62	383.85
396.81	463.43
397.00	400.23
397.19	421.30
397.39	425.98
397.58	397.89
397.77	440.02
397.97	428.32
398.16	358.10
398.35	430.66
398.55	449.38
398.74	369.80
398.93	397.89
399.12	447.04
399.32	400.23
399.51	299.59
399.70	402.57
399.90	397.89
400.09	456.40
400.28	397.89
400.47	397.89
400.67	367.46
400.86	367.46
401.05	442.36
401.24	458.74
401.44	463.43
401.63	449.38
401.82	456.40
402.01	428.32
402.21	437.68
402.40	416.62
402.59	416.62
402.78	433.00
402.97	337.04
403.17	388.53
403.36	411.93
403.55	390.87
403.74	358.10
403.93	418.96
404.13	428.32
404.32	397.89
404.51	374.49
404.70	430.66
404.89	327.68
405.09	430.66
405.28	437.68
405.47	381.51
405.66	388.53
405.85	423.64
406.05	472.79
406.24	477.47
406.43	428.32
406.62	482.15
406.81	351.08
407.00	423.64
407.20	397.89
407.39	395.55
407.58	374.49
407.77	430.66
407.96	402.57
408.15	383.85
408.34	339.38
408.54	402.57
408.73	414.27
408.92	430.66
409.11	393.21
409.30	430.66
409.49	372.15
409.68	512.58
409.87	393.21
410.07	423.64
410.26	435.34
410.45	400.23
410.64	376.83
410.83	374.49
411.02	416.62
411.21	400.23
411.40	414.27
411.59	393.21
411.78	390.87
411.98	435.34
412.17	411.93
412.36	428.32
412.55	437.68
412.74	411.93
412.93	479.81
413.12	409.59
413.31	372.15
413.50	428.32
413.69	379.17
413.88	437.68
414.07	404.91
414.26	409.59
414.45	402.57
414.64	348.74
414.83	416.62
415.02	407.25
415.22	404.91
415.41	407.25
415.60	351.08
415.79	404.91
415.98	383.85
416.17	449.38
416.36	418.96
416.55	362.78
416.74	463.43
416.93	449.38
417.12	400.23
417.31	421.30
417.50	337.04
417.69	404.91
417.88	362.78
418.07	425.98
418.26	503.22
418.45	395.55
418.64	447.04
418.83	379.17
419.02	407.25
419.21	393.21
419.39	365.12
419.58	437.68
419.77	425.98
419.96	402.57
420.15	451.72
420.34	393.21
420.53	400.23
420.72	444.70
420.91	425.98
421.10	486.83
421.29	374.49
421.48	416.62
421.67	393.21
421.86	449.38
422.05	369.80
422.24	449.38
422.43	393.21
422.61	414.27
422.80	334.70
422.99	433.00
423.18	341.72
423.37	503.22
423.56	390.87
423.75	414.27
423.94	433.00
424.13	414.27
424.32	430.66
424.50	500.87
424.69	447.04
424.88	447.04
425.07	353.42
425.26	435.34
425.45	353.42
425.64	374.49
425.83	409.59
426.01	423.64
426.20	386.19
426.39	454.06
426.58	421.30
426.77	440.02
426.96	418.96
427.15	416.62
427.33	411.93
427.52	430.66
427.71	402.57
427.90	472.79
428.09	386.19
428.28	404.91
428.46	416.62
428.65	418.96
428.84	421.30
429.03	414.27
429.22	414.27
429.40	334.70
429.59	374.49
429.78	416.62
429.97	411.93
430.16	379.17
430.34	397.89
430.53	402.57
430.72	383.85
430.91	468.11
431.10	404.91
431.28	400.23
431.47	414.27
431.66	397.89
431.85	433.00
432.03	447.04
432.22	428.32
432.41	376.83
432.60	418.96
432.79	402.57
432.97	461.09
433.16	365.12
433.35	337.04
433.54	388.53
433.72	486.83
433.91	484.49
434.10	337.04
434.28	397.89
434.47	369.80
434.66	451.72
434.85	402.57
435.03	458.74
435.22	393.21
435.41	463.43
435.59	388.53
435.78	369.80
435.97	397.89
436.16	430.66
436.34	388.53
436.53	418.96
436.72	514.92
436.90	369.80
437.09	393.21
437.28	451.72
437.46	404.91
437.65	355.76
437.84	437.68
438.02	512.58
438.21	430.66
438.40	390.87
438.58	409.59
438.77	423.64
438.96	496.19
439.14	362.78
439.33	409.59
439.52	355.76
439.70	416.62
439.89	484.49
440.08	388.53
440.26	409.59
440.45	477.47
440.63	447.04
440.82	442.36
441.01	470.45
441.19	463.43
441.38	292.57
441.57	402.57
441.75	435.34
441.94	444.70
442.12	397.89
442.31	346.40
442.50	440.02
442.68	437.68
442.87	393.21
443.05	358.10
443.24	374.49
443.43	437.68
443.61	435.34
443.80	404.91
443.98	365.12
444.17	388.53
444.35	425.98
444.54	367.46
444.73	430.66
444.91	425.98
445.10	440.02
445.28	367.46
445.47	461.09
445.65	416.62
445.84	411.93
446.02	444.70
446.21	397.89
446.39	416.62
446.58	418.96
446.77	393.21
446.95	430.66
447.14	397.89
447.32	407.25
447.51	395.55
447.69	416.62
447.88	454.06
448.06	491.51
448.25	447.04
448.43	365.12
448.62	418.96
448.80	393.21
448.99	409.59
449.17	379.17
449.36	402.57
449.54	437.68
449.73	383.85
449.91	379.17
450.10	400.23
450.28	461.09
450.46	456.40
450.65	395.55
450.83	395.55
451.02	390.87
451.20	454.06
451.39	454.06
451.57	386.19
451.76	388.53
451.94	362.78
452.13	456.40
452.31	465.77
452.49	397.89
452.68	360.44
452.86	456.40
453.05	449.38
453.23	425.98
453.42	390.87
453.60	379.17
453.78	486.83
453.97	414.27
454.15	376.83
454.34	365.12
454.52	414.27
454.70	388.53
454.89	444.70
455.07	397.89
455.26	430.66
455.44	414.27
455.62	437.68
455.81	423.64
455.99	444.70
456.17	433.00
456.36	444.70
456.54	379.17
456.73	463.43
456.91	407.25
457.09	444.70
457.28	435.34
457.46	418.96
457.64	461.09
457.83	376.83
458.01	458.74
458.19	379.17
458.38	416.62
458.56	433.00
458.74	404.91
458.93	449.38
459.11	447.04
459.29	402.57
459.48	409.59
459.66	489.17
459.84	482.15
460.03	510.24
460.21	442.36
460.39	388.53
460.57	440.02
460.76	393.21
460.94	433.00
461.12	479.81
461.31	538.32
461.49	379.17
461.67	451.72
461.85	517.26
462.04	454.06
462.22	770.04
462.40	395.55
462.59	491.51
462.77	416.62
462.95	442.36
463.13	372.15
463.32	428.32
463.50	402.57
463.68	409.59
463.86	416.62
464.05	362.78
464.23	461.09
464.41	486.83
464.59	348.74
464.78	491.51
464.96	425.98
465.14	472.79
465.32	428.32
465.50	404.91
465.69	461.09
465.87	402.57
466.05	425.98
466.23	411.93
466.41	393.21
466.60	369.80
466.78	472.79
466.96	390.87
467.14	409.59
467.32	416.62
467.51	369.80
467.69	468.11
467.87	451.72
468.05	500.87
468.23	411.93
468.41	447.04
468.60	397.89
468.78	409.59
468.96	428.32
469.14	505.56
469.32	411.93
469.50	386.19
469.69	407.25
469.87	353.42
470.05	491.51
470.23	411.93
470.41	421.30
470.59	409.59
470.77	440.02
470.95	454.06
471.14	433.00
471.32	395.55
471.50	433.00
471.68	330.02
471.86	409.59
472.04	456.40
472.22	437.68
472.40	386.19
472.58	423.64
472.77	444.70
472.95	442.36
473.13	425.98
473.31	414.27
473.49	421.30
473.67	423.64
473.85	440.02
474.03	461.09
474.21	416.62
474.39	369.80
474.57	463.43
474.75	477.47
474.93	444.70
475.12	414.27
475.30	395.55
475.48	442.36
475.66	416.62
475.84	374.49
476.02	393.21
476.20	421.30
476.38	400.23
476.56	451.72
476.74	383.85
476.92	430.66
477.10	341.72
477.28	463.43
477.46	400.23
477.64	503.22
477.82	416.62
478.00	360.44
478.18	404.91
478.36	393.21
478.54	404.91
478.72	454.06
478.90	425.98
479.08	367.46
479.26	430.66
479.44	428.32
479.62	348.74
479.80	407.25
479.98	409.59
480.16	402.57
480.34	538.32
480.52	400.23
480.70	390.87
480.88	404.91
481.06	423.64
481.24	379.17
481.41	390.87
481.59	372.15
481.77	390.87
481.95	402.57
482.13	404.91
482.31	365.12
482.49	351.08
482.67	442.36
482.85	348.74
483.03	348.74
483.21	339.38
483.39	437.68
483.57	409.59
483.74	475.13
483.92	404.91
484.10	367.46
484.28	472.79
484.46	489.17
484.64	409.59
484.82	402.57
485.00	472.79
485.18	407.25
485.35	437.68
485.53	397.89
485.71	414.27
485.89	379.17
486.07	416.62
486.25	421.30
486.43	430.66
486.61	393.21
486.78	442.36
486.96	435.34
487.14	423.64
487.32	409.59
487.50	479.81
487.68	393.21
487.85	458.74
488.03	416.62
488.21	407.25
488.39	433.00
488.57	381.51
488.75	397.89
488.92	550.03
489.10	449.38
489.28	379.17
489.46	421.30
489.64	395.55
489.81	395.55
489.99	395.55
490.17	498.53
490.35	407.25
490.53	395.55
490.70	414.27
490.88	404.91
491.06	388.53
491.24	435.34
491.41	290.23
491.59	400.23
491.77	404.91
491.95	376.83
492.13	365.12
492.30	510.24
492.48	330.02
492.66	418.96
492.84	416.62
493.01	498.53
493.19	360.44
493.37	447.04
493.54	465.77
493.72	451.72
493.90	379.17
494.08	337.04
494.25	418.96
494.43	409.59
494.61	379.17
494.79	414.27
494.96	400.23
495.14	372.15
495.32	416.62
495.49	416.62
495.67	433.00
495.85	486.83
496.02	407.25
496.20	381.51
496.38	425.98
496.55	407.25
496.73	393.21
496.91	454.06
497.09	456.40
497.26	465.77
497.44	421.30
497.62	369.80
497.79	334.70
497.97	367.46
498.14	418.96
498.32	435.34
498.50	404.91
498.67	440.02
498.85	395.55
499.03	425.98
499.20	416.62
499.38	411.93
499.56	411.93
499.73	414.27
499.91	386.19
500.08	449.38
500.26	393.21
500.44	365.12
500.61	421.30
500.79	353.42
500.97	421.30
501.14	468.11
501.32	395.55
501.49	414.27
501.67	435.34
501.84	430.66
502.02	376.83
502.20	383.85
502.37	416.62
502.55	423.64
502.72	374.49
502.90	374.49
503.07	430.66
503.25	402.57
503.43	463.43
503.60	451.72
503.78	400.23
503.95	402.57
504.13	376.83
504.30	358.10
504.48	428.32
504.65	402.57
504.83	416.62
505.01	440.02
505.18	414.27
505.36	416.62
505.53	407.25
505.71	425.98
505.88	447.04
506.06	423.64
506.23	379.17
506.41	430.66
506.58	468.11
506.76	465.77
506.93	395.55
507.11	397.89
507.28	430.66
507.46	423.64
507.63	388.53
507.81	402.57
507.98	409.59
508.16	372.15
508.33	454.06
508.50	407.25
508.68	374.49
508.85	414.27
509.03	482.15
509.20	367.46
509.38	444.70
509.55	428.32
509.73	402.57
509.90	456.40
510.08	407.25
510.25	351.08
510.42	374.49
510.60	425.98
510.77	423.64
510.95	423.64
511.12	423.64
511.30	395.55
511.47	428.32
511.64	404.91
511.82	430.66
511.99	404.91
512.17	367.46
512.34	395.55
512.51	369.80
512.69	372.15
512.86	416.62
513.04	414.27
513.21	433.00
513.38	433.00
513.56	433.00
513.73	468.11
513.90	433.00
514.08	397.89
514.25	409.59
514.43	425.98
514.60	454.06
514.77	374.49
514.95	414.27
515.12	416.62
515.29	409.59
515.47	395.55
515.64	390.87
515.81	430.66
515.99	491.51
516.16	379.17
516.33	400.23
516.51	344.06
516.68	465.77
516.85	409.59
517.03	369.80
517.20	454.06
517.37	433.00
517.54	395.55
517.72	454.06
517.89	458.74
518.06	418.96
518.24	458.74
518.41	369.80
518.58	414.27
518.75	442.36
518.93	447.04
519.10	428.32
519.27	430.66
519.45	444.70
519.62	435.34
519.79	430.66
519.96	390.87
520.14	433.00
520.31	489.17
520.48	393.21
520.65	423.64
520.83	411.93
521.00	362.78
521.17	458.74
521.34	395.55
521.52	393.21
521.69	496.19
521.86	395.55
522.03	414.27
522.20	447.04
522.38	433.00
522.55	390.87
522.72	379.17
522.89	395.55
523.07	409.59
523.24	365.12
523.41	437.68
523.58	423.64
523.75	404.91
523.92	379.17
524.10	430.66
524.27	416.62
524.44	365.12
524.61	465.77
524.78	440.02
524.96	430.66
525.13	379.17
525.30	418.96
525.47	484.49
525.64	409.59
525.81	395.55
525.98	447.04
526.16	472.79
526.33	442.36
526.50	393.21
526.67	327.68
526.84	423.64
527.01	383.85
527.18	433.00
527.36	423.64
527.53	447.04
527.70	414.27
527.87	404.91
528.04	484.49
528.21	416.62
528.38	442.36
528.55	376.83
528.72	433.00
528.89	437.68
529.07	407.25
529.24	435.34
529.41	360.44
529.58	376.83
529.75	428.32
529.92	428.32
530.09	472.79
530.26	437.68
530.43	461.09
530.60	435.34
530.77	440.02
530.94	472.79
531.11	498.53
531.28	362.78
531.46	381.51
531.63	423.64
531.80	383.85
531.97	414.27
532.14	451.72
532.31	344.06
532.48	421.30
532.65	486.83
532.82	414.27
532.99	454.06
533.16	465.77
533.33	397.89
533.50	451.72
533.67	397.89
533.84	437.68
534.01	444.70
534.18	484.49
534.35	402.57
534.52	411.93
534.69	449.38
534.86	416.62
535.03	379.17
535.20	421.30
535.37	444.70
535.54	416.62
535.71	362.78
535.88	440.02
536.05	428.32
536.22	425.98
536.38	332.36
536.55	430.66
536.72	433.00
536.89	376.83
537.06	402.57
537.23	346.40
537.40	381.51
537.57	449.38
537.74	479.81
537.91	435.34
538.08	362.78
538.25	374.49
538.42	404.91
538.59	423.64
538.75	416.62
538.92	388.53
539.09	449.38
539.26	449.38
539.43	414.27
539.60	423.64
539.77	397.89
539.94	463.43
540.11	393.21
540.28	400.23
540.44	414.27
540.61	404.91
540.78	447.04
540.95	411.93
541.12	442.36
541.29	423.64
541.46	402.57
541.62	337.04
541.79	388.53
541.96	402.57
542.13	388.53
542.30	400.23
542.47	418.96
542.63	461.09
542.80	402.57
542.97	454.06
543.14	299.59
543.31	386.19
543.48	346.40
543.64	496.19
543.81	475.13
543.98	440.02
544.15	404.91
544.32	435.34
544.48	400.23
544.65	393.21
544.82	400.23
544.99	444.70
545.16	418.96
545.32	395.55
545.49	503.22
545.66	397.89
545.83	440.02
546.00	447.04
546.16	409.59
546.33	402.57
546.50	369.80
546.67	456.40
546.83	372.15
547.00	411.93
547.17	430.66
547.34	456.40
547.50	493.85
547.67	430.66
547.84	388.53
548.00	437.68
548.17	449.38
548.34	425.98
548.51	491.51
548.67	425.98
548.84	390.87
549.01	470.45
549.18	416.62
549.34	390.87
549.51	472.79
549.68	475.13
549.84	411.93
550.01	451.72
550.18	484.49
550.34	468.11
550.51	505.56
550.68	456.40
550.84	414.27
551.01	346.40
551.18	411.93
551.34	383.85
551.51	444.70
551.68	397.89
551.84	425.98
552.01	414.27
552.18	500.87
552.34	440.02
552.51	428.32
552.68	402.57
552.84	484.49
553.01	388.53
553.18	416.62
553.34	414.27
553.51	388.53
553.67	348.74
553.84	468.11
554.01	430.66
554.17	449.38
554.34	367.46
554.51	430.66
554.67	414.27
554.84	348.74
555.00	409.59
555.17	402.57
555.33	395.55
555.50	442.36
555.67	414.27
555.83	449.38
556.00	411.93
556.16	468.11
556.33	468.11
556.50	430.66
556.66	383.85
556.83	449.38
556.99	376.83
557.16	433.00
557.32	358.10
557.49	374.49
557.65	400.23
557.82	423.64
557.98	479.81
558.15	482.15
558.32	393.21
558.48	402.57
558.65	418.96
558.81	400.23
558.98	435.34
559.14	484.49
559.31	418.96
559.47	433.00
559.64	425.98
559.80	442.36
559.97	372.15
560.13	348.74
560.30	409.59
560.46	414.27
560.63	416.62
560.79	416.62
560.96	449.38
561.12	383.85
561.29	461.09
561.45	461.09
561.61	421.30
561.78	521.94
561.94	491.51
562.11	411.93
562.27	430.66
562.44	376.83
562.60	358.10
562.77	341.72
562.93	416.62
563.10	362.78
563.26	341.72
563.42	437.68
563.59	351.08
563.75	383.85
563.92	493.85
564.08	411.93
564.24	416.62
564.41	430.66
564.57	379.17
564.74	395.55
564.90	475.13
565.07	458.74
565.23	475.13
565.39	465.77
565.56	442.36
565.72	416.62
565.88	379.17
566.05	430.66
566.21	468.11
566.38	440.02
566.54	449.38
566.70	404.91
566.87	348.74
567.03	407.25
567.19	351.08
567.36	374.49
567.52	411.93
567.68	418.96
567.85	465.77
568.01	390.87
568.17	407.25
568.34	461.09
568.50	484.49
568.66	372.15
568.83	440.02
568.99	404.91
569.15	379.17
569.32	390.87
569.48	353.42
569.64	437.68
569.81	461.09
569.97	325.33
570.13	489.17
570.30	463.43
570.46	437.68
570.62	442.36
570.78	337.04
570.95	407.25
571.11	477.47
571.27	491.51
571.43	388.53
571.60	416.62
571.76	447.04
571.92	451.72
572.09	482.15
572.25	390.87
572.41	454.06
572.57	351.08
572.74	447.04
572.90	430.66
573.06	430.66
573.22	395.55
573.38	440.02
573.55	463.43
573.71	482.15
573.87	418.96
574.03	423.64
574.20	383.85
574.36	395.55
574.52	433.00
574.68	369.80
574.84	360.44
575.01	395.55
575.17	458.74
575.33	407.25
575.49	433.00
575.65	376.83
575.82	440.02
575.98	430.66
576.14	414.27
576.30	369.80
576.46	458.74
576.62	468.11
576.79	428.32
576.95	393.21
577.11	454.06
577.27	411.93
577.43	409.59
577.59	423.64
577.75	421.30
577.92	433.00
578.08	454.06
578.24	423.64
578.40	400.23
578.56	435.34
578.72	458.74
578.88	358.10
579.04	454.06
579.21	442.36
579.37	369.80
579.53	388.53
579.69	449.38
579.85	425.98
580.01	423.64
580.17	355.76
580.33	425.98
580.49	397.89
580.65	491.51
580.82	402.57
580.98	397.89
581.14	393.21
581.30	360.44
581.46	362.78
581.62	449.38
581.78	386.19
581.94	402.57
582.10	449.38
582.26	411.93
582.42	334.70
582.58	397.89
582.74	433.00
582.90	503.22
583.06	395.55
583.22	454.06
583.38	393.21
583.54	402.57
583.70	433.00
583.86	472.79
584.02	388.53
584.18	428.32
584.34	409.59
584.50	411.93
584.66	365.12
584.82	395.55
584.98	423.64
585.14	367.46
585.30	475.13
585.46	367.46
585.62	411.93
585.78	388.53
585.94	369.80
586.10	348.74
586.26	416.62
586.42	416.62
586.58	444.70
586.74	416.62
586.90	428.32
587.06	505.56
587.22	451.72
587.38	386.19
587.54	390.87
587.70	470.45
587.86	428.32
588.02	376.83
588.18	400.23
588.34	388.53
588.49	404.91
588.65	421.30
588.81	358.10
588.97	362.78
589.13	383.85
589.29	428.32
589.45	463.43
589.61	449.38
589.77	402.57
589.93	418.96
590.08	409.59
590.24	505.56
590.40	395.55
590.56	458.74
590.72	395.55
590.88	423.64
591.04	454.06
591.20	430.66
591.35	430.66
591.51	416.62
591.67	339.38
591.83	437.68
591.99	437.68
592.15	386.19
592.31	404.91
592.46	428.32
592.62	461.09
592.78	465.77
592.94	404.91
593.10	404.91
593.26	383.85
593.41	486.83
593.57	407.25
593.73	404.91
593.89	477.47
594.05	423.64
594.20	400.23
594.36	489.17
594.52	449.38
594.68	409.59
594.84	376.83
594.99	409.59
595.15	379.17
595.31	456.40
595.47	404.91
595.62	376.83
595.78	395.55
595.94	400.23
596.10	442.36
596.25	381.51
596.41	418.96
596.57	454.06
596.73	447.04
596.88	423.64
597.04	458.74
597.20	402.57
597.36	423.64
597.51	306.61
597.67	428.32
597.83	433.00
597.99	374.49
598.14	374.49
598.30	472.79
598.46	440.02
598.61	334.70
598.77	447.04
598.93	383.85
599.09	402.57
599.24	407.25
599.40	458.74
599.56	402.57
599.71	365.12
599.87	407.25
600.03	404.91
600.18	374.49
600.34	400.23
600.50	381.51
600.65	433.00
600.81	421.30
600.97	423.64
601.12	400.23
601.28	435.34
601.44	409.59
601.59	414.27
601.75	407.25
601.91	369.80
602.06	418.96
602.22	416.62
602.37	390.87
602.53	447.04
602.69	414.27
602.84	367.46
603.00	397.89
603.16	433.00
603.31	341.72
603.47	383.85
603.62	423.64
603.78	341.72
603.94	461.09
604.09	418.96
604.25	440.02
604.40	393.21
604.56	416.62
604.71	351.08
604.87	437.68
605.03	421.30
605.18	360.44
605.34	425.98
605.49	458.74
605.65	447.04
605.80	418.96
605.96	404.91
606.12	411.93
606.27	454.06
606.43	418.96
606.58	409.59
606.74	437.68
606.89	393.21
607.05	437.68
607.20	400.23
607.36	409.59
607.51	358.10
607.67	390.87
607.82	376.83
607.98	386.19
608.13	409.59
608.29	400.23
608.44	461.09
608.60	400.23
608.75	447.04
608.91	402.57
609.06	442.36
609.22	465.77
609.37	463.43
609.53	442.36
609.68	379.17
609.84	320.65
609.99	367.46
610.15	423.64
