SpectraSuite Data File
++++++++++++++++++++++++++++++++++++
Date: Fri Oct 25 12:10:13 EDT 2013
User: price-jones
Dark Spectrum Present: No
Reference Spectrum Present: No
Number of Sampled Component Spectra: 1
Spectrometers: USB2+H05261
Integration Time (usec): 100000 (USB2+H05261)
Spectra Averaged: 1 (USB2+H05261)
Boxcar Smoothing: 0 (USB2+H05261)
Correct for Electrical Dark: No (USB2+H05261)
Strobe/Lamp Enabled: No (USB2+H05261)
Correct for Detector Non-linearity: No (USB2+H05261)
Correct for Stray Light: No (USB2+H05261)
Number of Pixels in Processed Spectrum: 2048
>>>>>Begin Processed Spectral Data<<<<<
365.73	308.95
365.92	308.95
366.12	308.95
366.32	262.14
366.52	273.84
366.72	304.27
366.91	227.03
367.11	187.24
367.31	283.20
367.51	208.31
367.70	262.14
367.90	173.20
368.10	203.63
368.30	220.01
368.49	224.69
368.69	259.80
368.89	337.04
369.09	315.97
369.28	180.22
369.48	248.10
369.68	297.25
369.87	283.20
370.07	285.55
370.27	320.65
370.47	362.78
370.66	280.86
370.86	397.89
371.06	355.76
371.25	355.76
371.45	311.29
371.65	428.32
371.84	374.49
372.04	353.42
372.24	388.53
372.44	374.49
372.63	355.76
372.83	416.62
373.03	435.34
373.22	388.53
373.42	388.53
373.62	322.99
373.81	397.89
374.01	524.28
374.21	442.36
374.40	393.21
374.60	433.00
374.79	449.38
374.99	449.38
375.19	449.38
375.38	486.83
375.58	360.44
375.78	433.00
375.97	393.21
376.17	482.15
376.37	374.49
376.56	400.23
376.76	393.21
376.95	404.91
377.15	414.27
377.35	388.53
377.54	376.83
377.74	421.30
377.93	400.23
378.13	486.83
378.33	463.43
378.52	386.19
378.72	423.64
378.91	440.02
379.11	444.70
379.31	390.87
379.50	390.87
379.70	407.25
379.89	421.30
380.09	376.83
380.28	404.91
380.48	447.04
380.68	407.25
380.87	365.12
381.07	397.89
381.26	442.36
381.46	390.87
381.65	430.66
381.85	330.02
382.04	465.77
382.24	402.57
382.43	397.89
382.63	397.89
382.83	454.06
383.02	430.66
383.22	442.36
383.41	442.36
383.61	423.64
383.80	407.25
384.00	397.89
384.19	428.32
384.39	318.31
384.58	341.72
384.78	407.25
384.97	365.12
385.17	337.04
385.36	383.85
385.56	407.25
385.75	381.51
385.95	449.38
386.14	404.91
386.34	376.83
386.53	416.62
386.72	381.51
386.92	484.49
387.11	416.62
387.31	346.40
387.50	379.17
387.70	395.55
387.89	423.64
388.09	416.62
388.28	381.51
388.48	388.53
388.67	395.55
388.86	442.36
389.06	409.59
389.25	444.70
389.45	383.85
389.64	425.98
389.84	374.49
390.03	386.19
390.22	369.80
390.42	400.23
390.61	358.10
390.81	458.74
391.00	409.59
391.19	433.00
391.39	468.11
391.58	425.98
391.78	358.10
391.97	444.70
392.16	397.89
392.36	334.70
392.55	430.66
392.75	313.63
392.94	402.57
393.13	458.74
393.33	383.85
393.52	383.85
393.71	390.87
393.91	454.06
394.10	416.62
394.29	425.98
394.49	421.30
394.68	442.36
394.88	423.64
395.07	381.51
395.26	430.66
395.46	355.76
395.65	416.62
395.84	423.64
396.04	425.98
396.23	411.93
396.42	425.98
396.62	308.95
396.81	416.62
397.00	397.89
397.19	421.30
397.39	407.25
397.58	388.53
397.77	390.87
397.97	454.06
398.16	376.83
398.35	374.49
398.55	402.57
398.74	355.76
398.93	491.51
399.12	402.57
399.32	421.30
399.51	430.66
399.70	376.83
399.90	442.36
400.09	397.89
400.28	456.40
400.47	365.12
400.67	449.38
400.86	379.17
401.05	435.34
401.24	374.49
401.44	397.89
401.63	477.47
401.82	491.51
402.01	407.25
402.21	407.25
402.40	458.74
402.59	367.46
402.78	442.36
402.97	360.44
403.17	447.04
403.36	397.89
403.55	430.66
403.74	374.49
403.93	388.53
404.13	369.80
404.32	362.78
404.51	407.25
404.70	409.59
404.89	337.04
405.09	444.70
405.28	411.93
405.47	440.02
405.66	414.27
405.85	383.85
406.05	376.83
406.24	315.97
406.43	367.46
406.62	379.17
406.81	470.45
407.00	409.59
407.20	397.89
407.39	458.74
407.58	362.78
407.77	407.25
407.96	428.32
408.15	425.98
408.34	428.32
408.54	299.59
408.73	386.19
408.92	425.98
409.11	388.53
409.30	491.51
409.49	365.12
409.68	407.25
409.87	449.38
410.07	383.85
410.26	381.51
410.45	409.59
410.64	353.42
410.83	374.49
411.02	496.19
411.21	367.46
411.40	482.15
411.59	428.32
411.78	346.40
411.98	458.74
412.17	395.55
412.36	449.38
412.55	348.74
412.74	428.32
412.93	463.43
413.12	381.51
413.31	372.15
413.50	372.15
413.69	362.78
413.88	402.57
414.07	425.98
414.26	440.02
414.45	423.64
414.64	397.89
414.83	395.55
415.02	369.80
415.22	397.89
415.41	351.08
415.60	414.27
415.79	376.83
415.98	360.44
416.17	402.57
416.36	358.10
416.55	409.59
416.74	423.64
416.93	381.51
417.12	383.85
417.31	454.06
417.50	414.27
417.69	381.51
417.88	456.40
418.07	327.68
418.26	367.46
418.45	430.66
418.64	484.49
418.83	447.04
419.02	353.42
419.21	456.40
419.39	315.97
419.58	428.32
419.77	411.93
419.96	442.36
420.15	400.23
420.34	425.98
420.53	454.06
420.72	327.68
420.91	337.04
421.10	327.68
421.29	374.49
421.48	440.02
421.67	486.83
421.86	374.49
422.05	386.19
422.24	428.32
422.43	470.45
422.61	444.70
422.80	388.53
422.99	404.91
423.18	404.91
423.37	465.77
423.56	330.02
423.75	365.12
423.94	437.68
424.13	430.66
424.32	400.23
424.50	430.66
424.69	397.89
424.88	468.11
425.07	374.49
425.26	440.02
425.45	318.31
425.64	383.85
425.83	381.51
426.01	400.23
426.20	404.91
426.39	320.65
426.58	414.27
426.77	421.30
426.96	442.36
427.15	433.00
427.33	414.27
427.52	376.83
427.71	374.49
427.90	451.72
428.09	435.34
428.28	393.21
428.46	440.02
428.65	369.80
428.84	327.68
429.03	456.40
429.22	409.59
429.40	386.19
429.59	381.51
429.78	433.00
429.97	390.87
430.16	423.64
430.34	418.96
430.53	388.53
430.72	425.98
430.91	440.02
431.10	423.64
431.28	388.53
431.47	425.98
431.66	409.59
431.85	400.23
432.03	421.30
432.22	468.11
432.41	456.40
432.60	437.68
432.79	437.68
432.97	442.36
433.16	388.53
433.35	383.85
433.54	362.78
433.72	400.23
433.91	433.00
434.10	440.02
434.28	437.68
434.47	355.76
434.66	372.15
434.85	461.09
435.03	388.53
435.22	397.89
435.41	374.49
435.59	538.32
435.78	411.93
435.97	423.64
436.16	397.89
436.34	454.06
436.53	442.36
436.72	456.40
436.90	528.96
437.09	433.00
437.28	430.66
437.46	418.96
437.65	411.93
437.84	367.46
438.02	341.72
438.21	444.70
438.40	477.47
438.58	418.96
438.77	468.11
438.96	376.83
439.14	447.04
439.33	475.13
439.52	447.04
439.70	404.91
439.89	461.09
440.08	449.38
440.26	421.30
440.45	461.09
440.63	454.06
440.82	482.15
441.01	374.49
441.19	390.87
441.38	447.04
441.57	355.76
441.75	372.15
441.94	397.89
442.12	465.77
442.31	381.51
442.50	414.27
442.68	456.40
442.87	489.17
443.05	383.85
443.24	449.38
443.43	421.30
443.61	484.49
443.80	409.59
443.98	402.57
444.17	386.19
444.35	362.78
444.54	428.32
444.73	444.70
444.91	393.21
445.10	456.40
445.28	440.02
445.47	444.70
445.65	376.83
445.84	388.53
446.02	414.27
446.21	397.89
446.39	306.61
446.58	430.66
446.77	400.23
446.95	435.34
447.14	404.91
447.32	477.47
447.51	437.68
447.69	425.98
447.88	383.85
448.06	414.27
448.25	437.68
448.43	381.51
448.62	402.57
448.80	461.09
448.99	402.57
449.17	407.25
449.36	433.00
449.54	351.08
449.73	428.32
449.91	428.32
450.10	423.64
450.28	440.02
450.46	430.66
450.65	365.12
450.83	454.06
451.02	395.55
451.20	365.12
451.39	428.32
451.57	428.32
451.76	386.19
451.94	416.62
452.13	496.19
452.31	475.13
452.49	479.81
452.68	388.53
452.86	447.04
453.05	407.25
453.23	442.36
453.42	433.00
453.60	421.30
453.78	397.89
453.97	444.70
454.15	407.25
454.34	351.08
454.52	341.72
454.70	437.68
454.89	425.98
455.07	388.53
455.26	409.59
455.44	477.47
455.62	369.80
455.81	404.91
455.99	435.34
456.17	433.00
456.36	454.06
456.54	379.17
456.73	379.17
456.91	440.02
457.09	425.98
457.28	400.23
457.46	395.55
457.64	407.25
457.83	348.74
458.01	435.34
458.19	404.91
458.38	393.21
458.56	414.27
458.74	397.89
458.93	360.44
459.11	456.40
459.29	381.51
459.48	458.74
459.66	372.15
459.84	493.85
460.03	491.51
460.21	430.66
460.39	449.38
460.57	416.62
460.76	454.06
460.94	440.02
461.12	470.45
461.31	477.47
461.49	482.15
461.67	355.76
461.85	423.64
462.04	407.25
462.22	727.91
462.40	393.21
462.59	458.74
462.77	430.66
462.95	472.79
463.13	362.78
463.32	383.85
463.50	376.83
463.68	425.98
463.86	372.15
464.05	428.32
464.23	465.77
464.41	367.46
464.59	402.57
464.78	351.08
464.96	407.25
465.14	402.57
465.32	437.68
465.50	463.43
465.69	425.98
465.87	461.09
466.05	414.27
466.23	334.70
466.41	409.59
466.60	458.74
466.78	397.89
466.96	449.38
467.14	454.06
467.32	395.55
467.51	451.72
467.69	468.11
467.87	428.32
468.05	381.51
468.23	447.04
468.41	444.70
468.60	451.72
468.78	395.55
468.96	465.77
469.14	454.06
469.32	409.59
469.50	444.70
469.69	404.91
469.87	423.64
470.05	409.59
470.23	407.25
470.41	393.21
470.59	442.36
470.77	376.83
470.95	423.64
471.14	444.70
471.32	430.66
471.50	451.72
471.68	381.51
471.86	468.11
472.04	397.89
472.22	442.36
472.40	388.53
472.58	395.55
472.77	472.79
472.95	437.68
473.13	461.09
473.31	475.13
473.49	374.49
473.67	369.80
473.85	461.09
474.03	447.04
474.21	353.42
474.39	498.53
474.57	407.25
474.75	470.45
474.93	409.59
475.12	362.78
475.30	374.49
475.48	411.93
475.66	388.53
475.84	433.00
476.02	454.06
476.20	428.32
476.38	435.34
476.56	503.22
476.74	376.83
476.92	440.02
477.10	393.21
477.28	479.81
477.46	425.98
477.64	393.21
477.82	374.49
478.00	400.23
478.18	381.51
478.36	430.66
478.54	409.59
478.72	367.46
478.90	367.46
479.08	388.53
479.26	400.23
479.44	418.96
479.62	407.25
479.80	449.38
479.98	489.17
480.16	402.57
480.34	477.47
480.52	418.96
480.70	383.85
480.88	447.04
481.06	400.23
481.24	454.06
481.41	390.87
481.59	395.55
481.77	472.79
481.95	421.30
482.13	421.30
482.31	491.51
482.49	451.72
482.67	463.43
482.85	463.43
483.03	430.66
483.21	407.25
483.39	486.83
483.57	369.80
483.74	393.21
483.92	386.19
484.10	365.12
484.28	376.83
484.46	449.38
484.64	458.74
484.82	411.93
485.00	376.83
485.18	440.02
485.35	404.91
485.53	423.64
485.71	414.27
485.89	383.85
486.07	449.38
486.25	430.66
486.43	421.30
486.61	433.00
486.78	407.25
486.96	421.30
487.14	372.15
487.32	379.17
487.50	369.80
487.68	449.38
487.85	461.09
488.03	390.87
488.21	411.93
488.39	365.12
488.57	390.87
488.75	365.12
488.92	435.34
489.10	355.76
489.28	379.17
489.46	409.59
489.64	482.15
489.81	379.17
489.99	400.23
490.17	421.30
490.35	470.45
490.53	376.83
490.70	430.66
490.88	430.66
491.06	482.15
491.24	468.11
491.41	440.02
491.59	486.83
491.77	442.36
491.95	456.40
492.13	381.51
492.30	449.38
492.48	421.30
492.66	435.34
492.84	440.02
493.01	463.43
493.19	421.30
493.37	454.06
493.54	423.64
493.72	407.25
493.90	404.91
494.08	414.27
494.25	418.96
494.43	372.15
494.61	437.68
494.79	458.74
494.96	447.04
495.14	454.06
495.32	442.36
495.49	369.80
495.67	381.51
495.85	411.93
496.02	369.80
496.20	447.04
496.38	397.89
496.55	442.36
496.73	423.64
496.91	411.93
497.09	400.23
497.26	320.65
497.44	418.96
497.62	418.96
497.79	393.21
497.97	390.87
498.14	421.30
498.32	451.72
498.50	442.36
498.67	416.62
498.85	437.68
499.03	442.36
499.20	362.78
499.38	416.62
499.56	435.34
499.73	437.68
499.91	386.19
500.08	360.44
500.26	409.59
500.44	451.72
500.61	402.57
500.79	444.70
500.97	433.00
501.14	440.02
501.32	362.78
501.49	390.87
501.67	430.66
501.84	369.80
502.02	360.44
502.20	486.83
502.37	461.09
502.55	395.55
502.72	407.25
502.90	365.12
503.07	337.04
503.25	421.30
503.43	376.83
503.60	402.57
503.78	444.70
503.95	433.00
504.13	505.56
504.30	484.49
504.48	444.70
504.65	510.24
504.83	475.13
505.01	475.13
505.18	381.51
505.36	437.68
505.53	341.72
505.71	339.38
505.88	442.36
506.06	369.80
506.23	514.92
506.41	411.93
506.58	395.55
506.76	428.32
506.93	423.64
507.11	465.77
507.28	374.49
507.46	386.19
507.63	409.59
507.81	400.23
507.98	409.59
508.16	397.89
508.33	346.40
508.50	395.55
508.68	409.59
508.85	456.40
509.03	313.63
509.20	430.66
509.38	482.15
509.55	395.55
509.73	407.25
509.90	458.74
510.08	433.00
510.25	400.23
510.42	421.30
510.60	393.21
510.77	428.32
510.95	486.83
511.12	430.66
511.30	456.40
511.47	397.89
511.64	463.43
511.82	404.91
511.99	388.53
512.17	423.64
512.34	402.57
512.51	388.53
512.69	372.15
512.86	400.23
513.04	440.02
513.21	395.55
513.38	409.59
513.56	442.36
513.73	416.62
513.90	383.85
514.08	458.74
514.25	489.17
514.43	409.59
514.60	355.76
514.77	463.43
514.95	397.89
515.12	381.51
515.29	351.08
515.47	433.00
515.64	372.15
515.81	505.56
515.99	489.17
516.16	421.30
516.33	402.57
516.51	404.91
516.68	404.91
516.85	411.93
517.03	411.93
517.20	428.32
517.37	341.72
517.54	482.15
517.72	365.12
517.89	360.44
518.06	428.32
518.24	472.79
518.41	477.47
518.58	454.06
518.75	365.12
518.93	381.51
519.10	341.72
519.27	355.76
519.45	400.23
519.62	451.72
519.79	421.30
519.96	409.59
520.14	400.23
520.31	393.21
520.48	418.96
520.65	444.70
520.83	421.30
521.00	423.64
521.17	404.91
521.34	395.55
521.52	428.32
521.69	421.30
521.86	433.00
522.03	444.70
522.20	386.19
522.38	400.23
522.55	423.64
522.72	379.17
522.89	383.85
523.07	472.79
523.24	430.66
523.41	400.23
523.58	383.85
523.75	416.62
523.92	442.36
524.10	437.68
524.27	393.21
524.44	397.89
524.61	414.27
524.78	365.12
524.96	423.64
525.13	442.36
525.30	402.57
525.47	425.98
525.64	402.57
525.81	383.85
525.98	376.83
526.16	437.68
526.33	440.02
526.50	451.72
526.67	365.12
526.84	475.13
527.01	435.34
527.18	435.34
527.36	388.53
527.53	421.30
527.70	435.34
527.87	395.55
528.04	458.74
528.21	287.89
528.38	470.45
528.55	479.81
528.72	393.21
528.89	463.43
529.07	486.83
529.24	348.74
529.41	442.36
529.58	435.34
529.75	390.87
529.92	491.51
530.09	379.17
530.26	416.62
530.43	423.64
530.60	444.70
530.77	390.87
530.94	386.19
531.11	449.38
531.28	428.32
531.46	390.87
531.63	486.83
531.80	360.44
531.97	397.89
532.14	442.36
532.31	397.89
532.48	416.62
532.65	447.04
532.82	409.59
532.99	505.56
533.16	421.30
533.33	322.99
533.50	393.21
533.67	388.53
533.84	484.49
534.01	430.66
534.18	372.15
534.35	468.11
534.52	435.34
534.69	491.51
534.86	379.17
535.03	395.55
535.20	425.98
535.37	430.66
535.54	430.66
535.71	456.40
535.88	440.02
536.05	346.40
536.22	423.64
536.38	414.27
536.55	414.27
536.72	397.89
536.89	407.25
537.06	418.96
537.23	409.59
537.40	362.78
537.57	407.25
537.74	430.66
537.91	402.57
538.08	390.87
538.25	414.27
538.42	498.53
538.59	442.36
538.75	332.36
538.92	390.87
539.09	409.59
539.26	447.04
539.43	402.57
539.60	322.99
539.77	463.43
539.94	400.23
540.11	362.78
540.28	402.57
540.44	428.32
540.61	409.59
540.78	440.02
540.95	423.64
541.12	440.02
541.29	411.93
541.46	367.46
541.62	346.40
541.79	390.87
541.96	421.30
542.13	383.85
542.30	362.78
542.47	383.85
542.63	341.72
542.80	430.66
542.97	414.27
543.14	358.10
543.31	468.11
543.48	440.02
543.64	407.25
543.81	470.45
543.98	374.49
544.15	444.70
544.32	395.55
544.48	393.21
544.65	404.91
544.82	395.55
544.99	351.08
545.16	440.02
545.32	416.62
545.49	407.25
545.66	475.13
545.83	425.98
546.00	430.66
546.16	313.63
546.33	325.33
546.50	416.62
546.67	416.62
546.83	360.44
547.00	421.30
547.17	458.74
547.34	421.30
547.50	449.38
547.67	442.36
547.84	425.98
548.00	374.49
548.17	411.93
548.34	383.85
548.51	496.19
548.67	416.62
548.84	358.10
549.01	395.55
549.18	407.25
549.34	383.85
549.51	430.66
549.68	447.04
549.84	416.62
550.01	461.09
550.18	531.30
550.34	449.38
550.51	442.36
550.68	376.83
550.84	411.93
551.01	468.11
551.18	463.43
551.34	414.27
551.51	379.17
551.68	404.91
551.84	374.49
552.01	491.51
552.18	409.59
552.34	374.49
552.51	456.40
552.68	397.89
552.84	449.38
553.01	358.10
553.18	472.79
553.34	407.25
553.51	346.40
553.67	386.19
553.84	435.34
554.01	435.34
554.17	447.04
554.34	444.70
554.51	400.23
554.67	390.87
554.84	444.70
555.00	421.30
555.17	430.66
555.33	479.81
555.50	395.55
555.67	400.23
555.83	402.57
556.00	428.32
556.16	531.30
556.33	409.59
556.50	339.38
556.66	463.43
556.83	444.70
556.99	355.76
557.16	374.49
557.32	421.30
557.49	376.83
557.65	463.43
557.82	381.51
557.98	475.13
558.15	414.27
558.32	346.40
558.48	400.23
558.65	470.45
558.81	416.62
558.98	442.36
559.14	388.53
559.31	367.46
559.47	393.21
559.64	402.57
559.80	444.70
559.97	421.30
560.13	402.57
560.30	411.93
560.46	358.10
560.63	397.89
560.79	418.96
560.96	414.27
561.12	447.04
561.29	423.64
561.45	402.57
561.61	437.68
561.78	479.81
561.94	449.38
562.11	411.93
562.27	486.83
562.44	372.15
562.60	346.40
562.77	402.57
562.93	472.79
563.10	386.19
563.26	454.06
563.42	430.66
563.59	447.04
563.75	397.89
563.92	489.17
564.08	440.02
564.24	447.04
564.41	465.77
564.57	365.12
564.74	433.00
564.90	430.66
565.07	395.55
565.23	397.89
565.39	503.22
565.56	500.87
565.72	470.45
565.88	430.66
566.05	472.79
566.21	374.49
566.38	461.09
566.54	435.34
566.70	437.68
566.87	367.46
567.03	425.98
567.19	416.62
567.36	358.10
567.52	428.32
567.68	430.66
567.85	435.34
568.01	341.72
568.17	351.08
568.34	428.32
568.50	491.51
568.66	360.44
568.83	468.11
568.99	489.17
569.15	493.85
569.32	411.93
569.48	407.25
569.64	404.91
569.81	454.06
569.97	353.42
570.13	440.02
570.30	416.62
570.46	433.00
570.62	454.06
570.78	381.51
570.95	433.00
571.11	437.68
571.27	451.72
571.43	442.36
571.60	421.30
571.76	390.87
571.92	390.87
572.09	461.09
572.25	451.72
572.41	479.81
572.57	447.04
572.74	465.77
572.90	447.04
573.06	383.85
573.22	397.89
573.38	447.04
573.55	393.21
573.71	395.55
573.87	482.15
574.03	304.27
574.20	437.68
574.36	428.32
574.52	402.57
574.68	430.66
574.84	367.46
575.01	414.27
575.17	444.70
575.33	402.57
575.49	393.21
575.65	503.22
575.82	433.00
575.98	416.62
576.14	414.27
576.30	395.55
576.46	369.80
576.62	435.34
576.79	472.79
576.95	381.51
577.11	409.59
577.27	430.66
577.43	379.17
577.59	411.93
577.75	470.45
577.92	477.47
578.08	379.17
578.24	414.27
578.40	418.96
578.56	404.91
578.72	433.00
578.88	428.32
579.04	353.42
579.21	362.78
579.37	411.93
579.53	327.68
579.69	528.96
579.85	379.17
580.01	404.91
580.17	433.00
580.33	458.74
580.49	393.21
580.65	400.23
580.82	386.19
580.98	390.87
581.14	379.17
581.30	416.62
581.46	383.85
581.62	411.93
581.78	449.38
581.94	435.34
582.10	379.17
582.26	440.02
582.42	407.25
582.58	400.23
582.74	475.13
582.90	437.68
583.06	461.09
583.22	393.21
583.38	374.49
583.54	468.11
583.70	390.87
583.86	442.36
584.02	472.79
584.18	418.96
584.34	454.06
584.50	493.85
584.66	468.11
584.82	421.30
584.98	414.27
585.14	416.62
585.30	383.85
585.46	482.15
585.62	465.77
585.78	430.66
585.94	425.98
586.10	402.57
586.26	416.62
586.42	451.72
586.58	437.68
586.74	458.74
586.90	447.04
587.06	437.68
587.22	470.45
587.38	414.27
587.54	421.30
587.70	470.45
587.86	404.91
588.02	414.27
588.18	409.59
588.34	517.26
588.49	360.44
588.65	395.55
588.81	505.56
588.97	376.83
589.13	407.25
589.29	390.87
589.45	521.94
589.61	353.42
589.77	449.38
589.93	418.96
590.08	367.46
590.24	409.59
590.40	425.98
590.56	414.27
590.72	449.38
590.88	442.36
591.04	482.15
591.20	411.93
591.35	451.72
591.51	421.30
591.67	358.10
591.83	386.19
591.99	369.80
592.15	390.87
592.31	472.79
592.46	454.06
592.62	456.40
592.78	407.25
592.94	372.15
593.10	372.15
593.26	409.59
593.41	489.17
593.57	444.70
593.73	423.64
593.89	447.04
594.05	425.98
594.20	428.32
594.36	451.72
594.52	475.13
594.68	397.89
594.84	461.09
594.99	449.38
595.15	423.64
595.31	423.64
595.47	454.06
595.62	397.89
595.78	355.76
595.94	393.21
596.10	397.89
596.25	402.57
596.41	456.40
596.57	440.02
596.73	418.96
596.88	372.15
597.04	390.87
597.20	353.42
597.36	449.38
597.51	407.25
597.67	372.15
597.83	451.72
597.99	442.36
598.14	472.79
598.30	514.92
598.46	407.25
598.61	465.77
598.77	425.98
598.93	423.64
599.09	458.74
599.24	369.80
599.40	376.83
599.56	470.45
599.71	423.64
599.87	433.00
600.03	435.34
600.18	376.83
600.34	388.53
600.50	369.80
600.65	404.91
600.81	451.72
600.97	355.76
601.12	395.55
601.28	414.27
601.44	416.62
601.59	404.91
601.75	411.93
601.91	404.91
602.06	435.34
602.22	451.72
602.37	470.45
602.53	454.06
602.69	397.89
602.84	440.02
603.00	416.62
603.16	308.95
603.31	428.32
603.47	437.68
603.62	390.87
603.78	400.23
603.94	447.04
604.09	379.17
604.25	386.19
604.40	381.51
604.56	390.87
604.71	444.70
604.87	498.53
605.03	482.15
605.18	337.04
605.34	440.02
605.49	369.80
605.65	402.57
605.80	395.55
605.96	430.66
606.12	447.04
606.27	454.06
606.43	493.85
606.58	512.58
606.74	379.17
606.89	444.70
607.05	430.66
607.20	440.02
607.36	393.21
607.51	383.85
607.67	465.77
607.82	463.43
607.98	451.72
608.13	423.64
608.29	430.66
608.44	461.09
608.60	428.32
608.75	463.43
608.91	409.59
609.06	484.49
609.22	486.83
609.37	461.09
609.53	414.27
609.68	355.76
609.84	327.68
609.99	433.00
610.15	402.57
