SpectraSuite Data File
++++++++++++++++++++++++++++++++++++
Date: Fri Oct 25 12:10:44 EDT 2013
User: price-jones
Dark Spectrum Present: No
Reference Spectrum Present: No
Number of Sampled Component Spectra: 1
Spectrometers: USB2+H05261
Integration Time (usec): 100000 (USB2+H05261)
Spectra Averaged: 1 (USB2+H05261)
Boxcar Smoothing: 0 (USB2+H05261)
Correct for Electrical Dark: No (USB2+H05261)
Strobe/Lamp Enabled: No (USB2+H05261)
Correct for Detector Non-linearity: No (USB2+H05261)
Correct for Stray Light: No (USB2+H05261)
Number of Pixels in Processed Spectrum: 2048
>>>>>Begin Processed Spectral Data<<<<<
365.73	315.97
365.92	315.97
366.12	315.97
366.32	262.14
366.52	287.89
366.72	234.05
366.91	257.46
367.11	220.01
367.31	278.52
367.51	182.56
367.70	217.67
367.90	243.42
368.10	276.18
368.30	271.50
368.49	243.42
368.69	266.82
368.89	283.20
369.09	252.78
369.28	222.35
369.48	285.55
369.68	318.31
369.87	308.95
370.07	308.95
370.27	262.14
370.47	320.65
370.66	339.38
370.86	430.66
371.06	360.44
371.25	346.40
371.45	386.19
371.65	372.15
371.84	365.12
372.04	383.85
372.24	376.83
372.44	334.70
372.63	444.70
372.83	458.74
373.03	409.59
373.22	425.98
373.42	386.19
373.62	425.98
373.81	444.70
374.01	472.79
374.21	486.83
374.40	430.66
374.60	468.11
374.79	428.32
374.99	454.06
375.19	379.17
375.38	493.85
375.58	388.53
375.78	470.45
375.97	381.51
376.17	447.04
376.37	376.83
376.56	491.51
376.76	372.15
376.95	374.49
377.15	409.59
377.35	409.59
377.54	451.72
377.74	390.87
377.93	360.44
378.13	435.34
378.33	503.22
378.52	367.46
378.72	507.90
378.91	517.26
379.11	367.46
379.31	414.27
379.50	444.70
379.70	447.04
379.89	440.02
380.09	362.78
380.28	435.34
380.48	362.78
380.68	390.87
380.87	393.21
381.07	418.96
381.26	505.56
381.46	351.08
381.65	463.43
381.85	358.10
382.04	332.36
382.24	416.62
382.43	418.96
382.63	402.57
382.83	414.27
383.02	454.06
383.22	409.59
383.41	360.44
383.61	362.78
383.80	388.53
384.00	444.70
384.19	383.85
384.39	397.89
384.58	390.87
384.78	325.33
384.97	442.36
385.17	418.96
385.36	351.08
385.56	369.80
385.75	451.72
385.95	428.32
386.14	440.02
386.34	421.30
386.53	400.23
386.72	393.21
386.92	421.30
387.11	416.62
387.31	379.17
387.50	416.62
387.70	400.23
387.89	372.15
388.09	388.53
388.28	353.42
388.48	365.12
388.67	428.32
388.86	437.68
389.06	449.38
389.25	383.85
389.45	365.12
389.64	362.78
389.84	444.70
390.03	395.55
390.22	418.96
390.42	369.80
390.61	414.27
390.81	315.97
391.00	344.06
391.19	395.55
391.39	425.98
391.58	428.32
391.78	376.83
391.97	486.83
392.16	365.12
392.36	472.79
392.55	409.59
392.75	379.17
392.94	435.34
393.13	461.09
393.33	367.46
393.52	341.72
393.71	414.27
393.91	379.17
394.10	397.89
394.29	367.46
394.49	397.89
394.68	421.30
394.88	416.62
395.07	437.68
395.26	388.53
395.46	393.21
395.65	416.62
395.84	430.66
396.04	454.06
396.23	423.64
396.42	404.91
396.62	388.53
396.81	388.53
397.00	402.57
397.19	425.98
397.39	423.64
397.58	395.55
397.77	353.42
397.97	425.98
398.16	414.27
398.35	425.98
398.55	365.12
398.74	470.45
398.93	458.74
399.12	425.98
399.32	447.04
399.51	337.04
399.70	397.89
399.90	404.91
400.09	404.91
400.28	362.78
400.47	411.93
400.67	484.49
400.86	447.04
401.05	477.47
401.24	437.68
401.44	400.23
401.63	381.51
401.82	383.85
402.01	397.89
402.21	369.80
402.40	341.72
402.59	425.98
402.78	386.19
402.97	320.65
403.17	416.62
403.36	433.00
403.55	362.78
403.74	402.57
403.93	388.53
404.13	402.57
404.32	355.76
404.51	411.93
404.70	346.40
404.89	421.30
405.09	383.85
405.28	411.93
405.47	428.32
405.66	451.72
405.85	416.62
406.05	388.53
406.24	433.00
406.43	514.92
406.62	421.30
406.81	430.66
407.00	425.98
407.20	379.17
407.39	423.64
407.58	388.53
407.77	423.64
407.96	330.02
408.15	449.38
408.34	409.59
408.54	372.15
408.73	418.96
408.92	346.40
409.11	409.59
409.30	418.96
409.49	416.62
409.68	430.66
409.87	428.32
410.07	355.76
410.26	428.32
410.45	397.89
410.64	411.93
410.83	409.59
411.02	353.42
411.21	397.89
411.40	510.24
411.59	395.55
411.78	447.04
411.98	428.32
412.17	404.91
412.36	393.21
412.55	418.96
412.74	400.23
412.93	449.38
413.12	470.45
413.31	458.74
413.50	425.98
413.69	353.42
413.88	444.70
414.07	463.43
414.26	447.04
414.45	388.53
414.64	423.64
414.83	414.27
415.02	348.74
415.22	365.12
415.41	425.98
415.60	294.91
415.79	407.25
415.98	479.81
416.17	381.51
416.36	383.85
416.55	444.70
416.74	397.89
416.93	470.45
417.12	428.32
417.31	404.91
417.50	390.87
417.69	454.06
417.88	393.21
418.07	437.68
418.26	416.62
418.45	334.70
418.64	491.51
418.83	418.96
419.02	461.09
419.21	372.15
419.39	430.66
419.58	381.51
419.77	414.27
419.96	414.27
420.15	390.87
420.34	395.55
420.53	400.23
420.72	360.44
420.91	425.98
421.10	409.59
421.29	449.38
421.48	416.62
421.67	435.34
421.86	386.19
422.05	440.02
422.24	447.04
422.43	461.09
422.61	372.15
422.80	306.61
422.99	435.34
423.18	458.74
423.37	451.72
423.56	402.57
423.75	430.66
423.94	381.51
424.13	383.85
424.32	472.79
424.50	404.91
424.69	393.21
424.88	454.06
425.07	404.91
425.26	433.00
425.45	491.51
425.64	386.19
425.83	456.40
426.01	451.72
426.20	456.40
426.39	416.62
426.58	355.76
426.77	433.00
426.96	440.02
427.15	388.53
427.33	416.62
427.52	442.36
427.71	386.19
427.90	468.11
428.09	332.36
428.28	468.11
428.46	404.91
428.65	444.70
428.84	393.21
429.03	334.70
429.22	496.19
429.40	369.80
429.59	479.81
429.78	418.96
429.97	447.04
430.16	388.53
430.34	475.13
430.53	468.11
430.72	360.44
430.91	430.66
431.10	435.34
431.28	428.32
431.47	451.72
431.66	351.08
431.85	489.17
432.03	433.00
432.22	433.00
432.41	418.96
432.60	512.58
432.79	421.30
432.97	374.49
433.16	388.53
433.35	313.63
433.54	447.04
433.72	437.68
433.91	409.59
434.10	383.85
434.28	374.49
434.47	421.30
434.66	435.34
434.85	444.70
435.03	423.64
435.22	390.87
435.41	388.53
435.59	397.89
435.78	386.19
435.97	451.72
436.16	493.85
436.34	418.96
436.53	344.06
436.72	449.38
436.90	458.74
437.09	393.21
437.28	524.28
437.46	353.42
437.65	484.49
437.84	425.98
438.02	430.66
438.21	435.34
438.40	360.44
438.58	423.64
438.77	463.43
438.96	498.53
439.14	381.51
439.33	409.59
439.52	318.31
439.70	482.15
439.89	360.44
440.08	418.96
440.26	423.64
440.45	409.59
440.63	421.30
440.82	386.19
441.01	418.96
441.19	440.02
441.38	433.00
441.57	346.40
441.75	423.64
441.94	440.02
442.12	458.74
442.31	451.72
442.50	423.64
442.68	430.66
442.87	454.06
443.05	379.17
443.24	381.51
443.43	447.04
443.61	456.40
443.80	341.72
443.98	458.74
444.17	386.19
444.35	440.02
444.54	458.74
444.73	425.98
444.91	397.89
445.10	397.89
445.28	383.85
445.47	447.04
445.65	433.00
445.84	414.27
446.02	454.06
446.21	433.00
446.39	449.38
446.58	376.83
446.77	414.27
446.95	418.96
447.14	418.96
447.32	437.68
447.51	451.72
447.69	393.21
447.88	337.04
448.06	435.34
448.25	362.78
448.43	351.08
448.62	353.42
448.80	404.91
448.99	486.83
449.17	435.34
449.36	381.51
449.54	393.21
449.73	376.83
449.91	386.19
450.10	372.15
450.28	507.90
450.46	421.30
450.65	383.85
450.83	425.98
451.02	411.93
451.20	404.91
451.39	404.91
451.57	414.27
451.76	402.57
451.94	437.68
452.13	416.62
452.31	400.23
452.49	451.72
452.68	400.23
452.86	397.89
453.05	442.36
453.23	428.32
453.42	390.87
453.60	358.10
453.78	414.27
453.97	369.80
454.15	374.49
454.34	393.21
454.52	425.98
454.70	463.43
454.89	440.02
455.07	416.62
455.26	430.66
455.44	484.49
455.62	383.85
455.81	470.45
455.99	369.80
456.17	425.98
456.36	402.57
456.54	411.93
456.73	468.11
456.91	355.76
457.09	407.25
457.28	486.83
457.46	369.80
457.64	465.77
457.83	376.83
458.01	383.85
458.19	339.38
458.38	404.91
458.56	358.10
458.74	355.76
458.93	414.27
459.11	369.80
459.29	374.49
459.48	421.30
459.66	423.64
459.84	414.27
460.03	503.22
460.21	425.98
460.39	416.62
460.57	458.74
460.76	388.53
460.94	404.91
461.12	437.68
461.31	414.27
461.49	402.57
461.67	407.25
461.85	430.66
462.04	358.10
462.22	800.46
462.40	425.98
462.59	402.57
462.77	440.02
462.95	411.93
463.13	383.85
463.32	440.02
463.50	425.98
463.68	407.25
463.86	486.83
464.05	332.36
464.23	425.98
464.41	477.47
464.59	374.49
464.78	437.68
464.96	433.00
465.14	458.74
465.32	397.89
465.50	388.53
465.69	341.72
465.87	440.02
466.05	437.68
466.23	409.59
466.41	400.23
466.60	404.91
466.78	390.87
466.96	308.95
467.14	425.98
467.32	411.93
467.51	397.89
467.69	491.51
467.87	458.74
468.05	449.38
468.23	418.96
468.41	482.15
468.60	388.53
468.78	407.25
468.96	500.87
469.14	407.25
469.32	372.15
469.50	365.12
469.69	407.25
469.87	404.91
470.05	369.80
470.23	388.53
470.41	400.23
470.59	423.64
470.77	428.32
470.95	376.83
471.14	510.24
471.32	433.00
471.50	437.68
471.68	496.19
471.86	325.33
472.04	393.21
472.22	393.21
472.40	407.25
472.58	390.87
472.77	409.59
472.95	407.25
473.13	423.64
473.31	454.06
473.49	351.08
473.67	430.66
473.85	461.09
474.03	468.11
474.21	449.38
474.39	395.55
474.57	402.57
474.75	409.59
474.93	402.57
475.12	339.38
475.30	435.34
475.48	433.00
475.66	374.49
475.84	444.70
476.02	442.36
476.20	470.45
476.38	416.62
476.56	440.02
476.74	421.30
476.92	428.32
477.10	395.55
477.28	428.32
477.46	409.59
477.64	512.58
477.82	404.91
478.00	423.64
478.18	404.91
478.36	393.21
478.54	451.72
478.72	411.93
478.90	376.83
479.08	524.28
479.26	461.09
479.44	411.93
479.62	332.36
479.80	425.98
479.98	416.62
480.16	409.59
480.34	433.00
480.52	449.38
480.70	444.70
480.88	400.23
481.06	440.02
481.24	409.59
481.41	451.72
481.59	475.13
481.77	355.76
481.95	433.00
482.13	486.83
482.31	390.87
482.49	437.68
482.67	444.70
482.85	479.81
483.03	397.89
483.21	421.30
483.39	376.83
483.57	458.74
483.74	374.49
483.92	425.98
484.10	433.00
484.28	416.62
484.46	444.70
484.64	475.13
484.82	465.77
485.00	404.91
485.18	409.59
485.35	372.15
485.53	463.43
485.71	411.93
485.89	395.55
486.07	365.12
486.25	507.90
486.43	428.32
486.61	447.04
486.78	430.66
486.96	475.13
487.14	390.87
487.32	393.21
487.50	376.83
487.68	447.04
487.85	390.87
488.03	414.27
488.21	482.15
488.39	456.40
488.57	491.51
488.75	472.79
488.92	486.83
489.10	435.34
489.28	454.06
489.46	388.53
489.64	409.59
489.81	402.57
489.99	425.98
490.17	351.08
490.35	435.34
490.53	416.62
490.70	423.64
490.88	421.30
491.06	388.53
491.24	454.06
491.41	430.66
491.59	386.19
491.77	433.00
491.95	381.51
492.13	440.02
492.30	470.45
492.48	358.10
492.66	397.89
492.84	428.32
493.01	381.51
493.19	425.98
493.37	421.30
493.54	421.30
493.72	468.11
493.90	437.68
494.08	411.93
494.25	440.02
494.43	507.90
494.61	388.53
494.79	463.43
494.96	430.66
495.14	416.62
495.32	407.25
495.49	374.49
495.67	505.56
495.85	409.59
496.02	372.15
496.20	395.55
496.38	372.15
496.55	447.04
496.73	444.70
496.91	383.85
497.09	442.36
497.26	395.55
497.44	414.27
497.62	477.47
497.79	341.72
497.97	404.91
498.14	425.98
498.32	468.11
498.50	411.93
498.67	393.21
498.85	519.60
499.03	383.85
499.20	416.62
499.38	449.38
499.56	418.96
499.73	433.00
499.91	472.79
500.08	407.25
500.26	320.65
500.44	337.04
500.61	400.23
500.79	418.96
500.97	500.87
501.14	416.62
501.32	456.40
501.49	449.38
501.67	470.45
501.84	344.06
502.02	435.34
502.20	428.32
502.37	463.43
502.55	369.80
502.72	395.55
502.90	402.57
503.07	470.45
503.25	433.00
503.43	402.57
503.60	367.46
503.78	423.64
503.95	353.42
504.13	409.59
504.30	447.04
504.48	407.25
504.65	355.76
504.83	475.13
505.01	400.23
505.18	428.32
505.36	355.76
505.53	381.51
505.71	344.06
505.88	428.32
506.06	414.27
506.23	418.96
506.41	470.45
506.58	538.32
506.76	449.38
506.93	444.70
507.11	348.74
507.28	416.62
507.46	341.72
507.63	489.17
507.81	475.13
507.98	388.53
508.16	421.30
508.33	402.57
508.50	386.19
508.68	440.02
508.85	428.32
509.03	344.06
509.20	409.59
509.38	425.98
509.55	475.13
509.73	430.66
509.90	418.96
510.08	402.57
510.25	395.55
510.42	444.70
510.60	428.32
510.77	397.89
510.95	386.19
511.12	409.59
511.30	400.23
511.47	421.30
511.64	404.91
511.82	440.02
511.99	461.09
512.17	402.57
512.34	409.59
512.51	374.49
512.69	362.78
512.86	442.36
513.04	484.49
513.21	421.30
513.38	404.91
513.56	435.34
513.73	444.70
513.90	383.85
514.08	425.98
514.25	374.49
514.43	355.76
514.60	456.40
514.77	435.34
514.95	484.49
515.12	407.25
515.29	440.02
515.47	411.93
515.64	386.19
515.81	404.91
515.99	386.19
516.16	451.72
516.33	397.89
516.51	423.64
516.68	409.59
516.85	322.99
517.03	388.53
517.20	411.93
517.37	418.96
517.54	447.04
517.72	447.04
517.89	395.55
518.06	325.33
518.24	402.57
518.41	416.62
518.58	409.59
518.75	325.33
518.93	404.91
519.10	447.04
519.27	416.62
519.45	442.36
519.62	390.87
519.79	360.44
519.96	348.74
520.14	418.96
520.31	425.98
520.48	383.85
520.65	418.96
520.83	449.38
521.00	423.64
521.17	397.89
521.34	442.36
521.52	355.76
521.69	402.57
521.86	425.98
522.03	428.32
522.20	482.15
522.38	421.30
522.55	397.89
522.72	383.85
522.89	493.85
523.07	379.17
523.24	372.15
523.41	381.51
523.58	463.43
523.75	423.64
523.92	463.43
524.10	414.27
524.27	416.62
524.44	423.64
524.61	393.21
524.78	395.55
524.96	449.38
525.13	404.91
525.30	421.30
525.47	458.74
525.64	475.13
525.81	498.53
525.98	430.66
526.16	383.85
526.33	409.59
526.50	430.66
526.67	379.17
526.84	397.89
527.01	409.59
527.18	447.04
527.36	400.23
527.53	388.53
527.70	435.34
527.87	411.93
528.04	484.49
528.21	479.81
528.38	433.00
528.55	479.81
528.72	486.83
528.89	442.36
529.07	451.72
529.24	390.87
529.41	458.74
529.58	400.23
529.75	468.11
529.92	437.68
530.09	395.55
530.26	407.25
530.43	402.57
530.60	433.00
530.77	425.98
530.94	479.81
531.11	358.10
531.28	540.66
531.46	423.64
531.63	379.17
531.80	416.62
531.97	365.12
532.14	444.70
532.31	358.10
532.48	442.36
532.65	400.23
532.82	414.27
532.99	482.15
533.16	358.10
533.33	348.74
533.50	456.40
533.67	407.25
533.84	416.62
534.01	411.93
534.18	418.96
534.35	411.93
534.52	407.25
534.69	318.31
534.86	418.96
535.03	440.02
535.20	409.59
535.37	465.77
535.54	414.27
535.71	418.96
535.88	404.91
536.05	379.17
536.22	484.49
536.38	423.64
536.55	440.02
536.72	414.27
536.89	433.00
537.06	477.47
537.23	475.13
537.40	421.30
537.57	517.26
537.74	437.68
537.91	409.59
538.08	421.30
538.25	367.46
538.42	379.17
538.59	402.57
538.75	444.70
538.92	456.40
539.09	489.17
539.26	416.62
539.43	400.23
539.60	416.62
539.77	524.28
539.94	421.30
540.11	470.45
540.28	444.70
540.44	423.64
540.61	376.83
540.78	362.78
540.95	414.27
541.12	468.11
541.29	393.21
541.46	498.53
541.62	430.66
541.79	507.90
541.96	395.55
542.13	449.38
542.30	425.98
542.47	437.68
542.63	472.79
542.80	437.68
542.97	463.43
543.14	292.57
543.31	454.06
543.48	393.21
543.64	440.02
543.81	416.62
543.98	334.70
544.15	369.80
544.32	423.64
544.48	308.95
544.65	416.62
544.82	425.98
544.99	416.62
545.16	409.59
545.32	386.19
545.49	444.70
545.66	374.49
545.83	465.77
546.00	414.27
546.16	416.62
546.33	365.12
546.50	421.30
546.67	414.27
546.83	435.34
547.00	533.64
547.17	449.38
547.34	458.74
547.50	418.96
547.67	353.42
547.84	484.49
548.00	454.06
548.17	283.20
548.34	479.81
548.51	461.09
548.67	360.44
548.84	447.04
549.01	421.30
549.18	482.15
549.34	379.17
549.51	414.27
549.68	421.30
549.84	447.04
550.01	404.91
550.18	440.02
550.34	421.30
550.51	423.64
550.68	477.47
550.84	463.43
551.01	418.96
551.18	416.62
551.34	491.51
551.51	402.57
551.68	383.85
551.84	402.57
552.01	351.08
552.18	468.11
552.34	397.89
552.51	435.34
552.68	496.19
552.84	479.81
553.01	444.70
553.18	351.08
553.34	388.53
553.51	435.34
553.67	402.57
553.84	533.64
554.01	437.68
554.17	479.81
554.34	372.15
554.51	381.51
554.67	407.25
554.84	409.59
555.00	386.19
555.17	374.49
555.33	493.85
555.50	360.44
555.67	409.59
555.83	428.32
556.00	409.59
556.16	524.28
556.33	416.62
556.50	374.49
556.66	447.04
556.83	414.27
556.99	449.38
557.16	514.92
557.32	461.09
557.49	423.64
557.65	407.25
557.82	416.62
557.98	456.40
558.15	411.93
558.32	435.34
558.48	500.87
558.65	402.57
558.81	400.23
558.98	311.29
559.14	442.36
559.31	402.57
559.47	430.66
559.64	388.53
559.80	428.32
559.97	383.85
560.13	390.87
560.30	402.57
560.46	383.85
560.63	374.49
560.79	372.15
560.96	444.70
561.12	421.30
561.29	346.40
561.45	416.62
561.61	393.21
561.78	496.19
561.94	383.85
562.11	442.36
562.27	421.30
562.44	433.00
562.60	409.59
562.77	418.96
562.93	500.87
563.10	355.76
563.26	449.38
563.42	503.22
563.59	379.17
563.75	360.44
563.92	407.25
564.08	383.85
564.24	416.62
564.41	465.77
564.57	425.98
564.74	461.09
564.90	351.08
565.07	411.93
565.23	437.68
565.39	388.53
565.56	428.32
565.72	358.10
565.88	400.23
566.05	397.89
566.21	315.97
566.38	404.91
566.54	423.64
566.70	341.72
566.87	409.59
567.03	407.25
567.19	440.02
567.36	395.55
567.52	402.57
567.68	393.21
567.85	482.15
568.01	437.68
568.17	430.66
568.34	397.89
568.50	456.40
568.66	402.57
568.83	437.68
568.99	351.08
569.15	418.96
569.32	437.68
569.48	454.06
569.64	386.19
569.81	393.21
569.97	423.64
570.13	407.25
570.30	451.72
570.46	447.04
570.62	447.04
570.78	433.00
570.95	411.93
571.11	430.66
571.27	433.00
571.43	463.43
571.60	421.30
571.76	435.34
571.92	440.02
572.09	463.43
572.25	409.59
572.41	435.34
572.57	510.24
572.74	456.40
572.90	428.32
573.06	362.78
573.22	433.00
573.38	383.85
573.55	381.51
573.71	421.30
573.87	369.80
574.03	418.96
574.20	404.91
574.36	423.64
574.52	376.83
574.68	348.74
574.84	454.06
575.01	407.25
575.17	404.91
575.33	388.53
575.49	470.45
575.65	409.59
575.82	524.28
575.98	463.43
576.14	449.38
576.30	411.93
576.46	458.74
576.62	407.25
576.79	409.59
576.95	442.36
577.11	409.59
577.27	400.23
577.43	477.47
577.59	437.68
577.75	402.57
577.92	428.32
578.08	374.49
578.24	411.93
578.40	468.11
578.56	500.87
578.72	437.68
578.88	437.68
579.04	418.96
579.21	468.11
579.37	404.91
579.53	362.78
579.69	411.93
579.85	390.87
580.01	404.91
580.17	400.23
580.33	416.62
580.49	449.38
580.65	442.36
580.82	374.49
580.98	383.85
581.14	360.44
581.30	416.62
581.46	430.66
581.62	461.09
581.78	416.62
581.94	395.55
582.10	393.21
582.26	423.64
582.42	472.79
582.58	376.83
582.74	404.91
582.90	407.25
583.06	454.06
583.22	418.96
583.38	383.85
583.54	383.85
583.70	407.25
583.86	418.96
584.02	421.30
584.18	428.32
584.34	390.87
584.50	393.21
584.66	418.96
584.82	461.09
584.98	442.36
585.14	449.38
585.30	454.06
585.46	437.68
585.62	362.78
585.78	470.45
585.94	353.42
586.10	337.04
586.26	435.34
586.42	418.96
586.58	475.13
586.74	402.57
586.90	341.72
587.06	451.72
587.22	458.74
587.38	418.96
587.54	442.36
587.70	461.09
587.86	489.17
588.02	418.96
588.18	430.66
588.34	433.00
588.49	400.23
588.65	388.53
588.81	454.06
588.97	470.45
589.13	425.98
589.29	379.17
589.45	414.27
589.61	454.06
589.77	456.40
589.93	458.74
590.08	416.62
590.24	393.21
590.40	421.30
590.56	397.89
590.72	376.83
590.88	330.02
591.04	430.66
591.20	372.15
591.35	482.15
591.51	411.93
591.67	376.83
591.83	404.91
591.99	437.68
592.15	435.34
592.31	348.74
592.46	404.91
592.62	433.00
592.78	491.51
592.94	390.87
593.10	454.06
593.26	355.76
593.41	404.91
593.57	468.11
593.73	411.93
593.89	418.96
594.05	435.34
594.20	351.08
594.36	458.74
594.52	395.55
594.68	475.13
594.84	435.34
594.99	400.23
595.15	470.45
595.31	388.53
595.47	461.09
595.62	423.64
595.78	365.12
595.94	334.70
596.10	379.17
596.25	517.26
596.41	372.15
596.57	456.40
596.73	390.87
596.88	484.49
597.04	465.77
597.20	425.98
597.36	400.23
597.51	435.34
597.67	390.87
597.83	346.40
597.99	465.77
598.14	404.91
598.30	428.32
598.46	425.98
598.61	407.25
598.77	397.89
598.93	379.17
599.09	475.13
599.24	390.87
599.40	444.70
599.56	409.59
599.71	304.27
599.87	423.64
600.03	372.15
600.18	514.92
600.34	414.27
600.50	400.23
600.65	404.91
600.81	451.72
600.97	482.15
601.12	390.87
601.28	451.72
601.44	376.83
601.59	409.59
601.75	383.85
601.91	386.19
602.06	475.13
602.22	519.60
602.37	461.09
602.53	428.32
602.69	479.81
602.84	430.66
603.00	395.55
603.16	411.93
603.31	404.91
603.47	470.45
603.62	402.57
603.78	463.43
603.94	379.17
604.09	409.59
604.25	458.74
604.40	411.93
604.56	510.24
604.71	407.25
604.87	369.80
605.03	470.45
605.18	402.57
605.34	411.93
605.49	442.36
605.65	482.15
605.80	397.89
605.96	425.98
606.12	425.98
606.27	447.04
606.43	470.45
606.58	404.91
606.74	395.55
606.89	428.32
607.05	463.43
607.20	442.36
607.36	397.89
607.51	454.06
607.67	465.77
607.82	428.32
607.98	470.45
608.13	447.04
608.29	393.21
608.44	435.34
608.60	393.21
608.75	454.06
608.91	402.57
609.06	386.19
609.22	486.83
609.37	423.64
609.53	435.34
609.68	444.70
609.84	393.21
609.99	437.68
610.15	484.49
