SpectraSuite Data File
++++++++++++++++++++++++++++++++++++
Date: Fri Oct 25 12:10:38 EDT 2013
User: price-jones
Dark Spectrum Present: No
Reference Spectrum Present: No
Number of Sampled Component Spectra: 1
Spectrometers: USB2+H05261
Integration Time (usec): 100000 (USB2+H05261)
Spectra Averaged: 1 (USB2+H05261)
Boxcar Smoothing: 0 (USB2+H05261)
Correct for Electrical Dark: No (USB2+H05261)
Strobe/Lamp Enabled: No (USB2+H05261)
Correct for Detector Non-linearity: No (USB2+H05261)
Correct for Stray Light: No (USB2+H05261)
Number of Pixels in Processed Spectrum: 2048
>>>>>Begin Processed Spectral Data<<<<<
365.73	379.17
365.92	379.17
366.12	379.17
366.32	301.93
366.52	215.33
366.72	262.14
366.91	269.16
367.11	262.14
367.31	224.69
367.51	182.56
367.70	208.31
367.90	194.26
368.10	203.63
368.30	180.22
368.49	194.26
368.69	264.48
368.89	290.23
369.09	283.20
369.28	308.95
369.48	285.55
369.68	266.82
369.87	337.04
370.07	322.99
370.27	369.80
370.47	381.51
370.66	313.63
370.86	334.70
371.06	374.49
371.25	355.76
371.45	327.68
371.65	388.53
371.84	322.99
372.04	430.66
372.24	379.17
372.44	388.53
372.63	353.42
372.83	437.68
373.03	491.51
373.22	374.49
373.42	414.27
373.62	433.00
373.81	348.74
374.01	456.40
374.21	407.25
374.40	388.53
374.60	418.96
374.79	421.30
374.99	442.36
375.19	395.55
375.38	421.30
375.58	374.49
375.78	451.72
375.97	411.93
376.17	433.00
376.37	393.21
376.56	397.89
376.76	353.42
376.95	425.98
377.15	407.25
377.35	393.21
377.54	454.06
377.74	388.53
377.93	390.87
378.13	442.36
378.33	423.64
378.52	397.89
378.72	505.56
378.91	407.25
379.11	428.32
379.31	395.55
379.50	386.19
379.70	447.04
379.89	444.70
380.09	442.36
380.28	425.98
380.48	423.64
380.68	390.87
380.87	430.66
381.07	409.59
381.26	404.91
381.46	390.87
381.65	360.44
381.85	362.78
382.04	472.79
382.24	376.83
382.43	379.17
382.63	395.55
382.83	451.72
383.02	444.70
383.22	479.81
383.41	411.93
383.61	437.68
383.80	482.15
384.00	362.78
384.19	404.91
384.39	397.89
384.58	376.83
384.78	367.46
384.97	430.66
385.17	421.30
385.36	454.06
385.56	418.96
385.75	358.10
385.95	393.21
386.14	449.38
386.34	383.85
386.53	362.78
386.72	430.66
386.92	421.30
387.11	477.47
387.31	433.00
387.50	449.38
387.70	447.04
387.89	355.76
388.09	395.55
388.28	454.06
388.48	428.32
388.67	402.57
388.86	479.81
389.06	374.49
389.25	395.55
389.45	383.85
389.64	472.79
389.84	411.93
390.03	334.70
390.22	374.49
390.42	440.02
390.61	379.17
390.81	393.21
391.00	386.19
391.19	383.85
391.39	409.59
391.58	454.06
391.78	486.83
391.97	503.22
392.16	355.76
392.36	465.77
392.55	351.08
392.75	390.87
392.94	416.62
393.13	442.36
393.33	369.80
393.52	447.04
393.71	376.83
393.91	411.93
394.10	358.10
394.29	386.19
394.49	320.65
394.68	458.74
394.88	463.43
395.07	428.32
395.26	409.59
395.46	451.72
395.65	526.62
395.84	388.53
396.04	404.91
396.23	358.10
396.42	351.08
396.62	440.02
396.81	351.08
397.00	381.51
397.19	397.89
397.39	360.44
397.58	411.93
397.77	386.19
397.97	320.65
398.16	416.62
398.35	430.66
398.55	383.85
398.74	444.70
398.93	430.66
399.12	449.38
399.32	393.21
399.51	418.96
399.70	440.02
399.90	425.98
400.09	390.87
400.28	365.12
400.47	374.49
400.67	395.55
400.86	463.43
401.05	390.87
401.24	444.70
401.44	395.55
401.63	433.00
401.82	395.55
402.01	404.91
402.21	425.98
402.40	414.27
402.59	404.91
402.78	414.27
402.97	369.80
403.17	440.02
403.36	386.19
403.55	386.19
403.74	383.85
403.93	421.30
404.13	404.91
404.32	421.30
404.51	383.85
404.70	416.62
404.89	383.85
405.09	409.59
405.28	447.04
405.47	351.08
405.66	374.49
405.85	402.57
406.05	383.85
406.24	346.40
406.43	414.27
406.62	454.06
406.81	496.19
407.00	435.34
407.20	435.34
407.39	447.04
407.58	404.91
407.77	379.17
407.96	425.98
408.15	423.64
408.34	404.91
408.54	428.32
408.73	402.57
408.92	407.25
409.11	477.47
409.30	454.06
409.49	367.46
409.68	423.64
409.87	386.19
410.07	440.02
410.26	376.83
410.45	447.04
410.64	416.62
410.83	411.93
411.02	423.64
411.21	393.21
411.40	423.64
411.59	463.43
411.78	388.53
411.98	463.43
412.17	425.98
412.36	386.19
412.55	400.23
412.74	472.79
412.93	339.38
413.12	367.46
413.31	416.62
413.50	374.49
413.69	468.11
413.88	374.49
414.07	461.09
414.26	379.17
414.45	376.83
414.64	425.98
414.83	465.77
415.02	444.70
415.22	353.42
415.41	442.36
415.60	489.17
415.79	411.93
415.98	444.70
416.17	407.25
416.36	430.66
416.55	376.83
416.74	425.98
416.93	440.02
417.12	407.25
417.31	388.53
417.50	374.49
417.69	437.68
417.88	374.49
418.07	404.91
418.26	339.38
418.45	381.51
418.64	416.62
418.83	430.66
419.02	400.23
419.21	468.11
419.39	428.32
419.58	416.62
419.77	447.04
419.96	407.25
420.15	470.45
420.34	330.02
420.53	322.99
420.72	435.34
420.91	437.68
421.10	477.47
421.29	451.72
421.48	381.51
421.67	423.64
421.86	416.62
422.05	416.62
422.24	386.19
422.43	362.78
422.61	395.55
422.80	423.64
422.99	344.06
423.18	299.59
423.37	491.51
423.56	437.68
423.75	348.74
423.94	283.20
424.13	433.00
424.32	425.98
424.50	440.02
424.69	386.19
424.88	402.57
425.07	435.34
425.26	407.25
425.45	468.11
425.64	449.38
425.83	449.38
426.01	496.19
426.20	486.83
426.39	435.34
426.58	393.21
426.77	475.13
426.96	376.83
427.15	418.96
427.33	423.64
427.52	355.76
427.71	355.76
427.90	409.59
428.09	440.02
428.28	397.89
428.46	344.06
428.65	386.19
428.84	397.89
429.03	447.04
429.22	386.19
429.40	425.98
429.59	442.36
429.78	404.91
429.97	341.72
430.16	402.57
430.34	414.27
430.53	325.33
430.72	369.80
430.91	479.81
431.10	421.30
431.28	414.27
431.47	437.68
431.66	404.91
431.85	414.27
432.03	491.51
432.22	449.38
432.41	402.57
432.60	454.06
432.79	353.42
432.97	440.02
433.16	421.30
433.35	386.19
433.54	444.70
433.72	376.83
433.91	376.83
434.10	411.93
434.28	461.09
434.47	390.87
434.66	409.59
434.85	360.44
435.03	404.91
435.22	425.98
435.41	402.57
435.59	388.53
435.78	402.57
435.97	433.00
436.16	451.72
436.34	404.91
436.53	414.27
436.72	430.66
436.90	477.47
437.09	390.87
437.28	374.49
437.46	400.23
437.65	400.23
437.84	447.04
438.02	418.96
438.21	411.93
438.40	409.59
438.58	381.51
438.77	475.13
438.96	463.43
439.14	355.76
439.33	440.02
439.52	414.27
439.70	362.78
439.89	437.68
440.08	440.02
440.26	397.89
440.45	433.00
440.63	402.57
440.82	437.68
441.01	423.64
441.19	404.91
441.38	407.25
441.57	451.72
441.75	383.85
441.94	360.44
442.12	416.62
442.31	428.32
442.50	416.62
442.68	402.57
442.87	400.23
443.05	414.27
443.24	425.98
443.43	461.09
443.61	531.30
443.80	409.59
443.98	397.89
444.17	365.12
444.35	388.53
444.54	402.57
444.73	353.42
444.91	451.72
445.10	444.70
445.28	447.04
445.47	411.93
445.65	449.38
445.84	393.21
446.02	425.98
446.21	461.09
446.39	351.08
446.58	355.76
446.77	470.45
446.95	367.46
447.14	344.06
447.32	444.70
447.51	444.70
447.69	442.36
447.88	440.02
448.06	425.98
448.25	369.80
448.43	358.10
448.62	383.85
448.80	425.98
448.99	465.77
449.17	390.87
449.36	362.78
449.54	358.10
449.73	416.62
449.91	369.80
450.10	428.32
450.28	456.40
450.46	531.30
450.65	444.70
450.83	519.60
451.02	330.02
451.20	433.00
451.39	362.78
451.57	390.87
451.76	442.36
451.94	425.98
452.13	428.32
452.31	491.51
452.49	496.19
452.68	402.57
452.86	386.19
453.05	397.89
453.23	425.98
453.42	388.53
453.60	395.55
453.78	358.10
453.97	386.19
454.15	346.40
454.34	379.17
454.52	447.04
454.70	418.96
454.89	461.09
455.07	409.59
455.26	433.00
455.44	447.04
455.62	442.36
455.81	425.98
455.99	393.21
456.17	372.15
456.36	409.59
456.54	447.04
456.73	397.89
456.91	404.91
457.09	454.06
457.28	407.25
457.46	397.89
457.64	423.64
457.83	400.23
458.01	463.43
458.19	400.23
458.38	320.65
458.56	404.91
458.74	442.36
458.93	414.27
459.11	418.96
459.29	390.87
459.48	442.36
459.66	440.02
459.84	355.76
460.03	500.87
460.21	365.12
460.39	421.30
460.57	465.77
460.76	437.68
460.94	306.61
461.12	411.93
461.31	407.25
461.49	376.83
461.67	411.93
461.85	404.91
462.04	416.62
462.22	774.72
462.40	470.45
462.59	437.68
462.77	407.25
462.95	395.55
463.13	360.44
463.32	461.09
463.50	468.11
463.68	358.10
463.86	475.13
464.05	472.79
464.23	358.10
464.41	479.81
464.59	433.00
464.78	386.19
464.96	407.25
465.14	430.66
465.32	383.85
465.50	442.36
465.69	435.34
465.87	374.49
466.05	365.12
466.23	400.23
466.41	421.30
466.60	444.70
466.78	491.51
466.96	437.68
467.14	435.34
467.32	475.13
467.51	414.27
467.69	440.02
467.87	465.77
468.05	355.76
468.23	383.85
468.41	465.77
468.60	456.40
468.78	449.38
468.96	430.66
469.14	388.53
469.32	395.55
469.50	402.57
469.69	411.93
469.87	491.51
470.05	360.44
470.23	395.55
470.41	428.32
470.59	416.62
470.77	409.59
470.95	423.64
471.14	433.00
471.32	451.72
471.50	461.09
471.68	372.15
471.86	496.19
472.04	355.76
472.22	346.40
472.40	418.96
472.58	337.04
472.77	332.36
472.95	479.81
473.13	402.57
473.31	428.32
473.49	348.74
473.67	341.72
473.85	397.89
474.03	456.40
474.21	358.10
474.39	430.66
474.57	486.83
474.75	421.30
474.93	409.59
475.12	433.00
475.30	376.83
475.48	369.80
475.66	423.64
475.84	344.06
476.02	470.45
476.20	369.80
476.38	388.53
476.56	486.83
476.74	451.72
476.92	362.78
477.10	454.06
477.28	521.94
477.46	456.40
477.64	400.23
477.82	428.32
478.00	404.91
478.18	514.92
478.36	372.15
478.54	400.23
478.72	433.00
478.90	463.43
479.08	372.15
479.26	383.85
479.44	411.93
479.62	334.70
479.80	430.66
479.98	400.23
480.16	416.62
480.34	444.70
480.52	428.32
480.70	428.32
480.88	383.85
481.06	409.59
481.24	315.97
481.41	451.72
481.59	468.11
481.77	433.00
481.95	418.96
482.13	428.32
482.31	358.10
482.49	411.93
482.67	430.66
482.85	400.23
483.03	461.09
483.21	393.21
483.39	428.32
483.57	418.96
483.74	404.91
483.92	372.15
484.10	440.02
484.28	395.55
484.46	521.94
484.64	393.21
484.82	430.66
485.00	397.89
485.18	416.62
485.35	451.72
485.53	428.32
485.71	468.11
485.89	381.51
486.07	320.65
486.25	404.91
486.43	353.42
486.61	425.98
486.78	451.72
486.96	320.65
487.14	442.36
487.32	435.34
487.50	421.30
487.68	437.68
487.85	332.36
488.03	425.98
488.21	404.91
488.39	395.55
488.57	402.57
488.75	386.19
488.92	475.13
489.10	374.49
489.28	465.77
489.46	393.21
489.64	400.23
489.81	425.98
489.99	447.04
490.17	397.89
490.35	421.30
490.53	442.36
490.70	379.17
490.88	442.36
491.06	358.10
491.24	383.85
491.41	400.23
491.59	449.38
491.77	365.12
491.95	414.27
492.13	355.76
492.30	461.09
492.48	400.23
492.66	369.80
492.84	397.89
493.01	470.45
493.19	409.59
493.37	451.72
493.54	461.09
493.72	379.17
493.90	390.87
494.08	407.25
494.25	461.09
494.43	418.96
494.61	433.00
494.79	351.08
494.96	414.27
495.14	442.36
495.32	372.15
495.49	397.89
495.67	395.55
495.85	393.21
496.02	381.51
496.20	433.00
496.38	468.11
496.55	393.21
496.73	423.64
496.91	379.17
497.09	451.72
497.26	388.53
497.44	388.53
497.62	386.19
497.79	404.91
497.97	437.68
498.14	376.83
498.32	372.15
498.50	409.59
498.67	456.40
498.85	407.25
499.03	365.12
499.20	395.55
499.38	411.93
499.56	433.00
499.73	491.51
499.91	461.09
500.08	449.38
500.26	437.68
500.44	404.91
500.61	447.04
500.79	437.68
500.97	486.83
501.14	411.93
501.32	430.66
501.49	554.71
501.67	376.83
501.84	449.38
502.02	423.64
502.20	512.58
502.37	433.00
502.55	397.89
502.72	381.51
502.90	468.11
503.07	386.19
503.25	414.27
503.43	390.87
503.60	440.02
503.78	404.91
503.95	407.25
504.13	365.12
504.30	393.21
504.48	468.11
504.65	423.64
504.83	433.00
505.01	390.87
505.18	318.31
505.36	421.30
505.53	440.02
505.71	360.44
505.88	393.21
506.06	374.49
506.23	416.62
506.41	386.19
506.58	468.11
506.76	388.53
506.93	442.36
507.11	428.32
507.28	411.93
507.46	411.93
507.63	416.62
507.81	482.15
507.98	454.06
508.16	470.45
508.33	468.11
508.50	411.93
508.68	496.19
508.85	407.25
509.03	351.08
509.20	360.44
509.38	393.21
509.55	512.58
509.73	468.11
509.90	423.64
510.08	407.25
510.25	418.96
510.42	383.85
510.60	465.77
510.77	435.34
510.95	444.70
511.12	411.93
511.30	451.72
511.47	423.64
511.64	484.49
511.82	444.70
511.99	411.93
512.17	346.40
512.34	430.66
512.51	416.62
512.69	390.87
512.86	407.25
513.04	423.64
513.21	402.57
513.38	409.59
513.56	327.68
513.73	486.83
513.90	414.27
514.08	414.27
514.25	447.04
514.43	423.64
514.60	376.83
514.77	442.36
514.95	444.70
515.12	386.19
515.29	341.72
515.47	425.98
515.64	423.64
515.81	353.42
515.99	414.27
516.16	386.19
516.33	454.06
516.51	449.38
516.68	393.21
516.85	418.96
517.03	433.00
517.20	442.36
517.37	428.32
517.54	484.49
517.72	421.30
517.89	437.68
518.06	365.12
518.24	418.96
518.41	461.09
518.58	433.00
518.75	376.83
518.93	479.81
519.10	404.91
519.27	332.36
519.45	355.76
519.62	440.02
519.79	421.30
519.96	374.49
520.14	414.27
520.31	358.10
520.48	409.59
520.65	407.25
520.83	386.19
521.00	461.09
521.17	479.81
521.34	341.72
521.52	456.40
521.69	423.64
521.86	388.53
522.03	346.40
522.20	376.83
522.38	475.13
522.55	397.89
522.72	367.46
522.89	400.23
523.07	475.13
523.24	456.40
523.41	388.53
523.58	397.89
523.75	386.19
523.92	458.74
524.10	463.43
524.27	404.91
524.44	400.23
524.61	423.64
524.78	428.32
524.96	477.47
525.13	402.57
525.30	430.66
525.47	425.98
525.64	374.49
525.81	437.68
525.98	411.93
526.16	400.23
526.33	355.76
526.50	418.96
526.67	435.34
526.84	397.89
527.01	397.89
527.18	430.66
527.36	437.68
527.53	430.66
527.70	428.32
527.87	423.64
528.04	402.57
528.21	397.89
528.38	421.30
528.55	411.93
528.72	491.51
528.89	411.93
529.07	388.53
529.24	404.91
529.41	409.59
529.58	430.66
529.75	395.55
529.92	404.91
530.09	414.27
530.26	393.21
530.43	369.80
530.60	444.70
530.77	351.08
530.94	437.68
531.11	407.25
531.28	449.38
531.46	425.98
531.63	416.62
531.80	376.83
531.97	475.13
532.14	400.23
532.31	444.70
532.48	395.55
532.65	477.47
532.82	407.25
532.99	449.38
533.16	418.96
533.33	475.13
533.50	425.98
533.67	451.72
533.84	430.66
534.01	411.93
534.18	418.96
534.35	322.99
534.52	414.27
534.69	475.13
534.86	360.44
535.03	379.17
535.20	409.59
535.37	404.91
535.54	404.91
535.71	414.27
535.88	421.30
536.05	332.36
536.22	372.15
536.38	381.51
536.55	393.21
536.72	444.70
536.89	390.87
537.06	465.77
537.23	407.25
537.40	414.27
537.57	334.70
537.74	444.70
537.91	409.59
538.08	421.30
538.25	444.70
538.42	500.87
538.59	430.66
538.75	411.93
538.92	393.21
539.09	477.47
539.26	456.40
539.43	475.13
539.60	418.96
539.77	421.30
539.94	360.44
540.11	479.81
540.28	489.17
540.44	425.98
540.61	444.70
540.78	444.70
540.95	390.87
541.12	444.70
541.29	444.70
541.46	367.46
541.62	433.00
541.79	433.00
541.96	332.36
542.13	407.25
542.30	461.09
542.47	442.36
542.63	372.15
542.80	500.87
542.97	416.62
543.14	386.19
543.31	423.64
543.48	425.98
543.64	458.74
543.81	463.43
543.98	416.62
544.15	369.80
544.32	351.08
544.48	365.12
544.65	411.93
544.82	418.96
544.99	358.10
545.16	447.04
545.32	393.21
545.49	397.89
545.66	428.32
545.83	379.17
546.00	437.68
546.16	442.36
546.33	418.96
546.50	416.62
546.67	505.56
546.83	376.83
547.00	388.53
547.17	388.53
547.34	400.23
547.50	465.77
547.67	416.62
547.84	383.85
548.00	393.21
548.17	411.93
548.34	393.21
548.51	414.27
548.67	358.10
548.84	355.76
549.01	430.66
549.18	393.21
549.34	395.55
549.51	461.09
549.68	428.32
549.84	402.57
550.01	400.23
550.18	493.85
550.34	395.55
550.51	383.85
550.68	390.87
550.84	517.26
551.01	421.30
551.18	428.32
551.34	456.40
551.51	442.36
551.68	505.56
551.84	397.89
552.01	418.96
552.18	355.76
552.34	442.36
552.51	393.21
552.68	379.17
552.84	484.49
553.01	348.74
553.18	449.38
553.34	404.91
553.51	404.91
553.67	409.59
553.84	451.72
554.01	418.96
554.17	491.51
554.34	367.46
554.51	341.72
554.67	402.57
554.84	407.25
555.00	503.22
555.17	404.91
555.33	407.25
555.50	404.91
555.67	411.93
555.83	348.74
556.00	421.30
556.16	545.34
556.33	437.68
556.50	456.40
556.66	400.23
556.83	433.00
556.99	344.06
557.16	409.59
557.32	374.49
557.49	421.30
557.65	397.89
557.82	430.66
557.98	493.85
558.15	449.38
558.32	393.21
558.48	423.64
558.65	449.38
558.81	435.34
558.98	425.98
559.14	372.15
559.31	454.06
559.47	444.70
559.64	451.72
559.80	458.74
559.97	397.89
560.13	409.59
560.30	463.43
560.46	407.25
560.63	374.49
560.79	433.00
560.96	421.30
561.12	458.74
561.29	397.89
561.45	339.38
561.61	433.00
561.78	425.98
561.94	374.49
562.11	393.21
562.27	496.19
562.44	397.89
562.60	376.83
562.77	404.91
562.93	505.56
563.10	440.02
563.26	468.11
563.42	454.06
563.59	327.68
563.75	400.23
563.92	454.06
564.08	447.04
564.24	430.66
564.41	489.17
564.57	376.83
564.74	418.96
564.90	451.72
565.07	418.96
565.23	507.90
565.39	386.19
565.56	449.38
565.72	479.81
565.88	423.64
566.05	435.34
566.21	461.09
566.38	390.87
566.54	447.04
566.70	388.53
566.87	374.49
567.03	404.91
567.19	414.27
567.36	496.19
567.52	421.30
567.68	428.32
567.85	451.72
568.01	421.30
568.17	372.15
568.34	416.62
568.50	447.04
568.66	318.31
568.83	435.34
568.99	376.83
569.15	524.28
569.32	362.78
569.48	451.72
569.64	486.83
569.81	411.93
569.97	449.38
570.13	381.51
570.30	428.32
570.46	418.96
570.62	433.00
570.78	407.25
570.95	372.15
571.11	470.45
571.27	458.74
571.43	353.42
571.60	393.21
571.76	418.96
571.92	421.30
572.09	369.80
572.25	425.98
572.41	374.49
572.57	409.59
572.74	475.13
572.90	442.36
573.06	423.64
573.22	397.89
573.38	465.77
573.55	400.23
573.71	402.57
573.87	414.27
574.03	369.80
574.20	397.89
574.36	428.32
574.52	454.06
574.68	386.19
574.84	528.96
575.01	454.06
575.17	423.64
575.33	346.40
575.49	461.09
575.65	472.79
575.82	449.38
575.98	435.34
576.14	454.06
576.30	376.83
576.46	386.19
576.62	397.89
576.79	390.87
576.95	498.53
577.11	477.47
577.27	451.72
577.43	395.55
577.59	435.34
577.75	428.32
577.92	416.62
578.08	505.56
578.24	360.44
578.40	346.40
578.56	482.15
578.72	451.72
578.88	454.06
579.04	425.98
579.21	381.51
579.37	395.55
579.53	404.91
579.69	393.21
579.85	418.96
580.01	407.25
580.17	381.51
580.33	444.70
580.49	421.30
580.65	465.77
580.82	454.06
580.98	355.76
581.14	414.27
581.30	507.90
581.46	482.15
581.62	433.00
581.78	411.93
581.94	404.91
582.10	456.40
582.26	397.89
582.42	435.34
582.58	451.72
582.74	390.87
582.90	374.49
583.06	386.19
583.22	383.85
583.38	411.93
583.54	442.36
583.70	437.68
583.86	411.93
584.02	372.15
584.18	510.24
584.34	374.49
584.50	372.15
584.66	414.27
584.82	402.57
584.98	414.27
585.14	440.02
585.30	372.15
585.46	428.32
585.62	468.11
585.78	411.93
585.94	400.23
586.10	430.66
586.26	418.96
586.42	470.45
586.58	383.85
586.74	386.19
586.90	425.98
587.06	461.09
587.22	418.96
587.38	379.17
587.54	358.10
587.70	447.04
587.86	451.72
588.02	409.59
588.18	344.06
588.34	456.40
588.49	374.49
588.65	372.15
588.81	425.98
588.97	418.96
589.13	383.85
589.29	390.87
589.45	454.06
589.61	423.64
589.77	463.43
589.93	407.25
590.08	458.74
590.24	376.83
590.40	442.36
590.56	421.30
590.72	407.25
590.88	409.59
591.04	423.64
591.20	442.36
591.35	407.25
591.51	479.81
591.67	418.96
591.83	341.72
591.99	428.32
592.15	397.89
592.31	428.32
592.46	442.36
592.62	402.57
592.78	440.02
592.94	299.59
593.10	404.91
593.26	458.74
593.41	444.70
593.57	374.49
593.73	421.30
593.89	458.74
594.05	348.74
594.20	388.53
594.36	496.19
594.52	418.96
594.68	402.57
594.84	458.74
594.99	465.77
595.15	430.66
595.31	482.15
595.47	458.74
595.62	376.83
595.78	376.83
595.94	421.30
596.10	456.40
596.25	388.53
596.41	425.98
596.57	393.21
596.73	404.91
596.88	418.96
597.04	400.23
597.20	386.19
597.36	433.00
597.51	393.21
597.67	430.66
597.83	409.59
597.99	425.98
598.14	400.23
598.30	489.17
598.46	442.36
598.61	425.98
598.77	395.55
598.93	400.23
599.09	404.91
599.24	358.10
599.40	423.64
599.56	409.59
599.71	489.17
599.87	425.98
600.03	465.77
600.18	491.51
600.34	421.30
600.50	330.02
600.65	390.87
600.81	447.04
600.97	433.00
601.12	372.15
601.28	440.02
601.44	404.91
601.59	468.11
601.75	411.93
601.91	418.96
602.06	386.19
602.22	393.21
602.37	486.83
602.53	414.27
602.69	360.44
602.84	444.70
603.00	430.66
603.16	442.36
603.31	435.34
603.47	365.12
603.62	416.62
603.78	414.27
603.94	383.85
604.09	444.70
604.25	418.96
604.40	433.00
604.56	409.59
604.71	449.38
604.87	388.53
605.03	407.25
605.18	409.59
605.34	451.72
605.49	400.23
605.65	444.70
605.80	348.74
605.96	388.53
606.12	496.19
606.27	451.72
606.43	393.21
606.58	442.36
606.74	454.06
606.89	444.70
607.05	477.47
607.20	402.57
607.36	433.00
607.51	402.57
607.67	386.19
607.82	374.49
607.98	447.04
608.13	393.21
608.29	463.43
608.44	454.06
608.60	475.13
608.75	390.87
608.91	435.34
609.06	430.66
609.22	425.98
609.37	491.51
609.53	416.62
609.68	430.66
609.84	404.91
609.99	416.62
610.15	397.89
