SpectraSuite Data File
++++++++++++++++++++++++++++++++++++
Date: Fri Oct 25 12:10:23 EDT 2013
User: price-jones
Dark Spectrum Present: No
Reference Spectrum Present: No
Number of Sampled Component Spectra: 1
Spectrometers: USB2+H05261
Integration Time (usec): 100000 (USB2+H05261)
Spectra Averaged: 1 (USB2+H05261)
Boxcar Smoothing: 0 (USB2+H05261)
Correct for Electrical Dark: No (USB2+H05261)
Strobe/Lamp Enabled: No (USB2+H05261)
Correct for Detector Non-linearity: No (USB2+H05261)
Correct for Stray Light: No (USB2+H05261)
Number of Pixels in Processed Spectrum: 2048
>>>>>Begin Processed Spectral Data<<<<<
365.73	360.44
365.92	360.44
366.12	360.44
366.32	243.42
366.52	248.10
366.72	241.08
366.91	159.16
367.11	259.80
367.31	182.56
367.51	234.05
367.70	273.84
367.90	266.82
368.10	234.05
368.30	278.52
368.49	217.67
368.69	292.57
368.89	243.42
369.09	271.50
369.28	266.82
369.48	217.67
369.68	250.44
369.87	264.48
370.07	269.16
370.27	337.04
370.47	313.63
370.66	362.78
370.86	367.46
371.06	421.30
371.25	402.57
371.45	402.57
371.65	409.59
371.84	332.36
372.04	379.17
372.24	355.76
372.44	381.51
372.63	383.85
372.83	390.87
373.03	374.49
373.22	322.99
373.42	416.62
373.62	423.64
373.81	365.12
374.01	369.80
374.21	442.36
374.40	418.96
374.60	454.06
374.79	449.38
374.99	407.25
375.19	397.89
375.38	353.42
375.58	404.91
375.78	470.45
375.97	433.00
376.17	409.59
376.37	451.72
376.56	428.32
376.76	425.98
376.95	381.51
377.15	505.56
377.35	421.30
377.54	444.70
377.74	411.93
377.93	332.36
378.13	381.51
378.33	409.59
378.52	390.87
378.72	465.77
378.91	433.00
379.11	435.34
379.31	365.12
379.50	416.62
379.70	402.57
379.89	430.66
380.09	362.78
380.28	381.51
380.48	390.87
380.68	411.93
380.87	428.32
381.07	433.00
381.26	449.38
381.46	444.70
381.65	369.80
381.85	360.44
382.04	416.62
382.24	442.36
382.43	444.70
382.63	414.27
382.83	472.79
383.02	395.55
383.22	425.98
383.41	402.57
383.61	402.57
383.80	393.21
384.00	393.21
384.19	463.43
384.39	416.62
384.58	409.59
384.78	407.25
384.97	411.93
385.17	393.21
385.36	332.36
385.56	334.70
385.75	409.59
385.95	367.46
386.14	411.93
386.34	404.91
386.53	421.30
386.72	421.30
386.92	444.70
387.11	351.08
387.31	484.49
387.50	400.23
387.70	404.91
387.89	411.93
388.09	358.10
388.28	425.98
388.48	369.80
388.67	393.21
388.86	393.21
389.06	360.44
389.25	395.55
389.45	402.57
389.64	397.89
389.84	393.21
390.03	447.04
390.22	388.53
390.42	425.98
390.61	358.10
390.81	397.89
391.00	451.72
391.19	423.64
391.39	386.19
391.58	444.70
391.78	444.70
391.97	358.10
392.16	365.12
392.36	477.47
392.55	367.46
392.75	416.62
392.94	449.38
393.13	416.62
393.33	294.91
393.52	374.49
393.71	447.04
393.91	421.30
394.10	388.53
394.29	402.57
394.49	337.04
394.68	416.62
394.88	449.38
395.07	421.30
395.26	372.15
395.46	353.42
395.65	416.62
395.84	411.93
396.04	440.02
396.23	346.40
396.42	388.53
396.62	409.59
396.81	407.25
397.00	409.59
397.19	393.21
397.39	411.93
397.58	435.34
397.77	472.79
397.97	416.62
398.16	447.04
398.35	348.74
398.55	425.98
398.74	435.34
398.93	421.30
399.12	388.53
399.32	425.98
399.51	381.51
399.70	395.55
399.90	442.36
400.09	395.55
400.28	369.80
400.47	409.59
400.67	374.49
400.86	428.32
401.05	442.36
401.24	386.19
401.44	409.59
401.63	440.02
401.82	461.09
402.01	475.13
402.21	414.27
402.40	395.55
402.59	482.15
402.78	477.47
402.97	440.02
403.17	404.91
403.36	423.64
403.55	447.04
403.74	376.83
403.93	358.10
404.13	395.55
404.32	374.49
404.51	388.53
404.70	416.62
404.89	430.66
405.09	388.53
405.28	341.72
405.47	346.40
405.66	425.98
405.85	449.38
406.05	381.51
406.24	313.63
406.43	404.91
406.62	388.53
406.81	482.15
407.00	444.70
407.20	435.34
407.39	423.64
407.58	437.68
407.77	341.72
407.96	435.34
408.15	442.36
408.34	465.77
408.54	381.51
408.73	390.87
408.92	355.76
409.11	395.55
409.30	435.34
409.49	447.04
409.68	381.51
409.87	402.57
410.07	404.91
410.26	463.43
410.45	423.64
410.64	400.23
410.83	430.66
411.02	418.96
411.21	416.62
411.40	404.91
411.59	341.72
411.78	400.23
411.98	433.00
412.17	339.38
412.36	468.11
412.55	388.53
412.74	397.89
412.93	393.21
413.12	390.87
413.31	407.25
413.50	423.64
413.69	362.78
413.88	407.25
414.07	447.04
414.26	374.49
414.45	468.11
414.64	430.66
414.83	383.85
415.02	348.74
415.22	360.44
415.41	374.49
415.60	444.70
415.79	367.46
415.98	435.34
416.17	409.59
416.36	404.91
416.55	381.51
416.74	454.06
416.93	454.06
417.12	397.89
417.31	435.34
417.50	318.31
417.69	411.93
417.88	425.98
418.07	404.91
418.26	404.91
418.45	395.55
418.64	470.45
418.83	458.74
419.02	468.11
419.21	386.19
419.39	365.12
419.58	447.04
419.77	404.91
419.96	395.55
420.15	416.62
420.34	390.87
420.53	390.87
420.72	454.06
420.91	454.06
421.10	320.65
421.29	456.40
421.48	395.55
421.67	428.32
421.86	414.27
422.05	367.46
422.24	423.64
422.43	397.89
422.61	346.40
422.80	341.72
422.99	362.78
423.18	390.87
423.37	390.87
423.56	440.02
423.75	341.72
423.94	374.49
424.13	358.10
424.32	397.89
424.50	444.70
424.69	365.12
424.88	395.55
425.07	421.30
425.26	374.49
425.45	407.25
425.64	421.30
425.83	486.83
426.01	407.25
426.20	369.80
426.39	416.62
426.58	425.98
426.77	388.53
426.96	402.57
427.15	379.17
427.33	416.62
427.52	353.42
427.71	500.87
427.90	376.83
428.09	388.53
428.28	390.87
428.46	351.08
428.65	402.57
428.84	374.49
429.03	440.02
429.22	374.49
429.40	374.49
429.59	372.15
429.78	416.62
429.97	463.43
430.16	442.36
430.34	400.23
430.53	402.57
430.72	461.09
430.91	528.96
431.10	425.98
431.28	386.19
431.47	440.02
431.66	463.43
431.85	360.44
432.03	454.06
432.22	409.59
432.41	397.89
432.60	531.30
432.79	461.09
432.97	325.33
433.16	416.62
433.35	414.27
433.54	374.49
433.72	416.62
433.91	444.70
434.10	470.45
434.28	456.40
434.47	374.49
434.66	444.70
434.85	435.34
435.03	388.53
435.22	435.34
435.41	451.72
435.59	339.38
435.78	425.98
435.97	425.98
436.16	447.04
436.34	440.02
436.53	468.11
436.72	416.62
436.90	388.53
437.09	447.04
437.28	428.32
437.46	442.36
437.65	407.25
437.84	414.27
438.02	414.27
438.21	435.34
438.40	379.17
438.58	379.17
438.77	416.62
438.96	433.00
439.14	519.60
439.33	425.98
439.52	372.15
439.70	425.98
439.89	472.79
440.08	444.70
440.26	388.53
440.45	418.96
440.63	472.79
440.82	383.85
441.01	411.93
441.19	416.62
441.38	421.30
441.57	416.62
441.75	489.17
441.94	423.64
442.12	416.62
442.31	407.25
442.50	442.36
442.68	411.93
442.87	498.53
443.05	358.10
443.24	397.89
443.43	463.43
443.61	397.89
443.80	435.34
443.98	430.66
444.17	409.59
444.35	383.85
444.54	341.72
444.73	430.66
444.91	416.62
445.10	332.36
445.28	353.42
445.47	400.23
445.65	386.19
445.84	386.19
446.02	379.17
446.21	428.32
446.39	416.62
446.58	334.70
446.77	465.77
446.95	437.68
447.14	409.59
447.32	447.04
447.51	407.25
447.69	397.89
447.88	397.89
448.06	456.40
448.25	400.23
448.43	444.70
448.62	369.80
448.80	421.30
448.99	409.59
449.17	425.98
449.36	428.32
449.54	339.38
449.73	400.23
449.91	369.80
450.10	414.27
450.28	463.43
450.46	404.91
450.65	355.76
450.83	404.91
451.02	376.83
451.20	381.51
451.39	430.66
451.57	383.85
451.76	383.85
451.94	421.30
452.13	411.93
452.31	449.38
452.49	404.91
452.68	372.15
452.86	372.15
453.05	465.77
453.23	449.38
453.42	411.93
453.60	400.23
453.78	456.40
453.97	411.93
454.15	402.57
454.34	440.02
454.52	402.57
454.70	449.38
454.89	414.27
455.07	355.76
455.26	376.83
455.44	423.64
455.62	386.19
455.81	407.25
455.99	430.66
456.17	425.98
456.36	461.09
456.54	337.04
456.73	376.83
456.91	325.33
457.09	425.98
457.28	402.57
457.46	351.08
457.64	447.04
457.83	423.64
458.01	414.27
458.19	418.96
458.38	416.62
458.56	458.74
458.74	341.72
458.93	379.17
459.11	383.85
459.29	367.46
459.48	423.64
459.66	461.09
459.84	409.59
460.03	475.13
460.21	447.04
460.39	376.83
460.57	435.34
460.76	430.66
460.94	393.21
461.12	421.30
461.31	463.43
461.49	486.83
461.67	433.00
461.85	409.59
462.04	365.12
462.22	788.76
462.40	451.72
462.59	437.68
462.77	454.06
462.95	374.49
463.13	435.34
463.32	435.34
463.50	402.57
463.68	425.98
463.86	402.57
464.05	393.21
464.23	456.40
464.41	440.02
464.59	353.42
464.78	404.91
464.96	395.55
465.14	388.53
465.32	475.13
465.50	411.93
465.69	386.19
465.87	332.36
466.05	386.19
466.23	482.15
466.41	414.27
466.60	444.70
466.78	498.53
466.96	393.21
467.14	402.57
467.32	395.55
467.51	465.77
467.69	444.70
467.87	425.98
468.05	402.57
468.23	472.79
468.41	435.34
468.60	334.70
468.78	351.08
468.96	416.62
469.14	397.89
469.32	369.80
469.50	290.23
469.69	454.06
469.87	414.27
470.05	428.32
470.23	428.32
470.41	449.38
470.59	416.62
470.77	503.22
470.95	369.80
471.14	393.21
471.32	447.04
471.50	421.30
471.68	402.57
471.86	369.80
472.04	447.04
472.22	444.70
472.40	402.57
472.58	447.04
472.77	386.19
472.95	440.02
473.13	418.96
473.31	465.77
473.49	360.44
473.67	379.17
473.85	348.74
474.03	444.70
474.21	435.34
474.39	440.02
474.57	421.30
474.75	433.00
474.93	376.83
475.12	346.40
475.30	414.27
475.48	411.93
475.66	435.34
475.84	330.02
476.02	411.93
476.20	477.47
476.38	421.30
476.56	367.46
476.74	381.51
476.92	491.51
477.10	463.43
477.28	393.21
477.46	404.91
477.64	430.66
477.82	416.62
478.00	407.25
478.18	409.59
478.36	409.59
478.54	418.96
478.72	440.02
478.90	486.83
479.08	355.76
479.26	381.51
479.44	444.70
479.62	374.49
479.80	337.04
479.98	395.55
480.16	407.25
480.34	442.36
480.52	404.91
480.70	430.66
480.88	386.19
481.06	393.21
481.24	397.89
481.41	416.62
481.59	395.55
481.77	430.66
481.95	383.85
482.13	386.19
482.31	390.87
482.49	330.02
482.67	390.87
482.85	395.55
483.03	489.17
483.21	397.89
483.39	416.62
483.57	416.62
483.74	514.92
483.92	411.93
484.10	365.12
484.28	428.32
484.46	447.04
484.64	409.59
484.82	390.87
485.00	407.25
485.18	425.98
485.35	395.55
485.53	407.25
485.71	486.83
485.89	376.83
486.07	440.02
486.25	421.30
486.43	367.46
486.61	383.85
486.78	407.25
486.96	362.78
487.14	418.96
487.32	344.06
487.50	416.62
487.68	472.79
487.85	376.83
488.03	444.70
488.21	442.36
488.39	442.36
488.57	411.93
488.75	449.38
488.92	524.28
489.10	414.27
489.28	479.81
489.46	475.13
489.64	423.64
489.81	358.10
489.99	388.53
490.17	461.09
490.35	465.77
490.53	367.46
490.70	475.13
490.88	454.06
491.06	351.08
491.24	470.45
491.41	388.53
491.59	351.08
491.77	404.91
491.95	423.64
492.13	400.23
492.30	353.42
492.48	393.21
492.66	372.15
492.84	374.49
493.01	428.32
493.19	381.51
493.37	404.91
493.54	376.83
493.72	390.87
493.90	433.00
494.08	425.98
494.25	435.34
494.43	449.38
494.61	362.78
494.79	374.49
494.96	397.89
495.14	383.85
495.32	435.34
495.49	367.46
495.67	369.80
495.85	395.55
496.02	374.49
496.20	369.80
496.38	393.21
496.55	430.66
496.73	411.93
496.91	390.87
497.09	425.98
497.26	468.11
497.44	367.46
497.62	388.53
497.79	416.62
497.97	414.27
498.14	383.85
498.32	393.21
498.50	418.96
498.67	390.87
498.85	400.23
499.03	397.89
499.20	433.00
499.38	475.13
499.56	390.87
499.73	425.98
499.91	437.68
500.08	418.96
500.26	407.25
500.44	374.49
500.61	411.93
500.79	425.98
500.97	381.51
501.14	414.27
501.32	418.96
501.49	475.13
501.67	379.17
501.84	402.57
502.02	402.57
502.20	461.09
502.37	477.47
502.55	414.27
502.72	479.81
502.90	397.89
503.07	433.00
503.25	400.23
503.43	414.27
503.60	433.00
503.78	444.70
503.95	414.27
504.13	362.78
504.30	402.57
504.48	407.25
504.65	433.00
504.83	491.51
505.01	477.47
505.18	451.72
505.36	447.04
505.53	430.66
505.71	477.47
505.88	428.32
506.06	479.81
506.23	409.59
506.41	414.27
506.58	325.33
506.76	374.49
506.93	423.64
507.11	437.68
507.28	355.76
507.46	369.80
507.63	430.66
507.81	444.70
507.98	472.79
508.16	365.12
508.33	414.27
508.50	407.25
508.68	411.93
508.85	437.68
509.03	491.51
509.20	404.91
509.38	374.49
509.55	411.93
509.73	479.81
509.90	423.64
510.08	315.97
510.25	472.79
510.42	372.15
510.60	463.43
510.77	425.98
510.95	444.70
511.12	435.34
511.30	400.23
511.47	327.68
511.64	407.25
511.82	355.76
511.99	372.15
512.17	461.09
512.34	404.91
512.51	374.49
512.69	365.12
512.86	454.06
513.04	393.21
513.21	437.68
513.38	423.64
513.56	440.02
513.73	411.93
513.90	388.53
514.08	409.59
514.25	435.34
514.43	486.83
514.60	402.57
514.77	421.30
514.95	454.06
515.12	376.83
515.29	435.34
515.47	397.89
515.64	393.21
515.81	425.98
515.99	451.72
516.16	440.02
516.33	409.59
516.51	360.44
516.68	388.53
516.85	447.04
517.03	465.77
517.20	486.83
517.37	465.77
517.54	524.28
517.72	360.44
517.89	433.00
518.06	451.72
518.24	477.47
518.41	456.40
518.58	440.02
518.75	449.38
518.93	404.91
519.10	425.98
519.27	369.80
519.45	440.02
519.62	372.15
519.79	423.64
519.96	468.11
520.14	456.40
520.31	491.51
520.48	444.70
520.65	449.38
520.83	425.98
521.00	386.19
521.17	442.36
521.34	442.36
521.52	397.89
521.69	437.68
521.86	367.46
522.03	421.30
522.20	468.11
522.38	421.30
522.55	442.36
522.72	367.46
522.89	372.15
523.07	447.04
523.24	479.81
523.41	416.62
523.58	444.70
523.75	383.85
523.92	379.17
524.10	468.11
524.27	444.70
524.44	379.17
524.61	468.11
524.78	374.49
524.96	411.93
525.13	437.68
525.30	491.51
525.47	447.04
525.64	418.96
525.81	383.85
525.98	409.59
526.16	442.36
526.33	411.93
526.50	388.53
526.67	360.44
526.84	369.80
527.01	372.15
527.18	379.17
527.36	451.72
527.53	386.19
527.70	507.90
527.87	395.55
528.04	421.30
528.21	425.98
528.38	479.81
528.55	451.72
528.72	423.64
528.89	475.13
529.07	330.02
529.24	416.62
529.41	416.62
529.58	388.53
529.75	393.21
529.92	442.36
530.09	463.43
530.26	418.96
530.43	400.23
530.60	400.23
530.77	397.89
530.94	451.72
531.11	404.91
531.28	437.68
531.46	362.78
531.63	400.23
531.80	475.13
531.97	451.72
532.14	400.23
532.31	381.51
532.48	381.51
532.65	472.79
532.82	400.23
532.99	428.32
533.16	573.43
533.33	435.34
533.50	386.19
533.67	423.64
533.84	440.02
534.01	400.23
534.18	397.89
534.35	351.08
534.52	440.02
534.69	418.96
534.86	440.02
535.03	472.79
535.20	414.27
535.37	461.09
535.54	437.68
535.71	362.78
535.88	381.51
536.05	451.72
536.22	353.42
536.38	341.72
536.55	442.36
536.72	416.62
536.89	369.80
537.06	372.15
537.23	351.08
537.40	477.47
537.57	454.06
537.74	421.30
537.91	465.77
538.08	456.40
538.25	379.17
538.42	393.21
538.59	519.60
538.75	418.96
538.92	409.59
539.09	430.66
539.26	374.49
539.43	454.06
539.60	423.64
539.77	395.55
539.94	468.11
540.11	482.15
540.28	475.13
540.44	451.72
540.61	435.34
540.78	454.06
540.95	454.06
541.12	411.93
541.29	383.85
541.46	479.81
541.62	472.79
541.79	404.91
541.96	458.74
542.13	437.68
542.30	374.49
542.47	407.25
542.63	531.30
542.80	463.43
542.97	425.98
543.14	402.57
543.31	451.72
543.48	463.43
543.64	444.70
543.81	421.30
543.98	449.38
544.15	414.27
544.32	404.91
544.48	393.21
544.65	379.17
544.82	430.66
544.99	362.78
545.16	416.62
545.32	430.66
545.49	482.15
545.66	411.93
545.83	444.70
546.00	442.36
546.16	437.68
546.33	423.64
546.50	440.02
546.67	465.77
546.83	435.34
547.00	369.80
547.17	372.15
547.34	362.78
547.50	435.34
547.67	440.02
547.84	456.40
548.00	477.47
548.17	344.06
548.34	407.25
548.51	362.78
548.67	372.15
548.84	416.62
549.01	486.83
549.18	435.34
549.34	433.00
549.51	433.00
549.68	468.11
549.84	411.93
550.01	409.59
550.18	365.12
550.34	498.53
550.51	423.64
550.68	425.98
550.84	369.80
551.01	428.32
551.18	423.64
551.34	428.32
551.51	365.12
551.68	351.08
551.84	423.64
552.01	397.89
552.18	465.77
552.34	404.91
552.51	442.36
552.68	365.12
552.84	461.09
553.01	374.49
553.18	451.72
553.34	390.87
553.51	444.70
553.67	351.08
553.84	461.09
554.01	440.02
554.17	402.57
554.34	414.27
554.51	475.13
554.67	423.64
554.84	425.98
555.00	423.64
555.17	374.49
555.33	407.25
555.50	447.04
555.67	404.91
555.83	372.15
556.00	395.55
556.16	540.66
556.33	500.87
556.50	479.81
556.66	477.47
556.83	430.66
556.99	447.04
557.16	447.04
557.32	374.49
557.49	472.79
557.65	379.17
557.82	454.06
557.98	475.13
558.15	430.66
558.32	388.53
558.48	421.30
558.65	454.06
558.81	451.72
558.98	374.49
559.14	376.83
559.31	390.87
559.47	463.43
559.64	435.34
559.80	458.74
559.97	404.91
560.13	435.34
560.30	449.38
560.46	397.89
560.63	409.59
560.79	390.87
560.96	451.72
561.12	430.66
561.29	465.77
561.45	367.46
561.61	292.57
561.78	433.00
561.94	407.25
562.11	386.19
562.27	442.36
562.44	477.47
562.60	404.91
562.77	400.23
562.93	425.98
563.10	367.46
563.26	414.27
563.42	447.04
563.59	390.87
563.75	433.00
563.92	444.70
564.08	435.34
564.24	383.85
564.41	447.04
564.57	393.21
564.74	397.89
564.90	435.34
565.07	414.27
565.23	390.87
565.39	404.91
565.56	465.77
565.72	404.91
565.88	442.36
566.05	402.57
566.21	414.27
566.38	407.25
566.54	362.78
566.70	388.53
566.87	358.10
567.03	418.96
567.19	395.55
567.36	477.47
567.52	472.79
567.68	411.93
567.85	409.59
568.01	409.59
568.17	470.45
568.34	456.40
568.50	437.68
568.66	468.11
568.83	458.74
568.99	348.74
569.15	463.43
569.32	418.96
569.48	428.32
569.64	360.44
569.81	421.30
569.97	353.42
570.13	421.30
570.30	355.76
570.46	482.15
570.62	468.11
570.78	437.68
570.95	461.09
571.11	425.98
571.27	454.06
571.43	362.78
571.60	390.87
571.76	388.53
571.92	379.17
572.09	418.96
572.25	430.66
572.41	411.93
572.57	344.06
572.74	440.02
572.90	475.13
573.06	451.72
573.22	425.98
573.38	437.68
573.55	372.15
573.71	451.72
573.87	442.36
574.03	461.09
574.20	505.56
574.36	437.68
574.52	433.00
574.68	458.74
574.84	404.91
575.01	383.85
575.17	477.47
575.33	369.80
575.49	465.77
575.65	381.51
575.82	421.30
575.98	409.59
576.14	367.46
576.30	442.36
576.46	372.15
576.62	390.87
576.79	390.87
576.95	421.30
577.11	409.59
577.27	496.19
577.43	418.96
577.59	449.38
577.75	447.04
577.92	416.62
578.08	423.64
578.24	437.68
578.40	414.27
578.56	400.23
578.72	440.02
578.88	390.87
579.04	397.89
579.21	393.21
579.37	454.06
579.53	416.62
579.69	449.38
579.85	433.00
580.01	409.59
580.17	358.10
580.33	390.87
580.49	418.96
580.65	470.45
580.82	355.76
580.98	444.70
581.14	454.06
581.30	442.36
581.46	437.68
581.62	423.64
581.78	365.12
581.94	442.36
582.10	395.55
582.26	388.53
582.42	383.85
582.58	374.49
582.74	416.62
582.90	416.62
583.06	444.70
583.22	416.62
583.38	409.59
583.54	435.34
583.70	458.74
583.86	433.00
584.02	360.44
584.18	458.74
584.34	493.85
584.50	442.36
584.66	418.96
584.82	435.34
584.98	376.83
585.14	386.19
585.30	379.17
585.46	447.04
585.62	390.87
585.78	425.98
585.94	409.59
586.10	416.62
586.26	416.62
586.42	381.51
586.58	454.06
586.74	463.43
586.90	447.04
587.06	421.30
587.22	421.30
587.38	393.21
587.54	428.32
587.70	440.02
587.86	491.51
588.02	475.13
588.18	418.96
588.34	472.79
588.49	386.19
588.65	414.27
588.81	423.64
588.97	390.87
589.13	451.72
589.29	367.46
589.45	418.96
589.61	444.70
589.77	447.04
589.93	463.43
590.08	355.76
590.24	444.70
590.40	454.06
590.56	409.59
590.72	393.21
590.88	425.98
591.04	442.36
591.20	374.49
591.35	440.02
591.51	423.64
591.67	433.00
591.83	423.64
591.99	400.23
592.15	395.55
592.31	404.91
592.46	379.17
592.62	376.83
592.78	376.83
592.94	374.49
593.10	510.24
593.26	437.68
593.41	477.47
593.57	456.40
593.73	416.62
593.89	491.51
594.05	393.21
594.20	393.21
594.36	451.72
594.52	435.34
594.68	477.47
594.84	433.00
594.99	470.45
595.15	435.34
595.31	500.87
595.47	503.22
595.62	421.30
595.78	433.00
595.94	456.40
596.10	442.36
596.25	423.64
596.41	411.93
596.57	348.74
596.73	407.25
596.88	400.23
597.04	386.19
597.20	418.96
597.36	416.62
597.51	388.53
597.67	468.11
597.83	498.53
597.99	423.64
598.14	456.40
598.30	362.78
598.46	437.68
598.61	404.91
598.77	447.04
598.93	355.76
599.09	472.79
599.24	358.10
599.40	393.21
599.56	444.70
599.71	379.17
599.87	386.19
600.03	393.21
600.18	433.00
600.34	320.65
600.50	418.96
600.65	461.09
600.81	423.64
600.97	423.64
601.12	393.21
601.28	400.23
601.44	430.66
601.59	416.62
601.75	395.55
601.91	365.12
602.06	402.57
602.22	479.81
602.37	367.46
602.53	379.17
602.69	379.17
602.84	416.62
603.00	404.91
603.16	430.66
603.31	428.32
603.47	421.30
603.62	411.93
603.78	482.15
603.94	470.45
604.09	376.83
604.25	393.21
604.40	388.53
604.56	404.91
604.71	395.55
604.87	423.64
605.03	404.91
605.18	435.34
605.34	395.55
605.49	475.13
605.65	416.62
605.80	447.04
605.96	400.23
606.12	444.70
606.27	428.32
606.43	393.21
606.58	397.89
606.74	365.12
606.89	372.15
607.05	383.85
607.20	379.17
607.36	447.04
607.51	433.00
607.67	454.06
607.82	449.38
607.98	437.68
608.13	358.10
608.29	348.74
608.44	458.74
608.60	458.74
608.75	393.21
608.91	416.62
609.06	491.51
609.22	447.04
609.37	355.76
609.53	348.74
609.68	414.27
609.84	447.04
609.99	418.96
610.15	463.43
