SpectraSuite Data File
++++++++++++++++++++++++++++++++++++
Date: Fri Oct 25 12:10:57 EDT 2013
User: price-jones
Dark Spectrum Present: No
Reference Spectrum Present: No
Number of Sampled Component Spectra: 1
Spectrometers: USB2+H05261
Integration Time (usec): 100000 (USB2+H05261)
Spectra Averaged: 1 (USB2+H05261)
Boxcar Smoothing: 0 (USB2+H05261)
Correct for Electrical Dark: No (USB2+H05261)
Strobe/Lamp Enabled: No (USB2+H05261)
Correct for Detector Non-linearity: No (USB2+H05261)
Correct for Stray Light: No (USB2+H05261)
Number of Pixels in Processed Spectrum: 2048
>>>>>Begin Processed Spectral Data<<<<<
365.73	390.87
365.92	390.87
366.12	390.87
366.32	245.76
366.52	318.31
366.72	182.56
366.91	255.12
367.11	248.10
367.31	227.03
367.51	273.84
367.70	259.80
367.90	220.01
368.10	252.78
368.30	220.01
368.49	175.54
368.69	262.14
368.89	266.82
369.09	299.59
369.28	271.50
369.48	262.14
369.68	327.68
369.87	301.93
370.07	313.63
370.27	297.25
370.47	297.25
370.66	271.50
370.86	362.78
371.06	332.36
371.25	397.89
371.45	372.15
371.65	362.78
371.84	334.70
372.04	325.33
372.24	325.33
372.44	390.87
372.63	395.55
372.83	414.27
373.03	411.93
373.22	409.59
373.42	379.17
373.62	393.21
373.81	421.30
374.01	456.40
374.21	430.66
374.40	402.57
374.60	418.96
374.79	397.89
374.99	362.78
375.19	337.04
375.38	418.96
375.58	425.98
375.78	400.23
375.97	484.49
376.17	496.19
376.37	414.27
376.56	386.19
376.76	397.89
376.95	376.83
377.15	456.40
377.35	489.17
377.54	414.27
377.74	416.62
377.93	397.89
378.13	358.10
378.33	409.59
378.52	418.96
378.72	454.06
378.91	440.02
379.11	449.38
379.31	409.59
379.50	421.30
379.70	479.81
379.89	428.32
380.09	346.40
380.28	404.91
380.48	374.49
380.68	360.44
380.87	442.36
381.07	409.59
381.26	451.72
381.46	374.49
381.65	442.36
381.85	411.93
382.04	386.19
382.24	435.34
382.43	454.06
382.63	379.17
382.83	454.06
383.02	440.02
383.22	482.15
383.41	395.55
383.61	423.64
383.80	435.34
384.00	355.76
384.19	388.53
384.39	402.57
384.58	393.21
384.78	404.91
384.97	435.34
385.17	425.98
385.36	465.77
385.56	421.30
385.75	423.64
385.95	393.21
386.14	362.78
386.34	353.42
386.53	423.64
386.72	407.25
386.92	416.62
387.11	451.72
387.31	421.30
387.50	409.59
387.70	362.78
387.89	449.38
388.09	447.04
388.28	379.17
388.48	395.55
388.67	395.55
388.86	332.36
389.06	315.97
389.25	355.76
389.45	332.36
389.64	409.59
389.84	491.51
390.03	421.30
390.22	402.57
390.42	425.98
390.61	348.74
390.81	308.95
391.00	411.93
391.19	404.91
391.39	362.78
391.58	461.09
391.78	435.34
391.97	372.15
392.16	411.93
392.36	423.64
392.55	433.00
392.75	376.83
392.94	458.74
393.13	416.62
393.33	383.85
393.52	383.85
393.71	435.34
393.91	374.49
394.10	372.15
394.29	418.96
394.49	416.62
394.68	386.19
394.88	395.55
395.07	374.49
395.26	430.66
395.46	461.09
395.65	416.62
395.84	397.89
396.04	433.00
396.23	407.25
396.42	444.70
396.62	425.98
396.81	437.68
397.00	435.34
397.19	421.30
397.39	353.42
397.58	418.96
397.77	435.34
397.97	435.34
398.16	355.76
398.35	435.34
398.55	362.78
398.74	444.70
398.93	418.96
399.12	374.49
399.32	468.11
399.51	428.32
399.70	458.74
399.90	435.34
400.09	416.62
400.28	374.49
400.47	369.80
400.67	402.57
400.86	334.70
401.05	334.70
401.24	388.53
401.44	458.74
401.63	447.04
401.82	402.57
402.01	358.10
402.21	407.25
402.40	416.62
402.59	400.23
402.78	353.42
402.97	414.27
403.17	440.02
403.36	435.34
403.55	383.85
403.74	381.51
403.93	468.11
404.13	442.36
404.32	365.12
404.51	407.25
404.70	428.32
404.89	440.02
405.09	451.72
405.28	440.02
405.47	372.15
405.66	461.09
405.85	433.00
406.05	407.25
406.24	482.15
406.43	425.98
406.62	425.98
406.81	440.02
407.00	437.68
407.20	449.38
407.39	344.06
407.58	435.34
407.77	479.81
407.96	418.96
408.15	383.85
408.34	360.44
408.54	369.80
408.73	376.83
408.92	393.21
409.11	397.89
409.30	496.19
409.49	395.55
409.68	463.43
409.87	493.85
410.07	428.32
410.26	351.08
410.45	428.32
410.64	409.59
410.83	379.17
411.02	407.25
411.21	512.58
411.40	465.77
411.59	440.02
411.78	414.27
411.98	358.10
412.17	400.23
412.36	449.38
412.55	367.46
412.74	409.59
412.93	468.11
413.12	447.04
413.31	437.68
413.50	395.55
413.69	332.36
413.88	407.25
414.07	407.25
414.26	414.27
414.45	365.12
414.64	367.46
414.83	339.38
415.02	369.80
415.22	367.46
415.41	411.93
415.60	395.55
415.79	395.55
415.98	360.44
416.17	344.06
416.36	395.55
416.55	461.09
416.74	411.93
416.93	416.62
417.12	421.30
417.31	409.59
417.50	402.57
417.69	442.36
417.88	374.49
418.07	433.00
418.26	442.36
418.45	372.15
418.64	416.62
418.83	409.59
419.02	400.23
419.21	428.32
419.39	428.32
419.58	393.21
419.77	390.87
419.96	449.38
420.15	407.25
420.34	421.30
420.53	414.27
420.72	348.74
420.91	486.83
421.10	367.46
421.29	395.55
421.48	395.55
421.67	400.23
421.86	388.53
422.05	358.10
422.24	383.85
422.43	433.00
422.61	395.55
422.80	479.81
422.99	381.51
423.18	379.17
423.37	479.81
423.56	456.40
423.75	414.27
423.94	437.68
424.13	404.91
424.32	451.72
424.50	414.27
424.69	372.15
424.88	418.96
425.07	390.87
425.26	433.00
425.45	435.34
425.64	425.98
425.83	344.06
426.01	383.85
426.20	433.00
426.39	458.74
426.58	458.74
426.77	411.93
426.96	418.96
427.15	435.34
427.33	440.02
427.52	402.57
427.71	386.19
427.90	447.04
428.09	468.11
428.28	437.68
428.46	425.98
428.65	381.51
428.84	402.57
429.03	367.46
429.22	397.89
429.40	416.62
429.59	421.30
429.78	479.81
429.97	409.59
430.16	407.25
430.34	362.78
430.53	346.40
430.72	472.79
430.91	423.64
431.10	433.00
431.28	425.98
431.47	437.68
431.66	444.70
431.85	402.57
432.03	379.17
432.22	475.13
432.41	341.72
432.60	428.32
432.79	390.87
432.97	442.36
433.16	383.85
433.35	416.62
433.54	411.93
433.72	404.91
433.91	367.46
434.10	430.66
434.28	383.85
434.47	369.80
434.66	411.93
434.85	388.53
435.03	458.74
435.22	451.72
435.41	517.26
435.59	421.30
435.78	449.38
435.97	444.70
436.16	454.06
436.34	421.30
436.53	454.06
436.72	451.72
436.90	402.57
437.09	397.89
437.28	428.32
437.46	425.98
437.65	400.23
437.84	388.53
438.02	362.78
438.21	386.19
438.40	447.04
438.58	435.34
438.77	379.17
438.96	423.64
439.14	454.06
439.33	440.02
439.52	425.98
439.70	521.94
439.89	425.98
440.08	456.40
440.26	388.53
440.45	376.83
440.63	407.25
440.82	451.72
441.01	402.57
441.19	421.30
441.38	374.49
441.57	383.85
441.75	451.72
441.94	465.77
442.12	435.34
442.31	393.21
442.50	411.93
442.68	376.83
442.87	374.49
443.05	493.85
443.24	500.87
443.43	498.53
443.61	484.49
443.80	395.55
443.98	423.64
444.17	416.62
444.35	367.46
444.54	409.59
444.73	447.04
444.91	409.59
445.10	339.38
445.28	470.45
445.47	397.89
445.65	383.85
445.84	407.25
446.02	383.85
446.21	369.80
446.39	416.62
446.58	346.40
446.77	440.02
446.95	400.23
447.14	444.70
447.32	484.49
447.51	388.53
447.69	393.21
447.88	383.85
448.06	425.98
448.25	376.83
448.43	475.13
448.62	409.59
448.80	468.11
448.99	369.80
449.17	454.06
449.36	395.55
449.54	369.80
449.73	407.25
449.91	404.91
450.10	358.10
450.28	430.66
450.46	423.64
450.65	470.45
450.83	510.24
451.02	374.49
451.20	397.89
451.39	367.46
451.57	440.02
451.76	400.23
451.94	409.59
452.13	491.51
452.31	390.87
452.49	369.80
452.68	393.21
452.86	500.87
453.05	433.00
453.23	404.91
453.42	362.78
453.60	285.55
453.78	362.78
453.97	383.85
454.15	404.91
454.34	440.02
454.52	376.83
454.70	442.36
454.89	397.89
455.07	344.06
455.26	454.06
455.44	379.17
455.62	430.66
455.81	397.89
455.99	383.85
456.17	479.81
456.36	449.38
456.54	437.68
456.73	365.12
456.91	372.15
457.09	411.93
457.28	477.47
457.46	409.59
457.64	407.25
457.83	414.27
458.01	479.81
458.19	479.81
458.38	388.53
458.56	400.23
458.74	404.91
458.93	416.62
459.11	409.59
459.29	397.89
459.48	416.62
459.66	404.91
459.84	395.55
460.03	447.04
460.21	418.96
460.39	400.23
460.57	416.62
460.76	430.66
460.94	425.98
461.12	472.79
461.31	379.17
461.49	372.15
461.67	386.19
461.85	372.15
462.04	376.83
462.22	786.42
462.40	458.74
462.59	411.93
462.77	416.62
462.95	414.27
463.13	348.74
463.32	411.93
463.50	409.59
463.68	456.40
463.86	442.36
464.05	411.93
464.23	404.91
464.41	411.93
464.59	400.23
464.78	411.93
464.96	379.17
465.14	409.59
465.32	428.32
465.50	510.24
465.69	447.04
465.87	437.68
466.05	409.59
466.23	369.80
466.41	437.68
466.60	379.17
466.78	337.04
466.96	454.06
467.14	390.87
467.32	444.70
467.51	498.53
467.69	437.68
467.87	451.72
468.05	447.04
468.23	472.79
468.41	463.43
468.60	470.45
468.78	442.36
468.96	414.27
469.14	351.08
469.32	428.32
469.50	447.04
469.69	435.34
469.87	489.17
470.05	461.09
470.23	388.53
470.41	341.72
470.59	430.66
470.77	395.55
470.95	425.98
471.14	456.40
471.32	400.23
471.50	425.98
471.68	365.12
471.86	351.08
472.04	416.62
472.22	409.59
472.40	440.02
472.58	442.36
472.77	379.17
472.95	461.09
473.13	440.02
473.31	353.42
473.49	407.25
473.67	437.68
473.85	400.23
474.03	374.49
474.21	379.17
474.39	421.30
474.57	482.15
474.75	421.30
474.93	437.68
475.12	330.02
475.30	348.74
475.48	376.83
475.66	411.93
475.84	416.62
476.02	397.89
476.20	428.32
476.38	435.34
476.56	444.70
476.74	400.23
476.92	376.83
477.10	362.78
477.28	379.17
477.46	435.34
477.64	367.46
477.82	411.93
478.00	397.89
478.18	330.02
478.36	451.72
478.54	411.93
478.72	425.98
478.90	416.62
479.08	440.02
479.26	421.30
479.44	444.70
479.62	374.49
479.80	404.91
479.98	442.36
480.16	440.02
480.34	437.68
480.52	423.64
480.70	442.36
480.88	341.72
481.06	383.85
481.24	386.19
481.41	365.12
481.59	444.70
481.77	451.72
481.95	393.21
482.13	440.02
482.31	437.68
482.49	395.55
482.67	489.17
482.85	402.57
483.03	440.02
483.21	440.02
483.39	395.55
483.57	388.53
483.74	346.40
483.92	390.87
484.10	407.25
484.28	423.64
484.46	477.47
484.64	409.59
484.82	374.49
485.00	411.93
485.18	425.98
485.35	484.49
485.53	395.55
485.71	379.17
485.89	411.93
486.07	463.43
486.25	500.87
486.43	428.32
486.61	402.57
486.78	491.51
486.96	425.98
487.14	482.15
487.32	411.93
487.50	355.76
487.68	454.06
487.85	365.12
488.03	428.32
488.21	397.89
488.39	475.13
488.57	416.62
488.75	409.59
488.92	505.56
489.10	369.80
489.28	440.02
489.46	365.12
489.64	325.33
489.81	381.51
489.99	388.53
490.17	383.85
490.35	425.98
490.53	414.27
490.70	454.06
490.88	372.15
491.06	383.85
491.24	482.15
491.41	416.62
491.59	386.19
491.77	430.66
491.95	381.51
492.13	423.64
492.30	362.78
492.48	369.80
492.66	437.68
492.84	402.57
493.01	411.93
493.19	437.68
493.37	442.36
493.54	390.87
493.72	428.32
493.90	528.96
494.08	313.63
494.25	416.62
494.43	421.30
494.61	435.34
494.79	411.93
494.96	348.74
495.14	395.55
495.32	421.30
495.49	383.85
495.67	360.44
495.85	372.15
496.02	362.78
496.20	477.47
496.38	435.34
496.55	526.62
496.73	414.27
496.91	407.25
497.09	404.91
497.26	397.89
497.44	400.23
497.62	428.32
497.79	435.34
497.97	418.96
498.14	416.62
498.32	451.72
498.50	308.95
498.67	372.15
498.85	411.93
499.03	437.68
499.20	365.12
499.38	374.49
499.56	496.19
499.73	482.15
499.91	451.72
500.08	489.17
500.26	409.59
500.44	390.87
500.61	421.30
500.79	449.38
500.97	437.68
501.14	486.83
501.32	463.43
501.49	447.04
501.67	468.11
501.84	425.98
502.02	423.64
502.20	517.26
502.37	397.89
502.55	425.98
502.72	379.17
502.90	386.19
503.07	435.34
503.25	369.80
503.43	390.87
503.60	397.89
503.78	435.34
503.95	447.04
504.13	390.87
504.30	435.34
504.48	472.79
504.65	397.89
504.83	397.89
505.01	414.27
505.18	451.72
505.36	425.98
505.53	409.59
505.71	341.72
505.88	444.70
506.06	404.91
506.23	416.62
506.41	397.89
506.58	454.06
506.76	468.11
506.93	425.98
507.11	393.21
507.28	428.32
507.46	435.34
507.63	372.15
507.81	400.23
507.98	318.31
508.16	458.74
508.33	407.25
508.50	416.62
508.68	421.30
508.85	400.23
509.03	430.66
509.20	428.32
509.38	507.90
509.55	463.43
509.73	409.59
509.90	458.74
510.08	407.25
510.25	470.45
510.42	430.66
510.60	381.51
510.77	400.23
510.95	475.13
511.12	435.34
511.30	442.36
511.47	372.15
511.64	449.38
511.82	418.96
511.99	348.74
512.17	348.74
512.34	369.80
512.51	388.53
512.69	393.21
512.86	472.79
513.04	372.15
513.21	458.74
513.38	362.78
513.56	449.38
513.73	409.59
513.90	393.21
514.08	397.89
514.25	411.93
514.43	444.70
514.60	351.08
514.77	418.96
514.95	390.87
515.12	397.89
515.29	442.36
515.47	526.62
515.64	421.30
515.81	479.81
515.99	407.25
516.16	402.57
516.33	355.76
516.51	414.27
516.68	416.62
516.85	440.02
517.03	404.91
517.20	402.57
517.37	400.23
517.54	421.30
517.72	400.23
517.89	404.91
518.06	440.02
518.24	393.21
518.41	463.43
518.58	503.22
518.75	435.34
518.93	390.87
519.10	397.89
519.27	423.64
519.45	409.59
519.62	409.59
519.79	395.55
519.96	440.02
520.14	428.32
520.31	521.94
520.48	451.72
520.65	423.64
520.83	447.04
521.00	470.45
521.17	341.72
521.34	418.96
521.52	421.30
521.69	374.49
521.86	425.98
522.03	435.34
522.20	418.96
522.38	418.96
522.55	374.49
522.72	376.83
522.89	430.66
523.07	461.09
523.24	449.38
523.41	498.53
523.58	440.02
523.75	383.85
523.92	447.04
524.10	442.36
524.27	390.87
524.44	367.46
524.61	451.72
524.78	404.91
524.96	418.96
525.13	472.79
525.30	435.34
525.47	379.17
525.64	475.13
525.81	407.25
525.98	482.15
526.16	475.13
526.33	458.74
526.50	360.44
526.67	348.74
526.84	404.91
527.01	404.91
527.18	423.64
527.36	489.17
527.53	390.87
527.70	374.49
527.87	409.59
528.04	479.81
528.21	294.91
528.38	433.00
528.55	425.98
528.72	414.27
528.89	442.36
529.07	390.87
529.24	465.77
529.41	376.83
529.58	414.27
529.75	444.70
529.92	454.06
530.09	383.85
530.26	482.15
530.43	355.76
530.60	379.17
530.77	423.64
530.94	376.83
531.11	437.68
531.28	430.66
531.46	397.89
531.63	381.51
531.80	437.68
531.97	318.31
532.14	400.23
532.31	444.70
532.48	444.70
532.65	433.00
532.82	397.89
532.99	416.62
533.16	374.49
533.33	428.32
533.50	430.66
533.67	479.81
533.84	365.12
534.01	425.98
534.18	423.64
534.35	393.21
534.52	407.25
534.69	414.27
534.86	435.34
535.03	353.42
535.20	404.91
535.37	458.74
535.54	402.57
535.71	351.08
535.88	414.27
536.05	332.36
536.22	423.64
536.38	435.34
536.55	482.15
536.72	416.62
536.89	475.13
537.06	442.36
537.23	416.62
537.40	456.40
537.57	383.85
537.74	528.96
537.91	461.09
538.08	397.89
538.25	451.72
538.42	425.98
538.59	362.78
538.75	456.40
538.92	437.68
539.09	423.64
539.26	404.91
539.43	390.87
539.60	416.62
539.77	498.53
539.94	425.98
540.11	521.94
540.28	383.85
540.44	496.19
540.61	437.68
540.78	416.62
540.95	353.42
541.12	482.15
541.29	505.56
541.46	449.38
541.62	430.66
541.79	435.34
541.96	425.98
542.13	409.59
542.30	348.74
542.47	423.64
542.63	458.74
542.80	479.81
542.97	493.85
543.14	348.74
543.31	447.04
543.48	475.13
543.64	433.00
543.81	447.04
543.98	425.98
544.15	376.83
544.32	430.66
544.48	411.93
544.65	437.68
544.82	409.59
544.99	449.38
545.16	397.89
545.32	418.96
545.49	451.72
545.66	409.59
545.83	358.10
546.00	402.57
546.16	386.19
546.33	409.59
546.50	512.58
546.67	393.21
546.83	435.34
547.00	458.74
547.17	433.00
547.34	421.30
547.50	346.40
547.67	407.25
547.84	402.57
548.00	409.59
548.17	425.98
548.34	390.87
548.51	393.21
548.67	404.91
548.84	414.27
549.01	400.23
549.18	404.91
549.34	475.13
549.51	451.72
549.68	470.45
549.84	440.02
550.01	404.91
550.18	463.43
550.34	465.77
550.51	428.32
550.68	545.34
550.84	365.12
551.01	489.17
551.18	482.15
551.34	454.06
551.51	381.51
551.68	430.66
551.84	337.04
552.01	475.13
552.18	414.27
552.34	390.87
552.51	444.70
552.68	430.66
552.84	388.53
553.01	430.66
553.18	383.85
553.34	362.78
553.51	383.85
553.67	381.51
553.84	390.87
554.01	430.66
554.17	458.74
554.34	449.38
554.51	461.09
554.67	456.40
554.84	484.49
555.00	496.19
555.17	433.00
555.33	393.21
555.50	437.68
555.67	423.64
555.83	383.85
556.00	416.62
556.16	535.98
556.33	472.79
556.50	458.74
556.66	456.40
556.83	425.98
556.99	433.00
557.16	390.87
557.32	390.87
557.49	442.36
557.65	465.77
557.82	379.17
557.98	423.64
558.15	425.98
558.32	440.02
558.48	369.80
558.65	374.49
558.81	442.36
558.98	418.96
559.14	486.83
559.31	407.25
559.47	414.27
559.64	395.55
559.80	390.87
559.97	411.93
560.13	465.77
560.30	400.23
560.46	423.64
560.63	386.19
560.79	489.17
560.96	381.51
561.12	430.66
561.29	524.28
561.45	393.21
561.61	421.30
561.78	533.64
561.94	463.43
562.11	404.91
562.27	428.32
562.44	428.32
562.60	409.59
562.77	414.27
562.93	491.51
563.10	404.91
563.26	374.49
563.42	421.30
563.59	339.38
563.75	454.06
563.92	430.66
564.08	454.06
564.24	430.66
564.41	418.96
564.57	390.87
564.74	381.51
564.90	442.36
565.07	416.62
565.23	386.19
565.39	334.70
565.56	346.40
565.72	414.27
565.88	397.89
566.05	430.66
566.21	346.40
566.38	386.19
566.54	444.70
566.70	461.09
566.87	435.34
567.03	386.19
567.19	437.68
567.36	397.89
567.52	407.25
567.68	425.98
567.85	411.93
568.01	381.51
568.17	423.64
568.34	416.62
568.50	362.78
568.66	409.59
568.83	472.79
568.99	381.51
569.15	400.23
569.32	369.80
569.48	411.93
569.64	428.32
569.81	493.85
569.97	423.64
570.13	402.57
570.30	428.32
570.46	416.62
570.62	454.06
570.78	402.57
570.95	294.91
571.11	437.68
571.27	383.85
571.43	407.25
571.60	479.81
571.76	379.17
571.92	330.02
572.09	393.21
572.25	383.85
572.41	388.53
572.57	433.00
572.74	482.15
572.90	437.68
573.06	383.85
573.22	454.06
573.38	449.38
573.55	444.70
573.71	491.51
573.87	456.40
574.03	449.38
574.20	423.64
574.36	472.79
574.52	430.66
574.68	442.36
574.84	411.93
575.01	374.49
575.17	477.47
575.33	435.34
575.49	421.30
575.65	482.15
575.82	435.34
575.98	430.66
576.14	428.32
576.30	423.64
576.46	433.00
576.62	393.21
576.79	442.36
576.95	418.96
577.11	444.70
577.27	386.19
577.43	456.40
577.59	468.11
577.75	407.25
577.92	390.87
578.08	386.19
578.24	430.66
578.40	465.77
578.56	484.49
578.72	421.30
578.88	456.40
579.04	379.17
579.21	358.10
579.37	383.85
579.53	400.23
579.69	411.93
579.85	400.23
580.01	400.23
580.17	449.38
580.33	465.77
580.49	456.40
580.65	430.66
580.82	428.32
580.98	379.17
581.14	425.98
581.30	404.91
581.46	400.23
581.62	397.89
581.78	472.79
581.94	402.57
582.10	479.81
582.26	390.87
582.42	353.42
582.58	477.47
582.74	468.11
582.90	353.42
583.06	404.91
583.22	505.56
583.38	430.66
583.54	411.93
583.70	454.06
583.86	376.83
584.02	397.89
584.18	435.34
584.34	400.23
584.50	376.83
584.66	367.46
584.82	440.02
584.98	393.21
585.14	386.19
585.30	463.43
585.46	346.40
585.62	404.91
585.78	390.87
585.94	362.78
586.10	397.89
586.26	468.11
586.42	470.45
586.58	447.04
586.74	404.91
586.90	463.43
587.06	306.61
587.22	409.59
587.38	292.57
587.54	454.06
587.70	388.53
587.86	470.45
588.02	465.77
588.18	395.55
588.34	423.64
588.49	484.49
588.65	397.89
588.81	447.04
588.97	440.02
589.13	425.98
589.29	458.74
589.45	479.81
589.61	440.02
589.77	428.32
589.93	472.79
590.08	472.79
590.24	407.25
590.40	362.78
590.56	428.32
590.72	390.87
590.88	376.83
591.04	386.19
591.20	440.02
591.35	500.87
591.51	444.70
591.67	388.53
591.83	381.51
591.99	407.25
592.15	437.68
592.31	440.02
592.46	479.81
592.62	533.64
592.78	526.62
592.94	458.74
593.10	414.27
593.26	367.46
593.41	365.12
593.57	437.68
593.73	416.62
593.89	395.55
594.05	418.96
594.20	454.06
594.36	528.96
594.52	486.83
594.68	346.40
594.84	379.17
594.99	402.57
595.15	444.70
595.31	362.78
595.47	430.66
595.62	463.43
595.78	458.74
595.94	407.25
596.10	486.83
596.25	458.74
596.41	456.40
596.57	397.89
596.73	416.62
596.88	414.27
597.04	402.57
597.20	379.17
597.36	386.19
597.51	383.85
597.67	388.53
597.83	442.36
597.99	428.32
598.14	374.49
598.30	425.98
598.46	393.21
598.61	472.79
598.77	388.53
598.93	358.10
599.09	435.34
599.24	418.96
599.40	491.51
599.56	484.49
599.71	390.87
599.87	421.30
600.03	374.49
600.18	402.57
600.34	475.13
600.50	444.70
600.65	411.93
600.81	449.38
600.97	376.83
601.12	388.53
601.28	437.68
601.44	435.34
601.59	365.12
601.75	388.53
601.91	440.02
602.06	442.36
602.22	477.47
602.37	369.80
602.53	447.04
602.69	388.53
602.84	414.27
603.00	479.81
603.16	421.30
603.31	475.13
603.47	475.13
603.62	379.17
603.78	472.79
603.94	395.55
604.09	444.70
604.25	454.06
604.40	484.49
604.56	449.38
604.71	400.23
604.87	400.23
605.03	477.47
605.18	468.11
605.34	433.00
605.49	372.15
605.65	433.00
605.80	440.02
605.96	369.80
606.12	458.74
606.27	444.70
606.43	411.93
606.58	465.77
606.74	425.98
606.89	463.43
607.05	440.02
607.20	390.87
607.36	421.30
607.51	397.89
607.67	500.87
607.82	402.57
607.98	500.87
608.13	362.78
608.29	423.64
608.44	376.83
608.60	437.68
608.75	472.79
608.91	458.74
609.06	447.04
609.22	428.32
609.37	409.59
609.53	409.59
609.68	437.68
609.84	379.17
609.99	381.51
610.15	475.13
