SpectraSuite Data File
++++++++++++++++++++++++++++++++++++
Date: Fri Oct 25 12:11:09 EDT 2013
User: price-jones
Dark Spectrum Present: No
Reference Spectrum Present: No
Number of Sampled Component Spectra: 1
Spectrometers: USB2+H05261
Integration Time (usec): 100000 (USB2+H05261)
Spectra Averaged: 1 (USB2+H05261)
Boxcar Smoothing: 0 (USB2+H05261)
Correct for Electrical Dark: No (USB2+H05261)
Strobe/Lamp Enabled: No (USB2+H05261)
Correct for Detector Non-linearity: No (USB2+H05261)
Correct for Stray Light: No (USB2+H05261)
Number of Pixels in Processed Spectrum: 2048
>>>>>Begin Processed Spectral Data<<<<<
365.73	414.27
365.92	414.27
366.12	414.27
366.32	271.50
366.52	210.65
366.72	262.14
366.91	283.20
367.11	224.69
367.31	217.67
367.51	191.92
367.70	290.23
367.90	341.72
368.10	203.63
368.30	269.16
368.49	252.78
368.69	255.12
368.89	264.48
369.09	264.48
369.28	238.73
369.48	287.89
369.68	269.16
369.87	325.33
370.07	294.91
370.27	351.08
370.47	278.52
370.66	388.53
370.86	332.36
371.06	416.62
371.25	367.46
371.45	304.27
371.65	437.68
371.84	360.44
372.04	383.85
372.24	414.27
372.44	390.87
372.63	402.57
372.83	367.46
373.03	397.89
373.22	428.32
373.42	435.34
373.62	395.55
373.81	472.79
374.01	444.70
374.21	381.51
374.40	341.72
374.60	423.64
374.79	435.34
374.99	430.66
375.19	435.34
375.38	484.49
375.58	414.27
375.78	416.62
375.97	425.98
376.17	444.70
376.37	454.06
376.56	461.09
376.76	397.89
376.95	353.42
377.15	463.43
377.35	379.17
377.54	344.06
377.74	367.46
377.93	337.04
378.13	414.27
378.33	433.00
378.52	374.49
378.72	470.45
378.91	362.78
379.11	433.00
379.31	395.55
379.50	376.83
379.70	355.76
379.89	372.15
380.09	348.74
380.28	423.64
380.48	379.17
380.68	449.38
380.87	423.64
381.07	465.77
381.26	386.19
381.46	374.49
381.65	437.68
381.85	367.46
382.04	407.25
382.24	388.53
382.43	365.12
382.63	388.53
382.83	351.08
383.02	468.11
383.22	393.21
383.41	360.44
383.61	418.96
383.80	503.22
384.00	421.30
384.19	461.09
384.39	409.59
384.58	369.80
384.78	461.09
384.97	376.83
385.17	388.53
385.36	334.70
385.56	440.02
385.75	390.87
385.95	386.19
386.14	372.15
386.34	440.02
386.53	367.46
386.72	362.78
386.92	416.62
387.11	397.89
387.31	463.43
387.50	386.19
387.70	433.00
387.89	437.68
388.09	381.51
388.28	320.65
388.48	402.57
388.67	421.30
388.86	418.96
389.06	414.27
389.25	479.81
389.45	348.74
389.64	430.66
389.84	461.09
390.03	472.79
390.22	393.21
390.42	433.00
390.61	421.30
390.81	386.19
391.00	379.17
391.19	386.19
391.39	367.46
391.58	463.43
391.78	451.72
391.97	449.38
392.16	414.27
392.36	418.96
392.55	423.64
392.75	437.68
392.94	470.45
393.13	360.44
393.33	411.93
393.52	404.91
393.71	395.55
393.91	435.34
394.10	440.02
394.29	358.10
394.49	416.62
394.68	318.31
394.88	437.68
395.07	383.85
395.26	393.21
395.46	440.02
395.65	456.40
395.84	444.70
396.04	425.98
396.23	383.85
396.42	423.64
396.62	397.89
396.81	449.38
397.00	407.25
397.19	489.17
397.39	454.06
397.58	428.32
397.77	416.62
397.97	447.04
398.16	414.27
398.35	383.85
398.55	374.49
398.74	421.30
398.93	435.34
399.12	421.30
399.32	472.79
399.51	421.30
399.70	374.49
399.90	351.08
400.09	423.64
400.28	365.12
400.47	386.19
400.67	425.98
400.86	433.00
401.05	414.27
401.24	435.34
401.44	423.64
401.63	407.25
401.82	346.40
402.01	348.74
402.21	393.21
402.40	374.49
402.59	383.85
402.78	414.27
402.97	376.83
403.17	400.23
403.36	404.91
403.55	381.51
403.74	407.25
403.93	383.85
404.13	463.43
404.32	360.44
404.51	440.02
404.70	418.96
404.89	407.25
405.09	425.98
405.28	404.91
405.47	397.89
405.66	395.55
405.85	449.38
406.05	388.53
406.24	386.19
406.43	444.70
406.62	407.25
406.81	407.25
407.00	409.59
407.20	393.21
407.39	428.32
407.58	346.40
407.77	383.85
407.96	409.59
408.15	475.13
408.34	425.98
408.54	372.15
408.73	428.32
408.92	428.32
409.11	395.55
409.30	428.32
409.49	376.83
409.68	381.51
409.87	362.78
410.07	423.64
410.26	440.02
410.45	379.17
410.64	416.62
410.83	397.89
411.02	397.89
411.21	465.77
411.40	411.93
411.59	416.62
411.78	330.02
411.98	430.66
412.17	355.76
412.36	400.23
412.55	332.36
412.74	425.98
412.93	456.40
413.12	463.43
413.31	423.64
413.50	395.55
413.69	397.89
413.88	397.89
414.07	496.19
414.26	346.40
414.45	393.21
414.64	395.55
414.83	374.49
415.02	418.96
415.22	400.23
415.41	407.25
415.60	400.23
415.79	418.96
415.98	376.83
416.17	425.98
416.36	433.00
416.55	435.34
416.74	442.36
416.93	395.55
417.12	442.36
417.31	447.04
417.50	407.25
417.69	451.72
417.88	416.62
418.07	393.21
418.26	407.25
418.45	383.85
418.64	430.66
418.83	437.68
419.02	425.98
419.21	374.49
419.39	428.32
419.58	425.98
419.77	416.62
419.96	428.32
420.15	381.51
420.34	416.62
420.53	374.49
420.72	411.93
420.91	407.25
421.10	423.64
421.29	402.57
421.48	423.64
421.67	475.13
421.86	514.92
422.05	470.45
422.24	393.21
422.43	386.19
422.61	425.98
422.80	400.23
422.99	379.17
423.18	400.23
423.37	484.49
423.56	320.65
423.75	482.15
423.94	400.23
424.13	381.51
424.32	463.43
424.50	386.19
424.69	374.49
424.88	465.77
425.07	381.51
425.26	458.74
425.45	397.89
425.64	472.79
425.83	351.08
426.01	315.97
426.20	435.34
426.39	430.66
426.58	414.27
426.77	416.62
426.96	411.93
427.15	425.98
427.33	416.62
427.52	425.98
427.71	358.10
427.90	425.98
428.09	519.60
428.28	454.06
428.46	400.23
428.65	416.62
428.84	433.00
429.03	430.66
429.22	444.70
429.40	379.17
429.59	437.68
429.78	437.68
429.97	416.62
430.16	332.36
430.34	444.70
430.53	428.32
430.72	390.87
430.91	416.62
431.10	388.53
431.28	400.23
431.47	365.12
431.66	383.85
431.85	402.57
432.03	395.55
432.22	470.45
432.41	348.74
432.60	379.17
432.79	411.93
432.97	416.62
433.16	470.45
433.35	451.72
433.54	463.43
433.72	390.87
433.91	393.21
434.10	376.83
434.28	433.00
434.47	479.81
434.66	465.77
434.85	468.11
435.03	376.83
435.22	568.75
435.41	447.04
435.59	400.23
435.78	400.23
435.97	411.93
436.16	414.27
436.34	409.59
436.53	388.53
436.72	458.74
436.90	395.55
437.09	386.19
437.28	442.36
437.46	395.55
437.65	437.68
437.84	376.83
438.02	444.70
438.21	425.98
438.40	395.55
438.58	388.53
438.77	409.59
438.96	449.38
439.14	442.36
439.33	454.06
439.52	421.30
439.70	362.78
439.89	397.89
440.08	433.00
440.26	351.08
440.45	447.04
440.63	421.30
440.82	379.17
441.01	440.02
441.19	454.06
441.38	437.68
441.57	381.51
441.75	414.27
441.94	379.17
442.12	456.40
442.31	360.44
442.50	397.89
442.68	477.47
442.87	334.70
443.05	461.09
443.24	475.13
443.43	386.19
443.61	468.11
443.80	393.21
443.98	409.59
444.17	395.55
444.35	449.38
444.54	407.25
444.73	353.42
444.91	386.19
445.10	421.30
445.28	386.19
445.47	353.42
445.65	423.64
445.84	407.25
446.02	444.70
446.21	362.78
446.39	397.89
446.58	372.15
446.77	348.74
446.95	418.96
447.14	390.87
447.32	444.70
447.51	372.15
447.69	500.87
447.88	435.34
448.06	393.21
448.25	461.09
448.43	451.72
448.62	437.68
448.80	421.30
448.99	465.77
449.17	339.38
449.36	294.91
449.54	395.55
449.73	440.02
449.91	411.93
450.10	454.06
450.28	402.57
450.46	393.21
450.65	341.72
450.83	425.98
451.02	393.21
451.20	416.62
451.39	369.80
451.57	456.40
451.76	428.32
451.94	409.59
452.13	482.15
452.31	451.72
452.49	355.76
452.68	365.12
452.86	404.91
453.05	479.81
453.23	397.89
453.42	397.89
453.60	390.87
453.78	435.34
453.97	386.19
454.15	365.12
454.34	423.64
454.52	454.06
454.70	416.62
454.89	472.79
455.07	407.25
455.26	418.96
455.44	325.33
455.62	423.64
455.81	381.51
455.99	409.59
456.17	486.83
456.36	454.06
456.54	374.49
456.73	470.45
456.91	386.19
457.09	454.06
457.28	468.11
457.46	369.80
457.64	400.23
457.83	449.38
458.01	456.40
458.19	437.68
458.38	397.89
458.56	496.19
458.74	456.40
458.93	416.62
459.11	418.96
459.29	414.27
459.48	379.17
459.66	437.68
459.84	416.62
460.03	454.06
460.21	365.12
460.39	442.36
460.57	418.96
460.76	414.27
460.94	428.32
461.12	402.57
461.31	418.96
461.49	418.96
461.67	411.93
461.85	461.09
462.04	414.27
462.22	784.08
462.40	442.36
462.59	411.93
462.77	386.19
462.95	374.49
463.13	463.43
463.32	418.96
463.50	404.91
463.68	465.77
463.86	322.99
464.05	425.98
464.23	526.62
464.41	409.59
464.59	362.78
464.78	386.19
464.96	379.17
465.14	449.38
465.32	416.62
465.50	444.70
465.69	461.09
465.87	388.53
466.05	404.91
466.23	440.02
466.41	395.55
466.60	397.89
466.78	411.93
466.96	428.32
467.14	374.49
467.32	416.62
467.51	409.59
467.69	470.45
467.87	458.74
468.05	381.51
468.23	465.77
468.41	386.19
468.60	430.66
468.78	397.89
468.96	395.55
469.14	404.91
469.32	423.64
469.50	393.21
469.69	437.68
469.87	409.59
470.05	437.68
470.23	334.70
470.41	346.40
470.59	386.19
470.77	381.51
470.95	374.49
471.14	402.57
471.32	365.12
471.50	475.13
471.68	482.15
471.86	514.92
472.04	425.98
472.22	395.55
472.40	437.68
472.58	365.12
472.77	311.29
472.95	421.30
473.13	458.74
473.31	376.83
473.49	388.53
473.67	383.85
473.85	400.23
474.03	514.92
474.21	411.93
474.39	500.87
474.57	465.77
474.75	414.27
474.93	430.66
475.12	365.12
475.30	449.38
475.48	423.64
475.66	402.57
475.84	442.36
476.02	383.85
476.20	430.66
476.38	404.91
476.56	454.06
476.74	388.53
476.92	397.89
477.10	433.00
477.28	423.64
477.46	461.09
477.64	435.34
477.82	409.59
478.00	437.68
478.18	454.06
478.36	400.23
478.54	367.46
478.72	393.21
478.90	435.34
479.08	423.64
479.26	418.96
479.44	367.46
479.62	414.27
479.80	397.89
479.98	458.74
480.16	425.98
480.34	449.38
480.52	348.74
480.70	390.87
480.88	397.89
481.06	486.83
481.24	325.33
481.41	428.32
481.59	447.04
481.77	390.87
481.95	418.96
482.13	421.30
482.31	428.32
482.49	393.21
482.67	456.40
482.85	414.27
483.03	447.04
483.21	449.38
483.39	430.66
483.57	433.00
483.74	402.57
483.92	407.25
484.10	423.64
484.28	458.74
484.46	421.30
484.64	442.36
484.82	402.57
485.00	414.27
485.18	400.23
485.35	421.30
485.53	299.59
485.71	468.11
485.89	414.27
486.07	433.00
486.25	503.22
486.43	449.38
486.61	440.02
486.78	472.79
486.96	400.23
487.14	430.66
487.32	369.80
487.50	315.97
487.68	418.96
487.85	365.12
488.03	433.00
488.21	416.62
488.39	369.80
488.57	442.36
488.75	337.04
488.92	533.64
489.10	386.19
489.28	402.57
489.46	407.25
489.64	444.70
489.81	423.64
489.99	395.55
490.17	416.62
490.35	477.47
490.53	440.02
490.70	376.83
490.88	505.56
491.06	358.10
491.24	425.98
491.41	421.30
491.59	360.44
491.77	358.10
491.95	430.66
492.13	400.23
492.30	381.51
492.48	395.55
492.66	386.19
492.84	454.06
493.01	461.09
493.19	358.10
493.37	433.00
493.54	416.62
493.72	400.23
493.90	383.85
494.08	395.55
494.25	376.83
494.43	456.40
494.61	442.36
494.79	388.53
494.96	435.34
495.14	433.00
495.32	423.64
495.49	433.00
495.67	369.80
495.85	397.89
496.02	283.20
496.20	442.36
496.38	390.87
496.55	433.00
496.73	435.34
496.91	449.38
497.09	407.25
497.26	421.30
497.44	397.89
497.62	440.02
497.79	404.91
497.97	444.70
498.14	418.96
498.32	360.44
498.50	463.43
498.67	395.55
498.85	381.51
499.03	383.85
499.20	407.25
499.38	411.93
499.56	472.79
499.73	463.43
499.91	395.55
500.08	390.87
500.26	369.80
500.44	409.59
500.61	458.74
500.79	468.11
500.97	402.57
501.14	407.25
501.32	388.53
501.49	477.47
501.67	388.53
501.84	451.72
502.02	449.38
502.20	489.17
502.37	440.02
502.55	440.02
502.72	500.87
502.90	372.15
503.07	400.23
503.25	437.68
503.43	327.68
503.60	395.55
503.78	404.91
503.95	386.19
504.13	414.27
504.30	379.17
504.48	433.00
504.65	433.00
504.83	479.81
505.01	376.83
505.18	404.91
505.36	470.45
505.53	400.23
505.71	416.62
505.88	435.34
506.06	404.91
506.23	346.40
506.41	386.19
506.58	442.36
506.76	435.34
506.93	414.27
507.11	486.83
507.28	521.94
507.46	355.76
507.63	341.72
507.81	472.79
507.98	430.66
508.16	400.23
508.33	400.23
508.50	381.51
508.68	430.66
508.85	425.98
509.03	409.59
509.20	379.17
509.38	365.12
509.55	503.22
509.73	451.72
509.90	468.11
510.08	369.80
510.25	407.25
510.42	365.12
510.60	425.98
510.77	458.74
510.95	374.49
511.12	395.55
511.30	456.40
511.47	362.78
511.64	444.70
511.82	451.72
511.99	376.83
512.17	411.93
512.34	409.59
512.51	381.51
512.69	409.59
512.86	514.92
513.04	374.49
513.21	435.34
513.38	407.25
513.56	442.36
513.73	437.68
513.90	355.76
514.08	358.10
514.25	444.70
514.43	442.36
514.60	449.38
514.77	381.51
514.95	383.85
515.12	423.64
515.29	468.11
515.47	322.99
515.64	440.02
515.81	447.04
515.99	468.11
516.16	402.57
516.33	381.51
516.51	442.36
516.68	348.74
516.85	461.09
517.03	437.68
517.20	418.96
517.37	367.46
517.54	393.21
517.72	435.34
517.89	477.47
518.06	428.32
518.24	475.13
518.41	477.47
518.58	442.36
518.75	346.40
518.93	390.87
519.10	388.53
519.27	409.59
519.45	425.98
519.62	381.51
519.79	358.10
519.96	332.36
520.14	402.57
520.31	402.57
520.48	451.72
520.65	470.45
520.83	440.02
521.00	463.43
521.17	414.27
521.34	435.34
521.52	400.23
521.69	418.96
521.86	468.11
522.03	461.09
522.20	475.13
522.38	423.64
522.55	421.30
522.72	395.55
522.89	454.06
523.07	479.81
523.24	444.70
523.41	465.77
523.58	468.11
523.75	430.66
523.92	376.83
524.10	442.36
524.27	447.04
524.44	367.46
524.61	433.00
524.78	381.51
524.96	374.49
525.13	400.23
525.30	372.15
525.47	395.55
525.64	358.10
525.81	442.36
525.98	360.44
526.16	425.98
526.33	381.51
526.50	353.42
526.67	381.51
526.84	430.66
527.01	437.68
527.18	449.38
527.36	383.85
527.53	376.83
527.70	475.13
527.87	388.53
528.04	451.72
528.21	416.62
528.38	449.38
528.55	386.19
528.72	498.53
528.89	416.62
529.07	400.23
529.24	395.55
529.41	458.74
529.58	379.17
529.75	374.49
529.92	468.11
530.09	447.04
530.26	346.40
530.43	435.34
530.60	437.68
530.77	489.17
530.94	418.96
531.11	397.89
531.28	367.46
531.46	362.78
531.63	444.70
531.80	451.72
531.97	379.17
532.14	388.53
532.31	489.17
532.48	397.89
532.65	421.30
532.82	374.49
532.99	416.62
533.16	465.77
533.33	458.74
533.50	379.17
533.67	418.96
533.84	390.87
534.01	435.34
534.18	404.91
534.35	402.57
534.52	390.87
534.69	489.17
534.86	475.13
535.03	454.06
535.20	404.91
535.37	470.45
535.54	402.57
535.71	374.49
535.88	437.68
536.05	449.38
536.22	397.89
536.38	430.66
536.55	416.62
536.72	447.04
536.89	421.30
537.06	374.49
537.23	400.23
537.40	407.25
537.57	433.00
537.74	468.11
537.91	428.32
538.08	444.70
538.25	374.49
538.42	414.27
538.59	507.90
538.75	447.04
538.92	379.17
539.09	416.62
539.26	470.45
539.43	440.02
539.60	505.56
539.77	414.27
539.94	451.72
540.11	472.79
540.28	388.53
540.44	379.17
540.61	433.00
540.78	430.66
540.95	393.21
541.12	454.06
541.29	365.12
541.46	472.79
541.62	386.19
541.79	311.29
541.96	437.68
542.13	447.04
542.30	440.02
542.47	416.62
542.63	383.85
542.80	461.09
542.97	442.36
543.14	437.68
543.31	437.68
543.48	362.78
543.64	454.06
543.81	402.57
543.98	449.38
544.15	376.83
544.32	500.87
544.48	463.43
544.65	423.64
544.82	367.46
544.99	465.77
545.16	322.99
545.32	414.27
545.49	423.64
545.66	367.46
545.83	337.04
546.00	407.25
546.16	500.87
546.33	386.19
546.50	442.36
546.67	442.36
546.83	447.04
547.00	367.46
547.17	407.25
547.34	390.87
547.50	372.15
547.67	451.72
547.84	393.21
548.00	458.74
548.17	416.62
548.34	395.55
548.51	468.11
548.67	477.47
548.84	484.49
549.01	430.66
549.18	444.70
549.34	360.44
549.51	418.96
549.68	407.25
549.84	463.43
550.01	388.53
550.18	535.98
550.34	484.49
550.51	414.27
550.68	472.79
550.84	442.36
551.01	430.66
551.18	418.96
551.34	425.98
551.51	428.32
551.68	351.08
551.84	374.49
552.01	388.53
552.18	416.62
552.34	367.46
552.51	369.80
552.68	421.30
552.84	395.55
553.01	463.43
553.18	465.77
553.34	425.98
553.51	299.59
553.67	454.06
553.84	493.85
554.01	379.17
554.17	425.98
554.34	393.21
554.51	437.68
554.67	433.00
554.84	425.98
555.00	461.09
555.17	489.17
555.33	477.47
555.50	407.25
555.67	456.40
555.83	425.98
556.00	416.62
556.16	543.00
556.33	407.25
556.50	409.59
556.66	433.00
556.83	425.98
556.99	400.23
557.16	400.23
557.32	416.62
557.49	346.40
557.65	447.04
557.82	421.30
557.98	360.44
558.15	433.00
558.32	362.78
558.48	458.74
558.65	421.30
558.81	423.64
558.98	421.30
559.14	423.64
559.31	393.21
559.47	479.81
559.64	463.43
559.80	379.17
559.97	482.15
560.13	351.08
560.30	379.17
560.46	402.57
560.63	383.85
560.79	414.27
560.96	393.21
561.12	442.36
561.29	461.09
561.45	400.23
561.61	383.85
561.78	463.43
561.94	475.13
562.11	423.64
562.27	435.34
562.44	407.25
562.60	386.19
562.77	381.51
562.93	425.98
563.10	447.04
563.26	491.51
563.42	411.93
563.59	442.36
563.75	404.91
563.92	442.36
564.08	442.36
564.24	411.93
564.41	411.93
564.57	402.57
564.74	447.04
564.90	381.51
565.07	416.62
565.23	402.57
565.39	437.68
565.56	383.85
565.72	416.62
565.88	416.62
566.05	372.15
566.21	489.17
566.38	449.38
566.54	402.57
566.70	421.30
566.87	437.68
567.03	390.87
567.19	400.23
567.36	465.77
567.52	393.21
567.68	388.53
567.85	447.04
568.01	395.55
568.17	414.27
568.34	362.78
568.50	404.91
568.66	414.27
568.83	477.47
568.99	428.32
569.15	407.25
569.32	404.91
569.48	477.47
569.64	430.66
569.81	395.55
569.97	421.30
570.13	425.98
570.30	442.36
570.46	381.51
570.62	383.85
570.78	479.81
570.95	454.06
571.11	381.51
571.27	365.12
571.43	433.00
571.60	409.59
571.76	421.30
571.92	379.17
572.09	414.27
572.25	402.57
572.41	402.57
572.57	404.91
572.74	390.87
572.90	409.59
573.06	411.93
573.22	407.25
573.38	512.58
573.55	510.24
573.71	388.53
573.87	458.74
574.03	482.15
574.20	395.55
574.36	458.74
574.52	411.93
574.68	395.55
574.84	425.98
575.01	358.10
575.17	442.36
575.33	330.02
575.49	381.51
575.65	397.89
575.82	388.53
575.98	409.59
576.14	388.53
576.30	393.21
576.46	372.15
576.62	440.02
576.79	437.68
576.95	482.15
577.11	435.34
577.27	386.19
577.43	402.57
577.59	475.13
577.75	393.21
577.92	416.62
578.08	393.21
578.24	355.76
578.40	315.97
578.56	472.79
578.72	433.00
578.88	430.66
579.04	411.93
579.21	430.66
579.37	421.30
579.53	402.57
579.69	463.43
579.85	386.19
580.01	451.72
580.17	407.25
580.33	404.91
580.49	479.81
580.65	433.00
580.82	477.47
580.98	379.17
581.14	404.91
581.30	381.51
581.46	381.51
581.62	414.27
581.78	447.04
581.94	390.87
582.10	346.40
582.26	374.49
582.42	390.87
582.58	383.85
582.74	425.98
582.90	390.87
583.06	430.66
583.22	437.68
583.38	369.80
583.54	470.45
583.70	428.32
583.86	428.32
584.02	395.55
584.18	425.98
584.34	414.27
584.50	388.53
584.66	372.15
584.82	437.68
584.98	444.70
585.14	456.40
585.30	381.51
585.46	358.10
585.62	430.66
585.78	414.27
585.94	409.59
586.10	458.74
586.26	327.68
586.42	393.21
586.58	404.91
586.74	376.83
586.90	456.40
587.06	409.59
587.22	395.55
587.38	416.62
587.54	411.93
587.70	470.45
587.86	479.81
588.02	369.80
588.18	442.36
588.34	376.83
588.49	451.72
588.65	379.17
588.81	423.64
588.97	390.87
589.13	390.87
589.29	402.57
589.45	418.96
589.61	383.85
589.77	383.85
589.93	351.08
590.08	437.68
590.24	346.40
590.40	514.92
590.56	374.49
590.72	395.55
590.88	437.68
591.04	458.74
591.20	402.57
591.35	421.30
591.51	498.53
591.67	362.78
591.83	437.68
591.99	388.53
592.15	458.74
592.31	409.59
592.46	496.19
592.62	454.06
592.78	386.19
592.94	416.62
593.10	365.12
593.26	444.70
593.41	484.49
593.57	430.66
593.73	404.91
593.89	332.36
594.05	407.25
594.20	423.64
594.36	444.70
594.52	416.62
594.68	365.12
594.84	484.49
594.99	433.00
595.15	475.13
595.31	468.11
595.47	475.13
595.62	451.72
595.78	386.19
595.94	388.53
596.10	440.02
596.25	376.83
596.41	437.68
596.57	372.15
596.73	444.70
596.88	482.15
597.04	381.51
597.20	355.76
597.36	395.55
597.51	451.72
597.67	425.98
597.83	433.00
597.99	423.64
598.14	454.06
598.30	498.53
598.46	395.55
598.61	433.00
598.77	465.77
598.93	322.99
599.09	451.72
599.24	444.70
599.40	451.72
599.56	475.13
599.71	435.34
599.87	414.27
600.03	372.15
600.18	374.49
600.34	489.17
600.50	423.64
600.65	386.19
600.81	486.83
600.97	390.87
601.12	372.15
601.28	489.17
601.44	425.98
601.59	409.59
601.75	411.93
601.91	444.70
602.06	421.30
602.22	423.64
602.37	409.59
602.53	395.55
602.69	477.47
602.84	444.70
603.00	397.89
603.16	393.21
603.31	500.87
603.47	388.53
603.62	372.15
603.78	433.00
603.94	379.17
604.09	334.70
604.25	468.11
604.40	390.87
604.56	404.91
604.71	402.57
604.87	425.98
605.03	376.83
605.18	411.93
605.34	433.00
605.49	421.30
605.65	393.21
605.80	409.59
605.96	482.15
606.12	437.68
606.27	437.68
606.43	489.17
606.58	435.34
606.74	425.98
606.89	421.30
607.05	442.36
607.20	470.45
607.36	358.10
607.51	376.83
607.67	411.93
607.82	393.21
607.98	477.47
608.13	430.66
608.29	421.30
608.44	381.51
608.60	456.40
608.75	498.53
608.91	491.51
609.06	505.56
609.22	461.09
609.37	423.64
609.53	402.57
609.68	402.57
609.84	393.21
609.99	332.36
610.15	470.45
