SpectraSuite Data File
++++++++++++++++++++++++++++++++++++
Date: Fri Oct 25 12:10:13 EDT 2013
User: price-jones
Dark Spectrum Present: No
Reference Spectrum Present: No
Number of Sampled Component Spectra: 1
Spectrometers: USB2+H05261
Integration Time (usec): 100000 (USB2+H05261)
Spectra Averaged: 1 (USB2+H05261)
Boxcar Smoothing: 0 (USB2+H05261)
Correct for Electrical Dark: No (USB2+H05261)
Strobe/Lamp Enabled: No (USB2+H05261)
Correct for Detector Non-linearity: No (USB2+H05261)
Correct for Stray Light: No (USB2+H05261)
Number of Pixels in Processed Spectrum: 2048
>>>>>Begin Processed Spectral Data<<<<<
365.73	301.93
365.92	301.93
366.12	301.93
366.32	234.05
366.52	269.16
366.72	217.67
366.91	229.37
367.11	208.31
367.31	210.65
367.51	234.05
367.70	220.01
367.90	220.01
368.10	189.58
368.30	224.69
368.49	259.80
368.69	259.80
368.89	241.08
369.09	229.37
369.28	271.50
369.48	250.44
369.68	276.18
369.87	283.20
370.07	285.55
370.27	372.15
370.47	358.10
370.66	308.95
370.86	351.08
371.06	416.62
371.25	376.83
371.45	358.10
371.65	376.83
371.84	397.89
372.04	355.76
372.24	367.46
372.44	407.25
372.63	411.93
372.83	386.19
373.03	400.23
373.22	351.08
373.42	409.59
373.62	383.85
373.81	397.89
374.01	475.13
374.21	418.96
374.40	440.02
374.60	360.44
374.79	449.38
374.99	348.74
375.19	404.91
375.38	498.53
375.58	351.08
375.78	402.57
375.97	430.66
376.17	496.19
376.37	383.85
376.56	454.06
376.76	456.40
376.95	379.17
377.15	440.02
377.35	322.99
377.54	407.25
377.74	440.02
377.93	437.68
378.13	390.87
378.33	409.59
378.52	367.46
378.72	449.38
378.91	428.32
379.11	414.27
379.31	346.40
379.50	409.59
379.70	409.59
379.89	507.90
380.09	404.91
380.28	383.85
380.48	428.32
380.68	390.87
380.87	411.93
381.07	374.49
381.26	433.00
381.46	421.30
381.65	418.96
381.85	440.02
382.04	362.78
382.24	397.89
382.43	397.89
382.63	423.64
382.83	430.66
383.02	451.72
383.22	411.93
383.41	330.02
383.61	444.70
383.80	407.25
384.00	386.19
384.19	362.78
384.39	423.64
384.58	463.43
384.78	397.89
384.97	463.43
385.17	395.55
385.36	393.21
385.56	402.57
385.75	322.99
385.95	383.85
386.14	386.19
386.34	407.25
386.53	369.80
386.72	407.25
386.92	381.51
387.11	484.49
387.31	444.70
387.50	372.15
387.70	414.27
387.89	447.04
388.09	397.89
388.28	400.23
388.48	409.59
388.67	428.32
388.86	409.59
389.06	390.87
389.25	463.43
389.45	353.42
389.64	360.44
389.84	379.17
390.03	400.23
390.22	421.30
390.42	386.19
390.61	353.42
390.81	416.62
391.00	395.55
391.19	470.45
391.39	334.70
391.58	444.70
391.78	360.44
391.97	437.68
392.16	369.80
392.36	425.98
392.55	379.17
392.75	404.91
392.94	334.70
393.13	442.36
393.33	379.17
393.52	369.80
393.71	451.72
393.91	461.09
394.10	433.00
394.29	414.27
394.49	388.53
394.68	418.96
394.88	376.83
395.07	421.30
395.26	510.24
395.46	421.30
395.65	409.59
395.84	421.30
396.04	484.49
396.23	458.74
396.42	388.53
396.62	411.93
396.81	360.44
397.00	409.59
397.19	402.57
397.39	383.85
397.58	425.98
397.77	383.85
397.97	344.06
398.16	433.00
398.35	388.53
398.55	404.91
398.74	414.27
398.93	383.85
399.12	374.49
399.32	337.04
399.51	461.09
399.70	386.19
399.90	397.89
400.09	393.21
400.28	433.00
400.47	421.30
400.67	381.51
400.86	397.89
401.05	486.83
401.24	407.25
401.44	447.04
401.63	449.38
401.82	451.72
402.01	409.59
402.21	397.89
402.40	430.66
402.59	351.08
402.78	262.14
402.97	397.89
403.17	353.42
403.36	418.96
403.55	454.06
403.74	433.00
403.93	397.89
404.13	458.74
404.32	437.68
404.51	428.32
404.70	409.59
404.89	465.77
405.09	461.09
405.28	409.59
405.47	348.74
405.66	383.85
405.85	465.77
406.05	456.40
406.24	423.64
406.43	390.87
406.62	365.12
406.81	425.98
407.00	433.00
407.20	440.02
407.39	395.55
407.58	430.66
407.77	411.93
407.96	425.98
408.15	470.45
408.34	447.04
408.54	463.43
408.73	423.64
408.92	418.96
409.11	416.62
409.30	402.57
409.49	397.89
409.68	416.62
409.87	400.23
410.07	433.00
410.26	376.83
410.45	470.45
410.64	388.53
410.83	376.83
411.02	411.93
411.21	461.09
411.40	411.93
411.59	386.19
411.78	362.78
411.98	395.55
412.17	404.91
412.36	423.64
412.55	388.53
412.74	393.21
412.93	416.62
413.12	381.51
413.31	337.04
413.50	437.68
413.69	444.70
413.88	463.43
414.07	334.70
414.26	395.55
414.45	393.21
414.64	409.59
414.83	442.36
415.02	433.00
415.22	397.89
415.41	454.06
415.60	332.36
415.79	468.11
415.98	423.64
416.17	411.93
416.36	376.83
416.55	360.44
416.74	505.56
416.93	454.06
417.12	437.68
417.31	468.11
417.50	458.74
417.69	404.91
417.88	425.98
418.07	388.53
418.26	404.91
418.45	383.85
418.64	418.96
418.83	461.09
419.02	414.27
419.21	351.08
419.39	444.70
419.58	470.45
419.77	390.87
419.96	358.10
420.15	442.36
420.34	496.19
420.53	411.93
420.72	351.08
420.91	433.00
421.10	425.98
421.29	451.72
421.48	397.89
421.67	461.09
421.86	479.81
422.05	400.23
422.24	376.83
422.43	440.02
422.61	409.59
422.80	414.27
422.99	402.57
423.18	404.91
423.37	433.00
423.56	458.74
423.75	395.55
423.94	430.66
424.13	428.32
424.32	433.00
424.50	381.51
424.69	430.66
424.88	425.98
425.07	468.11
425.26	456.40
425.45	430.66
425.64	358.10
425.83	409.59
426.01	402.57
426.20	465.77
426.39	465.77
426.58	414.27
426.77	374.49
426.96	383.85
427.15	404.91
427.33	404.91
427.52	425.98
427.71	418.96
427.90	397.89
428.09	440.02
428.28	381.51
428.46	362.78
428.65	482.15
428.84	337.04
429.03	376.83
429.22	444.70
429.40	437.68
429.59	433.00
429.78	395.55
429.97	330.02
430.16	397.89
430.34	388.53
430.53	407.25
430.72	390.87
430.91	416.62
431.10	327.68
431.28	383.85
431.47	416.62
431.66	348.74
431.85	449.38
432.03	404.91
432.22	388.53
432.41	440.02
432.60	404.91
432.79	425.98
432.97	440.02
433.16	402.57
433.35	397.89
433.54	440.02
433.72	430.66
433.91	374.49
434.10	425.98
434.28	404.91
434.47	482.15
434.66	386.19
434.85	447.04
435.03	482.15
435.22	496.19
435.41	409.59
435.59	451.72
435.78	423.64
435.97	400.23
436.16	425.98
436.34	374.49
436.53	362.78
436.72	372.15
436.90	442.36
437.09	425.98
437.28	402.57
437.46	381.51
437.65	486.83
437.84	433.00
438.02	465.77
438.21	409.59
438.40	423.64
438.58	395.55
438.77	393.21
438.96	376.83
439.14	369.80
439.33	397.89
439.52	390.87
439.70	379.17
439.89	465.77
440.08	442.36
440.26	374.49
440.45	449.38
440.63	440.02
440.82	411.93
441.01	379.17
441.19	367.46
441.38	395.55
441.57	374.49
441.75	498.53
441.94	428.32
442.12	360.44
442.31	386.19
442.50	430.66
442.68	386.19
442.87	451.72
443.05	428.32
443.24	397.89
443.43	395.55
443.61	397.89
443.80	425.98
443.98	418.96
444.17	395.55
444.35	386.19
444.54	400.23
444.73	374.49
444.91	433.00
445.10	379.17
445.28	390.87
445.47	418.96
445.65	428.32
445.84	372.15
446.02	442.36
446.21	454.06
446.39	418.96
446.58	437.68
446.77	381.51
446.95	400.23
447.14	442.36
447.32	449.38
447.51	440.02
447.69	461.09
447.88	379.17
448.06	489.17
448.25	407.25
448.43	411.93
448.62	440.02
448.80	379.17
448.99	414.27
449.17	381.51
449.36	388.53
449.54	451.72
449.73	402.57
449.91	465.77
450.10	320.65
450.28	489.17
450.46	407.25
450.65	447.04
450.83	475.13
451.02	388.53
451.20	358.10
451.39	479.81
451.57	442.36
451.76	369.80
451.94	428.32
452.13	390.87
452.31	407.25
452.49	437.68
452.68	388.53
452.86	440.02
453.05	442.36
453.23	395.55
453.42	353.42
453.60	397.89
453.78	393.21
453.97	395.55
454.15	433.00
454.34	418.96
454.52	365.12
454.70	414.27
454.89	402.57
455.07	404.91
455.26	470.45
455.44	468.11
455.62	416.62
455.81	500.87
455.99	372.15
456.17	465.77
456.36	423.64
456.54	409.59
456.73	337.04
456.91	341.72
457.09	383.85
457.28	411.93
457.46	367.46
457.64	393.21
457.83	388.53
458.01	482.15
458.19	397.89
458.38	404.91
458.56	395.55
458.74	454.06
458.93	430.66
459.11	402.57
459.29	383.85
459.48	376.83
459.66	402.57
459.84	463.43
460.03	524.28
460.21	416.62
460.39	360.44
460.57	463.43
460.76	407.25
460.94	437.68
461.12	491.51
461.31	393.21
461.49	430.66
461.67	334.70
461.85	365.12
462.04	393.21
462.22	770.04
462.40	468.11
462.59	500.87
462.77	404.91
462.95	430.66
463.13	430.66
463.32	374.49
463.50	358.10
463.68	423.64
463.86	411.93
464.05	402.57
464.23	465.77
464.41	437.68
464.59	407.25
464.78	388.53
464.96	411.93
465.14	423.64
465.32	416.62
465.50	435.34
465.69	393.21
465.87	395.55
466.05	409.59
466.23	407.25
466.41	416.62
466.60	397.89
466.78	369.80
466.96	416.62
467.14	421.30
467.32	437.68
467.51	409.59
467.69	440.02
467.87	477.47
468.05	491.51
468.23	374.49
468.41	388.53
468.60	428.32
468.78	470.45
468.96	493.85
469.14	416.62
469.32	418.96
469.50	400.23
469.69	451.72
469.87	400.23
470.05	442.36
470.23	435.34
470.41	433.00
470.59	322.99
470.77	409.59
470.95	451.72
471.14	404.91
471.32	409.59
471.50	442.36
471.68	479.81
471.86	397.89
472.04	433.00
472.22	322.99
472.40	390.87
472.58	404.91
472.77	416.62
472.95	407.25
473.13	430.66
473.31	449.38
473.49	402.57
473.67	430.66
473.85	334.70
474.03	423.64
474.21	416.62
474.39	472.79
474.57	468.11
474.75	416.62
474.93	386.19
475.12	409.59
475.30	418.96
475.48	463.43
475.66	358.10
475.84	393.21
476.02	444.70
476.20	437.68
476.38	498.53
476.56	409.59
476.74	423.64
476.92	341.72
477.10	390.87
477.28	404.91
477.46	444.70
477.64	409.59
477.82	390.87
478.00	461.09
478.18	362.78
478.36	395.55
478.54	372.15
478.72	404.91
478.90	449.38
479.08	418.96
479.26	358.10
479.44	475.13
479.62	407.25
479.80	416.62
479.98	411.93
480.16	447.04
480.34	440.02
480.52	421.30
480.70	400.23
480.88	353.42
481.06	325.33
481.24	479.81
481.41	400.23
481.59	360.44
481.77	393.21
481.95	433.00
482.13	418.96
482.31	383.85
482.49	358.10
482.67	404.91
482.85	337.04
483.03	461.09
483.21	358.10
483.39	369.80
483.57	437.68
483.74	461.09
483.92	425.98
484.10	407.25
484.28	409.59
484.46	454.06
484.64	395.55
484.82	437.68
485.00	409.59
485.18	374.49
485.35	409.59
485.53	407.25
485.71	500.87
485.89	390.87
486.07	379.17
486.25	442.36
486.43	442.36
486.61	388.53
486.78	468.11
486.96	404.91
487.14	388.53
487.32	414.27
487.50	454.06
487.68	447.04
487.85	461.09
488.03	407.25
488.21	407.25
488.39	465.77
488.57	383.85
488.75	404.91
488.92	475.13
489.10	433.00
489.28	456.40
489.46	416.62
489.64	365.12
489.81	461.09
489.99	447.04
490.17	491.51
490.35	510.24
490.53	444.70
490.70	299.59
490.88	362.78
491.06	444.70
491.24	374.49
491.41	421.30
491.59	430.66
491.77	421.30
491.95	327.68
492.13	397.89
492.30	423.64
492.48	451.72
492.66	433.00
492.84	376.83
493.01	444.70
493.19	383.85
493.37	414.27
493.54	468.11
493.72	442.36
493.90	393.21
494.08	418.96
494.25	458.74
494.43	409.59
494.61	353.42
494.79	367.46
494.96	360.44
495.14	465.77
495.32	421.30
495.49	383.85
495.67	390.87
495.85	348.74
496.02	402.57
496.20	381.51
496.38	400.23
496.55	379.17
496.73	418.96
496.91	456.40
497.09	482.15
497.26	374.49
497.44	325.33
497.62	346.40
497.79	477.47
497.97	449.38
498.14	381.51
498.32	360.44
498.50	376.83
498.67	411.93
498.85	365.12
499.03	313.63
499.20	402.57
499.38	351.08
499.56	402.57
499.73	414.27
499.91	447.04
500.08	397.89
500.26	404.91
500.44	383.85
500.61	470.45
500.79	442.36
500.97	353.42
501.14	440.02
501.32	458.74
501.49	465.77
501.67	383.85
501.84	407.25
502.02	395.55
502.20	395.55
502.37	449.38
502.55	430.66
502.72	421.30
502.90	449.38
503.07	374.49
503.25	458.74
503.43	322.99
503.60	407.25
503.78	463.43
503.95	444.70
504.13	463.43
504.30	435.34
504.48	425.98
504.65	449.38
504.83	402.57
505.01	456.40
505.18	325.33
505.36	430.66
505.53	404.91
505.71	320.65
505.88	496.19
506.06	411.93
506.23	425.98
506.41	374.49
506.58	421.30
506.76	381.51
506.93	430.66
507.11	447.04
507.28	545.34
507.46	416.62
507.63	414.27
507.81	414.27
507.98	416.62
508.16	358.10
508.33	404.91
508.50	411.93
508.68	423.64
508.85	372.15
509.03	423.64
509.20	468.11
509.38	433.00
509.55	456.40
509.73	402.57
509.90	444.70
510.08	451.72
510.25	475.13
510.42	421.30
510.60	409.59
510.77	414.27
510.95	355.76
511.12	395.55
511.30	425.98
511.47	407.25
511.64	425.98
511.82	402.57
511.99	362.78
512.17	407.25
512.34	414.27
512.51	498.53
512.69	372.15
512.86	454.06
513.04	353.42
513.21	425.98
513.38	482.15
513.56	463.43
513.73	472.79
513.90	353.42
514.08	381.51
514.25	397.89
514.43	388.53
514.60	430.66
514.77	458.74
514.95	374.49
515.12	395.55
515.29	383.85
515.47	353.42
515.64	425.98
515.81	414.27
515.99	442.36
516.16	475.13
516.33	416.62
516.51	376.83
516.68	435.34
516.85	409.59
517.03	390.87
517.20	367.46
517.37	418.96
517.54	496.19
517.72	440.02
517.89	411.93
518.06	383.85
518.24	435.34
518.41	475.13
518.58	400.23
518.75	451.72
518.93	390.87
519.10	404.91
519.27	397.89
519.45	444.70
519.62	407.25
519.79	346.40
519.96	344.06
520.14	346.40
520.31	454.06
520.48	437.68
520.65	425.98
520.83	475.13
521.00	454.06
521.17	463.43
521.34	435.34
521.52	411.93
521.69	444.70
521.86	400.23
522.03	423.64
522.20	423.64
522.38	435.34
522.55	468.11
522.72	372.15
522.89	482.15
523.07	444.70
523.24	454.06
523.41	437.68
523.58	367.46
523.75	355.76
523.92	428.32
524.10	407.25
524.27	463.43
524.44	454.06
524.61	440.02
524.78	451.72
524.96	465.77
525.13	386.19
525.30	414.27
525.47	465.77
525.64	433.00
525.81	423.64
525.98	423.64
526.16	351.08
526.33	388.53
526.50	355.76
526.67	376.83
526.84	397.89
527.01	337.04
527.18	477.47
527.36	421.30
527.53	346.40
527.70	442.36
527.87	451.72
528.04	402.57
528.21	423.64
528.38	393.21
528.55	447.04
528.72	369.80
528.89	496.19
529.07	472.79
529.24	409.59
529.41	458.74
529.58	447.04
529.75	425.98
529.92	411.93
530.09	430.66
530.26	444.70
530.43	458.74
530.60	433.00
530.77	468.11
530.94	346.40
531.11	440.02
531.28	409.59
531.46	425.98
531.63	440.02
531.80	456.40
531.97	411.93
532.14	418.96
532.31	421.30
532.48	437.68
532.65	376.83
532.82	449.38
532.99	409.59
533.16	489.17
533.33	414.27
533.50	360.44
533.67	395.55
533.84	381.51
534.01	437.68
534.18	458.74
534.35	425.98
534.52	395.55
534.69	402.57
534.86	423.64
535.03	353.42
535.20	409.59
535.37	411.93
535.54	447.04
535.71	447.04
535.88	418.96
536.05	386.19
536.22	437.68
536.38	402.57
536.55	400.23
536.72	393.21
536.89	390.87
537.06	407.25
537.23	425.98
537.40	461.09
537.57	430.66
537.74	407.25
537.91	339.38
538.08	402.57
538.25	433.00
538.42	393.21
538.59	411.93
538.75	428.32
538.92	454.06
539.09	372.15
539.26	381.51
539.43	472.79
539.60	489.17
539.77	411.93
539.94	383.85
540.11	435.34
540.28	376.83
540.44	428.32
540.61	440.02
540.78	409.59
540.95	313.63
541.12	435.34
541.29	404.91
541.46	414.27
541.62	390.87
541.79	486.83
541.96	383.85
542.13	400.23
542.30	418.96
542.47	451.72
542.63	486.83
542.80	409.59
542.97	423.64
543.14	435.34
543.31	400.23
543.48	482.15
543.64	374.49
543.81	416.62
543.98	402.57
544.15	458.74
544.32	461.09
544.48	428.32
544.65	451.72
544.82	381.51
544.99	430.66
545.16	433.00
545.32	472.79
545.49	425.98
545.66	362.78
545.83	379.17
546.00	416.62
546.16	358.10
546.33	390.87
546.50	472.79
546.67	390.87
546.83	468.11
547.00	554.71
547.17	425.98
547.34	374.49
547.50	414.27
547.67	397.89
547.84	479.81
548.00	440.02
548.17	484.49
548.34	482.15
548.51	454.06
548.67	475.13
548.84	449.38
549.01	414.27
549.18	395.55
549.34	468.11
549.51	409.59
549.68	400.23
549.84	465.77
550.01	339.38
550.18	414.27
550.34	418.96
550.51	465.77
550.68	461.09
550.84	395.55
551.01	472.79
551.18	503.22
551.34	423.64
551.51	358.10
551.68	489.17
551.84	484.49
552.01	400.23
552.18	409.59
552.34	416.62
552.51	433.00
552.68	470.45
552.84	402.57
553.01	493.85
553.18	435.34
553.34	374.49
553.51	395.55
553.67	428.32
553.84	517.26
554.01	386.19
554.17	503.22
554.34	421.30
554.51	486.83
554.67	421.30
554.84	407.25
555.00	430.66
555.17	435.34
555.33	458.74
555.50	395.55
555.67	423.64
555.83	386.19
556.00	411.93
556.16	472.79
556.33	397.89
556.50	409.59
556.66	386.19
556.83	437.68
556.99	423.64
557.16	447.04
557.32	409.59
557.49	491.51
557.65	421.30
557.82	351.08
557.98	397.89
558.15	409.59
558.32	442.36
558.48	348.74
558.65	388.53
558.81	402.57
558.98	423.64
559.14	414.27
559.31	404.91
559.47	348.74
559.64	414.27
559.80	433.00
559.97	381.51
560.13	341.72
560.30	449.38
560.46	425.98
560.63	425.98
560.79	351.08
560.96	489.17
561.12	395.55
561.29	421.30
561.45	409.59
561.61	402.57
561.78	521.94
561.94	428.32
562.11	416.62
562.27	362.78
562.44	435.34
562.60	463.43
562.77	393.21
562.93	554.71
563.10	407.25
563.26	414.27
563.42	470.45
563.59	418.96
563.75	374.49
563.92	437.68
564.08	428.32
564.24	372.15
564.41	510.24
564.57	402.57
564.74	414.27
564.90	409.59
565.07	435.34
565.23	421.30
565.39	404.91
565.56	479.81
565.72	421.30
565.88	339.38
566.05	374.49
566.21	358.10
566.38	477.47
566.54	435.34
566.70	390.87
566.87	407.25
567.03	409.59
567.19	437.68
567.36	397.89
567.52	442.36
567.68	386.19
567.85	376.83
568.01	367.46
568.17	395.55
568.34	421.30
568.50	402.57
568.66	390.87
568.83	456.40
568.99	367.46
569.15	388.53
569.32	416.62
569.48	386.19
569.64	388.53
569.81	367.46
569.97	430.66
570.13	477.47
570.30	435.34
570.46	395.55
570.62	381.51
570.78	418.96
570.95	348.74
571.11	381.51
571.27	468.11
571.43	400.23
571.60	386.19
571.76	411.93
571.92	465.77
572.09	407.25
572.25	330.02
572.41	395.55
572.57	451.72
572.74	458.74
572.90	337.04
573.06	351.08
573.22	442.36
573.38	477.47
573.55	449.38
573.71	444.70
573.87	381.51
574.03	393.21
574.20	421.30
574.36	454.06
574.52	313.63
574.68	379.17
574.84	395.55
575.01	404.91
575.17	418.96
575.33	433.00
575.49	433.00
575.65	400.23
575.82	465.77
575.98	421.30
576.14	433.00
576.30	379.17
576.46	423.64
576.62	442.36
576.79	435.34
576.95	421.30
577.11	404.91
577.27	362.78
577.43	489.17
577.59	421.30
577.75	421.30
577.92	430.66
578.08	437.68
578.24	404.91
578.40	482.15
578.56	468.11
578.72	517.26
578.88	423.64
579.04	404.91
579.21	421.30
579.37	393.21
579.53	461.09
579.69	465.77
579.85	437.68
580.01	402.57
580.17	414.27
580.33	379.17
580.49	440.02
580.65	489.17
580.82	411.93
580.98	400.23
581.14	414.27
581.30	425.98
581.46	407.25
581.62	409.59
581.78	390.87
581.94	437.68
582.10	477.47
582.26	395.55
582.42	433.00
582.58	327.68
582.74	416.62
582.90	421.30
583.06	355.76
583.22	325.33
583.38	404.91
583.54	379.17
583.70	442.36
583.86	383.85
584.02	430.66
584.18	463.43
584.34	393.21
584.50	425.98
584.66	437.68
584.82	440.02
584.98	433.00
585.14	400.23
585.30	461.09
585.46	386.19
585.62	388.53
585.78	388.53
585.94	360.44
586.10	416.62
586.26	379.17
586.42	423.64
586.58	362.78
586.74	461.09
586.90	407.25
587.06	430.66
587.22	374.49
587.38	402.57
587.54	393.21
587.70	484.49
587.86	407.25
588.02	451.72
588.18	465.77
588.34	416.62
588.49	358.10
588.65	409.59
588.81	404.91
588.97	395.55
589.13	435.34
589.29	510.24
589.45	489.17
589.61	486.83
589.77	440.02
589.93	440.02
590.08	383.85
590.24	372.15
590.40	395.55
590.56	498.53
590.72	463.43
590.88	458.74
591.04	393.21
591.20	423.64
591.35	458.74
591.51	435.34
591.67	433.00
591.83	430.66
591.99	409.59
592.15	437.68
592.31	416.62
592.46	468.11
592.62	435.34
592.78	472.79
592.94	425.98
593.10	409.59
593.26	479.81
593.41	425.98
593.57	404.91
593.73	435.34
593.89	360.44
594.05	379.17
594.20	477.47
594.36	444.70
594.52	421.30
594.68	472.79
594.84	454.06
594.99	482.15
595.15	442.36
595.31	428.32
595.47	482.15
595.62	423.64
595.78	418.96
595.94	437.68
596.10	437.68
596.25	390.87
596.41	472.79
596.57	355.76
596.73	496.19
596.88	454.06
597.04	393.21
597.20	418.96
597.36	465.77
597.51	374.49
597.67	451.72
597.83	313.63
597.99	451.72
598.14	416.62
598.30	423.64
598.46	425.98
598.61	411.93
598.77	475.13
598.93	409.59
599.09	437.68
599.24	416.62
599.40	383.85
599.56	479.81
599.71	332.36
599.87	388.53
600.03	491.51
600.18	449.38
600.34	409.59
600.50	397.89
600.65	397.89
600.81	409.59
600.97	421.30
601.12	390.87
601.28	451.72
601.44	425.98
601.59	411.93
601.75	444.70
601.91	411.93
602.06	442.36
602.22	472.79
602.37	437.68
602.53	355.76
602.69	468.11
602.84	404.91
603.00	423.64
603.16	402.57
603.31	404.91
603.47	465.77
603.62	416.62
603.78	400.23
603.94	442.36
604.09	444.70
604.25	379.17
604.40	407.25
604.56	407.25
604.71	372.15
604.87	435.34
605.03	414.27
605.18	388.53
605.34	442.36
605.49	376.83
605.65	404.91
605.80	430.66
605.96	463.43
606.12	484.49
606.27	489.17
606.43	433.00
606.58	440.02
606.74	381.51
606.89	425.98
607.05	425.98
607.20	477.47
607.36	388.53
607.51	348.74
607.67	461.09
607.82	465.77
607.98	458.74
608.13	379.17
608.29	416.62
608.44	444.70
608.60	365.12
608.75	425.98
608.91	433.00
609.06	442.36
609.22	477.47
609.37	440.02
609.53	355.76
609.68	325.33
609.84	395.55
609.99	433.00
610.15	379.17
