SpectraSuite Data File
++++++++++++++++++++++++++++++++++++
Date: Fri Oct 25 12:11:36 EDT 2013
User: price-jones
Dark Spectrum Present: No
Reference Spectrum Present: No
Number of Sampled Component Spectra: 1
Spectrometers: USB2+H05261
Integration Time (usec): 100000 (USB2+H05261)
Spectra Averaged: 1 (USB2+H05261)
Boxcar Smoothing: 0 (USB2+H05261)
Correct for Electrical Dark: No (USB2+H05261)
Strobe/Lamp Enabled: No (USB2+H05261)
Correct for Detector Non-linearity: No (USB2+H05261)
Correct for Stray Light: No (USB2+H05261)
Number of Pixels in Processed Spectrum: 2048
>>>>>Begin Processed Spectral Data<<<<<
365.73	325.33
365.92	325.33
366.12	325.33
366.32	245.76
366.52	210.65
366.72	196.60
366.91	227.03
367.11	266.82
367.31	271.50
367.51	315.97
367.70	280.86
367.90	318.31
368.10	250.44
368.30	217.67
368.49	194.26
368.69	276.18
368.89	330.02
369.09	264.48
369.28	259.80
369.48	264.48
369.68	292.57
369.87	264.48
370.07	339.38
370.27	341.72
370.47	259.80
370.66	379.17
370.86	367.46
371.06	404.91
371.25	360.44
371.45	409.59
371.65	418.96
371.84	437.68
372.04	372.15
372.24	351.08
372.44	358.10
372.63	414.27
372.83	433.00
373.03	454.06
373.22	440.02
373.42	428.32
373.62	425.98
373.81	433.00
374.01	451.72
374.21	458.74
374.40	346.40
374.60	437.68
374.79	423.64
374.99	484.49
375.19	374.49
375.38	360.44
375.58	451.72
375.78	416.62
375.97	372.15
376.17	479.81
376.37	400.23
376.56	421.30
376.76	416.62
376.95	355.76
377.15	433.00
377.35	428.32
377.54	416.62
377.74	369.80
377.93	402.57
378.13	414.27
378.33	421.30
378.52	341.72
378.72	447.04
378.91	458.74
379.11	346.40
379.31	306.61
379.50	390.87
379.70	409.59
379.89	388.53
380.09	393.21
380.28	388.53
380.48	353.42
380.68	365.12
380.87	393.21
381.07	407.25
381.26	416.62
381.46	395.55
381.65	376.83
381.85	404.91
382.04	402.57
382.24	351.08
382.43	332.36
382.63	325.33
382.83	449.38
383.02	430.66
383.22	440.02
383.41	444.70
383.61	332.36
383.80	451.72
384.00	397.89
384.19	402.57
384.39	479.81
384.58	402.57
384.78	351.08
384.97	440.02
385.17	379.17
385.36	376.83
385.56	416.62
385.75	442.36
385.95	369.80
386.14	463.43
386.34	444.70
386.53	360.44
386.72	418.96
386.92	425.98
387.11	348.74
387.31	402.57
387.50	386.19
387.70	381.51
387.89	409.59
388.09	386.19
388.28	358.10
388.48	374.49
388.67	383.85
388.86	393.21
389.06	421.30
389.25	428.32
389.45	404.91
389.64	397.89
389.84	447.04
390.03	351.08
390.22	484.49
390.42	454.06
390.61	414.27
390.81	416.62
391.00	381.51
391.19	437.68
391.39	409.59
391.58	496.19
391.78	489.17
391.97	397.89
392.16	369.80
392.36	444.70
392.55	416.62
392.75	463.43
392.94	435.34
393.13	482.15
393.33	397.89
393.52	428.32
393.71	440.02
393.91	491.51
394.10	409.59
394.29	451.72
394.49	390.87
394.68	404.91
394.88	454.06
395.07	428.32
395.26	353.42
395.46	425.98
395.65	393.21
395.84	418.96
396.04	479.81
396.23	409.59
396.42	407.25
396.62	383.85
396.81	369.80
397.00	369.80
397.19	423.64
397.39	397.89
397.58	435.34
397.77	386.19
397.97	430.66
398.16	409.59
398.35	360.44
398.55	442.36
398.74	367.46
398.93	386.19
399.12	470.45
399.32	472.79
399.51	428.32
399.70	402.57
399.90	416.62
400.09	362.78
400.28	397.89
400.47	449.38
400.67	369.80
400.86	440.02
401.05	458.74
401.24	475.13
401.44	414.27
401.63	458.74
401.82	407.25
402.01	318.31
402.21	386.19
402.40	369.80
402.59	468.11
402.78	402.57
402.97	346.40
403.17	367.46
403.36	454.06
403.55	416.62
403.74	416.62
403.93	388.53
404.13	400.23
404.32	397.89
404.51	388.53
404.70	381.51
404.89	456.40
405.09	433.00
405.28	360.44
405.47	428.32
405.66	365.12
405.85	444.70
406.05	383.85
406.24	414.27
406.43	379.17
406.62	362.78
406.81	409.59
407.00	407.25
407.20	414.27
407.39	451.72
407.58	437.68
407.77	409.59
407.96	402.57
408.15	400.23
408.34	404.91
408.54	433.00
408.73	386.19
408.92	386.19
409.11	461.09
409.30	400.23
409.49	430.66
409.68	379.17
409.87	470.45
410.07	381.51
410.26	353.42
410.45	341.72
410.64	313.63
410.83	440.02
411.02	463.43
411.21	402.57
411.40	442.36
411.59	365.12
411.78	444.70
411.98	369.80
412.17	369.80
412.36	397.89
412.55	386.19
412.74	433.00
412.93	435.34
413.12	393.21
413.31	353.42
413.50	493.85
413.69	376.83
413.88	454.06
414.07	411.93
414.26	353.42
414.45	449.38
414.64	456.40
414.83	437.68
415.02	404.91
415.22	411.93
415.41	388.53
415.60	449.38
415.79	358.10
415.98	435.34
416.17	491.51
416.36	404.91
416.55	418.96
416.74	358.10
416.93	386.19
417.12	404.91
417.31	402.57
417.50	388.53
417.69	383.85
417.88	421.30
418.07	390.87
418.26	402.57
418.45	395.55
418.64	418.96
418.83	423.64
419.02	433.00
419.21	433.00
419.39	409.59
419.58	402.57
419.77	330.02
419.96	407.25
420.15	390.87
420.34	416.62
420.53	430.66
420.72	486.83
420.91	428.32
421.10	376.83
421.29	411.93
421.48	428.32
421.67	390.87
421.86	421.30
422.05	404.91
422.24	465.77
422.43	407.25
422.61	454.06
422.80	503.22
422.99	397.89
423.18	362.78
423.37	456.40
423.56	486.83
423.75	414.27
423.94	402.57
424.13	409.59
424.32	463.43
424.50	465.77
424.69	437.68
424.88	433.00
425.07	390.87
425.26	489.17
425.45	369.80
425.64	449.38
425.83	437.68
426.01	475.13
426.20	444.70
426.39	397.89
426.58	437.68
426.77	463.43
426.96	411.93
427.15	512.58
427.33	437.68
427.52	397.89
427.71	404.91
427.90	411.93
428.09	369.80
428.28	454.06
428.46	379.17
428.65	444.70
428.84	372.15
429.03	454.06
429.22	376.83
429.40	322.99
429.59	444.70
429.78	456.40
429.97	463.43
430.16	393.21
430.34	367.46
430.53	421.30
430.72	390.87
430.91	386.19
431.10	407.25
431.28	418.96
431.47	409.59
431.66	414.27
431.85	430.66
432.03	397.89
432.22	461.09
432.41	456.40
432.60	430.66
432.79	440.02
432.97	461.09
433.16	442.36
433.35	372.15
433.54	418.96
433.72	437.68
433.91	454.06
434.10	428.32
434.28	379.17
434.47	437.68
434.66	442.36
434.85	411.93
435.03	456.40
435.22	575.77
435.41	482.15
435.59	315.97
435.78	425.98
435.97	514.92
436.16	477.47
436.34	451.72
436.53	390.87
436.72	435.34
436.90	404.91
437.09	456.40
437.28	414.27
437.46	451.72
437.65	440.02
437.84	449.38
438.02	402.57
438.21	433.00
438.40	470.45
438.58	372.15
438.77	440.02
438.96	409.59
439.14	374.49
439.33	388.53
439.52	388.53
439.70	411.93
439.89	430.66
440.08	442.36
440.26	465.77
440.45	386.19
440.63	425.98
440.82	369.80
441.01	372.15
441.19	386.19
441.38	440.02
441.57	414.27
441.75	454.06
441.94	451.72
442.12	367.46
442.31	379.17
442.50	402.57
442.68	440.02
442.87	390.87
443.05	379.17
443.24	397.89
443.43	475.13
443.61	472.79
443.80	393.21
443.98	444.70
444.17	360.44
444.35	451.72
444.54	404.91
444.73	444.70
444.91	444.70
445.10	465.77
445.28	449.38
445.47	435.34
445.65	437.68
445.84	411.93
446.02	458.74
446.21	468.11
446.39	433.00
446.58	468.11
446.77	428.32
446.95	433.00
447.14	388.53
447.32	449.38
447.51	311.29
447.69	421.30
447.88	468.11
448.06	468.11
448.25	451.72
448.43	341.72
448.62	430.66
448.80	454.06
448.99	421.30
449.17	358.10
449.36	395.55
449.54	498.53
449.73	383.85
449.91	475.13
450.10	449.38
450.28	500.87
450.46	430.66
450.65	435.34
450.83	505.56
451.02	367.46
451.20	379.17
451.39	400.23
451.57	407.25
451.76	423.64
451.94	397.89
452.13	400.23
452.31	388.53
452.49	430.66
452.68	407.25
452.86	435.34
453.05	503.22
453.23	442.36
453.42	430.66
453.60	444.70
453.78	425.98
453.97	414.27
454.15	395.55
454.34	423.64
454.52	442.36
454.70	477.47
454.89	369.80
455.07	435.34
455.26	477.47
455.44	390.87
455.62	400.23
455.81	437.68
455.99	500.87
456.17	327.68
456.36	416.62
456.54	423.64
456.73	418.96
456.91	430.66
457.09	400.23
457.28	402.57
457.46	444.70
457.64	423.64
457.83	437.68
458.01	409.59
458.19	444.70
458.38	416.62
458.56	428.32
458.74	369.80
458.93	451.72
459.11	435.34
459.29	423.64
459.48	416.62
459.66	454.06
459.84	470.45
460.03	521.94
460.21	451.72
460.39	421.30
460.57	437.68
460.76	428.32
460.94	482.15
461.12	500.87
461.31	440.02
461.49	517.26
461.67	449.38
461.85	411.93
462.04	442.36
462.22	791.10
462.40	475.13
462.59	423.64
462.77	358.10
462.95	456.40
463.13	447.04
463.32	430.66
463.50	397.89
463.68	414.27
463.86	393.21
464.05	447.04
464.23	463.43
464.41	414.27
464.59	397.89
464.78	411.93
464.96	430.66
465.14	449.38
465.32	339.38
465.50	369.80
465.69	461.09
465.87	435.34
466.05	430.66
466.23	381.51
466.41	367.46
466.60	397.89
466.78	400.23
466.96	423.64
467.14	449.38
467.32	475.13
467.51	411.93
467.69	407.25
467.87	437.68
468.05	353.42
468.23	500.87
468.41	423.64
468.60	374.49
468.78	381.51
468.96	381.51
469.14	409.59
469.32	421.30
469.50	447.04
469.69	435.34
469.87	351.08
470.05	400.23
470.23	423.64
470.41	360.44
470.59	449.38
470.77	341.72
470.95	395.55
471.14	372.15
471.32	489.17
471.50	423.64
471.68	470.45
471.86	433.00
472.04	348.74
472.22	479.81
472.40	430.66
472.58	444.70
472.77	421.30
472.95	409.59
473.13	390.87
473.31	374.49
473.49	458.74
473.67	395.55
473.85	428.32
474.03	440.02
474.21	386.19
474.39	433.00
474.57	491.51
474.75	400.23
474.93	449.38
475.12	449.38
475.30	454.06
475.48	383.85
475.66	454.06
475.84	416.62
476.02	390.87
476.20	470.45
476.38	444.70
476.56	437.68
476.74	411.93
476.92	451.72
477.10	437.68
477.28	367.46
477.46	393.21
477.64	456.40
477.82	433.00
478.00	416.62
478.18	411.93
478.36	442.36
478.54	444.70
478.72	409.59
478.90	365.12
479.08	428.32
479.26	421.30
479.44	390.87
479.62	348.74
479.80	379.17
479.98	404.91
480.16	442.36
480.34	486.83
480.52	369.80
480.70	390.87
480.88	315.97
481.06	407.25
481.24	383.85
481.41	411.93
481.59	425.98
481.77	425.98
481.95	458.74
482.13	353.42
482.31	477.47
482.49	425.98
482.67	449.38
482.85	402.57
483.03	409.59
483.21	425.98
483.39	348.74
483.57	386.19
483.74	486.83
483.92	414.27
484.10	414.27
484.28	390.87
484.46	526.62
484.64	344.06
484.82	442.36
485.00	381.51
485.18	456.40
485.35	416.62
485.53	425.98
485.71	484.49
485.89	400.23
486.07	411.93
486.25	547.69
486.43	407.25
486.61	437.68
486.78	472.79
486.96	379.17
487.14	346.40
487.32	423.64
487.50	386.19
487.68	444.70
487.85	376.83
488.03	379.17
488.21	447.04
488.39	437.68
488.57	486.83
488.75	353.42
488.92	496.19
489.10	416.62
489.28	437.68
489.46	383.85
489.64	409.59
489.81	468.11
489.99	425.98
490.17	390.87
490.35	418.96
490.53	292.57
490.70	381.51
490.88	451.72
491.06	482.15
491.24	421.30
491.41	402.57
491.59	449.38
491.77	425.98
491.95	381.51
492.13	358.10
492.30	372.15
492.48	376.83
492.66	414.27
492.84	475.13
493.01	397.89
493.19	425.98
493.37	416.62
493.54	365.12
493.72	374.49
493.90	479.81
494.08	395.55
494.25	409.59
494.43	475.13
494.61	444.70
494.79	390.87
494.96	449.38
495.14	437.68
495.32	388.53
495.49	433.00
495.67	456.40
495.85	381.51
496.02	379.17
496.20	468.11
496.38	388.53
496.55	376.83
496.73	395.55
496.91	372.15
497.09	421.30
497.26	351.08
497.44	369.80
497.62	414.27
497.79	421.30
497.97	437.68
498.14	454.06
498.32	379.17
498.50	465.77
498.67	404.91
498.85	404.91
499.03	430.66
499.20	407.25
499.38	451.72
499.56	416.62
499.73	507.90
499.91	397.89
500.08	376.83
500.26	341.72
500.44	454.06
500.61	423.64
500.79	437.68
500.97	465.77
501.14	395.55
501.32	393.21
501.49	418.96
501.67	374.49
501.84	442.36
502.02	388.53
502.20	433.00
502.37	442.36
502.55	376.83
502.72	404.91
502.90	484.49
503.07	458.74
503.25	411.93
503.43	421.30
503.60	463.43
503.78	510.24
503.95	479.81
504.13	400.23
504.30	423.64
504.48	418.96
504.65	376.83
504.83	475.13
505.01	421.30
505.18	379.17
505.36	409.59
505.53	409.59
505.71	404.91
505.88	362.78
506.06	414.27
506.23	381.51
506.41	421.30
506.58	468.11
506.76	386.19
506.93	486.83
507.11	330.02
507.28	421.30
507.46	440.02
507.63	428.32
507.81	372.15
507.98	379.17
508.16	372.15
508.33	425.98
508.50	386.19
508.68	411.93
508.85	423.64
509.03	418.96
509.20	409.59
509.38	409.59
509.55	372.15
509.73	468.11
509.90	463.43
510.08	379.17
510.25	458.74
510.42	409.59
510.60	442.36
510.77	465.77
510.95	454.06
511.12	407.25
511.30	393.21
511.47	430.66
511.64	437.68
511.82	402.57
511.99	383.85
512.17	376.83
512.34	397.89
512.51	400.23
512.69	454.06
512.86	440.02
513.04	404.91
513.21	379.17
513.38	362.78
513.56	435.34
513.73	468.11
513.90	379.17
514.08	402.57
514.25	421.30
514.43	404.91
514.60	353.42
514.77	475.13
514.95	456.40
515.12	421.30
515.29	489.17
515.47	346.40
515.64	355.76
515.81	407.25
515.99	456.40
516.16	458.74
516.33	447.04
516.51	444.70
516.68	383.85
516.85	461.09
517.03	463.43
517.20	397.89
517.37	489.17
517.54	435.34
517.72	381.51
517.89	449.38
518.06	360.44
518.24	442.36
518.41	411.93
518.58	430.66
518.75	468.11
518.93	463.43
519.10	435.34
519.27	404.91
519.45	442.36
519.62	404.91
519.79	442.36
519.96	409.59
520.14	430.66
520.31	449.38
520.48	367.46
520.65	421.30
520.83	416.62
521.00	418.96
521.17	416.62
521.34	416.62
521.52	433.00
521.69	444.70
521.86	416.62
522.03	395.55
522.20	526.62
522.38	397.89
522.55	437.68
522.72	395.55
522.89	491.51
523.07	449.38
523.24	421.30
523.41	390.87
523.58	465.77
523.75	388.53
523.92	444.70
524.10	381.51
524.27	425.98
524.44	433.00
524.61	390.87
524.78	437.68
524.96	411.93
525.13	449.38
525.30	423.64
525.47	416.62
525.64	404.91
525.81	430.66
525.98	400.23
526.16	404.91
526.33	435.34
526.50	444.70
526.67	416.62
526.84	423.64
527.01	388.53
527.18	400.23
527.36	421.30
527.53	414.27
527.70	437.68
527.87	428.32
528.04	486.83
528.21	461.09
528.38	374.49
528.55	440.02
528.72	491.51
528.89	456.40
529.07	397.89
529.24	428.32
529.41	454.06
529.58	393.21
529.75	407.25
529.92	447.04
530.09	477.47
530.26	407.25
530.43	400.23
530.60	411.93
530.77	435.34
530.94	383.85
531.11	423.64
531.28	428.32
531.46	418.96
531.63	416.62
531.80	411.93
531.97	404.91
532.14	374.49
532.31	367.46
532.48	510.24
532.65	351.08
532.82	404.91
532.99	362.78
533.16	416.62
533.33	435.34
533.50	433.00
533.67	400.23
533.84	461.09
534.01	454.06
534.18	465.77
534.35	346.40
534.52	416.62
534.69	425.98
534.86	433.00
535.03	386.19
535.20	425.98
535.37	381.51
535.54	395.55
535.71	423.64
535.88	428.32
536.05	423.64
536.22	449.38
536.38	456.40
536.55	456.40
536.72	477.47
536.89	358.10
537.06	444.70
537.23	447.04
537.40	358.10
537.57	416.62
537.74	461.09
537.91	510.24
538.08	416.62
538.25	388.53
538.42	451.72
538.59	418.96
538.75	374.49
538.92	458.74
539.09	461.09
539.26	411.93
539.43	428.32
539.60	360.44
539.77	388.53
539.94	456.40
540.11	442.36
540.28	400.23
540.44	423.64
540.61	428.32
540.78	369.80
540.95	393.21
541.12	409.59
541.29	355.76
541.46	500.87
541.62	390.87
541.79	407.25
541.96	416.62
542.13	433.00
542.30	383.85
542.47	430.66
542.63	421.30
542.80	376.83
542.97	418.96
543.14	358.10
543.31	486.83
543.48	442.36
543.64	388.53
543.81	477.47
543.98	332.36
544.15	381.51
544.32	411.93
544.48	414.27
544.65	390.87
544.82	463.43
544.99	400.23
545.16	454.06
545.32	442.36
545.49	454.06
545.66	407.25
545.83	383.85
546.00	428.32
546.16	418.96
546.33	393.21
546.50	423.64
546.67	433.00
546.83	381.51
547.00	409.59
547.17	428.32
547.34	353.42
547.50	484.49
547.67	437.68
547.84	404.91
548.00	456.40
548.17	447.04
548.34	454.06
548.51	379.17
548.67	416.62
548.84	393.21
549.01	461.09
549.18	430.66
549.34	390.87
549.51	440.02
549.68	369.80
549.84	428.32
550.01	479.81
550.18	428.32
550.34	486.83
550.51	423.64
550.68	414.27
550.84	421.30
551.01	404.91
551.18	372.15
551.34	400.23
551.51	507.90
551.68	416.62
551.84	477.47
552.01	397.89
552.18	465.77
552.34	479.81
552.51	416.62
552.68	397.89
552.84	418.96
553.01	353.42
553.18	416.62
553.34	447.04
553.51	339.38
553.67	421.30
553.84	411.93
554.01	428.32
554.17	400.23
554.34	449.38
554.51	383.85
554.67	433.00
554.84	423.64
555.00	388.53
555.17	444.70
555.33	486.83
555.50	472.79
555.67	395.55
555.83	447.04
556.00	418.96
556.16	578.11
556.33	435.34
556.50	346.40
556.66	351.08
556.83	435.34
556.99	409.59
557.16	390.87
557.32	425.98
557.49	418.96
557.65	411.93
557.82	470.45
557.98	416.62
558.15	407.25
558.32	409.59
558.48	374.49
558.65	425.98
558.81	463.43
558.98	416.62
559.14	402.57
559.31	341.72
559.47	456.40
559.64	435.34
559.80	435.34
559.97	386.19
560.13	369.80
560.30	425.98
560.46	388.53
560.63	400.23
560.79	435.34
560.96	409.59
561.12	402.57
561.29	465.77
561.45	435.34
561.61	498.53
561.78	400.23
561.94	386.19
562.11	411.93
562.27	393.21
562.44	404.91
562.60	456.40
562.77	430.66
562.93	409.59
563.10	397.89
563.26	379.17
563.42	507.90
563.59	435.34
563.75	381.51
563.92	454.06
564.08	418.96
564.24	484.49
564.41	484.49
564.57	442.36
564.74	463.43
564.90	379.17
565.07	383.85
565.23	407.25
565.39	402.57
565.56	470.45
565.72	430.66
565.88	411.93
566.05	416.62
566.21	407.25
566.38	442.36
566.54	360.44
566.70	386.19
566.87	411.93
567.03	379.17
567.19	435.34
567.36	416.62
567.52	397.89
567.68	505.56
567.85	411.93
568.01	477.47
568.17	383.85
568.34	421.30
568.50	449.38
568.66	418.96
568.83	447.04
568.99	393.21
569.15	496.19
569.32	393.21
569.48	435.34
569.64	372.15
569.81	372.15
569.97	397.89
570.13	402.57
570.30	369.80
570.46	397.89
570.62	421.30
570.78	395.55
570.95	360.44
571.11	409.59
571.27	393.21
571.43	421.30
571.60	414.27
571.76	388.53
571.92	437.68
572.09	388.53
572.25	482.15
572.41	451.72
572.57	360.44
572.74	374.49
572.90	374.49
573.06	458.74
573.22	418.96
573.38	414.27
573.55	451.72
573.71	390.87
573.87	456.40
574.03	365.12
574.20	362.78
574.36	482.15
574.52	440.02
574.68	435.34
574.84	454.06
575.01	407.25
575.17	400.23
575.33	440.02
575.49	461.09
575.65	430.66
575.82	486.83
575.98	430.66
576.14	383.85
576.30	393.21
576.46	456.40
576.62	461.09
576.79	407.25
576.95	425.98
577.11	435.34
577.27	428.32
577.43	381.51
577.59	418.96
577.75	425.98
577.92	437.68
578.08	416.62
578.24	428.32
578.40	428.32
578.56	418.96
578.72	503.22
578.88	458.74
579.04	414.27
579.21	425.98
579.37	395.55
579.53	428.32
579.69	489.17
579.85	397.89
580.01	402.57
580.17	416.62
580.33	428.32
580.49	437.68
580.65	461.09
580.82	365.12
580.98	388.53
581.14	379.17
581.30	411.93
581.46	435.34
581.62	444.70
581.78	500.87
581.94	437.68
582.10	407.25
582.26	383.85
582.42	367.46
582.58	477.47
582.74	421.30
582.90	423.64
583.06	437.68
583.22	433.00
583.38	400.23
583.54	416.62
583.70	463.43
583.86	444.70
584.02	423.64
584.18	486.83
584.34	393.21
584.50	376.83
584.66	416.62
584.82	402.57
584.98	444.70
585.14	433.00
585.30	418.96
585.46	379.17
585.62	397.89
585.78	404.91
585.94	444.70
586.10	449.38
586.26	475.13
586.42	440.02
586.58	423.64
586.74	330.02
586.90	407.25
587.06	402.57
587.22	421.30
587.38	463.43
587.54	454.06
587.70	440.02
587.86	428.32
588.02	404.91
588.18	472.79
588.34	388.53
588.49	416.62
588.65	468.11
588.81	409.59
588.97	367.46
589.13	468.11
589.29	383.85
589.45	386.19
589.61	470.45
589.77	500.87
589.93	362.78
590.08	402.57
590.24	381.51
590.40	423.64
590.56	440.02
590.72	500.87
590.88	437.68
591.04	365.12
591.20	423.64
591.35	393.21
591.51	442.36
591.67	423.64
591.83	358.10
591.99	458.74
592.15	374.49
592.31	381.51
592.46	440.02
592.62	315.97
592.78	341.72
592.94	339.38
593.10	397.89
593.26	362.78
593.41	390.87
593.57	428.32
593.73	444.70
593.89	447.04
594.05	383.85
594.20	355.76
594.36	435.34
594.52	418.96
594.68	449.38
594.84	456.40
594.99	440.02
595.15	393.21
595.31	409.59
595.47	468.11
595.62	334.70
595.78	456.40
595.94	454.06
596.10	493.85
596.25	409.59
596.41	465.77
596.57	416.62
596.73	486.83
596.88	421.30
597.04	447.04
597.20	470.45
597.36	451.72
597.51	411.93
597.67	470.45
597.83	423.64
597.99	437.68
598.14	454.06
598.30	454.06
598.46	402.57
598.61	400.23
598.77	430.66
598.93	376.83
599.09	465.77
599.24	390.87
599.40	510.24
599.56	491.51
599.71	414.27
599.87	491.51
600.03	421.30
600.18	360.44
600.34	454.06
600.50	468.11
600.65	435.34
600.81	425.98
600.97	339.38
601.12	402.57
601.28	404.91
601.44	442.36
601.59	381.51
601.75	425.98
601.91	407.25
602.06	425.98
602.22	470.45
602.37	362.78
602.53	456.40
602.69	397.89
602.84	404.91
603.00	376.83
603.16	369.80
603.31	444.70
603.47	468.11
603.62	442.36
603.78	421.30
603.94	461.09
604.09	425.98
604.25	475.13
604.40	411.93
604.56	435.34
604.71	393.21
604.87	341.72
605.03	430.66
605.18	456.40
605.34	428.32
605.49	407.25
605.65	411.93
605.80	404.91
605.96	416.62
606.12	383.85
606.27	400.23
606.43	425.98
606.58	470.45
606.74	449.38
606.89	447.04
607.05	447.04
607.20	411.93
607.36	390.87
607.51	435.34
607.67	393.21
607.82	447.04
607.98	428.32
608.13	407.25
608.29	393.21
608.44	402.57
608.60	458.74
608.75	423.64
608.91	402.57
609.06	447.04
609.22	470.45
609.37	369.80
609.53	418.96
609.68	395.55
609.84	425.98
609.99	440.02
610.15	407.25
