SpectraSuite Data File
++++++++++++++++++++++++++++++++++++
Date: Fri Oct 25 12:10:08 EDT 2013
User: price-jones
Dark Spectrum Present: No
Reference Spectrum Present: No
Number of Sampled Component Spectra: 1
Spectrometers: USB2+H05261
Integration Time (usec): 100000 (USB2+H05261)
Spectra Averaged: 1 (USB2+H05261)
Boxcar Smoothing: 0 (USB2+H05261)
Correct for Electrical Dark: No (USB2+H05261)
Strobe/Lamp Enabled: No (USB2+H05261)
Correct for Detector Non-linearity: No (USB2+H05261)
Correct for Stray Light: No (USB2+H05261)
Number of Pixels in Processed Spectrum: 2048
>>>>>Begin Processed Spectral Data<<<<<
365.73	355.76
365.92	355.76
366.12	355.76
366.32	271.50
366.52	264.48
366.72	241.08
366.91	234.05
367.11	229.37
367.31	248.10
367.51	266.82
367.70	271.50
367.90	210.65
368.10	294.91
368.30	327.68
368.49	259.80
368.69	280.86
368.89	243.42
369.09	252.78
369.28	280.86
369.48	318.31
369.68	255.12
369.87	325.33
370.07	355.76
370.27	372.15
370.47	287.89
370.66	313.63
370.86	313.63
371.06	409.59
371.25	418.96
371.45	330.02
371.65	416.62
371.84	379.17
372.04	435.34
372.24	369.80
372.44	409.59
372.63	379.17
372.83	442.36
373.03	479.81
373.22	423.64
373.42	435.34
373.62	374.49
373.81	458.74
374.01	390.87
374.21	465.77
374.40	475.13
374.60	447.04
374.79	425.98
374.99	468.11
375.19	358.10
375.38	386.19
375.58	372.15
375.78	468.11
375.97	461.09
376.17	423.64
376.37	388.53
376.56	411.93
376.76	400.23
376.95	407.25
377.15	442.36
377.35	409.59
377.54	449.38
377.74	386.19
377.93	404.91
378.13	449.38
378.33	421.30
378.52	372.15
378.72	423.64
378.91	454.06
379.11	418.96
379.31	428.32
379.50	421.30
379.70	440.02
379.89	402.57
380.09	428.32
380.28	390.87
380.48	386.19
380.68	379.17
380.87	461.09
381.07	388.53
381.26	404.91
381.46	435.34
381.65	449.38
381.85	435.34
382.04	369.80
382.24	393.21
382.43	442.36
382.63	386.19
382.83	428.32
383.02	430.66
383.22	360.44
383.41	393.21
383.61	400.23
383.80	442.36
384.00	388.53
384.19	379.17
384.39	341.72
384.58	376.83
384.78	379.17
384.97	358.10
385.17	407.25
385.36	386.19
385.56	388.53
385.75	332.36
385.95	409.59
386.14	360.44
386.34	388.53
386.53	395.55
386.72	360.44
386.92	430.66
387.11	383.85
387.31	383.85
387.50	416.62
387.70	416.62
387.89	369.80
388.09	414.27
388.28	390.87
388.48	435.34
388.67	397.89
388.86	416.62
389.06	348.74
389.25	447.04
389.45	379.17
389.64	400.23
389.84	475.13
390.03	465.77
390.22	390.87
390.42	454.06
390.61	433.00
390.81	397.89
391.00	465.77
391.19	470.45
391.39	397.89
391.58	393.21
391.78	407.25
391.97	407.25
392.16	451.72
392.36	425.98
392.55	430.66
392.75	435.34
392.94	409.59
393.13	400.23
393.33	367.46
393.52	315.97
393.71	421.30
393.91	407.25
394.10	379.17
394.29	369.80
394.49	381.51
394.68	353.42
394.88	372.15
395.07	376.83
395.26	397.89
395.46	355.76
395.65	423.64
395.84	358.10
396.04	416.62
396.23	360.44
396.42	318.31
396.62	386.19
396.81	355.76
397.00	416.62
397.19	461.09
397.39	404.91
397.58	402.57
397.77	372.15
397.97	388.53
398.16	332.36
398.35	409.59
398.55	404.91
398.74	463.43
398.93	458.74
399.12	381.51
399.32	463.43
399.51	379.17
399.70	498.53
399.90	374.49
400.09	358.10
400.28	435.34
400.47	463.43
400.67	414.27
400.86	458.74
401.05	414.27
401.24	482.15
401.44	372.15
401.63	367.46
401.82	390.87
402.01	435.34
402.21	362.78
402.40	416.62
402.59	418.96
402.78	376.83
402.97	376.83
403.17	390.87
403.36	437.68
403.55	416.62
403.74	351.08
403.93	404.91
404.13	465.77
404.32	372.15
404.51	404.91
404.70	414.27
404.89	423.64
405.09	369.80
405.28	425.98
405.47	362.78
405.66	355.76
405.85	395.55
406.05	372.15
406.24	376.83
406.43	484.49
406.62	425.98
406.81	435.34
407.00	425.98
407.20	395.55
407.39	332.36
407.58	433.00
407.77	362.78
407.96	379.17
408.15	489.17
408.34	320.65
408.54	339.38
408.73	393.21
408.92	339.38
409.11	360.44
409.30	393.21
409.49	374.49
409.68	379.17
409.87	477.47
410.07	409.59
410.26	418.96
410.45	428.32
410.64	369.80
410.83	451.72
411.02	390.87
411.21	339.38
411.40	383.85
411.59	330.02
411.78	334.70
411.98	496.19
412.17	402.57
412.36	320.65
412.55	400.23
412.74	435.34
412.93	468.11
413.12	444.70
413.31	376.83
413.50	416.62
413.69	362.78
413.88	496.19
414.07	418.96
414.26	454.06
414.45	383.85
414.64	430.66
414.83	440.02
415.02	411.93
415.22	365.12
415.41	411.93
415.60	423.64
415.79	477.47
415.98	428.32
416.17	416.62
416.36	400.23
416.55	418.96
416.74	430.66
416.93	411.93
417.12	355.76
417.31	421.30
417.50	433.00
417.69	416.62
417.88	388.53
418.07	339.38
418.26	470.45
418.45	407.25
418.64	468.11
418.83	423.64
419.02	414.27
419.21	418.96
419.39	425.98
419.58	470.45
419.77	395.55
419.96	416.62
420.15	437.68
420.34	416.62
420.53	344.06
420.72	451.72
420.91	381.51
421.10	351.08
421.29	383.85
421.48	379.17
421.67	369.80
421.86	407.25
422.05	402.57
422.24	369.80
422.43	416.62
422.61	414.27
422.80	442.36
422.99	365.12
423.18	404.91
423.37	475.13
423.56	433.00
423.75	376.83
423.94	461.09
424.13	411.93
424.32	451.72
424.50	322.99
424.69	353.42
424.88	451.72
425.07	397.89
425.26	451.72
425.45	402.57
425.64	320.65
425.83	449.38
426.01	456.40
426.20	395.55
426.39	411.93
426.58	437.68
426.77	449.38
426.96	388.53
427.15	397.89
427.33	425.98
427.52	425.98
427.71	416.62
427.90	393.21
428.09	489.17
428.28	379.17
428.46	386.19
428.65	437.68
428.84	360.44
429.03	472.79
429.22	360.44
429.40	313.63
429.59	369.80
429.78	355.76
429.97	421.30
430.16	344.06
430.34	437.68
430.53	376.83
430.72	430.66
430.91	374.49
431.10	325.33
431.28	372.15
431.47	503.22
431.66	479.81
431.85	348.74
432.03	367.46
432.22	430.66
432.41	433.00
432.60	449.38
432.79	451.72
432.97	367.46
433.16	362.78
433.35	376.83
433.54	484.49
433.72	486.83
433.91	411.93
434.10	435.34
434.28	376.83
434.47	416.62
434.66	430.66
434.85	440.02
435.03	367.46
435.22	402.57
435.41	461.09
435.59	423.64
435.78	407.25
435.97	390.87
436.16	400.23
436.34	451.72
436.53	409.59
436.72	421.30
436.90	451.72
437.09	367.46
437.28	360.44
437.46	440.02
437.65	423.64
437.84	339.38
438.02	339.38
438.21	440.02
438.40	372.15
438.58	351.08
438.77	430.66
438.96	344.06
439.14	418.96
439.33	414.27
439.52	418.96
439.70	351.08
439.89	395.55
440.08	372.15
440.26	369.80
440.45	442.36
440.63	379.17
440.82	470.45
441.01	372.15
441.19	411.93
441.38	402.57
441.57	351.08
441.75	402.57
441.94	435.34
442.12	404.91
442.31	355.76
442.50	437.68
442.68	425.98
442.87	404.91
443.05	447.04
443.24	470.45
443.43	507.90
443.61	437.68
443.80	440.02
443.98	379.17
444.17	423.64
444.35	404.91
444.54	411.93
444.73	358.10
444.91	351.08
445.10	393.21
445.28	393.21
445.47	425.98
445.65	470.45
445.84	447.04
446.02	428.32
446.21	393.21
446.39	444.70
446.58	430.66
446.77	423.64
446.95	386.19
447.14	407.25
447.32	407.25
447.51	360.44
447.69	456.40
447.88	411.93
448.06	458.74
448.25	451.72
448.43	386.19
448.62	421.30
448.80	442.36
448.99	367.46
449.17	351.08
449.36	449.38
449.54	449.38
449.73	468.11
449.91	437.68
450.10	400.23
450.28	421.30
450.46	421.30
450.65	404.91
450.83	447.04
451.02	463.43
451.20	425.98
451.39	449.38
451.57	379.17
451.76	440.02
451.94	435.34
452.13	386.19
452.31	451.72
452.49	430.66
452.68	449.38
452.86	454.06
453.05	411.93
453.23	437.68
453.42	421.30
453.60	395.55
453.78	418.96
453.97	437.68
454.15	400.23
454.34	463.43
454.52	379.17
454.70	407.25
454.89	414.27
455.07	437.68
455.26	423.64
455.44	416.62
455.62	393.21
455.81	402.57
455.99	355.76
456.17	423.64
456.36	402.57
456.54	440.02
456.73	411.93
456.91	397.89
457.09	475.13
457.28	411.93
457.46	409.59
457.64	514.92
457.83	465.77
458.01	365.12
458.19	496.19
458.38	388.53
458.56	390.87
458.74	411.93
458.93	330.02
459.11	402.57
459.29	400.23
459.48	496.19
459.66	400.23
459.84	472.79
460.03	433.00
460.21	423.64
460.39	390.87
460.57	369.80
460.76	430.66
460.94	447.04
461.12	472.79
461.31	425.98
461.49	407.25
461.67	496.19
461.85	376.83
462.04	409.59
462.22	791.10
462.40	468.11
462.59	428.32
462.77	388.53
462.95	449.38
463.13	259.80
463.32	423.64
463.50	430.66
463.68	472.79
463.86	428.32
464.05	395.55
464.23	491.51
464.41	421.30
464.59	379.17
464.78	346.40
464.96	395.55
465.14	383.85
465.32	428.32
465.50	383.85
465.69	425.98
465.87	458.74
466.05	423.64
466.23	400.23
466.41	409.59
466.60	397.89
466.78	337.04
466.96	447.04
467.14	418.96
467.32	409.59
467.51	440.02
467.69	493.85
467.87	404.91
468.05	388.53
468.23	550.03
468.41	416.62
468.60	435.34
468.78	402.57
468.96	435.34
469.14	418.96
469.32	414.27
469.50	404.91
469.69	442.36
469.87	451.72
470.05	491.51
470.23	416.62
470.41	430.66
470.59	379.17
470.77	435.34
470.95	463.43
471.14	465.77
471.32	444.70
471.50	447.04
471.68	411.93
471.86	447.04
472.04	475.13
472.22	461.09
472.40	365.12
472.58	430.66
472.77	414.27
472.95	355.76
473.13	451.72
473.31	437.68
473.49	393.21
473.67	379.17
473.85	486.83
474.03	463.43
474.21	514.92
474.39	477.47
474.57	484.49
474.75	416.62
474.93	435.34
475.12	440.02
475.30	367.46
475.48	414.27
475.66	454.06
475.84	400.23
476.02	496.19
476.20	449.38
476.38	418.96
476.56	503.22
476.74	411.93
476.92	376.83
477.10	397.89
477.28	482.15
477.46	411.93
477.64	521.94
477.82	425.98
478.00	358.10
478.18	430.66
478.36	355.76
478.54	376.83
478.72	365.12
478.90	428.32
479.08	365.12
479.26	451.72
479.44	383.85
479.62	449.38
479.80	376.83
479.98	442.36
480.16	409.59
480.34	454.06
480.52	437.68
480.70	468.11
480.88	376.83
481.06	407.25
481.24	348.74
481.41	433.00
481.59	456.40
481.77	482.15
481.95	433.00
482.13	395.55
482.31	339.38
482.49	379.17
482.67	430.66
482.85	390.87
483.03	355.76
483.21	400.23
483.39	362.78
483.57	411.93
483.74	479.81
483.92	362.78
484.10	402.57
484.28	437.68
484.46	440.02
484.64	470.45
484.82	416.62
485.00	358.10
485.18	465.77
485.35	393.21
485.53	428.32
485.71	461.09
485.89	386.19
486.07	411.93
486.25	442.36
486.43	386.19
486.61	360.44
486.78	404.91
486.96	376.83
487.14	444.70
487.32	433.00
487.50	400.23
487.68	449.38
487.85	379.17
488.03	369.80
488.21	374.49
488.39	461.09
488.57	390.87
488.75	341.72
488.92	428.32
489.10	348.74
489.28	433.00
489.46	465.77
489.64	472.79
489.81	418.96
489.99	381.51
490.17	444.70
490.35	486.83
490.53	390.87
490.70	341.72
490.88	397.89
491.06	381.51
491.24	435.34
491.41	451.72
491.59	388.53
491.77	435.34
491.95	402.57
492.13	341.72
492.30	374.49
492.48	367.46
492.66	397.89
492.84	411.93
493.01	489.17
493.19	355.76
493.37	437.68
493.54	369.80
493.72	475.13
493.90	400.23
494.08	351.08
494.25	409.59
494.43	430.66
494.61	418.96
494.79	395.55
494.96	386.19
495.14	411.93
495.32	388.53
495.49	416.62
495.67	517.26
495.85	416.62
496.02	423.64
496.20	449.38
496.38	430.66
496.55	425.98
496.73	472.79
496.91	381.51
497.09	348.74
497.26	414.27
497.44	369.80
497.62	372.15
497.79	404.91
497.97	437.68
498.14	402.57
498.32	294.91
498.50	414.27
498.67	461.09
498.85	386.19
499.03	451.72
499.20	355.76
499.38	393.21
499.56	374.49
499.73	496.19
499.91	454.06
500.08	414.27
500.26	435.34
500.44	409.59
500.61	433.00
500.79	388.53
500.97	451.72
501.14	397.89
501.32	423.64
501.49	428.32
501.67	468.11
501.84	402.57
502.02	454.06
502.20	442.36
502.37	360.44
502.55	400.23
502.72	381.51
502.90	447.04
503.07	407.25
503.25	421.30
503.43	430.66
503.60	411.93
503.78	407.25
503.95	386.19
504.13	362.78
504.30	411.93
504.48	409.59
504.65	470.45
504.83	416.62
505.01	414.27
505.18	369.80
505.36	437.68
505.53	397.89
505.71	379.17
505.88	418.96
506.06	421.30
506.23	397.89
506.41	475.13
506.58	395.55
506.76	358.10
506.93	402.57
507.11	425.98
507.28	397.89
507.46	407.25
507.63	393.21
507.81	330.02
507.98	346.40
508.16	372.15
508.33	372.15
508.50	442.36
508.68	433.00
508.85	454.06
509.03	407.25
509.20	470.45
509.38	449.38
509.55	463.43
509.73	435.34
509.90	461.09
510.08	395.55
510.25	339.38
510.42	374.49
510.60	470.45
510.77	512.58
510.95	379.17
511.12	521.94
511.30	418.96
511.47	409.59
511.64	442.36
511.82	390.87
511.99	367.46
512.17	430.66
512.34	411.93
512.51	414.27
512.69	390.87
512.86	425.98
513.04	395.55
513.21	388.53
513.38	409.59
513.56	451.72
513.73	409.59
513.90	484.49
514.08	369.80
514.25	421.30
514.43	428.32
514.60	360.44
514.77	407.25
514.95	428.32
515.12	451.72
515.29	395.55
515.47	414.27
515.64	372.15
515.81	425.98
515.99	435.34
516.16	393.21
516.33	484.49
516.51	369.80
516.68	369.80
516.85	402.57
517.03	442.36
517.20	440.02
517.37	437.68
517.54	477.47
517.72	451.72
517.89	416.62
518.06	409.59
518.24	461.09
518.41	444.70
518.58	425.98
518.75	454.06
518.93	477.47
519.10	498.53
519.27	393.21
519.45	376.83
519.62	374.49
519.79	428.32
519.96	409.59
520.14	348.74
520.31	411.93
520.48	353.42
520.65	463.43
520.83	421.30
521.00	484.49
521.17	440.02
521.34	409.59
521.52	355.76
521.69	381.51
521.86	442.36
522.03	500.87
522.20	468.11
522.38	442.36
522.55	404.91
522.72	444.70
522.89	444.70
523.07	482.15
523.24	362.78
523.41	414.27
523.58	390.87
523.75	418.96
523.92	425.98
524.10	397.89
524.27	402.57
524.44	428.32
524.61	451.72
524.78	411.93
524.96	463.43
525.13	402.57
525.30	376.83
525.47	348.74
525.64	376.83
525.81	433.00
525.98	489.17
526.16	435.34
526.33	409.59
526.50	430.66
526.67	388.53
526.84	442.36
527.01	454.06
527.18	454.06
527.36	491.51
527.53	430.66
527.70	463.43
527.87	444.70
528.04	468.11
528.21	376.83
528.38	423.64
528.55	486.83
528.72	510.24
528.89	388.53
529.07	362.78
529.24	383.85
529.41	533.64
529.58	440.02
529.75	369.80
529.92	454.06
530.09	409.59
530.26	468.11
530.43	393.21
530.60	397.89
530.77	416.62
530.94	341.72
531.11	425.98
531.28	468.11
531.46	479.81
531.63	395.55
531.80	367.46
531.97	395.55
532.14	465.77
532.31	351.08
532.48	416.62
532.65	442.36
532.82	374.49
532.99	451.72
533.16	437.68
533.33	491.51
533.50	400.23
533.67	463.43
533.84	411.93
534.01	437.68
534.18	386.19
534.35	351.08
534.52	407.25
534.69	425.98
534.86	428.32
535.03	407.25
535.20	376.83
535.37	463.43
535.54	489.17
535.71	388.53
535.88	386.19
536.05	393.21
536.22	383.85
536.38	376.83
536.55	458.74
536.72	402.57
536.89	463.43
537.06	390.87
537.23	447.04
537.40	400.23
537.57	416.62
537.74	479.81
537.91	437.68
538.08	372.15
538.25	489.17
538.42	355.76
538.59	411.93
538.75	402.57
538.92	428.32
539.09	393.21
539.26	463.43
539.43	376.83
539.60	355.76
539.77	360.44
539.94	395.55
540.11	383.85
540.28	463.43
540.44	444.70
540.61	425.98
540.78	418.96
540.95	395.55
541.12	461.09
541.29	390.87
541.46	411.93
541.62	355.76
541.79	374.49
541.96	428.32
542.13	430.66
542.30	463.43
542.47	418.96
542.63	444.70
542.80	395.55
542.97	461.09
543.14	454.06
543.31	430.66
543.48	435.34
543.64	411.93
543.81	365.12
543.98	425.98
544.15	435.34
544.32	430.66
544.48	421.30
544.65	390.87
544.82	414.27
544.99	447.04
545.16	416.62
545.32	407.25
545.49	454.06
545.66	465.77
545.83	376.83
546.00	416.62
546.16	355.76
546.33	423.64
546.50	397.89
546.67	454.06
546.83	416.62
547.00	430.66
547.17	346.40
547.34	372.15
547.50	388.53
547.67	407.25
547.84	433.00
548.00	372.15
548.17	421.30
548.34	383.85
548.51	374.49
548.67	468.11
548.84	381.51
549.01	442.36
549.18	510.24
549.34	425.98
549.51	414.27
549.68	416.62
549.84	444.70
550.01	428.32
550.18	500.87
550.34	468.11
550.51	383.85
550.68	475.13
550.84	423.64
551.01	395.55
551.18	404.91
551.34	423.64
551.51	472.79
551.68	395.55
551.84	449.38
552.01	404.91
552.18	383.85
552.34	479.81
552.51	411.93
552.68	505.56
552.84	428.32
553.01	402.57
553.18	433.00
553.34	454.06
553.51	435.34
553.67	383.85
553.84	468.11
554.01	496.19
554.17	421.30
554.34	440.02
554.51	376.83
554.67	442.36
554.84	428.32
555.00	430.66
555.17	409.59
555.33	484.49
555.50	423.64
555.67	482.15
555.83	407.25
556.00	383.85
556.16	561.73
556.33	437.68
556.50	351.08
556.66	390.87
556.83	379.17
556.99	379.17
557.16	498.53
557.32	402.57
557.49	435.34
557.65	376.83
557.82	400.23
557.98	360.44
558.15	444.70
558.32	393.21
558.48	428.32
558.65	395.55
558.81	463.43
558.98	388.53
559.14	451.72
559.31	493.85
559.47	376.83
559.64	461.09
559.80	383.85
559.97	381.51
560.13	346.40
560.30	414.27
560.46	449.38
560.63	379.17
560.79	451.72
560.96	395.55
561.12	477.47
561.29	482.15
561.45	440.02
561.61	461.09
561.78	496.19
561.94	365.12
562.11	482.15
562.27	454.06
562.44	362.78
562.60	360.44
562.77	358.10
562.93	519.60
563.10	482.15
563.26	425.98
563.42	423.64
563.59	416.62
563.75	351.08
563.92	470.45
564.08	372.15
564.24	477.47
564.41	397.89
564.57	496.19
564.74	393.21
564.90	397.89
565.07	402.57
565.23	425.98
565.39	456.40
565.56	381.51
565.72	421.30
565.88	386.19
566.05	447.04
566.21	397.89
566.38	416.62
566.54	386.19
566.70	409.59
566.87	421.30
567.03	433.00
567.19	367.46
567.36	390.87
567.52	447.04
567.68	353.42
567.85	397.89
568.01	491.51
568.17	414.27
568.34	362.78
568.50	451.72
568.66	353.42
568.83	486.83
568.99	395.55
569.15	500.87
569.32	428.32
569.48	334.70
569.64	341.72
569.81	411.93
569.97	458.74
570.13	468.11
570.30	423.64
570.46	397.89
570.62	411.93
570.78	390.87
570.95	421.30
571.11	402.57
571.27	442.36
571.43	388.53
571.60	470.45
571.76	449.38
571.92	395.55
572.09	411.93
572.25	463.43
572.41	409.59
572.57	461.09
572.74	395.55
572.90	430.66
573.06	468.11
573.22	498.53
573.38	418.96
573.55	334.70
573.71	397.89
573.87	454.06
574.03	386.19
574.20	383.85
574.36	435.34
574.52	367.46
574.68	353.42
574.84	440.02
575.01	440.02
575.17	482.15
575.33	407.25
575.49	381.51
575.65	477.47
575.82	414.27
575.98	425.98
576.14	421.30
576.30	402.57
576.46	454.06
576.62	409.59
576.79	334.70
576.95	449.38
577.11	458.74
577.27	458.74
577.43	440.02
577.59	493.85
577.75	472.79
577.92	468.11
578.08	418.96
578.24	407.25
578.40	362.78
578.56	442.36
578.72	304.27
578.88	472.79
579.04	433.00
579.21	440.02
579.37	348.74
579.53	407.25
579.69	376.83
579.85	433.00
580.01	461.09
580.17	400.23
580.33	355.76
580.49	318.31
580.65	369.80
580.82	418.96
580.98	388.53
581.14	407.25
581.30	463.43
581.46	402.57
581.62	468.11
581.78	362.78
581.94	491.51
582.10	395.55
582.26	421.30
582.42	454.06
582.58	500.87
582.74	409.59
582.90	449.38
583.06	447.04
583.22	365.12
583.38	402.57
583.54	411.93
583.70	362.78
583.86	388.53
584.02	318.31
584.18	433.00
584.34	369.80
584.50	358.10
584.66	400.23
584.82	362.78
584.98	315.97
585.14	411.93
585.30	393.21
585.46	383.85
585.62	458.74
585.78	479.81
585.94	430.66
586.10	428.32
586.26	451.72
586.42	440.02
586.58	526.62
586.74	407.25
586.90	451.72
587.06	425.98
587.22	421.30
587.38	416.62
587.54	421.30
587.70	404.91
587.86	407.25
588.02	437.68
588.18	407.25
588.34	360.44
588.49	435.34
588.65	411.93
588.81	297.25
588.97	393.21
589.13	416.62
589.29	435.34
589.45	449.38
589.61	458.74
589.77	416.62
589.93	430.66
590.08	425.98
590.24	386.19
590.40	397.89
590.56	409.59
590.72	397.89
590.88	374.49
591.04	463.43
591.20	418.96
591.35	451.72
591.51	397.89
591.67	386.19
591.83	423.64
591.99	442.36
592.15	449.38
592.31	475.13
592.46	440.02
592.62	418.96
592.78	425.98
592.94	477.47
593.10	353.42
593.26	421.30
593.41	479.81
593.57	365.12
593.73	409.59
593.89	418.96
594.05	360.44
594.20	393.21
594.36	393.21
594.52	423.64
594.68	463.43
594.84	435.34
594.99	463.43
595.15	498.53
595.31	458.74
595.47	442.36
595.62	409.59
595.78	407.25
595.94	433.00
596.10	360.44
596.25	390.87
596.41	468.11
596.57	383.85
596.73	414.27
596.88	477.47
597.04	393.21
597.20	369.80
597.36	414.27
597.51	440.02
597.67	407.25
597.83	444.70
597.99	365.12
598.14	423.64
598.30	381.51
598.46	372.15
598.61	402.57
598.77	454.06
598.93	360.44
599.09	376.83
599.24	444.70
599.40	458.74
599.56	425.98
599.71	428.32
599.87	428.32
600.03	386.19
600.18	440.02
600.34	528.96
600.50	409.59
600.65	322.99
600.81	491.51
600.97	376.83
601.12	414.27
601.28	393.21
601.44	451.72
601.59	374.49
601.75	416.62
601.91	334.70
602.06	404.91
602.22	430.66
602.37	365.12
602.53	418.96
602.69	369.80
602.84	433.00
603.00	383.85
603.16	475.13
603.31	463.43
603.47	351.08
603.62	409.59
603.78	421.30
603.94	346.40
604.09	409.59
604.25	409.59
604.40	430.66
604.56	397.89
604.71	435.34
604.87	411.93
605.03	435.34
605.18	390.87
605.34	505.56
605.49	437.68
605.65	397.89
605.80	360.44
605.96	390.87
606.12	430.66
606.27	470.45
606.43	428.32
606.58	463.43
606.74	418.96
606.89	381.51
607.05	507.90
607.20	416.62
607.36	440.02
607.51	404.91
607.67	348.74
607.82	421.30
607.98	437.68
608.13	390.87
608.29	337.04
608.44	365.12
608.60	421.30
608.75	470.45
608.91	421.30
609.06	437.68
609.22	428.32
609.37	358.10
609.53	397.89
609.68	381.51
609.84	456.40
609.99	395.55
610.15	433.00
