SpectraSuite Data File
++++++++++++++++++++++++++++++++++++
Date: Fri Oct 25 12:11:14 EDT 2013
User: price-jones
Dark Spectrum Present: No
Reference Spectrum Present: No
Number of Sampled Component Spectra: 1
Spectrometers: USB2+H05261
Integration Time (usec): 100000 (USB2+H05261)
Spectra Averaged: 1 (USB2+H05261)
Boxcar Smoothing: 0 (USB2+H05261)
Correct for Electrical Dark: No (USB2+H05261)
Strobe/Lamp Enabled: No (USB2+H05261)
Correct for Detector Non-linearity: No (USB2+H05261)
Correct for Stray Light: No (USB2+H05261)
Number of Pixels in Processed Spectrum: 2048
>>>>>Begin Processed Spectral Data<<<<<
365.73	301.93
365.92	301.93
366.12	301.93
366.32	252.78
366.52	215.33
366.72	259.80
366.91	285.55
367.11	257.46
367.31	180.22
367.51	248.10
367.70	205.97
367.90	243.42
368.10	156.82
368.30	285.55
368.49	236.39
368.69	234.05
368.89	194.26
369.09	156.82
369.28	252.78
369.48	285.55
369.68	285.55
369.87	388.53
370.07	273.84
370.27	332.36
370.47	348.74
370.66	278.52
370.86	358.10
371.06	334.70
371.25	402.57
371.45	315.97
371.65	428.32
371.84	409.59
372.04	348.74
372.24	358.10
372.44	397.89
372.63	376.83
372.83	402.57
373.03	449.38
373.22	376.83
373.42	433.00
373.62	376.83
373.81	468.11
374.01	414.27
374.21	484.49
374.40	404.91
374.60	397.89
374.79	390.87
374.99	433.00
375.19	447.04
375.38	456.40
375.58	379.17
375.78	383.85
375.97	451.72
376.17	395.55
376.37	414.27
376.56	381.51
376.76	421.30
376.95	383.85
377.15	461.09
377.35	407.25
377.54	472.79
377.74	425.98
377.93	395.55
378.13	379.17
378.33	444.70
378.52	386.19
378.72	433.00
378.91	454.06
379.11	435.34
379.31	383.85
379.50	458.74
379.70	409.59
379.89	440.02
380.09	402.57
380.28	372.15
380.48	400.23
380.68	407.25
380.87	353.42
381.07	400.23
381.26	451.72
381.46	348.74
381.65	409.59
381.85	423.64
382.04	341.72
382.24	407.25
382.43	383.85
382.63	437.68
382.83	388.53
383.02	461.09
383.22	376.83
383.41	379.17
383.61	411.93
383.80	442.36
384.00	353.42
384.19	475.13
384.39	414.27
384.58	390.87
384.78	433.00
384.97	404.91
385.17	411.93
385.36	386.19
385.56	365.12
385.75	449.38
385.95	514.92
386.14	404.91
386.34	355.76
386.53	381.51
386.72	381.51
386.92	418.96
387.11	461.09
387.31	409.59
387.50	294.91
387.70	390.87
387.89	409.59
388.09	381.51
388.28	330.02
388.48	435.34
388.67	388.53
388.86	355.76
389.06	374.49
389.25	400.23
389.45	407.25
389.64	397.89
389.84	402.57
390.03	451.72
390.22	468.11
390.42	334.70
390.61	423.64
390.81	348.74
391.00	430.66
391.19	388.53
391.39	451.72
391.58	409.59
391.78	430.66
391.97	355.76
392.16	470.45
392.36	454.06
392.55	428.32
392.75	411.93
392.94	402.57
393.13	437.68
393.33	374.49
393.52	365.12
393.71	379.17
393.91	414.27
394.10	402.57
394.29	454.06
394.49	407.25
394.68	468.11
394.88	411.93
395.07	409.59
395.26	418.96
395.46	425.98
395.65	475.13
395.84	397.89
396.04	470.45
396.23	390.87
396.42	393.21
396.62	372.15
396.81	407.25
397.00	397.89
397.19	393.21
397.39	430.66
397.58	433.00
397.77	421.30
397.97	418.96
398.16	346.40
398.35	388.53
398.55	418.96
398.74	475.13
398.93	458.74
399.12	416.62
399.32	379.17
399.51	430.66
399.70	411.93
399.90	388.53
400.09	348.74
400.28	442.36
400.47	428.32
400.67	430.66
400.86	330.02
401.05	369.80
401.24	421.30
401.44	449.38
401.63	435.34
401.82	400.23
402.01	390.87
402.21	346.40
402.40	369.80
402.59	386.19
402.78	353.42
402.97	374.49
403.17	461.09
403.36	411.93
403.55	421.30
403.74	367.46
403.93	322.99
404.13	451.72
404.32	308.95
404.51	365.12
404.70	489.17
404.89	407.25
405.09	468.11
405.28	411.93
405.47	397.89
405.66	470.45
405.85	365.12
406.05	292.57
406.24	423.64
406.43	423.64
406.62	479.81
406.81	451.72
407.00	430.66
407.20	404.91
407.39	393.21
407.58	379.17
407.77	416.62
407.96	418.96
408.15	430.66
408.34	386.19
408.54	374.49
408.73	416.62
408.92	433.00
409.11	414.27
409.30	507.90
409.49	369.80
409.68	395.55
409.87	362.78
410.07	365.12
410.26	362.78
410.45	376.83
410.64	374.49
410.83	400.23
411.02	374.49
411.21	386.19
411.40	397.89
411.59	360.44
411.78	505.56
411.98	404.91
412.17	381.51
412.36	372.15
412.55	397.89
412.74	355.76
412.93	444.70
413.12	390.87
413.31	433.00
413.50	414.27
413.69	491.51
413.88	425.98
414.07	496.19
414.26	449.38
414.45	404.91
414.64	414.27
414.83	456.40
415.02	409.59
415.22	442.36
415.41	458.74
415.60	416.62
415.79	393.21
415.98	386.19
416.17	381.51
416.36	449.38
416.55	442.36
416.74	463.43
416.93	388.53
417.12	360.44
417.31	463.43
417.50	435.34
417.69	365.12
417.88	379.17
418.07	468.11
418.26	362.78
418.45	425.98
418.64	442.36
418.83	414.27
419.02	444.70
419.21	362.78
419.39	437.68
419.58	372.15
419.77	430.66
419.96	390.87
420.15	421.30
420.34	418.96
420.53	360.44
420.72	437.68
420.91	416.62
421.10	421.30
421.29	411.93
421.48	486.83
421.67	423.64
421.86	400.23
422.05	442.36
422.24	428.32
422.43	430.66
422.61	294.91
422.80	390.87
422.99	365.12
423.18	367.46
423.37	461.09
423.56	411.93
423.75	458.74
423.94	407.25
424.13	461.09
424.32	442.36
424.50	430.66
424.69	407.25
424.88	407.25
425.07	390.87
425.26	404.91
425.45	458.74
425.64	332.36
425.83	411.93
426.01	425.98
426.20	444.70
426.39	449.38
426.58	447.04
426.77	369.80
426.96	470.45
427.15	451.72
427.33	435.34
427.52	458.74
427.71	393.21
427.90	479.81
428.09	435.34
428.28	346.40
428.46	407.25
428.65	407.25
428.84	348.74
429.03	526.62
429.22	369.80
429.40	411.93
429.59	402.57
429.78	444.70
429.97	365.12
430.16	423.64
430.34	365.12
430.53	346.40
430.72	484.49
430.91	472.79
431.10	362.78
431.28	418.96
431.47	369.80
431.66	451.72
431.85	416.62
432.03	456.40
432.22	372.15
432.41	409.59
432.60	400.23
432.79	468.11
432.97	365.12
433.16	458.74
433.35	393.21
433.54	440.02
433.72	414.27
433.91	414.27
434.10	418.96
434.28	458.74
434.47	402.57
434.66	418.96
434.85	353.42
435.03	402.57
435.22	458.74
435.41	510.24
435.59	390.87
435.78	418.96
435.97	411.93
436.16	468.11
436.34	388.53
436.53	346.40
436.72	430.66
436.90	421.30
437.09	367.46
437.28	440.02
437.46	477.47
437.65	395.55
437.84	444.70
438.02	456.40
438.21	404.91
438.40	400.23
438.58	449.38
438.77	496.19
438.96	482.15
439.14	416.62
439.33	409.59
439.52	479.81
439.70	447.04
439.89	512.58
440.08	468.11
440.26	435.34
440.45	444.70
440.63	463.43
440.82	421.30
441.01	397.89
441.19	404.91
441.38	451.72
441.57	442.36
441.75	379.17
441.94	442.36
442.12	383.85
442.31	390.87
442.50	437.68
442.68	444.70
442.87	433.00
443.05	383.85
443.24	402.57
443.43	367.46
443.61	514.92
443.80	440.02
443.98	393.21
444.17	440.02
444.35	430.66
444.54	353.42
444.73	400.23
444.91	477.47
445.10	409.59
445.28	482.15
445.47	461.09
445.65	379.17
445.84	433.00
446.02	425.98
446.21	351.08
446.39	421.30
446.58	409.59
446.77	421.30
446.95	433.00
447.14	430.66
447.32	458.74
447.51	486.83
447.69	440.02
447.88	381.51
448.06	475.13
448.25	402.57
448.43	418.96
448.62	470.45
448.80	341.72
448.99	414.27
449.17	395.55
449.36	381.51
449.54	435.34
449.73	423.64
449.91	400.23
450.10	428.32
450.28	486.83
450.46	472.79
450.65	433.00
450.83	465.77
451.02	433.00
451.20	393.21
451.39	493.85
451.57	358.10
451.76	451.72
451.94	351.08
452.13	402.57
452.31	430.66
452.49	479.81
452.68	428.32
452.86	409.59
453.05	409.59
453.23	379.17
453.42	397.89
453.60	447.04
453.78	470.45
453.97	388.53
454.15	402.57
454.34	461.09
454.52	397.89
454.70	449.38
454.89	500.87
455.07	379.17
455.26	433.00
455.44	379.17
455.62	402.57
455.81	421.30
455.99	442.36
456.17	447.04
456.36	395.55
456.54	435.34
456.73	407.25
456.91	393.21
457.09	430.66
457.28	388.53
457.46	433.00
457.64	449.38
457.83	402.57
458.01	418.96
458.19	489.17
458.38	433.00
458.56	449.38
458.74	376.83
458.93	362.78
459.11	433.00
459.29	388.53
459.48	435.34
459.66	456.40
459.84	472.79
460.03	505.56
460.21	421.30
460.39	468.11
460.57	433.00
460.76	395.55
460.94	433.00
461.12	404.91
461.31	430.66
461.49	393.21
461.67	404.91
461.85	393.21
462.04	451.72
462.22	739.61
462.40	449.38
462.59	430.66
462.77	404.91
462.95	397.89
463.13	400.23
463.32	409.59
463.50	477.47
463.68	411.93
463.86	372.15
464.05	376.83
464.23	411.93
464.41	390.87
464.59	397.89
464.78	365.12
464.96	404.91
465.14	433.00
465.32	374.49
465.50	418.96
465.69	440.02
465.87	264.48
466.05	468.11
466.23	390.87
466.41	388.53
466.60	407.25
466.78	430.66
466.96	550.03
467.14	472.79
467.32	454.06
467.51	395.55
467.69	395.55
467.87	388.53
468.05	428.32
468.23	435.34
468.41	479.81
468.60	447.04
468.78	517.26
468.96	477.47
469.14	461.09
469.32	433.00
469.50	409.59
469.69	437.68
469.87	411.93
470.05	421.30
470.23	449.38
470.41	458.74
470.59	332.36
470.77	404.91
470.95	465.77
471.14	454.06
471.32	416.62
471.50	416.62
471.68	437.68
471.86	372.15
472.04	444.70
472.22	365.12
472.40	451.72
472.58	435.34
472.77	447.04
472.95	393.21
473.13	407.25
473.31	437.68
473.49	425.98
473.67	376.83
473.85	400.23
474.03	360.44
474.21	320.65
474.39	491.51
474.57	388.53
474.75	395.55
474.93	397.89
475.12	454.06
475.30	308.95
475.48	423.64
475.66	416.62
475.84	423.64
476.02	386.19
476.20	423.64
476.38	379.17
476.56	409.59
476.74	440.02
476.92	440.02
477.10	430.66
477.28	423.64
477.46	475.13
477.64	362.78
477.82	416.62
478.00	383.85
478.18	421.30
478.36	400.23
478.54	358.10
478.72	416.62
478.90	414.27
479.08	496.19
479.26	397.89
479.44	411.93
479.62	433.00
479.80	376.83
479.98	407.25
480.16	397.89
480.34	360.44
480.52	486.83
480.70	388.53
480.88	407.25
481.06	409.59
481.24	407.25
481.41	407.25
481.59	458.74
481.77	355.76
481.95	442.36
482.13	404.91
482.31	470.45
482.49	379.17
482.67	454.06
482.85	411.93
483.03	409.59
483.21	390.87
483.39	400.23
483.57	411.93
483.74	435.34
483.92	423.64
484.10	411.93
484.28	430.66
484.46	428.32
484.64	386.19
484.82	327.68
485.00	409.59
485.18	367.46
485.35	409.59
485.53	395.55
485.71	388.53
485.89	440.02
486.07	339.38
486.25	470.45
486.43	393.21
486.61	437.68
486.78	435.34
486.96	454.06
487.14	493.85
487.32	374.49
487.50	353.42
487.68	404.91
487.85	365.12
488.03	409.59
488.21	468.11
488.39	416.62
488.57	433.00
488.75	397.89
488.92	484.49
489.10	425.98
489.28	430.66
489.46	407.25
489.64	386.19
489.81	423.64
489.99	416.62
490.17	383.85
490.35	416.62
490.53	437.68
490.70	409.59
490.88	440.02
491.06	411.93
491.24	447.04
491.41	482.15
491.59	409.59
491.77	414.27
491.95	386.19
492.13	386.19
492.30	437.68
492.48	440.02
492.66	386.19
492.84	379.17
493.01	449.38
493.19	447.04
493.37	440.02
493.54	482.15
493.72	402.57
493.90	447.04
494.08	379.17
494.25	409.59
494.43	416.62
494.61	395.55
494.79	351.08
494.96	409.59
495.14	475.13
495.32	393.21
495.49	444.70
495.67	404.91
495.85	397.89
496.02	416.62
496.20	414.27
496.38	404.91
496.55	386.19
496.73	454.06
496.91	437.68
497.09	383.85
497.26	433.00
497.44	402.57
497.62	430.66
497.79	484.49
497.97	428.32
498.14	404.91
498.32	421.30
498.50	379.17
498.67	414.27
498.85	454.06
499.03	430.66
499.20	421.30
499.38	414.27
499.56	423.64
499.73	461.09
499.91	461.09
500.08	447.04
500.26	458.74
500.44	407.25
500.61	510.24
500.79	383.85
500.97	421.30
501.14	437.68
501.32	430.66
501.49	421.30
501.67	397.89
501.84	440.02
502.02	383.85
502.20	397.89
502.37	484.49
502.55	400.23
502.72	386.19
502.90	533.64
503.07	425.98
503.25	489.17
503.43	435.34
503.60	381.51
503.78	393.21
503.95	318.31
504.13	428.32
504.30	402.57
504.48	414.27
504.65	416.62
504.83	409.59
505.01	395.55
505.18	465.77
505.36	367.46
505.53	407.25
505.71	409.59
505.88	507.90
506.06	411.93
506.23	425.98
506.41	440.02
506.58	421.30
506.76	423.64
506.93	468.11
507.11	395.55
507.28	360.44
507.46	397.89
507.63	369.80
507.81	416.62
507.98	379.17
508.16	411.93
508.33	404.91
508.50	447.04
508.68	440.02
508.85	414.27
509.03	402.57
509.20	397.89
509.38	390.87
509.55	400.23
509.73	372.15
509.90	477.47
510.08	472.79
510.25	404.91
510.42	416.62
510.60	468.11
510.77	383.85
510.95	437.68
511.12	404.91
511.30	395.55
511.47	402.57
511.64	430.66
511.82	449.38
511.99	379.17
512.17	433.00
512.34	353.42
512.51	381.51
512.69	425.98
512.86	414.27
513.04	463.43
513.21	369.80
513.38	414.27
513.56	344.06
513.73	421.30
513.90	381.51
514.08	458.74
514.25	393.21
514.43	360.44
514.60	423.64
514.77	383.85
514.95	416.62
515.12	425.98
515.29	414.27
515.47	421.30
515.64	360.44
515.81	393.21
515.99	440.02
516.16	355.76
516.33	456.40
516.51	351.08
516.68	315.97
516.85	421.30
517.03	414.27
517.20	381.51
517.37	444.70
517.54	425.98
517.72	409.59
517.89	447.04
518.06	402.57
518.24	407.25
518.41	444.70
518.58	425.98
518.75	402.57
518.93	400.23
519.10	367.46
519.27	376.83
519.45	414.27
519.62	440.02
519.79	409.59
519.96	386.19
520.14	395.55
520.31	355.76
520.48	451.72
520.65	449.38
520.83	458.74
521.00	379.17
521.17	435.34
521.34	437.68
521.52	437.68
521.69	461.09
521.86	367.46
522.03	348.74
522.20	449.38
522.38	435.34
522.55	393.21
522.72	472.79
522.89	454.06
523.07	421.30
523.24	463.43
523.41	433.00
523.58	425.98
523.75	390.87
523.92	367.46
524.10	402.57
524.27	440.02
524.44	456.40
524.61	402.57
524.78	458.74
524.96	381.51
525.13	428.32
525.30	416.62
525.47	411.93
525.64	393.21
525.81	358.10
525.98	437.68
526.16	393.21
526.33	423.64
526.50	437.68
526.67	430.66
526.84	437.68
527.01	423.64
527.18	414.27
527.36	383.85
527.53	369.80
527.70	402.57
527.87	409.59
528.04	477.47
528.21	451.72
528.38	444.70
528.55	470.45
528.72	353.42
528.89	418.96
529.07	428.32
529.24	386.19
529.41	409.59
529.58	407.25
529.75	395.55
529.92	442.36
530.09	484.49
530.26	447.04
530.43	444.70
530.60	397.89
530.77	423.64
530.94	308.95
531.11	411.93
531.28	395.55
531.46	351.08
531.63	386.19
531.80	400.23
531.97	519.60
532.14	454.06
532.31	440.02
532.48	339.38
532.65	461.09
532.82	400.23
532.99	421.30
533.16	468.11
533.33	461.09
533.50	407.25
533.67	393.21
533.84	411.93
534.01	374.49
534.18	397.89
534.35	379.17
534.52	444.70
534.69	402.57
534.86	315.97
535.03	395.55
535.20	428.32
535.37	444.70
535.54	423.64
535.71	458.74
535.88	374.49
536.05	414.27
536.22	444.70
536.38	414.27
536.55	395.55
536.72	365.12
536.89	430.66
537.06	428.32
537.23	330.02
537.40	379.17
537.57	528.96
537.74	489.17
537.91	465.77
538.08	454.06
538.25	440.02
538.42	454.06
538.59	369.80
538.75	484.49
538.92	397.89
539.09	395.55
539.26	440.02
539.43	442.36
539.60	425.98
539.77	461.09
539.94	402.57
540.11	390.87
540.28	393.21
540.44	517.26
540.61	437.68
540.78	362.78
540.95	409.59
541.12	512.58
541.29	411.93
541.46	435.34
541.62	440.02
541.79	390.87
541.96	416.62
542.13	395.55
542.30	365.12
542.47	440.02
542.63	360.44
542.80	388.53
542.97	421.30
543.14	388.53
543.31	491.51
543.48	461.09
543.64	414.27
543.81	454.06
543.98	386.19
544.15	421.30
544.32	397.89
544.48	397.89
544.65	428.32
544.82	461.09
544.99	454.06
545.16	475.13
545.32	470.45
545.49	395.55
545.66	444.70
545.83	444.70
546.00	386.19
546.16	414.27
546.33	454.06
546.50	430.66
546.67	472.79
546.83	414.27
547.00	379.17
547.17	428.32
547.34	491.51
547.50	362.78
547.67	440.02
547.84	414.27
548.00	472.79
548.17	454.06
548.34	461.09
548.51	395.55
548.67	465.77
548.84	386.19
549.01	404.91
549.18	423.64
549.34	472.79
549.51	414.27
549.68	407.25
549.84	489.17
550.01	447.04
550.18	477.47
550.34	437.68
550.51	411.93
550.68	440.02
550.84	397.89
551.01	442.36
551.18	379.17
551.34	388.53
551.51	409.59
551.68	339.38
551.84	425.98
552.01	390.87
552.18	388.53
552.34	449.38
552.51	449.38
552.68	440.02
552.84	444.70
553.01	468.11
553.18	416.62
553.34	402.57
553.51	400.23
553.67	428.32
553.84	472.79
554.01	454.06
554.17	440.02
554.34	395.55
554.51	372.15
554.67	411.93
554.84	411.93
555.00	444.70
555.17	430.66
555.33	442.36
555.50	397.89
555.67	365.12
555.83	379.17
556.00	433.00
556.16	496.19
556.33	428.32
556.50	409.59
556.66	468.11
556.83	477.47
556.99	367.46
557.16	421.30
557.32	397.89
557.49	435.34
557.65	428.32
557.82	402.57
557.98	381.51
558.15	430.66
558.32	486.83
558.48	379.17
558.65	444.70
558.81	369.80
558.98	423.64
559.14	383.85
559.31	414.27
559.47	442.36
559.64	454.06
559.80	381.51
559.97	461.09
560.13	433.00
560.30	449.38
560.46	461.09
560.63	461.09
560.79	421.30
560.96	355.76
561.12	454.06
561.29	484.49
561.45	397.89
561.61	381.51
561.78	454.06
561.94	461.09
562.11	425.98
562.27	456.40
562.44	433.00
562.60	400.23
562.77	402.57
562.93	372.15
563.10	395.55
563.26	428.32
563.42	437.68
563.59	463.43
563.75	390.87
563.92	465.77
564.08	423.64
564.24	423.64
564.41	414.27
564.57	365.12
564.74	341.72
564.90	330.02
565.07	407.25
565.23	425.98
565.39	430.66
565.56	416.62
565.72	395.55
565.88	386.19
566.05	444.70
566.21	433.00
566.38	407.25
566.54	428.32
566.70	397.89
566.87	456.40
567.03	376.83
567.19	440.02
567.36	468.11
567.52	409.59
567.68	440.02
567.85	449.38
568.01	414.27
568.17	386.19
568.34	337.04
568.50	376.83
568.66	456.40
568.83	421.30
568.99	381.51
569.15	444.70
569.32	430.66
569.48	458.74
569.64	351.08
569.81	428.32
569.97	454.06
570.13	395.55
570.30	421.30
570.46	411.93
570.62	442.36
570.78	428.32
570.95	414.27
571.11	463.43
571.27	404.91
571.43	437.68
571.60	433.00
571.76	411.93
571.92	472.79
572.09	351.08
572.25	456.40
572.41	409.59
572.57	337.04
572.74	442.36
572.90	435.34
573.06	418.96
573.22	493.85
573.38	353.42
573.55	433.00
573.71	425.98
573.87	498.53
574.03	428.32
574.20	348.74
574.36	337.04
574.52	402.57
574.68	486.83
574.84	411.93
575.01	386.19
575.17	435.34
575.33	430.66
575.49	442.36
575.65	425.98
575.82	379.17
575.98	472.79
576.14	388.53
576.30	416.62
576.46	372.15
576.62	447.04
576.79	388.53
576.95	489.17
577.11	372.15
577.27	425.98
577.43	468.11
577.59	479.81
577.75	437.68
577.92	440.02
578.08	479.81
578.24	479.81
578.40	447.04
578.56	397.89
578.72	407.25
578.88	355.76
579.04	444.70
579.21	383.85
579.37	423.64
579.53	411.93
579.69	404.91
579.85	372.15
580.01	463.43
580.17	430.66
580.33	390.87
580.49	411.93
580.65	393.21
580.82	440.02
580.98	437.68
581.14	433.00
581.30	484.49
581.46	440.02
581.62	442.36
581.78	400.23
581.94	393.21
582.10	411.93
582.26	407.25
582.42	402.57
582.58	388.53
582.74	407.25
582.90	376.83
583.06	428.32
583.22	421.30
583.38	407.25
583.54	404.91
583.70	463.43
583.86	411.93
584.02	402.57
584.18	451.72
584.34	470.45
584.50	430.66
584.66	423.64
584.82	369.80
584.98	369.80
585.14	402.57
585.30	372.15
585.46	418.96
585.62	402.57
585.78	521.94
585.94	444.70
586.10	402.57
586.26	489.17
586.42	444.70
586.58	409.59
586.74	463.43
586.90	381.51
587.06	430.66
587.22	428.32
587.38	484.49
587.54	404.91
587.70	440.02
587.86	440.02
588.02	362.78
588.18	421.30
588.34	468.11
588.49	416.62
588.65	465.77
588.81	433.00
588.97	383.85
589.13	402.57
589.29	484.49
589.45	400.23
589.61	372.15
589.77	477.47
589.93	360.44
590.08	449.38
590.24	414.27
590.40	397.89
590.56	395.55
590.72	353.42
590.88	341.72
591.04	442.36
591.20	461.09
591.35	433.00
591.51	470.45
591.67	397.89
591.83	397.89
591.99	456.40
592.15	496.19
592.31	444.70
592.46	341.72
592.62	430.66
592.78	461.09
592.94	421.30
593.10	456.40
593.26	451.72
593.41	404.91
593.57	402.57
593.73	362.78
593.89	472.79
594.05	416.62
594.20	374.49
594.36	423.64
594.52	458.74
594.68	374.49
594.84	433.00
594.99	447.04
595.15	435.34
595.31	358.10
595.47	376.83
595.62	430.66
595.78	437.68
595.94	521.94
596.10	437.68
596.25	442.36
596.41	425.98
596.57	351.08
596.73	397.89
596.88	402.57
597.04	423.64
597.20	440.02
597.36	442.36
597.51	414.27
597.67	379.17
597.83	351.08
597.99	430.66
598.14	440.02
598.30	404.91
598.46	381.51
598.61	388.53
598.77	381.51
598.93	414.27
599.09	421.30
599.24	358.10
599.40	484.49
599.56	379.17
599.71	468.11
599.87	465.77
600.03	414.27
600.18	430.66
600.34	407.25
600.50	418.96
600.65	383.85
600.81	428.32
600.97	444.70
601.12	416.62
601.28	400.23
601.44	486.83
601.59	360.44
601.75	411.93
601.91	461.09
602.06	491.51
602.22	451.72
602.37	454.06
602.53	372.15
602.69	435.34
602.84	503.22
603.00	479.81
603.16	400.23
603.31	449.38
603.47	472.79
603.62	416.62
603.78	411.93
603.94	444.70
604.09	465.77
604.25	397.89
604.40	437.68
604.56	341.72
604.71	472.79
604.87	444.70
605.03	477.47
605.18	470.45
605.34	440.02
605.49	395.55
605.65	442.36
605.80	383.85
605.96	416.62
606.12	397.89
606.27	407.25
606.43	416.62
606.58	428.32
606.74	386.19
606.89	454.06
607.05	400.23
607.20	421.30
607.36	360.44
607.51	430.66
607.67	358.10
607.82	425.98
607.98	440.02
608.13	393.21
608.29	449.38
608.44	421.30
608.60	430.66
608.75	482.15
608.91	372.15
609.06	442.36
609.22	395.55
609.37	376.83
609.53	330.02
609.68	386.19
609.84	475.13
609.99	437.68
610.15	444.70
