SpectraSuite Data File
++++++++++++++++++++++++++++++++++++
Date: Fri Oct 25 12:11:16 EDT 2013
User: price-jones
Dark Spectrum Present: No
Reference Spectrum Present: No
Number of Sampled Component Spectra: 1
Spectrometers: USB2+H05261
Integration Time (usec): 100000 (USB2+H05261)
Spectra Averaged: 1 (USB2+H05261)
Boxcar Smoothing: 0 (USB2+H05261)
Correct for Electrical Dark: No (USB2+H05261)
Strobe/Lamp Enabled: No (USB2+H05261)
Correct for Detector Non-linearity: No (USB2+H05261)
Correct for Stray Light: No (USB2+H05261)
Number of Pixels in Processed Spectrum: 2048
>>>>>Begin Processed Spectral Data<<<<<
365.73	315.97
365.92	315.97
366.12	315.97
366.32	222.35
366.52	301.93
366.72	264.48
366.91	191.92
367.11	215.33
367.31	271.50
367.51	224.69
367.70	217.67
367.90	243.42
368.10	250.44
368.30	278.52
368.49	215.33
368.69	276.18
368.89	182.56
369.09	257.46
369.28	222.35
369.48	259.80
369.68	276.18
369.87	351.08
370.07	334.70
370.27	369.80
370.47	404.91
370.66	257.46
370.86	376.83
371.06	348.74
371.25	379.17
371.45	397.89
371.65	404.91
371.84	447.04
372.04	383.85
372.24	376.83
372.44	451.72
372.63	472.79
372.83	414.27
373.03	404.91
373.22	402.57
373.42	435.34
373.62	390.87
373.81	418.96
374.01	458.74
374.21	461.09
374.40	379.17
374.60	414.27
374.79	402.57
374.99	458.74
375.19	414.27
375.38	444.70
375.58	442.36
375.78	472.79
375.97	475.13
376.17	393.21
376.37	404.91
376.56	416.62
376.76	369.80
376.95	456.40
377.15	449.38
377.35	390.87
377.54	369.80
377.74	404.91
377.93	383.85
378.13	383.85
378.33	381.51
378.52	451.72
378.72	425.98
378.91	404.91
379.11	433.00
379.31	430.66
379.50	383.85
379.70	386.19
379.89	409.59
380.09	449.38
380.28	376.83
380.48	395.55
380.68	388.53
380.87	386.19
381.07	442.36
381.26	540.66
381.46	433.00
381.65	386.19
381.85	409.59
382.04	442.36
382.24	374.49
382.43	449.38
382.63	369.80
382.83	390.87
383.02	358.10
383.22	468.11
383.41	381.51
383.61	397.89
383.80	444.70
384.00	395.55
384.19	355.76
384.39	400.23
384.58	404.91
384.78	461.09
384.97	376.83
385.17	390.87
385.36	409.59
385.56	433.00
385.75	320.65
385.95	461.09
386.14	381.51
386.34	418.96
386.53	369.80
386.72	365.12
386.92	374.49
387.11	416.62
387.31	411.93
387.50	360.44
387.70	444.70
387.89	402.57
388.09	376.83
388.28	400.23
388.48	348.74
388.67	428.32
388.86	423.64
389.06	407.25
389.25	388.53
389.45	372.15
389.64	477.47
389.84	456.40
390.03	411.93
390.22	365.12
390.42	447.04
390.61	465.77
390.81	379.17
391.00	461.09
391.19	351.08
391.39	444.70
391.58	435.34
391.78	381.51
391.97	496.19
392.16	395.55
392.36	500.87
392.55	458.74
392.75	416.62
392.94	444.70
393.13	486.83
393.33	414.27
393.52	374.49
393.71	414.27
393.91	397.89
394.10	442.36
394.29	498.53
394.49	351.08
394.68	404.91
394.88	440.02
395.07	374.49
395.26	341.72
395.46	381.51
395.65	416.62
395.84	444.70
396.04	524.28
396.23	355.76
396.42	437.68
396.62	435.34
396.81	402.57
397.00	400.23
397.19	437.68
397.39	404.91
397.58	458.74
397.77	374.49
397.97	341.72
398.16	461.09
398.35	425.98
398.55	437.68
398.74	447.04
398.93	400.23
399.12	376.83
399.32	400.23
399.51	369.80
399.70	425.98
399.90	402.57
400.09	425.98
400.28	407.25
400.47	341.72
400.67	465.77
400.86	376.83
401.05	444.70
401.24	507.90
401.44	440.02
401.63	425.98
401.82	402.57
402.01	411.93
402.21	383.85
402.40	433.00
402.59	341.72
402.78	369.80
402.97	339.38
403.17	421.30
403.36	430.66
403.55	430.66
403.74	421.30
403.93	458.74
404.13	470.45
404.32	472.79
404.51	416.62
404.70	430.66
404.89	442.36
405.09	440.02
405.28	334.70
405.47	428.32
405.66	435.34
405.85	449.38
406.05	388.53
406.24	407.25
406.43	447.04
406.62	386.19
406.81	407.25
407.00	456.40
407.20	395.55
407.39	409.59
407.58	362.78
407.77	379.17
407.96	512.58
408.15	395.55
408.34	397.89
408.54	416.62
408.73	404.91
408.92	367.46
409.11	463.43
409.30	411.93
409.49	428.32
409.68	395.55
409.87	404.91
410.07	402.57
410.26	437.68
410.45	475.13
410.64	425.98
410.83	465.77
411.02	442.36
411.21	407.25
411.40	458.74
411.59	395.55
411.78	365.12
411.98	388.53
412.17	360.44
412.36	425.98
412.55	404.91
412.74	393.21
412.93	386.19
413.12	416.62
413.31	404.91
413.50	411.93
413.69	437.68
413.88	444.70
414.07	409.59
414.26	395.55
414.45	376.83
414.64	433.00
414.83	440.02
415.02	440.02
415.22	381.51
415.41	379.17
415.60	355.76
415.79	477.47
415.98	423.64
416.17	428.32
416.36	390.87
416.55	447.04
416.74	442.36
416.93	351.08
417.12	355.76
417.31	411.93
417.50	404.91
417.69	388.53
417.88	456.40
418.07	348.74
418.26	379.17
418.45	390.87
418.64	390.87
418.83	435.34
419.02	397.89
419.21	416.62
419.39	383.85
419.58	386.19
419.77	465.77
419.96	430.66
420.15	397.89
420.34	411.93
420.53	421.30
420.72	369.80
420.91	404.91
421.10	425.98
421.29	402.57
421.48	440.02
421.67	411.93
421.86	456.40
422.05	407.25
422.24	416.62
422.43	414.27
422.61	451.72
422.80	376.83
422.99	465.77
423.18	435.34
423.37	449.38
423.56	425.98
423.75	449.38
423.94	395.55
424.13	379.17
424.32	479.81
424.50	430.66
424.69	411.93
424.88	386.19
425.07	388.53
425.26	428.32
425.45	456.40
425.64	402.57
425.83	386.19
426.01	458.74
426.20	383.85
426.39	379.17
426.58	390.87
426.77	400.23
426.96	475.13
427.15	402.57
427.33	374.49
427.52	447.04
427.71	454.06
427.90	379.17
428.09	355.76
428.28	425.98
428.46	418.96
428.65	418.96
428.84	355.76
429.03	458.74
429.22	404.91
429.40	332.36
429.59	383.85
429.78	393.21
429.97	395.55
430.16	404.91
430.34	437.68
430.53	390.87
430.72	456.40
430.91	404.91
431.10	428.32
431.28	395.55
431.47	416.62
431.66	344.06
431.85	421.30
432.03	491.51
432.22	461.09
432.41	418.96
432.60	465.77
432.79	299.59
432.97	442.36
433.16	404.91
433.35	433.00
433.54	409.59
433.72	470.45
433.91	451.72
434.10	395.55
434.28	451.72
434.47	444.70
434.66	468.11
434.85	423.64
435.03	425.98
435.22	418.96
435.41	456.40
435.59	402.57
435.78	433.00
435.97	409.59
436.16	482.15
436.34	444.70
436.53	482.15
436.72	416.62
436.90	400.23
437.09	411.93
437.28	397.89
437.46	421.30
437.65	423.64
437.84	383.85
438.02	451.72
438.21	365.12
438.40	465.77
438.58	477.47
438.77	442.36
438.96	482.15
439.14	393.21
439.33	444.70
439.52	374.49
439.70	369.80
439.89	442.36
440.08	414.27
440.26	435.34
440.45	442.36
440.63	428.32
440.82	428.32
441.01	414.27
441.19	409.59
441.38	362.78
441.57	379.17
441.75	423.64
441.94	386.19
442.12	395.55
442.31	409.59
442.50	365.12
442.68	433.00
442.87	372.15
443.05	423.64
443.24	379.17
443.43	430.66
443.61	458.74
443.80	381.51
443.98	395.55
444.17	416.62
444.35	440.02
444.54	379.17
444.73	407.25
444.91	395.55
445.10	416.62
445.28	374.49
445.47	470.45
445.65	395.55
445.84	395.55
446.02	334.70
446.21	435.34
446.39	379.17
446.58	425.98
446.77	404.91
446.95	369.80
447.14	425.98
447.32	482.15
447.51	400.23
447.69	397.89
447.88	344.06
448.06	425.98
448.25	454.06
448.43	418.96
448.62	376.83
448.80	435.34
448.99	390.87
449.17	402.57
449.36	411.93
449.54	425.98
449.73	346.40
449.91	472.79
450.10	374.49
450.28	479.81
450.46	458.74
450.65	381.51
450.83	454.06
451.02	437.68
451.20	428.32
451.39	437.68
451.57	381.51
451.76	374.49
451.94	404.91
452.13	440.02
452.31	428.32
452.49	416.62
452.68	393.21
452.86	365.12
453.05	486.83
453.23	475.13
453.42	369.80
453.60	402.57
453.78	428.32
453.97	409.59
454.15	402.57
454.34	383.85
454.52	278.52
454.70	456.40
454.89	454.06
455.07	416.62
455.26	355.76
455.44	447.04
455.62	433.00
455.81	435.34
455.99	386.19
456.17	430.66
456.36	404.91
456.54	444.70
456.73	339.38
456.91	362.78
457.09	414.27
457.28	423.64
457.46	435.34
457.64	421.30
457.83	372.15
458.01	454.06
458.19	484.49
458.38	458.74
458.56	416.62
458.74	388.53
458.93	414.27
459.11	400.23
459.29	325.33
459.48	365.12
459.66	414.27
459.84	451.72
460.03	463.43
460.21	456.40
460.39	393.21
460.57	498.53
460.76	414.27
460.94	430.66
461.12	472.79
461.31	454.06
461.49	442.36
461.67	379.17
461.85	416.62
462.04	358.10
462.22	861.32
462.40	444.70
462.59	425.98
462.77	437.68
462.95	379.17
463.13	365.12
463.32	430.66
463.50	444.70
463.68	411.93
463.86	381.51
464.05	381.51
464.23	477.47
464.41	463.43
464.59	456.40
464.78	416.62
464.96	390.87
465.14	465.77
465.32	355.76
465.50	402.57
465.69	395.55
465.87	397.89
466.05	454.06
466.23	402.57
466.41	449.38
466.60	421.30
466.78	388.53
466.96	491.51
467.14	390.87
467.32	491.51
467.51	381.51
467.69	433.00
467.87	477.47
468.05	411.93
468.23	428.32
468.41	475.13
468.60	383.85
468.78	306.61
468.96	362.78
469.14	433.00
469.32	376.83
469.50	369.80
469.69	423.64
469.87	416.62
470.05	376.83
470.23	512.58
470.41	428.32
470.59	367.46
470.77	402.57
470.95	395.55
471.14	418.96
471.32	383.85
471.50	479.81
471.68	402.57
471.86	435.34
472.04	400.23
472.22	404.91
472.40	346.40
472.58	358.10
472.77	395.55
472.95	418.96
473.13	416.62
473.31	435.34
473.49	388.53
473.67	369.80
473.85	418.96
474.03	365.12
474.21	402.57
474.39	362.78
474.57	493.85
474.75	433.00
474.93	425.98
475.12	388.53
475.30	414.27
475.48	400.23
475.66	372.15
475.84	337.04
476.02	400.23
476.20	416.62
476.38	372.15
476.56	482.15
476.74	353.42
476.92	421.30
477.10	456.40
477.28	458.74
477.46	362.78
477.64	334.70
477.82	409.59
478.00	404.91
478.18	360.44
478.36	397.89
478.54	416.62
478.72	442.36
478.90	421.30
479.08	416.62
479.26	341.72
479.44	404.91
479.62	360.44
479.80	409.59
479.98	402.57
480.16	423.64
480.34	479.81
480.52	461.09
480.70	433.00
480.88	430.66
481.06	463.43
481.24	449.38
481.41	493.85
481.59	404.91
481.77	454.06
481.95	456.40
482.13	400.23
482.31	421.30
482.49	376.83
482.67	372.15
482.85	461.09
483.03	367.46
483.21	423.64
483.39	421.30
483.57	449.38
483.74	365.12
483.92	440.02
484.10	472.79
484.28	397.89
484.46	456.40
484.64	344.06
484.82	411.93
485.00	400.23
485.18	386.19
485.35	437.68
485.53	358.10
485.71	402.57
485.89	379.17
486.07	430.66
486.25	484.49
486.43	475.13
486.61	402.57
486.78	510.24
486.96	435.34
487.14	365.12
487.32	411.93
487.50	479.81
487.68	388.53
487.85	421.30
488.03	468.11
488.21	461.09
488.39	451.72
488.57	430.66
488.75	381.51
488.92	493.85
489.10	456.40
489.28	388.53
489.46	418.96
489.64	451.72
489.81	456.40
489.99	402.57
490.17	381.51
490.35	421.30
490.53	416.62
490.70	360.44
490.88	458.74
491.06	388.53
491.24	409.59
491.41	395.55
491.59	418.96
491.77	433.00
491.95	425.98
492.13	374.49
492.30	451.72
492.48	407.25
492.66	435.34
492.84	418.96
493.01	418.96
493.19	409.59
493.37	489.17
493.54	402.57
493.72	404.91
493.90	411.93
494.08	437.68
494.25	442.36
494.43	379.17
494.61	465.77
494.79	353.42
494.96	337.04
495.14	407.25
495.32	400.23
495.49	433.00
495.67	379.17
495.85	437.68
496.02	376.83
496.20	400.23
496.38	479.81
496.55	479.81
496.73	393.21
496.91	390.87
497.09	463.43
497.26	374.49
497.44	395.55
497.62	388.53
497.79	470.45
497.97	414.27
498.14	454.06
498.32	486.83
498.50	468.11
498.67	400.23
498.85	456.40
499.03	407.25
499.20	402.57
499.38	444.70
499.56	456.40
499.73	407.25
499.91	442.36
500.08	397.89
500.26	498.53
500.44	430.66
500.61	451.72
500.79	416.62
500.97	437.68
501.14	458.74
501.32	390.87
501.49	449.38
501.67	395.55
501.84	395.55
502.02	421.30
502.20	454.06
502.37	451.72
502.55	463.43
502.72	451.72
502.90	322.99
503.07	414.27
503.25	423.64
503.43	376.83
503.60	400.23
503.78	397.89
503.95	414.27
504.13	386.19
504.30	418.96
504.48	388.53
504.65	421.30
504.83	437.68
505.01	433.00
505.18	369.80
505.36	449.38
505.53	376.83
505.71	397.89
505.88	470.45
506.06	423.64
506.23	374.49
506.41	411.93
506.58	437.68
506.76	449.38
506.93	416.62
507.11	475.13
507.28	388.53
507.46	355.76
507.63	393.21
507.81	423.64
507.98	503.22
508.16	411.93
508.33	397.89
508.50	475.13
508.68	383.85
508.85	451.72
509.03	407.25
509.20	393.21
509.38	416.62
509.55	414.27
509.73	435.34
509.90	379.17
510.08	430.66
510.25	458.74
510.42	358.10
510.60	400.23
510.77	425.98
510.95	322.99
511.12	376.83
511.30	418.96
511.47	383.85
511.64	388.53
511.82	367.46
511.99	503.22
512.17	369.80
512.34	339.38
512.51	414.27
512.69	393.21
512.86	468.11
513.04	348.74
513.21	409.59
513.38	449.38
513.56	416.62
513.73	503.22
513.90	402.57
514.08	423.64
514.25	407.25
514.43	388.53
514.60	362.78
514.77	341.72
514.95	423.64
515.12	430.66
515.29	440.02
515.47	421.30
515.64	447.04
515.81	400.23
515.99	454.06
516.16	397.89
516.33	430.66
516.51	395.55
516.68	376.83
516.85	400.23
517.03	440.02
517.20	468.11
517.37	433.00
517.54	397.89
517.72	454.06
517.89	381.51
518.06	421.30
518.24	449.38
518.41	531.30
518.58	496.19
518.75	376.83
518.93	444.70
519.10	463.43
519.27	397.89
519.45	397.89
519.62	388.53
519.79	421.30
519.96	355.76
520.14	337.04
520.31	425.98
520.48	411.93
520.65	379.17
520.83	447.04
521.00	421.30
521.17	444.70
521.34	451.72
521.52	372.15
521.69	351.08
521.86	397.89
522.03	472.79
522.20	416.62
522.38	400.23
522.55	388.53
522.72	351.08
522.89	421.30
523.07	521.94
523.24	402.57
523.41	414.27
523.58	437.68
523.75	379.17
523.92	421.30
524.10	390.87
524.27	353.42
524.44	470.45
524.61	433.00
524.78	386.19
524.96	435.34
525.13	379.17
525.30	414.27
525.47	465.77
525.64	454.06
525.81	374.49
525.98	393.21
526.16	414.27
526.33	379.17
526.50	353.42
526.67	411.93
526.84	351.08
527.01	374.49
527.18	456.40
527.36	397.89
527.53	425.98
527.70	479.81
527.87	362.78
528.04	430.66
528.21	447.04
528.38	404.91
528.55	409.59
528.72	409.59
528.89	468.11
529.07	421.30
529.24	425.98
529.41	484.49
529.58	449.38
529.75	390.87
529.92	458.74
530.09	430.66
530.26	449.38
530.43	409.59
530.60	468.11
530.77	489.17
530.94	379.17
531.11	437.68
531.28	421.30
531.46	437.68
531.63	400.23
531.80	442.36
531.97	423.64
532.14	374.49
532.31	390.87
532.48	390.87
532.65	451.72
532.82	388.53
532.99	390.87
533.16	435.34
533.33	440.02
533.50	409.59
533.67	397.89
533.84	472.79
534.01	451.72
534.18	285.55
534.35	411.93
534.52	423.64
534.69	463.43
534.86	393.21
535.03	393.21
535.20	407.25
535.37	386.19
535.54	404.91
535.71	360.44
535.88	393.21
536.05	418.96
536.22	414.27
536.38	369.80
536.55	421.30
536.72	404.91
536.89	402.57
537.06	435.34
537.23	435.34
537.40	407.25
537.57	367.46
537.74	451.72
537.91	433.00
538.08	414.27
538.25	393.21
538.42	425.98
538.59	383.85
538.75	477.47
538.92	416.62
539.09	407.25
539.26	465.77
539.43	400.23
539.60	444.70
539.77	351.08
539.94	423.64
540.11	428.32
540.28	470.45
540.44	393.21
540.61	355.76
540.78	353.42
540.95	381.51
541.12	479.81
541.29	437.68
541.46	425.98
541.62	451.72
541.79	400.23
541.96	433.00
542.13	477.47
542.30	337.04
542.47	451.72
542.63	376.83
542.80	388.53
542.97	498.53
543.14	479.81
543.31	425.98
543.48	444.70
543.64	395.55
543.81	447.04
543.98	477.47
544.15	367.46
544.32	355.76
544.48	411.93
544.65	402.57
544.82	376.83
544.99	390.87
545.16	393.21
545.32	454.06
545.49	402.57
545.66	390.87
545.83	430.66
546.00	428.32
546.16	414.27
546.33	428.32
546.50	409.59
546.67	411.93
546.83	465.77
547.00	386.19
547.17	393.21
547.34	428.32
547.50	346.40
547.67	433.00
547.84	376.83
548.00	337.04
548.17	451.72
548.34	383.85
548.51	458.74
548.67	407.25
548.84	468.11
549.01	418.96
549.18	397.89
549.34	393.21
549.51	362.78
549.68	428.32
549.84	463.43
550.01	430.66
550.18	512.58
550.34	477.47
550.51	498.53
550.68	437.68
550.84	482.15
551.01	444.70
551.18	430.66
551.34	379.17
551.51	339.38
551.68	423.64
551.84	456.40
552.01	425.98
552.18	381.51
552.34	449.38
552.51	379.17
552.68	428.32
552.84	465.77
553.01	374.49
553.18	484.49
553.34	440.02
553.51	404.91
553.67	482.15
553.84	484.49
554.01	395.55
554.17	437.68
554.34	423.64
554.51	353.42
554.67	475.13
554.84	435.34
555.00	355.76
555.17	465.77
555.33	418.96
555.50	346.40
555.67	463.43
555.83	411.93
556.00	407.25
556.16	486.83
556.33	442.36
556.50	482.15
556.66	388.53
556.83	421.30
556.99	416.62
557.16	383.85
557.32	416.62
557.49	409.59
557.65	407.25
557.82	397.89
557.98	430.66
558.15	395.55
558.32	491.51
558.48	358.10
558.65	428.32
558.81	388.53
558.98	447.04
559.14	477.47
559.31	442.36
559.47	510.24
559.64	416.62
559.80	390.87
559.97	390.87
560.13	395.55
560.30	402.57
560.46	456.40
560.63	463.43
560.79	421.30
560.96	526.62
561.12	418.96
561.29	444.70
561.45	423.64
561.61	435.34
561.78	411.93
561.94	381.51
562.11	381.51
562.27	423.64
562.44	402.57
562.60	437.68
562.77	421.30
562.93	456.40
563.10	400.23
563.26	433.00
563.42	451.72
563.59	390.87
563.75	386.19
563.92	425.98
564.08	430.66
564.24	461.09
564.41	472.79
564.57	435.34
564.74	348.74
564.90	383.85
565.07	423.64
565.23	428.32
565.39	404.91
565.56	402.57
565.72	470.45
565.88	498.53
566.05	440.02
566.21	376.83
566.38	416.62
566.54	456.40
566.70	383.85
566.87	451.72
567.03	430.66
567.19	447.04
567.36	433.00
567.52	498.53
567.68	440.02
567.85	440.02
568.01	500.87
568.17	423.64
568.34	409.59
568.50	430.66
568.66	397.89
568.83	472.79
568.99	393.21
569.15	381.51
569.32	479.81
569.48	414.27
569.64	381.51
569.81	402.57
569.97	468.11
570.13	425.98
570.30	444.70
570.46	397.89
570.62	428.32
570.78	397.89
570.95	379.17
571.11	507.90
571.27	510.24
571.43	358.10
571.60	397.89
571.76	365.12
571.92	416.62
572.09	428.32
572.25	421.30
572.41	456.40
572.57	383.85
572.74	400.23
572.90	454.06
573.06	411.93
573.22	440.02
573.38	500.87
573.55	390.87
573.71	386.19
573.87	402.57
574.03	414.27
574.20	442.36
574.36	482.15
574.52	358.10
574.68	409.59
574.84	475.13
575.01	383.85
575.17	493.85
575.33	411.93
575.49	440.02
575.65	421.30
575.82	449.38
575.98	402.57
576.14	379.17
576.30	425.98
576.46	388.53
576.62	428.32
576.79	482.15
576.95	418.96
577.11	423.64
577.27	447.04
577.43	428.32
577.59	451.72
577.75	411.93
577.92	351.08
578.08	428.32
578.24	451.72
578.40	440.02
578.56	517.26
578.72	479.81
578.88	418.96
579.04	430.66
579.21	472.79
579.37	477.47
579.53	461.09
579.69	449.38
579.85	463.43
580.01	440.02
580.17	386.19
580.33	404.91
580.49	423.64
580.65	376.83
580.82	393.21
580.98	421.30
581.14	355.76
581.30	454.06
581.46	425.98
581.62	451.72
581.78	465.77
581.94	507.90
582.10	451.72
582.26	388.53
582.42	428.32
582.58	388.53
582.74	454.06
582.90	428.32
583.06	477.47
583.22	430.66
583.38	379.17
583.54	386.19
583.70	404.91
583.86	435.34
584.02	484.49
584.18	465.77
584.34	435.34
584.50	482.15
584.66	444.70
584.82	440.02
584.98	498.53
585.14	482.15
585.30	435.34
585.46	425.98
585.62	397.89
585.78	388.53
585.94	423.64
586.10	376.83
586.26	433.00
586.42	470.45
586.58	365.12
586.74	465.77
586.90	411.93
587.06	402.57
587.22	404.91
587.38	381.51
587.54	484.49
587.70	425.98
587.86	421.30
588.02	414.27
588.18	390.87
588.34	353.42
588.49	376.83
588.65	444.70
588.81	404.91
588.97	367.46
589.13	435.34
589.29	425.98
589.45	463.43
589.61	458.74
589.77	440.02
589.93	456.40
590.08	425.98
590.24	404.91
590.40	393.21
590.56	400.23
590.72	433.00
590.88	425.98
591.04	442.36
591.20	451.72
591.35	470.45
591.51	435.34
591.67	447.04
591.83	491.51
591.99	437.68
592.15	451.72
592.31	423.64
592.46	386.19
592.62	444.70
592.78	339.38
592.94	407.25
593.10	414.27
593.26	477.47
593.41	435.34
593.57	383.85
593.73	421.30
593.89	423.64
594.05	376.83
594.20	421.30
594.36	465.77
594.52	407.25
594.68	393.21
594.84	454.06
594.99	442.36
595.15	428.32
595.31	421.30
595.47	388.53
595.62	337.04
595.78	395.55
595.94	397.89
596.10	397.89
596.25	470.45
596.41	430.66
596.57	344.06
596.73	372.15
596.88	470.45
597.04	358.10
597.20	330.02
597.36	400.23
597.51	430.66
597.67	430.66
597.83	425.98
597.99	514.92
598.14	402.57
598.30	409.59
598.46	383.85
598.61	369.80
598.77	337.04
598.93	423.64
599.09	362.78
599.24	451.72
599.40	374.49
599.56	402.57
599.71	482.15
599.87	393.21
600.03	390.87
600.18	393.21
600.34	430.66
600.50	390.87
600.65	386.19
600.81	407.25
600.97	414.27
601.12	369.80
601.28	458.74
601.44	395.55
601.59	465.77
601.75	435.34
601.91	440.02
602.06	409.59
602.22	493.85
602.37	447.04
602.53	397.89
602.69	372.15
602.84	451.72
603.00	393.21
603.16	421.30
603.31	433.00
603.47	482.15
603.62	428.32
603.78	451.72
603.94	421.30
604.09	472.79
604.25	367.46
604.40	407.25
604.56	404.91
604.71	383.85
604.87	372.15
605.03	468.11
605.18	423.64
605.34	404.91
605.49	379.17
605.65	416.62
605.80	372.15
605.96	430.66
606.12	479.81
606.27	351.08
606.43	435.34
606.58	402.57
606.74	404.91
606.89	503.22
607.05	456.40
607.20	423.64
607.36	447.04
607.51	440.02
607.67	449.38
607.82	418.96
607.98	383.85
608.13	430.66
608.29	440.02
608.44	428.32
608.60	430.66
608.75	435.34
608.91	425.98
609.06	428.32
609.22	425.98
609.37	369.80
609.53	379.17
609.68	421.30
609.84	435.34
609.99	465.77
610.15	381.51
