SpectraSuite Data File
++++++++++++++++++++++++++++++++++++
Date: Fri Oct 25 12:10:52 EDT 2013
User: price-jones
Dark Spectrum Present: No
Reference Spectrum Present: No
Number of Sampled Component Spectra: 1
Spectrometers: USB2+H05261
Integration Time (usec): 100000 (USB2+H05261)
Spectra Averaged: 1 (USB2+H05261)
Boxcar Smoothing: 0 (USB2+H05261)
Correct for Electrical Dark: No (USB2+H05261)
Strobe/Lamp Enabled: No (USB2+H05261)
Correct for Detector Non-linearity: No (USB2+H05261)
Correct for Stray Light: No (USB2+H05261)
Number of Pixels in Processed Spectrum: 2048
>>>>>Begin Processed Spectral Data<<<<<
365.73	285.55
365.92	285.55
366.12	285.55
366.32	301.93
366.52	243.42
366.72	222.35
366.91	236.39
367.11	250.44
367.31	201.29
367.51	259.80
367.70	236.39
367.90	276.18
368.10	175.54
368.30	252.78
368.49	212.99
368.69	304.27
368.89	229.37
369.09	217.67
369.28	337.04
369.48	306.61
369.68	330.02
369.87	315.97
370.07	322.99
370.27	327.68
370.47	266.82
370.66	262.14
370.86	346.40
371.06	418.96
371.25	407.25
371.45	376.83
371.65	355.76
371.84	411.93
372.04	409.59
372.24	428.32
372.44	332.36
372.63	369.80
372.83	358.10
373.03	395.55
373.22	330.02
373.42	386.19
373.62	475.13
373.81	376.83
374.01	390.87
374.21	383.85
374.40	421.30
374.60	421.30
374.79	463.43
374.99	421.30
375.19	451.72
375.38	390.87
375.58	423.64
375.78	484.49
375.97	418.96
376.17	493.85
376.37	400.23
376.56	475.13
376.76	454.06
376.95	360.44
377.15	397.89
377.35	461.09
377.54	414.27
377.74	360.44
377.93	416.62
378.13	423.64
378.33	421.30
378.52	437.68
378.72	423.64
378.91	472.79
379.11	535.98
379.31	428.32
379.50	341.72
379.70	451.72
379.89	369.80
380.09	374.49
380.28	400.23
380.48	362.78
380.68	416.62
380.87	402.57
381.07	416.62
381.26	435.34
381.46	362.78
381.65	395.55
381.85	322.99
382.04	409.59
382.24	425.98
382.43	362.78
382.63	348.74
382.83	393.21
383.02	437.68
383.22	468.11
383.41	430.66
383.61	456.40
383.80	421.30
384.00	346.40
384.19	411.93
384.39	351.08
384.58	407.25
384.78	435.34
384.97	367.46
385.17	365.12
385.36	428.32
385.56	402.57
385.75	390.87
385.95	367.46
386.14	425.98
386.34	393.21
386.53	425.98
386.72	304.27
386.92	386.19
387.11	440.02
387.31	433.00
387.50	346.40
387.70	362.78
387.89	416.62
388.09	351.08
388.28	344.06
388.48	451.72
388.67	407.25
388.86	355.76
389.06	386.19
389.25	367.46
389.45	379.17
389.64	393.21
389.84	414.27
390.03	514.92
390.22	510.24
390.42	397.89
390.61	430.66
390.81	346.40
391.00	465.77
391.19	411.93
391.39	425.98
391.58	374.49
391.78	428.32
391.97	402.57
392.16	404.91
392.36	433.00
392.55	482.15
392.75	346.40
392.94	503.22
393.13	402.57
393.33	292.57
393.52	400.23
393.71	437.68
393.91	330.02
394.10	362.78
394.29	369.80
394.49	454.06
394.68	418.96
394.88	456.40
395.07	500.87
395.26	409.59
395.46	451.72
395.65	379.17
395.84	390.87
396.04	404.91
396.23	397.89
396.42	388.53
396.62	461.09
396.81	407.25
397.00	360.44
397.19	365.12
397.39	418.96
397.58	383.85
397.77	397.89
397.97	407.25
398.16	425.98
398.35	388.53
398.55	414.27
398.74	393.21
398.93	442.36
399.12	383.85
399.32	418.96
399.51	376.83
399.70	477.47
399.90	447.04
400.09	409.59
400.28	479.81
400.47	435.34
400.67	435.34
400.86	444.70
401.05	435.34
401.24	372.15
401.44	374.49
401.63	437.68
401.82	311.29
402.01	315.97
402.21	395.55
402.40	407.25
402.59	409.59
402.78	374.49
402.97	334.70
403.17	402.57
403.36	437.68
403.55	362.78
403.74	418.96
403.93	379.17
404.13	461.09
404.32	390.87
404.51	449.38
404.70	425.98
404.89	454.06
405.09	449.38
405.28	362.78
405.47	365.12
405.66	425.98
405.85	465.77
406.05	395.55
406.24	407.25
406.43	374.49
406.62	388.53
406.81	425.98
407.00	442.36
407.20	472.79
407.39	404.91
407.58	430.66
407.77	463.43
407.96	395.55
408.15	351.08
408.34	425.98
408.54	341.72
408.73	388.53
408.92	437.68
409.11	437.68
409.30	411.93
409.49	409.59
409.68	337.04
409.87	411.93
410.07	435.34
410.26	433.00
410.45	423.64
410.64	339.38
410.83	444.70
411.02	341.72
411.21	409.59
411.40	330.02
411.59	414.27
411.78	330.02
411.98	367.46
412.17	358.10
412.36	374.49
412.55	355.76
412.74	423.64
412.93	507.90
413.12	390.87
413.31	458.74
413.50	463.43
413.69	449.38
413.88	491.51
414.07	447.04
414.26	374.49
414.45	395.55
414.64	430.66
414.83	374.49
415.02	404.91
415.22	456.40
415.41	444.70
415.60	381.51
415.79	397.89
415.98	402.57
416.17	334.70
416.36	442.36
416.55	418.96
416.74	491.51
416.93	468.11
417.12	402.57
417.31	442.36
417.50	386.19
417.69	414.27
417.88	437.68
418.07	444.70
418.26	360.44
418.45	458.74
418.64	433.00
418.83	409.59
419.02	411.93
419.21	486.83
419.39	383.85
419.58	472.79
419.77	360.44
419.96	442.36
420.15	411.93
420.34	447.04
420.53	409.59
420.72	369.80
420.91	440.02
421.10	374.49
421.29	440.02
421.48	348.74
421.67	482.15
421.86	428.32
422.05	379.17
422.24	395.55
422.43	397.89
422.61	334.70
422.80	400.23
422.99	390.87
423.18	374.49
423.37	397.89
423.56	435.34
423.75	400.23
423.94	404.91
424.13	341.72
424.32	397.89
424.50	337.04
424.69	372.15
424.88	414.27
425.07	367.46
425.26	463.43
425.45	395.55
425.64	381.51
425.83	409.59
426.01	458.74
426.20	496.19
426.39	369.80
426.58	351.08
426.77	400.23
426.96	486.83
427.15	433.00
427.33	365.12
427.52	390.87
427.71	402.57
427.90	418.96
428.09	344.06
428.28	416.62
428.46	454.06
428.65	390.87
428.84	433.00
429.03	418.96
429.22	388.53
429.40	421.30
429.59	346.40
429.78	386.19
429.97	372.15
430.16	416.62
430.34	468.11
430.53	353.42
430.72	358.10
430.91	505.56
431.10	470.45
431.28	423.64
431.47	425.98
431.66	435.34
431.85	402.57
432.03	402.57
432.22	456.40
432.41	376.83
432.60	414.27
432.79	421.30
432.97	348.74
433.16	395.55
433.35	430.66
433.54	418.96
433.72	463.43
433.91	362.78
434.10	383.85
434.28	374.49
434.47	437.68
434.66	440.02
434.85	374.49
435.03	337.04
435.22	442.36
435.41	433.00
435.59	416.62
435.78	395.55
435.97	372.15
436.16	414.27
436.34	489.17
436.53	379.17
436.72	447.04
436.90	442.36
437.09	447.04
437.28	367.46
437.46	423.64
437.65	400.23
437.84	393.21
438.02	418.96
438.21	461.09
438.40	388.53
438.58	355.76
438.77	463.43
438.96	428.32
439.14	395.55
439.33	393.21
439.52	423.64
439.70	355.76
439.89	379.17
440.08	376.83
440.26	409.59
440.45	442.36
440.63	397.89
440.82	454.06
441.01	416.62
441.19	400.23
441.38	423.64
441.57	430.66
441.75	437.68
441.94	489.17
442.12	440.02
442.31	425.98
442.50	416.62
442.68	353.42
442.87	435.34
443.05	341.72
443.24	461.09
443.43	402.57
443.61	425.98
443.80	402.57
443.98	390.87
444.17	440.02
444.35	461.09
444.54	411.93
444.73	430.66
444.91	430.66
445.10	311.29
445.28	470.45
445.47	404.91
445.65	367.46
445.84	407.25
446.02	475.13
446.21	369.80
446.39	411.93
446.58	447.04
446.77	383.85
446.95	416.62
447.14	440.02
447.32	461.09
447.51	381.51
447.69	411.93
447.88	337.04
448.06	400.23
448.25	472.79
448.43	393.21
448.62	374.49
448.80	500.87
448.99	390.87
449.17	437.68
449.36	383.85
449.54	463.43
449.73	411.93
449.91	425.98
450.10	423.64
450.28	430.66
450.46	386.19
450.65	362.78
450.83	425.98
451.02	470.45
451.20	416.62
451.39	374.49
451.57	409.59
451.76	376.83
451.94	449.38
452.13	416.62
452.31	461.09
452.49	411.93
452.68	449.38
452.86	411.93
453.05	472.79
453.23	425.98
453.42	444.70
453.60	409.59
453.78	409.59
453.97	379.17
454.15	358.10
454.34	397.89
454.52	337.04
454.70	440.02
454.89	456.40
455.07	447.04
455.26	442.36
455.44	400.23
455.62	447.04
455.81	367.46
455.99	402.57
456.17	346.40
456.36	465.77
456.54	425.98
456.73	440.02
456.91	355.76
457.09	425.98
457.28	374.49
457.46	454.06
457.64	449.38
457.83	397.89
458.01	449.38
458.19	428.32
458.38	437.68
458.56	388.53
458.74	395.55
458.93	404.91
459.11	388.53
459.29	491.51
459.48	505.56
459.66	404.91
459.84	411.93
460.03	449.38
460.21	514.92
460.39	407.25
460.57	383.85
460.76	416.62
460.94	482.15
461.12	423.64
461.31	409.59
461.49	348.74
461.67	404.91
461.85	311.29
462.04	409.59
462.22	748.97
462.40	395.55
462.59	463.43
462.77	416.62
462.95	498.53
463.13	402.57
463.32	468.11
463.50	358.10
463.68	425.98
463.86	433.00
464.05	402.57
464.23	411.93
464.41	451.72
464.59	360.44
464.78	360.44
464.96	437.68
465.14	379.17
465.32	407.25
465.50	437.68
465.69	395.55
465.87	341.72
466.05	437.68
466.23	379.17
466.41	390.87
466.60	409.59
466.78	407.25
466.96	465.77
467.14	418.96
467.32	463.43
467.51	374.49
467.69	444.70
467.87	472.79
468.05	353.42
468.23	442.36
468.41	442.36
468.60	418.96
468.78	409.59
468.96	407.25
469.14	454.06
469.32	430.66
469.50	404.91
469.69	414.27
469.87	393.21
470.05	463.43
470.23	465.77
470.41	430.66
470.59	402.57
470.77	423.64
470.95	484.49
471.14	444.70
471.32	416.62
471.50	444.70
471.68	454.06
471.86	397.89
472.04	423.64
472.22	372.15
472.40	367.46
472.58	381.51
472.77	325.33
472.95	409.59
473.13	423.64
473.31	376.83
473.49	402.57
473.67	353.42
473.85	442.36
474.03	400.23
474.21	360.44
474.39	498.53
474.57	470.45
474.75	390.87
474.93	358.10
475.12	414.27
475.30	433.00
475.48	428.32
475.66	411.93
475.84	381.51
476.02	351.08
476.20	376.83
476.38	390.87
476.56	489.17
476.74	358.10
476.92	435.34
477.10	383.85
477.28	444.70
477.46	407.25
477.64	414.27
477.82	470.45
478.00	386.19
478.18	456.40
478.36	407.25
478.54	397.89
478.72	386.19
478.90	383.85
479.08	435.34
479.26	365.12
479.44	433.00
479.62	404.91
479.80	430.66
479.98	402.57
480.16	400.23
480.34	430.66
480.52	358.10
480.70	433.00
480.88	447.04
481.06	395.55
481.24	369.80
481.41	400.23
481.59	372.15
481.77	454.06
481.95	360.44
482.13	425.98
482.31	456.40
482.49	407.25
482.67	421.30
482.85	468.11
483.03	423.64
483.21	442.36
483.39	407.25
483.57	344.06
483.74	484.49
483.92	402.57
484.10	322.99
484.28	388.53
484.46	414.27
484.64	449.38
484.82	393.21
485.00	411.93
485.18	379.17
485.35	418.96
485.53	416.62
485.71	458.74
485.89	418.96
486.07	400.23
486.25	461.09
486.43	435.34
486.61	362.78
486.78	379.17
486.96	334.70
487.14	407.25
487.32	435.34
487.50	388.53
487.68	318.31
487.85	332.36
488.03	344.06
488.21	411.93
488.39	428.32
488.57	365.12
488.75	397.89
488.92	528.96
489.10	404.91
489.28	440.02
489.46	463.43
489.64	425.98
489.81	369.80
489.99	402.57
490.17	374.49
490.35	421.30
490.53	411.93
490.70	447.04
490.88	503.22
491.06	468.11
491.24	437.68
491.41	442.36
491.59	414.27
491.77	313.63
491.95	320.65
492.13	374.49
492.30	454.06
492.48	484.49
492.66	421.30
492.84	447.04
493.01	360.44
493.19	358.10
493.37	484.49
493.54	484.49
493.72	477.47
493.90	437.68
494.08	440.02
494.25	421.30
494.43	409.59
494.61	411.93
494.79	400.23
494.96	425.98
495.14	369.80
495.32	393.21
495.49	339.38
495.67	360.44
495.85	374.49
496.02	330.02
496.20	433.00
496.38	430.66
496.55	402.57
496.73	388.53
496.91	337.04
497.09	390.87
497.26	447.04
497.44	421.30
497.62	428.32
497.79	421.30
497.97	367.46
498.14	454.06
498.32	486.83
498.50	428.32
498.67	351.08
498.85	395.55
499.03	416.62
499.20	428.32
499.38	461.09
499.56	365.12
499.73	423.64
499.91	402.57
500.08	400.23
500.26	414.27
500.44	315.97
500.61	402.57
500.79	402.57
500.97	442.36
501.14	393.21
501.32	521.94
501.49	402.57
501.67	376.83
501.84	449.38
502.02	435.34
502.20	465.77
502.37	430.66
502.55	463.43
502.72	404.91
502.90	416.62
503.07	421.30
503.25	475.13
503.43	428.32
503.60	367.46
503.78	346.40
503.95	430.66
504.13	393.21
504.30	388.53
504.48	496.19
504.65	498.53
504.83	519.60
505.01	425.98
505.18	409.59
505.36	470.45
505.53	428.32
505.71	444.70
505.88	372.15
506.06	463.43
506.23	433.00
506.41	365.12
506.58	465.77
506.76	430.66
506.93	425.98
507.11	400.23
507.28	451.72
507.46	454.06
507.63	435.34
507.81	442.36
507.98	360.44
508.16	407.25
508.33	393.21
508.50	444.70
508.68	468.11
508.85	383.85
509.03	423.64
509.20	381.51
509.38	447.04
509.55	470.45
509.73	461.09
509.90	442.36
510.08	451.72
510.25	435.34
510.42	435.34
510.60	337.04
510.77	374.49
510.95	421.30
511.12	407.25
511.30	402.57
511.47	390.87
511.64	470.45
511.82	411.93
511.99	418.96
512.17	367.46
512.34	404.91
512.51	414.27
512.69	421.30
512.86	383.85
513.04	397.89
513.21	374.49
513.38	390.87
513.56	416.62
513.73	351.08
513.90	397.89
514.08	423.64
514.25	433.00
514.43	456.40
514.60	383.85
514.77	416.62
514.95	454.06
515.12	409.59
515.29	386.19
515.47	440.02
515.64	402.57
515.81	400.23
515.99	470.45
516.16	444.70
516.33	472.79
516.51	477.47
516.68	393.21
516.85	395.55
517.03	400.23
517.20	435.34
517.37	496.19
517.54	395.55
517.72	421.30
517.89	435.34
518.06	472.79
518.24	444.70
518.41	386.19
518.58	456.40
518.75	454.06
518.93	425.98
519.10	390.87
519.27	397.89
519.45	435.34
519.62	383.85
519.79	407.25
519.96	414.27
520.14	407.25
520.31	383.85
520.48	390.87
520.65	440.02
520.83	414.27
521.00	416.62
521.17	465.77
521.34	447.04
521.52	383.85
521.69	397.89
521.86	404.91
522.03	369.80
522.20	479.81
522.38	404.91
522.55	451.72
522.72	430.66
522.89	430.66
523.07	465.77
523.24	428.32
523.41	440.02
523.58	369.80
523.75	381.51
523.92	402.57
524.10	451.72
524.27	418.96
524.44	369.80
524.61	411.93
524.78	423.64
524.96	433.00
525.13	440.02
525.30	514.92
525.47	500.87
525.64	418.96
525.81	479.81
525.98	440.02
526.16	482.15
526.33	435.34
526.50	461.09
526.67	404.91
526.84	348.74
527.01	395.55
527.18	472.79
527.36	472.79
527.53	517.26
527.70	451.72
527.87	346.40
528.04	425.98
528.21	346.40
528.38	430.66
528.55	409.59
528.72	465.77
528.89	437.68
529.07	362.78
529.24	456.40
529.41	451.72
529.58	475.13
529.75	407.25
529.92	482.15
530.09	433.00
530.26	475.13
530.43	421.30
530.60	346.40
530.77	465.77
530.94	407.25
531.11	425.98
531.28	386.19
531.46	430.66
531.63	437.68
531.80	409.59
531.97	458.74
532.14	472.79
532.31	454.06
532.48	484.49
532.65	442.36
532.82	395.55
532.99	461.09
533.16	486.83
533.33	365.12
533.50	379.17
533.67	454.06
533.84	491.51
534.01	383.85
534.18	386.19
534.35	388.53
534.52	451.72
534.69	435.34
534.86	404.91
535.03	425.98
535.20	411.93
535.37	416.62
535.54	360.44
535.71	465.77
535.88	498.53
536.05	428.32
536.22	433.00
536.38	360.44
536.55	416.62
536.72	423.64
536.89	414.27
537.06	402.57
537.23	381.51
537.40	444.70
537.57	411.93
537.74	416.62
537.91	411.93
538.08	433.00
538.25	402.57
538.42	344.06
538.59	418.96
538.75	449.38
538.92	362.78
539.09	369.80
539.26	381.51
539.43	440.02
539.60	376.83
539.77	440.02
539.94	442.36
540.11	433.00
540.28	498.53
540.44	484.49
540.61	327.68
540.78	355.76
540.95	463.43
541.12	414.27
541.29	344.06
541.46	428.32
541.62	388.53
541.79	369.80
541.96	301.93
542.13	433.00
542.30	442.36
542.47	372.15
542.63	430.66
542.80	421.30
542.97	540.66
543.14	447.04
543.31	390.87
543.48	383.85
543.64	418.96
543.81	404.91
543.98	388.53
544.15	442.36
544.32	386.19
544.48	411.93
544.65	383.85
544.82	383.85
544.99	416.62
545.16	470.45
545.32	376.83
545.49	428.32
545.66	475.13
545.83	362.78
546.00	393.21
546.16	311.29
546.33	435.34
546.50	472.79
546.67	388.53
546.83	397.89
547.00	456.40
547.17	379.17
547.34	376.83
547.50	440.02
547.67	433.00
547.84	409.59
548.00	407.25
548.17	465.77
548.34	360.44
548.51	383.85
548.67	400.23
548.84	440.02
549.01	444.70
549.18	472.79
549.34	423.64
549.51	416.62
549.68	444.70
549.84	386.19
550.01	397.89
550.18	437.68
550.34	482.15
550.51	435.34
550.68	458.74
550.84	395.55
551.01	486.83
551.18	486.83
551.34	442.36
551.51	458.74
551.68	433.00
551.84	456.40
552.01	402.57
552.18	465.77
552.34	437.68
552.51	500.87
552.68	463.43
552.84	433.00
553.01	470.45
553.18	468.11
553.34	414.27
553.51	386.19
553.67	400.23
553.84	470.45
554.01	379.17
554.17	372.15
554.34	409.59
554.51	421.30
554.67	444.70
554.84	409.59
555.00	362.78
555.17	418.96
555.33	409.59
555.50	330.02
555.67	322.99
555.83	437.68
556.00	433.00
556.16	559.39
556.33	433.00
556.50	440.02
556.66	433.00
556.83	341.72
556.99	407.25
557.16	472.79
557.32	449.38
557.49	433.00
557.65	435.34
557.82	402.57
557.98	397.89
558.15	451.72
558.32	400.23
558.48	348.74
558.65	428.32
558.81	414.27
558.98	315.97
559.14	416.62
559.31	400.23
559.47	402.57
559.64	369.80
559.80	433.00
559.97	449.38
560.13	498.53
560.30	374.49
560.46	447.04
560.63	447.04
560.79	374.49
560.96	397.89
561.12	421.30
561.29	400.23
561.45	437.68
561.61	489.17
561.78	503.22
561.94	463.43
562.11	423.64
562.27	423.64
562.44	430.66
562.60	447.04
562.77	447.04
562.93	463.43
563.10	416.62
563.26	383.85
563.42	374.49
563.59	414.27
563.75	388.53
563.92	442.36
564.08	472.79
564.24	433.00
564.41	456.40
564.57	397.89
564.74	442.36
564.90	425.98
565.07	376.83
565.23	411.93
565.39	358.10
565.56	376.83
565.72	456.40
565.88	444.70
566.05	433.00
566.21	451.72
566.38	477.47
566.54	428.32
566.70	484.49
566.87	421.30
567.03	386.19
567.19	451.72
567.36	376.83
567.52	388.53
567.68	397.89
567.85	425.98
568.01	379.17
568.17	365.12
568.34	409.59
568.50	416.62
568.66	418.96
568.83	430.66
568.99	383.85
569.15	470.45
569.32	418.96
569.48	367.46
569.64	374.49
569.81	423.64
569.97	383.85
570.13	449.38
570.30	425.98
570.46	447.04
570.62	388.53
570.78	393.21
570.95	437.68
571.11	442.36
571.27	505.56
571.43	409.59
571.60	407.25
571.76	393.21
571.92	484.49
572.09	451.72
572.25	423.64
572.41	442.36
572.57	395.55
572.74	407.25
572.90	409.59
573.06	447.04
573.22	393.21
573.38	444.70
573.55	475.13
573.71	498.53
573.87	397.89
574.03	440.02
574.20	454.06
574.36	388.53
574.52	505.56
574.68	449.38
574.84	388.53
575.01	430.66
575.17	454.06
575.33	528.96
575.49	444.70
575.65	444.70
575.82	482.15
575.98	456.40
576.14	393.21
576.30	421.30
576.46	428.32
576.62	456.40
576.79	463.43
576.95	369.80
577.11	397.89
577.27	379.17
577.43	421.30
577.59	470.45
577.75	449.38
577.92	425.98
578.08	442.36
578.24	397.89
578.40	447.04
578.56	477.47
578.72	449.38
578.88	437.68
579.04	440.02
579.21	444.70
579.37	414.27
579.53	458.74
579.69	418.96
579.85	395.55
580.01	418.96
580.17	479.81
580.33	425.98
580.49	456.40
580.65	374.49
580.82	404.91
580.98	423.64
581.14	339.38
581.30	416.62
581.46	458.74
581.62	447.04
581.78	376.83
581.94	372.15
582.10	376.83
582.26	402.57
582.42	475.13
582.58	440.02
582.74	454.06
582.90	442.36
583.06	416.62
583.22	388.53
583.38	404.91
583.54	447.04
583.70	465.77
583.86	447.04
584.02	491.51
584.18	510.24
584.34	461.09
584.50	409.59
584.66	411.93
584.82	374.49
584.98	367.46
585.14	440.02
585.30	470.45
585.46	449.38
585.62	402.57
585.78	402.57
585.94	411.93
586.10	411.93
586.26	358.10
586.42	414.27
586.58	383.85
586.74	376.83
586.90	416.62
587.06	411.93
587.22	444.70
587.38	404.91
587.54	423.64
587.70	440.02
587.86	468.11
588.02	491.51
588.18	430.66
588.34	414.27
588.49	425.98
588.65	369.80
588.81	407.25
588.97	367.46
589.13	456.40
589.29	482.15
589.45	425.98
589.61	482.15
589.77	533.64
589.93	421.30
590.08	393.21
590.24	362.78
590.40	454.06
590.56	409.59
590.72	437.68
590.88	402.57
591.04	388.53
591.20	402.57
591.35	456.40
591.51	449.38
591.67	414.27
591.83	458.74
591.99	430.66
592.15	493.85
592.31	425.98
592.46	393.21
592.62	463.43
592.78	402.57
592.94	393.21
593.10	416.62
593.26	404.91
593.41	421.30
593.57	381.51
593.73	313.63
593.89	421.30
594.05	388.53
594.20	447.04
594.36	454.06
594.52	440.02
594.68	411.93
594.84	393.21
594.99	393.21
595.15	414.27
595.31	433.00
595.47	479.81
595.62	388.53
595.78	374.49
595.94	386.19
596.10	437.68
596.25	397.89
596.41	407.25
596.57	456.40
596.73	404.91
596.88	465.77
597.04	374.49
597.20	411.93
597.36	395.55
597.51	444.70
597.67	496.19
597.83	400.23
597.99	365.12
598.14	393.21
598.30	388.53
598.46	395.55
598.61	374.49
598.77	383.85
598.93	409.59
599.09	454.06
599.24	428.32
599.40	411.93
599.56	416.62
599.71	454.06
599.87	472.79
600.03	416.62
600.18	383.85
600.34	500.87
600.50	449.38
600.65	374.49
600.81	390.87
600.97	402.57
601.12	411.93
601.28	404.91
601.44	414.27
601.59	421.30
601.75	482.15
601.91	372.15
602.06	376.83
602.22	461.09
602.37	456.40
602.53	421.30
602.69	386.19
602.84	341.72
603.00	496.19
603.16	381.51
603.31	454.06
603.47	390.87
603.62	374.49
603.78	376.83
603.94	463.43
604.09	383.85
604.25	414.27
604.40	470.45
604.56	418.96
604.71	360.44
604.87	404.91
605.03	482.15
605.18	404.91
605.34	465.77
605.49	402.57
605.65	388.53
605.80	397.89
605.96	390.87
606.12	416.62
606.27	519.60
606.43	404.91
606.58	330.02
606.74	449.38
606.89	355.76
607.05	407.25
607.20	416.62
607.36	367.46
607.51	409.59
607.67	437.68
607.82	444.70
607.98	348.74
608.13	470.45
608.29	496.19
608.44	437.68
608.60	433.00
608.75	543.00
608.91	475.13
609.06	456.40
609.22	475.13
609.37	397.89
609.53	411.93
609.68	393.21
609.84	404.91
609.99	416.62
610.15	447.04
