SpectraSuite Data File
++++++++++++++++++++++++++++++++++++
Date: Fri Oct 25 12:10:49 EDT 2013
User: price-jones
Dark Spectrum Present: No
Reference Spectrum Present: No
Number of Sampled Component Spectra: 1
Spectrometers: USB2+H05261
Integration Time (usec): 100000 (USB2+H05261)
Spectra Averaged: 1 (USB2+H05261)
Boxcar Smoothing: 0 (USB2+H05261)
Correct for Electrical Dark: No (USB2+H05261)
Strobe/Lamp Enabled: No (USB2+H05261)
Correct for Detector Non-linearity: No (USB2+H05261)
Correct for Stray Light: No (USB2+H05261)
Number of Pixels in Processed Spectrum: 2048
>>>>>Begin Processed Spectral Data<<<<<
365.73	334.70
365.92	334.70
366.12	334.70
366.32	259.80
366.52	215.33
366.72	283.20
366.91	234.05
367.11	280.86
367.31	215.33
367.51	262.14
367.70	222.35
367.90	245.76
368.10	140.43
368.30	262.14
368.49	212.99
368.69	318.31
368.89	325.33
369.09	294.91
369.28	290.23
369.48	271.50
369.68	337.04
369.87	285.55
370.07	299.59
370.27	346.40
370.47	344.06
370.66	355.76
370.86	325.33
371.06	348.74
371.25	409.59
371.45	393.21
371.65	367.46
371.84	344.06
372.04	372.15
372.24	423.64
372.44	374.49
372.63	308.95
372.83	365.12
373.03	400.23
373.22	341.72
373.42	386.19
373.62	421.30
373.81	402.57
374.01	374.49
374.21	433.00
374.40	369.80
374.60	479.81
374.79	381.51
374.99	458.74
375.19	402.57
375.38	395.55
375.58	379.17
375.78	388.53
375.97	376.83
376.17	512.58
376.37	463.43
376.56	365.12
376.76	433.00
376.95	376.83
377.15	465.77
377.35	376.83
377.54	395.55
377.74	397.89
377.93	421.30
378.13	395.55
378.33	449.38
378.52	379.17
378.72	444.70
378.91	461.09
379.11	325.33
379.31	390.87
379.50	358.10
379.70	507.90
379.89	388.53
380.09	397.89
380.28	425.98
380.48	386.19
380.68	416.62
380.87	444.70
381.07	451.72
381.26	383.85
381.46	376.83
381.65	482.15
381.85	423.64
382.04	376.83
382.24	418.96
382.43	416.62
382.63	400.23
382.83	372.15
383.02	409.59
383.22	416.62
383.41	376.83
383.61	461.09
383.80	376.83
384.00	383.85
384.19	374.49
384.39	425.98
384.58	404.91
384.78	470.45
384.97	362.78
385.17	353.42
385.36	341.72
385.56	383.85
385.75	376.83
385.95	404.91
386.14	437.68
386.34	435.34
386.53	451.72
386.72	379.17
386.92	423.64
387.11	449.38
387.31	402.57
387.50	447.04
387.70	383.85
387.89	444.70
388.09	386.19
388.28	327.68
388.48	425.98
388.67	360.44
388.86	449.38
389.06	388.53
389.25	456.40
389.45	472.79
389.64	374.49
389.84	456.40
390.03	365.12
390.22	463.43
390.42	362.78
390.61	395.55
390.81	418.96
391.00	409.59
391.19	395.55
391.39	449.38
391.58	421.30
391.78	421.30
391.97	435.34
392.16	374.49
392.36	435.34
392.55	479.81
392.75	425.98
392.94	379.17
393.13	395.55
393.33	411.93
393.52	383.85
393.71	435.34
393.91	433.00
394.10	367.46
394.29	416.62
394.49	365.12
394.68	444.70
394.88	369.80
395.07	304.27
395.26	404.91
395.46	397.89
395.65	339.38
395.84	454.06
396.04	437.68
396.23	367.46
396.42	341.72
396.62	435.34
396.81	383.85
397.00	447.04
397.19	437.68
397.39	416.62
397.58	393.21
397.77	367.46
397.97	442.36
398.16	423.64
398.35	409.59
398.55	428.32
398.74	404.91
398.93	458.74
399.12	411.93
399.32	449.38
399.51	402.57
399.70	358.10
399.90	409.59
400.09	372.15
400.28	407.25
400.47	440.02
400.67	435.34
400.86	360.44
401.05	447.04
401.24	440.02
401.44	451.72
401.63	456.40
401.82	428.32
402.01	407.25
402.21	454.06
402.40	404.91
402.59	482.15
402.78	423.64
402.97	393.21
403.17	437.68
403.36	423.64
403.55	397.89
403.74	454.06
403.93	418.96
404.13	430.66
404.32	428.32
404.51	374.49
404.70	400.23
404.89	360.44
405.09	430.66
405.28	369.80
405.47	435.34
405.66	433.00
405.85	386.19
406.05	386.19
406.24	351.08
406.43	374.49
406.62	411.93
406.81	498.53
407.00	440.02
407.20	360.44
407.39	355.76
407.58	407.25
407.77	465.77
407.96	395.55
408.15	484.49
408.34	486.83
408.54	442.36
408.73	365.12
408.92	449.38
409.11	376.83
409.30	365.12
409.49	360.44
409.68	376.83
409.87	397.89
410.07	393.21
410.26	423.64
410.45	449.38
410.64	437.68
410.83	458.74
411.02	416.62
411.21	437.68
411.40	376.83
411.59	374.49
411.78	372.15
411.98	395.55
412.17	400.23
412.36	402.57
412.55	414.27
412.74	397.89
412.93	437.68
413.12	437.68
413.31	442.36
413.50	376.83
413.69	409.59
413.88	362.78
414.07	376.83
414.26	425.98
414.45	423.64
414.64	461.09
414.83	407.25
415.02	404.91
415.22	404.91
415.41	414.27
415.60	400.23
415.79	470.45
415.98	402.57
416.17	390.87
416.36	418.96
416.55	414.27
416.74	423.64
416.93	447.04
417.12	355.76
417.31	416.62
417.50	416.62
417.69	367.46
417.88	411.93
418.07	376.83
418.26	430.66
418.45	493.85
418.64	376.83
418.83	409.59
419.02	451.72
419.21	383.85
419.39	454.06
419.58	400.23
419.77	372.15
419.96	442.36
420.15	437.68
420.34	430.66
420.53	339.38
420.72	416.62
420.91	421.30
421.10	428.32
421.29	414.27
421.48	433.00
421.67	435.34
421.86	433.00
422.05	374.49
422.24	416.62
422.43	425.98
422.61	409.59
422.80	339.38
422.99	381.51
423.18	369.80
423.37	433.00
423.56	383.85
423.75	388.53
423.94	365.12
424.13	409.59
424.32	433.00
424.50	376.83
424.69	421.30
424.88	414.27
425.07	390.87
425.26	376.83
425.45	400.23
425.64	374.49
425.83	344.06
426.01	444.70
426.20	383.85
426.39	407.25
426.58	428.32
426.77	425.98
426.96	433.00
427.15	421.30
427.33	402.57
427.52	428.32
427.71	414.27
427.90	423.64
428.09	330.02
428.28	393.21
428.46	388.53
428.65	397.89
428.84	414.27
429.03	362.78
429.22	449.38
429.40	433.00
429.59	421.30
429.78	435.34
429.97	423.64
430.16	365.12
430.34	379.17
430.53	428.32
430.72	386.19
430.91	482.15
431.10	372.15
431.28	425.98
431.47	437.68
431.66	482.15
431.85	449.38
432.03	395.55
432.22	442.36
432.41	400.23
432.60	388.53
432.79	388.53
432.97	416.62
433.16	393.21
433.35	397.89
433.54	418.96
433.72	435.34
433.91	360.44
434.10	418.96
434.28	437.68
434.47	376.83
434.66	461.09
434.85	482.15
435.03	409.59
435.22	440.02
435.41	465.77
435.59	360.44
435.78	423.64
435.97	447.04
436.16	477.47
436.34	428.32
436.53	376.83
436.72	337.04
436.90	451.72
437.09	475.13
437.28	437.68
437.46	447.04
437.65	393.21
437.84	409.59
438.02	430.66
438.21	372.15
438.40	411.93
438.58	372.15
438.77	421.30
438.96	351.08
439.14	433.00
439.33	418.96
439.52	428.32
439.70	451.72
439.89	425.98
440.08	430.66
440.26	444.70
440.45	458.74
440.63	435.34
440.82	374.49
441.01	477.47
441.19	440.02
441.38	440.02
441.57	433.00
441.75	477.47
441.94	486.83
442.12	339.38
442.31	411.93
442.50	337.04
442.68	449.38
442.87	397.89
443.05	440.02
443.24	449.38
443.43	358.10
443.61	381.51
443.80	428.32
443.98	435.34
444.17	381.51
444.35	451.72
444.54	348.74
444.73	423.64
444.91	411.93
445.10	428.32
445.28	407.25
445.47	435.34
445.65	440.02
445.84	440.02
446.02	367.46
446.21	341.72
446.39	409.59
446.58	496.19
446.77	390.87
446.95	407.25
447.14	395.55
447.32	437.68
447.51	454.06
447.69	404.91
447.88	433.00
448.06	423.64
448.25	416.62
448.43	428.32
448.62	451.72
448.80	484.49
448.99	376.83
449.17	362.78
449.36	430.66
449.54	496.19
449.73	407.25
449.91	418.96
450.10	423.64
450.28	498.53
450.46	489.17
450.65	404.91
450.83	418.96
451.02	444.70
451.20	372.15
451.39	428.32
451.57	440.02
451.76	456.40
451.94	435.34
452.13	451.72
452.31	374.49
452.49	421.30
452.68	386.19
452.86	465.77
453.05	344.06
453.23	404.91
453.42	320.65
453.60	454.06
453.78	402.57
453.97	393.21
454.15	409.59
454.34	425.98
454.52	320.65
454.70	442.36
454.89	418.96
455.07	360.44
455.26	416.62
455.44	341.72
455.62	332.36
455.81	437.68
455.99	421.30
456.17	451.72
456.36	440.02
456.54	407.25
456.73	407.25
456.91	463.43
457.09	395.55
457.28	437.68
457.46	365.12
457.64	372.15
457.83	428.32
458.01	386.19
458.19	411.93
458.38	367.46
458.56	416.62
458.74	379.17
458.93	461.09
459.11	414.27
459.29	456.40
459.48	454.06
459.66	456.40
459.84	440.02
460.03	498.53
460.21	411.93
460.39	402.57
460.57	493.85
460.76	456.40
460.94	358.10
461.12	461.09
461.31	393.21
461.49	470.45
461.67	416.62
461.85	341.72
462.04	468.11
462.22	774.72
462.40	418.96
462.59	454.06
462.77	435.34
462.95	402.57
463.13	393.21
463.32	470.45
463.50	475.13
463.68	454.06
463.86	411.93
464.05	435.34
464.23	388.53
464.41	421.30
464.59	447.04
464.78	461.09
464.96	430.66
465.14	440.02
465.32	372.15
465.50	407.25
465.69	379.17
465.87	379.17
466.05	486.83
466.23	376.83
466.41	486.83
466.60	435.34
466.78	404.91
466.96	348.74
467.14	400.23
467.32	465.77
467.51	416.62
467.69	440.02
467.87	517.26
468.05	421.30
468.23	395.55
468.41	463.43
468.60	358.10
468.78	414.27
468.96	461.09
469.14	369.80
469.32	337.04
469.50	400.23
469.69	454.06
469.87	395.55
470.05	362.78
470.23	428.32
470.41	393.21
470.59	388.53
470.77	386.19
470.95	386.19
471.14	409.59
471.32	404.91
471.50	470.45
471.68	418.96
471.86	402.57
472.04	425.98
472.22	440.02
472.40	362.78
472.58	461.09
472.77	489.17
472.95	355.76
473.13	456.40
473.31	456.40
473.49	463.43
473.67	402.57
473.85	353.42
474.03	404.91
474.21	433.00
474.39	498.53
474.57	470.45
474.75	451.72
474.93	376.83
475.12	346.40
475.30	383.85
475.48	447.04
475.66	409.59
475.84	451.72
476.02	390.87
476.20	365.12
476.38	456.40
476.56	425.98
476.74	440.02
476.92	407.25
477.10	449.38
477.28	461.09
477.46	390.87
477.64	421.30
477.82	383.85
478.00	449.38
478.18	449.38
478.36	374.49
478.54	379.17
478.72	390.87
478.90	353.42
479.08	367.46
479.26	416.62
479.44	383.85
479.62	442.36
479.80	416.62
479.98	440.02
480.16	416.62
480.34	444.70
480.52	430.66
480.70	475.13
480.88	423.64
481.06	400.23
481.24	510.24
481.41	411.93
481.59	409.59
481.77	425.98
481.95	423.64
482.13	348.74
482.31	383.85
482.49	409.59
482.67	409.59
482.85	440.02
483.03	489.17
483.21	322.99
483.39	374.49
483.57	409.59
483.74	482.15
483.92	442.36
484.10	287.89
484.28	463.43
484.46	472.79
484.64	355.76
484.82	393.21
485.00	416.62
485.18	404.91
485.35	411.93
485.53	437.68
485.71	411.93
485.89	313.63
486.07	418.96
486.25	465.77
486.43	482.15
486.61	461.09
486.78	454.06
486.96	341.72
487.14	397.89
487.32	407.25
487.50	421.30
487.68	451.72
487.85	351.08
488.03	369.80
488.21	449.38
488.39	411.93
488.57	507.90
488.75	369.80
488.92	498.53
489.10	400.23
489.28	433.00
489.46	390.87
489.64	400.23
489.81	337.04
489.99	381.51
490.17	393.21
490.35	477.47
490.53	416.62
490.70	334.70
490.88	435.34
491.06	437.68
491.24	395.55
491.41	440.02
491.59	486.83
491.77	409.59
491.95	442.36
492.13	414.27
492.30	400.23
492.48	411.93
492.66	383.85
492.84	421.30
493.01	407.25
493.19	358.10
493.37	458.74
493.54	433.00
493.72	486.83
493.90	421.30
494.08	461.09
494.25	472.79
494.43	447.04
494.61	456.40
494.79	388.53
494.96	397.89
495.14	395.55
495.32	458.74
495.49	362.78
495.67	461.09
495.85	447.04
496.02	435.34
496.20	374.49
496.38	404.91
496.55	402.57
496.73	519.60
496.91	383.85
497.09	461.09
497.26	407.25
497.44	440.02
497.62	346.40
497.79	418.96
497.97	486.83
498.14	428.32
498.32	402.57
498.50	367.46
498.67	418.96
498.85	407.25
499.03	433.00
499.20	381.51
499.38	390.87
499.56	414.27
499.73	484.49
499.91	386.19
500.08	353.42
500.26	407.25
500.44	416.62
500.61	407.25
500.79	390.87
500.97	425.98
501.14	400.23
501.32	381.51
501.49	395.55
501.67	383.85
501.84	404.91
502.02	367.46
502.20	484.49
502.37	339.38
502.55	376.83
502.72	423.64
502.90	418.96
503.07	449.38
503.25	433.00
503.43	477.47
503.60	458.74
503.78	367.46
503.95	348.74
504.13	411.93
504.30	442.36
504.48	444.70
504.65	437.68
504.83	409.59
505.01	447.04
505.18	437.68
505.36	395.55
505.53	472.79
505.71	334.70
505.88	503.22
506.06	449.38
506.23	404.91
506.41	355.76
506.58	416.62
506.76	440.02
506.93	379.17
507.11	468.11
507.28	440.02
507.46	400.23
507.63	362.78
507.81	367.46
507.98	402.57
508.16	407.25
508.33	449.38
508.50	437.68
508.68	428.32
508.85	447.04
509.03	465.77
509.20	376.83
509.38	388.53
509.55	463.43
509.73	404.91
509.90	451.72
510.08	386.19
510.25	482.15
510.42	418.96
510.60	386.19
510.77	447.04
510.95	437.68
511.12	397.89
511.30	411.93
511.47	444.70
511.64	341.72
511.82	433.00
511.99	421.30
512.17	374.49
512.34	418.96
512.51	390.87
512.69	451.72
512.86	475.13
513.04	409.59
513.21	397.89
513.38	374.49
513.56	393.21
513.73	421.30
513.90	381.51
514.08	418.96
514.25	358.10
514.43	416.62
514.60	442.36
514.77	367.46
514.95	395.55
515.12	418.96
515.29	411.93
515.47	425.98
515.64	416.62
515.81	404.91
515.99	447.04
516.16	477.47
516.33	451.72
516.51	414.27
516.68	507.90
516.85	416.62
517.03	423.64
517.20	449.38
517.37	447.04
517.54	428.32
517.72	383.85
517.89	475.13
518.06	369.80
518.24	430.66
518.41	425.98
518.58	437.68
518.75	454.06
518.93	433.00
519.10	376.83
519.27	425.98
519.45	355.76
519.62	397.89
519.79	435.34
519.96	407.25
520.14	369.80
520.31	435.34
520.48	393.21
520.65	390.87
520.83	454.06
521.00	393.21
521.17	500.87
521.34	421.30
521.52	435.34
521.69	416.62
521.86	360.44
522.03	383.85
522.20	435.34
522.38	367.46
522.55	423.64
522.72	411.93
522.89	407.25
523.07	444.70
523.24	479.81
523.41	402.57
523.58	472.79
523.75	442.36
523.92	440.02
524.10	390.87
524.27	390.87
524.44	475.13
524.61	491.51
524.78	463.43
524.96	409.59
525.13	433.00
525.30	425.98
525.47	423.64
525.64	437.68
525.81	407.25
525.98	379.17
526.16	433.00
526.33	449.38
526.50	428.32
526.67	395.55
526.84	404.91
527.01	414.27
527.18	395.55
527.36	418.96
527.53	395.55
527.70	423.64
527.87	383.85
528.04	435.34
528.21	514.92
528.38	479.81
528.55	444.70
528.72	447.04
528.89	470.45
529.07	442.36
529.24	327.68
529.41	433.00
529.58	451.72
529.75	440.02
529.92	404.91
530.09	430.66
530.26	404.91
530.43	332.36
530.60	461.09
530.77	344.06
530.94	433.00
531.11	400.23
531.28	407.25
531.46	383.85
531.63	381.51
531.80	421.30
531.97	444.70
532.14	365.12
532.31	379.17
532.48	435.34
532.65	428.32
532.82	362.78
532.99	447.04
533.16	374.49
533.33	444.70
533.50	418.96
533.67	308.95
533.84	425.98
534.01	402.57
534.18	423.64
534.35	428.32
534.52	435.34
534.69	351.08
534.86	437.68
535.03	407.25
535.20	362.78
535.37	421.30
535.54	414.27
535.71	428.32
535.88	451.72
536.05	449.38
536.22	449.38
536.38	440.02
536.55	442.36
536.72	423.64
536.89	428.32
537.06	461.09
537.23	449.38
537.40	358.10
537.57	390.87
537.74	421.30
537.91	533.64
538.08	423.64
538.25	425.98
538.42	339.38
538.59	423.64
538.75	367.46
538.92	435.34
539.09	447.04
539.26	430.66
539.43	454.06
539.60	386.19
539.77	451.72
539.94	400.23
540.11	383.85
540.28	479.81
540.44	346.40
540.61	421.30
540.78	423.64
540.95	493.85
541.12	475.13
541.29	411.93
541.46	449.38
541.62	449.38
541.79	451.72
541.96	435.34
542.13	386.19
542.30	416.62
542.47	390.87
542.63	461.09
542.80	437.68
542.97	491.51
543.14	393.21
543.31	409.59
543.48	393.21
543.64	440.02
543.81	465.77
543.98	416.62
544.15	367.46
544.32	421.30
544.48	470.45
544.65	430.66
544.82	379.17
544.99	414.27
545.16	458.74
545.32	404.91
545.49	376.83
545.66	458.74
545.83	444.70
546.00	421.30
546.16	463.43
546.33	489.17
546.50	482.15
546.67	353.42
546.83	376.83
547.00	411.93
547.17	395.55
547.34	390.87
547.50	376.83
547.67	341.72
547.84	341.72
548.00	372.15
548.17	411.93
548.34	379.17
548.51	433.00
548.67	442.36
548.84	461.09
549.01	409.59
549.18	369.80
549.34	423.64
549.51	416.62
549.68	388.53
549.84	409.59
550.01	393.21
550.18	510.24
550.34	540.66
550.51	498.53
550.68	461.09
550.84	482.15
551.01	390.87
551.18	447.04
551.34	376.83
551.51	414.27
551.68	379.17
551.84	451.72
552.01	346.40
552.18	351.08
552.34	379.17
552.51	388.53
552.68	421.30
552.84	535.98
553.01	440.02
553.18	395.55
553.34	362.78
553.51	435.34
553.67	425.98
553.84	425.98
554.01	411.93
554.17	400.23
554.34	409.59
554.51	463.43
554.67	435.34
554.84	386.19
555.00	411.93
555.17	386.19
555.33	433.00
555.50	428.32
555.67	411.93
555.83	428.32
556.00	468.11
556.16	531.30
556.33	472.79
556.50	372.15
556.66	456.40
556.83	423.64
556.99	390.87
557.16	423.64
557.32	372.15
557.49	402.57
557.65	379.17
557.82	414.27
557.98	449.38
558.15	351.08
558.32	418.96
558.48	411.93
558.65	353.42
558.81	475.13
558.98	430.66
559.14	418.96
559.31	433.00
559.47	430.66
559.64	437.68
559.80	433.00
559.97	475.13
560.13	505.56
560.30	421.30
560.46	421.30
560.63	388.53
560.79	425.98
560.96	449.38
561.12	395.55
561.29	475.13
561.45	374.49
561.61	433.00
561.78	463.43
561.94	379.17
562.11	477.47
562.27	337.04
562.44	355.76
562.60	400.23
562.77	449.38
562.93	416.62
563.10	383.85
563.26	465.77
563.42	470.45
563.59	416.62
563.75	365.12
563.92	444.70
564.08	341.72
564.24	468.11
564.41	484.49
564.57	395.55
564.74	416.62
564.90	423.64
565.07	435.34
565.23	456.40
565.39	484.49
565.56	421.30
565.72	418.96
565.88	430.66
566.05	334.70
566.21	388.53
566.38	421.30
566.54	407.25
566.70	421.30
566.87	386.19
567.03	355.76
567.19	393.21
567.36	362.78
567.52	383.85
567.68	374.49
567.85	435.34
568.01	376.83
568.17	372.15
568.34	409.59
568.50	475.13
568.66	374.49
568.83	519.60
568.99	407.25
569.15	440.02
569.32	440.02
569.48	372.15
569.64	421.30
569.81	367.46
569.97	351.08
570.13	411.93
570.30	430.66
570.46	411.93
570.62	454.06
570.78	451.72
570.95	379.17
571.11	465.77
571.27	463.43
571.43	449.38
571.60	414.27
571.76	482.15
571.92	423.64
572.09	379.17
572.25	397.89
572.41	358.10
572.57	447.04
572.74	475.13
572.90	411.93
573.06	425.98
573.22	442.36
573.38	402.57
573.55	430.66
573.71	435.34
573.87	416.62
574.03	404.91
574.20	416.62
574.36	477.47
574.52	407.25
574.68	360.44
574.84	461.09
575.01	484.49
575.17	414.27
575.33	468.11
575.49	465.77
575.65	355.76
575.82	468.11
575.98	440.02
576.14	390.87
576.30	400.23
576.46	400.23
576.62	486.83
576.79	400.23
576.95	503.22
577.11	414.27
577.27	388.53
577.43	477.47
577.59	404.91
577.75	381.51
577.92	435.34
578.08	447.04
578.24	374.49
578.40	386.19
578.56	510.24
578.72	395.55
578.88	372.15
579.04	456.40
579.21	433.00
579.37	414.27
579.53	435.34
579.69	402.57
579.85	421.30
580.01	461.09
580.17	400.23
580.33	423.64
580.49	465.77
580.65	444.70
580.82	440.02
580.98	449.38
581.14	348.74
581.30	489.17
581.46	472.79
581.62	423.64
581.78	402.57
581.94	423.64
582.10	330.02
582.26	397.89
582.42	383.85
582.58	374.49
582.74	423.64
582.90	407.25
583.06	421.30
583.22	411.93
583.38	365.12
583.54	479.81
583.70	442.36
583.86	365.12
584.02	437.68
584.18	465.77
584.34	437.68
584.50	421.30
584.66	383.85
584.82	367.46
584.98	430.66
585.14	402.57
585.30	437.68
585.46	456.40
585.62	454.06
585.78	447.04
585.94	409.59
586.10	414.27
586.26	351.08
586.42	519.60
586.58	374.49
586.74	414.27
586.90	421.30
587.06	421.30
587.22	355.76
587.38	425.98
587.54	458.74
587.70	397.89
587.86	411.93
588.02	456.40
588.18	447.04
588.34	521.94
588.49	440.02
588.65	390.87
588.81	433.00
588.97	381.51
589.13	463.43
589.29	437.68
589.45	444.70
589.61	437.68
589.77	351.08
589.93	355.76
590.08	339.38
590.24	344.06
590.40	449.38
590.56	475.13
590.72	404.91
590.88	444.70
591.04	414.27
591.20	421.30
591.35	414.27
591.51	442.36
591.67	463.43
591.83	442.36
591.99	440.02
592.15	330.02
592.31	472.79
592.46	430.66
592.62	447.04
592.78	400.23
592.94	402.57
593.10	414.27
593.26	418.96
593.41	482.15
593.57	454.06
593.73	486.83
593.89	433.00
594.05	482.15
594.20	482.15
594.36	409.59
594.52	369.80
594.68	465.77
594.84	463.43
594.99	437.68
595.15	437.68
595.31	421.30
595.47	390.87
595.62	421.30
595.78	461.09
595.94	461.09
596.10	348.74
596.25	447.04
596.41	479.81
596.57	414.27
596.73	414.27
596.88	393.21
597.04	402.57
597.20	360.44
597.36	437.68
597.51	360.44
597.67	383.85
597.83	421.30
597.99	449.38
598.14	428.32
598.30	454.06
598.46	381.51
598.61	411.93
598.77	414.27
598.93	421.30
599.09	421.30
599.24	414.27
599.40	400.23
599.56	423.64
599.71	440.02
599.87	421.30
600.03	414.27
600.18	435.34
600.34	330.02
600.50	479.81
600.65	330.02
600.81	449.38
600.97	477.47
601.12	379.17
601.28	505.56
601.44	451.72
601.59	496.19
601.75	397.89
601.91	383.85
602.06	465.77
602.22	444.70
602.37	463.43
602.53	456.40
602.69	418.96
602.84	435.34
603.00	472.79
603.16	521.94
603.31	386.19
603.47	433.00
603.62	418.96
603.78	496.19
603.94	489.17
604.09	470.45
604.25	379.17
604.40	386.19
604.56	418.96
604.71	322.99
604.87	418.96
605.03	472.79
605.18	423.64
605.34	510.24
605.49	376.83
605.65	402.57
605.80	341.72
605.96	421.30
606.12	433.00
606.27	365.12
606.43	423.64
606.58	442.36
606.74	374.49
606.89	351.08
607.05	465.77
607.20	440.02
607.36	454.06
607.51	423.64
607.67	463.43
607.82	407.25
607.98	423.64
608.13	442.36
608.29	362.78
608.44	402.57
608.60	416.62
608.75	437.68
608.91	449.38
609.06	428.32
609.22	442.36
609.37	411.93
609.53	355.76
609.68	404.91
609.84	318.31
609.99	421.30
610.15	400.23
