SpectraSuite Data File
++++++++++++++++++++++++++++++++++++
Date: Fri Oct 25 12:10:12 EDT 2013
User: price-jones
Dark Spectrum Present: No
Reference Spectrum Present: No
Number of Sampled Component Spectra: 1
Spectrometers: USB2+H05261
Integration Time (usec): 100000 (USB2+H05261)
Spectra Averaged: 1 (USB2+H05261)
Boxcar Smoothing: 0 (USB2+H05261)
Correct for Electrical Dark: No (USB2+H05261)
Strobe/Lamp Enabled: No (USB2+H05261)
Correct for Detector Non-linearity: No (USB2+H05261)
Correct for Stray Light: No (USB2+H05261)
Number of Pixels in Processed Spectrum: 2048
>>>>>Begin Processed Spectral Data<<<<<
365.73	402.57
365.92	402.57
366.12	402.57
366.32	262.14
366.52	285.55
366.72	299.59
366.91	184.90
367.11	220.01
367.31	280.86
367.51	238.73
367.70	266.82
367.90	229.37
368.10	180.22
368.30	273.84
368.49	234.05
368.69	245.76
368.89	301.93
369.09	315.97
369.28	250.44
369.48	325.33
369.68	290.23
369.87	283.20
370.07	283.20
370.27	299.59
370.47	283.20
370.66	353.42
370.86	334.70
371.06	388.53
371.25	447.04
371.45	376.83
371.65	404.91
371.84	414.27
372.04	374.49
372.24	451.72
372.44	397.89
372.63	433.00
372.83	440.02
373.03	411.93
373.22	344.06
373.42	395.55
373.62	454.06
373.81	454.06
374.01	430.66
374.21	383.85
374.40	428.32
374.60	528.96
374.79	404.91
374.99	411.93
375.19	390.87
375.38	456.40
375.58	407.25
375.78	486.83
375.97	383.85
376.17	407.25
376.37	430.66
376.56	435.34
376.76	348.74
376.95	404.91
377.15	365.12
377.35	484.49
377.54	411.93
377.74	388.53
377.93	456.40
378.13	386.19
378.33	393.21
378.52	355.76
378.72	402.57
378.91	402.57
379.11	414.27
379.31	416.62
379.50	383.85
379.70	353.42
379.89	388.53
380.09	367.46
380.28	365.12
380.48	407.25
380.68	411.93
380.87	386.19
381.07	362.78
381.26	442.36
381.46	353.42
381.65	358.10
381.85	409.59
382.04	425.98
382.24	442.36
382.43	433.00
382.63	383.85
382.83	327.68
383.02	423.64
383.22	402.57
383.41	397.89
383.61	369.80
383.80	449.38
384.00	388.53
384.19	409.59
384.39	355.76
384.58	320.65
384.78	381.51
384.97	418.96
385.17	383.85
385.36	440.02
385.56	397.89
385.75	374.49
385.95	334.70
386.14	458.74
386.34	402.57
386.53	360.44
386.72	376.83
386.92	423.64
387.11	430.66
387.31	503.22
387.50	379.17
387.70	397.89
387.89	456.40
388.09	393.21
388.28	374.49
388.48	358.10
388.67	386.19
388.86	437.68
389.06	344.06
389.25	322.99
389.45	383.85
389.64	348.74
389.84	376.83
390.03	409.59
390.22	440.02
390.42	409.59
390.61	346.40
390.81	411.93
391.00	489.17
391.19	423.64
391.39	489.17
391.58	428.32
391.78	423.64
391.97	423.64
392.16	418.96
392.36	454.06
392.55	461.09
392.75	397.89
392.94	414.27
393.13	381.51
393.33	390.87
393.52	447.04
393.71	418.96
393.91	330.02
394.10	376.83
394.29	360.44
394.49	360.44
394.68	346.40
394.88	402.57
395.07	437.68
395.26	500.87
395.46	463.43
395.65	510.24
395.84	418.96
396.04	454.06
396.23	433.00
396.42	425.98
396.62	423.64
396.81	407.25
397.00	386.19
397.19	433.00
397.39	416.62
397.58	379.17
397.77	400.23
397.97	435.34
398.16	395.55
398.35	479.81
398.55	456.40
398.74	383.85
398.93	409.59
399.12	435.34
399.32	447.04
399.51	421.30
399.70	425.98
399.90	353.42
400.09	346.40
400.28	348.74
400.47	365.12
400.67	423.64
400.86	433.00
401.05	351.08
401.24	454.06
401.44	430.66
401.63	440.02
401.82	442.36
402.01	416.62
402.21	374.49
402.40	433.00
402.59	465.77
402.78	397.89
402.97	423.64
403.17	479.81
403.36	397.89
403.55	360.44
403.74	397.89
403.93	372.15
404.13	383.85
404.32	414.27
404.51	397.89
404.70	456.40
404.89	358.10
405.09	482.15
405.28	442.36
405.47	444.70
405.66	468.11
405.85	383.85
406.05	390.87
406.24	390.87
406.43	421.30
406.62	390.87
406.81	489.17
407.00	489.17
407.20	372.15
407.39	402.57
407.58	409.59
407.77	461.09
407.96	416.62
408.15	435.34
408.34	367.46
408.54	414.27
408.73	376.83
408.92	404.91
409.11	449.38
409.30	400.23
409.49	393.21
409.68	409.59
409.87	404.91
410.07	346.40
410.26	414.27
410.45	374.49
410.64	442.36
410.83	390.87
411.02	365.12
411.21	402.57
411.40	407.25
411.59	437.68
411.78	423.64
411.98	433.00
412.17	313.63
412.36	351.08
412.55	400.23
412.74	442.36
412.93	355.76
413.12	440.02
413.31	477.47
413.50	400.23
413.69	386.19
413.88	414.27
414.07	428.32
414.26	430.66
414.45	393.21
414.64	421.30
414.83	472.79
415.02	365.12
415.22	437.68
415.41	444.70
415.60	423.64
415.79	402.57
415.98	400.23
416.17	456.40
416.36	456.40
416.55	367.46
416.74	351.08
416.93	425.98
417.12	425.98
417.31	393.21
417.50	414.27
417.69	440.02
417.88	369.80
418.07	461.09
418.26	414.27
418.45	367.46
418.64	458.74
418.83	346.40
419.02	383.85
419.21	367.46
419.39	451.72
419.58	416.62
419.77	421.30
419.96	388.53
420.15	390.87
420.34	428.32
420.53	425.98
420.72	400.23
420.91	458.74
421.10	433.00
421.29	449.38
421.48	437.68
421.67	442.36
421.86	346.40
422.05	454.06
422.24	430.66
422.43	393.21
422.61	334.70
422.80	390.87
422.99	440.02
423.18	461.09
423.37	449.38
423.56	423.64
423.75	435.34
423.94	447.04
424.13	414.27
424.32	390.87
424.50	388.53
424.69	444.70
424.88	428.32
425.07	444.70
425.26	430.66
425.45	428.32
425.64	425.98
425.83	461.09
426.01	425.98
426.20	423.64
426.39	362.78
426.58	423.64
426.77	369.80
426.96	411.93
427.15	430.66
427.33	440.02
427.52	402.57
427.71	418.96
427.90	327.68
428.09	379.17
428.28	411.93
428.46	388.53
428.65	409.59
428.84	423.64
429.03	461.09
429.22	486.83
429.40	416.62
429.59	416.62
429.78	456.40
429.97	407.25
430.16	428.32
430.34	395.55
430.53	409.59
430.72	369.80
430.91	339.38
431.10	393.21
431.28	428.32
431.47	409.59
431.66	456.40
431.85	409.59
432.03	435.34
432.22	437.68
432.41	388.53
432.60	435.34
432.79	353.42
432.97	414.27
433.16	411.93
433.35	386.19
433.54	327.68
433.72	397.89
433.91	388.53
434.10	393.21
434.28	421.30
434.47	381.51
434.66	379.17
434.85	416.62
435.03	379.17
435.22	381.51
435.41	369.80
435.59	454.06
435.78	458.74
435.97	379.17
436.16	507.90
436.34	421.30
436.53	444.70
436.72	440.02
436.90	433.00
437.09	407.25
437.28	416.62
437.46	395.55
437.65	416.62
437.84	440.02
438.02	456.40
438.21	381.51
438.40	404.91
438.58	421.30
438.77	421.30
438.96	425.98
439.14	425.98
439.33	409.59
439.52	383.85
439.70	397.89
439.89	386.19
440.08	435.34
440.26	372.15
440.45	407.25
440.63	423.64
440.82	388.53
441.01	365.12
441.19	440.02
441.38	386.19
441.57	360.44
441.75	376.83
441.94	430.66
442.12	402.57
442.31	332.36
442.50	315.97
442.68	451.72
442.87	407.25
443.05	456.40
443.24	442.36
443.43	423.64
443.61	397.89
443.80	395.55
443.98	409.59
444.17	348.74
444.35	437.68
444.54	386.19
444.73	353.42
444.91	285.55
445.10	383.85
445.28	414.27
445.47	437.68
445.65	395.55
445.84	414.27
446.02	409.59
446.21	400.23
446.39	428.32
446.58	465.77
446.77	372.15
446.95	400.23
447.14	444.70
447.32	470.45
447.51	435.34
447.69	416.62
447.88	402.57
448.06	414.27
448.25	414.27
448.43	456.40
448.62	390.87
448.80	470.45
448.99	423.64
449.17	353.42
449.36	390.87
449.54	421.30
449.73	414.27
449.91	327.68
450.10	423.64
450.28	486.83
450.46	407.25
450.65	421.30
450.83	451.72
451.02	456.40
451.20	402.57
451.39	402.57
451.57	416.62
451.76	402.57
451.94	400.23
452.13	407.25
452.31	395.55
452.49	294.91
452.68	397.89
452.86	454.06
453.05	388.53
453.23	435.34
453.42	379.17
453.60	376.83
453.78	437.68
453.97	355.76
454.15	402.57
454.34	365.12
454.52	421.30
454.70	470.45
454.89	428.32
455.07	404.91
455.26	418.96
455.44	461.09
455.62	383.85
455.81	367.46
455.99	339.38
456.17	397.89
456.36	402.57
456.54	458.74
456.73	390.87
456.91	379.17
457.09	444.70
457.28	444.70
457.46	461.09
457.64	470.45
457.83	430.66
458.01	383.85
458.19	390.87
458.38	472.79
458.56	440.02
458.74	355.76
458.93	461.09
459.11	486.83
459.29	397.89
459.48	500.87
459.66	374.49
459.84	404.91
460.03	447.04
460.21	510.24
460.39	393.21
460.57	409.59
460.76	404.91
460.94	442.36
461.12	407.25
461.31	435.34
461.49	376.83
461.67	425.98
461.85	444.70
462.04	374.49
462.22	814.51
462.40	421.30
462.59	435.34
462.77	404.91
462.95	468.11
463.13	423.64
463.32	372.15
463.50	442.36
463.68	442.36
463.86	411.93
464.05	402.57
464.23	463.43
464.41	430.66
464.59	395.55
464.78	423.64
464.96	311.29
465.14	360.44
465.32	383.85
465.50	404.91
465.69	425.98
465.87	454.06
466.05	358.10
466.23	430.66
466.41	482.15
466.60	348.74
466.78	379.17
466.96	416.62
467.14	421.30
467.32	454.06
467.51	470.45
467.69	447.04
467.87	484.49
468.05	409.59
468.23	465.77
468.41	503.22
468.60	353.42
468.78	451.72
468.96	414.27
469.14	456.40
469.32	393.21
469.50	418.96
469.69	437.68
469.87	411.93
470.05	421.30
470.23	407.25
470.41	327.68
470.59	397.89
470.77	449.38
470.95	400.23
471.14	404.91
471.32	397.89
471.50	454.06
471.68	301.93
471.86	379.17
472.04	383.85
472.22	475.13
472.40	425.98
472.58	407.25
472.77	409.59
472.95	369.80
473.13	454.06
473.31	482.15
473.49	402.57
473.67	381.51
473.85	376.83
474.03	449.38
474.21	414.27
474.39	437.68
474.57	411.93
474.75	447.04
474.93	461.09
475.12	369.80
475.30	402.57
475.48	409.59
475.66	393.21
475.84	390.87
476.02	407.25
476.20	430.66
476.38	400.23
476.56	468.11
476.74	390.87
476.92	425.98
477.10	428.32
477.28	397.89
477.46	327.68
477.64	365.12
477.82	484.49
478.00	322.99
478.18	402.57
478.36	400.23
478.54	402.57
478.72	428.32
478.90	355.76
479.08	430.66
479.26	425.98
479.44	407.25
479.62	428.32
479.80	390.87
479.98	423.64
480.16	411.93
480.34	425.98
480.52	409.59
480.70	332.36
480.88	425.98
481.06	397.89
481.24	433.00
481.41	393.21
481.59	365.12
481.77	440.02
481.95	416.62
482.13	435.34
482.31	376.83
482.49	425.98
482.67	360.44
482.85	421.30
483.03	407.25
483.21	388.53
483.39	381.51
483.57	449.38
483.74	409.59
483.92	482.15
484.10	421.30
484.28	430.66
484.46	461.09
484.64	409.59
484.82	475.13
485.00	423.64
485.18	425.98
485.35	393.21
485.53	472.79
485.71	498.53
485.89	353.42
486.07	355.76
486.25	496.19
486.43	477.47
486.61	454.06
486.78	393.21
486.96	451.72
487.14	428.32
487.32	451.72
487.50	372.15
487.68	423.64
487.85	393.21
488.03	468.11
488.21	468.11
488.39	379.17
488.57	388.53
488.75	400.23
488.92	524.28
489.10	421.30
489.28	456.40
489.46	421.30
489.64	463.43
489.81	463.43
489.99	512.58
490.17	451.72
490.35	418.96
490.53	423.64
490.70	428.32
490.88	430.66
491.06	407.25
491.24	444.70
491.41	430.66
491.59	404.91
491.77	381.51
491.95	332.36
492.13	407.25
492.30	409.59
492.48	418.96
492.66	430.66
492.84	463.43
493.01	470.45
493.19	421.30
493.37	444.70
493.54	365.12
493.72	416.62
493.90	341.72
494.08	416.62
494.25	404.91
494.43	381.51
494.61	355.76
494.79	400.23
494.96	367.46
495.14	379.17
495.32	362.78
495.49	472.79
495.67	465.77
495.85	346.40
496.02	397.89
496.20	461.09
496.38	388.53
496.55	451.72
496.73	486.83
496.91	344.06
497.09	444.70
497.26	447.04
497.44	402.57
497.62	388.53
497.79	402.57
497.97	388.53
498.14	400.23
498.32	449.38
498.50	477.47
498.67	381.51
498.85	425.98
499.03	369.80
499.20	414.27
499.38	379.17
499.56	379.17
499.73	475.13
499.91	442.36
500.08	507.90
500.26	365.12
500.44	461.09
500.61	454.06
500.79	512.58
500.97	456.40
501.14	440.02
501.32	418.96
501.49	456.40
501.67	411.93
501.84	386.19
502.02	362.78
502.20	425.98
502.37	372.15
502.55	414.27
502.72	465.77
502.90	440.02
503.07	397.89
503.25	472.79
503.43	444.70
503.60	437.68
503.78	444.70
503.95	482.15
504.13	388.53
504.30	444.70
504.48	390.87
504.65	367.46
504.83	414.27
505.01	414.27
505.18	463.43
505.36	484.49
505.53	411.93
505.71	388.53
505.88	416.62
506.06	423.64
506.23	386.19
506.41	470.45
506.58	407.25
506.76	437.68
506.93	470.45
507.11	444.70
507.28	425.98
507.46	444.70
507.63	435.34
507.81	351.08
507.98	414.27
508.16	440.02
508.33	400.23
508.50	435.34
508.68	369.80
508.85	418.96
509.03	402.57
509.20	421.30
509.38	423.64
509.55	388.53
509.73	465.77
509.90	447.04
510.08	470.45
510.25	407.25
510.42	440.02
510.60	421.30
510.77	425.98
510.95	463.43
511.12	365.12
511.30	423.64
511.47	442.36
511.64	454.06
511.82	397.89
511.99	470.45
512.17	372.15
512.34	414.27
512.51	407.25
512.69	409.59
512.86	360.44
513.04	376.83
513.21	369.80
513.38	411.93
513.56	390.87
513.73	379.17
513.90	435.34
514.08	360.44
514.25	390.87
514.43	395.55
514.60	388.53
514.77	393.21
514.95	393.21
515.12	360.44
515.29	428.32
515.47	393.21
515.64	402.57
515.81	395.55
515.99	477.47
516.16	346.40
516.33	507.90
516.51	449.38
516.68	451.72
516.85	461.09
517.03	477.47
517.20	463.43
517.37	458.74
517.54	402.57
517.72	416.62
517.89	297.25
518.06	425.98
518.24	468.11
518.41	470.45
518.58	442.36
518.75	418.96
518.93	486.83
519.10	449.38
519.27	372.15
519.45	444.70
519.62	442.36
519.79	458.74
519.96	421.30
520.14	381.51
520.31	503.22
520.48	411.93
520.65	355.76
520.83	388.53
521.00	409.59
521.17	421.30
521.34	493.85
521.52	449.38
521.69	332.36
521.86	425.98
522.03	472.79
522.20	493.85
522.38	372.15
522.55	475.13
522.72	388.53
522.89	468.11
523.07	465.77
523.24	414.27
523.41	454.06
523.58	435.34
523.75	395.55
523.92	379.17
524.10	388.53
524.27	414.27
524.44	409.59
524.61	465.77
524.78	423.64
524.96	402.57
525.13	367.46
525.30	451.72
525.47	440.02
525.64	395.55
525.81	491.51
525.98	369.80
526.16	444.70
526.33	381.51
526.50	369.80
526.67	407.25
526.84	421.30
527.01	383.85
527.18	512.58
527.36	374.49
527.53	376.83
527.70	381.51
527.87	475.13
528.04	449.38
528.21	449.38
528.38	444.70
528.55	414.27
528.72	409.59
528.89	503.22
529.07	435.34
529.24	404.91
529.41	411.93
529.58	330.02
529.75	334.70
529.92	428.32
530.09	395.55
530.26	393.21
530.43	308.95
530.60	444.70
530.77	376.83
530.94	444.70
531.11	414.27
531.28	418.96
531.46	477.47
531.63	322.99
531.80	402.57
531.97	465.77
532.14	379.17
532.31	407.25
532.48	449.38
532.65	442.36
532.82	430.66
532.99	442.36
533.16	358.10
533.33	407.25
533.50	414.27
533.67	397.89
533.84	416.62
534.01	386.19
534.18	447.04
534.35	489.17
534.52	428.32
534.69	447.04
534.86	393.21
535.03	423.64
535.20	454.06
535.37	451.72
535.54	395.55
535.71	369.80
535.88	484.49
536.05	411.93
536.22	442.36
536.38	463.43
536.55	437.68
536.72	456.40
536.89	393.21
537.06	414.27
537.23	425.98
537.40	351.08
537.57	430.66
537.74	486.83
537.91	423.64
538.08	461.09
538.25	496.19
538.42	435.34
538.59	418.96
538.75	383.85
538.92	365.12
539.09	442.36
539.26	472.79
539.43	425.98
539.60	407.25
539.77	383.85
539.94	409.59
540.11	416.62
540.28	407.25
540.44	395.55
540.61	493.85
540.78	404.91
540.95	409.59
541.12	491.51
541.29	379.17
541.46	442.36
541.62	421.30
541.79	461.09
541.96	383.85
542.13	407.25
542.30	386.19
542.47	416.62
542.63	388.53
542.80	433.00
542.97	425.98
543.14	421.30
543.31	418.96
543.48	376.83
543.64	400.23
543.81	433.00
543.98	346.40
544.15	388.53
544.32	465.77
544.48	437.68
544.65	442.36
544.82	451.72
544.99	411.93
545.16	351.08
545.32	416.62
545.49	407.25
545.66	397.89
545.83	376.83
546.00	468.11
546.16	442.36
546.33	435.34
546.50	479.81
546.67	447.04
546.83	449.38
547.00	442.36
547.17	397.89
547.34	421.30
547.50	381.51
547.67	491.51
547.84	367.46
548.00	397.89
548.17	360.44
548.34	463.43
548.51	423.64
548.67	376.83
548.84	470.45
549.01	381.51
549.18	442.36
549.34	351.08
549.51	397.89
549.68	411.93
549.84	411.93
550.01	458.74
550.18	454.06
550.34	507.90
550.51	456.40
550.68	465.77
550.84	381.51
551.01	383.85
551.18	327.68
551.34	407.25
551.51	402.57
551.68	435.34
551.84	451.72
552.01	484.49
552.18	400.23
552.34	411.93
552.51	465.77
552.68	428.32
552.84	449.38
553.01	421.30
553.18	475.13
553.34	400.23
553.51	376.83
553.67	390.87
553.84	458.74
554.01	430.66
554.17	428.32
554.34	430.66
554.51	454.06
554.67	433.00
554.84	390.87
555.00	372.15
555.17	447.04
555.33	451.72
555.50	407.25
555.67	428.32
555.83	330.02
556.00	369.80
556.16	585.13
556.33	477.47
556.50	425.98
556.66	454.06
556.83	393.21
556.99	383.85
557.16	411.93
557.32	456.40
557.49	397.89
557.65	433.00
557.82	372.15
557.98	514.92
558.15	416.62
558.32	374.49
558.48	491.51
558.65	461.09
558.81	430.66
558.98	381.51
559.14	402.57
559.31	407.25
559.47	433.00
559.64	386.19
559.80	355.76
559.97	430.66
560.13	465.77
560.30	456.40
560.46	393.21
560.63	409.59
560.79	409.59
560.96	353.42
561.12	390.87
561.29	479.81
561.45	428.32
561.61	411.93
561.78	503.22
561.94	428.32
562.11	379.17
562.27	341.72
562.44	400.23
562.60	351.08
562.77	414.27
562.93	538.32
563.10	444.70
563.26	414.27
563.42	407.25
563.59	437.68
563.75	528.96
563.92	435.34
564.08	437.68
564.24	386.19
564.41	400.23
564.57	421.30
564.74	383.85
564.90	365.12
565.07	383.85
565.23	449.38
565.39	341.72
565.56	407.25
565.72	404.91
565.88	388.53
566.05	407.25
566.21	397.89
566.38	409.59
566.54	470.45
566.70	395.55
566.87	451.72
567.03	407.25
567.19	440.02
567.36	418.96
567.52	414.27
567.68	418.96
567.85	468.11
568.01	416.62
568.17	402.57
568.34	428.32
568.50	468.11
568.66	451.72
568.83	491.51
568.99	454.06
569.15	440.02
569.32	393.21
569.48	383.85
569.64	421.30
569.81	489.17
569.97	381.51
570.13	414.27
570.30	425.98
570.46	449.38
570.62	411.93
570.78	430.66
570.95	339.38
571.11	472.79
571.27	482.15
571.43	425.98
571.60	367.46
571.76	416.62
571.92	390.87
572.09	428.32
572.25	491.51
572.41	517.26
572.57	454.06
572.74	447.04
572.90	416.62
573.06	325.33
573.22	369.80
573.38	404.91
573.55	479.81
573.71	468.11
573.87	440.02
574.03	409.59
574.20	423.64
574.36	400.23
574.52	454.06
574.68	381.51
574.84	418.96
575.01	433.00
575.17	367.46
575.33	372.15
575.49	465.77
575.65	430.66
575.82	425.98
575.98	414.27
576.14	390.87
576.30	430.66
576.46	395.55
576.62	404.91
576.79	423.64
576.95	479.81
577.11	402.57
577.27	423.64
577.43	521.94
577.59	472.79
577.75	454.06
577.92	423.64
578.08	433.00
578.24	449.38
578.40	430.66
578.56	444.70
578.72	400.23
578.88	409.59
579.04	454.06
579.21	395.55
579.37	435.34
579.53	451.72
579.69	402.57
579.85	388.53
580.01	386.19
580.17	395.55
580.33	369.80
580.49	451.72
580.65	447.04
580.82	435.34
580.98	358.10
581.14	421.30
581.30	447.04
581.46	393.21
581.62	491.51
581.78	475.13
581.94	456.40
582.10	425.98
582.26	433.00
582.42	360.44
582.58	404.91
582.74	414.27
582.90	458.74
583.06	390.87
583.22	397.89
583.38	388.53
583.54	372.15
583.70	496.19
583.86	430.66
584.02	465.77
584.18	496.19
584.34	400.23
584.50	425.98
584.66	447.04
584.82	351.08
584.98	407.25
585.14	395.55
585.30	500.87
585.46	414.27
585.62	465.77
585.78	400.23
585.94	414.27
586.10	430.66
586.26	372.15
586.42	465.77
586.58	465.77
586.74	472.79
586.90	433.00
587.06	486.83
587.22	430.66
587.38	393.21
587.54	381.51
587.70	428.32
587.86	418.96
588.02	402.57
588.18	374.49
588.34	418.96
588.49	367.46
588.65	379.17
588.81	423.64
588.97	407.25
589.13	348.74
589.29	421.30
589.45	451.72
589.61	404.91
589.77	482.15
589.93	379.17
590.08	442.36
590.24	372.15
590.40	491.51
590.56	435.34
590.72	365.12
590.88	383.85
591.04	451.72
591.20	395.55
591.35	390.87
591.51	477.47
591.67	390.87
591.83	390.87
591.99	395.55
592.15	381.51
592.31	381.51
592.46	346.40
592.62	531.30
592.78	414.27
592.94	411.93
593.10	402.57
593.26	355.76
593.41	397.89
593.57	386.19
593.73	428.32
593.89	395.55
594.05	472.79
594.20	425.98
594.36	416.62
594.52	395.55
594.68	383.85
594.84	451.72
594.99	465.77
595.15	393.21
595.31	425.98
595.47	444.70
595.62	367.46
595.78	437.68
595.94	393.21
596.10	461.09
596.25	465.77
596.41	409.59
596.57	362.78
596.73	388.53
596.88	489.17
597.04	393.21
597.20	376.83
597.36	423.64
597.51	383.85
597.67	470.45
597.83	386.19
597.99	433.00
598.14	360.44
598.30	489.17
598.46	409.59
598.61	390.87
598.77	430.66
598.93	367.46
599.09	390.87
599.24	416.62
599.40	465.77
599.56	411.93
599.71	383.85
599.87	374.49
600.03	409.59
600.18	353.42
600.34	428.32
600.50	386.19
600.65	407.25
600.81	444.70
600.97	388.53
601.12	451.72
601.28	486.83
601.44	433.00
601.59	425.98
601.75	435.34
601.91	390.87
602.06	449.38
602.22	503.22
602.37	393.21
602.53	423.64
602.69	362.78
602.84	315.97
603.00	423.64
603.16	383.85
603.31	440.02
603.47	458.74
603.62	388.53
603.78	395.55
603.94	386.19
604.09	423.64
604.25	454.06
604.40	468.11
604.56	468.11
604.71	348.74
604.87	411.93
605.03	463.43
605.18	442.36
605.34	402.57
605.49	414.27
605.65	418.96
605.80	484.49
605.96	388.53
606.12	381.51
606.27	468.11
606.43	444.70
606.58	456.40
606.74	409.59
606.89	388.53
607.05	433.00
607.20	418.96
607.36	421.30
607.51	428.32
607.67	423.64
607.82	411.93
607.98	463.43
608.13	416.62
608.29	395.55
608.44	430.66
608.60	376.83
608.75	433.00
608.91	461.09
609.06	400.23
609.22	376.83
609.37	421.30
609.53	393.21
609.68	425.98
609.84	425.98
609.99	482.15
610.15	465.77
