SpectraSuite Data File
++++++++++++++++++++++++++++++++++++
Date: Fri Oct 25 12:10:09 EDT 2013
User: price-jones
Dark Spectrum Present: No
Reference Spectrum Present: No
Number of Sampled Component Spectra: 1
Spectrometers: USB2+H05261
Integration Time (usec): 100000 (USB2+H05261)
Spectra Averaged: 1 (USB2+H05261)
Boxcar Smoothing: 0 (USB2+H05261)
Correct for Electrical Dark: No (USB2+H05261)
Strobe/Lamp Enabled: No (USB2+H05261)
Correct for Detector Non-linearity: No (USB2+H05261)
Correct for Stray Light: No (USB2+H05261)
Number of Pixels in Processed Spectrum: 2048
>>>>>Begin Processed Spectral Data<<<<<
365.73	337.04
365.92	337.04
366.12	337.04
366.32	215.33
366.52	259.80
366.72	320.65
366.91	182.56
367.11	215.33
367.31	222.35
367.51	194.26
367.70	220.01
367.90	231.71
368.10	222.35
368.30	212.99
368.49	170.86
368.69	315.97
368.89	231.71
369.09	234.05
369.28	227.03
369.48	241.08
369.68	276.18
369.87	264.48
370.07	196.60
370.27	369.80
370.47	245.76
370.66	269.16
370.86	348.74
371.06	418.96
371.25	367.46
371.45	346.40
371.65	304.27
371.84	332.36
372.04	308.95
372.24	374.49
372.44	395.55
372.63	402.57
372.83	416.62
373.03	465.77
373.22	390.87
373.42	404.91
373.62	395.55
373.81	416.62
374.01	479.81
374.21	386.19
374.40	421.30
374.60	339.38
374.79	435.34
374.99	409.59
375.19	388.53
375.38	386.19
375.58	402.57
375.78	449.38
375.97	414.27
376.17	451.72
376.37	430.66
376.56	402.57
376.76	362.78
376.95	393.21
377.15	388.53
377.35	372.15
377.54	423.64
377.74	407.25
377.93	397.89
378.13	369.80
378.33	454.06
378.52	416.62
378.72	468.11
378.91	376.83
379.11	407.25
379.31	423.64
379.50	376.83
379.70	379.17
379.89	449.38
380.09	379.17
380.28	428.32
380.48	440.02
380.68	397.89
380.87	332.36
381.07	433.00
381.26	437.68
381.46	400.23
381.65	423.64
381.85	383.85
382.04	381.51
382.24	409.59
382.43	402.57
382.63	301.93
382.83	442.36
383.02	437.68
383.22	390.87
383.41	442.36
383.61	383.85
383.80	372.15
384.00	334.70
384.19	433.00
384.39	411.93
384.58	395.55
384.78	360.44
384.97	404.91
385.17	325.33
385.36	407.25
385.56	346.40
385.75	374.49
385.95	388.53
386.14	402.57
386.34	344.06
386.53	341.72
386.72	376.83
386.92	433.00
387.11	376.83
387.31	486.83
387.50	423.64
387.70	428.32
387.89	381.51
388.09	360.44
388.28	374.49
388.48	372.15
388.67	330.02
388.86	447.04
389.06	358.10
389.25	346.40
389.45	397.89
389.64	386.19
389.84	362.78
390.03	433.00
390.22	383.85
390.42	386.19
390.61	383.85
390.81	367.46
391.00	390.87
391.19	397.89
391.39	404.91
391.58	404.91
391.78	318.31
391.97	449.38
392.16	341.72
392.36	472.79
392.55	440.02
392.75	437.68
392.94	409.59
393.13	402.57
393.33	402.57
393.52	372.15
393.71	418.96
393.91	428.32
394.10	376.83
394.29	351.08
394.49	379.17
394.68	365.12
394.88	425.98
395.07	409.59
395.26	337.04
395.46	348.74
395.65	447.04
395.84	383.85
396.04	423.64
396.23	477.47
396.42	360.44
396.62	454.06
396.81	411.93
397.00	379.17
397.19	491.51
397.39	376.83
397.58	402.57
397.77	407.25
397.97	491.51
398.16	365.12
398.35	444.70
398.55	348.74
398.74	409.59
398.93	414.27
399.12	383.85
399.32	374.49
399.51	400.23
399.70	416.62
399.90	409.59
400.09	376.83
400.28	402.57
400.47	465.77
400.67	397.89
400.86	440.02
401.05	402.57
401.24	376.83
401.44	465.77
401.63	402.57
401.82	456.40
402.01	358.10
402.21	411.93
402.40	367.46
402.59	402.57
402.78	369.80
402.97	367.46
403.17	411.93
403.36	395.55
403.55	390.87
403.74	369.80
403.93	379.17
404.13	416.62
404.32	414.27
404.51	442.36
404.70	421.30
404.89	318.31
405.09	435.34
405.28	458.74
405.47	395.55
405.66	386.19
405.85	416.62
406.05	386.19
406.24	381.51
406.43	411.93
406.62	414.27
406.81	421.30
407.00	421.30
407.20	479.81
407.39	388.53
407.58	428.32
407.77	433.00
407.96	437.68
408.15	425.98
408.34	449.38
408.54	440.02
408.73	388.53
408.92	407.25
409.11	337.04
409.30	428.32
409.49	383.85
409.68	381.51
409.87	372.15
410.07	411.93
410.26	461.09
410.45	341.72
410.64	383.85
410.83	458.74
411.02	381.51
411.21	376.83
411.40	367.46
411.59	374.49
411.78	257.46
411.98	332.36
412.17	407.25
412.36	444.70
412.55	435.34
412.74	435.34
412.93	416.62
413.12	411.93
413.31	414.27
413.50	465.77
413.69	414.27
413.88	381.51
414.07	322.99
414.26	449.38
414.45	332.36
414.64	400.23
414.83	465.77
415.02	390.87
415.22	454.06
415.41	409.59
415.60	330.02
415.79	395.55
415.98	451.72
416.17	332.36
416.36	393.21
416.55	402.57
416.74	463.43
416.93	472.79
417.12	411.93
417.31	348.74
417.50	440.02
417.69	388.53
417.88	372.15
418.07	404.91
418.26	376.83
418.45	465.77
418.64	454.06
418.83	416.62
419.02	376.83
419.21	393.21
419.39	395.55
419.58	334.70
419.77	395.55
419.96	381.51
420.15	400.23
420.34	386.19
420.53	402.57
420.72	386.19
420.91	421.30
421.10	395.55
421.29	365.12
421.48	376.83
421.67	407.25
421.86	351.08
422.05	360.44
422.24	404.91
422.43	411.93
422.61	451.72
422.80	327.68
422.99	362.78
423.18	383.85
423.37	379.17
423.56	337.04
423.75	400.23
423.94	393.21
424.13	407.25
424.32	369.80
424.50	407.25
424.69	409.59
424.88	402.57
425.07	383.85
425.26	451.72
425.45	376.83
425.64	393.21
425.83	404.91
426.01	428.32
426.20	449.38
426.39	374.49
426.58	479.81
426.77	440.02
426.96	393.21
427.15	472.79
427.33	402.57
427.52	390.87
427.71	425.98
427.90	430.66
428.09	437.68
428.28	428.32
428.46	437.68
428.65	404.91
428.84	395.55
429.03	458.74
429.22	388.53
429.40	355.76
429.59	374.49
429.78	386.19
429.97	449.38
430.16	468.11
430.34	407.25
430.53	418.96
430.72	351.08
430.91	444.70
431.10	435.34
431.28	393.21
431.47	400.23
431.66	416.62
431.85	416.62
432.03	395.55
432.22	440.02
432.41	430.66
432.60	444.70
432.79	451.72
432.97	447.04
433.16	393.21
433.35	409.59
433.54	451.72
433.72	407.25
433.91	425.98
434.10	449.38
434.28	404.91
434.47	409.59
434.66	409.59
434.85	397.89
435.03	416.62
435.22	486.83
435.41	411.93
435.59	447.04
435.78	390.87
435.97	320.65
436.16	388.53
436.34	397.89
436.53	374.49
436.72	461.09
436.90	374.49
437.09	414.27
437.28	421.30
437.46	463.43
437.65	409.59
437.84	400.23
438.02	358.10
438.21	440.02
438.40	402.57
438.58	411.93
438.77	411.93
438.96	344.06
439.14	414.27
439.33	435.34
439.52	395.55
439.70	440.02
439.89	397.89
440.08	355.76
440.26	393.21
440.45	322.99
440.63	388.53
440.82	404.91
441.01	414.27
441.19	418.96
441.38	449.38
441.57	376.83
441.75	374.49
441.94	416.62
442.12	493.85
442.31	381.51
442.50	367.46
442.68	416.62
442.87	369.80
443.05	376.83
443.24	355.76
443.43	393.21
443.61	433.00
443.80	339.38
443.98	482.15
444.17	409.59
444.35	470.45
444.54	433.00
444.73	440.02
444.91	379.17
445.10	386.19
445.28	304.27
445.47	407.25
445.65	386.19
445.84	341.72
446.02	456.40
446.21	397.89
446.39	355.76
446.58	411.93
446.77	381.51
446.95	400.23
447.14	393.21
447.32	503.22
447.51	372.15
447.69	362.78
447.88	425.98
448.06	456.40
448.25	409.59
448.43	416.62
448.62	355.76
448.80	430.66
448.99	425.98
449.17	397.89
449.36	355.76
449.54	409.59
449.73	346.40
449.91	416.62
450.10	369.80
450.28	444.70
450.46	437.68
450.65	404.91
450.83	374.49
451.02	383.85
451.20	433.00
451.39	397.89
451.57	414.27
451.76	395.55
451.94	393.21
452.13	486.83
452.31	437.68
452.49	390.87
452.68	416.62
452.86	372.15
453.05	444.70
453.23	418.96
453.42	437.68
453.60	369.80
453.78	423.64
453.97	367.46
454.15	433.00
454.34	376.83
454.52	369.80
454.70	454.06
454.89	428.32
455.07	418.96
455.26	416.62
455.44	500.87
455.62	418.96
455.81	425.98
455.99	435.34
456.17	475.13
456.36	423.64
456.54	383.85
456.73	400.23
456.91	386.19
457.09	414.27
457.28	407.25
457.46	383.85
457.64	374.49
457.83	395.55
458.01	423.64
458.19	386.19
458.38	407.25
458.56	418.96
458.74	344.06
458.93	407.25
459.11	428.32
459.29	458.74
459.48	482.15
459.66	418.96
459.84	411.93
460.03	507.90
460.21	397.89
460.39	395.55
460.57	393.21
460.76	344.06
460.94	367.46
461.12	463.43
461.31	423.64
461.49	449.38
461.67	421.30
461.85	414.27
462.04	376.83
462.22	791.10
462.40	379.17
462.59	433.00
462.77	386.19
462.95	440.02
463.13	435.34
463.32	435.34
463.50	444.70
463.68	351.08
463.86	407.25
464.05	369.80
464.23	505.56
464.41	461.09
464.59	414.27
464.78	423.64
464.96	390.87
465.14	400.23
465.32	346.40
465.50	346.40
465.69	435.34
465.87	444.70
466.05	362.78
466.23	407.25
466.41	400.23
466.60	482.15
466.78	475.13
466.96	416.62
467.14	458.74
467.32	414.27
467.51	428.32
467.69	416.62
467.87	416.62
468.05	416.62
468.23	386.19
468.41	428.32
468.60	433.00
468.78	456.40
468.96	418.96
469.14	435.34
469.32	416.62
469.50	358.10
469.69	411.93
469.87	395.55
470.05	421.30
470.23	514.92
470.41	346.40
470.59	440.02
470.77	355.76
470.95	376.83
471.14	425.98
471.32	351.08
471.50	440.02
471.68	386.19
471.86	409.59
472.04	365.12
472.22	437.68
472.40	447.04
472.58	423.64
472.77	435.34
472.95	386.19
473.13	442.36
473.31	423.64
473.49	418.96
473.67	425.98
473.85	482.15
474.03	411.93
474.21	358.10
474.39	407.25
474.57	451.72
474.75	430.66
474.93	400.23
475.12	395.55
475.30	440.02
475.48	397.89
475.66	414.27
475.84	400.23
476.02	435.34
476.20	458.74
476.38	442.36
476.56	484.49
476.74	414.27
476.92	372.15
477.10	447.04
477.28	437.68
477.46	468.11
477.64	425.98
477.82	444.70
478.00	444.70
478.18	360.44
478.36	388.53
478.54	367.46
478.72	351.08
478.90	423.64
479.08	433.00
479.26	404.91
479.44	386.19
479.62	339.38
479.80	411.93
479.98	334.70
480.16	414.27
480.34	407.25
480.52	374.49
480.70	458.74
480.88	440.02
481.06	390.87
481.24	484.49
481.41	489.17
481.59	414.27
481.77	458.74
481.95	409.59
482.13	397.89
482.31	379.17
482.49	404.91
482.67	433.00
482.85	379.17
483.03	472.79
483.21	491.51
483.39	454.06
483.57	390.87
483.74	491.51
483.92	458.74
484.10	425.98
484.28	418.96
484.46	402.57
484.64	430.66
484.82	433.00
485.00	449.38
485.18	437.68
485.35	414.27
485.53	400.23
485.71	449.38
485.89	369.80
486.07	402.57
486.25	514.92
486.43	442.36
486.61	479.81
486.78	395.55
486.96	388.53
487.14	402.57
487.32	393.21
487.50	477.47
487.68	418.96
487.85	367.46
488.03	456.40
488.21	411.93
488.39	416.62
488.57	407.25
488.75	386.19
488.92	442.36
489.10	388.53
489.28	416.62
489.46	386.19
489.64	418.96
489.81	400.23
489.99	414.27
490.17	337.04
490.35	456.40
490.53	454.06
490.70	372.15
490.88	346.40
491.06	454.06
491.24	425.98
491.41	351.08
491.59	402.57
491.77	411.93
491.95	416.62
492.13	393.21
492.30	411.93
492.48	421.30
492.66	320.65
492.84	414.27
493.01	477.47
493.19	411.93
493.37	379.17
493.54	365.12
493.72	404.91
493.90	355.76
494.08	411.93
494.25	388.53
494.43	428.32
494.61	315.97
494.79	388.53
494.96	416.62
495.14	433.00
495.32	400.23
495.49	428.32
495.67	433.00
495.85	404.91
496.02	400.23
496.20	433.00
496.38	362.78
496.55	402.57
496.73	461.09
496.91	416.62
497.09	458.74
497.26	402.57
497.44	390.87
497.62	430.66
497.79	400.23
497.97	463.43
498.14	400.23
498.32	379.17
498.50	386.19
498.67	449.38
498.85	430.66
499.03	409.59
499.20	430.66
499.38	463.43
499.56	409.59
499.73	369.80
499.91	421.30
500.08	440.02
500.26	407.25
500.44	386.19
500.61	388.53
500.79	482.15
500.97	400.23
501.14	383.85
501.32	409.59
501.49	437.68
501.67	433.00
501.84	428.32
502.02	433.00
502.20	475.13
502.37	414.27
502.55	386.19
502.72	440.02
502.90	437.68
503.07	430.66
503.25	411.93
503.43	463.43
503.60	428.32
503.78	404.91
503.95	407.25
504.13	423.64
504.30	458.74
504.48	404.91
504.65	390.87
504.83	381.51
505.01	423.64
505.18	433.00
505.36	320.65
505.53	442.36
505.71	383.85
505.88	428.32
506.06	390.87
506.23	416.62
506.41	372.15
506.58	358.10
506.76	416.62
506.93	395.55
507.11	393.21
507.28	339.38
507.46	404.91
507.63	428.32
507.81	376.83
507.98	463.43
508.16	344.06
508.33	402.57
508.50	402.57
508.68	477.47
508.85	454.06
509.03	362.78
509.20	383.85
509.38	372.15
509.55	386.19
509.73	444.70
509.90	489.17
510.08	449.38
510.25	493.85
510.42	348.74
510.60	395.55
510.77	407.25
510.95	482.15
511.12	332.36
511.30	379.17
511.47	416.62
511.64	374.49
511.82	435.34
511.99	433.00
512.17	442.36
512.34	404.91
512.51	442.36
512.69	395.55
512.86	437.68
513.04	397.89
513.21	379.17
513.38	395.55
513.56	465.77
513.73	411.93
513.90	400.23
514.08	365.12
514.25	379.17
514.43	449.38
514.60	402.57
514.77	386.19
514.95	440.02
515.12	390.87
515.29	386.19
515.47	390.87
515.64	337.04
515.81	367.46
515.99	411.93
516.16	416.62
516.33	411.93
516.51	386.19
516.68	379.17
516.85	489.17
517.03	461.09
517.20	428.32
517.37	449.38
517.54	463.43
517.72	390.87
517.89	407.25
518.06	367.46
518.24	519.60
518.41	491.51
518.58	463.43
518.75	393.21
518.93	423.64
519.10	365.12
519.27	390.87
519.45	404.91
519.62	418.96
519.79	362.78
519.96	397.89
520.14	451.72
520.31	421.30
520.48	468.11
520.65	470.45
520.83	435.34
521.00	369.80
521.17	402.57
521.34	383.85
521.52	390.87
521.69	400.23
521.86	421.30
522.03	489.17
522.20	531.30
522.38	425.98
522.55	414.27
522.72	348.74
522.89	351.08
523.07	486.83
523.24	435.34
523.41	411.93
523.58	414.27
523.75	332.36
523.92	421.30
524.10	451.72
524.27	411.93
524.44	433.00
524.61	374.49
524.78	376.83
524.96	409.59
525.13	346.40
525.30	456.40
525.47	425.98
525.64	390.87
525.81	379.17
525.98	383.85
526.16	397.89
526.33	433.00
526.50	367.46
526.67	353.42
526.84	411.93
527.01	374.49
527.18	437.68
527.36	449.38
527.53	360.44
527.70	418.96
527.87	386.19
528.04	447.04
528.21	470.45
528.38	411.93
528.55	414.27
528.72	493.85
528.89	388.53
529.07	493.85
529.24	418.96
529.41	477.47
529.58	505.56
529.75	360.44
529.92	411.93
530.09	395.55
530.26	416.62
530.43	414.27
530.60	454.06
530.77	470.45
530.94	421.30
531.11	442.36
531.28	311.29
531.46	440.02
531.63	395.55
531.80	386.19
531.97	339.38
532.14	437.68
532.31	395.55
532.48	407.25
532.65	479.81
532.82	381.51
532.99	365.12
533.16	374.49
533.33	397.89
533.50	444.70
533.67	395.55
533.84	428.32
534.01	475.13
534.18	404.91
534.35	440.02
534.52	442.36
534.69	456.40
534.86	393.21
535.03	402.57
535.20	456.40
535.37	369.80
535.54	435.34
535.71	493.85
535.88	498.53
536.05	421.30
536.22	430.66
536.38	407.25
536.55	358.10
536.72	521.94
536.89	395.55
537.06	423.64
537.23	423.64
537.40	409.59
537.57	447.04
537.74	381.51
537.91	411.93
538.08	482.15
538.25	404.91
538.42	353.42
538.59	351.08
538.75	344.06
538.92	414.27
539.09	449.38
539.26	386.19
539.43	463.43
539.60	458.74
539.77	407.25
539.94	327.68
540.11	437.68
540.28	442.36
540.44	425.98
540.61	414.27
540.78	433.00
540.95	409.59
541.12	430.66
541.29	435.34
541.46	458.74
541.62	390.87
541.79	475.13
541.96	369.80
542.13	383.85
542.30	358.10
542.47	440.02
542.63	425.98
542.80	425.98
542.97	393.21
543.14	435.34
543.31	421.30
543.48	369.80
543.64	444.70
543.81	397.89
543.98	388.53
544.15	379.17
544.32	337.04
544.48	416.62
544.65	421.30
544.82	423.64
544.99	390.87
545.16	360.44
545.32	451.72
545.49	423.64
545.66	435.34
545.83	386.19
546.00	444.70
546.16	395.55
546.33	311.29
546.50	386.19
546.67	418.96
546.83	437.68
547.00	433.00
547.17	397.89
547.34	425.98
547.50	447.04
547.67	484.49
547.84	440.02
548.00	414.27
548.17	472.79
548.34	433.00
548.51	425.98
548.67	456.40
548.84	423.64
549.01	395.55
549.18	404.91
549.34	393.21
549.51	416.62
549.68	482.15
549.84	437.68
550.01	430.66
550.18	468.11
550.34	475.13
550.51	430.66
550.68	440.02
550.84	423.64
551.01	440.02
551.18	470.45
551.34	444.70
551.51	458.74
551.68	444.70
551.84	425.98
552.01	397.89
552.18	365.12
552.34	477.47
552.51	416.62
552.68	437.68
552.84	383.85
553.01	430.66
553.18	390.87
553.34	437.68
553.51	440.02
553.67	411.93
553.84	463.43
554.01	465.77
554.17	449.38
554.34	381.51
554.51	479.81
554.67	421.30
554.84	435.34
555.00	451.72
555.17	430.66
555.33	477.47
555.50	386.19
555.67	442.36
555.83	351.08
556.00	379.17
556.16	559.39
556.33	472.79
556.50	383.85
556.66	393.21
556.83	484.49
556.99	440.02
557.16	468.11
557.32	369.80
557.49	372.15
557.65	428.32
557.82	369.80
557.98	456.40
558.15	404.91
558.32	402.57
558.48	393.21
558.65	440.02
558.81	449.38
558.98	353.42
559.14	465.77
559.31	411.93
559.47	414.27
559.64	421.30
559.80	456.40
559.97	444.70
560.13	414.27
560.30	358.10
560.46	362.78
560.63	433.00
560.79	416.62
560.96	404.91
561.12	390.87
561.29	395.55
561.45	327.68
561.61	435.34
561.78	461.09
561.94	477.47
562.11	449.38
562.27	383.85
562.44	440.02
562.60	379.17
562.77	416.62
562.93	433.00
563.10	423.64
563.26	400.23
563.42	395.55
563.59	390.87
563.75	395.55
563.92	491.51
564.08	465.77
564.24	379.17
564.41	418.96
564.57	397.89
564.74	430.66
564.90	390.87
565.07	449.38
565.23	376.83
565.39	414.27
565.56	362.78
565.72	449.38
565.88	411.93
566.05	423.64
566.21	402.57
566.38	411.93
566.54	393.21
566.70	404.91
566.87	381.51
567.03	332.36
567.19	435.34
567.36	341.72
567.52	477.47
567.68	372.15
567.85	430.66
568.01	407.25
568.17	383.85
568.34	425.98
568.50	395.55
568.66	337.04
568.83	477.47
568.99	409.59
569.15	411.93
569.32	416.62
569.48	430.66
569.64	428.32
569.81	376.83
569.97	463.43
570.13	470.45
570.30	425.98
570.46	341.72
570.62	404.91
570.78	409.59
570.95	407.25
571.11	435.34
571.27	486.83
571.43	465.77
571.60	428.32
571.76	411.93
571.92	388.53
572.09	433.00
572.25	409.59
572.41	388.53
572.57	397.89
572.74	451.72
572.90	381.51
573.06	421.30
573.22	444.70
573.38	409.59
573.55	425.98
573.71	416.62
573.87	423.64
574.03	449.38
574.20	376.83
574.36	430.66
574.52	358.10
574.68	379.17
574.84	418.96
575.01	440.02
575.17	418.96
575.33	418.96
575.49	447.04
575.65	454.06
575.82	416.62
575.98	425.98
576.14	470.45
576.30	444.70
576.46	463.43
576.62	449.38
576.79	437.68
576.95	444.70
577.11	444.70
577.27	407.25
577.43	372.15
577.59	521.94
577.75	437.68
577.92	444.70
578.08	437.68
578.24	428.32
578.40	402.57
578.56	442.36
578.72	458.74
578.88	397.89
579.04	444.70
579.21	465.77
579.37	423.64
579.53	482.15
579.69	393.21
579.85	365.12
580.01	449.38
580.17	425.98
580.33	351.08
580.49	369.80
580.65	442.36
580.82	414.27
580.98	402.57
581.14	351.08
581.30	360.44
581.46	383.85
581.62	475.13
581.78	393.21
581.94	451.72
582.10	416.62
582.26	449.38
582.42	381.51
582.58	374.49
582.74	386.19
582.90	374.49
583.06	470.45
583.22	418.96
583.38	409.59
583.54	440.02
583.70	407.25
583.86	339.38
584.02	454.06
584.18	444.70
584.34	393.21
584.50	463.43
584.66	369.80
584.82	386.19
584.98	505.56
585.14	327.68
585.30	404.91
585.46	404.91
585.62	437.68
585.78	437.68
585.94	458.74
586.10	388.53
586.26	461.09
586.42	367.46
586.58	472.79
586.74	395.55
586.90	344.06
587.06	430.66
587.22	447.04
587.38	411.93
587.54	409.59
587.70	402.57
587.86	465.77
588.02	407.25
588.18	486.83
588.34	461.09
588.49	379.17
588.65	437.68
588.81	360.44
588.97	383.85
589.13	437.68
589.29	423.64
589.45	428.32
589.61	409.59
589.77	477.47
589.93	393.21
590.08	454.06
590.24	535.98
590.40	372.15
590.56	372.15
590.72	325.33
590.88	461.09
591.04	451.72
591.20	475.13
591.35	472.79
591.51	447.04
591.67	409.59
591.83	395.55
591.99	411.93
592.15	461.09
592.31	383.85
592.46	395.55
592.62	454.06
592.78	425.98
592.94	402.57
593.10	430.66
593.26	433.00
593.41	444.70
593.57	418.96
593.73	423.64
593.89	433.00
594.05	379.17
594.20	393.21
594.36	454.06
594.52	482.15
594.68	325.33
594.84	365.12
594.99	463.43
595.15	381.51
595.31	425.98
595.47	465.77
595.62	463.43
595.78	435.34
595.94	442.36
596.10	397.89
596.25	458.74
596.41	418.96
596.57	454.06
596.73	355.76
596.88	365.12
597.04	397.89
597.20	353.42
597.36	433.00
597.51	418.96
597.67	348.74
597.83	397.89
597.99	435.34
598.14	313.63
598.30	425.98
598.46	472.79
598.61	489.17
598.77	395.55
598.93	442.36
599.09	383.85
599.24	447.04
599.40	341.72
599.56	447.04
599.71	414.27
599.87	369.80
600.03	383.85
600.18	402.57
600.34	360.44
600.50	404.91
600.65	402.57
600.81	449.38
600.97	400.23
601.12	425.98
601.28	454.06
601.44	404.91
601.59	376.83
601.75	430.66
601.91	397.89
602.06	397.89
602.22	470.45
602.37	458.74
602.53	416.62
602.69	442.36
602.84	409.59
603.00	444.70
603.16	447.04
603.31	430.66
603.47	381.51
603.62	416.62
603.78	454.06
603.94	351.08
604.09	390.87
604.25	416.62
604.40	390.87
604.56	449.38
604.71	461.09
604.87	435.34
605.03	496.19
605.18	425.98
605.34	428.32
605.49	437.68
605.65	437.68
605.80	400.23
605.96	435.34
606.12	458.74
606.27	451.72
606.43	381.51
606.58	414.27
606.74	367.46
606.89	461.09
607.05	493.85
607.20	381.51
607.36	409.59
607.51	390.87
607.67	421.30
607.82	404.91
607.98	479.81
608.13	437.68
608.29	482.15
608.44	409.59
608.60	435.34
608.75	374.49
608.91	430.66
609.06	430.66
609.22	491.51
609.37	386.19
609.53	477.47
609.68	463.43
609.84	339.38
609.99	416.62
610.15	463.43
