SpectraSuite Data File
++++++++++++++++++++++++++++++++++++
Date: Fri Oct 25 12:11:38 EDT 2013
User: price-jones
Dark Spectrum Present: No
Reference Spectrum Present: No
Number of Sampled Component Spectra: 1
Spectrometers: USB2+H05261
Integration Time (usec): 100000 (USB2+H05261)
Spectra Averaged: 1 (USB2+H05261)
Boxcar Smoothing: 0 (USB2+H05261)
Correct for Electrical Dark: No (USB2+H05261)
Strobe/Lamp Enabled: No (USB2+H05261)
Correct for Detector Non-linearity: No (USB2+H05261)
Correct for Stray Light: No (USB2+H05261)
Number of Pixels in Processed Spectrum: 2048
>>>>>Begin Processed Spectral Data<<<<<
365.73	388.53
365.92	388.53
366.12	388.53
366.32	215.33
366.52	215.33
366.72	304.27
366.91	205.97
367.11	299.59
367.31	196.60
367.51	248.10
367.70	241.08
367.90	159.16
368.10	236.39
368.30	217.67
368.49	241.08
368.69	322.99
368.89	259.80
369.09	147.45
369.28	262.14
369.48	311.29
369.68	236.39
369.87	255.12
370.07	297.25
370.27	313.63
370.47	355.76
370.66	334.70
370.86	348.74
371.06	332.36
371.25	372.15
371.45	383.85
371.65	379.17
371.84	337.04
372.04	428.32
372.24	414.27
372.44	416.62
372.63	404.91
372.83	416.62
373.03	442.36
373.22	428.32
373.42	423.64
373.62	444.70
373.81	449.38
374.01	482.15
374.21	395.55
374.40	416.62
374.60	433.00
374.79	393.21
374.99	425.98
375.19	454.06
375.38	458.74
375.58	383.85
375.78	407.25
375.97	423.64
376.17	477.47
376.37	414.27
376.56	411.93
376.76	416.62
376.95	402.57
377.15	411.93
377.35	397.89
377.54	379.17
377.74	423.64
377.93	344.06
378.13	411.93
378.33	449.38
378.52	442.36
378.72	416.62
378.91	409.59
379.11	461.09
379.31	442.36
379.50	407.25
379.70	440.02
379.89	374.49
380.09	381.51
380.28	367.46
380.48	358.10
380.68	362.78
380.87	322.99
381.07	388.53
381.26	390.87
381.46	430.66
381.65	449.38
381.85	400.23
382.04	414.27
382.24	418.96
382.43	428.32
382.63	379.17
382.83	409.59
383.02	402.57
383.22	376.83
383.41	346.40
383.61	404.91
383.80	428.32
384.00	414.27
384.19	444.70
384.39	395.55
384.58	451.72
384.78	411.93
384.97	362.78
385.17	381.51
385.36	400.23
385.56	393.21
385.75	411.93
385.95	428.32
386.14	395.55
386.34	428.32
386.53	428.32
386.72	423.64
386.92	416.62
387.11	402.57
387.31	451.72
387.50	486.83
387.70	479.81
387.89	472.79
388.09	376.83
388.28	435.34
388.48	367.46
388.67	393.21
388.86	421.30
389.06	437.68
389.25	411.93
389.45	461.09
389.64	421.30
389.84	472.79
390.03	409.59
390.22	416.62
390.42	414.27
390.61	444.70
390.81	404.91
391.00	365.12
391.19	433.00
391.39	376.83
391.58	472.79
391.78	393.21
391.97	313.63
392.16	428.32
392.36	430.66
392.55	477.47
392.75	383.85
392.94	393.21
393.13	428.32
393.33	404.91
393.52	402.57
393.71	381.51
393.91	451.72
394.10	468.11
394.29	461.09
394.49	416.62
394.68	482.15
394.88	423.64
395.07	404.91
395.26	379.17
395.46	400.23
395.65	421.30
395.84	358.10
396.04	479.81
396.23	383.85
396.42	372.15
396.62	397.89
396.81	433.00
397.00	430.66
397.19	404.91
397.39	332.36
397.58	411.93
397.77	411.93
397.97	337.04
398.16	451.72
398.35	484.49
398.55	362.78
398.74	325.33
398.93	433.00
399.12	355.76
399.32	390.87
399.51	381.51
399.70	465.77
399.90	395.55
400.09	465.77
400.28	397.89
400.47	337.04
400.67	334.70
400.86	451.72
401.05	423.64
401.24	423.64
401.44	421.30
401.63	376.83
401.82	360.44
402.01	433.00
402.21	397.89
402.40	418.96
402.59	416.62
402.78	372.15
402.97	390.87
403.17	390.87
403.36	512.58
403.55	404.91
403.74	414.27
403.93	407.25
404.13	358.10
404.32	414.27
404.51	346.40
404.70	440.02
404.89	374.49
405.09	416.62
405.28	386.19
405.47	400.23
405.66	390.87
405.85	411.93
406.05	397.89
406.24	362.78
406.43	376.83
406.62	423.64
406.81	500.87
407.00	458.74
407.20	425.98
407.39	472.79
407.58	440.02
407.77	430.66
407.96	425.98
408.15	416.62
408.34	379.17
408.54	365.12
408.73	376.83
408.92	360.44
409.11	472.79
409.30	433.00
409.49	435.34
409.68	407.25
409.87	442.36
410.07	409.59
410.26	449.38
410.45	456.40
410.64	376.83
410.83	435.34
411.02	409.59
411.21	428.32
411.40	425.98
411.59	425.98
411.78	435.34
411.98	418.96
412.17	414.27
412.36	397.89
412.55	425.98
412.74	409.59
412.93	444.70
413.12	348.74
413.31	407.25
413.50	388.53
413.69	433.00
413.88	475.13
414.07	376.83
414.26	428.32
414.45	372.15
414.64	425.98
414.83	421.30
415.02	369.80
415.22	421.30
415.41	383.85
415.60	353.42
415.79	355.76
415.98	465.77
416.17	437.68
416.36	367.46
416.55	442.36
416.74	447.04
416.93	407.25
417.12	468.11
417.31	428.32
417.50	404.91
417.69	418.96
417.88	440.02
418.07	458.74
418.26	388.53
418.45	374.49
418.64	472.79
418.83	393.21
419.02	496.19
419.21	416.62
419.39	517.26
419.58	362.78
419.77	425.98
419.96	411.93
420.15	475.13
420.34	468.11
420.53	456.40
420.72	383.85
420.91	365.12
421.10	388.53
421.29	358.10
421.48	428.32
421.67	470.45
421.86	393.21
422.05	369.80
422.24	411.93
422.43	451.72
422.61	402.57
422.80	430.66
422.99	430.66
423.18	355.76
423.37	428.32
423.56	423.64
423.75	400.23
423.94	395.55
424.13	351.08
424.32	433.00
424.50	477.47
424.69	358.10
424.88	404.91
425.07	416.62
425.26	437.68
425.45	437.68
425.64	404.91
425.83	416.62
426.01	416.62
426.20	334.70
426.39	463.43
426.58	421.30
426.77	353.42
426.96	416.62
427.15	374.49
427.33	409.59
427.52	435.34
427.71	435.34
427.90	383.85
428.09	425.98
428.28	409.59
428.46	393.21
428.65	411.93
428.84	402.57
429.03	430.66
429.22	524.28
429.40	409.59
429.59	475.13
429.78	458.74
429.97	430.66
430.16	444.70
430.34	428.32
430.53	421.30
430.72	449.38
430.91	374.49
431.10	433.00
431.28	395.55
431.47	393.21
431.66	381.51
431.85	325.33
432.03	388.53
432.22	451.72
432.41	360.44
432.60	428.32
432.79	395.55
432.97	395.55
433.16	414.27
433.35	365.12
433.54	465.77
433.72	418.96
433.91	435.34
434.10	451.72
434.28	428.32
434.47	428.32
434.66	451.72
434.85	397.89
435.03	411.93
435.22	493.85
435.41	430.66
435.59	451.72
435.78	367.46
435.97	390.87
436.16	454.06
436.34	451.72
436.53	381.51
436.72	468.11
436.90	477.47
437.09	367.46
437.28	353.42
437.46	421.30
437.65	388.53
437.84	390.87
438.02	386.19
438.21	421.30
438.40	447.04
438.58	397.89
438.77	444.70
438.96	418.96
439.14	428.32
439.33	404.91
439.52	418.96
439.70	435.34
439.89	400.23
440.08	362.78
440.26	402.57
440.45	386.19
440.63	393.21
440.82	433.00
441.01	414.27
441.19	507.90
441.38	402.57
441.57	451.72
441.75	428.32
441.94	442.36
442.12	402.57
442.31	454.06
442.50	447.04
442.68	479.81
442.87	376.83
443.05	409.59
443.24	383.85
443.43	395.55
443.61	442.36
443.80	395.55
443.98	433.00
444.17	521.94
444.35	470.45
444.54	444.70
444.73	414.27
444.91	461.09
445.10	355.76
445.28	468.11
445.47	489.17
445.65	491.51
445.84	437.68
446.02	397.89
446.21	358.10
446.39	423.64
446.58	416.62
446.77	433.00
446.95	451.72
447.14	409.59
447.32	425.98
447.51	423.64
447.69	451.72
447.88	397.89
448.06	435.34
448.25	386.19
448.43	395.55
448.62	447.04
448.80	423.64
448.99	388.53
449.17	444.70
449.36	388.53
449.54	444.70
449.73	369.80
449.91	461.09
450.10	463.43
450.28	482.15
450.46	482.15
450.65	461.09
450.83	390.87
451.02	449.38
451.20	407.25
451.39	428.32
451.57	442.36
451.76	421.30
451.94	493.85
452.13	425.98
452.31	475.13
452.49	379.17
452.68	402.57
452.86	416.62
453.05	458.74
453.23	416.62
453.42	386.19
453.60	456.40
453.78	430.66
453.97	397.89
454.15	409.59
454.34	402.57
454.52	348.74
454.70	440.02
454.89	444.70
455.07	442.36
455.26	395.55
455.44	482.15
455.62	411.93
455.81	404.91
455.99	475.13
456.17	505.56
456.36	468.11
456.54	451.72
456.73	386.19
456.91	425.98
457.09	451.72
457.28	388.53
457.46	388.53
457.64	477.47
457.83	376.83
458.01	416.62
458.19	435.34
458.38	369.80
458.56	376.83
458.74	402.57
458.93	414.27
459.11	442.36
459.29	465.77
459.48	374.49
459.66	463.43
459.84	395.55
460.03	482.15
460.21	402.57
460.39	428.32
460.57	477.47
460.76	372.15
460.94	407.25
461.12	395.55
461.31	503.22
461.49	433.00
461.67	327.68
461.85	402.57
462.04	433.00
462.22	791.10
462.40	449.38
462.59	355.76
462.77	346.40
462.95	411.93
463.13	409.59
463.32	479.81
463.50	430.66
463.68	493.85
463.86	489.17
464.05	390.87
464.23	411.93
464.41	479.81
464.59	423.64
464.78	414.27
464.96	388.53
465.14	447.04
465.32	379.17
465.50	461.09
465.69	428.32
465.87	390.87
466.05	421.30
466.23	456.40
466.41	397.89
466.60	404.91
466.78	397.89
466.96	397.89
467.14	440.02
467.32	393.21
467.51	430.66
467.69	376.83
467.87	414.27
468.05	379.17
468.23	440.02
468.41	411.93
468.60	503.22
468.78	454.06
468.96	416.62
469.14	433.00
469.32	351.08
469.50	475.13
469.69	444.70
469.87	393.21
470.05	400.23
470.23	390.87
470.41	433.00
470.59	374.49
470.77	386.19
470.95	449.38
471.14	428.32
471.32	425.98
471.50	519.60
471.68	451.72
471.86	468.11
472.04	428.32
472.22	404.91
472.40	491.51
472.58	372.15
472.77	355.76
472.95	440.02
473.13	479.81
473.31	472.79
473.49	390.87
473.67	435.34
473.85	414.27
474.03	418.96
474.21	360.44
474.39	379.17
474.57	437.68
474.75	414.27
474.93	402.57
475.12	433.00
475.30	376.83
475.48	393.21
475.66	428.32
475.84	358.10
476.02	409.59
476.20	409.59
476.38	447.04
476.56	449.38
476.74	430.66
476.92	416.62
477.10	440.02
477.28	388.53
477.46	437.68
477.64	381.51
477.82	344.06
478.00	409.59
478.18	428.32
478.36	456.40
478.54	346.40
478.72	470.45
478.90	435.34
479.08	376.83
479.26	381.51
479.44	437.68
479.62	351.08
479.80	383.85
479.98	407.25
480.16	369.80
480.34	477.47
480.52	409.59
480.70	447.04
480.88	395.55
481.06	376.83
481.24	381.51
481.41	383.85
481.59	458.74
481.77	458.74
481.95	386.19
482.13	505.56
482.31	423.64
482.49	358.10
482.67	442.36
482.85	451.72
483.03	411.93
483.21	397.89
483.39	416.62
483.57	404.91
483.74	402.57
483.92	440.02
484.10	395.55
484.28	517.26
484.46	393.21
484.64	388.53
484.82	397.89
485.00	407.25
485.18	400.23
485.35	425.98
485.53	440.02
485.71	449.38
485.89	374.49
486.07	447.04
486.25	451.72
486.43	425.98
486.61	489.17
486.78	430.66
486.96	458.74
487.14	346.40
487.32	435.34
487.50	362.78
487.68	461.09
487.85	498.53
488.03	433.00
488.21	421.30
488.39	351.08
488.57	390.87
488.75	423.64
488.92	435.34
489.10	351.08
489.28	421.30
489.46	402.57
489.64	397.89
489.81	435.34
489.99	411.93
490.17	304.27
490.35	498.53
490.53	402.57
490.70	423.64
490.88	477.47
491.06	390.87
491.24	374.49
491.41	425.98
491.59	444.70
491.77	390.87
491.95	346.40
492.13	390.87
492.30	418.96
492.48	437.68
492.66	465.77
492.84	440.02
493.01	458.74
493.19	416.62
493.37	442.36
493.54	463.43
493.72	393.21
493.90	421.30
494.08	496.19
494.25	479.81
494.43	475.13
494.61	433.00
494.79	402.57
494.96	388.53
495.14	369.80
495.32	367.46
495.49	430.66
495.67	442.36
495.85	313.63
496.02	437.68
496.20	402.57
496.38	451.72
496.55	372.15
496.73	444.70
496.91	449.38
497.09	468.11
497.26	440.02
497.44	411.93
497.62	447.04
497.79	437.68
497.97	423.64
498.14	425.98
498.32	447.04
498.50	423.64
498.67	376.83
498.85	397.89
499.03	400.23
499.20	528.96
499.38	379.17
499.56	437.68
499.73	411.93
499.91	456.40
500.08	472.79
500.26	365.12
500.44	409.59
500.61	442.36
500.79	433.00
500.97	433.00
501.14	358.10
501.32	376.83
501.49	428.32
501.67	379.17
501.84	395.55
502.02	447.04
502.20	458.74
502.37	435.34
502.55	430.66
502.72	402.57
502.90	416.62
503.07	418.96
503.25	365.12
503.43	358.10
503.60	433.00
503.78	517.26
503.95	353.42
504.13	433.00
504.30	449.38
504.48	463.43
504.65	528.96
504.83	454.06
505.01	454.06
505.18	468.11
505.36	379.17
505.53	416.62
505.71	381.51
505.88	386.19
506.06	425.98
506.23	416.62
506.41	372.15
506.58	421.30
506.76	390.87
506.93	383.85
507.11	447.04
507.28	461.09
507.46	367.46
507.63	435.34
507.81	386.19
507.98	458.74
508.16	423.64
508.33	411.93
508.50	386.19
508.68	365.12
508.85	393.21
509.03	440.02
509.20	393.21
509.38	397.89
509.55	360.44
509.73	409.59
509.90	346.40
510.08	390.87
510.25	428.32
510.42	402.57
510.60	355.76
510.77	383.85
510.95	409.59
511.12	411.93
511.30	437.68
511.47	451.72
511.64	395.55
511.82	395.55
511.99	428.32
512.17	425.98
512.34	402.57
512.51	456.40
512.69	433.00
512.86	475.13
513.04	332.36
513.21	440.02
513.38	468.11
513.56	454.06
513.73	365.12
513.90	421.30
514.08	463.43
514.25	374.49
514.43	390.87
514.60	393.21
514.77	416.62
514.95	437.68
515.12	472.79
515.29	404.91
515.47	423.64
515.64	416.62
515.81	400.23
515.99	402.57
516.16	402.57
516.33	479.81
516.51	423.64
516.68	355.76
516.85	470.45
517.03	414.27
517.20	458.74
517.37	428.32
517.54	388.53
517.72	449.38
517.89	402.57
518.06	407.25
518.24	482.15
518.41	433.00
518.58	402.57
518.75	365.12
518.93	447.04
519.10	365.12
519.27	458.74
519.45	353.42
519.62	393.21
519.79	404.91
519.96	407.25
520.14	433.00
520.31	454.06
520.48	376.83
520.65	327.68
520.83	423.64
521.00	402.57
521.17	423.64
521.34	393.21
521.52	498.53
521.69	351.08
521.86	367.46
522.03	414.27
522.20	400.23
522.38	421.30
522.55	386.19
522.72	327.68
522.89	374.49
523.07	374.49
523.24	430.66
523.41	386.19
523.58	421.30
523.75	358.10
523.92	421.30
524.10	395.55
524.27	390.87
524.44	402.57
524.61	475.13
524.78	433.00
524.96	454.06
525.13	458.74
525.30	475.13
525.47	418.96
525.64	444.70
525.81	414.27
525.98	484.49
526.16	423.64
526.33	449.38
526.50	376.83
526.67	407.25
526.84	493.85
527.01	451.72
527.18	360.44
527.36	421.30
527.53	465.77
527.70	484.49
527.87	404.91
528.04	540.66
528.21	430.66
528.38	376.83
528.55	435.34
528.72	404.91
528.89	435.34
529.07	444.70
529.24	390.87
529.41	423.64
529.58	414.27
529.75	449.38
529.92	458.74
530.09	383.85
530.26	454.06
530.43	402.57
530.60	411.93
530.77	393.21
530.94	421.30
531.11	402.57
531.28	348.74
531.46	393.21
531.63	425.98
531.80	416.62
531.97	393.21
532.14	447.04
532.31	372.15
532.48	390.87
532.65	447.04
532.82	301.93
532.99	491.51
533.16	346.40
533.33	482.15
533.50	402.57
533.67	418.96
533.84	367.46
534.01	400.23
534.18	456.40
534.35	463.43
534.52	433.00
534.69	451.72
534.86	433.00
535.03	397.89
535.20	458.74
535.37	444.70
535.54	425.98
535.71	435.34
535.88	442.36
536.05	407.25
536.22	395.55
536.38	461.09
536.55	493.85
536.72	404.91
536.89	332.36
537.06	425.98
537.23	400.23
537.40	435.34
537.57	409.59
537.74	512.58
537.91	402.57
538.08	397.89
538.25	489.17
538.42	440.02
538.59	461.09
538.75	430.66
538.92	418.96
539.09	423.64
539.26	390.87
539.43	491.51
539.60	435.34
539.77	472.79
539.94	442.36
540.11	418.96
540.28	475.13
540.44	404.91
540.61	360.44
540.78	456.40
540.95	374.49
541.12	416.62
541.29	411.93
541.46	414.27
541.62	353.42
541.79	454.06
541.96	390.87
542.13	383.85
542.30	367.46
542.47	435.34
542.63	437.68
542.80	381.51
542.97	416.62
543.14	372.15
543.31	428.32
543.48	418.96
543.64	430.66
543.81	437.68
543.98	409.59
544.15	386.19
544.32	465.77
544.48	447.04
544.65	379.17
544.82	386.19
544.99	421.30
545.16	430.66
545.32	397.89
545.49	472.79
545.66	425.98
545.83	393.21
546.00	465.77
546.16	411.93
546.33	402.57
546.50	376.83
546.67	416.62
546.83	418.96
547.00	386.19
547.17	372.15
547.34	470.45
547.50	409.59
547.67	458.74
547.84	447.04
548.00	433.00
548.17	454.06
548.34	428.32
548.51	411.93
548.67	461.09
548.84	437.68
549.01	376.83
549.18	433.00
549.34	440.02
549.51	458.74
549.68	472.79
549.84	407.25
550.01	351.08
550.18	468.11
550.34	416.62
550.51	379.17
550.68	421.30
550.84	428.32
551.01	374.49
551.18	416.62
551.34	374.49
551.51	395.55
551.68	362.78
551.84	421.30
552.01	449.38
552.18	423.64
552.34	404.91
552.51	397.89
552.68	397.89
552.84	421.30
553.01	365.12
553.18	423.64
553.34	444.70
553.51	447.04
553.67	428.32
553.84	543.00
554.01	433.00
554.17	407.25
554.34	477.47
554.51	449.38
554.67	362.78
554.84	440.02
555.00	416.62
555.17	416.62
555.33	407.25
555.50	428.32
555.67	416.62
555.83	397.89
556.00	456.40
556.16	526.62
556.33	397.89
556.50	444.70
556.66	449.38
556.83	451.72
556.99	409.59
557.16	428.32
557.32	400.23
557.49	428.32
557.65	421.30
557.82	418.96
557.98	458.74
558.15	465.77
558.32	386.19
558.48	362.78
558.65	442.36
558.81	416.62
558.98	456.40
559.14	397.89
559.31	369.80
559.47	390.87
559.64	365.12
559.80	437.68
559.97	423.64
560.13	402.57
560.30	451.72
560.46	299.59
560.63	388.53
560.79	379.17
560.96	374.49
561.12	449.38
561.29	390.87
561.45	416.62
561.61	418.96
561.78	528.96
561.94	451.72
562.11	447.04
562.27	433.00
562.44	372.15
562.60	493.85
562.77	395.55
562.93	451.72
563.10	402.57
563.26	393.21
563.42	433.00
563.59	383.85
563.75	449.38
563.92	411.93
564.08	433.00
564.24	383.85
564.41	407.25
564.57	383.85
564.74	463.43
564.90	430.66
565.07	435.34
565.23	484.49
565.39	442.36
565.56	454.06
565.72	407.25
565.88	397.89
566.05	430.66
566.21	468.11
566.38	362.78
566.54	344.06
566.70	330.02
566.87	404.91
567.03	425.98
567.19	353.42
567.36	428.32
567.52	367.46
567.68	404.91
567.85	383.85
568.01	369.80
568.17	374.49
568.34	381.51
568.50	435.34
568.66	409.59
568.83	447.04
568.99	444.70
569.15	407.25
569.32	409.59
569.48	306.61
569.64	407.25
569.81	402.57
569.97	425.98
570.13	369.80
570.30	407.25
570.46	414.27
570.62	447.04
570.78	393.21
570.95	442.36
571.11	531.30
571.27	444.70
571.43	428.32
571.60	435.34
571.76	409.59
571.92	409.59
572.09	456.40
572.25	433.00
572.41	472.79
572.57	372.15
572.74	425.98
572.90	451.72
573.06	358.10
573.22	454.06
573.38	456.40
573.55	416.62
573.71	418.96
573.87	411.93
574.03	362.78
574.20	461.09
574.36	411.93
574.52	414.27
574.68	411.93
574.84	425.98
575.01	442.36
575.17	470.45
575.33	355.76
575.49	451.72
575.65	489.17
575.82	423.64
575.98	428.32
576.14	421.30
576.30	404.91
576.46	367.46
576.62	425.98
576.79	514.92
576.95	461.09
577.11	374.49
577.27	449.38
577.43	454.06
577.59	475.13
577.75	362.78
577.92	388.53
578.08	437.68
578.24	458.74
578.40	393.21
578.56	454.06
578.72	430.66
578.88	482.15
579.04	372.15
579.21	381.51
579.37	489.17
579.53	351.08
579.69	458.74
579.85	435.34
580.01	442.36
580.17	414.27
580.33	411.93
580.49	423.64
580.65	353.42
580.82	416.62
580.98	454.06
581.14	491.51
581.30	425.98
581.46	425.98
581.62	475.13
581.78	353.42
581.94	418.96
582.10	393.21
582.26	421.30
582.42	440.02
582.58	407.25
582.74	374.49
582.90	451.72
583.06	500.87
583.22	409.59
583.38	390.87
583.54	442.36
583.70	437.68
583.86	440.02
584.02	397.89
584.18	442.36
584.34	416.62
584.50	402.57
584.66	407.25
584.82	341.72
584.98	482.15
585.14	381.51
585.30	475.13
585.46	440.02
585.62	402.57
585.78	500.87
585.94	435.34
586.10	397.89
586.26	407.25
586.42	477.47
586.58	498.53
586.74	449.38
586.90	482.15
587.06	395.55
587.22	461.09
587.38	381.51
587.54	472.79
587.70	458.74
587.86	461.09
588.02	430.66
588.18	423.64
588.34	477.47
588.49	393.21
588.65	465.77
588.81	421.30
588.97	404.91
589.13	416.62
589.29	440.02
589.45	435.34
589.61	479.81
589.77	456.40
589.93	402.57
590.08	400.23
590.24	346.40
590.40	395.55
590.56	372.15
590.72	430.66
590.88	442.36
591.04	433.00
591.20	397.89
591.35	477.47
591.51	498.53
591.67	430.66
591.83	428.32
591.99	409.59
592.15	379.17
592.31	435.34
592.46	470.45
592.62	437.68
592.78	369.80
592.94	383.85
593.10	402.57
593.26	447.04
593.41	477.47
593.57	437.68
593.73	465.77
593.89	451.72
594.05	449.38
594.20	397.89
594.36	465.77
594.52	409.59
594.68	402.57
594.84	524.28
594.99	442.36
595.15	472.79
595.31	465.77
595.47	491.51
595.62	407.25
595.78	386.19
595.94	304.27
596.10	440.02
596.25	397.89
596.41	409.59
596.57	400.23
596.73	386.19
596.88	376.83
597.04	458.74
597.20	372.15
597.36	463.43
597.51	416.62
597.67	376.83
597.83	425.98
597.99	435.34
598.14	414.27
598.30	437.68
598.46	428.32
598.61	447.04
598.77	414.27
598.93	479.81
599.09	444.70
599.24	411.93
599.40	344.06
599.56	379.17
599.71	374.49
599.87	395.55
600.03	365.12
600.18	425.98
600.34	463.43
600.50	463.43
600.65	376.83
600.81	400.23
600.97	381.51
601.12	416.62
601.28	479.81
601.44	489.17
601.59	386.19
601.75	402.57
601.91	390.87
602.06	430.66
602.22	458.74
602.37	416.62
602.53	470.45
602.69	337.04
602.84	409.59
603.00	454.06
603.16	465.77
603.31	463.43
603.47	383.85
603.62	395.55
603.78	421.30
603.94	468.11
604.09	463.43
604.25	407.25
604.40	404.91
604.56	461.09
604.71	456.40
604.87	465.77
605.03	416.62
605.18	440.02
605.34	461.09
605.49	423.64
605.65	358.10
605.80	421.30
605.96	372.15
606.12	393.21
606.27	388.53
606.43	430.66
606.58	421.30
606.74	390.87
606.89	414.27
607.05	390.87
607.20	463.43
607.36	465.77
607.51	358.10
607.67	437.68
607.82	437.68
607.98	414.27
608.13	416.62
608.29	475.13
608.44	416.62
608.60	374.49
608.75	458.74
608.91	390.87
609.06	482.15
609.22	479.81
609.37	409.59
609.53	400.23
609.68	402.57
609.84	360.44
609.99	458.74
610.15	451.72
