SpectraSuite Data File
++++++++++++++++++++++++++++++++++++
Date: Fri Oct 25 12:11:17 EDT 2013
User: price-jones
Dark Spectrum Present: No
Reference Spectrum Present: No
Number of Sampled Component Spectra: 1
Spectrometers: USB2+H05261
Integration Time (usec): 100000 (USB2+H05261)
Spectra Averaged: 1 (USB2+H05261)
Boxcar Smoothing: 0 (USB2+H05261)
Correct for Electrical Dark: No (USB2+H05261)
Strobe/Lamp Enabled: No (USB2+H05261)
Correct for Detector Non-linearity: No (USB2+H05261)
Correct for Stray Light: No (USB2+H05261)
Number of Pixels in Processed Spectrum: 2048
>>>>>Begin Processed Spectral Data<<<<<
365.73	355.76
365.92	355.76
366.12	355.76
366.32	196.60
366.52	231.71
366.72	210.65
366.91	320.65
367.11	301.93
367.31	248.10
367.51	238.73
367.70	201.29
367.90	238.73
368.10	278.52
368.30	217.67
368.49	264.48
368.69	262.14
368.89	294.91
369.09	236.39
369.28	294.91
369.48	313.63
369.68	255.12
369.87	332.36
370.07	259.80
370.27	306.61
370.47	304.27
370.66	285.55
370.86	348.74
371.06	358.10
371.25	425.98
371.45	416.62
371.65	397.89
371.84	430.66
372.04	351.08
372.24	372.15
372.44	390.87
372.63	325.33
372.83	376.83
373.03	418.96
373.22	402.57
373.42	313.63
373.62	468.11
373.81	414.27
374.01	418.96
374.21	407.25
374.40	383.85
374.60	430.66
374.79	423.64
374.99	430.66
375.19	425.98
375.38	346.40
375.58	479.81
375.78	376.83
375.97	374.49
376.17	421.30
376.37	425.98
376.56	461.09
376.76	454.06
376.95	374.49
377.15	437.68
377.35	430.66
377.54	449.38
377.74	388.53
377.93	433.00
378.13	411.93
378.33	489.17
378.52	369.80
378.72	477.47
378.91	451.72
379.11	381.51
379.31	369.80
379.50	395.55
379.70	437.68
379.89	383.85
380.09	386.19
380.28	400.23
380.48	388.53
380.68	381.51
380.87	400.23
381.07	358.10
381.26	505.56
381.46	421.30
381.65	409.59
381.85	360.44
382.04	400.23
382.24	397.89
382.43	379.17
382.63	428.32
382.83	315.97
383.02	407.25
383.22	418.96
383.41	365.12
383.61	440.02
383.80	358.10
384.00	341.72
384.19	411.93
384.39	313.63
384.58	381.51
384.78	484.49
384.97	365.12
385.17	423.64
385.36	358.10
385.56	465.77
385.75	315.97
385.95	435.34
386.14	402.57
386.34	390.87
386.53	344.06
386.72	374.49
386.92	381.51
387.11	442.36
387.31	458.74
387.50	372.15
387.70	372.15
387.89	416.62
388.09	348.74
388.28	388.53
388.48	437.68
388.67	362.78
388.86	322.99
389.06	383.85
389.25	472.79
389.45	449.38
389.64	456.40
389.84	372.15
390.03	423.64
390.22	381.51
390.42	400.23
390.61	388.53
390.81	437.68
391.00	486.83
391.19	470.45
391.39	411.93
391.58	435.34
391.78	379.17
391.97	400.23
392.16	425.98
392.36	421.30
392.55	379.17
392.75	470.45
392.94	358.10
393.13	437.68
393.33	355.76
393.52	461.09
393.71	407.25
393.91	315.97
394.10	400.23
394.29	430.66
394.49	463.43
394.68	379.17
394.88	397.89
395.07	440.02
395.26	411.93
395.46	423.64
395.65	423.64
395.84	461.09
396.04	468.11
396.23	444.70
396.42	393.21
396.62	365.12
396.81	407.25
397.00	411.93
397.19	433.00
397.39	402.57
397.58	365.12
397.77	393.21
397.97	433.00
398.16	437.68
398.35	430.66
398.55	409.59
398.74	330.02
398.93	374.49
399.12	409.59
399.32	465.77
399.51	503.22
399.70	393.21
399.90	430.66
400.09	423.64
400.28	414.27
400.47	404.91
400.67	381.51
400.86	433.00
401.05	407.25
401.24	484.49
401.44	437.68
401.63	404.91
401.82	383.85
402.01	393.21
402.21	428.32
402.40	341.72
402.59	416.62
402.78	416.62
402.97	386.19
403.17	369.80
403.36	400.23
403.55	397.89
403.74	351.08
403.93	365.12
404.13	463.43
404.32	411.93
404.51	400.23
404.70	449.38
404.89	433.00
405.09	425.98
405.28	390.87
405.47	425.98
405.66	440.02
405.85	390.87
406.05	437.68
406.24	447.04
406.43	465.77
406.62	444.70
406.81	435.34
407.00	393.21
407.20	372.15
407.39	362.78
407.58	451.72
407.77	393.21
407.96	437.68
408.15	404.91
408.34	465.77
408.54	409.59
408.73	430.66
408.92	411.93
409.11	379.17
409.30	500.87
409.49	440.02
409.68	348.74
409.87	425.98
410.07	362.78
410.26	444.70
410.45	421.30
410.64	381.51
410.83	332.36
411.02	484.49
411.21	414.27
411.40	440.02
411.59	430.66
411.78	327.68
411.98	365.12
412.17	418.96
412.36	418.96
412.55	365.12
412.74	423.64
412.93	458.74
413.12	402.57
413.31	479.81
413.50	472.79
413.69	416.62
413.88	418.96
414.07	411.93
414.26	425.98
414.45	395.55
414.64	451.72
414.83	449.38
415.02	379.17
415.22	425.98
415.41	390.87
415.60	437.68
415.79	397.89
415.98	517.26
416.17	425.98
416.36	381.51
416.55	437.68
416.74	451.72
416.93	402.57
417.12	369.80
417.31	423.64
417.50	379.17
417.69	475.13
417.88	346.40
418.07	339.38
418.26	456.40
418.45	393.21
418.64	435.34
418.83	400.23
419.02	437.68
419.21	444.70
419.39	435.34
419.58	400.23
419.77	418.96
419.96	433.00
420.15	411.93
420.34	390.87
420.53	397.89
420.72	365.12
420.91	393.21
421.10	489.17
421.29	442.36
421.48	362.78
421.67	423.64
421.86	393.21
422.05	341.72
422.24	353.42
422.43	423.64
422.61	498.53
422.80	407.25
422.99	381.51
423.18	430.66
423.37	390.87
423.56	358.10
423.75	454.06
423.94	358.10
424.13	440.02
424.32	325.33
424.50	418.96
424.69	437.68
424.88	458.74
425.07	332.36
425.26	416.62
425.45	390.87
425.64	425.98
425.83	402.57
426.01	451.72
426.20	381.51
426.39	416.62
426.58	318.31
426.77	383.85
426.96	409.59
427.15	414.27
427.33	444.70
427.52	367.46
427.71	430.66
427.90	414.27
428.09	428.32
428.28	435.34
428.46	440.02
428.65	482.15
428.84	411.93
429.03	444.70
429.22	332.36
429.40	400.23
429.59	477.47
429.78	411.93
429.97	374.49
430.16	393.21
430.34	414.27
430.53	374.49
430.72	379.17
430.91	458.74
431.10	440.02
431.28	393.21
431.47	433.00
431.66	477.47
431.85	320.65
432.03	411.93
432.22	409.59
432.41	390.87
432.60	444.70
432.79	433.00
432.97	372.15
433.16	468.11
433.35	383.85
433.54	402.57
433.72	400.23
433.91	404.91
434.10	397.89
434.28	433.00
434.47	414.27
434.66	440.02
434.85	404.91
435.03	390.87
435.22	390.87
435.41	409.59
435.59	449.38
435.78	465.77
435.97	351.08
436.16	423.64
436.34	388.53
436.53	433.00
436.72	463.43
436.90	402.57
437.09	397.89
437.28	454.06
437.46	390.87
437.65	449.38
437.84	489.17
438.02	449.38
438.21	374.49
438.40	393.21
438.58	346.40
438.77	454.06
438.96	414.27
439.14	454.06
439.33	444.70
439.52	407.25
439.70	428.32
439.89	456.40
440.08	353.42
440.26	376.83
440.45	428.32
440.63	402.57
440.82	402.57
441.01	444.70
441.19	381.51
441.38	463.43
441.57	393.21
441.75	479.81
441.94	428.32
442.12	447.04
442.31	435.34
442.50	449.38
442.68	447.04
442.87	390.87
443.05	369.80
443.24	456.40
443.43	407.25
443.61	376.83
443.80	390.87
443.98	388.53
444.17	444.70
444.35	451.72
444.54	414.27
444.73	421.30
444.91	461.09
445.10	416.62
445.28	388.53
445.47	393.21
445.65	456.40
445.84	388.53
446.02	433.00
446.21	379.17
446.39	500.87
446.58	458.74
446.77	479.81
446.95	360.44
447.14	360.44
447.32	475.13
447.51	468.11
447.69	458.74
447.88	351.08
448.06	447.04
448.25	414.27
448.43	388.53
448.62	381.51
448.80	435.34
448.99	383.85
449.17	393.21
449.36	484.49
449.54	418.96
449.73	442.36
449.91	425.98
450.10	423.64
450.28	468.11
450.46	440.02
450.65	353.42
450.83	428.32
451.02	411.93
451.20	454.06
451.39	489.17
451.57	425.98
451.76	386.19
451.94	461.09
452.13	465.77
452.31	402.57
452.49	418.96
452.68	409.59
452.86	456.40
453.05	442.36
453.23	430.66
453.42	447.04
453.60	479.81
453.78	465.77
453.97	402.57
454.15	428.32
454.34	465.77
454.52	407.25
454.70	489.17
454.89	409.59
455.07	390.87
455.26	400.23
455.44	409.59
455.62	407.25
455.81	425.98
455.99	430.66
456.17	348.74
456.36	365.12
456.54	411.93
456.73	414.27
456.91	393.21
457.09	376.83
457.28	451.72
457.46	421.30
457.64	430.66
457.83	400.23
458.01	355.76
458.19	430.66
458.38	437.68
458.56	461.09
458.74	404.91
458.93	496.19
459.11	458.74
459.29	397.89
459.48	461.09
459.66	433.00
459.84	339.38
460.03	491.51
460.21	472.79
460.39	407.25
460.57	428.32
460.76	454.06
460.94	440.02
461.12	489.17
461.31	414.27
461.49	414.27
461.67	519.60
461.85	402.57
462.04	313.63
462.22	748.97
462.40	386.19
462.59	388.53
462.77	351.08
462.95	451.72
463.13	365.12
463.32	423.64
463.50	433.00
463.68	433.00
463.86	430.66
464.05	411.93
464.23	477.47
464.41	409.59
464.59	409.59
464.78	390.87
464.96	390.87
465.14	379.17
465.32	311.29
465.50	423.64
465.69	454.06
465.87	374.49
466.05	395.55
466.23	386.19
466.41	381.51
466.60	372.15
466.78	458.74
466.96	433.00
467.14	470.45
467.32	433.00
467.51	376.83
467.69	381.51
467.87	456.40
468.05	479.81
468.23	437.68
468.41	458.74
468.60	411.93
468.78	390.87
468.96	440.02
469.14	423.64
469.32	411.93
469.50	425.98
469.69	395.55
469.87	409.59
470.05	416.62
470.23	430.66
470.41	414.27
470.59	341.72
470.77	418.96
470.95	486.83
471.14	456.40
471.32	381.51
471.50	447.04
471.68	461.09
471.86	428.32
472.04	397.89
472.22	374.49
472.40	404.91
472.58	423.64
472.77	414.27
472.95	423.64
473.13	437.68
473.31	409.59
473.49	397.89
473.67	451.72
473.85	407.25
474.03	402.57
474.21	381.51
474.39	341.72
474.57	423.64
474.75	402.57
474.93	367.46
475.12	475.13
475.30	430.66
475.48	442.36
475.66	381.51
475.84	374.49
476.02	381.51
476.20	449.38
476.38	454.06
476.56	461.09
476.74	386.19
476.92	411.93
477.10	433.00
477.28	411.93
477.46	358.10
477.64	461.09
477.82	411.93
478.00	465.77
478.18	397.89
478.36	362.78
478.54	430.66
478.72	437.68
478.90	367.46
479.08	390.87
479.26	477.47
479.44	397.89
479.62	421.30
479.80	411.93
479.98	468.11
480.16	428.32
480.34	402.57
480.52	435.34
480.70	498.53
480.88	454.06
481.06	367.46
481.24	334.70
481.41	386.19
481.59	388.53
481.77	409.59
481.95	395.55
482.13	477.47
482.31	461.09
482.49	442.36
482.67	425.98
482.85	418.96
483.03	451.72
483.21	442.36
483.39	383.85
483.57	379.17
483.74	381.51
483.92	404.91
484.10	411.93
484.28	428.32
484.46	440.02
484.64	414.27
484.82	374.49
485.00	334.70
485.18	447.04
485.35	416.62
485.53	341.72
485.71	447.04
485.89	428.32
486.07	402.57
486.25	482.15
486.43	395.55
486.61	456.40
486.78	461.09
486.96	414.27
487.14	470.45
487.32	461.09
487.50	425.98
487.68	454.06
487.85	367.46
488.03	414.27
488.21	468.11
488.39	433.00
488.57	442.36
488.75	397.89
488.92	465.77
489.10	367.46
489.28	468.11
489.46	386.19
489.64	365.12
489.81	447.04
489.99	386.19
490.17	386.19
490.35	561.73
490.53	409.59
490.70	397.89
490.88	435.34
491.06	393.21
491.24	437.68
491.41	421.30
491.59	379.17
491.77	374.49
491.95	411.93
492.13	430.66
492.30	414.27
492.48	402.57
492.66	468.11
492.84	456.40
493.01	430.66
493.19	421.30
493.37	407.25
493.54	395.55
493.72	447.04
493.90	430.66
494.08	341.72
494.25	491.51
494.43	423.64
494.61	362.78
494.79	362.78
494.96	421.30
495.14	440.02
495.32	367.46
495.49	440.02
495.67	411.93
495.85	433.00
496.02	395.55
496.20	463.43
496.38	374.49
496.55	383.85
496.73	367.46
496.91	383.85
497.09	444.70
497.26	395.55
497.44	395.55
497.62	444.70
497.79	423.64
497.97	386.19
498.14	449.38
498.32	397.89
498.50	418.96
498.67	376.83
498.85	379.17
499.03	381.51
499.20	454.06
499.38	479.81
499.56	400.23
499.73	442.36
499.91	355.76
500.08	470.45
500.26	400.23
500.44	444.70
500.61	395.55
500.79	470.45
500.97	472.79
501.14	461.09
501.32	381.51
501.49	379.17
501.67	433.00
501.84	390.87
502.02	433.00
502.20	418.96
502.37	456.40
502.55	388.53
502.72	449.38
502.90	442.36
503.07	365.12
503.25	404.91
503.43	344.06
503.60	386.19
503.78	409.59
503.95	472.79
504.13	440.02
504.30	418.96
504.48	449.38
504.65	388.53
504.83	395.55
505.01	442.36
505.18	463.43
505.36	430.66
505.53	407.25
505.71	428.32
505.88	397.89
506.06	458.74
506.23	414.27
506.41	388.53
506.58	353.42
506.76	374.49
506.93	437.68
507.11	444.70
507.28	428.32
507.46	404.91
507.63	362.78
507.81	360.44
507.98	381.51
508.16	454.06
508.33	440.02
508.50	461.09
508.68	423.64
508.85	507.90
509.03	444.70
509.20	369.80
509.38	365.12
509.55	461.09
509.73	442.36
509.90	451.72
510.08	449.38
510.25	451.72
510.42	365.12
510.60	454.06
510.77	479.81
510.95	395.55
511.12	486.83
511.30	442.36
511.47	372.15
511.64	521.94
511.82	379.17
511.99	409.59
512.17	449.38
512.34	383.85
512.51	421.30
512.69	416.62
512.86	447.04
513.04	416.62
513.21	414.27
513.38	395.55
513.56	433.00
513.73	461.09
513.90	404.91
514.08	407.25
514.25	461.09
514.43	465.77
514.60	458.74
514.77	383.85
514.95	395.55
515.12	404.91
515.29	423.64
515.47	425.98
515.64	407.25
515.81	407.25
515.99	449.38
516.16	454.06
516.33	386.19
516.51	433.00
516.68	430.66
516.85	374.49
517.03	411.93
517.20	440.02
517.37	442.36
517.54	463.43
517.72	376.83
517.89	458.74
518.06	414.27
518.24	435.34
518.41	521.94
518.58	447.04
518.75	418.96
518.93	437.68
519.10	444.70
519.27	435.34
519.45	414.27
519.62	430.66
519.79	425.98
519.96	388.53
520.14	369.80
520.31	407.25
520.48	461.09
520.65	388.53
520.83	407.25
521.00	386.19
521.17	428.32
521.34	447.04
521.52	421.30
521.69	390.87
521.86	496.19
522.03	456.40
522.20	458.74
522.38	402.57
522.55	379.17
522.72	433.00
522.89	472.79
523.07	456.40
523.24	409.59
523.41	379.17
523.58	437.68
523.75	414.27
523.92	433.00
524.10	484.49
524.27	442.36
524.44	454.06
524.61	421.30
524.78	461.09
524.96	418.96
525.13	479.81
525.30	463.43
525.47	285.55
525.64	393.21
525.81	489.17
525.98	430.66
526.16	451.72
526.33	351.08
526.50	468.11
526.67	416.62
526.84	421.30
527.01	435.34
527.18	411.93
527.36	358.10
527.53	400.23
527.70	400.23
527.87	505.56
528.04	372.15
528.21	440.02
528.38	402.57
528.55	421.30
528.72	496.19
528.89	365.12
529.07	442.36
529.24	386.19
529.41	414.27
529.58	423.64
529.75	421.30
529.92	472.79
530.09	423.64
530.26	430.66
530.43	437.68
530.60	386.19
530.77	489.17
530.94	423.64
531.11	458.74
531.28	390.87
531.46	425.98
531.63	447.04
531.80	425.98
531.97	409.59
532.14	486.83
532.31	397.89
532.48	402.57
532.65	477.47
532.82	444.70
532.99	437.68
533.16	437.68
533.33	428.32
533.50	451.72
533.67	437.68
533.84	383.85
534.01	402.57
534.18	435.34
534.35	372.15
534.52	390.87
534.69	428.32
534.86	489.17
535.03	449.38
535.20	411.93
535.37	365.12
535.54	379.17
535.71	484.49
535.88	414.27
536.05	447.04
536.22	437.68
536.38	440.02
536.55	437.68
536.72	355.76
536.89	409.59
537.06	425.98
537.23	322.99
537.40	393.21
537.57	404.91
537.74	498.53
537.91	465.77
538.08	374.49
538.25	395.55
538.42	400.23
538.59	395.55
538.75	416.62
538.92	442.36
539.09	339.38
539.26	374.49
539.43	430.66
539.60	430.66
539.77	404.91
539.94	388.53
540.11	458.74
540.28	425.98
540.44	491.51
540.61	407.25
540.78	379.17
540.95	425.98
541.12	418.96
541.29	442.36
541.46	341.72
541.62	411.93
541.79	372.15
541.96	395.55
542.13	421.30
542.30	416.62
542.47	411.93
542.63	442.36
542.80	489.17
542.97	461.09
543.14	442.36
543.31	465.77
543.48	411.93
543.64	383.85
543.81	421.30
543.98	395.55
544.15	369.80
544.32	437.68
544.48	346.40
544.65	320.65
544.82	430.66
544.99	472.79
545.16	440.02
545.32	404.91
545.49	411.93
545.66	418.96
545.83	386.19
546.00	437.68
546.16	468.11
546.33	461.09
546.50	454.06
546.67	395.55
546.83	433.00
547.00	414.27
547.17	416.62
547.34	451.72
547.50	383.85
547.67	461.09
547.84	411.93
548.00	465.77
548.17	383.85
548.34	409.59
548.51	496.19
548.67	400.23
548.84	477.47
549.01	531.30
549.18	433.00
549.34	421.30
549.51	330.02
549.68	428.32
549.84	418.96
550.01	409.59
550.18	519.60
550.34	545.34
550.51	402.57
550.68	390.87
550.84	390.87
551.01	379.17
551.18	425.98
551.34	484.49
551.51	430.66
551.68	482.15
551.84	447.04
552.01	360.44
552.18	491.51
552.34	379.17
552.51	411.93
552.68	435.34
552.84	442.36
553.01	435.34
553.18	442.36
553.34	414.27
553.51	414.27
553.67	407.25
553.84	468.11
554.01	454.06
554.17	449.38
554.34	348.74
554.51	386.19
554.67	418.96
554.84	514.92
555.00	468.11
555.17	404.91
555.33	444.70
555.50	458.74
555.67	475.13
555.83	493.85
556.00	470.45
556.16	533.64
556.33	454.06
556.50	341.72
556.66	465.77
556.83	423.64
556.99	407.25
557.16	437.68
557.32	421.30
557.49	465.77
557.65	447.04
557.82	358.10
557.98	393.21
558.15	416.62
558.32	400.23
558.48	451.72
558.65	341.72
558.81	409.59
558.98	414.27
559.14	458.74
559.31	409.59
559.47	355.76
559.64	339.38
559.80	407.25
559.97	444.70
560.13	428.32
560.30	461.09
560.46	418.96
560.63	442.36
560.79	440.02
560.96	388.53
561.12	428.32
561.29	465.77
561.45	428.32
561.61	433.00
561.78	479.81
561.94	472.79
562.11	433.00
562.27	388.53
562.44	402.57
562.60	418.96
562.77	383.85
562.93	433.00
563.10	484.49
563.26	442.36
563.42	423.64
563.59	463.43
563.75	414.27
563.92	407.25
564.08	381.51
564.24	423.64
564.41	435.34
564.57	341.72
564.74	369.80
564.90	463.43
565.07	423.64
565.23	411.93
565.39	402.57
565.56	402.57
565.72	421.30
565.88	461.09
566.05	374.49
566.21	433.00
566.38	519.60
566.54	447.04
566.70	425.98
566.87	479.81
567.03	393.21
567.19	416.62
567.36	458.74
567.52	379.17
567.68	390.87
567.85	449.38
568.01	390.87
568.17	433.00
568.34	437.68
568.50	428.32
568.66	355.76
568.83	393.21
568.99	454.06
569.15	421.30
569.32	407.25
569.48	374.49
569.64	341.72
569.81	442.36
569.97	376.83
570.13	435.34
570.30	411.93
570.46	430.66
570.62	418.96
570.78	454.06
570.95	440.02
571.11	440.02
571.27	444.70
571.43	409.59
571.60	435.34
571.76	430.66
571.92	416.62
572.09	339.38
572.25	376.83
572.41	374.49
572.57	409.59
572.74	381.51
572.90	418.96
573.06	395.55
573.22	400.23
573.38	404.91
573.55	440.02
573.71	444.70
573.87	411.93
574.03	386.19
574.20	395.55
574.36	456.40
574.52	407.25
574.68	395.55
574.84	404.91
575.01	355.76
575.17	372.15
575.33	379.17
575.49	447.04
575.65	428.32
575.82	479.81
575.98	407.25
576.14	437.68
576.30	395.55
576.46	442.36
576.62	440.02
576.79	454.06
576.95	411.93
577.11	390.87
577.27	379.17
577.43	409.59
577.59	430.66
577.75	407.25
577.92	402.57
578.08	402.57
578.24	344.06
578.40	447.04
578.56	461.09
578.72	388.53
578.88	447.04
579.04	414.27
579.21	433.00
579.37	421.30
579.53	440.02
579.69	416.62
579.85	496.19
580.01	468.11
580.17	425.98
580.33	407.25
580.49	421.30
580.65	404.91
580.82	430.66
580.98	393.21
581.14	332.36
581.30	444.70
581.46	365.12
581.62	454.06
581.78	461.09
581.94	437.68
582.10	456.40
582.26	461.09
582.42	470.45
582.58	409.59
582.74	397.89
582.90	404.91
583.06	435.34
583.22	395.55
583.38	433.00
583.54	390.87
583.70	395.55
583.86	418.96
584.02	372.15
584.18	463.43
584.34	458.74
584.50	465.77
584.66	475.13
584.82	301.93
584.98	425.98
585.14	404.91
585.30	393.21
585.46	379.17
585.62	430.66
585.78	414.27
585.94	458.74
586.10	402.57
586.26	379.17
586.42	510.24
586.58	407.25
586.74	428.32
586.90	444.70
587.06	404.91
587.22	393.21
587.38	437.68
587.54	390.87
587.70	437.68
587.86	395.55
588.02	430.66
588.18	465.77
588.34	447.04
588.49	470.45
588.65	388.53
588.81	402.57
588.97	440.02
589.13	454.06
589.29	416.62
589.45	397.89
589.61	472.79
589.77	395.55
589.93	379.17
590.08	425.98
590.24	395.55
590.40	339.38
590.56	491.51
590.72	491.51
590.88	444.70
591.04	411.93
591.20	423.64
591.35	493.85
591.51	367.46
591.67	388.53
591.83	479.81
591.99	372.15
592.15	442.36
592.31	404.91
592.46	468.11
592.62	447.04
592.78	449.38
592.94	440.02
593.10	411.93
593.26	423.64
593.41	475.13
593.57	390.87
593.73	440.02
593.89	365.12
594.05	425.98
594.20	393.21
594.36	400.23
594.52	423.64
594.68	402.57
594.84	397.89
594.99	468.11
595.15	362.78
595.31	442.36
595.47	472.79
595.62	386.19
595.78	388.53
595.94	479.81
596.10	440.02
596.25	442.36
596.41	430.66
596.57	372.15
596.73	418.96
596.88	383.85
597.04	400.23
597.20	456.40
597.36	463.43
597.51	411.93
597.67	437.68
597.83	367.46
597.99	463.43
598.14	395.55
598.30	414.27
598.46	444.70
598.61	442.36
598.77	411.93
598.93	379.17
599.09	388.53
599.24	456.40
599.40	395.55
599.56	421.30
599.71	379.17
599.87	433.00
600.03	409.59
600.18	409.59
600.34	458.74
600.50	430.66
600.65	372.15
600.81	402.57
600.97	402.57
601.12	407.25
601.28	489.17
601.44	416.62
601.59	423.64
601.75	374.49
601.91	383.85
602.06	486.83
602.22	437.68
602.37	435.34
602.53	444.70
602.69	395.55
602.84	367.46
603.00	423.64
603.16	440.02
603.31	421.30
603.47	535.98
603.62	472.79
603.78	430.66
603.94	407.25
604.09	393.21
604.25	402.57
604.40	433.00
604.56	393.21
604.71	404.91
604.87	379.17
605.03	414.27
605.18	442.36
605.34	447.04
605.49	339.38
605.65	423.64
605.80	383.85
605.96	374.49
606.12	456.40
606.27	491.51
606.43	449.38
606.58	386.19
606.74	414.27
606.89	386.19
607.05	456.40
607.20	416.62
607.36	407.25
607.51	465.77
607.67	435.34
607.82	475.13
607.98	395.55
608.13	433.00
608.29	423.64
608.44	498.53
608.60	397.89
608.75	430.66
608.91	425.98
609.06	454.06
609.22	461.09
609.37	468.11
609.53	369.80
609.68	402.57
609.84	390.87
609.99	386.19
610.15	477.47
