SpectraSuite Data File
++++++++++++++++++++++++++++++++++++
Date: Fri Oct 25 12:10:07 EDT 2013
User: price-jones
Dark Spectrum Present: No
Reference Spectrum Present: No
Number of Sampled Component Spectra: 1
Spectrometers: USB2+H05261
Integration Time (usec): 100000 (USB2+H05261)
Spectra Averaged: 1 (USB2+H05261)
Boxcar Smoothing: 0 (USB2+H05261)
Correct for Electrical Dark: No (USB2+H05261)
Strobe/Lamp Enabled: No (USB2+H05261)
Correct for Detector Non-linearity: No (USB2+H05261)
Correct for Stray Light: No (USB2+H05261)
Number of Pixels in Processed Spectrum: 2048
>>>>>Begin Processed Spectral Data<<<<<
365.73	379.17
365.92	379.17
366.12	379.17
366.32	294.91
366.52	222.35
366.72	271.50
366.91	227.03
367.11	241.08
367.31	273.84
367.51	229.37
367.70	187.24
367.90	287.89
368.10	262.14
368.30	208.31
368.49	184.90
368.69	224.69
368.89	234.05
369.09	257.46
369.28	276.18
369.48	308.95
369.68	292.57
369.87	273.84
370.07	320.65
370.27	355.76
370.47	365.12
370.66	346.40
370.86	308.95
371.06	388.53
371.25	358.10
371.45	383.85
371.65	442.36
371.84	423.64
372.04	388.53
372.24	383.85
372.44	372.15
372.63	369.80
372.83	334.70
373.03	437.68
373.22	395.55
373.42	369.80
373.62	292.57
373.81	437.68
374.01	365.12
374.21	418.96
374.40	379.17
374.60	447.04
374.79	390.87
374.99	451.72
375.19	404.91
375.38	461.09
375.58	435.34
375.78	409.59
375.97	367.46
376.17	404.91
376.37	433.00
376.56	404.91
376.76	395.55
376.95	390.87
377.15	444.70
377.35	479.81
377.54	430.66
377.74	418.96
377.93	456.40
378.13	456.40
378.33	468.11
378.52	358.10
378.72	393.21
378.91	435.34
379.11	315.97
379.31	409.59
379.50	425.98
379.70	491.51
379.89	397.89
380.09	418.96
380.28	351.08
380.48	416.62
380.68	374.49
380.87	458.74
381.07	372.15
381.26	374.49
381.46	400.23
381.65	386.19
381.85	379.17
382.04	456.40
382.24	395.55
382.43	423.64
382.63	365.12
382.83	386.19
383.02	409.59
383.22	456.40
383.41	376.83
383.61	348.74
383.80	440.02
384.00	374.49
384.19	344.06
384.39	416.62
384.58	430.66
384.78	456.40
384.97	383.85
385.17	404.91
385.36	395.55
385.56	383.85
385.75	322.99
385.95	381.51
386.14	400.23
386.34	341.72
386.53	418.96
386.72	435.34
386.92	433.00
387.11	451.72
387.31	442.36
387.50	374.49
387.70	451.72
387.89	409.59
388.09	435.34
388.28	393.21
388.48	407.25
388.67	411.93
388.86	458.74
389.06	379.17
389.25	442.36
389.45	397.89
389.64	409.59
389.84	444.70
390.03	425.98
390.22	358.10
390.42	344.06
390.61	308.95
390.81	339.38
391.00	418.96
391.19	430.66
391.39	332.36
391.58	404.91
391.78	367.46
391.97	360.44
392.16	423.64
392.36	423.64
392.55	456.40
392.75	416.62
392.94	365.12
393.13	425.98
393.33	325.33
393.52	386.19
393.71	379.17
393.91	353.42
394.10	334.70
394.29	379.17
394.49	458.74
394.68	411.93
394.88	404.91
395.07	418.96
395.26	472.79
395.46	365.12
395.65	458.74
395.84	388.53
396.04	430.66
396.23	393.21
396.42	381.51
396.62	353.42
396.81	435.34
397.00	341.72
397.19	414.27
397.39	386.19
397.58	397.89
397.77	400.23
397.97	449.38
398.16	388.53
398.35	395.55
398.55	379.17
398.74	402.57
398.93	404.91
399.12	411.93
399.32	395.55
399.51	407.25
399.70	435.34
399.90	379.17
400.09	362.78
400.28	379.17
400.47	388.53
400.67	418.96
400.86	444.70
401.05	369.80
401.24	433.00
401.44	367.46
401.63	433.00
401.82	381.51
402.01	386.19
402.21	404.91
402.40	416.62
402.59	395.55
402.78	388.53
402.97	374.49
403.17	463.43
403.36	437.68
403.55	388.53
403.74	414.27
403.93	395.55
404.13	458.74
404.32	416.62
404.51	440.02
404.70	400.23
404.89	379.17
405.09	409.59
405.28	369.80
405.47	423.64
405.66	475.13
405.85	407.25
406.05	390.87
406.24	433.00
406.43	451.72
406.62	454.06
406.81	440.02
407.00	454.06
407.20	435.34
407.39	337.04
407.58	397.89
407.77	400.23
407.96	393.21
408.15	355.76
408.34	353.42
408.54	418.96
408.73	379.17
408.92	358.10
409.11	414.27
409.30	416.62
409.49	327.68
409.68	454.06
409.87	355.76
410.07	379.17
410.26	440.02
410.45	402.57
410.64	407.25
410.83	315.97
411.02	430.66
411.21	374.49
411.40	369.80
411.59	400.23
411.78	430.66
411.98	393.21
412.17	362.78
412.36	414.27
412.55	414.27
412.74	416.62
412.93	404.91
413.12	341.72
413.31	411.93
413.50	395.55
413.69	351.08
413.88	411.93
414.07	346.40
414.26	393.21
414.45	365.12
414.64	393.21
414.83	407.25
415.02	409.59
415.22	400.23
415.41	430.66
415.60	390.87
415.79	416.62
415.98	374.49
416.17	451.72
416.36	402.57
416.55	451.72
416.74	451.72
416.93	484.49
417.12	400.23
417.31	451.72
417.50	433.00
417.69	402.57
417.88	332.36
418.07	421.30
418.26	388.53
418.45	463.43
418.64	430.66
418.83	468.11
419.02	376.83
419.21	365.12
419.39	489.17
419.58	411.93
419.77	433.00
419.96	407.25
420.15	442.36
420.34	407.25
420.53	367.46
420.72	360.44
420.91	440.02
421.10	339.38
421.29	404.91
421.48	402.57
421.67	423.64
421.86	390.87
422.05	381.51
422.24	365.12
422.43	402.57
422.61	313.63
422.80	454.06
422.99	444.70
423.18	360.44
423.37	437.68
423.56	454.06
423.75	454.06
423.94	320.65
424.13	425.98
424.32	470.45
424.50	346.40
424.69	409.59
424.88	416.62
425.07	397.89
425.26	421.30
425.45	360.44
425.64	390.87
425.83	376.83
426.01	425.98
426.20	437.68
426.39	449.38
426.58	379.17
426.77	365.12
426.96	374.49
427.15	374.49
427.33	369.80
427.52	409.59
427.71	362.78
427.90	397.89
428.09	388.53
428.28	388.53
428.46	386.19
428.65	376.83
428.84	388.53
429.03	482.15
429.22	414.27
429.40	442.36
429.59	395.55
429.78	482.15
429.97	440.02
430.16	301.93
430.34	365.12
430.53	400.23
430.72	402.57
430.91	379.17
431.10	472.79
431.28	404.91
431.47	458.74
431.66	325.33
431.85	425.98
432.03	470.45
432.22	461.09
432.41	433.00
432.60	418.96
432.79	355.76
432.97	346.40
433.16	430.66
433.35	369.80
433.54	435.34
433.72	407.25
433.91	463.43
434.10	449.38
434.28	428.32
434.47	386.19
434.66	388.53
434.85	411.93
435.03	433.00
435.22	447.04
435.41	461.09
435.59	414.27
435.78	367.46
435.97	390.87
436.16	341.72
436.34	449.38
436.53	468.11
436.72	374.49
436.90	454.06
437.09	486.83
437.28	360.44
437.46	454.06
437.65	468.11
437.84	440.02
438.02	402.57
438.21	388.53
438.40	402.57
438.58	381.51
438.77	440.02
438.96	440.02
439.14	386.19
439.33	430.66
439.52	479.81
439.70	383.85
439.89	395.55
440.08	454.06
440.26	381.51
440.45	386.19
440.63	479.81
440.82	421.30
441.01	465.77
441.19	421.30
441.38	440.02
441.57	414.27
441.75	379.17
441.94	489.17
442.12	442.36
442.31	306.61
442.50	400.23
442.68	428.32
442.87	435.34
443.05	418.96
443.24	444.70
443.43	433.00
443.61	503.22
443.80	369.80
443.98	358.10
444.17	400.23
444.35	423.64
444.54	337.04
444.73	348.74
444.91	442.36
445.10	442.36
445.28	404.91
445.47	388.53
445.65	456.40
445.84	423.64
446.02	376.83
446.21	416.62
446.39	322.99
446.58	383.85
446.77	348.74
446.95	407.25
447.14	341.72
447.32	418.96
447.51	320.65
447.69	411.93
447.88	372.15
448.06	440.02
448.25	477.47
448.43	404.91
448.62	353.42
448.80	477.47
448.99	430.66
449.17	407.25
449.36	447.04
449.54	388.53
449.73	402.57
449.91	407.25
450.10	388.53
450.28	444.70
450.46	372.15
450.65	463.43
450.83	395.55
451.02	360.44
451.20	440.02
451.39	376.83
451.57	404.91
451.76	372.15
451.94	414.27
452.13	528.96
452.31	407.25
452.49	411.93
452.68	365.12
452.86	379.17
453.05	449.38
453.23	330.02
453.42	449.38
453.60	409.59
453.78	498.53
453.97	355.76
454.15	428.32
454.34	376.83
454.52	383.85
454.70	442.36
454.89	433.00
455.07	395.55
455.26	421.30
455.44	449.38
455.62	465.77
455.81	390.87
455.99	388.53
456.17	383.85
456.36	393.21
456.54	456.40
456.73	358.10
456.91	372.15
457.09	383.85
457.28	479.81
457.46	425.98
457.64	390.87
457.83	407.25
458.01	383.85
458.19	465.77
458.38	458.74
458.56	404.91
458.74	393.21
458.93	404.91
459.11	383.85
459.29	400.23
459.48	367.46
459.66	458.74
459.84	447.04
460.03	458.74
460.21	477.47
460.39	425.98
460.57	461.09
460.76	372.15
460.94	400.23
461.12	491.51
461.31	393.21
461.49	353.42
461.67	433.00
461.85	416.62
462.04	318.31
462.22	833.23
462.40	533.64
462.59	416.62
462.77	341.72
462.95	404.91
463.13	390.87
463.32	404.91
463.50	470.45
463.68	444.70
463.86	411.93
464.05	351.08
464.23	365.12
464.41	421.30
464.59	409.59
464.78	390.87
464.96	456.40
465.14	376.83
465.32	414.27
465.50	425.98
465.69	425.98
465.87	461.09
466.05	381.51
466.23	411.93
466.41	402.57
466.60	458.74
466.78	430.66
466.96	395.55
467.14	416.62
467.32	430.66
467.51	414.27
467.69	454.06
467.87	440.02
468.05	411.93
468.23	477.47
468.41	367.46
468.60	402.57
468.78	383.85
468.96	493.85
469.14	390.87
469.32	386.19
469.50	327.68
469.69	442.36
469.87	430.66
470.05	425.98
470.23	362.78
470.41	444.70
470.59	388.53
470.77	442.36
470.95	430.66
471.14	393.21
471.32	337.04
471.50	440.02
471.68	362.78
471.86	369.80
472.04	348.74
472.22	362.78
472.40	411.93
472.58	400.23
472.77	430.66
472.95	393.21
473.13	414.27
473.31	458.74
473.49	376.83
473.67	341.72
473.85	449.38
474.03	365.12
474.21	374.49
474.39	428.32
474.57	423.64
474.75	379.17
474.93	402.57
475.12	409.59
475.30	395.55
475.48	400.23
475.66	402.57
475.84	404.91
476.02	388.53
476.20	442.36
476.38	390.87
476.56	442.36
476.74	369.80
476.92	388.53
477.10	428.32
477.28	421.30
477.46	369.80
477.64	472.79
477.82	351.08
478.00	430.66
478.18	409.59
478.36	390.87
478.54	313.63
478.72	409.59
478.90	390.87
479.08	440.02
479.26	435.34
479.44	449.38
479.62	416.62
479.80	376.83
479.98	425.98
480.16	381.51
480.34	461.09
480.52	449.38
480.70	447.04
480.88	416.62
481.06	400.23
481.24	458.74
481.41	409.59
481.59	411.93
481.77	468.11
481.95	472.79
482.13	365.12
482.31	341.72
482.49	376.83
482.67	444.70
482.85	465.77
483.03	458.74
483.21	348.74
483.39	423.64
483.57	442.36
483.74	404.91
483.92	390.87
484.10	369.80
484.28	393.21
484.46	451.72
484.64	367.46
484.82	362.78
485.00	451.72
485.18	400.23
485.35	423.64
485.53	440.02
485.71	425.98
485.89	425.98
486.07	306.61
486.25	454.06
486.43	463.43
486.61	498.53
486.78	374.49
486.96	383.85
487.14	402.57
487.32	395.55
487.50	414.27
487.68	416.62
487.85	397.89
488.03	430.66
488.21	409.59
488.39	397.89
488.57	374.49
488.75	383.85
488.92	472.79
489.10	444.70
489.28	449.38
489.46	428.32
489.64	435.34
489.81	402.57
489.99	435.34
490.17	493.85
490.35	449.38
490.53	407.25
490.70	388.53
490.88	454.06
491.06	430.66
491.24	428.32
491.41	404.91
491.59	395.55
491.77	374.49
491.95	395.55
492.13	386.19
492.30	383.85
492.48	372.15
492.66	472.79
492.84	458.74
493.01	449.38
493.19	421.30
493.37	425.98
493.54	440.02
493.72	449.38
493.90	390.87
494.08	428.32
494.25	414.27
494.43	454.06
494.61	463.43
494.79	355.76
494.96	369.80
495.14	409.59
495.32	425.98
495.49	430.66
495.67	416.62
495.85	430.66
496.02	393.21
496.20	437.68
496.38	404.91
496.55	402.57
496.73	386.19
496.91	411.93
497.09	463.43
497.26	379.17
497.44	449.38
497.62	388.53
497.79	372.15
497.97	369.80
498.14	430.66
498.32	416.62
498.50	421.30
498.67	440.02
498.85	428.32
499.03	362.78
499.20	395.55
499.38	379.17
499.56	383.85
499.73	444.70
499.91	351.08
500.08	402.57
500.26	409.59
500.44	428.32
500.61	407.25
500.79	440.02
500.97	477.47
501.14	442.36
501.32	339.38
501.49	451.72
501.67	397.89
501.84	414.27
502.02	393.21
502.20	447.04
502.37	379.17
502.55	414.27
502.72	379.17
502.90	442.36
503.07	444.70
503.25	430.66
503.43	294.91
503.60	421.30
503.78	367.46
503.95	397.89
504.13	374.49
504.30	486.83
504.48	491.51
504.65	444.70
504.83	477.47
505.01	440.02
505.18	393.21
505.36	416.62
505.53	409.59
505.71	428.32
505.88	440.02
506.06	416.62
506.23	458.74
506.41	433.00
506.58	376.83
506.76	437.68
506.93	423.64
507.11	437.68
507.28	365.12
507.46	428.32
507.63	402.57
507.81	379.17
507.98	390.87
508.16	449.38
508.33	433.00
508.50	411.93
508.68	423.64
508.85	421.30
509.03	351.08
509.20	414.27
509.38	430.66
509.55	456.40
509.73	421.30
509.90	437.68
510.08	404.91
510.25	475.13
510.42	358.10
510.60	315.97
510.77	440.02
510.95	458.74
511.12	402.57
511.30	423.64
511.47	433.00
511.64	397.89
511.82	407.25
511.99	407.25
512.17	430.66
512.34	451.72
512.51	461.09
512.69	374.49
512.86	400.23
513.04	477.47
513.21	425.98
513.38	381.51
513.56	489.17
513.73	360.44
513.90	402.57
514.08	390.87
514.25	414.27
514.43	418.96
514.60	468.11
514.77	463.43
514.95	404.91
515.12	496.19
515.29	433.00
515.47	397.89
515.64	425.98
515.81	463.43
515.99	456.40
516.16	374.49
516.33	344.06
516.51	421.30
516.68	395.55
516.85	411.93
517.03	414.27
517.20	418.96
517.37	388.53
517.54	449.38
517.72	437.68
517.89	411.93
518.06	365.12
518.24	397.89
518.41	440.02
518.58	433.00
518.75	346.40
518.93	374.49
519.10	390.87
519.27	404.91
519.45	374.49
519.62	393.21
519.79	437.68
519.96	400.23
520.14	425.98
520.31	428.32
520.48	442.36
520.65	428.32
520.83	479.81
521.00	411.93
521.17	411.93
521.34	374.49
521.52	465.77
521.69	454.06
521.86	414.27
522.03	423.64
522.20	416.62
522.38	393.21
522.55	404.91
522.72	411.93
522.89	456.40
523.07	449.38
523.24	383.85
523.41	402.57
523.58	400.23
523.75	409.59
523.92	437.68
524.10	482.15
524.27	440.02
524.44	414.27
524.61	407.25
524.78	425.98
524.96	388.53
525.13	376.83
525.30	465.77
525.47	390.87
525.64	379.17
525.81	404.91
525.98	411.93
526.16	435.34
526.33	437.68
526.50	435.34
526.67	411.93
526.84	390.87
527.01	386.19
527.18	454.06
527.36	447.04
527.53	404.91
527.70	461.09
527.87	409.59
528.04	404.91
528.21	416.62
528.38	463.43
528.55	430.66
528.72	414.27
528.89	491.51
529.07	386.19
529.24	409.59
529.41	458.74
529.58	383.85
529.75	442.36
529.92	404.91
530.09	379.17
530.26	402.57
530.43	430.66
530.60	360.44
530.77	435.34
530.94	365.12
531.11	477.47
531.28	465.77
531.46	386.19
531.63	353.42
531.80	435.34
531.97	416.62
532.14	491.51
532.31	425.98
532.48	447.04
532.65	407.25
532.82	421.30
532.99	407.25
533.16	374.49
533.33	381.51
533.50	369.80
533.67	388.53
533.84	393.21
534.01	465.77
534.18	381.51
534.35	320.65
534.52	411.93
534.69	411.93
534.86	395.55
535.03	411.93
535.20	372.15
535.37	386.19
535.54	390.87
535.71	390.87
535.88	465.77
536.05	463.43
536.22	393.21
536.38	367.46
536.55	437.68
536.72	458.74
536.89	369.80
537.06	369.80
537.23	388.53
537.40	442.36
537.57	388.53
537.74	470.45
537.91	395.55
538.08	381.51
538.25	449.38
538.42	353.42
538.59	430.66
538.75	411.93
538.92	346.40
539.09	437.68
539.26	376.83
539.43	458.74
539.60	491.51
539.77	390.87
539.94	430.66
540.11	433.00
540.28	440.02
540.44	365.12
540.61	374.49
540.78	369.80
540.95	390.87
541.12	404.91
541.29	400.23
541.46	449.38
541.62	430.66
541.79	454.06
541.96	440.02
542.13	414.27
542.30	332.36
542.47	449.38
542.63	428.32
542.80	379.17
542.97	411.93
543.14	409.59
543.31	491.51
543.48	465.77
543.64	463.43
543.81	386.19
543.98	437.68
544.15	430.66
544.32	421.30
544.48	355.76
544.65	440.02
544.82	348.74
544.99	435.34
545.16	465.77
545.32	418.96
545.49	458.74
545.66	461.09
545.83	358.10
546.00	395.55
546.16	472.79
546.33	383.85
546.50	447.04
546.67	482.15
546.83	376.83
547.00	416.62
547.17	393.21
547.34	393.21
547.50	449.38
547.67	444.70
547.84	393.21
548.00	491.51
548.17	308.95
548.34	400.23
548.51	407.25
548.67	489.17
548.84	411.93
549.01	447.04
549.18	386.19
549.34	465.77
549.51	482.15
549.68	369.80
549.84	400.23
550.01	386.19
550.18	444.70
550.34	484.49
550.51	461.09
550.68	468.11
550.84	451.72
551.01	397.89
551.18	526.62
551.34	479.81
551.51	421.30
551.68	421.30
551.84	437.68
552.01	337.04
552.18	376.83
552.34	409.59
552.51	395.55
552.68	428.32
552.84	440.02
553.01	407.25
553.18	475.13
553.34	461.09
553.51	388.53
553.67	484.49
553.84	407.25
554.01	454.06
554.17	465.77
554.34	470.45
554.51	397.89
554.67	496.19
554.84	381.51
555.00	362.78
555.17	390.87
555.33	409.59
555.50	435.34
555.67	414.27
555.83	397.89
556.00	402.57
556.16	463.43
556.33	468.11
556.50	348.74
556.66	468.11
556.83	442.36
556.99	433.00
557.16	395.55
557.32	433.00
557.49	461.09
557.65	447.04
557.82	451.72
557.98	416.62
558.15	430.66
558.32	477.47
558.48	491.51
558.65	430.66
558.81	409.59
558.98	461.09
559.14	428.32
559.31	416.62
559.47	397.89
559.64	395.55
559.80	360.44
559.97	362.78
560.13	418.96
560.30	493.85
560.46	348.74
560.63	496.19
560.79	404.91
560.96	477.47
561.12	395.55
561.29	372.15
561.45	440.02
561.61	505.56
561.78	477.47
561.94	498.53
562.11	411.93
562.27	482.15
562.44	433.00
562.60	386.19
562.77	444.70
562.93	433.00
563.10	449.38
563.26	407.25
563.42	444.70
563.59	435.34
563.75	423.64
563.92	425.98
564.08	430.66
564.24	409.59
564.41	447.04
564.57	414.27
564.74	414.27
564.90	397.89
565.07	447.04
565.23	351.08
565.39	428.32
565.56	477.47
565.72	362.78
565.88	454.06
566.05	407.25
566.21	442.36
566.38	421.30
566.54	404.91
566.70	428.32
566.87	421.30
567.03	402.57
567.19	369.80
567.36	404.91
567.52	400.23
567.68	407.25
567.85	393.21
568.01	414.27
568.17	418.96
568.34	447.04
568.50	472.79
568.66	461.09
568.83	470.45
568.99	308.95
569.15	458.74
569.32	437.68
569.48	416.62
569.64	395.55
569.81	454.06
569.97	472.79
570.13	425.98
570.30	430.66
570.46	383.85
570.62	458.74
570.78	383.85
570.95	400.23
571.11	468.11
571.27	519.60
571.43	388.53
571.60	346.40
571.76	451.72
571.92	456.40
572.09	465.77
572.25	383.85
572.41	407.25
572.57	372.15
572.74	470.45
572.90	423.64
573.06	423.64
573.22	421.30
573.38	437.68
573.55	400.23
573.71	402.57
573.87	409.59
574.03	486.83
574.20	409.59
574.36	540.66
574.52	367.46
574.68	421.30
574.84	390.87
575.01	374.49
575.17	465.77
575.33	416.62
575.49	458.74
575.65	407.25
575.82	444.70
575.98	449.38
576.14	475.13
576.30	402.57
576.46	386.19
576.62	388.53
576.79	428.32
576.95	479.81
577.11	416.62
577.27	468.11
577.43	507.90
577.59	425.98
577.75	463.43
577.92	404.91
578.08	334.70
578.24	397.89
578.40	421.30
578.56	418.96
578.72	498.53
578.88	470.45
579.04	346.40
579.21	472.79
579.37	477.47
579.53	393.21
579.69	468.11
579.85	433.00
580.01	468.11
580.17	397.89
580.33	407.25
580.49	381.51
580.65	411.93
580.82	484.49
580.98	344.06
581.14	407.25
581.30	456.40
581.46	388.53
581.62	465.77
581.78	386.19
581.94	379.17
582.10	437.68
582.26	395.55
582.42	379.17
582.58	411.93
582.74	496.19
582.90	409.59
583.06	344.06
583.22	463.43
583.38	369.80
583.54	423.64
583.70	369.80
583.86	484.49
584.02	374.49
584.18	430.66
584.34	369.80
584.50	344.06
584.66	433.00
584.82	428.32
584.98	421.30
585.14	425.98
585.30	418.96
585.46	404.91
585.62	442.36
585.78	472.79
585.94	472.79
586.10	365.12
586.26	414.27
586.42	484.49
586.58	407.25
586.74	386.19
586.90	444.70
587.06	423.64
587.22	489.17
587.38	416.62
587.54	418.96
587.70	430.66
587.86	493.85
588.02	451.72
588.18	411.93
588.34	449.38
588.49	437.68
588.65	428.32
588.81	362.78
588.97	440.02
589.13	402.57
589.29	386.19
589.45	465.77
589.61	463.43
589.77	472.79
589.93	353.42
590.08	428.32
590.24	395.55
590.40	400.23
590.56	416.62
590.72	425.98
590.88	376.83
591.04	425.98
591.20	423.64
591.35	437.68
591.51	367.46
591.67	397.89
591.83	374.49
591.99	454.06
592.15	496.19
592.31	374.49
592.46	383.85
592.62	440.02
592.78	395.55
592.94	418.96
593.10	351.08
593.26	437.68
593.41	468.11
593.57	430.66
593.73	428.32
593.89	449.38
594.05	461.09
594.20	327.68
594.36	461.09
594.52	433.00
594.68	390.87
594.84	414.27
594.99	400.23
595.15	468.11
595.31	400.23
595.47	477.47
595.62	383.85
595.78	444.70
595.94	411.93
596.10	442.36
596.25	451.72
596.41	421.30
596.57	383.85
596.73	369.80
596.88	395.55
597.04	454.06
597.20	421.30
597.36	514.92
597.51	428.32
597.67	388.53
597.83	402.57
597.99	475.13
598.14	479.81
598.30	433.00
598.46	435.34
598.61	440.02
598.77	440.02
598.93	362.78
599.09	451.72
599.24	449.38
599.40	470.45
599.56	423.64
599.71	440.02
599.87	449.38
600.03	397.89
600.18	489.17
600.34	407.25
600.50	423.64
600.65	447.04
600.81	461.09
600.97	442.36
601.12	428.32
601.28	468.11
601.44	433.00
601.59	423.64
601.75	428.32
601.91	416.62
602.06	425.98
602.22	463.43
602.37	433.00
602.53	437.68
602.69	376.83
602.84	402.57
603.00	386.19
603.16	475.13
603.31	418.96
603.47	463.43
603.62	447.04
603.78	381.51
603.94	402.57
604.09	437.68
604.25	440.02
604.40	407.25
604.56	386.19
604.71	458.74
604.87	397.89
605.03	386.19
605.18	355.76
605.34	411.93
605.49	390.87
605.65	376.83
605.80	376.83
605.96	472.79
606.12	393.21
606.27	360.44
606.43	402.57
606.58	463.43
606.74	472.79
606.89	411.93
607.05	472.79
607.20	428.32
607.36	397.89
607.51	383.85
607.67	479.81
607.82	449.38
607.98	449.38
608.13	428.32
608.29	409.59
608.44	451.72
608.60	451.72
608.75	407.25
608.91	482.15
609.06	414.27
609.22	477.47
609.37	442.36
609.53	423.64
609.68	482.15
609.84	425.98
609.99	440.02
610.15	479.81
