SpectraSuite Data File
++++++++++++++++++++++++++++++++++++
Date: Fri Oct 25 12:10:56 EDT 2013
User: price-jones
Dark Spectrum Present: No
Reference Spectrum Present: No
Number of Sampled Component Spectra: 1
Spectrometers: USB2+H05261
Integration Time (usec): 100000 (USB2+H05261)
Spectra Averaged: 1 (USB2+H05261)
Boxcar Smoothing: 0 (USB2+H05261)
Correct for Electrical Dark: No (USB2+H05261)
Strobe/Lamp Enabled: No (USB2+H05261)
Correct for Detector Non-linearity: No (USB2+H05261)
Correct for Stray Light: No (USB2+H05261)
Number of Pixels in Processed Spectrum: 2048
>>>>>Begin Processed Spectral Data<<<<<
365.73	360.44
365.92	360.44
366.12	360.44
366.32	299.59
366.52	262.14
366.72	283.20
366.91	224.69
367.11	280.86
367.31	266.82
367.51	280.86
367.70	224.69
367.90	227.03
368.10	220.01
368.30	325.33
368.49	229.37
368.69	299.59
368.89	365.12
369.09	222.35
369.28	278.52
369.48	259.80
369.68	259.80
369.87	374.49
370.07	313.63
370.27	308.95
370.47	313.63
370.66	355.76
370.86	353.42
371.06	376.83
371.25	365.12
371.45	285.55
371.65	353.42
371.84	383.85
372.04	390.87
372.24	383.85
372.44	360.44
372.63	393.21
372.83	400.23
373.03	397.89
373.22	360.44
373.42	414.27
373.62	372.15
373.81	400.23
374.01	386.19
374.21	372.15
374.40	442.36
374.60	369.80
374.79	390.87
374.99	397.89
375.19	393.21
375.38	430.66
375.58	421.30
375.78	442.36
375.97	430.66
376.17	475.13
376.37	498.53
376.56	465.77
376.76	388.53
376.95	409.59
377.15	395.55
377.35	418.96
377.54	430.66
377.74	369.80
377.93	409.59
378.13	395.55
378.33	428.32
378.52	411.93
378.72	402.57
378.91	442.36
379.11	447.04
379.31	337.04
379.50	447.04
379.70	437.68
379.89	421.30
380.09	411.93
380.28	379.17
380.48	402.57
380.68	374.49
380.87	442.36
381.07	421.30
381.26	463.43
381.46	421.30
381.65	423.64
381.85	449.38
382.04	447.04
382.24	374.49
382.43	407.25
382.63	430.66
382.83	440.02
383.02	409.59
383.22	472.79
383.41	435.34
383.61	395.55
383.80	517.26
384.00	475.13
384.19	393.21
384.39	423.64
384.58	458.74
384.78	416.62
384.97	437.68
385.17	425.98
385.36	383.85
385.56	386.19
385.75	339.38
385.95	510.24
386.14	393.21
386.34	344.06
386.53	416.62
386.72	400.23
386.92	496.19
387.11	386.19
387.31	461.09
387.50	322.99
387.70	355.76
387.89	444.70
388.09	416.62
388.28	362.78
388.48	360.44
388.67	365.12
388.86	451.72
389.06	376.83
389.25	381.51
389.45	397.89
389.64	360.44
389.84	395.55
390.03	376.83
390.22	383.85
390.42	475.13
390.61	414.27
390.81	400.23
391.00	341.72
391.19	458.74
391.39	477.47
391.58	402.57
391.78	376.83
391.97	369.80
392.16	402.57
392.36	376.83
392.55	414.27
392.75	465.77
392.94	381.51
393.13	442.36
393.33	365.12
393.52	306.61
393.71	325.33
393.91	367.46
394.10	388.53
394.29	416.62
394.49	428.32
394.68	388.53
394.88	362.78
395.07	418.96
395.26	423.64
395.46	433.00
395.65	367.46
395.84	414.27
396.04	386.19
396.23	374.49
396.42	421.30
396.62	435.34
396.81	393.21
397.00	397.89
397.19	421.30
397.39	397.89
397.58	421.30
397.77	383.85
397.97	400.23
398.16	383.85
398.35	411.93
398.55	409.59
398.74	388.53
398.93	454.06
399.12	421.30
399.32	514.92
399.51	440.02
399.70	376.83
399.90	383.85
400.09	379.17
400.28	416.62
400.47	414.27
400.67	500.87
400.86	449.38
401.05	454.06
401.24	374.49
401.44	374.49
401.63	454.06
401.82	470.45
402.01	477.47
402.21	418.96
402.40	461.09
402.59	409.59
402.78	365.12
402.97	390.87
403.17	353.42
403.36	416.62
403.55	388.53
403.74	437.68
403.93	442.36
404.13	449.38
404.32	407.25
404.51	351.08
404.70	435.34
404.89	437.68
405.09	430.66
405.28	423.64
405.47	367.46
405.66	430.66
405.85	517.26
406.05	348.74
406.24	365.12
406.43	418.96
406.62	400.23
406.81	472.79
407.00	491.51
407.20	365.12
407.39	379.17
407.58	447.04
407.77	353.42
407.96	447.04
408.15	369.80
408.34	404.91
408.54	341.72
408.73	390.87
408.92	383.85
409.11	500.87
409.30	435.34
409.49	381.51
409.68	411.93
409.87	411.93
410.07	416.62
410.26	402.57
410.45	416.62
410.64	365.12
410.83	339.38
411.02	386.19
411.21	428.32
411.40	393.21
411.59	379.17
411.78	411.93
411.98	442.36
412.17	365.12
412.36	456.40
412.55	376.83
412.74	461.09
412.93	425.98
413.12	400.23
413.31	423.64
413.50	416.62
413.69	435.34
413.88	367.46
414.07	400.23
414.26	430.66
414.45	465.77
414.64	454.06
414.83	472.79
415.02	418.96
415.22	444.70
415.41	362.78
415.60	383.85
415.79	491.51
415.98	428.32
416.17	376.83
416.36	390.87
416.55	341.72
416.74	428.32
416.93	430.66
417.12	416.62
417.31	430.66
417.50	334.70
417.69	456.40
417.88	468.11
418.07	348.74
418.26	365.12
418.45	395.55
418.64	442.36
418.83	404.91
419.02	449.38
419.21	421.30
419.39	411.93
419.58	360.44
419.77	404.91
419.96	440.02
420.15	320.65
420.34	416.62
420.53	428.32
420.72	416.62
420.91	388.53
421.10	414.27
421.29	407.25
421.48	447.04
421.67	383.85
421.86	374.49
422.05	425.98
422.24	334.70
422.43	444.70
422.61	458.74
422.80	402.57
422.99	339.38
423.18	351.08
423.37	388.53
423.56	447.04
423.75	440.02
423.94	327.68
424.13	433.00
424.32	390.87
424.50	414.27
424.69	407.25
424.88	447.04
425.07	390.87
425.26	386.19
425.45	383.85
425.64	428.32
425.83	458.74
426.01	430.66
426.20	421.30
426.39	440.02
426.58	421.30
426.77	365.12
426.96	428.32
427.15	423.64
427.33	390.87
427.52	358.10
427.71	444.70
427.90	388.53
428.09	381.51
428.28	425.98
428.46	428.32
428.65	414.27
428.84	404.91
429.03	376.83
429.22	447.04
429.40	362.78
429.59	390.87
429.78	442.36
429.97	463.43
430.16	425.98
430.34	498.53
430.53	451.72
430.72	393.21
430.91	433.00
431.10	376.83
431.28	311.29
431.47	442.36
431.66	397.89
431.85	376.83
432.03	444.70
432.22	447.04
432.41	465.77
432.60	418.96
432.79	388.53
432.97	367.46
433.16	458.74
433.35	402.57
433.54	397.89
433.72	425.98
433.91	390.87
434.10	358.10
434.28	521.94
434.47	454.06
434.66	397.89
434.85	414.27
435.03	400.23
435.22	507.90
435.41	414.27
435.59	447.04
435.78	444.70
435.97	433.00
436.16	407.25
436.34	400.23
436.53	411.93
436.72	418.96
436.90	362.78
437.09	390.87
437.28	397.89
437.46	383.85
437.65	402.57
437.84	461.09
438.02	491.51
438.21	442.36
438.40	451.72
438.58	325.33
438.77	388.53
438.96	383.85
439.14	414.27
439.33	423.64
439.52	411.93
439.70	447.04
439.89	440.02
440.08	482.15
440.26	374.49
440.45	421.30
440.63	362.78
440.82	369.80
441.01	400.23
441.19	435.34
441.38	411.93
441.57	346.40
441.75	379.17
441.94	461.09
442.12	374.49
442.31	433.00
442.50	444.70
442.68	404.91
442.87	421.30
443.05	402.57
443.24	409.59
443.43	374.49
443.61	381.51
443.80	374.49
443.98	421.30
444.17	475.13
444.35	423.64
444.54	449.38
444.73	301.93
444.91	404.91
445.10	428.32
445.28	472.79
445.47	428.32
445.65	430.66
445.84	407.25
446.02	437.68
446.21	358.10
446.39	463.43
446.58	540.66
446.77	475.13
446.95	430.66
447.14	440.02
447.32	404.91
447.51	418.96
447.69	379.17
447.88	414.27
448.06	437.68
448.25	320.65
448.43	454.06
448.62	423.64
448.80	425.98
448.99	423.64
449.17	374.49
449.36	423.64
449.54	461.09
449.73	386.19
449.91	388.53
450.10	379.17
450.28	381.51
450.46	440.02
450.65	388.53
450.83	367.46
451.02	386.19
451.20	428.32
451.39	322.99
451.57	379.17
451.76	519.60
451.94	444.70
452.13	437.68
452.31	411.93
452.49	437.68
452.68	407.25
452.86	372.15
453.05	482.15
453.23	418.96
453.42	351.08
453.60	433.00
453.78	379.17
453.97	395.55
454.15	379.17
454.34	482.15
454.52	407.25
454.70	472.79
454.89	362.78
455.07	423.64
455.26	454.06
455.44	423.64
455.62	386.19
455.81	444.70
455.99	468.11
456.17	451.72
456.36	479.81
456.54	404.91
456.73	395.55
456.91	341.72
457.09	418.96
457.28	421.30
457.46	397.89
457.64	423.64
457.83	400.23
458.01	421.30
458.19	433.00
458.38	353.42
458.56	468.11
458.74	486.83
458.93	461.09
459.11	447.04
459.29	409.59
459.48	421.30
459.66	425.98
459.84	463.43
460.03	465.77
460.21	423.64
460.39	465.77
460.57	339.38
460.76	461.09
460.94	381.51
461.12	428.32
461.31	440.02
461.49	386.19
461.67	489.17
461.85	418.96
462.04	376.83
462.22	702.16
462.40	449.38
462.59	472.79
462.77	411.93
462.95	388.53
463.13	416.62
463.32	470.45
463.50	465.77
463.68	479.81
463.86	451.72
464.05	395.55
464.23	500.87
464.41	416.62
464.59	454.06
464.78	425.98
464.96	388.53
465.14	393.21
465.32	465.77
465.50	355.76
465.69	440.02
465.87	423.64
466.05	414.27
466.23	449.38
466.41	479.81
466.60	397.89
466.78	454.06
466.96	383.85
467.14	444.70
467.32	348.74
467.51	404.91
467.69	414.27
467.87	465.77
468.05	416.62
468.23	470.45
468.41	465.77
468.60	433.00
468.78	404.91
468.96	423.64
469.14	449.38
469.32	407.25
469.50	390.87
469.69	430.66
469.87	421.30
470.05	407.25
470.23	482.15
470.41	400.23
470.59	395.55
470.77	381.51
470.95	500.87
471.14	418.96
471.32	381.51
471.50	484.49
471.68	454.06
471.86	381.51
472.04	442.36
472.22	411.93
472.40	444.70
472.58	447.04
472.77	390.87
472.95	360.44
473.13	418.96
473.31	421.30
473.49	379.17
473.67	409.59
473.85	437.68
474.03	388.53
474.21	337.04
474.39	461.09
474.57	404.91
474.75	351.08
474.93	383.85
475.12	395.55
475.30	433.00
475.48	409.59
475.66	372.15
475.84	376.83
476.02	337.04
476.20	390.87
476.38	461.09
476.56	454.06
476.74	395.55
476.92	358.10
477.10	477.47
477.28	372.15
477.46	395.55
477.64	430.66
477.82	425.98
478.00	456.40
478.18	386.19
478.36	442.36
478.54	435.34
478.72	393.21
478.90	416.62
479.08	451.72
479.26	430.66
479.44	404.91
479.62	416.62
479.80	388.53
479.98	360.44
480.16	376.83
480.34	512.58
480.52	411.93
480.70	348.74
480.88	353.42
481.06	390.87
481.24	451.72
481.41	430.66
481.59	360.44
481.77	472.79
481.95	381.51
482.13	461.09
482.31	451.72
482.49	442.36
482.67	447.04
482.85	489.17
483.03	414.27
483.21	388.53
483.39	414.27
483.57	433.00
483.74	409.59
483.92	414.27
484.10	393.21
484.28	489.17
484.46	454.06
484.64	442.36
484.82	425.98
485.00	374.49
485.18	425.98
485.35	433.00
485.53	416.62
485.71	421.30
485.89	414.27
486.07	475.13
486.25	454.06
486.43	381.51
486.61	451.72
486.78	458.74
486.96	454.06
487.14	425.98
487.32	461.09
487.50	369.80
487.68	379.17
487.85	440.02
488.03	435.34
488.21	430.66
488.39	437.68
488.57	423.64
488.75	397.89
488.92	456.40
489.10	400.23
489.28	533.64
489.46	390.87
489.64	409.59
489.81	381.51
489.99	425.98
490.17	395.55
490.35	468.11
490.53	411.93
490.70	390.87
490.88	433.00
491.06	425.98
491.24	365.12
491.41	395.55
491.59	475.13
491.77	393.21
491.95	411.93
492.13	428.32
492.30	414.27
492.48	430.66
492.66	374.49
492.84	440.02
493.01	383.85
493.19	465.77
493.37	404.91
493.54	447.04
493.72	395.55
493.90	365.12
494.08	388.53
494.25	386.19
494.43	374.49
494.61	442.36
494.79	360.44
494.96	482.15
495.14	409.59
495.32	379.17
495.49	444.70
495.67	430.66
495.85	400.23
496.02	433.00
496.20	482.15
496.38	447.04
496.55	437.68
496.73	425.98
496.91	388.53
497.09	393.21
497.26	322.99
497.44	404.91
497.62	390.87
497.79	372.15
497.97	503.22
498.14	407.25
498.32	400.23
498.50	390.87
498.67	493.85
498.85	421.30
499.03	451.72
499.20	425.98
499.38	397.89
499.56	475.13
499.73	461.09
499.91	421.30
500.08	545.34
500.26	477.47
500.44	402.57
500.61	433.00
500.79	390.87
500.97	379.17
501.14	414.27
501.32	468.11
501.49	458.74
501.67	491.51
501.84	442.36
502.02	423.64
502.20	458.74
502.37	430.66
502.55	421.30
502.72	330.02
502.90	430.66
503.07	428.32
503.25	416.62
503.43	409.59
503.60	421.30
503.78	442.36
503.95	407.25
504.13	379.17
504.30	454.06
504.48	451.72
504.65	433.00
504.83	425.98
505.01	386.19
505.18	411.93
505.36	376.83
505.53	372.15
505.71	358.10
505.88	435.34
506.06	409.59
506.23	430.66
506.41	447.04
506.58	423.64
506.76	428.32
506.93	411.93
507.11	435.34
507.28	355.76
507.46	428.32
507.63	433.00
507.81	369.80
507.98	465.77
508.16	500.87
508.33	433.00
508.50	428.32
508.68	454.06
508.85	461.09
509.03	475.13
509.20	402.57
509.38	451.72
509.55	465.77
509.73	400.23
509.90	444.70
510.08	374.49
510.25	442.36
510.42	416.62
510.60	355.76
510.77	404.91
510.95	472.79
511.12	435.34
511.30	442.36
511.47	418.96
511.64	496.19
511.82	355.76
511.99	355.76
512.17	346.40
512.34	367.46
512.51	414.27
512.69	327.68
512.86	489.17
513.04	400.23
513.21	416.62
513.38	351.08
513.56	461.09
513.73	411.93
513.90	456.40
514.08	409.59
514.25	451.72
514.43	416.62
514.60	402.57
514.77	451.72
514.95	416.62
515.12	440.02
515.29	451.72
515.47	411.93
515.64	395.55
515.81	358.10
515.99	461.09
516.16	477.47
516.33	449.38
516.51	351.08
516.68	423.64
516.85	376.83
517.03	433.00
517.20	465.77
517.37	512.58
517.54	402.57
517.72	383.85
517.89	407.25
518.06	393.21
518.24	416.62
518.41	433.00
518.58	393.21
518.75	369.80
518.93	400.23
519.10	379.17
519.27	404.91
519.45	451.72
519.62	454.06
519.79	449.38
519.96	397.89
520.14	376.83
520.31	437.68
520.48	369.80
520.65	491.51
520.83	393.21
521.00	451.72
521.17	430.66
521.34	407.25
521.52	379.17
521.69	449.38
521.86	430.66
522.03	444.70
522.20	461.09
522.38	383.85
522.55	376.83
522.72	395.55
522.89	454.06
523.07	458.74
523.24	330.02
523.41	318.31
523.58	428.32
523.75	404.91
523.92	430.66
524.10	477.47
524.27	395.55
524.44	442.36
524.61	435.34
524.78	407.25
524.96	458.74
525.13	411.93
525.30	416.62
525.47	423.64
525.64	372.15
525.81	416.62
525.98	437.68
526.16	404.91
526.33	440.02
526.50	372.15
526.67	386.19
526.84	400.23
527.01	416.62
527.18	351.08
527.36	461.09
527.53	444.70
527.70	477.47
527.87	454.06
528.04	414.27
528.21	390.87
528.38	458.74
528.55	430.66
528.72	397.89
528.89	430.66
529.07	456.40
529.24	379.17
529.41	461.09
529.58	411.93
529.75	395.55
529.92	447.04
530.09	468.11
530.26	435.34
530.43	423.64
530.60	456.40
530.77	451.72
530.94	423.64
531.11	449.38
531.28	416.62
531.46	374.49
531.63	381.51
531.80	351.08
531.97	407.25
532.14	362.78
532.31	381.51
532.48	440.02
532.65	404.91
532.82	461.09
532.99	421.30
533.16	414.27
533.33	379.17
533.50	421.30
533.67	386.19
533.84	351.08
534.01	418.96
534.18	372.15
534.35	465.77
534.52	430.66
534.69	430.66
534.86	440.02
535.03	451.72
535.20	365.12
535.37	393.21
535.54	367.46
535.71	444.70
535.88	433.00
536.05	425.98
536.22	442.36
536.38	447.04
536.55	524.28
536.72	414.27
536.89	358.10
537.06	383.85
537.23	393.21
537.40	397.89
537.57	416.62
537.74	400.23
537.91	447.04
538.08	479.81
538.25	351.08
538.42	472.79
538.59	425.98
538.75	395.55
538.92	386.19
539.09	421.30
539.26	409.59
539.43	411.93
539.60	407.25
539.77	388.53
539.94	376.83
540.11	400.23
540.28	514.92
540.44	400.23
540.61	461.09
540.78	470.45
540.95	451.72
541.12	395.55
541.29	456.40
541.46	484.49
541.62	442.36
541.79	475.13
541.96	365.12
542.13	423.64
542.30	388.53
542.47	444.70
542.63	472.79
542.80	456.40
542.97	430.66
543.14	456.40
543.31	428.32
543.48	353.42
543.64	421.30
543.81	435.34
543.98	411.93
544.15	404.91
544.32	374.49
544.48	379.17
544.65	362.78
544.82	470.45
544.99	404.91
545.16	433.00
545.32	379.17
545.49	400.23
545.66	421.30
545.83	400.23
546.00	449.38
546.16	402.57
546.33	393.21
546.50	428.32
546.67	461.09
546.83	425.98
547.00	360.44
547.17	393.21
547.34	416.62
547.50	440.02
547.67	414.27
547.84	414.27
548.00	451.72
548.17	390.87
548.34	374.49
548.51	437.68
548.67	402.57
548.84	463.43
549.01	444.70
549.18	454.06
549.34	381.51
549.51	458.74
549.68	390.87
549.84	428.32
550.01	383.85
550.18	550.03
550.34	458.74
550.51	421.30
550.68	442.36
550.84	397.89
551.01	416.62
551.18	397.89
551.34	400.23
551.51	351.08
551.68	475.13
551.84	374.49
552.01	346.40
552.18	348.74
552.34	486.83
552.51	470.45
552.68	425.98
552.84	433.00
553.01	449.38
553.18	395.55
553.34	367.46
553.51	372.15
553.67	397.89
553.84	451.72
554.01	416.62
554.17	435.34
554.34	425.98
554.51	388.53
554.67	421.30
554.84	414.27
555.00	468.11
555.17	435.34
555.33	449.38
555.50	440.02
555.67	500.87
555.83	362.78
556.00	372.15
556.16	540.66
556.33	440.02
556.50	393.21
556.66	437.68
556.83	447.04
556.99	454.06
557.16	365.12
557.32	425.98
557.49	409.59
557.65	341.72
557.82	461.09
557.98	444.70
558.15	386.19
558.32	353.42
558.48	442.36
558.65	416.62
558.81	507.90
558.98	337.04
559.14	435.34
559.31	444.70
559.47	489.17
559.64	477.47
559.80	411.93
559.97	404.91
560.13	407.25
560.30	435.34
560.46	425.98
560.63	386.19
560.79	486.83
560.96	491.51
561.12	407.25
561.29	465.77
561.45	428.32
561.61	440.02
561.78	437.68
561.94	400.23
562.11	411.93
562.27	400.23
562.44	433.00
562.60	365.12
562.77	477.47
562.93	440.02
563.10	416.62
563.26	383.85
563.42	428.32
563.59	458.74
563.75	414.27
563.92	383.85
564.08	437.68
564.24	407.25
564.41	379.17
564.57	428.32
564.74	437.68
564.90	374.49
565.07	358.10
565.23	496.19
565.39	442.36
565.56	397.89
565.72	397.89
565.88	369.80
566.05	421.30
566.21	430.66
566.38	505.56
566.54	433.00
566.70	407.25
566.87	456.40
567.03	374.49
567.19	465.77
567.36	503.22
567.52	360.44
567.68	386.19
567.85	414.27
568.01	414.27
568.17	440.02
568.34	360.44
568.50	414.27
568.66	395.55
568.83	512.58
568.99	465.77
569.15	440.02
569.32	416.62
569.48	411.93
569.64	411.93
569.81	404.91
569.97	447.04
570.13	409.59
570.30	400.23
570.46	407.25
570.62	400.23
570.78	437.68
570.95	353.42
571.11	454.06
571.27	472.79
571.43	374.49
571.60	388.53
571.76	414.27
571.92	444.70
572.09	381.51
572.25	416.62
572.41	372.15
572.57	386.19
572.74	414.27
572.90	447.04
573.06	383.85
573.22	430.66
573.38	475.13
573.55	461.09
573.71	430.66
573.87	411.93
574.03	475.13
574.20	386.19
574.36	381.51
574.52	414.27
574.68	454.06
574.84	418.96
575.01	411.93
575.17	381.51
575.33	416.62
575.49	451.72
575.65	360.44
575.82	430.66
575.98	465.77
576.14	414.27
576.30	463.43
576.46	369.80
576.62	433.00
576.79	416.62
576.95	433.00
577.11	381.51
577.27	386.19
577.43	440.02
577.59	386.19
577.75	407.25
577.92	388.53
578.08	355.76
578.24	435.34
578.40	423.64
578.56	404.91
578.72	430.66
578.88	463.43
579.04	425.98
579.21	423.64
579.37	423.64
579.53	442.36
579.69	390.87
579.85	379.17
580.01	404.91
580.17	433.00
580.33	421.30
580.49	376.83
580.65	449.38
580.82	400.23
580.98	461.09
581.14	360.44
581.30	458.74
581.46	414.27
581.62	435.34
581.78	430.66
581.94	358.10
582.10	369.80
582.26	400.23
582.42	428.32
582.58	367.46
582.74	381.51
582.90	430.66
583.06	444.70
583.22	339.38
583.38	367.46
583.54	444.70
583.70	435.34
583.86	397.89
584.02	339.38
584.18	428.32
584.34	376.83
584.50	416.62
584.66	386.19
584.82	444.70
584.98	449.38
585.14	416.62
585.30	491.51
585.46	423.64
585.62	470.45
585.78	362.78
585.94	416.62
586.10	435.34
586.26	447.04
586.42	456.40
586.58	402.57
586.74	435.34
586.90	433.00
587.06	449.38
587.22	493.85
587.38	404.91
587.54	404.91
587.70	463.43
587.86	397.89
588.02	390.87
588.18	456.40
588.34	447.04
588.49	423.64
588.65	465.77
588.81	407.25
588.97	379.17
589.13	440.02
589.29	449.38
589.45	465.77
589.61	444.70
589.77	442.36
589.93	447.04
590.08	414.27
590.24	421.30
590.40	369.80
590.56	444.70
590.72	423.64
590.88	416.62
591.04	390.87
591.20	407.25
591.35	447.04
591.51	435.34
591.67	365.12
591.83	433.00
591.99	369.80
592.15	409.59
592.31	416.62
592.46	395.55
592.62	486.83
592.78	444.70
592.94	409.59
593.10	395.55
593.26	461.09
593.41	416.62
593.57	433.00
593.73	379.17
593.89	507.90
594.05	477.47
594.20	430.66
594.36	404.91
594.52	435.34
594.68	407.25
594.84	386.19
594.99	428.32
595.15	444.70
595.31	454.06
595.47	444.70
595.62	372.15
595.78	456.40
595.94	421.30
596.10	442.36
596.25	407.25
596.41	407.25
596.57	344.06
596.73	393.21
596.88	447.04
597.04	358.10
597.20	383.85
597.36	351.08
597.51	430.66
597.67	451.72
597.83	416.62
597.99	449.38
598.14	447.04
598.30	440.02
598.46	372.15
598.61	486.83
598.77	355.76
598.93	390.87
599.09	423.64
599.24	341.72
599.40	500.87
599.56	346.40
599.71	435.34
599.87	437.68
600.03	376.83
600.18	451.72
600.34	451.72
600.50	400.23
600.65	320.65
600.81	425.98
600.97	409.59
601.12	386.19
601.28	472.79
601.44	550.03
601.59	367.46
601.75	404.91
601.91	400.23
602.06	444.70
602.22	526.62
602.37	423.64
602.53	397.89
602.69	402.57
602.84	397.89
603.00	430.66
603.16	416.62
603.31	416.62
603.47	442.36
603.62	411.93
603.78	472.79
603.94	409.59
604.09	320.65
604.25	421.30
604.40	397.89
604.56	369.80
604.71	341.72
604.87	418.96
605.03	404.91
605.18	367.46
605.34	456.40
605.49	369.80
605.65	376.83
605.80	416.62
605.96	505.56
606.12	393.21
606.27	470.45
606.43	451.72
606.58	425.98
606.74	430.66
606.89	369.80
607.05	423.64
607.20	395.55
607.36	468.11
607.51	454.06
607.67	484.49
607.82	388.53
607.98	454.06
608.13	444.70
608.29	458.74
608.44	451.72
608.60	423.64
608.75	437.68
608.91	517.26
609.06	503.22
609.22	461.09
609.37	442.36
609.53	400.23
609.68	393.21
609.84	365.12
609.99	346.40
610.15	393.21
