SpectraSuite Data File
++++++++++++++++++++++++++++++++++++
Date: Fri Oct 25 12:11:00 EDT 2013
User: price-jones
Dark Spectrum Present: No
Reference Spectrum Present: No
Number of Sampled Component Spectra: 1
Spectrometers: USB2+H05261
Integration Time (usec): 100000 (USB2+H05261)
Spectra Averaged: 1 (USB2+H05261)
Boxcar Smoothing: 0 (USB2+H05261)
Correct for Electrical Dark: No (USB2+H05261)
Strobe/Lamp Enabled: No (USB2+H05261)
Correct for Detector Non-linearity: No (USB2+H05261)
Correct for Stray Light: No (USB2+H05261)
Number of Pixels in Processed Spectrum: 2048
>>>>>Begin Processed Spectral Data<<<<<
365.73	341.72
365.92	341.72
366.12	341.72
366.32	170.86
366.52	257.46
366.72	257.46
366.91	248.10
367.11	250.44
367.31	245.76
367.51	222.35
367.70	269.16
367.90	278.52
368.10	290.23
368.30	283.20
368.49	203.63
368.69	315.97
368.89	257.46
369.09	283.20
369.28	222.35
369.48	255.12
369.68	344.06
369.87	271.50
370.07	257.46
370.27	365.12
370.47	337.04
370.66	259.80
370.86	374.49
371.06	390.87
371.25	372.15
371.45	374.49
371.65	404.91
371.84	358.10
372.04	327.68
372.24	397.89
372.44	425.98
372.63	463.43
372.83	390.87
373.03	440.02
373.22	376.83
373.42	330.02
373.62	428.32
373.81	390.87
374.01	435.34
374.21	437.68
374.40	423.64
374.60	388.53
374.79	409.59
374.99	444.70
375.19	437.68
375.38	418.96
375.58	435.34
375.78	449.38
375.97	435.34
376.17	456.40
376.37	374.49
376.56	374.49
376.76	430.66
376.95	379.17
377.15	294.91
377.35	374.49
377.54	400.23
377.74	416.62
377.93	447.04
378.13	402.57
378.33	360.44
378.52	425.98
378.72	400.23
378.91	463.43
379.11	411.93
379.31	372.15
379.50	447.04
379.70	393.21
379.89	362.78
380.09	402.57
380.28	400.23
380.48	411.93
380.68	414.27
380.87	435.34
381.07	423.64
381.26	404.91
381.46	390.87
381.65	463.43
381.85	407.25
382.04	379.17
382.24	484.49
382.43	362.78
382.63	400.23
382.83	369.80
383.02	444.70
383.22	390.87
383.41	423.64
383.61	402.57
383.80	428.32
384.00	372.15
384.19	393.21
384.39	428.32
384.58	334.70
384.78	463.43
384.97	440.02
385.17	435.34
385.36	348.74
385.56	461.09
385.75	397.89
385.95	465.77
386.14	416.62
386.34	381.51
386.53	423.64
386.72	348.74
386.92	421.30
387.11	479.81
387.31	479.81
387.50	411.93
387.70	383.85
387.89	369.80
388.09	451.72
388.28	388.53
388.48	433.00
388.67	320.65
388.86	362.78
389.06	355.76
389.25	416.62
389.45	440.02
389.64	376.83
389.84	505.56
390.03	470.45
390.22	461.09
390.42	388.53
390.61	428.32
390.81	416.62
391.00	425.98
391.19	372.15
391.39	332.36
391.58	404.91
391.78	444.70
391.97	376.83
392.16	360.44
392.36	451.72
392.55	425.98
392.75	353.42
392.94	404.91
393.13	468.11
393.33	388.53
393.52	404.91
393.71	433.00
393.91	428.32
394.10	376.83
394.29	379.17
394.49	442.36
394.68	409.59
394.88	440.02
395.07	369.80
395.26	386.19
395.46	379.17
395.65	402.57
395.84	411.93
396.04	465.77
396.23	341.72
396.42	414.27
396.62	372.15
396.81	407.25
397.00	416.62
397.19	407.25
397.39	409.59
397.58	440.02
397.77	393.21
397.97	397.89
398.16	400.23
398.35	430.66
398.55	400.23
398.74	397.89
398.93	498.53
399.12	374.49
399.32	404.91
399.51	365.12
399.70	372.15
399.90	351.08
400.09	362.78
400.28	458.74
400.47	423.64
400.67	416.62
400.86	423.64
401.05	421.30
401.24	454.06
401.44	402.57
401.63	402.57
401.82	409.59
402.01	330.02
402.21	355.76
402.40	435.34
402.59	444.70
402.78	367.46
402.97	367.46
403.17	456.40
403.36	414.27
403.55	367.46
403.74	386.19
403.93	433.00
404.13	360.44
404.32	374.49
404.51	341.72
404.70	442.36
404.89	367.46
405.09	491.51
405.28	367.46
405.47	447.04
405.66	463.43
405.85	404.91
406.05	461.09
406.24	404.91
406.43	451.72
406.62	486.83
406.81	400.23
407.00	341.72
407.20	330.02
407.39	341.72
407.58	390.87
407.77	390.87
407.96	383.85
408.15	440.02
408.34	388.53
408.54	393.21
408.73	449.38
408.92	341.72
409.11	388.53
409.30	444.70
409.49	344.06
409.68	428.32
409.87	407.25
410.07	428.32
410.26	400.23
410.45	397.89
410.64	423.64
410.83	411.93
411.02	404.91
411.21	353.42
411.40	395.55
411.59	454.06
411.78	435.34
411.98	383.85
412.17	379.17
412.36	404.91
412.55	423.64
412.74	407.25
412.93	493.85
413.12	386.19
413.31	390.87
413.50	404.91
413.69	379.17
413.88	440.02
414.07	381.51
414.26	393.21
414.45	409.59
414.64	404.91
414.83	341.72
415.02	430.66
415.22	330.02
415.41	437.68
415.60	463.43
415.79	428.32
415.98	475.13
416.17	318.31
416.36	402.57
416.55	491.51
416.74	447.04
416.93	428.32
417.12	372.15
417.31	390.87
417.50	407.25
417.69	477.47
417.88	360.44
418.07	369.80
418.26	367.46
418.45	320.65
418.64	421.30
418.83	472.79
419.02	407.25
419.21	449.38
419.39	393.21
419.58	404.91
419.77	409.59
419.96	442.36
420.15	447.04
420.34	397.89
420.53	393.21
420.72	404.91
420.91	395.55
421.10	376.83
421.29	397.89
421.48	440.02
421.67	451.72
421.86	365.12
422.05	400.23
422.24	416.62
422.43	411.93
422.61	416.62
422.80	362.78
422.99	388.53
423.18	465.77
423.37	383.85
423.56	444.70
423.75	381.51
423.94	367.46
424.13	390.87
424.32	369.80
424.50	416.62
424.69	404.91
424.88	381.51
425.07	395.55
425.26	411.93
425.45	428.32
425.64	393.21
425.83	374.49
426.01	484.49
426.20	477.47
426.39	351.08
426.58	337.04
426.77	451.72
426.96	505.56
427.15	411.93
427.33	461.09
427.52	411.93
427.71	430.66
427.90	430.66
428.09	454.06
428.28	348.74
428.46	325.33
428.65	440.02
428.84	418.96
429.03	447.04
429.22	313.63
429.40	442.36
429.59	407.25
429.78	423.64
429.97	355.76
430.16	365.12
430.34	390.87
430.53	397.89
430.72	376.83
430.91	442.36
431.10	393.21
431.28	397.89
431.47	451.72
431.66	369.80
431.85	388.53
432.03	435.34
432.22	465.77
432.41	430.66
432.60	393.21
432.79	292.57
432.97	444.70
433.16	463.43
433.35	411.93
433.54	409.59
433.72	416.62
433.91	362.78
434.10	381.51
434.28	425.98
434.47	444.70
434.66	409.59
434.85	421.30
435.03	404.91
435.22	454.06
435.41	449.38
435.59	386.19
435.78	400.23
435.97	393.21
436.16	472.79
436.34	444.70
436.53	484.49
436.72	454.06
436.90	395.55
437.09	447.04
437.28	287.89
437.46	390.87
437.65	355.76
437.84	468.11
438.02	444.70
438.21	404.91
438.40	395.55
438.58	395.55
438.77	442.36
438.96	414.27
439.14	423.64
439.33	397.89
439.52	409.59
439.70	428.32
439.89	489.17
440.08	442.36
440.26	381.51
440.45	402.57
440.63	444.70
440.82	379.17
441.01	402.57
441.19	491.51
441.38	468.11
441.57	440.02
441.75	416.62
441.94	355.76
442.12	409.59
442.31	416.62
442.50	344.06
442.68	411.93
442.87	379.17
443.05	395.55
443.24	390.87
443.43	440.02
443.61	390.87
443.80	400.23
443.98	430.66
444.17	423.64
444.35	451.72
444.54	482.15
444.73	395.55
444.91	484.49
445.10	411.93
445.28	351.08
445.47	425.98
445.65	381.51
445.84	376.83
446.02	433.00
446.21	428.32
446.39	381.51
446.58	458.74
446.77	425.98
446.95	435.34
447.14	414.27
447.32	463.43
447.51	395.55
447.69	470.45
447.88	461.09
448.06	430.66
448.25	463.43
448.43	430.66
448.62	376.83
448.80	369.80
448.99	332.36
449.17	444.70
449.36	449.38
449.54	348.74
449.73	318.31
449.91	376.83
450.10	411.93
450.28	461.09
450.46	458.74
450.65	433.00
450.83	454.06
451.02	374.49
451.20	421.30
451.39	416.62
451.57	402.57
451.76	353.42
451.94	430.66
452.13	423.64
452.31	489.17
452.49	418.96
452.68	400.23
452.86	418.96
453.05	510.24
453.23	395.55
453.42	463.43
453.60	376.83
453.78	411.93
453.97	428.32
454.15	346.40
454.34	421.30
454.52	440.02
454.70	407.25
454.89	395.55
455.07	428.32
455.26	440.02
455.44	397.89
455.62	362.78
455.81	411.93
455.99	402.57
456.17	491.51
456.36	379.17
456.54	414.27
456.73	402.57
456.91	400.23
457.09	358.10
457.28	407.25
457.46	421.30
457.64	444.70
457.83	461.09
458.01	447.04
458.19	444.70
458.38	376.83
458.56	416.62
458.74	451.72
458.93	451.72
459.11	409.59
459.29	465.77
459.48	456.40
459.66	477.47
459.84	388.53
460.03	458.74
460.21	428.32
460.39	430.66
460.57	353.42
460.76	334.70
460.94	395.55
461.12	437.68
461.31	411.93
461.49	379.17
461.67	435.34
461.85	482.15
462.04	451.72
462.22	486.83
462.40	461.09
462.59	444.70
462.77	341.72
462.95	369.80
463.13	435.34
463.32	395.55
463.50	416.62
463.68	519.60
463.86	390.87
464.05	465.77
464.23	442.36
464.41	407.25
464.59	395.55
464.78	381.51
464.96	411.93
465.14	369.80
465.32	437.68
465.50	456.40
465.69	425.98
465.87	407.25
466.05	482.15
466.23	411.93
466.41	470.45
466.60	465.77
466.78	425.98
466.96	353.42
467.14	407.25
467.32	430.66
467.51	386.19
467.69	395.55
467.87	447.04
468.05	435.34
468.23	526.62
468.41	510.24
468.60	322.99
468.78	407.25
468.96	461.09
469.14	402.57
469.32	456.40
469.50	440.02
469.69	372.15
469.87	367.46
470.05	411.93
470.23	447.04
470.41	496.19
470.59	465.77
470.77	402.57
470.95	472.79
471.14	395.55
471.32	430.66
471.50	444.70
471.68	400.23
471.86	397.89
472.04	456.40
472.22	496.19
472.40	367.46
472.58	374.49
472.77	496.19
472.95	409.59
473.13	451.72
473.31	372.15
473.49	470.45
473.67	402.57
473.85	411.93
474.03	362.78
474.21	381.51
474.39	430.66
474.57	447.04
474.75	421.30
474.93	402.57
475.12	369.80
475.30	407.25
475.48	440.02
475.66	456.40
475.84	402.57
476.02	332.36
476.20	428.32
476.38	428.32
476.56	533.64
476.74	430.66
476.92	393.21
477.10	346.40
477.28	531.30
477.46	435.34
477.64	390.87
477.82	337.04
478.00	423.64
478.18	306.61
478.36	510.24
478.54	430.66
478.72	341.72
478.90	461.09
479.08	449.38
479.26	449.38
479.44	477.47
479.62	409.59
479.80	423.64
479.98	346.40
480.16	376.83
480.34	449.38
480.52	416.62
480.70	421.30
480.88	400.23
481.06	362.78
481.24	430.66
481.41	423.64
481.59	440.02
481.77	402.57
481.95	437.68
482.13	390.87
482.31	346.40
482.49	362.78
482.67	379.17
482.85	381.51
483.03	404.91
483.21	435.34
483.39	332.36
483.57	435.34
483.74	411.93
483.92	365.12
484.10	414.27
484.28	442.36
484.46	421.30
484.64	362.78
484.82	386.19
485.00	395.55
485.18	404.91
485.35	407.25
485.53	430.66
485.71	449.38
485.89	402.57
486.07	334.70
486.25	475.13
486.43	395.55
486.61	423.64
486.78	337.04
486.96	418.96
487.14	397.89
487.32	369.80
487.50	339.38
487.68	358.10
487.85	433.00
488.03	397.89
488.21	360.44
488.39	411.93
488.57	468.11
488.75	407.25
488.92	486.83
489.10	433.00
489.28	435.34
489.46	449.38
489.64	376.83
489.81	409.59
489.99	365.12
490.17	360.44
490.35	477.47
490.53	458.74
490.70	379.17
490.88	416.62
491.06	358.10
491.24	505.56
491.41	440.02
491.59	430.66
491.77	435.34
491.95	418.96
492.13	383.85
492.30	435.34
492.48	449.38
492.66	400.23
492.84	451.72
493.01	447.04
493.19	423.64
493.37	416.62
493.54	435.34
493.72	400.23
493.90	390.87
494.08	404.91
494.25	351.08
494.43	362.78
494.61	447.04
494.79	360.44
494.96	449.38
495.14	374.49
495.32	489.17
495.49	362.78
495.67	383.85
495.85	447.04
496.02	454.06
496.20	458.74
496.38	454.06
496.55	365.12
496.73	475.13
496.91	381.51
497.09	440.02
497.26	372.15
497.44	388.53
497.62	470.45
497.79	456.40
497.97	433.00
498.14	442.36
498.32	402.57
498.50	425.98
498.67	444.70
498.85	404.91
499.03	383.85
499.20	454.06
499.38	421.30
499.56	440.02
499.73	461.09
499.91	393.21
500.08	334.70
500.26	395.55
500.44	505.56
500.61	423.64
500.79	376.83
500.97	402.57
501.14	416.62
501.32	451.72
501.49	393.21
501.67	442.36
501.84	404.91
502.02	393.21
502.20	393.21
502.37	435.34
502.55	407.25
502.72	362.78
502.90	395.55
503.07	402.57
503.25	397.89
503.43	390.87
503.60	404.91
503.78	442.36
503.95	395.55
504.13	402.57
504.30	411.93
504.48	449.38
504.65	475.13
504.83	472.79
505.01	397.89
505.18	374.49
505.36	430.66
505.53	444.70
505.71	444.70
505.88	423.64
506.06	379.17
506.23	414.27
506.41	395.55
506.58	386.19
506.76	425.98
506.93	447.04
507.11	402.57
507.28	369.80
507.46	360.44
507.63	386.19
507.81	400.23
507.98	395.55
508.16	395.55
508.33	397.89
508.50	379.17
508.68	409.59
508.85	425.98
509.03	493.85
509.20	468.11
509.38	400.23
509.55	423.64
509.73	409.59
509.90	381.51
510.08	339.38
510.25	355.76
510.42	374.49
510.60	416.62
510.77	447.04
510.95	416.62
511.12	393.21
511.30	498.53
511.47	409.59
511.64	449.38
511.82	381.51
511.99	430.66
512.17	414.27
512.34	430.66
512.51	428.32
512.69	353.42
512.86	402.57
513.04	411.93
513.21	451.72
513.38	423.64
513.56	407.25
513.73	367.46
513.90	409.59
514.08	407.25
514.25	355.76
514.43	390.87
514.60	444.70
514.77	383.85
514.95	477.47
515.12	451.72
515.29	409.59
515.47	390.87
515.64	433.00
515.81	454.06
515.99	369.80
516.16	454.06
516.33	395.55
516.51	425.98
516.68	430.66
516.85	355.76
517.03	381.51
517.20	421.30
517.37	351.08
517.54	449.38
517.72	376.83
517.89	365.12
518.06	348.74
518.24	435.34
518.41	379.17
518.58	381.51
518.75	393.21
518.93	365.12
519.10	390.87
519.27	430.66
519.45	400.23
519.62	425.98
519.79	372.15
519.96	400.23
520.14	360.44
520.31	461.09
520.48	430.66
520.65	442.36
520.83	461.09
521.00	428.32
521.17	416.62
521.34	440.02
521.52	447.04
521.69	358.10
521.86	400.23
522.03	386.19
522.20	449.38
522.38	351.08
522.55	379.17
522.72	360.44
522.89	433.00
523.07	449.38
523.24	430.66
523.41	407.25
523.58	423.64
523.75	332.36
523.92	355.76
524.10	437.68
524.27	414.27
524.44	409.59
524.61	407.25
524.78	395.55
524.96	472.79
525.13	369.80
525.30	440.02
525.47	489.17
525.64	444.70
525.81	433.00
525.98	381.51
526.16	355.76
526.33	430.66
526.50	505.56
526.67	400.23
526.84	348.74
527.01	397.89
527.18	447.04
527.36	365.12
527.53	430.66
527.70	449.38
527.87	435.34
528.04	435.34
528.21	409.59
528.38	465.77
528.55	444.70
528.72	414.27
528.89	381.51
529.07	341.72
529.24	510.24
529.41	369.80
529.58	379.17
529.75	402.57
529.92	402.57
530.09	482.15
530.26	470.45
530.43	416.62
530.60	416.62
530.77	456.40
530.94	472.79
531.11	489.17
531.28	414.27
531.46	447.04
531.63	416.62
531.80	411.93
531.97	454.06
532.14	372.15
532.31	449.38
532.48	440.02
532.65	425.98
532.82	437.68
532.99	360.44
533.16	404.91
533.33	463.43
533.50	486.83
533.67	416.62
533.84	409.59
534.01	367.46
534.18	461.09
534.35	442.36
534.52	430.66
534.69	390.87
534.86	390.87
535.03	430.66
535.20	449.38
535.37	421.30
535.54	390.87
535.71	386.19
535.88	503.22
536.05	430.66
536.22	353.42
536.38	386.19
536.55	381.51
536.72	479.81
536.89	454.06
537.06	369.80
537.23	397.89
537.40	400.23
537.57	381.51
537.74	456.40
537.91	451.72
538.08	376.83
538.25	369.80
538.42	468.11
538.59	454.06
538.75	428.32
538.92	437.68
539.09	507.90
539.26	346.40
539.43	472.79
539.60	425.98
539.77	407.25
539.94	454.06
540.11	465.77
540.28	435.34
540.44	468.11
540.61	421.30
540.78	369.80
540.95	365.12
541.12	489.17
541.29	400.23
541.46	390.87
541.62	423.64
541.79	334.70
541.96	407.25
542.13	435.34
542.30	416.62
542.47	360.44
542.63	491.51
542.80	437.68
542.97	519.60
543.14	402.57
543.31	454.06
543.48	414.27
543.64	404.91
543.81	360.44
543.98	435.34
544.15	482.15
544.32	486.83
544.48	404.91
544.65	430.66
544.82	395.55
544.99	411.93
545.16	414.27
545.32	461.09
545.49	454.06
545.66	418.96
545.83	425.98
546.00	449.38
546.16	358.10
546.33	397.89
546.50	458.74
546.67	437.68
546.83	503.22
547.00	491.51
547.17	383.85
547.34	458.74
547.50	374.49
547.67	456.40
547.84	351.08
548.00	423.64
548.17	402.57
548.34	407.25
548.51	477.47
548.67	444.70
548.84	430.66
549.01	435.34
549.18	479.81
549.34	414.27
549.51	435.34
549.68	409.59
549.84	409.59
550.01	451.72
550.18	507.90
550.34	458.74
550.51	425.98
550.68	416.62
550.84	409.59
551.01	425.98
551.18	442.36
551.34	362.78
551.51	418.96
551.68	365.12
551.84	484.49
552.01	383.85
552.18	404.91
552.34	444.70
552.51	440.02
552.68	461.09
552.84	428.32
553.01	475.13
553.18	435.34
553.34	383.85
553.51	393.21
553.67	369.80
553.84	404.91
554.01	475.13
554.17	493.85
554.34	416.62
554.51	409.59
554.67	454.06
554.84	397.89
555.00	369.80
555.17	376.83
555.33	472.79
555.50	386.19
555.67	491.51
555.83	451.72
556.00	365.12
556.16	533.64
556.33	463.43
556.50	447.04
556.66	435.34
556.83	393.21
556.99	428.32
557.16	425.98
557.32	407.25
557.49	411.93
557.65	402.57
557.82	435.34
557.98	365.12
558.15	393.21
558.32	428.32
558.48	435.34
558.65	404.91
558.81	414.27
558.98	425.98
559.14	421.30
559.31	482.15
559.47	440.02
559.64	503.22
559.80	393.21
559.97	444.70
560.13	390.87
560.30	379.17
560.46	327.68
560.63	454.06
560.79	484.49
560.96	421.30
561.12	447.04
561.29	390.87
561.45	411.93
561.61	430.66
561.78	477.47
561.94	425.98
562.11	383.85
562.27	435.34
562.44	468.11
562.60	360.44
562.77	395.55
562.93	458.74
563.10	486.83
563.26	365.12
563.42	369.80
563.59	468.11
563.75	449.38
563.92	498.53
564.08	461.09
564.24	376.83
564.41	458.74
564.57	318.31
564.74	381.51
564.90	479.81
565.07	411.93
565.23	428.32
565.39	358.10
565.56	435.34
565.72	381.51
565.88	402.57
566.05	383.85
566.21	400.23
566.38	486.83
566.54	444.70
566.70	440.02
566.87	388.53
567.03	416.62
567.19	444.70
567.36	379.17
567.52	397.89
567.68	351.08
567.85	433.00
568.01	447.04
568.17	416.62
568.34	442.36
568.50	418.96
568.66	369.80
568.83	489.17
568.99	404.91
569.15	475.13
569.32	444.70
569.48	444.70
569.64	461.09
569.81	433.00
569.97	437.68
570.13	339.38
570.30	447.04
570.46	428.32
570.62	355.76
570.78	383.85
570.95	393.21
571.11	423.64
571.27	454.06
571.43	449.38
571.60	344.06
571.76	400.23
571.92	475.13
572.09	381.51
572.25	339.38
572.41	397.89
572.57	369.80
572.74	489.17
572.90	393.21
573.06	451.72
573.22	440.02
573.38	468.11
573.55	442.36
573.71	442.36
573.87	451.72
574.03	463.43
574.20	360.44
574.36	388.53
574.52	407.25
574.68	418.96
574.84	409.59
575.01	428.32
575.17	475.13
575.33	454.06
575.49	430.66
575.65	440.02
575.82	428.32
575.98	400.23
576.14	411.93
576.30	528.96
576.46	390.87
576.62	381.51
576.79	395.55
576.95	407.25
577.11	386.19
577.27	472.79
577.43	411.93
577.59	425.98
577.75	425.98
577.92	433.00
578.08	365.12
578.24	442.36
578.40	407.25
578.56	393.21
578.72	489.17
578.88	400.23
579.04	409.59
579.21	421.30
579.37	388.53
579.53	397.89
579.69	430.66
579.85	423.64
580.01	409.59
580.17	442.36
580.33	407.25
580.49	299.59
580.65	442.36
580.82	421.30
580.98	362.78
581.14	353.42
581.30	402.57
581.46	334.70
581.62	442.36
581.78	409.59
581.94	402.57
582.10	386.19
582.26	442.36
582.42	365.12
582.58	470.45
582.74	379.17
582.90	416.62
583.06	365.12
583.22	404.91
583.38	425.98
583.54	416.62
583.70	390.87
583.86	442.36
584.02	402.57
584.18	463.43
584.34	383.85
584.50	400.23
584.66	376.83
584.82	461.09
584.98	442.36
585.14	374.49
585.30	416.62
585.46	414.27
585.62	346.40
585.78	374.49
585.94	407.25
586.10	416.62
586.26	400.23
586.42	411.93
586.58	433.00
586.74	447.04
586.90	491.51
587.06	393.21
587.22	463.43
587.38	414.27
587.54	362.78
587.70	353.42
587.86	416.62
588.02	353.42
588.18	390.87
588.34	402.57
588.49	365.12
588.65	402.57
588.81	447.04
588.97	458.74
589.13	428.32
589.29	374.49
589.45	447.04
589.61	367.46
589.77	435.34
589.93	397.89
590.08	383.85
590.24	442.36
590.40	468.11
590.56	465.77
590.72	407.25
590.88	409.59
591.04	365.12
591.20	355.76
591.35	390.87
591.51	376.83
591.67	435.34
591.83	447.04
591.99	397.89
592.15	510.24
592.31	388.53
592.46	428.32
592.62	451.72
592.78	386.19
592.94	379.17
593.10	416.62
593.26	456.40
593.41	458.74
593.57	374.49
593.73	409.59
593.89	348.74
594.05	449.38
594.20	358.10
594.36	416.62
594.52	423.64
594.68	390.87
594.84	461.09
594.99	456.40
595.15	397.89
595.31	461.09
595.47	463.43
595.62	472.79
595.78	320.65
595.94	414.27
596.10	447.04
596.25	409.59
596.41	428.32
596.57	440.02
596.73	407.25
596.88	400.23
597.04	402.57
597.20	440.02
597.36	393.21
597.51	433.00
597.67	454.06
597.83	386.19
597.99	402.57
598.14	449.38
598.30	397.89
598.46	447.04
598.61	451.72
598.77	418.96
598.93	447.04
599.09	379.17
599.24	458.74
599.40	376.83
599.56	414.27
599.71	404.91
599.87	369.80
600.03	496.19
600.18	493.85
600.34	430.66
600.50	395.55
600.65	414.27
600.81	393.21
600.97	500.87
601.12	463.43
601.28	447.04
601.44	461.09
601.59	440.02
601.75	390.87
601.91	411.93
602.06	470.45
602.22	486.83
602.37	386.19
602.53	470.45
602.69	475.13
602.84	416.62
603.00	402.57
603.16	479.81
603.31	409.59
603.47	442.36
603.62	395.55
603.78	416.62
603.94	390.87
604.09	402.57
604.25	435.34
604.40	435.34
604.56	435.34
604.71	374.49
604.87	404.91
605.03	348.74
605.18	416.62
605.34	402.57
605.49	395.55
605.65	393.21
605.80	404.91
605.96	444.70
606.12	440.02
606.27	360.44
606.43	395.55
606.58	433.00
606.74	411.93
606.89	416.62
607.05	451.72
607.20	355.76
607.36	430.66
607.51	458.74
607.67	416.62
607.82	468.11
607.98	470.45
608.13	416.62
608.29	395.55
608.44	454.06
608.60	388.53
608.75	383.85
608.91	433.00
609.06	425.98
609.22	428.32
609.37	386.19
609.53	301.93
609.68	479.81
609.84	423.64
609.99	423.64
610.15	416.62
