SpectraSuite Data File
++++++++++++++++++++++++++++++++++++
Date: Fri Oct 25 12:10:12 EDT 2013
User: price-jones
Dark Spectrum Present: No
Reference Spectrum Present: No
Number of Sampled Component Spectra: 1
Spectrometers: USB2+H05261
Integration Time (usec): 100000 (USB2+H05261)
Spectra Averaged: 1 (USB2+H05261)
Boxcar Smoothing: 0 (USB2+H05261)
Correct for Electrical Dark: No (USB2+H05261)
Strobe/Lamp Enabled: No (USB2+H05261)
Correct for Detector Non-linearity: No (USB2+H05261)
Correct for Stray Light: No (USB2+H05261)
Number of Pixels in Processed Spectrum: 2048
>>>>>Begin Processed Spectral Data<<<<<
365.73	346.40
365.92	346.40
366.12	346.40
366.32	283.20
366.52	255.12
366.72	266.82
366.91	243.42
367.11	241.08
367.31	187.24
367.51	278.52
367.70	266.82
367.90	170.86
368.10	180.22
368.30	271.50
368.49	299.59
368.69	184.90
368.89	278.52
369.09	269.16
369.28	236.39
369.48	217.67
369.68	313.63
369.87	236.39
370.07	297.25
370.27	383.85
370.47	276.18
370.66	334.70
370.86	306.61
371.06	313.63
371.25	409.59
371.45	372.15
371.65	374.49
371.84	395.55
372.04	411.93
372.24	360.44
372.44	315.97
372.63	355.76
372.83	440.02
373.03	386.19
373.22	400.23
373.42	423.64
373.62	456.40
373.81	404.91
374.01	428.32
374.21	465.77
374.40	468.11
374.60	486.83
374.79	355.76
374.99	458.74
375.19	418.96
375.38	423.64
375.58	346.40
375.78	362.78
375.97	470.45
376.17	484.49
376.37	458.74
376.56	451.72
376.76	330.02
376.95	395.55
377.15	418.96
377.35	346.40
377.54	367.46
377.74	330.02
377.93	465.77
378.13	418.96
378.33	397.89
378.52	458.74
378.72	365.12
378.91	505.56
379.11	376.83
379.31	416.62
379.50	416.62
379.70	390.87
379.89	418.96
380.09	409.59
380.28	414.27
380.48	416.62
380.68	421.30
380.87	341.72
381.07	369.80
381.26	416.62
381.46	407.25
381.65	353.42
381.85	421.30
382.04	301.93
382.24	397.89
382.43	451.72
382.63	475.13
382.83	411.93
383.02	437.68
383.22	465.77
383.41	465.77
383.61	414.27
383.80	376.83
384.00	416.62
384.19	400.23
384.39	421.30
384.58	358.10
384.78	400.23
384.97	468.11
385.17	365.12
385.36	325.33
385.56	400.23
385.75	353.42
385.95	376.83
386.14	458.74
386.34	346.40
386.53	379.17
386.72	383.85
386.92	411.93
387.11	332.36
387.31	409.59
387.50	397.89
387.70	447.04
387.89	388.53
388.09	376.83
388.28	369.80
388.48	381.51
388.67	409.59
388.86	346.40
389.06	306.61
389.25	421.30
389.45	468.11
389.64	337.04
389.84	372.15
390.03	416.62
390.22	341.72
390.42	437.68
390.61	381.51
390.81	411.93
391.00	411.93
391.19	407.25
391.39	407.25
391.58	465.77
391.78	386.19
391.97	388.53
392.16	423.64
392.36	440.02
392.55	404.91
392.75	400.23
392.94	341.72
393.13	404.91
393.33	433.00
393.52	433.00
393.71	503.22
393.91	425.98
394.10	442.36
394.29	383.85
394.49	374.49
394.68	353.42
394.88	393.21
395.07	456.40
395.26	409.59
395.46	372.15
395.65	369.80
395.84	393.21
396.04	430.66
396.23	416.62
396.42	367.46
396.62	381.51
396.81	456.40
397.00	402.57
397.19	421.30
397.39	402.57
397.58	407.25
397.77	437.68
397.97	395.55
398.16	367.46
398.35	449.38
398.55	447.04
398.74	318.31
398.93	409.59
399.12	461.09
399.32	383.85
399.51	458.74
399.70	358.10
399.90	383.85
400.09	400.23
400.28	414.27
400.47	379.17
400.67	362.78
400.86	404.91
401.05	369.80
401.24	362.78
401.44	435.34
401.63	433.00
401.82	311.29
402.01	381.51
402.21	376.83
402.40	400.23
402.59	362.78
402.78	337.04
402.97	428.32
403.17	367.46
403.36	358.10
403.55	414.27
403.74	428.32
403.93	437.68
404.13	414.27
404.32	421.30
404.51	372.15
404.70	325.33
404.89	334.70
405.09	372.15
405.28	372.15
405.47	393.21
405.66	423.64
405.85	465.77
406.05	301.93
406.24	372.15
406.43	468.11
406.62	416.62
406.81	465.77
407.00	397.89
407.20	404.91
407.39	393.21
407.58	376.83
407.77	404.91
407.96	418.96
408.15	423.64
408.34	444.70
408.54	496.19
408.73	409.59
408.92	358.10
409.11	421.30
409.30	374.49
409.49	421.30
409.68	393.21
409.87	444.70
410.07	388.53
410.26	479.81
410.45	435.34
410.64	407.25
410.83	409.59
411.02	390.87
411.21	416.62
411.40	344.06
411.59	449.38
411.78	435.34
411.98	339.38
412.17	421.30
412.36	404.91
412.55	414.27
412.74	414.27
412.93	379.17
413.12	395.55
413.31	430.66
413.50	395.55
413.69	341.72
413.88	449.38
414.07	425.98
414.26	374.49
414.45	400.23
414.64	425.98
414.83	388.53
415.02	423.64
415.22	482.15
415.41	400.23
415.60	334.70
415.79	351.08
415.98	407.25
416.17	414.27
416.36	341.72
416.55	372.15
416.74	425.98
416.93	414.27
417.12	496.19
417.31	404.91
417.50	379.17
417.69	440.02
417.88	407.25
418.07	393.21
418.26	362.78
418.45	379.17
418.64	411.93
418.83	402.57
419.02	404.91
419.21	301.93
419.39	409.59
419.58	395.55
419.77	442.36
419.96	456.40
420.15	411.93
420.34	407.25
420.53	376.83
420.72	430.66
420.91	383.85
421.10	390.87
421.29	479.81
421.48	430.66
421.67	414.27
421.86	444.70
422.05	458.74
422.24	404.91
422.43	418.96
422.61	454.06
422.80	463.43
422.99	395.55
423.18	400.23
423.37	465.77
423.56	414.27
423.75	418.96
423.94	395.55
424.13	393.21
424.32	360.44
424.50	454.06
424.69	442.36
424.88	418.96
425.07	395.55
425.26	437.68
425.45	402.57
425.64	475.13
425.83	440.02
426.01	433.00
426.20	362.78
426.39	355.76
426.58	416.62
426.77	461.09
426.96	362.78
427.15	407.25
427.33	376.83
427.52	390.87
427.71	425.98
427.90	416.62
428.09	290.23
428.28	418.96
428.46	353.42
428.65	451.72
428.84	458.74
429.03	484.49
429.22	362.78
429.40	395.55
429.59	325.33
429.78	381.51
429.97	461.09
430.16	404.91
430.34	411.93
430.53	376.83
430.72	428.32
430.91	428.32
431.10	409.59
431.28	437.68
431.47	397.89
431.66	390.87
431.85	362.78
432.03	379.17
432.22	451.72
432.41	379.17
432.60	402.57
432.79	404.91
432.97	376.83
433.16	372.15
433.35	397.89
433.54	369.80
433.72	472.79
433.91	444.70
434.10	381.51
434.28	407.25
434.47	381.51
434.66	433.00
434.85	395.55
435.03	369.80
435.22	451.72
435.41	444.70
435.59	374.49
435.78	451.72
435.97	428.32
436.16	376.83
436.34	411.93
436.53	461.09
436.72	369.80
436.90	390.87
437.09	379.17
437.28	414.27
437.46	444.70
437.65	418.96
437.84	409.59
438.02	461.09
438.21	433.00
438.40	397.89
438.58	367.46
438.77	463.43
438.96	414.27
439.14	421.30
439.33	404.91
439.52	404.91
439.70	400.23
439.89	411.93
440.08	381.51
440.26	388.53
440.45	400.23
440.63	404.91
440.82	383.85
441.01	320.65
441.19	397.89
441.38	421.30
441.57	411.93
441.75	465.77
441.94	425.98
442.12	393.21
442.31	402.57
442.50	400.23
442.68	425.98
442.87	433.00
443.05	407.25
443.24	418.96
443.43	418.96
443.61	362.78
443.80	447.04
443.98	409.59
444.17	451.72
444.35	451.72
444.54	407.25
444.73	400.23
444.91	402.57
445.10	498.53
445.28	409.59
445.47	390.87
445.65	386.19
445.84	402.57
446.02	416.62
446.21	414.27
446.39	430.66
446.58	348.74
446.77	440.02
446.95	365.12
447.14	435.34
447.32	482.15
447.51	433.00
447.69	418.96
447.88	428.32
448.06	435.34
448.25	437.68
448.43	388.53
448.62	402.57
448.80	409.59
448.99	397.89
449.17	463.43
449.36	397.89
449.54	421.30
449.73	418.96
449.91	351.08
450.10	430.66
450.28	514.92
450.46	451.72
450.65	510.24
450.83	423.64
451.02	425.98
451.20	369.80
451.39	416.62
451.57	425.98
451.76	442.36
451.94	393.21
452.13	393.21
452.31	411.93
452.49	444.70
452.68	461.09
452.86	376.83
453.05	367.46
453.23	437.68
453.42	447.04
453.60	381.51
453.78	379.17
453.97	355.76
454.15	428.32
454.34	414.27
454.52	362.78
454.70	465.77
454.89	421.30
455.07	482.15
455.26	404.91
455.44	330.02
455.62	409.59
455.81	430.66
455.99	402.57
456.17	397.89
456.36	440.02
456.54	442.36
456.73	374.49
456.91	358.10
457.09	451.72
457.28	388.53
457.46	402.57
457.64	447.04
457.83	409.59
458.01	442.36
458.19	461.09
458.38	369.80
458.56	407.25
458.74	449.38
458.93	379.17
459.11	416.62
459.29	440.02
459.48	390.87
459.66	463.43
459.84	423.64
460.03	472.79
460.21	383.85
460.39	390.87
460.57	449.38
460.76	372.15
460.94	437.68
461.12	404.91
461.31	442.36
461.49	388.53
461.67	451.72
461.85	475.13
462.04	407.25
462.22	748.97
462.40	416.62
462.59	444.70
462.77	397.89
462.95	411.93
463.13	400.23
463.32	381.51
463.50	388.53
463.68	421.30
463.86	411.93
464.05	440.02
464.23	461.09
464.41	418.96
464.59	360.44
464.78	383.85
464.96	393.21
465.14	369.80
465.32	362.78
465.50	367.46
465.69	421.30
465.87	386.19
466.05	428.32
466.23	360.44
466.41	327.68
466.60	430.66
466.78	393.21
466.96	423.64
467.14	425.98
467.32	451.72
467.51	449.38
467.69	442.36
467.87	437.68
468.05	344.06
468.23	482.15
468.41	484.49
468.60	355.76
468.78	418.96
468.96	404.91
469.14	369.80
469.32	449.38
469.50	313.63
469.69	393.21
469.87	388.53
470.05	376.83
470.23	414.27
470.41	397.89
470.59	362.78
470.77	404.91
470.95	444.70
471.14	416.62
471.32	409.59
471.50	358.10
471.68	433.00
471.86	353.42
472.04	425.98
472.22	402.57
472.40	346.40
472.58	442.36
472.77	404.91
472.95	433.00
473.13	416.62
473.31	468.11
473.49	376.83
473.67	358.10
473.85	440.02
474.03	435.34
474.21	447.04
474.39	451.72
474.57	484.49
474.75	454.06
474.93	454.06
475.12	437.68
475.30	395.55
475.48	442.36
475.66	418.96
475.84	388.53
476.02	440.02
476.20	379.17
476.38	444.70
476.56	486.83
476.74	358.10
476.92	463.43
477.10	407.25
477.28	404.91
477.46	372.15
477.64	482.15
477.82	397.89
478.00	442.36
478.18	421.30
478.36	416.62
478.54	388.53
478.72	346.40
478.90	390.87
479.08	442.36
479.26	423.64
479.44	388.53
479.62	386.19
479.80	390.87
479.98	433.00
480.16	353.42
480.34	470.45
480.52	395.55
480.70	440.02
480.88	369.80
481.06	442.36
481.24	454.06
481.41	458.74
481.59	451.72
481.77	372.15
481.95	463.43
482.13	414.27
482.31	472.79
482.49	437.68
482.67	395.55
482.85	374.49
483.03	479.81
483.21	369.80
483.39	428.32
483.57	400.23
483.74	404.91
483.92	428.32
484.10	325.33
484.28	425.98
484.46	454.06
484.64	463.43
484.82	421.30
485.00	374.49
485.18	355.76
485.35	362.78
485.53	341.72
485.71	383.85
485.89	388.53
486.07	400.23
486.25	428.32
486.43	435.34
486.61	421.30
486.78	430.66
486.96	362.78
487.14	407.25
487.32	369.80
487.50	442.36
487.68	454.06
487.85	442.36
488.03	374.49
488.21	482.15
488.39	425.98
488.57	451.72
488.75	379.17
488.92	482.15
489.10	351.08
489.28	440.02
489.46	407.25
489.64	379.17
489.81	423.64
489.99	491.51
490.17	388.53
490.35	498.53
490.53	376.83
490.70	428.32
490.88	421.30
491.06	472.79
491.24	456.40
491.41	449.38
491.59	428.32
491.77	337.04
491.95	407.25
492.13	451.72
492.30	433.00
492.48	475.13
492.66	451.72
492.84	358.10
493.01	386.19
493.19	447.04
493.37	444.70
493.54	440.02
493.72	390.87
493.90	421.30
494.08	311.29
494.25	402.57
494.43	411.93
494.61	339.38
494.79	388.53
494.96	500.87
495.14	435.34
495.32	360.44
495.49	440.02
495.67	388.53
495.85	390.87
496.02	409.59
496.20	447.04
496.38	386.19
496.55	482.15
496.73	425.98
496.91	339.38
497.09	369.80
497.26	379.17
497.44	461.09
497.62	435.34
497.79	423.64
497.97	402.57
498.14	379.17
498.32	442.36
498.50	386.19
498.67	472.79
498.85	428.32
499.03	369.80
499.20	397.89
499.38	388.53
499.56	386.19
499.73	433.00
499.91	355.76
500.08	365.12
500.26	428.32
500.44	418.96
500.61	475.13
500.79	435.34
500.97	423.64
501.14	444.70
501.32	423.64
501.49	411.93
501.67	395.55
501.84	393.21
502.02	440.02
502.20	442.36
502.37	407.25
502.55	456.40
502.72	397.89
502.90	442.36
503.07	435.34
503.25	397.89
503.43	367.46
503.60	374.49
503.78	400.23
503.95	454.06
504.13	402.57
504.30	379.17
504.48	470.45
504.65	418.96
504.83	404.91
505.01	355.76
505.18	397.89
505.36	355.76
505.53	465.77
505.71	451.72
505.88	458.74
506.06	367.46
506.23	402.57
506.41	337.04
506.58	393.21
506.76	421.30
506.93	397.89
507.11	433.00
507.28	430.66
507.46	358.10
507.63	362.78
507.81	423.64
507.98	400.23
508.16	407.25
508.33	390.87
508.50	430.66
508.68	411.93
508.85	414.27
509.03	456.40
509.20	386.19
509.38	383.85
509.55	440.02
509.73	479.81
509.90	402.57
510.08	407.25
510.25	442.36
510.42	442.36
510.60	465.77
510.77	402.57
510.95	440.02
511.12	379.17
511.30	505.56
511.47	437.68
511.64	447.04
511.82	465.77
511.99	360.44
512.17	414.27
512.34	423.64
512.51	416.62
512.69	372.15
512.86	498.53
513.04	397.89
513.21	456.40
513.38	390.87
513.56	407.25
513.73	393.21
513.90	383.85
514.08	344.06
514.25	418.96
514.43	369.80
514.60	423.64
514.77	397.89
514.95	465.77
515.12	407.25
515.29	425.98
515.47	442.36
515.64	416.62
515.81	374.49
515.99	418.96
516.16	437.68
516.33	423.64
516.51	425.98
516.68	440.02
516.85	430.66
517.03	418.96
517.20	416.62
517.37	372.15
517.54	423.64
517.72	440.02
517.89	451.72
518.06	386.19
518.24	407.25
518.41	409.59
518.58	475.13
518.75	376.83
518.93	376.83
519.10	505.56
519.27	423.64
519.45	475.13
519.62	425.98
519.79	454.06
519.96	407.25
520.14	468.11
520.31	437.68
520.48	444.70
520.65	447.04
520.83	449.38
521.00	447.04
521.17	388.53
521.34	397.89
521.52	390.87
521.69	491.51
521.86	449.38
522.03	351.08
522.20	479.81
522.38	383.85
522.55	376.83
522.72	416.62
522.89	341.72
523.07	451.72
523.24	435.34
523.41	484.49
523.58	416.62
523.75	435.34
523.92	463.43
524.10	475.13
524.27	428.32
524.44	428.32
524.61	421.30
524.78	348.74
524.96	402.57
525.13	393.21
525.30	472.79
525.47	437.68
525.64	379.17
525.81	404.91
525.98	423.64
526.16	449.38
526.33	416.62
526.50	440.02
526.67	355.76
526.84	395.55
527.01	367.46
527.18	423.64
527.36	411.93
527.53	451.72
527.70	482.15
527.87	407.25
528.04	475.13
528.21	411.93
528.38	449.38
528.55	479.81
528.72	435.34
528.89	400.23
529.07	425.98
529.24	423.64
529.41	479.81
529.58	442.36
529.75	435.34
529.92	449.38
530.09	376.83
530.26	447.04
530.43	393.21
530.60	456.40
530.77	416.62
530.94	411.93
531.11	423.64
531.28	435.34
531.46	447.04
531.63	416.62
531.80	475.13
531.97	435.34
532.14	341.72
532.31	358.10
532.48	482.15
532.65	425.98
532.82	416.62
532.99	442.36
533.16	433.00
533.33	374.49
533.50	411.93
533.67	416.62
533.84	393.21
534.01	447.04
534.18	482.15
534.35	447.04
534.52	327.68
534.69	409.59
534.86	365.12
535.03	360.44
535.20	433.00
535.37	414.27
535.54	437.68
535.71	395.55
535.88	447.04
536.05	442.36
536.22	444.70
536.38	425.98
536.55	416.62
536.72	440.02
536.89	379.17
537.06	379.17
537.23	390.87
537.40	425.98
537.57	437.68
537.74	407.25
537.91	393.21
538.08	418.96
538.25	400.23
538.42	407.25
538.59	386.19
538.75	383.85
538.92	458.74
539.09	418.96
539.26	414.27
539.43	367.46
539.60	435.34
539.77	435.34
539.94	390.87
540.11	423.64
540.28	463.43
540.44	418.96
540.61	409.59
540.78	404.91
540.95	360.44
541.12	425.98
541.29	449.38
541.46	428.32
541.62	402.57
541.79	440.02
541.96	386.19
542.13	461.09
542.30	332.36
542.47	472.79
542.63	489.17
542.80	425.98
542.97	390.87
543.14	423.64
543.31	475.13
543.48	367.46
543.64	433.00
543.81	451.72
543.98	376.83
544.15	433.00
544.32	461.09
544.48	484.49
544.65	388.53
544.82	435.34
544.99	449.38
545.16	447.04
545.32	404.91
545.49	423.64
545.66	433.00
545.83	374.49
546.00	308.95
546.16	346.40
546.33	397.89
546.50	444.70
546.67	423.64
546.83	440.02
547.00	435.34
547.17	456.40
547.34	381.51
547.50	418.96
547.67	360.44
547.84	416.62
548.00	395.55
548.17	425.98
548.34	411.93
548.51	475.13
548.67	411.93
548.84	320.65
549.01	475.13
549.18	517.26
549.34	367.46
549.51	400.23
549.68	416.62
549.84	454.06
550.01	411.93
550.18	435.34
550.34	489.17
550.51	414.27
550.68	400.23
550.84	414.27
551.01	451.72
551.18	409.59
551.34	332.36
551.51	461.09
551.68	365.12
551.84	482.15
552.01	411.93
552.18	425.98
552.34	388.53
552.51	461.09
552.68	411.93
552.84	454.06
553.01	451.72
553.18	404.91
553.34	365.12
553.51	400.23
553.67	409.59
553.84	374.49
554.01	397.89
554.17	433.00
554.34	440.02
554.51	491.51
554.67	437.68
554.84	503.22
555.00	397.89
555.17	388.53
555.33	430.66
555.50	332.36
555.67	418.96
555.83	442.36
556.00	376.83
556.16	578.11
556.33	468.11
556.50	409.59
556.66	367.46
556.83	400.23
556.99	407.25
557.16	449.38
557.32	409.59
557.49	409.59
557.65	475.13
557.82	304.27
557.98	437.68
558.15	456.40
558.32	393.21
558.48	379.17
558.65	496.19
558.81	341.72
558.98	402.57
559.14	369.80
559.31	400.23
559.47	414.27
559.64	393.21
559.80	437.68
559.97	409.59
560.13	332.36
560.30	372.15
560.46	400.23
560.63	367.46
560.79	418.96
560.96	402.57
561.12	435.34
561.29	358.10
561.45	320.65
561.61	477.47
561.78	482.15
561.94	458.74
562.11	379.17
562.27	442.36
562.44	421.30
562.60	440.02
562.77	381.51
562.93	475.13
563.10	447.04
563.26	451.72
563.42	435.34
563.59	423.64
563.75	435.34
563.92	407.25
564.08	411.93
564.24	423.64
564.41	458.74
564.57	433.00
564.74	322.99
564.90	400.23
565.07	358.10
565.23	484.49
565.39	381.51
565.56	416.62
565.72	428.32
565.88	397.89
566.05	381.51
566.21	458.74
566.38	418.96
566.54	402.57
566.70	456.40
566.87	397.89
567.03	442.36
567.19	423.64
567.36	440.02
567.52	465.77
567.68	482.15
567.85	414.27
568.01	425.98
568.17	339.38
568.34	425.98
568.50	430.66
568.66	414.27
568.83	472.79
568.99	449.38
569.15	379.17
569.32	425.98
569.48	454.06
569.64	463.43
569.81	404.91
569.97	440.02
570.13	388.53
570.30	435.34
570.46	383.85
570.62	355.76
570.78	440.02
570.95	383.85
571.11	386.19
571.27	390.87
571.43	437.68
571.60	414.27
571.76	348.74
571.92	484.49
572.09	444.70
572.25	411.93
572.41	444.70
572.57	411.93
572.74	475.13
572.90	470.45
573.06	402.57
573.22	365.12
573.38	423.64
573.55	393.21
573.71	390.87
573.87	472.79
574.03	339.38
574.20	472.79
574.36	447.04
574.52	381.51
574.68	404.91
574.84	435.34
575.01	409.59
575.17	486.83
575.33	437.68
575.49	449.38
575.65	454.06
575.82	423.64
575.98	418.96
576.14	477.47
576.30	416.62
576.46	475.13
576.62	468.11
576.79	334.70
576.95	479.81
577.11	531.30
577.27	358.10
577.43	430.66
577.59	458.74
577.75	421.30
577.92	400.23
578.08	411.93
578.24	393.21
578.40	454.06
578.56	468.11
578.72	390.87
578.88	409.59
579.04	435.34
579.21	477.47
579.37	454.06
579.53	386.19
579.69	397.89
579.85	411.93
580.01	388.53
580.17	421.30
580.33	463.43
580.49	372.15
580.65	400.23
580.82	409.59
580.98	407.25
581.14	388.53
581.30	477.47
581.46	355.76
581.62	409.59
581.78	430.66
581.94	447.04
582.10	367.46
582.26	376.83
582.42	435.34
582.58	458.74
582.74	365.12
582.90	500.87
583.06	454.06
583.22	528.96
583.38	442.36
583.54	404.91
583.70	390.87
583.86	360.44
584.02	367.46
584.18	402.57
584.34	395.55
584.50	379.17
584.66	365.12
584.82	423.64
584.98	414.27
585.14	372.15
585.30	409.59
585.46	411.93
585.62	402.57
585.78	479.81
585.94	468.11
586.10	449.38
586.26	360.44
586.42	519.60
586.58	447.04
586.74	470.45
586.90	437.68
587.06	393.21
587.22	367.46
587.38	397.89
587.54	381.51
587.70	407.25
587.86	416.62
588.02	442.36
588.18	390.87
588.34	400.23
588.49	393.21
588.65	381.51
588.81	437.68
588.97	449.38
589.13	421.30
589.29	404.91
589.45	386.19
589.61	407.25
589.77	470.45
589.93	440.02
590.08	351.08
590.24	383.85
590.40	444.70
590.56	416.62
590.72	376.83
590.88	351.08
591.04	404.91
591.20	397.89
591.35	332.36
591.51	372.15
591.67	433.00
591.83	418.96
591.99	402.57
592.15	440.02
592.31	425.98
592.46	332.36
592.62	482.15
592.78	395.55
592.94	402.57
593.10	430.66
593.26	447.04
593.41	407.25
593.57	395.55
593.73	374.49
593.89	397.89
594.05	409.59
594.20	435.34
594.36	428.32
594.52	367.46
594.68	442.36
594.84	463.43
594.99	463.43
595.15	491.51
595.31	320.65
595.47	416.62
595.62	447.04
595.78	416.62
595.94	416.62
596.10	425.98
596.25	327.68
596.41	463.43
596.57	475.13
596.73	388.53
596.88	416.62
597.04	393.21
597.20	386.19
597.36	418.96
597.51	283.20
597.67	423.64
597.83	395.55
597.99	440.02
598.14	423.64
598.30	461.09
598.46	381.51
598.61	458.74
598.77	435.34
598.93	397.89
599.09	402.57
599.24	454.06
599.40	395.55
599.56	470.45
599.71	369.80
599.87	386.19
600.03	451.72
600.18	428.32
600.34	491.51
600.50	416.62
600.65	430.66
600.81	397.89
600.97	409.59
601.12	416.62
601.28	355.76
601.44	442.36
601.59	393.21
601.75	409.59
601.91	449.38
602.06	437.68
602.22	458.74
602.37	362.78
602.53	416.62
602.69	404.91
602.84	440.02
603.00	383.85
603.16	425.98
603.31	440.02
603.47	447.04
603.62	381.51
603.78	365.12
603.94	381.51
604.09	386.19
604.25	383.85
604.40	428.32
604.56	428.32
604.71	425.98
604.87	411.93
605.03	407.25
605.18	409.59
605.34	442.36
605.49	425.98
605.65	407.25
605.80	444.70
605.96	500.87
606.12	447.04
606.27	411.93
606.43	388.53
606.58	344.06
606.74	337.04
606.89	454.06
607.05	383.85
607.20	365.12
607.36	407.25
607.51	449.38
607.67	393.21
607.82	393.21
607.98	402.57
608.13	409.59
608.29	386.19
608.44	423.64
608.60	376.83
608.75	454.06
608.91	425.98
609.06	372.15
609.22	355.76
609.37	433.00
609.53	395.55
609.68	416.62
609.84	414.27
609.99	402.57
610.15	465.77
