SpectraSuite Data File
++++++++++++++++++++++++++++++++++++
Date: Fri Oct 25 12:10:52 EDT 2013
User: price-jones
Dark Spectrum Present: No
Reference Spectrum Present: No
Number of Sampled Component Spectra: 1
Spectrometers: USB2+H05261
Integration Time (usec): 100000 (USB2+H05261)
Spectra Averaged: 1 (USB2+H05261)
Boxcar Smoothing: 0 (USB2+H05261)
Correct for Electrical Dark: No (USB2+H05261)
Strobe/Lamp Enabled: No (USB2+H05261)
Correct for Detector Non-linearity: No (USB2+H05261)
Correct for Stray Light: No (USB2+H05261)
Number of Pixels in Processed Spectrum: 2048
>>>>>Begin Processed Spectral Data<<<<<
365.73	318.31
365.92	318.31
366.12	318.31
366.32	255.12
366.52	280.86
366.72	227.03
366.91	217.67
367.11	271.50
367.31	187.24
367.51	210.65
367.70	257.46
367.90	255.12
368.10	147.45
368.30	241.08
368.49	318.31
368.69	266.82
368.89	236.39
369.09	191.92
369.28	271.50
369.48	280.86
369.68	273.84
369.87	339.38
370.07	276.18
370.27	351.08
370.47	297.25
370.66	318.31
370.86	337.04
371.06	433.00
371.25	423.64
371.45	421.30
371.65	381.51
371.84	393.21
372.04	362.78
372.24	414.27
372.44	395.55
372.63	440.02
372.83	411.93
373.03	421.30
373.22	414.27
373.42	449.38
373.62	365.12
373.81	500.87
374.01	454.06
374.21	411.93
374.40	402.57
374.60	451.72
374.79	388.53
374.99	461.09
375.19	428.32
375.38	425.98
375.58	444.70
375.78	425.98
375.97	454.06
376.17	470.45
376.37	409.59
376.56	451.72
376.76	388.53
376.95	362.78
377.15	463.43
377.35	404.91
377.54	383.85
377.74	409.59
377.93	353.42
378.13	407.25
378.33	447.04
378.52	386.19
378.72	360.44
378.91	461.09
379.11	374.49
379.31	470.45
379.50	397.89
379.70	449.38
379.89	418.96
380.09	423.64
380.28	395.55
380.48	461.09
380.68	414.27
380.87	437.68
381.07	421.30
381.26	489.17
381.46	383.85
381.65	456.40
381.85	421.30
382.04	442.36
382.24	381.51
382.43	318.31
382.63	409.59
382.83	411.93
383.02	397.89
383.22	383.85
383.41	437.68
383.61	458.74
383.80	425.98
384.00	388.53
384.19	360.44
384.39	346.40
384.58	411.93
384.78	454.06
384.97	362.78
385.17	407.25
385.36	407.25
385.56	376.83
385.75	433.00
385.95	416.62
386.14	400.23
386.34	437.68
386.53	444.70
386.72	346.40
386.92	395.55
387.11	393.21
387.31	372.15
387.50	425.98
387.70	330.02
387.89	444.70
388.09	358.10
388.28	344.06
388.48	369.80
388.67	416.62
388.86	374.49
389.06	428.32
389.25	397.89
389.45	407.25
389.64	280.86
389.84	397.89
390.03	451.72
390.22	402.57
390.42	477.47
390.61	425.98
390.81	334.70
391.00	346.40
391.19	461.09
391.39	468.11
391.58	444.70
391.78	404.91
391.97	428.32
392.16	477.47
392.36	414.27
392.55	437.68
392.75	397.89
392.94	348.74
393.13	435.34
393.33	395.55
393.52	325.33
393.71	444.70
393.91	421.30
394.10	372.15
394.29	376.83
394.49	367.46
394.68	414.27
394.88	416.62
395.07	437.68
395.26	470.45
395.46	440.02
395.65	442.36
395.84	367.46
396.04	465.77
396.23	360.44
396.42	468.11
396.62	435.34
396.81	407.25
397.00	397.89
397.19	479.81
397.39	393.21
397.58	484.49
397.77	365.12
397.97	379.17
398.16	416.62
398.35	482.15
398.55	414.27
398.74	393.21
398.93	423.64
399.12	400.23
399.32	423.64
399.51	383.85
399.70	418.96
399.90	454.06
400.09	447.04
400.28	423.64
400.47	395.55
400.67	358.10
400.86	416.62
401.05	395.55
401.24	440.02
401.44	283.20
401.63	395.55
401.82	416.62
402.01	304.27
402.21	421.30
402.40	358.10
402.59	421.30
402.78	337.04
402.97	433.00
403.17	351.08
403.36	465.77
403.55	489.17
403.74	379.17
403.93	416.62
404.13	390.87
404.32	395.55
404.51	400.23
404.70	393.21
404.89	449.38
405.09	463.43
405.28	376.83
405.47	414.27
405.66	421.30
405.85	449.38
406.05	390.87
406.24	402.57
406.43	393.21
406.62	374.49
406.81	482.15
407.00	456.40
407.20	416.62
407.39	358.10
407.58	341.72
407.77	409.59
407.96	379.17
408.15	423.64
408.34	421.30
408.54	435.34
408.73	435.34
408.92	311.29
409.11	442.36
409.30	423.64
409.49	386.19
409.68	416.62
409.87	355.76
410.07	393.21
410.26	400.23
410.45	383.85
410.64	374.49
410.83	414.27
411.02	421.30
411.21	489.17
411.40	372.15
411.59	374.49
411.78	454.06
411.98	444.70
412.17	411.93
412.36	437.68
412.55	402.57
412.74	369.80
412.93	402.57
413.12	330.02
413.31	442.36
413.50	390.87
413.69	435.34
413.88	367.46
414.07	451.72
414.26	402.57
414.45	430.66
414.64	393.21
414.83	365.12
415.02	341.72
415.22	465.77
415.41	418.96
415.60	437.68
415.79	369.80
415.98	470.45
416.17	454.06
416.36	444.70
416.55	428.32
416.74	416.62
416.93	407.25
417.12	433.00
417.31	447.04
417.50	404.91
417.69	437.68
417.88	411.93
418.07	390.87
418.26	550.03
418.45	372.15
418.64	444.70
418.83	388.53
419.02	433.00
419.21	402.57
419.39	360.44
419.58	411.93
419.77	369.80
419.96	437.68
420.15	461.09
420.34	437.68
420.53	437.68
420.72	440.02
420.91	454.06
421.10	423.64
421.29	456.40
421.48	418.96
421.67	388.53
421.86	388.53
422.05	411.93
422.24	442.36
422.43	418.96
422.61	440.02
422.80	425.98
422.99	400.23
423.18	423.64
423.37	400.23
423.56	407.25
423.75	463.43
423.94	369.80
424.13	472.79
424.32	351.08
424.50	454.06
424.69	425.98
424.88	472.79
425.07	433.00
425.26	435.34
425.45	388.53
425.64	402.57
425.83	444.70
426.01	383.85
426.20	444.70
426.39	444.70
426.58	449.38
426.77	458.74
426.96	435.34
427.15	414.27
427.33	461.09
427.52	414.27
427.71	397.89
427.90	390.87
428.09	435.34
428.28	437.68
428.46	414.27
428.65	454.06
428.84	430.66
429.03	425.98
429.22	397.89
429.40	376.83
429.59	433.00
429.78	447.04
429.97	365.12
430.16	407.25
430.34	421.30
430.53	414.27
430.72	463.43
430.91	414.27
431.10	346.40
431.28	447.04
431.47	390.87
431.66	409.59
431.85	425.98
432.03	430.66
432.22	489.17
432.41	379.17
432.60	447.04
432.79	444.70
432.97	454.06
433.16	395.55
433.35	355.76
433.54	433.00
433.72	353.42
433.91	444.70
434.10	397.89
434.28	461.09
434.47	362.78
434.66	425.98
434.85	414.27
435.03	358.10
435.22	449.38
435.41	409.59
435.59	458.74
435.78	320.65
435.97	308.95
436.16	451.72
436.34	388.53
436.53	440.02
436.72	433.00
436.90	449.38
437.09	393.21
437.28	463.43
437.46	411.93
437.65	418.96
437.84	404.91
438.02	468.11
438.21	344.06
438.40	449.38
438.58	442.36
438.77	447.04
438.96	435.34
439.14	337.04
439.33	390.87
439.52	411.93
439.70	386.19
439.89	414.27
440.08	400.23
440.26	362.78
440.45	437.68
440.63	425.98
440.82	386.19
441.01	372.15
441.19	379.17
441.38	440.02
441.57	379.17
441.75	440.02
441.94	423.64
442.12	407.25
442.31	531.30
442.50	493.85
442.68	418.96
442.87	472.79
443.05	379.17
443.24	402.57
443.43	390.87
443.61	395.55
443.80	416.62
443.98	367.46
444.17	369.80
444.35	440.02
444.54	411.93
444.73	395.55
444.91	355.76
445.10	402.57
445.28	409.59
445.47	379.17
445.65	421.30
445.84	409.59
446.02	423.64
446.21	442.36
446.39	416.62
446.58	402.57
446.77	444.70
446.95	365.12
447.14	418.96
447.32	521.94
447.51	355.76
447.69	411.93
447.88	400.23
448.06	421.30
448.25	414.27
448.43	346.40
448.62	421.30
448.80	367.46
448.99	461.09
449.17	414.27
449.36	372.15
449.54	409.59
449.73	423.64
449.91	430.66
450.10	437.68
450.28	444.70
450.46	526.62
450.65	484.49
450.83	433.00
451.02	470.45
451.20	456.40
451.39	451.72
451.57	428.32
451.76	437.68
451.94	395.55
452.13	388.53
452.31	442.36
452.49	416.62
452.68	400.23
452.86	449.38
453.05	433.00
453.23	402.57
453.42	421.30
453.60	355.76
453.78	400.23
453.97	414.27
454.15	442.36
454.34	435.34
454.52	461.09
454.70	435.34
454.89	397.89
455.07	362.78
455.26	325.33
455.44	407.25
455.62	330.02
455.81	397.89
455.99	454.06
456.17	477.47
456.36	341.72
456.54	360.44
456.73	397.89
456.91	454.06
457.09	383.85
457.28	456.40
457.46	465.77
457.64	367.46
457.83	367.46
458.01	376.83
458.19	423.64
458.38	397.89
458.56	374.49
458.74	390.87
458.93	409.59
459.11	533.64
459.29	376.83
459.48	409.59
459.66	418.96
459.84	430.66
460.03	524.28
460.21	451.72
460.39	433.00
460.57	421.30
460.76	365.12
460.94	442.36
461.12	425.98
461.31	411.93
461.49	475.13
461.67	402.57
461.85	386.19
462.04	365.12
462.22	812.17
462.40	447.04
462.59	372.15
462.77	376.83
462.95	425.98
463.13	388.53
463.32	442.36
463.50	337.04
463.68	362.78
463.86	402.57
464.05	430.66
464.23	435.34
464.41	489.17
464.59	402.57
464.78	409.59
464.96	411.93
465.14	444.70
465.32	414.27
465.50	428.32
465.69	400.23
465.87	362.78
466.05	435.34
466.23	393.21
466.41	428.32
466.60	456.40
466.78	372.15
466.96	444.70
467.14	397.89
467.32	440.02
467.51	430.66
467.69	514.92
467.87	449.38
468.05	465.77
468.23	423.64
468.41	437.68
468.60	484.49
468.78	435.34
468.96	472.79
469.14	383.85
469.32	344.06
469.50	400.23
469.69	388.53
469.87	437.68
470.05	461.09
470.23	444.70
470.41	409.59
470.59	351.08
470.77	477.47
470.95	374.49
471.14	390.87
471.32	421.30
471.50	440.02
471.68	470.45
471.86	411.93
472.04	381.51
472.22	454.06
472.40	433.00
472.58	376.83
472.77	404.91
472.95	411.93
473.13	451.72
473.31	433.00
473.49	430.66
473.67	362.78
473.85	360.44
474.03	458.74
474.21	407.25
474.39	388.53
474.57	451.72
474.75	461.09
474.93	498.53
475.12	376.83
475.30	456.40
475.48	435.34
475.66	428.32
475.84	411.93
476.02	386.19
476.20	418.96
476.38	365.12
476.56	456.40
476.74	407.25
476.92	369.80
477.10	404.91
477.28	362.78
477.46	390.87
477.64	435.34
477.82	402.57
478.00	425.98
478.18	423.64
478.36	402.57
478.54	393.21
478.72	369.80
478.90	402.57
479.08	379.17
479.26	442.36
479.44	418.96
479.62	341.72
479.80	395.55
479.98	330.02
480.16	360.44
480.34	393.21
480.52	409.59
480.70	479.81
480.88	388.53
481.06	402.57
481.24	402.57
481.41	365.12
481.59	421.30
481.77	367.46
481.95	433.00
482.13	360.44
482.31	435.34
482.49	475.13
482.67	411.93
482.85	355.76
483.03	402.57
483.21	428.32
483.39	369.80
483.57	407.25
483.74	397.89
483.92	479.81
484.10	379.17
484.28	447.04
484.46	456.40
484.64	367.46
484.82	404.91
485.00	360.44
485.18	442.36
485.35	428.32
485.53	393.21
485.71	479.81
485.89	416.62
486.07	451.72
486.25	390.87
486.43	395.55
486.61	376.83
486.78	344.06
486.96	358.10
487.14	414.27
487.32	430.66
487.50	344.06
487.68	418.96
487.85	348.74
488.03	414.27
488.21	503.22
488.39	421.30
488.57	451.72
488.75	376.83
488.92	514.92
489.10	442.36
489.28	404.91
489.46	407.25
489.64	470.45
489.81	383.85
489.99	458.74
490.17	425.98
490.35	437.68
490.53	416.62
490.70	374.49
490.88	400.23
491.06	484.49
491.24	433.00
491.41	409.59
491.59	407.25
491.77	404.91
491.95	348.74
492.13	332.36
492.30	416.62
492.48	388.53
492.66	425.98
492.84	433.00
493.01	428.32
493.19	362.78
493.37	428.32
493.54	454.06
493.72	381.51
493.90	388.53
494.08	425.98
494.25	390.87
494.43	423.64
494.61	400.23
494.79	447.04
494.96	376.83
495.14	416.62
495.32	437.68
495.49	430.66
495.67	437.68
495.85	390.87
496.02	358.10
496.20	423.64
496.38	393.21
496.55	418.96
496.73	440.02
496.91	402.57
497.09	496.19
497.26	418.96
497.44	430.66
497.62	451.72
497.79	397.89
497.97	514.92
498.14	447.04
498.32	430.66
498.50	411.93
498.67	372.15
498.85	292.57
499.03	421.30
499.20	425.98
499.38	416.62
499.56	418.96
499.73	442.36
499.91	435.34
500.08	456.40
500.26	440.02
500.44	418.96
500.61	402.57
500.79	491.51
500.97	414.27
501.14	416.62
501.32	479.81
501.49	500.87
501.67	351.08
501.84	425.98
502.02	397.89
502.20	470.45
502.37	374.49
502.55	472.79
502.72	472.79
502.90	407.25
503.07	430.66
503.25	397.89
503.43	435.34
503.60	393.21
503.78	395.55
503.95	454.06
504.13	365.12
504.30	411.93
504.48	479.81
504.65	433.00
504.83	428.32
505.01	418.96
505.18	411.93
505.36	442.36
505.53	395.55
505.71	465.77
505.88	353.42
506.06	437.68
506.23	395.55
506.41	365.12
506.58	491.51
506.76	442.36
506.93	449.38
507.11	379.17
507.28	433.00
507.46	381.51
507.63	355.76
507.81	388.53
507.98	397.89
508.16	456.40
508.33	433.00
508.50	383.85
508.68	355.76
508.85	428.32
509.03	407.25
509.20	411.93
509.38	402.57
509.55	442.36
509.73	465.77
509.90	400.23
510.08	372.15
510.25	407.25
510.42	423.64
510.60	369.80
510.77	402.57
510.95	423.64
511.12	486.83
511.30	482.15
511.47	500.87
511.64	458.74
511.82	421.30
511.99	353.42
512.17	404.91
512.34	379.17
512.51	379.17
512.69	362.78
512.86	493.85
513.04	374.49
513.21	353.42
513.38	463.43
513.56	444.70
513.73	397.89
513.90	493.85
514.08	397.89
514.25	313.63
514.43	524.28
514.60	386.19
514.77	407.25
514.95	395.55
515.12	367.46
515.29	416.62
515.47	447.04
515.64	379.17
515.81	301.93
515.99	477.47
516.16	437.68
516.33	383.85
516.51	463.43
516.68	461.09
516.85	447.04
517.03	454.06
517.20	430.66
517.37	411.93
517.54	435.34
517.72	407.25
517.89	444.70
518.06	433.00
518.24	444.70
518.41	449.38
518.58	435.34
518.75	395.55
518.93	440.02
519.10	500.87
519.27	449.38
519.45	381.51
519.62	454.06
519.79	465.77
519.96	362.78
520.14	376.83
520.31	428.32
520.48	425.98
520.65	454.06
520.83	423.64
521.00	358.10
521.17	482.15
521.34	418.96
521.52	416.62
521.69	435.34
521.86	442.36
522.03	372.15
522.20	376.83
522.38	444.70
522.55	362.78
522.72	320.65
522.89	393.21
523.07	482.15
523.24	409.59
523.41	437.68
523.58	355.76
523.75	428.32
523.92	367.46
524.10	348.74
524.27	428.32
524.44	397.89
524.61	353.42
524.78	421.30
524.96	470.45
525.13	341.72
525.30	423.64
525.47	418.96
525.64	402.57
525.81	416.62
525.98	444.70
526.16	416.62
526.33	442.36
526.50	433.00
526.67	423.64
526.84	362.78
527.01	433.00
527.18	458.74
527.36	475.13
527.53	451.72
527.70	451.72
527.87	409.59
528.04	395.55
528.21	461.09
528.38	407.25
528.55	388.53
528.72	407.25
528.89	411.93
529.07	458.74
529.24	383.85
529.41	414.27
529.58	400.23
529.75	376.83
529.92	449.38
530.09	421.30
530.26	407.25
530.43	369.80
530.60	404.91
530.77	416.62
530.94	374.49
531.11	425.98
531.28	372.15
531.46	451.72
531.63	435.34
531.80	416.62
531.97	498.53
532.14	360.44
532.31	425.98
532.48	421.30
532.65	369.80
532.82	465.77
532.99	379.17
533.16	372.15
533.33	358.10
533.50	409.59
533.67	404.91
533.84	430.66
534.01	369.80
534.18	369.80
534.35	421.30
534.52	472.79
534.69	381.51
534.86	418.96
535.03	442.36
535.20	437.68
535.37	444.70
535.54	397.89
535.71	407.25
535.88	404.91
536.05	418.96
536.22	442.36
536.38	440.02
536.55	418.96
536.72	414.27
536.89	411.93
537.06	397.89
537.23	421.30
537.40	428.32
537.57	423.64
537.74	500.87
537.91	402.57
538.08	400.23
538.25	440.02
538.42	423.64
538.59	486.83
538.75	475.13
538.92	433.00
539.09	475.13
539.26	381.51
539.43	400.23
539.60	418.96
539.77	383.85
539.94	428.32
540.11	393.21
540.28	411.93
540.44	433.00
540.61	428.32
540.78	507.90
540.95	456.40
541.12	404.91
541.29	418.96
541.46	437.68
541.62	418.96
541.79	362.78
541.96	397.89
542.13	397.89
542.30	372.15
542.47	463.43
542.63	430.66
542.80	383.85
542.97	418.96
543.14	418.96
543.31	451.72
543.48	433.00
543.64	411.93
543.81	397.89
543.98	430.66
544.15	379.17
544.32	409.59
544.48	376.83
544.65	421.30
544.82	414.27
544.99	395.55
545.16	440.02
545.32	365.12
545.49	425.98
545.66	430.66
545.83	461.09
546.00	428.32
546.16	402.57
546.33	423.64
546.50	386.19
546.67	414.27
546.83	386.19
547.00	409.59
547.17	437.68
547.34	416.62
547.50	400.23
547.67	418.96
547.84	461.09
548.00	388.53
548.17	440.02
548.34	404.91
548.51	425.98
548.67	404.91
548.84	411.93
549.01	400.23
549.18	397.89
549.34	430.66
549.51	414.27
549.68	428.32
549.84	451.72
550.01	407.25
550.18	496.19
550.34	468.11
550.51	435.34
550.68	404.91
550.84	421.30
551.01	376.83
551.18	477.47
551.34	414.27
551.51	365.12
551.68	430.66
551.84	444.70
552.01	430.66
552.18	402.57
552.34	367.46
552.51	447.04
552.68	376.83
552.84	360.44
553.01	440.02
553.18	430.66
553.34	447.04
553.51	430.66
553.67	454.06
553.84	367.46
554.01	475.13
554.17	374.49
554.34	428.32
554.51	365.12
554.67	381.51
554.84	374.49
555.00	400.23
555.17	428.32
555.33	423.64
555.50	414.27
555.67	409.59
555.83	362.78
556.00	440.02
556.16	493.85
556.33	428.32
556.50	456.40
556.66	407.25
556.83	397.89
556.99	423.64
557.16	421.30
557.32	358.10
557.49	468.11
557.65	320.65
557.82	337.04
557.98	416.62
558.15	435.34
558.32	465.77
558.48	479.81
558.65	369.80
558.81	423.64
558.98	416.62
559.14	437.68
559.31	428.32
559.47	440.02
559.64	444.70
559.80	402.57
559.97	425.98
560.13	456.40
560.30	304.27
560.46	503.22
560.63	381.51
560.79	383.85
560.96	451.72
561.12	435.34
561.29	496.19
561.45	428.32
561.61	442.36
561.78	463.43
561.94	451.72
562.11	454.06
562.27	360.44
562.44	425.98
562.60	383.85
562.77	409.59
562.93	463.43
563.10	409.59
563.26	402.57
563.42	486.83
563.59	477.47
563.75	393.21
563.92	461.09
564.08	411.93
564.24	369.80
564.41	418.96
564.57	402.57
564.74	393.21
564.90	505.56
565.07	390.87
565.23	468.11
565.39	418.96
565.56	409.59
565.72	416.62
565.88	440.02
566.05	418.96
566.21	428.32
566.38	454.06
566.54	444.70
566.70	433.00
566.87	393.21
567.03	425.98
567.19	381.51
567.36	376.83
567.52	449.38
567.68	365.12
567.85	425.98
568.01	404.91
568.17	383.85
568.34	344.06
568.50	465.77
568.66	402.57
568.83	517.26
568.99	409.59
569.15	423.64
569.32	425.98
569.48	351.08
569.64	430.66
569.81	423.64
569.97	444.70
570.13	482.15
570.30	390.87
570.46	496.19
570.62	454.06
570.78	407.25
570.95	358.10
571.11	430.66
571.27	491.51
571.43	379.17
571.60	440.02
571.76	404.91
571.92	400.23
572.09	416.62
572.25	367.46
572.41	355.76
572.57	442.36
572.74	510.24
572.90	477.47
573.06	461.09
573.22	418.96
573.38	430.66
573.55	404.91
573.71	486.83
573.87	416.62
574.03	414.27
574.20	423.64
574.36	379.17
574.52	369.80
574.68	409.59
574.84	444.70
575.01	428.32
575.17	463.43
575.33	435.34
575.49	383.85
575.65	395.55
575.82	433.00
575.98	409.59
576.14	386.19
576.30	381.51
576.46	440.02
576.62	463.43
576.79	425.98
576.95	416.62
577.11	414.27
577.27	372.15
577.43	381.51
577.59	465.77
577.75	430.66
577.92	416.62
578.08	418.96
578.24	351.08
578.40	447.04
578.56	475.13
578.72	463.43
578.88	444.70
579.04	449.38
579.21	440.02
579.37	498.53
579.53	381.51
579.69	411.93
579.85	365.12
580.01	437.68
580.17	400.23
580.33	358.10
580.49	367.46
580.65	440.02
580.82	383.85
580.98	407.25
581.14	409.59
581.30	418.96
581.46	374.49
581.62	409.59
581.78	463.43
581.94	428.32
582.10	407.25
582.26	404.91
582.42	337.04
582.58	402.57
582.74	498.53
582.90	386.19
583.06	430.66
583.22	386.19
583.38	430.66
583.54	365.12
583.70	451.72
583.86	451.72
584.02	444.70
584.18	400.23
584.34	383.85
584.50	447.04
584.66	379.17
584.82	421.30
584.98	418.96
585.14	411.93
585.30	514.92
585.46	463.43
585.62	440.02
585.78	397.89
585.94	379.17
586.10	386.19
586.26	334.70
586.42	484.49
586.58	407.25
586.74	411.93
586.90	442.36
587.06	423.64
587.22	425.98
587.38	407.25
587.54	409.59
587.70	449.38
587.86	463.43
588.02	409.59
588.18	393.21
588.34	360.44
588.49	418.96
588.65	404.91
588.81	409.59
588.97	475.13
589.13	318.31
589.29	376.83
589.45	437.68
589.61	411.93
589.77	507.90
589.93	400.23
590.08	407.25
590.24	397.89
590.40	404.91
590.56	449.38
590.72	404.91
590.88	421.30
591.04	435.34
591.20	404.91
591.35	486.83
591.51	435.34
591.67	409.59
591.83	386.19
591.99	437.68
592.15	365.12
592.31	454.06
592.46	393.21
592.62	423.64
592.78	411.93
592.94	383.85
593.10	409.59
593.26	458.74
593.41	423.64
593.57	447.04
593.73	411.93
593.89	477.47
594.05	435.34
594.20	428.32
594.36	454.06
594.52	442.36
594.68	458.74
594.84	493.85
594.99	470.45
595.15	440.02
595.31	409.59
595.47	437.68
595.62	390.87
595.78	416.62
595.94	390.87
596.10	411.93
596.25	388.53
596.41	379.17
596.57	351.08
596.73	449.38
596.88	397.89
597.04	465.77
597.20	414.27
597.36	383.85
597.51	425.98
597.67	423.64
597.83	421.30
597.99	451.72
598.14	414.27
598.30	440.02
598.46	465.77
598.61	444.70
598.77	367.46
598.93	411.93
599.09	409.59
599.24	418.96
599.40	414.27
599.56	489.17
599.71	456.40
599.87	468.11
600.03	463.43
600.18	428.32
600.34	444.70
600.50	404.91
600.65	461.09
600.81	416.62
600.97	400.23
601.12	388.53
601.28	451.72
601.44	454.06
601.59	355.76
601.75	472.79
601.91	346.40
602.06	397.89
602.22	425.98
602.37	461.09
602.53	395.55
602.69	512.58
602.84	397.89
603.00	372.15
603.16	411.93
603.31	423.64
603.47	409.59
603.62	428.32
603.78	397.89
603.94	444.70
604.09	433.00
604.25	402.57
604.40	407.25
604.56	458.74
604.71	463.43
604.87	486.83
605.03	425.98
605.18	346.40
605.34	386.19
605.49	383.85
605.65	388.53
605.80	416.62
605.96	418.96
606.12	402.57
606.27	531.30
606.43	374.49
606.58	341.72
606.74	428.32
606.89	379.17
607.05	381.51
607.20	353.42
607.36	421.30
607.51	428.32
607.67	435.34
607.82	437.68
607.98	444.70
608.13	437.68
608.29	428.32
608.44	402.57
608.60	409.59
608.75	451.72
608.91	421.30
609.06	365.12
609.22	451.72
609.37	390.87
609.53	348.74
609.68	463.43
609.84	418.96
609.99	404.91
610.15	423.64
