SpectraSuite Data File
++++++++++++++++++++++++++++++++++++
Date: Fri Oct 25 12:11:28 EDT 2013
User: price-jones
Dark Spectrum Present: No
Reference Spectrum Present: No
Number of Sampled Component Spectra: 1
Spectrometers: USB2+H05261
Integration Time (usec): 100000 (USB2+H05261)
Spectra Averaged: 1 (USB2+H05261)
Boxcar Smoothing: 0 (USB2+H05261)
Correct for Electrical Dark: No (USB2+H05261)
Strobe/Lamp Enabled: No (USB2+H05261)
Correct for Detector Non-linearity: No (USB2+H05261)
Correct for Stray Light: No (USB2+H05261)
Number of Pixels in Processed Spectrum: 2048
>>>>>Begin Processed Spectral Data<<<<<
365.73	372.15
365.92	372.15
366.12	372.15
366.32	304.27
366.52	304.27
366.72	318.31
366.91	266.82
367.11	283.20
367.31	299.59
367.51	147.45
367.70	177.88
367.90	271.50
368.10	257.46
368.30	252.78
368.49	238.73
368.69	360.44
368.89	262.14
369.09	269.16
369.28	311.29
369.48	283.20
369.68	315.97
369.87	327.68
370.07	248.10
370.27	358.10
370.47	315.97
370.66	297.25
370.86	360.44
371.06	365.12
371.25	355.76
371.45	421.30
371.65	411.93
371.84	400.23
372.04	372.15
372.24	414.27
372.44	435.34
372.63	456.40
372.83	369.80
373.03	437.68
373.22	351.08
373.42	360.44
373.62	454.06
373.81	386.19
374.01	437.68
374.21	332.36
374.40	404.91
374.60	454.06
374.79	440.02
374.99	418.96
375.19	435.34
375.38	444.70
375.58	393.21
375.78	440.02
375.97	449.38
376.17	493.85
376.37	400.23
376.56	470.45
376.76	461.09
376.95	458.74
377.15	376.83
377.35	397.89
377.54	425.98
377.74	388.53
377.93	418.96
378.13	414.27
378.33	484.49
378.52	372.15
378.72	411.93
378.91	430.66
379.11	388.53
379.31	379.17
379.50	437.68
379.70	437.68
379.89	447.04
380.09	344.06
380.28	388.53
380.48	444.70
380.68	402.57
380.87	402.57
381.07	449.38
381.26	414.27
381.46	344.06
381.65	411.93
381.85	365.12
382.04	430.66
382.24	444.70
382.43	477.47
382.63	397.89
382.83	388.53
383.02	440.02
383.22	437.68
383.41	421.30
383.61	367.46
383.80	393.21
384.00	447.04
384.19	425.98
384.39	393.21
384.58	383.85
384.78	421.30
384.97	369.80
385.17	318.31
385.36	397.89
385.56	423.64
385.75	400.23
385.95	451.72
386.14	411.93
386.34	348.74
386.53	402.57
386.72	425.98
386.92	395.55
387.11	374.49
387.31	475.13
387.50	423.64
387.70	418.96
387.89	409.59
388.09	416.62
388.28	444.70
388.48	409.59
388.67	440.02
388.86	388.53
389.06	341.72
389.25	400.23
389.45	407.25
389.64	409.59
389.84	435.34
390.03	437.68
390.22	376.83
390.42	322.99
390.61	454.06
390.81	407.25
391.00	372.15
391.19	503.22
391.39	341.72
391.58	430.66
391.78	430.66
391.97	393.21
392.16	402.57
392.36	404.91
392.55	414.27
392.75	421.30
392.94	423.64
393.13	411.93
393.33	418.96
393.52	442.36
393.71	404.91
393.91	428.32
394.10	437.68
394.29	390.87
394.49	402.57
394.68	409.59
394.88	358.10
395.07	418.96
395.26	440.02
395.46	435.34
395.65	458.74
395.84	418.96
396.04	449.38
396.23	465.77
396.42	416.62
396.62	421.30
396.81	397.89
397.00	390.87
397.19	435.34
397.39	393.21
397.58	428.32
397.77	386.19
397.97	400.23
398.16	388.53
398.35	423.64
398.55	440.02
398.74	425.98
398.93	416.62
399.12	447.04
399.32	390.87
399.51	479.81
399.70	425.98
399.90	351.08
400.09	423.64
400.28	423.64
400.47	374.49
400.67	390.87
400.86	404.91
401.05	311.29
401.24	414.27
401.44	414.27
401.63	444.70
401.82	433.00
402.01	355.76
402.21	447.04
402.40	320.65
402.59	428.32
402.78	365.12
402.97	451.72
403.17	395.55
403.36	355.76
403.55	381.51
403.74	374.49
403.93	444.70
404.13	442.36
404.32	376.83
404.51	444.70
404.70	418.96
404.89	397.89
405.09	437.68
405.28	411.93
405.47	367.46
405.66	381.51
405.85	433.00
406.05	395.55
406.24	367.46
406.43	461.09
406.62	463.43
406.81	475.13
407.00	374.49
407.20	360.44
407.39	360.44
407.58	386.19
407.77	428.32
407.96	472.79
408.15	449.38
408.34	393.21
408.54	423.64
408.73	409.59
408.92	397.89
409.11	393.21
409.30	404.91
409.49	372.15
409.68	346.40
409.87	386.19
410.07	470.45
410.26	409.59
410.45	353.42
410.64	397.89
410.83	470.45
411.02	402.57
411.21	440.02
411.40	383.85
411.59	416.62
411.78	395.55
411.98	400.23
412.17	386.19
412.36	411.93
412.55	447.04
412.74	442.36
412.93	475.13
413.12	454.06
413.31	390.87
413.50	428.32
413.69	374.49
413.88	472.79
414.07	404.91
414.26	351.08
414.45	421.30
414.64	379.17
414.83	463.43
415.02	397.89
415.22	411.93
415.41	430.66
415.60	414.27
415.79	425.98
415.98	433.00
416.17	411.93
416.36	395.55
416.55	376.83
416.74	372.15
416.93	468.11
417.12	433.00
417.31	440.02
417.50	454.06
417.69	433.00
417.88	456.40
418.07	449.38
418.26	421.30
418.45	463.43
418.64	390.87
418.83	503.22
419.02	456.40
419.21	393.21
419.39	390.87
419.58	365.12
419.77	409.59
419.96	482.15
420.15	402.57
420.34	393.21
420.53	369.80
420.72	409.59
420.91	400.23
421.10	383.85
421.29	454.06
421.48	489.17
421.67	428.32
421.86	416.62
422.05	390.87
422.24	421.30
422.43	409.59
422.61	440.02
422.80	421.30
422.99	425.98
423.18	437.68
423.37	433.00
423.56	374.49
423.75	388.53
423.94	447.04
424.13	330.02
424.32	416.62
424.50	369.80
424.69	386.19
424.88	486.83
425.07	369.80
425.26	435.34
425.45	428.32
425.64	421.30
425.83	468.11
426.01	510.24
426.20	447.04
426.39	372.15
426.58	463.43
426.77	351.08
426.96	458.74
427.15	402.57
427.33	369.80
427.52	475.13
427.71	379.17
427.90	472.79
428.09	379.17
428.28	388.53
428.46	355.76
428.65	416.62
428.84	440.02
429.03	383.85
429.22	383.85
429.40	433.00
429.59	383.85
429.78	421.30
429.97	400.23
430.16	367.46
430.34	383.85
430.53	402.57
430.72	348.74
430.91	433.00
431.10	435.34
431.28	489.17
431.47	402.57
431.66	425.98
431.85	411.93
432.03	358.10
432.22	425.98
432.41	479.81
432.60	444.70
432.79	351.08
432.97	484.49
433.16	416.62
433.35	444.70
433.54	369.80
433.72	440.02
433.91	447.04
434.10	465.77
434.28	395.55
434.47	411.93
434.66	418.96
434.85	322.99
435.03	449.38
435.22	458.74
435.41	449.38
435.59	505.56
435.78	440.02
435.97	390.87
436.16	517.26
436.34	379.17
436.53	428.32
436.72	386.19
436.90	428.32
437.09	447.04
437.28	440.02
437.46	418.96
437.65	435.34
437.84	454.06
438.02	409.59
438.21	390.87
438.40	383.85
438.58	397.89
438.77	449.38
438.96	486.83
439.14	435.34
439.33	383.85
439.52	423.64
439.70	449.38
439.89	500.87
440.08	418.96
440.26	418.96
440.45	458.74
440.63	423.64
440.82	442.36
441.01	437.68
441.19	360.44
441.38	362.78
441.57	374.49
441.75	440.02
441.94	355.76
442.12	470.45
442.31	400.23
442.50	397.89
442.68	465.77
442.87	388.53
443.05	411.93
443.24	383.85
443.43	355.76
443.61	489.17
443.80	388.53
443.98	435.34
444.17	437.68
444.35	423.64
444.54	383.85
444.73	440.02
444.91	407.25
445.10	425.98
445.28	341.72
445.47	402.57
445.65	402.57
445.84	376.83
446.02	475.13
446.21	388.53
446.39	519.60
446.58	503.22
446.77	365.12
446.95	421.30
447.14	402.57
447.32	444.70
447.51	407.25
447.69	414.27
447.88	435.34
448.06	484.49
448.25	421.30
448.43	381.51
448.62	372.15
448.80	397.89
448.99	409.59
449.17	388.53
449.36	409.59
449.54	362.78
449.73	400.23
449.91	346.40
450.10	421.30
450.28	404.91
450.46	500.87
450.65	484.49
450.83	393.21
451.02	376.83
451.20	470.45
451.39	393.21
451.57	397.89
451.76	388.53
451.94	402.57
452.13	386.19
452.31	468.11
452.49	416.62
452.68	407.25
452.86	433.00
453.05	505.56
453.23	379.17
453.42	362.78
453.60	463.43
453.78	369.80
453.97	416.62
454.15	369.80
454.34	400.23
454.52	456.40
454.70	411.93
454.89	404.91
455.07	435.34
455.26	416.62
455.44	400.23
455.62	393.21
455.81	531.30
455.99	374.49
456.17	479.81
456.36	442.36
456.54	484.49
456.73	404.91
456.91	388.53
457.09	332.36
457.28	435.34
457.46	421.30
457.64	425.98
457.83	437.68
458.01	407.25
458.19	414.27
458.38	409.59
458.56	423.64
458.74	425.98
458.93	433.00
459.11	376.83
459.29	416.62
459.48	461.09
459.66	482.15
459.84	500.87
460.03	440.02
460.21	374.49
460.39	470.45
460.57	430.66
460.76	416.62
460.94	411.93
461.12	510.24
461.31	425.98
461.49	395.55
461.67	327.68
461.85	320.65
462.04	421.30
462.22	793.44
462.40	409.59
462.59	454.06
462.77	449.38
462.95	397.89
463.13	430.66
463.32	379.17
463.50	461.09
463.68	430.66
463.86	428.32
464.05	454.06
464.23	451.72
464.41	430.66
464.59	372.15
464.78	348.74
464.96	435.34
465.14	482.15
465.32	393.21
465.50	379.17
465.69	447.04
465.87	353.42
466.05	472.79
466.23	440.02
466.41	418.96
466.60	421.30
466.78	449.38
466.96	407.25
467.14	339.38
467.32	435.34
467.51	397.89
467.69	383.85
467.87	454.06
468.05	402.57
468.23	458.74
468.41	444.70
468.60	440.02
468.78	407.25
468.96	418.96
469.14	433.00
469.32	388.53
469.50	395.55
469.69	465.77
469.87	407.25
470.05	414.27
470.23	463.43
470.41	423.64
470.59	397.89
470.77	425.98
470.95	369.80
471.14	442.36
471.32	418.96
471.50	437.68
471.68	418.96
471.86	358.10
472.04	388.53
472.22	472.79
472.40	421.30
472.58	369.80
472.77	395.55
472.95	374.49
473.13	423.64
473.31	372.15
473.49	454.06
473.67	360.44
473.85	456.40
474.03	414.27
474.21	390.87
474.39	430.66
474.57	484.49
474.75	402.57
474.93	358.10
475.12	409.59
475.30	411.93
475.48	433.00
475.66	404.91
475.84	376.83
476.02	318.31
476.20	416.62
476.38	435.34
476.56	418.96
476.74	472.79
476.92	393.21
477.10	425.98
477.28	428.32
477.46	376.83
477.64	456.40
477.82	421.30
478.00	353.42
478.18	407.25
478.36	409.59
478.54	402.57
478.72	418.96
478.90	381.51
479.08	397.89
479.26	395.55
479.44	447.04
479.62	367.46
479.80	503.22
479.98	372.15
480.16	395.55
480.34	430.66
480.52	444.70
480.70	440.02
480.88	393.21
481.06	400.23
481.24	449.38
481.41	430.66
481.59	407.25
481.77	433.00
481.95	418.96
482.13	465.77
482.31	400.23
482.49	512.58
482.67	414.27
482.85	435.34
483.03	498.53
483.21	395.55
483.39	397.89
483.57	425.98
483.74	376.83
483.92	407.25
484.10	397.89
484.28	402.57
484.46	507.90
484.64	425.98
484.82	482.15
485.00	367.46
485.18	355.76
485.35	423.64
485.53	454.06
485.71	418.96
485.89	400.23
486.07	440.02
486.25	479.81
486.43	397.89
486.61	409.59
486.78	369.80
486.96	430.66
487.14	442.36
487.32	407.25
487.50	379.17
487.68	407.25
487.85	346.40
488.03	395.55
488.21	407.25
488.39	414.27
488.57	463.43
488.75	369.80
488.92	531.30
489.10	402.57
489.28	447.04
489.46	402.57
489.64	447.04
489.81	402.57
489.99	381.51
490.17	421.30
490.35	437.68
490.53	449.38
490.70	433.00
490.88	440.02
491.06	367.46
491.24	383.85
491.41	472.79
491.59	423.64
491.77	390.87
491.95	397.89
492.13	407.25
492.30	362.78
492.48	383.85
492.66	465.77
492.84	409.59
493.01	414.27
493.19	395.55
493.37	463.43
493.54	404.91
493.72	423.64
493.90	379.17
494.08	402.57
494.25	423.64
494.43	379.17
494.61	470.45
494.79	397.89
494.96	390.87
495.14	404.91
495.32	383.85
495.49	437.68
495.67	428.32
495.85	411.93
496.02	400.23
496.20	425.98
496.38	409.59
496.55	479.81
496.73	447.04
496.91	374.49
497.09	362.78
497.26	404.91
497.44	355.76
497.62	369.80
497.79	461.09
497.97	491.51
498.14	360.44
498.32	376.83
498.50	423.64
498.67	355.76
498.85	407.25
499.03	372.15
499.20	334.70
499.38	440.02
499.56	463.43
499.73	433.00
499.91	414.27
500.08	451.72
500.26	425.98
500.44	376.83
500.61	379.17
500.79	379.17
500.97	411.93
501.14	444.70
501.32	390.87
501.49	430.66
501.67	447.04
501.84	421.30
502.02	437.68
502.20	409.59
502.37	344.06
502.55	411.93
502.72	348.74
502.90	423.64
503.07	421.30
503.25	428.32
503.43	477.47
503.60	433.00
503.78	468.11
503.95	409.59
504.13	393.21
504.30	465.77
504.48	454.06
504.65	519.60
504.83	418.96
505.01	348.74
505.18	421.30
505.36	447.04
505.53	418.96
505.71	407.25
505.88	416.62
506.06	482.15
506.23	447.04
506.41	393.21
506.58	416.62
506.76	388.53
506.93	435.34
507.11	477.47
507.28	362.78
507.46	428.32
507.63	409.59
507.81	374.49
507.98	351.08
508.16	353.42
508.33	477.47
508.50	409.59
508.68	397.89
508.85	423.64
509.03	369.80
509.20	353.42
509.38	461.09
509.55	442.36
509.73	402.57
509.90	463.43
510.08	395.55
510.25	489.17
510.42	404.91
510.60	411.93
510.77	407.25
510.95	437.68
511.12	433.00
511.30	442.36
511.47	409.59
511.64	468.11
511.82	421.30
511.99	423.64
512.17	404.91
512.34	437.68
512.51	404.91
512.69	454.06
512.86	458.74
513.04	435.34
513.21	414.27
513.38	423.64
513.56	433.00
513.73	388.53
513.90	414.27
514.08	442.36
514.25	428.32
514.43	428.32
514.60	444.70
514.77	465.77
514.95	355.76
515.12	428.32
515.29	435.34
515.47	407.25
515.64	416.62
515.81	365.12
515.99	409.59
516.16	430.66
516.33	400.23
516.51	428.32
516.68	442.36
516.85	381.51
517.03	400.23
517.20	444.70
517.37	482.15
517.54	449.38
517.72	407.25
517.89	360.44
518.06	402.57
518.24	376.83
518.41	442.36
518.58	395.55
518.75	421.30
518.93	428.32
519.10	437.68
519.27	433.00
519.45	425.98
519.62	367.46
519.79	475.13
519.96	397.89
520.14	416.62
520.31	421.30
520.48	355.76
520.65	421.30
520.83	383.85
521.00	390.87
521.17	477.47
521.34	348.74
521.52	414.27
521.69	409.59
521.86	423.64
522.03	444.70
522.20	416.62
522.38	376.83
522.55	421.30
522.72	423.64
522.89	447.04
523.07	533.64
523.24	388.53
523.41	322.99
523.58	444.70
523.75	402.57
523.92	351.08
524.10	369.80
524.27	344.06
524.44	416.62
524.61	440.02
524.78	458.74
524.96	461.09
525.13	365.12
525.30	425.98
525.47	468.11
525.64	433.00
525.81	482.15
525.98	397.89
526.16	411.93
526.33	435.34
526.50	423.64
526.67	315.97
526.84	400.23
527.01	421.30
527.18	365.12
527.36	468.11
527.53	407.25
527.70	461.09
527.87	433.00
528.04	456.40
528.21	376.83
528.38	444.70
528.55	393.21
528.72	348.74
528.89	489.17
529.07	442.36
529.24	421.30
529.41	486.83
529.58	430.66
529.75	484.49
529.92	409.59
530.09	482.15
530.26	414.27
530.43	440.02
530.60	365.12
530.77	425.98
530.94	339.38
531.11	386.19
531.28	437.68
531.46	435.34
531.63	379.17
531.80	411.93
531.97	390.87
532.14	381.51
532.31	437.68
532.48	449.38
532.65	418.96
532.82	372.15
532.99	386.19
533.16	386.19
533.33	454.06
533.50	435.34
533.67	404.91
533.84	430.66
534.01	400.23
534.18	395.55
534.35	369.80
534.52	416.62
534.69	358.10
534.86	423.64
535.03	402.57
535.20	402.57
535.37	358.10
535.54	475.13
535.71	388.53
535.88	433.00
536.05	374.49
536.22	444.70
536.38	449.38
536.55	435.34
536.72	496.19
536.89	372.15
537.06	386.19
537.23	411.93
537.40	365.12
537.57	372.15
537.74	435.34
537.91	416.62
538.08	404.91
538.25	458.74
538.42	355.76
538.59	400.23
538.75	454.06
538.92	454.06
539.09	393.21
539.26	390.87
539.43	435.34
539.60	421.30
539.77	475.13
539.94	414.27
540.11	472.79
540.28	444.70
540.44	407.25
540.61	409.59
540.78	444.70
540.95	362.78
541.12	463.43
541.29	409.59
541.46	461.09
541.62	388.53
541.79	421.30
541.96	421.30
542.13	421.30
542.30	372.15
542.47	491.51
542.63	393.21
542.80	437.68
542.97	440.02
543.14	468.11
543.31	421.30
543.48	437.68
543.64	465.77
543.81	463.43
543.98	435.34
544.15	367.46
544.32	418.96
544.48	383.85
544.65	428.32
544.82	423.64
544.99	440.02
545.16	444.70
545.32	416.62
545.49	409.59
545.66	397.89
545.83	423.64
546.00	418.96
546.16	423.64
546.33	407.25
546.50	479.81
546.67	379.17
546.83	414.27
547.00	400.23
547.17	465.77
547.34	447.04
547.50	337.04
547.67	425.98
547.84	430.66
548.00	407.25
548.17	407.25
548.34	447.04
548.51	337.04
548.67	416.62
548.84	381.51
549.01	397.89
549.18	489.17
549.34	440.02
549.51	414.27
549.68	454.06
549.84	416.62
550.01	409.59
550.18	444.70
550.34	465.77
550.51	444.70
550.68	449.38
550.84	397.89
551.01	416.62
551.18	414.27
551.34	440.02
551.51	388.53
551.68	351.08
551.84	407.25
552.01	486.83
552.18	461.09
552.34	400.23
552.51	337.04
552.68	437.68
552.84	414.27
553.01	339.38
553.18	479.81
553.34	397.89
553.51	360.44
553.67	423.64
553.84	425.98
554.01	482.15
554.17	442.36
554.34	437.68
554.51	414.27
554.67	351.08
554.84	414.27
555.00	433.00
555.17	423.64
555.33	437.68
555.50	472.79
555.67	437.68
555.83	430.66
556.00	465.77
556.16	498.53
556.33	491.51
556.50	393.21
556.66	451.72
556.83	402.57
556.99	418.96
557.16	407.25
557.32	423.64
557.49	390.87
557.65	388.53
557.82	421.30
557.98	484.49
558.15	461.09
558.32	362.78
558.48	341.72
558.65	386.19
558.81	433.00
558.98	376.83
559.14	393.21
559.31	409.59
559.47	409.59
559.64	353.42
559.80	400.23
559.97	397.89
560.13	421.30
560.30	479.81
560.46	461.09
560.63	386.19
560.79	379.17
560.96	447.04
561.12	369.80
561.29	397.89
561.45	475.13
561.61	465.77
561.78	468.11
561.94	428.32
562.11	423.64
562.27	437.68
562.44	437.68
562.60	421.30
562.77	465.77
562.93	444.70
563.10	397.89
563.26	376.83
563.42	468.11
563.59	416.62
563.75	463.43
563.92	444.70
564.08	404.91
564.24	493.85
564.41	517.26
564.57	470.45
564.74	339.38
564.90	472.79
565.07	456.40
565.23	472.79
565.39	489.17
565.56	418.96
565.72	346.40
565.88	355.76
566.05	421.30
566.21	418.96
566.38	393.21
566.54	433.00
566.70	447.04
566.87	461.09
567.03	386.19
567.19	379.17
567.36	393.21
567.52	376.83
567.68	477.47
567.85	507.90
568.01	395.55
568.17	372.15
568.34	383.85
568.50	435.34
568.66	444.70
568.83	540.66
568.99	447.04
569.15	416.62
569.32	425.98
569.48	404.91
569.64	423.64
569.81	449.38
569.97	451.72
570.13	456.40
570.30	400.23
570.46	374.49
570.62	418.96
570.78	388.53
570.95	362.78
571.11	451.72
571.27	528.96
571.43	418.96
571.60	428.32
571.76	423.64
571.92	372.15
572.09	416.62
572.25	440.02
572.41	425.98
572.57	425.98
572.74	491.51
572.90	444.70
573.06	421.30
573.22	430.66
573.38	507.90
573.55	418.96
573.71	423.64
573.87	454.06
574.03	470.45
574.20	449.38
574.36	484.49
574.52	418.96
574.68	400.23
574.84	454.06
575.01	418.96
575.17	482.15
575.33	444.70
575.49	348.74
575.65	409.59
575.82	393.21
575.98	407.25
576.14	400.23
576.30	435.34
576.46	423.64
576.62	493.85
576.79	435.34
576.95	393.21
577.11	458.74
577.27	437.68
577.43	428.32
577.59	531.30
577.75	402.57
577.92	430.66
578.08	346.40
578.24	409.59
578.40	447.04
578.56	376.83
578.72	472.79
578.88	409.59
579.04	404.91
579.21	465.77
579.37	376.83
579.53	430.66
579.69	479.81
579.85	374.49
580.01	414.27
580.17	395.55
580.33	451.72
580.49	463.43
580.65	381.51
580.82	402.57
580.98	393.21
581.14	463.43
581.30	440.02
581.46	484.49
581.62	500.87
581.78	425.98
581.94	381.51
582.10	353.42
582.26	423.64
582.42	425.98
582.58	411.93
582.74	388.53
582.90	407.25
583.06	449.38
583.22	491.51
583.38	433.00
583.54	461.09
583.70	475.13
583.86	428.32
584.02	449.38
584.18	383.85
584.34	397.89
584.50	416.62
584.66	437.68
584.82	351.08
584.98	388.53
585.14	339.38
585.30	461.09
585.46	374.49
585.62	454.06
585.78	358.10
585.94	393.21
586.10	449.38
586.26	414.27
586.42	430.66
586.58	416.62
586.74	351.08
586.90	355.76
587.06	414.27
587.22	416.62
587.38	351.08
587.54	388.53
587.70	428.32
587.86	421.30
588.02	386.19
588.18	362.78
588.34	379.17
588.49	449.38
588.65	416.62
588.81	440.02
588.97	381.51
589.13	482.15
589.29	454.06
589.45	451.72
589.61	351.08
589.77	433.00
589.93	334.70
590.08	379.17
590.24	418.96
590.40	400.23
590.56	365.12
590.72	416.62
590.88	430.66
591.04	440.02
591.20	395.55
591.35	444.70
591.51	437.68
591.67	390.87
591.83	402.57
591.99	435.34
592.15	454.06
592.31	463.43
592.46	421.30
592.62	348.74
592.78	456.40
592.94	475.13
593.10	379.17
593.26	472.79
593.41	395.55
593.57	430.66
593.73	425.98
593.89	390.87
594.05	397.89
594.20	416.62
594.36	500.87
594.52	404.91
594.68	393.21
594.84	456.40
594.99	409.59
595.15	433.00
595.31	425.98
595.47	404.91
595.62	416.62
595.78	440.02
595.94	437.68
596.10	451.72
596.25	463.43
596.41	407.25
596.57	411.93
596.73	376.83
596.88	369.80
597.04	451.72
597.20	397.89
597.36	496.19
597.51	372.15
597.67	337.04
597.83	411.93
597.99	456.40
598.14	372.15
598.30	437.68
598.46	440.02
598.61	400.23
598.77	367.46
598.93	372.15
599.09	386.19
599.24	395.55
599.40	430.66
599.56	437.68
599.71	458.74
599.87	393.21
600.03	376.83
600.18	381.51
600.34	465.77
600.50	416.62
600.65	411.93
600.81	390.87
600.97	367.46
601.12	402.57
601.28	390.87
601.44	400.23
601.59	372.15
601.75	383.85
601.91	369.80
602.06	440.02
602.22	528.96
602.37	379.17
602.53	411.93
602.69	465.77
602.84	444.70
603.00	486.83
603.16	393.21
603.31	388.53
603.47	486.83
603.62	421.30
603.78	383.85
603.94	423.64
604.09	447.04
604.25	472.79
604.40	428.32
604.56	470.45
604.71	409.59
604.87	423.64
605.03	383.85
605.18	409.59
605.34	456.40
605.49	404.91
605.65	461.09
605.80	421.30
605.96	369.80
606.12	414.27
606.27	430.66
606.43	461.09
606.58	390.87
606.74	421.30
606.89	393.21
607.05	386.19
607.20	418.96
607.36	437.68
607.51	470.45
607.67	430.66
607.82	414.27
607.98	458.74
608.13	365.12
608.29	353.42
608.44	393.21
608.60	447.04
608.75	433.00
608.91	360.44
609.06	430.66
609.22	454.06
609.37	381.51
609.53	372.15
609.68	442.36
609.84	362.78
609.99	423.64
610.15	472.79
