SpectraSuite Data File
++++++++++++++++++++++++++++++++++++
Date: Fri Oct 25 12:10:07 EDT 2013
User: price-jones
Dark Spectrum Present: No
Reference Spectrum Present: No
Number of Sampled Component Spectra: 1
Spectrometers: USB2+H05261
Integration Time (usec): 100000 (USB2+H05261)
Spectra Averaged: 1 (USB2+H05261)
Boxcar Smoothing: 0 (USB2+H05261)
Correct for Electrical Dark: No (USB2+H05261)
Strobe/Lamp Enabled: No (USB2+H05261)
Correct for Detector Non-linearity: No (USB2+H05261)
Correct for Stray Light: No (USB2+H05261)
Number of Pixels in Processed Spectrum: 2048
>>>>>Begin Processed Spectral Data<<<<<
365.73	311.29
365.92	311.29
366.12	311.29
366.32	217.67
366.52	236.39
366.72	222.35
366.91	257.46
367.11	191.92
367.31	238.73
367.51	222.35
367.70	227.03
367.90	236.39
368.10	234.05
368.30	252.78
368.49	283.20
368.69	248.10
368.89	297.25
369.09	238.73
369.28	257.46
369.48	215.33
369.68	327.68
369.87	292.57
370.07	255.12
370.27	313.63
370.47	386.19
370.66	325.33
370.86	334.70
371.06	383.85
371.25	409.59
371.45	308.95
371.65	322.99
371.84	339.38
372.04	369.80
372.24	360.44
372.44	341.72
372.63	444.70
372.83	404.91
373.03	360.44
373.22	386.19
373.42	395.55
373.62	482.15
373.81	395.55
374.01	423.64
374.21	468.11
374.40	468.11
374.60	444.70
374.79	484.49
374.99	409.59
375.19	390.87
375.38	465.77
375.58	472.79
375.78	414.27
375.97	428.32
376.17	535.98
376.37	440.02
376.56	372.15
376.76	433.00
376.95	334.70
377.15	416.62
377.35	430.66
377.54	437.68
377.74	409.59
377.93	379.17
378.13	369.80
378.33	362.78
378.52	395.55
378.72	386.19
378.91	425.98
379.11	437.68
379.31	498.53
379.50	440.02
379.70	442.36
379.89	411.93
380.09	365.12
380.28	421.30
380.48	498.53
380.68	411.93
380.87	390.87
381.07	351.08
381.26	411.93
381.46	404.91
381.65	414.27
381.85	397.89
382.04	353.42
382.24	337.04
382.43	433.00
382.63	428.32
382.83	402.57
383.02	332.36
383.22	386.19
383.41	374.49
383.61	421.30
383.80	351.08
384.00	425.98
384.19	416.62
384.39	362.78
384.58	407.25
384.78	407.25
384.97	308.95
385.17	381.51
385.36	409.59
385.56	388.53
385.75	409.59
385.95	400.23
386.14	402.57
386.34	353.42
386.53	437.68
386.72	421.30
386.92	404.91
387.11	409.59
387.31	367.46
387.50	376.83
387.70	322.99
387.89	395.55
388.09	449.38
388.28	435.34
388.48	374.49
388.67	402.57
388.86	362.78
389.06	411.93
389.25	381.51
389.45	407.25
389.64	379.17
389.84	458.74
390.03	428.32
390.22	365.12
390.42	379.17
390.61	407.25
390.81	390.87
391.00	404.91
391.19	465.77
391.39	400.23
391.58	362.78
391.78	409.59
391.97	484.49
392.16	334.70
392.36	400.23
392.55	395.55
392.75	428.32
392.94	365.12
393.13	383.85
393.33	430.66
393.52	423.64
393.71	369.80
393.91	374.49
394.10	411.93
394.29	376.83
394.49	411.93
394.68	423.64
394.88	503.22
395.07	461.09
395.26	402.57
395.46	341.72
395.65	428.32
395.84	355.76
396.04	458.74
396.23	383.85
396.42	390.87
396.62	407.25
396.81	416.62
397.00	353.42
397.19	423.64
397.39	367.46
397.58	435.34
397.77	397.89
397.97	430.66
398.16	397.89
398.35	411.93
398.55	423.64
398.74	285.55
398.93	362.78
399.12	339.38
399.32	348.74
399.51	315.97
399.70	418.96
399.90	360.44
400.09	442.36
400.28	421.30
400.47	355.76
400.67	411.93
400.86	334.70
401.05	409.59
401.24	351.08
401.44	390.87
401.63	339.38
401.82	358.10
402.01	332.36
402.21	409.59
402.40	301.93
402.59	404.91
402.78	397.89
402.97	397.89
403.17	421.30
403.36	475.13
403.55	337.04
403.74	393.21
403.93	409.59
404.13	486.83
404.32	454.06
404.51	388.53
404.70	390.87
404.89	461.09
405.09	447.04
405.28	437.68
405.47	374.49
405.66	418.96
405.85	362.78
406.05	491.51
406.24	341.72
406.43	414.27
406.62	442.36
406.81	461.09
407.00	451.72
407.20	451.72
407.39	404.91
407.58	433.00
407.77	416.62
407.96	435.34
408.15	409.59
408.34	409.59
408.54	407.25
408.73	425.98
408.92	351.08
409.11	416.62
409.30	491.51
409.49	411.93
409.68	344.06
409.87	386.19
410.07	386.19
410.26	430.66
410.45	409.59
410.64	449.38
410.83	386.19
411.02	376.83
411.21	379.17
411.40	369.80
411.59	414.27
411.78	376.83
411.98	365.12
412.17	444.70
412.36	440.02
412.55	468.11
412.74	400.23
412.93	411.93
413.12	369.80
413.31	369.80
413.50	421.30
413.69	365.12
413.88	367.46
414.07	411.93
414.26	430.66
414.45	440.02
414.64	430.66
414.83	444.70
415.02	468.11
415.22	381.51
415.41	435.34
415.60	435.34
415.79	447.04
415.98	379.17
416.17	369.80
416.36	386.19
416.55	395.55
416.74	409.59
416.93	440.02
417.12	381.51
417.31	397.89
417.50	416.62
417.69	449.38
417.88	414.27
418.07	404.91
418.26	414.27
418.45	425.98
418.64	414.27
418.83	390.87
419.02	374.49
419.21	351.08
419.39	374.49
419.58	388.53
419.77	430.66
419.96	409.59
420.15	475.13
420.34	355.76
420.53	341.72
420.72	393.21
420.91	423.64
421.10	374.49
421.29	376.83
421.48	421.30
421.67	465.77
421.86	430.66
422.05	449.38
422.24	402.57
422.43	365.12
422.61	418.96
422.80	416.62
422.99	461.09
423.18	442.36
423.37	423.64
423.56	325.33
423.75	365.12
423.94	416.62
424.13	425.98
424.32	440.02
424.50	433.00
424.69	346.40
424.88	458.74
425.07	404.91
425.26	390.87
425.45	353.42
425.64	447.04
425.83	416.62
426.01	416.62
426.20	402.57
426.39	381.51
426.58	360.44
426.77	362.78
426.96	393.21
427.15	442.36
427.33	465.77
427.52	411.93
427.71	353.42
427.90	386.19
428.09	393.21
428.28	465.77
428.46	477.47
428.65	374.49
428.84	423.64
429.03	381.51
429.22	428.32
429.40	442.36
429.59	348.74
429.78	425.98
429.97	430.66
430.16	440.02
430.34	407.25
430.53	400.23
430.72	454.06
430.91	395.55
431.10	433.00
431.28	379.17
431.47	379.17
431.66	411.93
431.85	379.17
432.03	374.49
432.22	503.22
432.41	451.72
432.60	496.19
432.79	393.21
432.97	362.78
433.16	416.62
433.35	433.00
433.54	404.91
433.72	477.47
433.91	465.77
434.10	367.46
434.28	411.93
434.47	404.91
434.66	365.12
434.85	409.59
435.03	435.34
435.22	433.00
435.41	465.77
435.59	454.06
435.78	318.31
435.97	433.00
436.16	411.93
436.34	390.87
436.53	414.27
436.72	470.45
436.90	433.00
437.09	437.68
437.28	367.46
437.46	425.98
437.65	416.62
437.84	482.15
438.02	451.72
438.21	475.13
438.40	400.23
438.58	409.59
438.77	390.87
438.96	372.15
439.14	355.76
439.33	376.83
439.52	468.11
439.70	458.74
439.89	407.25
440.08	435.34
440.26	379.17
440.45	407.25
440.63	425.98
440.82	388.53
441.01	390.87
441.19	402.57
441.38	437.68
441.57	367.46
441.75	383.85
441.94	468.11
442.12	407.25
442.31	416.62
442.50	447.04
442.68	379.17
442.87	435.34
443.05	484.49
443.24	440.02
443.43	456.40
443.61	390.87
443.80	365.12
443.98	360.44
444.17	407.25
444.35	477.47
444.54	421.30
444.73	463.43
444.91	393.21
445.10	388.53
445.28	383.85
445.47	421.30
445.65	430.66
445.84	444.70
446.02	306.61
446.21	435.34
446.39	411.93
446.58	360.44
446.77	416.62
446.95	404.91
447.14	409.59
447.32	383.85
447.51	435.34
447.69	433.00
447.88	428.32
448.06	519.60
448.25	402.57
448.43	472.79
448.62	386.19
448.80	369.80
448.99	428.32
449.17	369.80
449.36	374.49
449.54	507.90
449.73	367.46
449.91	463.43
450.10	353.42
450.28	400.23
450.46	421.30
450.65	358.10
450.83	330.02
451.02	430.66
451.20	421.30
451.39	454.06
451.57	437.68
451.76	425.98
451.94	393.21
452.13	372.15
452.31	379.17
452.49	447.04
452.68	397.89
452.86	404.91
453.05	395.55
453.23	430.66
453.42	400.23
453.60	404.91
453.78	454.06
453.97	463.43
454.15	322.99
454.34	409.59
454.52	393.21
454.70	437.68
454.89	425.98
455.07	458.74
455.26	411.93
455.44	454.06
455.62	402.57
455.81	472.79
455.99	425.98
456.17	411.93
456.36	379.17
456.54	409.59
456.73	369.80
456.91	388.53
457.09	409.59
457.28	388.53
457.46	409.59
457.64	440.02
457.83	421.30
458.01	395.55
458.19	362.78
458.38	407.25
458.56	390.87
458.74	416.62
458.93	444.70
459.11	421.30
459.29	358.10
459.48	458.74
459.66	393.21
459.84	458.74
460.03	507.90
460.21	472.79
460.39	435.34
460.57	360.44
460.76	360.44
460.94	425.98
461.12	433.00
461.31	421.30
461.49	421.30
461.67	451.72
461.85	383.85
462.04	470.45
462.22	720.88
462.40	414.27
462.59	437.68
462.77	411.93
462.95	524.28
463.13	285.55
463.32	428.32
463.50	428.32
463.68	442.36
463.86	428.32
464.05	383.85
464.23	440.02
464.41	376.83
464.59	421.30
464.78	400.23
464.96	454.06
465.14	428.32
465.32	355.76
465.50	477.47
465.69	388.53
465.87	440.02
466.05	353.42
466.23	376.83
466.41	440.02
466.60	372.15
466.78	383.85
466.96	444.70
467.14	484.49
467.32	440.02
467.51	409.59
467.69	395.55
467.87	437.68
468.05	411.93
468.23	493.85
468.41	334.70
468.60	381.51
468.78	444.70
468.96	425.98
469.14	458.74
469.32	418.96
469.50	353.42
469.69	402.57
469.87	400.23
470.05	402.57
470.23	351.08
470.41	376.83
470.59	369.80
470.77	416.62
470.95	362.78
471.14	458.74
471.32	416.62
471.50	409.59
471.68	386.19
471.86	407.25
472.04	400.23
472.22	489.17
472.40	397.89
472.58	360.44
472.77	383.85
472.95	369.80
473.13	449.38
473.31	468.11
473.49	358.10
473.67	383.85
473.85	360.44
474.03	463.43
474.21	440.02
474.39	437.68
474.57	397.89
474.75	428.32
474.93	461.09
475.12	346.40
475.30	386.19
475.48	425.98
475.66	433.00
475.84	442.36
476.02	442.36
476.20	440.02
476.38	395.55
476.56	447.04
476.74	395.55
476.92	428.32
477.10	458.74
477.28	428.32
477.46	397.89
477.64	393.21
477.82	400.23
478.00	470.45
478.18	444.70
478.36	444.70
478.54	404.91
478.72	423.64
478.90	388.53
479.08	414.27
479.26	395.55
479.44	456.40
479.62	491.51
479.80	397.89
479.98	409.59
480.16	430.66
480.34	444.70
480.52	374.49
480.70	425.98
480.88	414.27
481.06	393.21
481.24	390.87
481.41	362.78
481.59	435.34
481.77	383.85
481.95	390.87
482.13	437.68
482.31	435.34
482.49	365.12
482.67	456.40
482.85	444.70
483.03	435.34
483.21	482.15
483.39	383.85
483.57	400.23
483.74	425.98
483.92	430.66
484.10	454.06
484.28	425.98
484.46	421.30
484.64	470.45
484.82	372.15
485.00	388.53
485.18	351.08
485.35	428.32
485.53	390.87
485.71	442.36
485.89	447.04
486.07	428.32
486.25	454.06
486.43	402.57
486.61	433.00
486.78	407.25
486.96	416.62
487.14	358.10
487.32	454.06
487.50	461.09
487.68	381.51
487.85	411.93
488.03	397.89
488.21	428.32
488.39	353.42
488.57	428.32
488.75	390.87
488.92	430.66
489.10	521.94
489.28	463.43
489.46	379.17
489.64	397.89
489.81	390.87
489.99	271.50
490.17	404.91
490.35	463.43
490.53	358.10
490.70	404.91
490.88	433.00
491.06	449.38
491.24	348.74
491.41	463.43
491.59	418.96
491.77	440.02
491.95	374.49
492.13	393.21
492.30	390.87
492.48	444.70
492.66	421.30
492.84	433.00
493.01	421.30
493.19	435.34
493.37	449.38
493.54	428.32
493.72	486.83
493.90	435.34
494.08	339.38
494.25	397.89
494.43	435.34
494.61	423.64
494.79	425.98
494.96	425.98
495.14	402.57
495.32	393.21
495.49	421.30
495.67	397.89
495.85	381.51
496.02	369.80
496.20	444.70
496.38	383.85
496.55	423.64
496.73	374.49
496.91	362.78
497.09	411.93
497.26	393.21
497.44	379.17
497.62	393.21
497.79	470.45
497.97	430.66
498.14	447.04
498.32	442.36
498.50	468.11
498.67	376.83
498.85	449.38
499.03	383.85
499.20	374.49
499.38	407.25
499.56	409.59
499.73	386.19
499.91	423.64
500.08	388.53
500.26	423.64
500.44	388.53
500.61	404.91
500.79	388.53
500.97	496.19
501.14	437.68
501.32	430.66
501.49	472.79
501.67	440.02
501.84	456.40
502.02	353.42
502.20	402.57
502.37	449.38
502.55	454.06
502.72	369.80
502.90	482.15
503.07	360.44
503.25	411.93
503.43	404.91
503.60	341.72
503.78	440.02
503.95	411.93
504.13	339.38
504.30	393.21
504.48	423.64
504.65	484.49
504.83	477.47
505.01	379.17
505.18	379.17
505.36	402.57
505.53	379.17
505.71	463.43
505.88	493.85
506.06	428.32
506.23	489.17
506.41	390.87
506.58	386.19
506.76	404.91
506.93	435.34
507.11	421.30
507.28	409.59
507.46	400.23
507.63	449.38
507.81	383.85
507.98	358.10
508.16	447.04
508.33	423.64
508.50	510.24
508.68	463.43
508.85	418.96
509.03	411.93
509.20	456.40
509.38	407.25
509.55	402.57
509.73	411.93
509.90	367.46
510.08	346.40
510.25	376.83
510.42	418.96
510.60	383.85
510.77	428.32
510.95	411.93
511.12	416.62
511.30	322.99
511.47	388.53
511.64	397.89
511.82	463.43
511.99	407.25
512.17	397.89
512.34	390.87
512.51	390.87
512.69	482.15
512.86	404.91
513.04	435.34
513.21	348.74
513.38	449.38
513.56	444.70
513.73	465.77
513.90	454.06
514.08	454.06
514.25	447.04
514.43	440.02
514.60	390.87
514.77	358.10
514.95	449.38
515.12	423.64
515.29	390.87
515.47	468.11
515.64	425.98
515.81	475.13
515.99	409.59
516.16	423.64
516.33	512.58
516.51	374.49
516.68	315.97
516.85	351.08
517.03	388.53
517.20	395.55
517.37	381.51
517.54	411.93
517.72	451.72
517.89	346.40
518.06	433.00
518.24	456.40
518.41	461.09
518.58	397.89
518.75	346.40
518.93	397.89
519.10	421.30
519.27	458.74
519.45	397.89
519.62	470.45
519.79	418.96
519.96	414.27
520.14	397.89
520.31	407.25
520.48	456.40
520.65	447.04
520.83	437.68
521.00	433.00
521.17	449.38
521.34	414.27
521.52	435.34
521.69	430.66
521.86	435.34
522.03	472.79
522.20	451.72
522.38	367.46
522.55	386.19
522.72	318.31
522.89	421.30
523.07	430.66
523.24	468.11
523.41	433.00
523.58	397.89
523.75	367.46
523.92	414.27
524.10	437.68
524.27	451.72
524.44	397.89
524.61	505.56
524.78	407.25
524.96	423.64
525.13	463.43
525.30	470.45
525.47	423.64
525.64	477.47
525.81	442.36
525.98	365.12
526.16	458.74
526.33	372.15
526.50	341.72
526.67	395.55
526.84	416.62
527.01	344.06
527.18	451.72
527.36	402.57
527.53	444.70
527.70	423.64
527.87	435.34
528.04	407.25
528.21	425.98
528.38	425.98
528.55	444.70
528.72	390.87
528.89	510.24
529.07	372.15
529.24	435.34
529.41	449.38
529.58	428.32
529.75	353.42
529.92	447.04
530.09	442.36
530.26	430.66
530.43	369.80
530.60	344.06
530.77	447.04
530.94	409.59
531.11	451.72
531.28	351.08
531.46	322.99
531.63	484.49
531.80	458.74
531.97	463.43
532.14	395.55
532.31	440.02
532.48	376.83
532.65	428.32
532.82	388.53
532.99	379.17
533.16	418.96
533.33	428.32
533.50	437.68
533.67	435.34
533.84	512.58
534.01	433.00
534.18	358.10
534.35	425.98
534.52	393.21
534.69	393.21
534.86	435.34
535.03	372.15
535.20	386.19
535.37	379.17
535.54	367.46
535.71	348.74
535.88	358.10
536.05	465.77
536.22	479.81
536.38	388.53
536.55	461.09
536.72	472.79
536.89	369.80
537.06	383.85
537.23	433.00
537.40	416.62
537.57	400.23
537.74	468.11
537.91	447.04
538.08	479.81
538.25	397.89
538.42	442.36
538.59	418.96
538.75	400.23
538.92	435.34
539.09	435.34
539.26	440.02
539.43	472.79
539.60	430.66
539.77	449.38
539.94	454.06
540.11	418.96
540.28	472.79
540.44	463.43
540.61	388.53
540.78	411.93
540.95	400.23
541.12	442.36
541.29	411.93
541.46	461.09
541.62	440.02
541.79	451.72
541.96	414.27
542.13	442.36
542.30	388.53
542.47	393.21
542.63	425.98
542.80	440.02
542.97	362.78
543.14	421.30
543.31	479.81
543.48	421.30
543.64	440.02
543.81	362.78
543.98	416.62
544.15	526.62
544.32	353.42
544.48	374.49
544.65	409.59
544.82	418.96
544.99	376.83
545.16	447.04
545.32	332.36
545.49	472.79
545.66	465.77
545.83	468.11
546.00	472.79
546.16	416.62
546.33	386.19
546.50	416.62
546.67	512.58
546.83	414.27
547.00	416.62
547.17	397.89
547.34	458.74
547.50	416.62
547.67	353.42
547.84	414.27
548.00	381.51
548.17	407.25
548.34	423.64
548.51	475.13
548.67	397.89
548.84	404.91
549.01	339.38
549.18	482.15
549.34	528.96
549.51	404.91
549.68	482.15
549.84	379.17
550.01	407.25
550.18	491.51
550.34	498.53
550.51	444.70
550.68	397.89
550.84	444.70
551.01	402.57
551.18	435.34
551.34	433.00
551.51	444.70
551.68	388.53
551.84	442.36
552.01	388.53
552.18	416.62
552.34	449.38
552.51	463.43
552.68	440.02
552.84	393.21
553.01	400.23
553.18	400.23
553.34	418.96
553.51	435.34
553.67	409.59
553.84	475.13
554.01	468.11
554.17	393.21
554.34	388.53
554.51	414.27
554.67	358.10
554.84	407.25
555.00	404.91
555.17	386.19
555.33	411.93
555.50	440.02
555.67	411.93
555.83	477.47
556.00	472.79
556.16	491.51
556.33	472.79
556.50	437.68
556.66	428.32
556.83	404.91
556.99	440.02
557.16	409.59
557.32	444.70
557.49	397.89
557.65	451.72
557.82	390.87
557.98	393.21
558.15	376.83
558.32	379.17
558.48	341.72
558.65	379.17
558.81	376.83
558.98	393.21
559.14	416.62
559.31	397.89
559.47	491.51
559.64	447.04
559.80	418.96
559.97	388.53
560.13	468.11
560.30	428.32
560.46	379.17
560.63	444.70
560.79	468.11
560.96	486.83
561.12	393.21
561.29	355.76
561.45	404.91
561.61	430.66
561.78	411.93
561.94	402.57
562.11	388.53
562.27	437.68
562.44	393.21
562.60	379.17
562.77	388.53
562.93	486.83
563.10	407.25
563.26	388.53
563.42	348.74
563.59	341.72
563.75	353.42
563.92	472.79
564.08	435.34
564.24	355.76
564.41	444.70
564.57	360.44
564.74	416.62
564.90	425.98
565.07	428.32
565.23	418.96
565.39	437.68
565.56	463.43
565.72	395.55
565.88	397.89
566.05	404.91
566.21	376.83
566.38	477.47
566.54	351.08
566.70	402.57
566.87	458.74
567.03	416.62
567.19	433.00
567.36	463.43
567.52	395.55
567.68	470.45
567.85	451.72
568.01	393.21
568.17	339.38
568.34	440.02
568.50	505.56
568.66	433.00
568.83	463.43
568.99	379.17
569.15	449.38
569.32	454.06
569.48	428.32
569.64	397.89
569.81	360.44
569.97	402.57
570.13	456.40
570.30	454.06
570.46	430.66
570.62	372.15
570.78	500.87
570.95	440.02
571.11	486.83
571.27	463.43
571.43	369.80
571.60	451.72
571.76	397.89
571.92	475.13
572.09	376.83
572.25	449.38
572.41	416.62
572.57	458.74
572.74	468.11
572.90	376.83
573.06	449.38
573.22	414.27
573.38	428.32
573.55	463.43
573.71	430.66
573.87	418.96
574.03	449.38
574.20	372.15
574.36	454.06
574.52	376.83
574.68	425.98
574.84	498.53
575.01	390.87
575.17	411.93
575.33	421.30
575.49	390.87
575.65	451.72
575.82	395.55
575.98	404.91
576.14	425.98
576.30	489.17
576.46	381.51
576.62	447.04
576.79	423.64
576.95	437.68
577.11	386.19
577.27	348.74
577.43	404.91
577.59	477.47
577.75	468.11
577.92	421.30
578.08	367.46
578.24	428.32
578.40	402.57
578.56	465.77
578.72	447.04
578.88	440.02
579.04	454.06
579.21	444.70
579.37	376.83
579.53	397.89
579.69	325.33
579.85	402.57
580.01	397.89
580.17	456.40
580.33	447.04
580.49	437.68
580.65	353.42
580.82	421.30
580.98	428.32
581.14	407.25
581.30	449.38
581.46	395.55
581.62	411.93
581.78	425.98
581.94	461.09
582.10	386.19
582.26	369.80
582.42	400.23
582.58	360.44
582.74	390.87
582.90	393.21
583.06	454.06
583.22	379.17
583.38	456.40
583.54	404.91
583.70	433.00
583.86	411.93
584.02	372.15
584.18	454.06
584.34	444.70
584.50	418.96
584.66	454.06
584.82	409.59
584.98	404.91
585.14	397.89
585.30	421.30
585.46	402.57
585.62	346.40
585.78	393.21
585.94	496.19
586.10	421.30
586.26	472.79
586.42	456.40
586.58	404.91
586.74	409.59
586.90	409.59
587.06	421.30
587.22	332.36
587.38	374.49
587.54	400.23
587.70	470.45
587.86	449.38
588.02	390.87
588.18	425.98
588.34	404.91
588.49	444.70
588.65	400.23
588.81	425.98
588.97	353.42
589.13	416.62
589.29	447.04
589.45	425.98
589.61	372.15
589.77	421.30
589.93	379.17
590.08	379.17
590.24	367.46
590.40	395.55
590.56	409.59
590.72	444.70
590.88	411.93
591.04	390.87
591.20	395.55
591.35	477.47
591.51	461.09
591.67	411.93
591.83	425.98
591.99	360.44
592.15	505.56
592.31	409.59
592.46	353.42
592.62	390.87
592.78	390.87
592.94	334.70
593.10	400.23
593.26	411.93
593.41	374.49
593.57	362.78
593.73	337.04
593.89	421.30
594.05	344.06
594.20	386.19
594.36	454.06
594.52	411.93
594.68	447.04
594.84	454.06
594.99	397.89
595.15	421.30
595.31	421.30
595.47	468.11
595.62	425.98
595.78	404.91
595.94	489.17
596.10	437.68
596.25	482.15
596.41	411.93
596.57	383.85
596.73	418.96
596.88	428.32
597.04	444.70
597.20	423.64
597.36	369.80
597.51	393.21
597.67	447.04
597.83	468.11
597.99	440.02
598.14	409.59
598.30	449.38
598.46	383.85
598.61	418.96
598.77	477.47
598.93	362.78
599.09	388.53
599.24	456.40
599.40	397.89
599.56	365.12
599.71	423.64
599.87	463.43
600.03	404.91
600.18	353.42
600.34	418.96
600.50	435.34
600.65	484.49
600.81	346.40
600.97	416.62
601.12	425.98
601.28	409.59
601.44	423.64
601.59	383.85
601.75	456.40
601.91	409.59
602.06	461.09
602.22	454.06
602.37	449.38
602.53	458.74
602.69	416.62
602.84	395.55
603.00	489.17
603.16	416.62
603.31	435.34
603.47	442.36
603.62	421.30
603.78	430.66
603.94	409.59
604.09	430.66
604.25	454.06
604.40	334.70
604.56	437.68
604.71	379.17
604.87	411.93
605.03	367.46
605.18	393.21
605.34	449.38
605.49	442.36
605.65	411.93
605.80	414.27
605.96	486.83
606.12	456.40
606.27	397.89
606.43	428.32
606.58	376.83
606.74	397.89
606.89	461.09
607.05	437.68
607.20	433.00
607.36	463.43
607.51	440.02
607.67	461.09
607.82	491.51
607.98	503.22
608.13	444.70
608.29	411.93
608.44	402.57
608.60	383.85
608.75	477.47
608.91	493.85
609.06	409.59
609.22	444.70
609.37	376.83
609.53	383.85
609.68	414.27
609.84	381.51
609.99	358.10
610.15	444.70
