SpectraSuite Data File
++++++++++++++++++++++++++++++++++++
Date: Fri Oct 25 12:10:06 EDT 2013
User: price-jones
Dark Spectrum Present: No
Reference Spectrum Present: No
Number of Sampled Component Spectra: 1
Spectrometers: USB2+H05261
Integration Time (usec): 100000 (USB2+H05261)
Spectra Averaged: 1 (USB2+H05261)
Boxcar Smoothing: 0 (USB2+H05261)
Correct for Electrical Dark: No (USB2+H05261)
Strobe/Lamp Enabled: No (USB2+H05261)
Correct for Detector Non-linearity: No (USB2+H05261)
Correct for Stray Light: No (USB2+H05261)
Number of Pixels in Processed Spectrum: 2048
>>>>>Begin Processed Spectral Data<<<<<
365.73	379.17
365.92	379.17
366.12	379.17
366.32	229.37
366.52	259.80
366.72	229.37
366.91	154.48
367.11	201.29
367.31	234.05
367.51	224.69
367.70	280.86
367.90	301.93
368.10	245.76
368.30	255.12
368.49	227.03
368.69	212.99
368.89	217.67
369.09	152.13
369.28	315.97
369.48	276.18
369.68	313.63
369.87	285.55
370.07	327.68
370.27	327.68
370.47	243.42
370.66	252.78
370.86	353.42
371.06	360.44
371.25	372.15
371.45	376.83
371.65	388.53
371.84	344.06
372.04	414.27
372.24	280.86
372.44	358.10
372.63	461.09
372.83	383.85
373.03	470.45
373.22	440.02
373.42	416.62
373.62	404.91
373.81	404.91
374.01	449.38
374.21	355.76
374.40	402.57
374.60	428.32
374.79	411.93
374.99	334.70
375.19	390.87
375.38	428.32
375.58	409.59
375.78	414.27
375.97	379.17
376.17	437.68
376.37	395.55
376.56	365.12
376.76	379.17
376.95	404.91
377.15	451.72
377.35	362.78
377.54	418.96
377.74	374.49
377.93	390.87
378.13	351.08
378.33	362.78
378.52	372.15
378.72	374.49
378.91	344.06
379.11	425.98
379.31	409.59
379.50	393.21
379.70	433.00
379.89	428.32
380.09	379.17
380.28	334.70
380.48	379.17
380.68	367.46
380.87	440.02
381.07	395.55
381.26	402.57
381.46	348.74
381.65	470.45
381.85	435.34
382.04	414.27
382.24	430.66
382.43	465.77
382.63	362.78
382.83	404.91
383.02	379.17
383.22	447.04
383.41	451.72
383.61	365.12
383.80	402.57
384.00	395.55
384.19	451.72
384.39	451.72
384.58	388.53
384.78	365.12
384.97	411.93
385.17	418.96
385.36	386.19
385.56	355.76
385.75	379.17
385.95	362.78
386.14	430.66
386.34	416.62
386.53	444.70
386.72	365.12
386.92	360.44
387.11	444.70
387.31	411.93
387.50	428.32
387.70	367.46
387.89	433.00
388.09	376.83
388.28	454.06
388.48	374.49
388.67	414.27
388.86	402.57
389.06	433.00
389.25	416.62
389.45	390.87
389.64	428.32
389.84	463.43
390.03	351.08
390.22	418.96
390.42	388.53
390.61	418.96
390.81	365.12
391.00	395.55
391.19	486.83
391.39	411.93
391.58	393.21
391.78	454.06
391.97	369.80
392.16	421.30
392.36	447.04
392.55	454.06
392.75	376.83
392.94	376.83
393.13	409.59
393.33	428.32
393.52	407.25
393.71	465.77
393.91	421.30
394.10	440.02
394.29	390.87
394.49	461.09
394.68	360.44
394.88	402.57
395.07	449.38
395.26	339.38
395.46	449.38
395.65	367.46
395.84	454.06
396.04	514.92
396.23	383.85
396.42	428.32
396.62	400.23
396.81	440.02
397.00	440.02
397.19	360.44
397.39	388.53
397.58	414.27
397.77	358.10
397.97	505.56
398.16	437.68
398.35	423.64
398.55	315.97
398.74	330.02
398.93	461.09
399.12	395.55
399.32	353.42
399.51	332.36
399.70	362.78
399.90	440.02
400.09	456.40
400.28	390.87
400.47	386.19
400.67	372.15
400.86	388.53
401.05	470.45
401.24	414.27
401.44	381.51
401.63	393.21
401.82	454.06
402.01	414.27
402.21	414.27
402.40	475.13
402.59	381.51
402.78	418.96
402.97	379.17
403.17	402.57
403.36	379.17
403.55	390.87
403.74	468.11
403.93	404.91
404.13	393.21
404.32	395.55
404.51	372.15
404.70	440.02
404.89	435.34
405.09	451.72
405.28	388.53
405.47	348.74
405.66	407.25
405.85	463.43
406.05	477.47
406.24	444.70
406.43	435.34
406.62	458.74
406.81	404.91
407.00	325.33
407.20	402.57
407.39	421.30
407.58	418.96
407.77	428.32
407.96	379.17
408.15	435.34
408.34	376.83
408.54	454.06
408.73	379.17
408.92	383.85
409.11	386.19
409.30	402.57
409.49	400.23
409.68	411.93
409.87	440.02
410.07	414.27
410.26	388.53
410.45	409.59
410.64	374.49
410.83	407.25
411.02	381.51
411.21	409.59
411.40	444.70
411.59	414.27
411.78	346.40
411.98	416.62
412.17	416.62
412.36	435.34
412.55	402.57
412.74	475.13
412.93	414.27
413.12	395.55
413.31	409.59
413.50	437.68
413.69	351.08
413.88	393.21
414.07	440.02
414.26	330.02
414.45	362.78
414.64	435.34
414.83	383.85
415.02	458.74
415.22	390.87
415.41	449.38
415.60	388.53
415.79	454.06
415.98	433.00
416.17	376.83
416.36	390.87
416.55	390.87
416.74	421.30
416.93	381.51
417.12	400.23
417.31	435.34
417.50	454.06
417.69	512.58
417.88	402.57
418.07	388.53
418.26	430.66
418.45	390.87
418.64	465.77
418.83	461.09
419.02	425.98
419.21	454.06
419.39	421.30
419.58	367.46
419.77	327.68
419.96	475.13
420.15	421.30
420.34	447.04
420.53	449.38
420.72	353.42
420.91	416.62
421.10	435.34
421.29	433.00
421.48	463.43
421.67	416.62
421.86	400.23
422.05	461.09
422.24	379.17
422.43	447.04
422.61	379.17
422.80	428.32
422.99	433.00
423.18	465.77
423.37	468.11
423.56	433.00
423.75	442.36
423.94	407.25
424.13	411.93
424.32	337.04
424.50	351.08
424.69	372.15
424.88	435.34
425.07	416.62
425.26	358.10
425.45	437.68
425.64	358.10
425.83	365.12
426.01	447.04
426.20	524.28
426.39	486.83
426.58	456.40
426.77	383.85
426.96	393.21
427.15	395.55
427.33	369.80
427.52	411.93
427.71	442.36
427.90	362.78
428.09	360.44
428.28	411.93
428.46	393.21
428.65	500.87
428.84	458.74
429.03	528.96
429.22	433.00
429.40	414.27
429.59	440.02
429.78	470.45
429.97	374.49
430.16	390.87
430.34	339.38
430.53	454.06
430.72	409.59
430.91	381.51
431.10	409.59
431.28	526.62
431.47	428.32
431.66	444.70
431.85	337.04
432.03	433.00
432.22	472.79
432.41	456.40
432.60	411.93
432.79	365.12
432.97	374.49
433.16	423.64
433.35	386.19
433.54	393.21
433.72	444.70
433.91	475.13
434.10	404.91
434.28	421.30
434.47	404.91
434.66	397.89
434.85	472.79
435.03	461.09
435.22	472.79
435.41	430.66
435.59	440.02
435.78	334.70
435.97	400.23
436.16	456.40
436.34	355.76
436.53	456.40
436.72	428.32
436.90	479.81
437.09	440.02
437.28	416.62
437.46	437.68
437.65	435.34
437.84	456.40
438.02	430.66
438.21	472.79
438.40	437.68
438.58	411.93
438.77	444.70
438.96	468.11
439.14	351.08
439.33	416.62
439.52	428.32
439.70	374.49
439.89	496.19
440.08	360.44
440.26	449.38
440.45	397.89
440.63	433.00
440.82	430.66
441.01	425.98
441.19	365.12
441.38	468.11
441.57	390.87
441.75	433.00
441.94	416.62
442.12	482.15
442.31	423.64
442.50	360.44
442.68	383.85
442.87	479.81
443.05	458.74
443.24	365.12
443.43	416.62
443.61	355.76
443.80	404.91
443.98	454.06
444.17	461.09
444.35	461.09
444.54	362.78
444.73	374.49
444.91	379.17
445.10	397.89
445.28	437.68
445.47	400.23
445.65	416.62
445.84	433.00
446.02	416.62
446.21	383.85
446.39	395.55
446.58	463.43
446.77	411.93
446.95	416.62
447.14	447.04
447.32	484.49
447.51	416.62
447.69	472.79
447.88	496.19
448.06	395.55
448.25	381.51
448.43	442.36
448.62	400.23
448.80	433.00
448.99	360.44
449.17	386.19
449.36	465.77
449.54	435.34
449.73	411.93
449.91	411.93
450.10	423.64
450.28	554.71
450.46	425.98
450.65	500.87
450.83	313.63
451.02	416.62
451.20	358.10
451.39	409.59
451.57	458.74
451.76	369.80
451.94	393.21
452.13	425.98
452.31	411.93
452.49	416.62
452.68	430.66
452.86	416.62
453.05	388.53
453.23	360.44
453.42	386.19
453.60	407.25
453.78	416.62
453.97	404.91
454.15	393.21
454.34	388.53
454.52	390.87
454.70	411.93
454.89	393.21
455.07	472.79
455.26	397.89
455.44	435.34
455.62	386.19
455.81	395.55
455.99	421.30
456.17	402.57
456.36	383.85
456.54	318.31
456.73	407.25
456.91	367.46
457.09	449.38
457.28	489.17
457.46	409.59
457.64	440.02
457.83	407.25
458.01	390.87
458.19	458.74
458.38	411.93
458.56	369.80
458.74	322.99
458.93	409.59
459.11	418.96
459.29	435.34
459.48	456.40
459.66	395.55
459.84	428.32
460.03	496.19
460.21	351.08
460.39	372.15
460.57	397.89
460.76	393.21
460.94	411.93
461.12	369.80
461.31	465.77
461.49	416.62
461.67	407.25
461.85	358.10
462.04	468.11
462.22	683.44
462.40	376.83
462.59	489.17
462.77	416.62
462.95	498.53
463.13	346.40
463.32	433.00
463.50	435.34
463.68	390.87
463.86	451.72
464.05	362.78
464.23	456.40
464.41	402.57
464.59	383.85
464.78	430.66
464.96	423.64
465.14	465.77
465.32	374.49
465.50	411.93
465.69	379.17
465.87	409.59
466.05	458.74
466.23	409.59
466.41	395.55
466.60	414.27
466.78	386.19
466.96	390.87
467.14	404.91
467.32	465.77
467.51	447.04
467.69	435.34
467.87	402.57
468.05	334.70
468.23	411.93
468.41	346.40
468.60	414.27
468.78	409.59
468.96	404.91
469.14	393.21
469.32	341.72
469.50	372.15
469.69	437.68
469.87	409.59
470.05	414.27
470.23	463.43
470.41	402.57
470.59	327.68
470.77	390.87
470.95	393.21
471.14	458.74
471.32	435.34
471.50	449.38
471.68	440.02
471.86	395.55
472.04	353.42
472.22	402.57
472.40	411.93
472.58	430.66
472.77	454.06
472.95	435.34
473.13	440.02
473.31	454.06
473.49	440.02
473.67	404.91
473.85	468.11
474.03	449.38
474.21	416.62
474.39	489.17
474.57	397.89
474.75	395.55
474.93	383.85
475.12	388.53
475.30	449.38
475.48	362.78
475.66	430.66
475.84	416.62
476.02	444.70
476.20	358.10
476.38	404.91
476.56	355.76
476.74	395.55
476.92	430.66
477.10	369.80
477.28	400.23
477.46	414.27
477.64	360.44
477.82	449.38
478.00	449.38
478.18	461.09
478.36	351.08
478.54	484.49
478.72	423.64
478.90	409.59
479.08	388.53
479.26	423.64
479.44	449.38
479.62	433.00
479.80	407.25
479.98	425.98
480.16	402.57
480.34	449.38
480.52	390.87
480.70	386.19
480.88	435.34
481.06	388.53
481.24	313.63
481.41	425.98
481.59	437.68
481.77	470.45
481.95	407.25
482.13	397.89
482.31	383.85
482.49	409.59
482.67	379.17
482.85	489.17
483.03	477.47
483.21	430.66
483.39	390.87
483.57	404.91
483.74	360.44
483.92	428.32
484.10	409.59
484.28	416.62
484.46	517.26
484.64	381.51
484.82	411.93
485.00	418.96
485.18	379.17
485.35	362.78
485.53	402.57
485.71	477.47
485.89	397.89
486.07	379.17
486.25	451.72
486.43	367.46
486.61	400.23
486.78	451.72
486.96	395.55
487.14	393.21
487.32	393.21
487.50	423.64
487.68	409.59
487.85	433.00
488.03	379.17
488.21	486.83
488.39	458.74
488.57	414.27
488.75	402.57
488.92	519.60
489.10	425.98
489.28	437.68
489.46	447.04
489.64	383.85
489.81	400.23
489.99	449.38
490.17	402.57
490.35	500.87
490.53	383.85
490.70	402.57
490.88	411.93
491.06	376.83
491.24	409.59
491.41	395.55
491.59	428.32
491.77	372.15
491.95	353.42
492.13	367.46
492.30	430.66
492.48	430.66
492.66	332.36
492.84	402.57
493.01	421.30
493.19	362.78
493.37	358.10
493.54	440.02
493.72	411.93
493.90	421.30
494.08	416.62
494.25	372.15
494.43	442.36
494.61	344.06
494.79	374.49
494.96	425.98
495.14	449.38
495.32	367.46
495.49	395.55
495.67	381.51
495.85	402.57
496.02	418.96
496.20	430.66
496.38	451.72
496.55	430.66
496.73	411.93
496.91	442.36
497.09	393.21
497.26	416.62
497.44	433.00
497.62	379.17
497.79	388.53
497.97	404.91
498.14	449.38
498.32	456.40
498.50	486.83
498.67	374.49
498.85	482.15
499.03	416.62
499.20	421.30
499.38	383.85
499.56	397.89
499.73	411.93
499.91	461.09
500.08	376.83
500.26	348.74
500.44	421.30
500.61	376.83
500.79	376.83
500.97	388.53
501.14	381.51
501.32	425.98
501.49	477.47
501.67	409.59
501.84	486.83
502.02	395.55
502.20	430.66
502.37	482.15
502.55	437.68
502.72	433.00
502.90	418.96
503.07	416.62
503.25	360.44
503.43	332.36
503.60	362.78
503.78	395.55
503.95	330.02
504.13	374.49
504.30	470.45
504.48	430.66
504.65	425.98
504.83	433.00
505.01	430.66
505.18	397.89
505.36	397.89
505.53	365.12
505.71	447.04
505.88	409.59
506.06	381.51
506.23	411.93
506.41	465.77
506.58	369.80
506.76	388.53
506.93	423.64
507.11	428.32
507.28	351.08
507.46	395.55
507.63	400.23
507.81	381.51
507.98	433.00
508.16	442.36
508.33	393.21
508.50	442.36
508.68	470.45
508.85	433.00
509.03	390.87
509.20	402.57
509.38	414.27
509.55	388.53
509.73	437.68
509.90	414.27
510.08	306.61
510.25	472.79
510.42	407.25
510.60	379.17
510.77	454.06
510.95	409.59
511.12	428.32
511.30	397.89
511.47	301.93
511.64	447.04
511.82	451.72
511.99	449.38
512.17	433.00
512.34	411.93
512.51	465.77
512.69	489.17
512.86	435.34
513.04	475.13
513.21	425.98
513.38	444.70
513.56	444.70
513.73	367.46
513.90	404.91
514.08	379.17
514.25	425.98
514.43	428.32
514.60	365.12
514.77	388.53
514.95	383.85
515.12	383.85
515.29	395.55
515.47	430.66
515.64	477.47
515.81	423.64
515.99	365.12
516.16	390.87
516.33	451.72
516.51	468.11
516.68	463.43
516.85	437.68
517.03	369.80
517.20	496.19
517.37	325.33
517.54	440.02
517.72	451.72
517.89	411.93
518.06	393.21
518.24	482.15
518.41	390.87
518.58	322.99
518.75	390.87
518.93	393.21
519.10	409.59
519.27	444.70
519.45	418.96
519.62	454.06
519.79	400.23
519.96	418.96
520.14	456.40
520.31	407.25
520.48	442.36
520.65	407.25
520.83	514.92
521.00	479.81
521.17	423.64
521.34	423.64
521.52	334.70
521.69	468.11
521.86	423.64
522.03	447.04
522.20	421.30
522.38	472.79
522.55	393.21
522.72	379.17
522.89	411.93
523.07	433.00
523.24	358.10
523.41	374.49
523.58	334.70
523.75	409.59
523.92	402.57
524.10	451.72
524.27	318.31
524.44	416.62
524.61	454.06
524.78	421.30
524.96	440.02
525.13	425.98
525.30	444.70
525.47	388.53
525.64	400.23
525.81	409.59
525.98	437.68
526.16	470.45
526.33	428.32
526.50	393.21
526.67	416.62
526.84	330.02
527.01	475.13
527.18	425.98
527.36	407.25
527.53	423.64
527.70	461.09
527.87	395.55
528.04	461.09
528.21	379.17
528.38	435.34
528.55	400.23
528.72	416.62
528.89	437.68
529.07	437.68
529.24	414.27
529.41	428.32
529.58	486.83
529.75	372.15
529.92	334.70
530.09	379.17
530.26	428.32
530.43	458.74
530.60	386.19
530.77	440.02
530.94	440.02
531.11	407.25
531.28	379.17
531.46	400.23
531.63	369.80
531.80	484.49
531.97	442.36
532.14	416.62
532.31	351.08
532.48	376.83
532.65	437.68
532.82	383.85
532.99	414.27
533.16	390.87
533.33	353.42
533.50	383.85
533.67	447.04
533.84	423.64
534.01	376.83
534.18	477.47
534.35	367.46
534.52	402.57
534.69	498.53
534.86	519.60
535.03	379.17
535.20	456.40
535.37	496.19
535.54	395.55
535.71	430.66
535.88	421.30
536.05	411.93
536.22	423.64
536.38	440.02
536.55	437.68
536.72	435.34
536.89	425.98
537.06	437.68
537.23	348.74
537.40	414.27
537.57	327.68
537.74	472.79
537.91	409.59
538.08	416.62
538.25	397.89
538.42	425.98
538.59	400.23
538.75	411.93
538.92	461.09
539.09	367.46
539.26	381.51
539.43	491.51
539.60	388.53
539.77	421.30
539.94	444.70
540.11	411.93
540.28	390.87
540.44	454.06
540.61	414.27
540.78	381.51
540.95	465.77
541.12	451.72
541.29	475.13
541.46	493.85
541.62	428.32
541.79	433.00
541.96	430.66
542.13	369.80
542.30	372.15
542.47	421.30
542.63	383.85
542.80	381.51
542.97	447.04
543.14	397.89
543.31	416.62
543.48	416.62
543.64	351.08
543.81	404.91
543.98	456.40
544.15	437.68
544.32	454.06
544.48	404.91
544.65	440.02
544.82	374.49
544.99	423.64
545.16	444.70
545.32	390.87
545.49	479.81
545.66	428.32
545.83	411.93
546.00	358.10
546.16	451.72
546.33	433.00
546.50	489.17
546.67	390.87
546.83	461.09
547.00	409.59
547.17	362.78
547.34	400.23
547.50	484.49
547.67	456.40
547.84	416.62
548.00	367.46
548.17	435.34
548.34	362.78
548.51	428.32
548.67	433.00
548.84	381.51
549.01	470.45
549.18	442.36
549.34	393.21
549.51	465.77
549.68	409.59
549.84	411.93
550.01	433.00
550.18	451.72
550.34	486.83
550.51	528.96
550.68	475.13
550.84	416.62
551.01	461.09
551.18	458.74
551.34	477.47
551.51	430.66
551.68	416.62
551.84	383.85
552.01	388.53
552.18	440.02
552.34	454.06
552.51	433.00
552.68	470.45
552.84	437.68
553.01	411.93
553.18	463.43
553.34	383.85
553.51	416.62
553.67	409.59
553.84	440.02
554.01	409.59
554.17	421.30
554.34	379.17
554.51	369.80
554.67	463.43
554.84	442.36
555.00	493.85
555.17	484.49
555.33	395.55
555.50	418.96
555.67	421.30
555.83	416.62
556.00	362.78
556.16	540.66
556.33	442.36
556.50	421.30
556.66	376.83
556.83	411.93
556.99	386.19
557.16	379.17
557.32	367.46
557.49	470.45
557.65	411.93
557.82	437.68
557.98	451.72
558.15	372.15
558.32	379.17
558.48	418.96
558.65	458.74
558.81	489.17
558.98	449.38
559.14	435.34
559.31	351.08
559.47	423.64
559.64	472.79
559.80	421.30
559.97	383.85
560.13	388.53
560.30	397.89
560.46	425.98
560.63	421.30
560.79	437.68
560.96	456.40
561.12	414.27
561.29	409.59
561.45	451.72
561.61	444.70
561.78	468.11
561.94	365.12
562.11	407.25
562.27	407.25
562.44	355.76
562.60	430.66
562.77	351.08
562.93	496.19
563.10	416.62
563.26	407.25
563.42	425.98
563.59	465.77
563.75	444.70
563.92	463.43
564.08	454.06
564.24	393.21
564.41	411.93
564.57	362.78
564.74	390.87
564.90	344.06
565.07	379.17
565.23	369.80
565.39	383.85
565.56	456.40
565.72	400.23
565.88	404.91
566.05	358.10
566.21	444.70
566.38	367.46
566.54	416.62
566.70	470.45
566.87	477.47
567.03	348.74
567.19	404.91
567.36	449.38
567.52	411.93
567.68	423.64
567.85	465.77
568.01	442.36
568.17	416.62
568.34	397.89
568.50	425.98
568.66	463.43
568.83	444.70
568.99	418.96
569.15	430.66
569.32	447.04
569.48	337.04
569.64	374.49
569.81	489.17
569.97	421.30
570.13	397.89
570.30	425.98
570.46	423.64
570.62	425.98
570.78	355.76
570.95	383.85
571.11	404.91
571.27	496.19
571.43	416.62
571.60	454.06
571.76	395.55
571.92	475.13
572.09	369.80
572.25	430.66
572.41	372.15
572.57	414.27
572.74	400.23
572.90	484.49
573.06	402.57
573.22	379.17
573.38	456.40
573.55	411.93
573.71	496.19
573.87	337.04
574.03	407.25
574.20	425.98
574.36	472.79
574.52	386.19
574.68	428.32
574.84	346.40
575.01	447.04
575.17	496.19
575.33	386.19
575.49	454.06
575.65	376.83
575.82	442.36
575.98	510.24
576.14	388.53
576.30	435.34
576.46	451.72
576.62	461.09
576.79	477.47
576.95	458.74
577.11	503.22
577.27	337.04
577.43	404.91
577.59	461.09
577.75	388.53
577.92	418.96
578.08	411.93
578.24	416.62
578.40	400.23
578.56	383.85
578.72	421.30
578.88	458.74
579.04	500.87
579.21	524.28
579.37	397.89
579.53	367.46
579.69	409.59
579.85	344.06
580.01	397.89
580.17	409.59
580.33	433.00
580.49	369.80
580.65	390.87
580.82	402.57
580.98	395.55
581.14	496.19
581.30	447.04
581.46	381.51
581.62	430.66
581.78	395.55
581.94	444.70
582.10	402.57
582.26	404.91
582.42	351.08
582.58	468.11
582.74	465.77
582.90	475.13
583.06	397.89
583.22	393.21
583.38	428.32
583.54	395.55
583.70	454.06
583.86	458.74
584.02	379.17
584.18	411.93
584.34	397.89
584.50	395.55
584.66	449.38
584.82	379.17
584.98	472.79
585.14	383.85
585.30	433.00
585.46	416.62
585.62	421.30
585.78	362.78
585.94	376.83
586.10	372.15
586.26	353.42
586.42	430.66
586.58	409.59
586.74	475.13
586.90	437.68
587.06	381.51
587.22	440.02
587.38	416.62
587.54	393.21
587.70	456.40
587.86	327.68
588.02	428.32
588.18	456.40
588.34	414.27
588.49	402.57
588.65	388.53
588.81	376.83
588.97	337.04
589.13	362.78
589.29	454.06
589.45	470.45
589.61	435.34
589.77	479.81
589.93	404.91
590.08	428.32
590.24	381.51
590.40	496.19
590.56	428.32
590.72	386.19
590.88	461.09
591.04	425.98
591.20	463.43
591.35	470.45
591.51	437.68
591.67	386.19
591.83	379.17
591.99	505.56
592.15	475.13
592.31	390.87
592.46	437.68
592.62	430.66
592.78	381.51
592.94	435.34
593.10	454.06
593.26	381.51
593.41	348.74
593.57	416.62
593.73	383.85
593.89	451.72
594.05	369.80
594.20	397.89
594.36	404.91
594.52	458.74
594.68	472.79
594.84	437.68
594.99	393.21
595.15	442.36
595.31	430.66
595.47	547.69
595.62	367.46
595.78	362.78
595.94	423.64
596.10	421.30
596.25	411.93
596.41	418.96
596.57	365.12
596.73	440.02
596.88	409.59
597.04	444.70
597.20	388.53
597.36	430.66
597.51	435.34
597.67	418.96
597.83	369.80
597.99	411.93
598.14	407.25
598.30	414.27
598.46	369.80
598.61	454.06
598.77	348.74
598.93	388.53
599.09	433.00
599.24	498.53
599.40	411.93
599.56	379.17
599.71	362.78
599.87	425.98
600.03	416.62
600.18	454.06
600.34	414.27
600.50	430.66
600.65	444.70
600.81	414.27
600.97	463.43
601.12	388.53
601.28	447.04
601.44	358.10
601.59	430.66
601.75	416.62
601.91	421.30
602.06	444.70
602.22	435.34
602.37	404.91
602.53	430.66
602.69	383.85
602.84	411.93
603.00	397.89
603.16	449.38
603.31	472.79
603.47	407.25
603.62	430.66
603.78	428.32
603.94	507.90
604.09	400.23
604.25	430.66
604.40	477.47
604.56	330.02
604.71	400.23
604.87	400.23
605.03	433.00
605.18	465.77
605.34	510.24
605.49	421.30
605.65	372.15
605.80	376.83
605.96	486.83
606.12	414.27
606.27	400.23
606.43	416.62
606.58	416.62
606.74	409.59
606.89	404.91
607.05	437.68
607.20	374.49
607.36	430.66
607.51	449.38
607.67	423.64
607.82	472.79
607.98	512.58
608.13	390.87
608.29	454.06
608.44	428.32
608.60	433.00
608.75	468.11
608.91	437.68
609.06	505.56
609.22	390.87
609.37	414.27
609.53	409.59
609.68	421.30
609.84	390.87
609.99	404.91
610.15	463.43
