SpectraSuite Data File
++++++++++++++++++++++++++++++++++++
Date: Fri Oct 25 12:10:14 EDT 2013
User: price-jones
Dark Spectrum Present: No
Reference Spectrum Present: No
Number of Sampled Component Spectra: 1
Spectrometers: USB2+H05261
Integration Time (usec): 100000 (USB2+H05261)
Spectra Averaged: 1 (USB2+H05261)
Boxcar Smoothing: 0 (USB2+H05261)
Correct for Electrical Dark: No (USB2+H05261)
Strobe/Lamp Enabled: No (USB2+H05261)
Correct for Detector Non-linearity: No (USB2+H05261)
Correct for Stray Light: No (USB2+H05261)
Number of Pixels in Processed Spectrum: 2048
>>>>>Begin Processed Spectral Data<<<<<
365.73	344.06
365.92	344.06
366.12	344.06
366.32	208.31
366.52	252.78
366.72	292.57
366.91	318.31
367.11	273.84
367.31	262.14
367.51	248.10
367.70	248.10
367.90	285.55
368.10	271.50
368.30	236.39
368.49	248.10
368.69	266.82
368.89	299.59
369.09	332.36
369.28	273.84
369.48	299.59
369.68	259.80
369.87	297.25
370.07	337.04
370.27	315.97
370.47	304.27
370.66	318.31
370.86	299.59
371.06	409.59
371.25	379.17
371.45	388.53
371.65	456.40
371.84	348.74
372.04	313.63
372.24	362.78
372.44	402.57
372.63	430.66
372.83	444.70
373.03	374.49
373.22	465.77
373.42	341.72
373.62	444.70
373.81	535.98
374.01	388.53
374.21	425.98
374.40	353.42
374.60	472.79
374.79	402.57
374.99	430.66
375.19	332.36
375.38	468.11
375.58	409.59
375.78	423.64
375.97	444.70
376.17	463.43
376.37	383.85
376.56	388.53
376.76	372.15
376.95	404.91
377.15	409.59
377.35	463.43
377.54	442.36
377.74	383.85
377.93	454.06
378.13	418.96
378.33	423.64
378.52	421.30
378.72	437.68
378.91	346.40
379.11	386.19
379.31	442.36
379.50	381.51
379.70	433.00
379.89	437.68
380.09	383.85
380.28	362.78
380.48	451.72
380.68	397.89
380.87	390.87
381.07	344.06
381.26	383.85
381.46	411.93
381.65	465.77
381.85	477.47
382.04	451.72
382.24	383.85
382.43	411.93
382.63	402.57
382.83	430.66
383.02	491.51
383.22	416.62
383.41	379.17
383.61	358.10
383.80	395.55
384.00	397.89
384.19	425.98
384.39	386.19
384.58	388.53
384.78	416.62
384.97	444.70
385.17	386.19
385.36	404.91
385.56	444.70
385.75	346.40
385.95	414.27
386.14	456.40
386.34	355.76
386.53	383.85
386.72	472.79
386.92	475.13
387.11	416.62
387.31	390.87
387.50	393.21
387.70	390.87
387.89	390.87
388.09	337.04
388.28	477.47
388.48	411.93
388.67	447.04
388.86	447.04
389.06	482.15
389.25	468.11
389.45	386.19
389.64	369.80
389.84	456.40
390.03	395.55
390.22	404.91
390.42	379.17
390.61	383.85
390.81	379.17
391.00	482.15
391.19	447.04
391.39	451.72
391.58	433.00
391.78	430.66
391.97	365.12
392.16	386.19
392.36	388.53
392.55	369.80
392.75	365.12
392.94	351.08
393.13	440.02
393.33	411.93
393.52	414.27
393.71	505.56
393.91	444.70
394.10	447.04
394.29	369.80
394.49	367.46
394.68	397.89
394.88	447.04
395.07	521.94
395.26	418.96
395.46	365.12
395.65	402.57
395.84	397.89
396.04	423.64
396.23	393.21
396.42	447.04
396.62	414.27
396.81	475.13
397.00	435.34
397.19	428.32
397.39	503.22
397.58	416.62
397.77	416.62
397.97	416.62
398.16	468.11
398.35	418.96
398.55	353.42
398.74	397.89
398.93	414.27
399.12	449.38
399.32	372.15
399.51	402.57
399.70	489.17
399.90	449.38
400.09	425.98
400.28	388.53
400.47	447.04
400.67	397.89
400.86	381.51
401.05	346.40
401.24	430.66
401.44	395.55
401.63	456.40
401.82	440.02
402.01	346.40
402.21	383.85
402.40	421.30
402.59	465.77
402.78	425.98
402.97	372.15
403.17	433.00
403.36	395.55
403.55	374.49
403.74	411.93
403.93	341.72
404.13	430.66
404.32	313.63
404.51	472.79
404.70	456.40
404.89	395.55
405.09	402.57
405.28	430.66
405.47	433.00
405.66	400.23
405.85	444.70
406.05	390.87
406.24	388.53
406.43	400.23
406.62	381.51
406.81	395.55
407.00	482.15
407.20	428.32
407.39	374.49
407.58	388.53
407.77	395.55
407.96	421.30
408.15	449.38
408.34	440.02
408.54	421.30
408.73	327.68
408.92	386.19
409.11	465.77
409.30	402.57
409.49	367.46
409.68	388.53
409.87	430.66
410.07	442.36
410.26	428.32
410.45	400.23
410.64	306.61
410.83	421.30
411.02	386.19
411.21	421.30
411.40	416.62
411.59	433.00
411.78	409.59
411.98	451.72
412.17	318.31
412.36	416.62
412.55	428.32
412.74	418.96
412.93	437.68
413.12	442.36
413.31	451.72
413.50	479.81
413.69	379.17
413.88	468.11
414.07	379.17
414.26	367.46
414.45	437.68
414.64	505.56
414.83	454.06
415.02	421.30
415.22	454.06
415.41	472.79
415.60	381.51
415.79	369.80
415.98	390.87
416.17	484.49
416.36	409.59
416.55	414.27
416.74	365.12
416.93	425.98
417.12	519.60
417.31	433.00
417.50	351.08
417.69	437.68
417.88	414.27
418.07	414.27
418.26	390.87
418.45	383.85
418.64	409.59
418.83	414.27
419.02	393.21
419.21	418.96
419.39	430.66
419.58	383.85
419.77	395.55
419.96	418.96
420.15	421.30
420.34	470.45
420.53	442.36
420.72	355.76
420.91	381.51
421.10	414.27
421.29	400.23
421.48	383.85
421.67	423.64
421.86	423.64
422.05	430.66
422.24	386.19
422.43	367.46
422.61	362.78
422.80	369.80
422.99	451.72
423.18	365.12
423.37	458.74
423.56	489.17
423.75	390.87
423.94	428.32
424.13	421.30
424.32	451.72
424.50	344.06
424.69	386.19
424.88	414.27
425.07	339.38
425.26	433.00
425.45	458.74
425.64	400.23
425.83	400.23
426.01	402.57
426.20	400.23
426.39	428.32
426.58	381.51
426.77	393.21
426.96	421.30
427.15	416.62
427.33	322.99
427.52	355.76
427.71	430.66
427.90	404.91
428.09	433.00
428.28	411.93
428.46	393.21
428.65	360.44
428.84	447.04
429.03	423.64
429.22	416.62
429.40	390.87
429.59	404.91
429.78	416.62
429.97	402.57
430.16	430.66
430.34	475.13
430.53	365.12
430.72	330.02
430.91	360.44
431.10	400.23
431.28	388.53
431.47	369.80
431.66	379.17
431.85	430.66
432.03	465.77
432.22	477.47
432.41	397.89
432.60	414.27
432.79	400.23
432.97	451.72
433.16	428.32
433.35	416.62
433.54	425.98
433.72	482.15
433.91	477.47
434.10	395.55
434.28	444.70
434.47	379.17
434.66	468.11
434.85	351.08
435.03	351.08
435.22	447.04
435.41	414.27
435.59	451.72
435.78	468.11
435.97	402.57
436.16	456.40
436.34	348.74
436.53	418.96
436.72	437.68
436.90	407.25
437.09	409.59
437.28	407.25
437.46	449.38
437.65	444.70
437.84	444.70
438.02	351.08
438.21	456.40
438.40	407.25
438.58	369.80
438.77	421.30
438.96	390.87
439.14	402.57
439.33	458.74
439.52	393.21
439.70	454.06
439.89	421.30
440.08	409.59
440.26	479.81
440.45	421.30
440.63	470.45
440.82	386.19
441.01	451.72
441.19	442.36
441.38	425.98
441.57	437.68
441.75	369.80
441.94	397.89
442.12	430.66
442.31	362.78
442.50	416.62
442.68	442.36
442.87	414.27
443.05	425.98
443.24	461.09
443.43	425.98
443.61	489.17
443.80	433.00
443.98	416.62
444.17	400.23
444.35	416.62
444.54	318.31
444.73	383.85
444.91	479.81
445.10	414.27
445.28	388.53
445.47	404.91
445.65	393.21
445.84	411.93
446.02	479.81
446.21	463.43
446.39	341.72
446.58	449.38
446.77	374.49
446.95	416.62
447.14	414.27
447.32	341.72
447.51	421.30
447.69	458.74
447.88	411.93
448.06	468.11
448.25	435.34
448.43	407.25
448.62	404.91
448.80	355.76
448.99	390.87
449.17	498.53
449.36	416.62
449.54	475.13
449.73	376.83
449.91	395.55
450.10	351.08
450.28	442.36
450.46	428.32
450.65	430.66
450.83	397.89
451.02	388.53
451.20	444.70
451.39	421.30
451.57	425.98
451.76	437.68
451.94	374.49
452.13	470.45
452.31	397.89
452.49	376.83
452.68	407.25
452.86	400.23
453.05	425.98
453.23	365.12
453.42	437.68
453.60	358.10
453.78	362.78
453.97	393.21
454.15	390.87
454.34	475.13
454.52	383.85
454.70	379.17
454.89	390.87
455.07	442.36
455.26	451.72
455.44	421.30
455.62	330.02
455.81	383.85
455.99	404.91
456.17	451.72
456.36	388.53
456.54	416.62
456.73	461.09
456.91	383.85
457.09	433.00
457.28	444.70
457.46	369.80
457.64	390.87
457.83	379.17
458.01	393.21
458.19	409.59
458.38	440.02
458.56	397.89
458.74	407.25
458.93	470.45
459.11	407.25
459.29	440.02
459.48	468.11
459.66	418.96
459.84	442.36
460.03	449.38
460.21	393.21
460.39	362.78
460.57	397.89
460.76	400.23
460.94	388.53
461.12	442.36
461.31	435.34
461.49	346.40
461.67	475.13
461.85	395.55
462.04	458.74
462.22	835.57
462.40	454.06
462.59	400.23
462.77	430.66
462.95	402.57
463.13	334.70
463.32	486.83
463.50	402.57
463.68	395.55
463.86	390.87
464.05	444.70
464.23	411.93
464.41	447.04
464.59	386.19
464.78	447.04
464.96	367.46
465.14	402.57
465.32	407.25
465.50	418.96
465.69	407.25
465.87	367.46
466.05	407.25
466.23	365.12
466.41	503.22
466.60	400.23
466.78	440.02
466.96	402.57
467.14	395.55
467.32	418.96
467.51	407.25
467.69	468.11
467.87	444.70
468.05	404.91
468.23	442.36
468.41	489.17
468.60	437.68
468.78	346.40
468.96	388.53
469.14	411.93
469.32	348.74
469.50	409.59
469.69	435.34
469.87	402.57
470.05	493.85
470.23	493.85
470.41	425.98
470.59	337.04
470.77	404.91
470.95	369.80
471.14	381.51
471.32	456.40
471.50	524.28
471.68	379.17
471.86	482.15
472.04	395.55
472.22	451.72
472.40	430.66
472.58	458.74
472.77	416.62
472.95	411.93
473.13	458.74
473.31	416.62
473.49	386.19
473.67	360.44
473.85	512.58
474.03	404.91
474.21	395.55
474.39	407.25
474.57	386.19
474.75	402.57
474.93	339.38
475.12	409.59
475.30	409.59
475.48	386.19
475.66	414.27
475.84	404.91
476.02	440.02
476.20	491.51
476.38	379.17
476.56	484.49
476.74	418.96
476.92	402.57
477.10	414.27
477.28	482.15
477.46	418.96
477.64	447.04
477.82	418.96
478.00	397.89
478.18	433.00
478.36	456.40
478.54	416.62
478.72	351.08
478.90	414.27
479.08	433.00
479.26	425.98
479.44	442.36
479.62	360.44
479.80	428.32
479.98	454.06
480.16	418.96
480.34	463.43
480.52	414.27
480.70	440.02
480.88	454.06
481.06	365.12
481.24	388.53
481.41	383.85
481.59	390.87
481.77	376.83
481.95	418.96
482.13	416.62
482.31	407.25
482.49	379.17
482.67	482.15
482.85	512.58
483.03	458.74
483.21	369.80
483.39	421.30
483.57	395.55
483.74	465.77
483.92	395.55
484.10	456.40
484.28	449.38
484.46	482.15
484.64	416.62
484.82	468.11
485.00	411.93
485.18	433.00
485.35	470.45
485.53	414.27
485.71	421.30
485.89	383.85
486.07	351.08
486.25	479.81
486.43	454.06
486.61	440.02
486.78	423.64
486.96	379.17
487.14	386.19
487.32	416.62
487.50	433.00
487.68	482.15
487.85	440.02
488.03	390.87
488.21	444.70
488.39	468.11
488.57	435.34
488.75	416.62
488.92	458.74
489.10	402.57
489.28	409.59
489.46	440.02
489.64	423.64
489.81	437.68
489.99	428.32
490.17	376.83
490.35	470.45
490.53	449.38
490.70	500.87
490.88	341.72
491.06	390.87
491.24	451.72
491.41	360.44
491.59	411.93
491.77	440.02
491.95	425.98
492.13	437.68
492.30	454.06
492.48	425.98
492.66	416.62
492.84	388.53
493.01	407.25
493.19	449.38
493.37	475.13
493.54	521.94
493.72	374.49
493.90	461.09
494.08	454.06
494.25	372.15
494.43	444.70
494.61	395.55
494.79	353.42
494.96	386.19
495.14	458.74
495.32	381.51
495.49	430.66
495.67	425.98
495.85	447.04
496.02	416.62
496.20	423.64
496.38	449.38
496.55	397.89
496.73	425.98
496.91	465.77
497.09	449.38
497.26	346.40
497.44	381.51
497.62	402.57
497.79	386.19
497.97	444.70
498.14	458.74
498.32	489.17
498.50	337.04
498.67	402.57
498.85	418.96
499.03	425.98
499.20	407.25
499.38	374.49
499.56	402.57
499.73	475.13
499.91	521.94
500.08	486.83
500.26	407.25
500.44	442.36
500.61	437.68
500.79	437.68
500.97	428.32
501.14	428.32
501.32	409.59
501.49	411.93
501.67	458.74
501.84	416.62
502.02	414.27
502.20	416.62
502.37	449.38
502.55	386.19
502.72	383.85
502.90	353.42
503.07	435.34
503.25	486.83
503.43	449.38
503.60	454.06
503.78	388.53
503.95	442.36
504.13	428.32
504.30	397.89
504.48	416.62
504.65	430.66
504.83	407.25
505.01	402.57
505.18	451.72
505.36	498.53
505.53	372.15
505.71	411.93
505.88	437.68
506.06	383.85
506.23	395.55
506.41	440.02
506.58	482.15
506.76	423.64
506.93	374.49
507.11	458.74
507.28	454.06
507.46	383.85
507.63	416.62
507.81	395.55
507.98	393.21
508.16	407.25
508.33	372.15
508.50	360.44
508.68	376.83
508.85	421.30
509.03	411.93
509.20	411.93
509.38	386.19
509.55	423.64
509.73	461.09
509.90	416.62
510.08	374.49
510.25	449.38
510.42	402.57
510.60	369.80
510.77	451.72
510.95	423.64
511.12	428.32
511.30	425.98
511.47	416.62
511.64	491.51
511.82	428.32
511.99	433.00
512.17	397.89
512.34	430.66
512.51	388.53
512.69	416.62
512.86	428.32
513.04	444.70
513.21	409.59
513.38	332.36
513.56	418.96
513.73	437.68
513.90	390.87
514.08	414.27
514.25	416.62
514.43	433.00
514.60	388.53
514.77	372.15
514.95	447.04
515.12	440.02
515.29	395.55
515.47	437.68
515.64	383.85
515.81	428.32
515.99	379.17
516.16	416.62
516.33	482.15
516.51	421.30
516.68	346.40
516.85	440.02
517.03	369.80
517.20	397.89
517.37	486.83
517.54	383.85
517.72	376.83
517.89	353.42
518.06	402.57
518.24	437.68
518.41	435.34
518.58	442.36
518.75	409.59
518.93	458.74
519.10	411.93
519.27	362.78
519.45	381.51
519.62	390.87
519.79	414.27
519.96	430.66
520.14	425.98
520.31	470.45
520.48	430.66
520.65	440.02
520.83	437.68
521.00	449.38
521.17	491.51
521.34	353.42
521.52	423.64
521.69	400.23
521.86	463.43
522.03	437.68
522.20	400.23
522.38	456.40
522.55	421.30
522.72	390.87
522.89	454.06
523.07	421.30
523.24	360.44
523.41	339.38
523.58	458.74
523.75	409.59
523.92	404.91
524.10	393.21
524.27	386.19
524.44	425.98
524.61	444.70
524.78	402.57
524.96	468.11
525.13	416.62
525.30	404.91
525.47	395.55
525.64	421.30
525.81	435.34
525.98	407.25
526.16	430.66
526.33	407.25
526.50	437.68
526.67	435.34
526.84	442.36
527.01	517.26
527.18	423.64
527.36	430.66
527.53	416.62
527.70	421.30
527.87	395.55
528.04	461.09
528.21	386.19
528.38	409.59
528.55	414.27
528.72	383.85
528.89	414.27
529.07	465.77
529.24	418.96
529.41	421.30
529.58	416.62
529.75	397.89
529.92	454.06
530.09	390.87
530.26	435.34
530.43	404.91
530.60	365.12
530.77	369.80
530.94	423.64
531.11	386.19
531.28	414.27
531.46	421.30
531.63	374.49
531.80	397.89
531.97	428.32
532.14	418.96
532.31	440.02
532.48	344.06
532.65	397.89
532.82	428.32
532.99	409.59
533.16	383.85
533.33	402.57
533.50	337.04
533.67	407.25
533.84	442.36
534.01	425.98
534.18	358.10
534.35	416.62
534.52	414.27
534.69	475.13
534.86	437.68
535.03	416.62
535.20	400.23
535.37	388.53
535.54	451.72
535.71	503.22
535.88	409.59
536.05	365.12
536.22	561.73
536.38	421.30
536.55	425.98
536.72	479.81
536.89	442.36
537.06	379.17
537.23	440.02
537.40	505.56
537.57	381.51
537.74	442.36
537.91	456.40
538.08	414.27
538.25	400.23
538.42	463.43
538.59	444.70
538.75	407.25
538.92	404.91
539.09	397.89
539.26	440.02
539.43	458.74
539.60	437.68
539.77	395.55
539.94	402.57
540.11	477.47
540.28	393.21
540.44	458.74
540.61	447.04
540.78	353.42
540.95	472.79
541.12	442.36
541.29	440.02
541.46	425.98
541.62	435.34
541.79	411.93
541.96	397.89
542.13	409.59
542.30	383.85
542.47	414.27
542.63	414.27
542.80	376.83
542.97	344.06
543.14	409.59
543.31	461.09
543.48	395.55
543.64	449.38
543.81	461.09
543.98	444.70
544.15	320.65
544.32	402.57
544.48	447.04
544.65	393.21
544.82	435.34
544.99	397.89
545.16	393.21
545.32	407.25
545.49	449.38
545.66	475.13
545.83	365.12
546.00	421.30
546.16	433.00
546.33	458.74
546.50	383.85
546.67	493.85
546.83	454.06
547.00	409.59
547.17	407.25
547.34	416.62
547.50	423.64
547.67	425.98
547.84	395.55
548.00	351.08
548.17	369.80
548.34	425.98
548.51	463.43
548.67	489.17
548.84	383.85
549.01	414.27
549.18	411.93
549.34	435.34
549.51	425.98
549.68	440.02
549.84	362.78
550.01	407.25
550.18	535.98
550.34	388.53
550.51	365.12
550.68	442.36
550.84	397.89
551.01	484.49
551.18	383.85
551.34	421.30
551.51	362.78
551.68	365.12
551.84	461.09
552.01	421.30
552.18	407.25
552.34	397.89
552.51	430.66
552.68	482.15
552.84	388.53
553.01	411.93
553.18	425.98
553.34	402.57
553.51	409.59
553.67	402.57
553.84	430.66
554.01	440.02
554.17	402.57
554.34	442.36
554.51	416.62
554.67	400.23
554.84	475.13
555.00	421.30
555.17	379.17
555.33	489.17
555.50	409.59
555.67	465.77
555.83	411.93
556.00	400.23
556.16	547.69
556.33	435.34
556.50	411.93
556.66	423.64
556.83	428.32
556.99	440.02
557.16	442.36
557.32	414.27
557.49	418.96
557.65	409.59
557.82	440.02
557.98	374.49
558.15	362.78
558.32	458.74
558.48	486.83
558.65	437.68
558.81	472.79
558.98	461.09
559.14	390.87
559.31	390.87
559.47	451.72
559.64	470.45
559.80	461.09
559.97	358.10
560.13	397.89
560.30	358.10
560.46	421.30
560.63	414.27
560.79	397.89
560.96	393.21
561.12	414.27
561.29	376.83
561.45	433.00
561.61	376.83
561.78	477.47
561.94	472.79
562.11	447.04
562.27	447.04
562.44	421.30
562.60	435.34
562.77	421.30
562.93	484.49
563.10	400.23
563.26	346.40
563.42	414.27
563.59	430.66
563.75	404.91
563.92	414.27
564.08	353.42
564.24	435.34
564.41	458.74
564.57	421.30
564.74	388.53
564.90	444.70
565.07	402.57
565.23	407.25
565.39	344.06
565.56	360.44
565.72	362.78
565.88	449.38
566.05	414.27
566.21	472.79
566.38	428.32
566.54	374.49
566.70	482.15
566.87	418.96
567.03	360.44
567.19	433.00
567.36	435.34
567.52	409.59
567.68	404.91
567.85	430.66
568.01	461.09
568.17	414.27
568.34	472.79
568.50	416.62
568.66	433.00
568.83	479.81
568.99	418.96
569.15	512.58
569.32	435.34
569.48	418.96
569.64	402.57
569.81	409.59
569.97	367.46
570.13	428.32
570.30	386.19
570.46	428.32
570.62	423.64
570.78	400.23
570.95	447.04
571.11	414.27
571.27	461.09
571.43	383.85
571.60	456.40
571.76	386.19
571.92	383.85
572.09	414.27
572.25	496.19
572.41	402.57
572.57	437.68
572.74	454.06
572.90	395.55
573.06	404.91
573.22	409.59
573.38	442.36
573.55	400.23
573.71	348.74
573.87	477.47
574.03	414.27
574.20	451.72
574.36	388.53
574.52	386.19
574.68	383.85
574.84	341.72
575.01	414.27
575.17	411.93
575.33	402.57
575.49	397.89
575.65	400.23
575.82	472.79
575.98	433.00
576.14	477.47
576.30	428.32
576.46	402.57
576.62	451.72
576.79	472.79
576.95	393.21
577.11	397.89
577.27	470.45
577.43	421.30
577.59	461.09
577.75	451.72
577.92	393.21
578.08	358.10
578.24	372.15
578.40	418.96
578.56	463.43
578.72	444.70
578.88	379.17
579.04	325.33
579.21	416.62
579.37	374.49
579.53	416.62
579.69	456.40
579.85	423.64
580.01	442.36
580.17	334.70
580.33	355.76
580.49	477.47
580.65	360.44
580.82	472.79
580.98	414.27
581.14	334.70
581.30	362.78
581.46	388.53
581.62	461.09
581.78	461.09
581.94	428.32
582.10	351.08
582.26	348.74
582.42	383.85
582.58	454.06
582.74	444.70
582.90	395.55
583.06	456.40
583.22	416.62
583.38	423.64
583.54	339.38
583.70	409.59
583.86	428.32
584.02	444.70
584.18	454.06
584.34	447.04
584.50	372.15
584.66	346.40
584.82	404.91
584.98	472.79
585.14	423.64
585.30	442.36
585.46	475.13
585.62	407.25
585.78	447.04
585.94	477.47
586.10	376.83
586.26	447.04
586.42	430.66
586.58	402.57
586.74	381.51
586.90	482.15
587.06	440.02
587.22	397.89
587.38	428.32
587.54	461.09
587.70	510.24
587.86	430.66
588.02	402.57
588.18	461.09
588.34	407.25
588.49	435.34
588.65	421.30
588.81	411.93
588.97	383.85
589.13	390.87
589.29	418.96
589.45	482.15
589.61	423.64
589.77	437.68
589.93	425.98
590.08	390.87
590.24	355.76
590.40	402.57
590.56	428.32
590.72	411.93
590.88	451.72
591.04	456.40
591.20	390.87
591.35	407.25
591.51	482.15
591.67	337.04
591.83	491.51
591.99	461.09
592.15	456.40
592.31	433.00
592.46	430.66
592.62	458.74
592.78	416.62
592.94	414.27
593.10	395.55
593.26	360.44
593.41	355.76
593.57	400.23
593.73	337.04
593.89	449.38
594.05	379.17
594.20	400.23
594.36	428.32
594.52	414.27
594.68	428.32
594.84	348.74
594.99	428.32
595.15	390.87
595.31	465.77
595.47	489.17
595.62	440.02
595.78	346.40
595.94	416.62
596.10	416.62
596.25	430.66
596.41	437.68
596.57	372.15
596.73	355.76
596.88	376.83
597.04	351.08
597.20	414.27
597.36	433.00
597.51	411.93
597.67	440.02
597.83	344.06
597.99	454.06
598.14	402.57
598.30	437.68
598.46	458.74
598.61	339.38
598.77	470.45
598.93	447.04
599.09	414.27
599.24	379.17
599.40	449.38
599.56	510.24
599.71	458.74
599.87	395.55
600.03	531.30
600.18	411.93
600.34	447.04
600.50	362.78
600.65	407.25
600.81	496.19
600.97	376.83
601.12	369.80
601.28	416.62
601.44	367.46
601.59	451.72
601.75	454.06
601.91	430.66
602.06	381.51
602.22	503.22
602.37	409.59
602.53	479.81
602.69	374.49
602.84	489.17
603.00	409.59
603.16	372.15
603.31	444.70
603.47	463.43
603.62	374.49
603.78	379.17
603.94	458.74
604.09	430.66
604.25	313.63
604.40	428.32
604.56	456.40
604.71	381.51
604.87	393.21
605.03	409.59
605.18	395.55
605.34	447.04
605.49	458.74
605.65	390.87
605.80	383.85
605.96	435.34
606.12	463.43
606.27	484.49
606.43	395.55
606.58	517.26
606.74	444.70
606.89	339.38
607.05	400.23
607.20	430.66
607.36	390.87
607.51	423.64
607.67	418.96
607.82	402.57
607.98	433.00
608.13	409.59
608.29	425.98
608.44	470.45
608.60	451.72
608.75	414.27
608.91	365.12
609.06	383.85
609.22	308.95
609.37	454.06
609.53	327.68
609.68	393.21
609.84	348.74
609.99	400.23
610.15	372.15
