SpectraSuite Data File
++++++++++++++++++++++++++++++++++++
Date: Fri Oct 25 12:10:54 EDT 2013
User: price-jones
Dark Spectrum Present: No
Reference Spectrum Present: No
Number of Sampled Component Spectra: 1
Spectrometers: USB2+H05261
Integration Time (usec): 100000 (USB2+H05261)
Spectra Averaged: 1 (USB2+H05261)
Boxcar Smoothing: 0 (USB2+H05261)
Correct for Electrical Dark: No (USB2+H05261)
Strobe/Lamp Enabled: No (USB2+H05261)
Correct for Detector Non-linearity: No (USB2+H05261)
Correct for Stray Light: No (USB2+H05261)
Number of Pixels in Processed Spectrum: 2048
>>>>>Begin Processed Spectral Data<<<<<
365.73	400.23
365.92	400.23
366.12	400.23
366.32	210.65
366.52	168.52
366.72	266.82
366.91	294.91
367.11	280.86
367.31	194.26
367.51	229.37
367.70	180.22
367.90	245.76
368.10	262.14
368.30	280.86
368.49	175.54
368.69	212.99
368.89	269.16
369.09	215.33
369.28	243.42
369.48	222.35
369.68	278.52
369.87	315.97
370.07	259.80
370.27	320.65
370.47	276.18
370.66	351.08
370.86	393.21
371.06	362.78
371.25	395.55
371.45	344.06
371.65	304.27
371.84	386.19
372.04	395.55
372.24	383.85
372.44	358.10
372.63	390.87
372.83	381.51
373.03	386.19
373.22	454.06
373.42	339.38
373.62	433.00
373.81	503.22
374.01	444.70
374.21	475.13
374.40	374.49
374.60	512.58
374.79	437.68
374.99	465.77
375.19	491.51
375.38	465.77
375.58	425.98
375.78	482.15
375.97	355.76
376.17	489.17
376.37	416.62
376.56	470.45
376.76	463.43
376.95	388.53
377.15	369.80
377.35	444.70
377.54	400.23
377.74	447.04
377.93	395.55
378.13	388.53
378.33	442.36
378.52	416.62
378.72	411.93
378.91	376.83
379.11	386.19
379.31	414.27
379.50	418.96
379.70	397.89
379.89	386.19
380.09	367.46
380.28	430.66
380.48	437.68
380.68	360.44
380.87	428.32
381.07	433.00
381.26	386.19
381.46	339.38
381.65	365.12
381.85	358.10
382.04	407.25
382.24	425.98
382.43	379.17
382.63	425.98
382.83	409.59
383.02	379.17
383.22	358.10
383.41	369.80
383.61	397.89
383.80	348.74
384.00	430.66
384.19	341.72
384.39	411.93
384.58	418.96
384.78	421.30
384.97	447.04
385.17	351.08
385.36	510.24
385.56	425.98
385.75	407.25
385.95	442.36
386.14	390.87
386.34	341.72
386.53	423.64
386.72	374.49
386.92	435.34
387.11	362.78
387.31	428.32
387.50	416.62
387.70	362.78
387.89	372.15
388.09	393.21
388.28	348.74
388.48	411.93
388.67	477.47
388.86	341.72
389.06	442.36
389.25	449.38
389.45	393.21
389.64	379.17
389.84	339.38
390.03	374.49
390.22	423.64
390.42	386.19
390.61	404.91
390.81	327.68
391.00	404.91
391.19	437.68
391.39	411.93
391.58	430.66
391.78	409.59
391.97	418.96
392.16	430.66
392.36	425.98
392.55	442.36
392.75	365.12
392.94	461.09
393.13	374.49
393.33	367.46
393.52	440.02
393.71	498.53
393.91	465.77
394.10	430.66
394.29	400.23
394.49	409.59
394.68	404.91
394.88	421.30
395.07	463.43
395.26	423.64
395.46	465.77
395.65	386.19
395.84	461.09
396.04	440.02
396.23	451.72
396.42	400.23
396.62	475.13
396.81	423.64
397.00	332.36
397.19	411.93
397.39	390.87
397.58	390.87
397.77	355.76
397.97	411.93
398.16	367.46
398.35	346.40
398.55	374.49
398.74	379.17
398.93	358.10
399.12	353.42
399.32	367.46
399.51	348.74
399.70	449.38
399.90	411.93
400.09	421.30
400.28	430.66
400.47	390.87
400.67	451.72
400.86	411.93
401.05	437.68
401.24	475.13
401.44	404.91
401.63	388.53
401.82	491.51
402.01	367.46
402.21	433.00
402.40	383.85
402.59	416.62
402.78	416.62
402.97	456.40
403.17	360.44
403.36	444.70
403.55	374.49
403.74	500.87
403.93	351.08
404.13	376.83
404.32	440.02
404.51	360.44
404.70	407.25
404.89	365.12
405.09	353.42
405.28	379.17
405.47	374.49
405.66	528.96
405.85	407.25
406.05	393.21
406.24	372.15
406.43	388.53
406.62	444.70
406.81	444.70
407.00	437.68
407.20	369.80
407.39	500.87
407.58	379.17
407.77	418.96
407.96	498.53
408.15	425.98
408.34	428.32
408.54	372.15
408.73	404.91
408.92	376.83
409.11	440.02
409.30	315.97
409.49	327.68
409.68	451.72
409.87	339.38
410.07	365.12
410.26	428.32
410.45	442.36
410.64	463.43
410.83	416.62
411.02	367.46
411.21	379.17
411.40	437.68
411.59	421.30
411.78	435.34
411.98	393.21
412.17	510.24
412.36	409.59
412.55	383.85
412.74	367.46
412.93	484.49
413.12	311.29
413.31	397.89
413.50	491.51
413.69	383.85
413.88	435.34
414.07	437.68
414.26	381.51
414.45	400.23
414.64	421.30
414.83	440.02
415.02	386.19
415.22	430.66
415.41	362.78
415.60	433.00
415.79	416.62
415.98	397.89
416.17	447.04
416.36	388.53
416.55	330.02
416.74	411.93
416.93	390.87
417.12	367.46
417.31	383.85
417.50	360.44
417.69	447.04
417.88	407.25
418.07	407.25
418.26	433.00
418.45	353.42
418.64	416.62
418.83	383.85
419.02	404.91
419.21	433.00
419.39	393.21
419.58	486.83
419.77	393.21
419.96	409.59
420.15	411.93
420.34	449.38
420.53	344.06
420.72	397.89
420.91	379.17
421.10	393.21
421.29	414.27
421.48	430.66
421.67	451.72
421.86	365.12
422.05	374.49
422.24	397.89
422.43	388.53
422.61	447.04
422.80	496.19
422.99	423.64
423.18	407.25
423.37	381.51
423.56	409.59
423.75	318.31
423.94	416.62
424.13	479.81
424.32	397.89
424.50	416.62
424.69	465.77
424.88	510.24
425.07	386.19
425.26	423.64
425.45	351.08
425.64	409.59
425.83	402.57
426.01	400.23
426.20	404.91
426.39	444.70
426.58	451.72
426.77	463.43
426.96	409.59
427.15	430.66
427.33	421.30
427.52	409.59
427.71	388.53
427.90	376.83
428.09	383.85
428.28	379.17
428.46	358.10
428.65	332.36
428.84	423.64
429.03	442.36
429.22	358.10
429.40	421.30
429.59	372.15
429.78	390.87
429.97	468.11
430.16	440.02
430.34	383.85
430.53	425.98
430.72	337.04
430.91	479.81
431.10	425.98
431.28	442.36
431.47	395.55
431.66	433.00
431.85	425.98
432.03	332.36
432.22	463.43
432.41	435.34
432.60	418.96
432.79	461.09
432.97	346.40
433.16	355.76
433.35	383.85
433.54	348.74
433.72	393.21
433.91	425.98
434.10	468.11
434.28	465.77
434.47	484.49
434.66	346.40
434.85	386.19
435.03	397.89
435.22	416.62
435.41	451.72
435.59	463.43
435.78	404.91
435.97	425.98
436.16	449.38
436.34	397.89
436.53	383.85
436.72	402.57
436.90	519.60
437.09	365.12
437.28	395.55
437.46	461.09
437.65	458.74
437.84	425.98
438.02	442.36
438.21	454.06
438.40	416.62
438.58	388.53
438.77	447.04
438.96	376.83
439.14	416.62
439.33	451.72
439.52	381.51
439.70	320.65
439.89	379.17
440.08	449.38
440.26	484.49
440.45	454.06
440.63	381.51
440.82	425.98
441.01	428.32
441.19	402.57
441.38	400.23
441.57	468.11
441.75	414.27
441.94	376.83
442.12	456.40
442.31	418.96
442.50	362.78
442.68	423.64
442.87	395.55
443.05	437.68
443.24	456.40
443.43	372.15
443.61	496.19
443.80	447.04
443.98	430.66
444.17	341.72
444.35	479.81
444.54	400.23
444.73	386.19
444.91	477.47
445.10	433.00
445.28	367.46
445.47	428.32
445.65	400.23
445.84	379.17
446.02	416.62
446.21	482.15
446.39	458.74
446.58	407.25
446.77	362.78
446.95	369.80
447.14	465.77
447.32	407.25
447.51	425.98
447.69	386.19
447.88	444.70
448.06	482.15
448.25	458.74
448.43	444.70
448.62	437.68
448.80	416.62
448.99	411.93
449.17	393.21
449.36	451.72
449.54	465.77
449.73	440.02
449.91	423.64
450.10	407.25
450.28	390.87
450.46	423.64
450.65	337.04
450.83	386.19
451.02	425.98
451.20	421.30
451.39	407.25
451.57	440.02
451.76	400.23
451.94	437.68
452.13	421.30
452.31	444.70
452.49	421.30
452.68	381.51
452.86	353.42
453.05	402.57
453.23	308.95
453.42	374.49
453.60	489.17
453.78	433.00
453.97	365.12
454.15	404.91
454.34	404.91
454.52	386.19
454.70	447.04
454.89	360.44
455.07	383.85
455.26	430.66
455.44	463.43
455.62	372.15
455.81	416.62
455.99	510.24
456.17	435.34
456.36	386.19
456.54	463.43
456.73	458.74
456.91	411.93
457.09	397.89
457.28	512.58
457.46	351.08
457.64	477.47
457.83	372.15
458.01	465.77
458.19	383.85
458.38	458.74
458.56	451.72
458.74	376.83
458.93	351.08
459.11	365.12
459.29	397.89
459.48	395.55
459.66	411.93
459.84	388.53
460.03	402.57
460.21	393.21
460.39	372.15
460.57	416.62
460.76	407.25
460.94	400.23
461.12	451.72
461.31	393.21
461.49	458.74
461.67	437.68
461.85	379.17
462.04	435.34
462.22	870.68
462.40	416.62
462.59	454.06
462.77	365.12
462.95	470.45
463.13	397.89
463.32	428.32
463.50	421.30
463.68	386.19
463.86	491.51
464.05	442.36
464.23	479.81
464.41	437.68
464.59	458.74
464.78	411.93
464.96	421.30
465.14	465.77
465.32	393.21
465.50	409.59
465.69	444.70
465.87	360.44
466.05	376.83
466.23	479.81
466.41	428.32
466.60	423.64
466.78	433.00
466.96	390.87
467.14	456.40
467.32	430.66
467.51	475.13
467.69	407.25
467.87	414.27
468.05	440.02
468.23	416.62
468.41	433.00
468.60	404.91
468.78	465.77
468.96	369.80
469.14	390.87
469.32	390.87
469.50	367.46
469.69	454.06
469.87	461.09
470.05	414.27
470.23	498.53
470.41	402.57
470.59	463.43
470.77	397.89
470.95	440.02
471.14	386.19
471.32	423.64
471.50	454.06
471.68	407.25
471.86	395.55
472.04	463.43
472.22	451.72
472.40	372.15
472.58	409.59
472.77	414.27
472.95	414.27
473.13	425.98
473.31	479.81
473.49	322.99
473.67	423.64
473.85	433.00
474.03	435.34
474.21	390.87
474.39	407.25
474.57	465.77
474.75	383.85
474.93	381.51
475.12	456.40
475.30	374.49
475.48	456.40
475.66	421.30
475.84	379.17
476.02	381.51
476.20	423.64
476.38	430.66
476.56	461.09
476.74	400.23
476.92	456.40
477.10	433.00
477.28	472.79
477.46	447.04
477.64	414.27
477.82	402.57
478.00	414.27
478.18	491.51
478.36	409.59
478.54	400.23
478.72	388.53
478.90	393.21
479.08	348.74
479.26	458.74
479.44	351.08
479.62	451.72
479.80	416.62
479.98	386.19
480.16	402.57
480.34	465.77
480.52	334.70
480.70	414.27
480.88	367.46
481.06	348.74
481.24	430.66
481.41	381.51
481.59	447.04
481.77	386.19
481.95	404.91
482.13	411.93
482.31	456.40
482.49	425.98
482.67	425.98
482.85	472.79
483.03	451.72
483.21	411.93
483.39	451.72
483.57	421.30
483.74	425.98
483.92	421.30
484.10	381.51
484.28	447.04
484.46	463.43
484.64	390.87
484.82	409.59
485.00	454.06
485.18	367.46
485.35	423.64
485.53	423.64
485.71	414.27
485.89	365.12
486.07	351.08
486.25	486.83
486.43	402.57
486.61	383.85
486.78	454.06
486.96	374.49
487.14	369.80
487.32	404.91
487.50	468.11
487.68	362.78
487.85	451.72
488.03	414.27
488.21	423.64
488.39	418.96
488.57	402.57
488.75	397.89
488.92	550.03
489.10	400.23
489.28	383.85
489.46	451.72
489.64	444.70
489.81	334.70
489.99	402.57
490.17	346.40
490.35	484.49
490.53	444.70
490.70	362.78
490.88	390.87
491.06	418.96
491.24	437.68
491.41	416.62
491.59	334.70
491.77	374.49
491.95	421.30
492.13	374.49
492.30	386.19
492.48	360.44
492.66	402.57
492.84	421.30
493.01	390.87
493.19	393.21
493.37	383.85
493.54	418.96
493.72	381.51
493.90	346.40
494.08	470.45
494.25	433.00
494.43	418.96
494.61	489.17
494.79	395.55
494.96	400.23
495.14	500.87
495.32	388.53
495.49	346.40
495.67	437.68
495.85	468.11
496.02	468.11
496.20	402.57
496.38	430.66
496.55	337.04
496.73	468.11
496.91	458.74
497.09	374.49
497.26	409.59
497.44	456.40
497.62	337.04
497.79	407.25
497.97	451.72
498.14	400.23
498.32	404.91
498.50	411.93
498.67	393.21
498.85	400.23
499.03	484.49
499.20	379.17
499.38	400.23
499.56	482.15
499.73	428.32
499.91	402.57
500.08	423.64
500.26	414.27
500.44	390.87
500.61	348.74
500.79	386.19
500.97	367.46
501.14	507.90
501.32	472.79
501.49	461.09
501.67	379.17
501.84	411.93
502.02	416.62
502.20	498.53
502.37	423.64
502.55	409.59
502.72	454.06
502.90	484.49
503.07	365.12
503.25	353.42
503.43	416.62
503.60	470.45
503.78	369.80
503.95	372.15
504.13	423.64
504.30	475.13
504.48	479.81
504.65	482.15
504.83	425.98
505.01	400.23
505.18	393.21
505.36	435.34
505.53	411.93
505.71	437.68
505.88	400.23
506.06	374.49
506.23	411.93
506.41	362.78
506.58	397.89
506.76	451.72
506.93	376.83
507.11	414.27
507.28	407.25
507.46	430.66
507.63	393.21
507.81	390.87
507.98	411.93
508.16	458.74
508.33	423.64
508.50	411.93
508.68	330.02
508.85	414.27
509.03	379.17
509.20	358.10
509.38	468.11
509.55	395.55
509.73	425.98
509.90	428.32
510.08	428.32
510.25	456.40
510.42	440.02
510.60	475.13
510.77	454.06
510.95	407.25
511.12	407.25
511.30	418.96
511.47	423.64
511.64	421.30
511.82	414.27
511.99	407.25
512.17	449.38
512.34	435.34
512.51	468.11
512.69	383.85
512.86	486.83
513.04	458.74
513.21	409.59
513.38	435.34
513.56	376.83
513.73	407.25
513.90	423.64
514.08	372.15
514.25	451.72
514.43	423.64
514.60	409.59
514.77	442.36
514.95	404.91
515.12	376.83
515.29	346.40
515.47	414.27
515.64	458.74
515.81	465.77
515.99	433.00
516.16	393.21
516.33	468.11
516.51	421.30
516.68	400.23
516.85	440.02
517.03	435.34
517.20	379.17
517.37	449.38
517.54	470.45
517.72	461.09
517.89	360.44
518.06	475.13
518.24	397.89
518.41	416.62
518.58	381.51
518.75	397.89
518.93	400.23
519.10	461.09
519.27	433.00
519.45	428.32
519.62	393.21
519.79	465.77
519.96	496.19
520.14	507.90
520.31	409.59
520.48	395.55
520.65	395.55
520.83	491.51
521.00	379.17
521.17	447.04
521.34	315.97
521.52	442.36
521.69	482.15
521.86	458.74
522.03	407.25
522.20	451.72
522.38	418.96
522.55	428.32
522.72	306.61
522.89	463.43
523.07	533.64
523.24	386.19
523.41	433.00
523.58	365.12
523.75	414.27
523.92	486.83
524.10	404.91
524.27	362.78
524.44	383.85
524.61	486.83
524.78	449.38
524.96	423.64
525.13	388.53
525.30	400.23
525.47	521.94
525.64	451.72
525.81	402.57
525.98	428.32
526.16	435.34
526.33	381.51
526.50	425.98
526.67	395.55
526.84	407.25
527.01	362.78
527.18	411.93
527.36	395.55
527.53	425.98
527.70	472.79
527.87	421.30
528.04	461.09
528.21	397.89
528.38	437.68
528.55	414.27
528.72	433.00
528.89	411.93
529.07	395.55
529.24	465.77
529.41	519.60
529.58	435.34
529.75	458.74
529.92	435.34
530.09	402.57
530.26	425.98
530.43	421.30
530.60	402.57
530.77	395.55
530.94	414.27
531.11	442.36
531.28	383.85
531.46	348.74
531.63	346.40
531.80	388.53
531.97	414.27
532.14	498.53
532.31	390.87
532.48	402.57
532.65	423.64
532.82	430.66
532.99	433.00
533.16	425.98
533.33	393.21
533.50	414.27
533.67	383.85
533.84	477.47
534.01	489.17
534.18	400.23
534.35	444.70
534.52	369.80
534.69	519.60
534.86	397.89
535.03	409.59
535.20	381.51
535.37	390.87
535.54	449.38
535.71	358.10
535.88	461.09
536.05	365.12
536.22	423.64
536.38	393.21
536.55	491.51
536.72	463.43
536.89	449.38
537.06	465.77
537.23	496.19
537.40	388.53
537.57	402.57
537.74	348.74
537.91	418.96
538.08	500.87
538.25	503.22
538.42	444.70
538.59	447.04
538.75	444.70
538.92	376.83
539.09	433.00
539.26	386.19
539.43	444.70
539.60	341.72
539.77	451.72
539.94	507.90
540.11	404.91
540.28	425.98
540.44	489.17
540.61	397.89
540.78	407.25
540.95	395.55
541.12	449.38
541.29	383.85
541.46	514.92
541.62	465.77
541.79	407.25
541.96	344.06
542.13	477.47
542.30	402.57
542.47	418.96
542.63	430.66
542.80	414.27
542.97	386.19
543.14	461.09
543.31	437.68
543.48	409.59
543.64	442.36
543.81	374.49
543.98	433.00
544.15	374.49
544.32	365.12
544.48	479.81
544.65	365.12
544.82	369.80
544.99	414.27
545.16	386.19
545.32	346.40
545.49	395.55
545.66	454.06
545.83	437.68
546.00	388.53
546.16	367.46
546.33	468.11
546.50	400.23
546.67	404.91
546.83	454.06
547.00	404.91
547.17	444.70
547.34	383.85
547.50	411.93
547.67	330.02
547.84	482.15
548.00	482.15
548.17	395.55
548.34	402.57
548.51	383.85
548.67	365.12
548.84	383.85
549.01	442.36
549.18	369.80
549.34	386.19
549.51	418.96
549.68	376.83
549.84	479.81
550.01	402.57
550.18	528.96
550.34	440.02
550.51	435.34
550.68	465.77
550.84	383.85
551.01	463.43
551.18	458.74
551.34	447.04
551.51	425.98
551.68	442.36
551.84	421.30
552.01	454.06
552.18	397.89
552.34	475.13
552.51	510.24
552.68	402.57
552.84	418.96
553.01	400.23
553.18	407.25
553.34	381.51
553.51	367.46
553.67	442.36
553.84	461.09
554.01	372.15
554.17	390.87
554.34	409.59
554.51	383.85
554.67	435.34
554.84	461.09
555.00	433.00
555.17	451.72
555.33	360.44
555.50	482.15
555.67	435.34
555.83	414.27
556.00	458.74
556.16	521.94
556.33	418.96
556.50	442.36
556.66	421.30
556.83	372.15
556.99	500.87
557.16	355.76
557.32	444.70
557.49	447.04
557.65	458.74
557.82	414.27
557.98	395.55
558.15	414.27
558.32	390.87
558.48	372.15
558.65	379.17
558.81	451.72
558.98	402.57
559.14	444.70
559.31	425.98
559.47	400.23
559.64	383.85
559.80	437.68
559.97	353.42
560.13	430.66
560.30	362.78
560.46	416.62
560.63	447.04
560.79	444.70
560.96	414.27
561.12	465.77
561.29	393.21
561.45	383.85
561.61	461.09
561.78	477.47
561.94	472.79
562.11	393.21
562.27	425.98
562.44	325.33
562.60	435.34
562.77	458.74
562.93	444.70
563.10	472.79
563.26	409.59
563.42	451.72
563.59	491.51
563.75	435.34
563.92	489.17
564.08	395.55
564.24	376.83
564.41	447.04
564.57	299.59
564.74	404.91
564.90	435.34
565.07	428.32
565.23	430.66
565.39	344.06
565.56	393.21
565.72	414.27
565.88	411.93
566.05	447.04
566.21	418.96
566.38	482.15
566.54	456.40
566.70	386.19
566.87	423.64
567.03	395.55
567.19	437.68
567.36	451.72
567.52	414.27
567.68	461.09
567.85	479.81
568.01	425.98
568.17	409.59
568.34	414.27
568.50	447.04
568.66	393.21
568.83	500.87
568.99	449.38
569.15	425.98
569.32	407.25
569.48	404.91
569.64	376.83
569.81	390.87
569.97	383.85
570.13	470.45
570.30	376.83
570.46	360.44
570.62	442.36
570.78	395.55
570.95	318.31
571.11	447.04
571.27	447.04
571.43	418.96
571.60	449.38
571.76	355.76
571.92	458.74
572.09	477.47
572.25	440.02
572.41	437.68
572.57	372.15
572.74	416.62
572.90	468.11
573.06	407.25
573.22	411.93
573.38	402.57
573.55	440.02
573.71	444.70
573.87	435.34
574.03	425.98
574.20	379.17
574.36	381.51
574.52	475.13
574.68	402.57
574.84	433.00
575.01	470.45
575.17	428.32
575.33	458.74
575.49	414.27
575.65	458.74
575.82	437.68
575.98	386.19
576.14	475.13
576.30	428.32
576.46	400.23
576.62	435.34
576.79	404.91
576.95	390.87
577.11	423.64
577.27	372.15
577.43	463.43
577.59	381.51
577.75	404.91
577.92	428.32
578.08	414.27
578.24	402.57
578.40	404.91
578.56	381.51
578.72	395.55
578.88	496.19
579.04	444.70
579.21	444.70
579.37	430.66
579.53	358.10
579.69	376.83
579.85	388.53
580.01	442.36
580.17	423.64
580.33	435.34
580.49	470.45
580.65	416.62
580.82	433.00
580.98	407.25
581.14	447.04
581.30	414.27
581.46	440.02
581.62	430.66
581.78	423.64
581.94	400.23
582.10	369.80
582.26	484.49
582.42	362.78
582.58	397.89
582.74	491.51
582.90	372.15
583.06	395.55
583.22	327.68
583.38	470.45
583.54	379.17
583.70	421.30
583.86	421.30
584.02	458.74
584.18	435.34
584.34	458.74
584.50	440.02
584.66	451.72
584.82	477.47
584.98	379.17
585.14	414.27
585.30	390.87
585.46	313.63
585.62	402.57
585.78	386.19
585.94	411.93
586.10	425.98
586.26	437.68
586.42	477.47
586.58	470.45
586.74	367.46
586.90	407.25
587.06	465.77
587.22	423.64
587.38	393.21
587.54	472.79
587.70	421.30
587.86	461.09
588.02	372.15
588.18	423.64
588.34	461.09
588.49	404.91
588.65	430.66
588.81	393.21
588.97	400.23
589.13	395.55
589.29	404.91
589.45	423.64
589.61	416.62
589.77	498.53
589.93	397.89
590.08	402.57
590.24	402.57
590.40	402.57
590.56	365.12
590.72	400.23
590.88	416.62
591.04	461.09
591.20	388.53
591.35	444.70
591.51	411.93
591.67	322.99
591.83	404.91
591.99	421.30
592.15	454.06
592.31	397.89
592.46	407.25
592.62	456.40
592.78	447.04
592.94	451.72
593.10	430.66
593.26	500.87
593.41	393.21
593.57	388.53
593.73	379.17
593.89	425.98
594.05	409.59
594.20	444.70
594.36	472.79
594.52	486.83
594.68	337.04
594.84	435.34
594.99	461.09
595.15	409.59
595.31	386.19
595.47	414.27
595.62	440.02
595.78	411.93
595.94	386.19
596.10	458.74
596.25	461.09
596.41	414.27
596.57	369.80
596.73	369.80
596.88	442.36
597.04	451.72
597.20	444.70
597.36	454.06
597.51	369.80
597.67	486.83
597.83	449.38
597.99	449.38
598.14	367.46
598.30	475.13
598.46	496.19
598.61	416.62
598.77	456.40
598.93	372.15
599.09	423.64
599.24	379.17
599.40	425.98
599.56	435.34
599.71	435.34
599.87	461.09
600.03	433.00
600.18	514.92
600.34	421.30
600.50	367.46
600.65	395.55
600.81	369.80
600.97	409.59
601.12	425.98
601.28	428.32
601.44	360.44
601.59	400.23
601.75	465.77
601.91	407.25
602.06	437.68
602.22	477.47
602.37	365.12
602.53	416.62
602.69	395.55
602.84	416.62
603.00	409.59
603.16	430.66
603.31	327.68
603.47	360.44
603.62	372.15
603.78	383.85
603.94	327.68
604.09	397.89
604.25	444.70
604.40	437.68
604.56	367.46
604.71	442.36
604.87	454.06
605.03	472.79
605.18	404.91
605.34	468.11
605.49	390.87
605.65	411.93
605.80	437.68
605.96	458.74
606.12	351.08
606.27	362.78
606.43	433.00
606.58	444.70
606.74	390.87
606.89	451.72
607.05	397.89
607.20	458.74
607.36	362.78
607.51	388.53
607.67	386.19
607.82	327.68
607.98	454.06
608.13	463.43
608.29	407.25
608.44	411.93
608.60	372.15
608.75	444.70
608.91	454.06
609.06	388.53
609.22	440.02
609.37	447.04
609.53	397.89
609.68	367.46
609.84	397.89
609.99	376.83
610.15	440.02
