SpectraSuite Data File
++++++++++++++++++++++++++++++++++++
Date: Fri Oct 25 12:10:28 EDT 2013
User: price-jones
Dark Spectrum Present: No
Reference Spectrum Present: No
Number of Sampled Component Spectra: 1
Spectrometers: USB2+H05261
Integration Time (usec): 100000 (USB2+H05261)
Spectra Averaged: 1 (USB2+H05261)
Boxcar Smoothing: 0 (USB2+H05261)
Correct for Electrical Dark: No (USB2+H05261)
Strobe/Lamp Enabled: No (USB2+H05261)
Correct for Detector Non-linearity: No (USB2+H05261)
Correct for Stray Light: No (USB2+H05261)
Number of Pixels in Processed Spectrum: 2048
>>>>>Begin Processed Spectral Data<<<<<
365.73	322.99
365.92	322.99
366.12	322.99
366.32	269.16
366.52	264.48
366.72	248.10
366.91	224.69
367.11	212.99
367.31	320.65
367.51	278.52
367.70	266.82
367.90	252.78
368.10	280.86
368.30	325.33
368.49	311.29
368.69	283.20
368.89	322.99
369.09	315.97
369.28	220.01
369.48	278.52
369.68	327.68
369.87	297.25
370.07	318.31
370.27	428.32
370.47	351.08
370.66	304.27
370.86	313.63
371.06	414.27
371.25	393.21
371.45	353.42
371.65	404.91
371.84	393.21
372.04	388.53
372.24	372.15
372.44	322.99
372.63	362.78
372.83	411.93
373.03	407.25
373.22	381.51
373.42	388.53
373.62	447.04
373.81	407.25
374.01	444.70
374.21	435.34
374.40	414.27
374.60	388.53
374.79	423.64
374.99	407.25
375.19	472.79
375.38	447.04
375.58	411.93
375.78	428.32
375.97	393.21
376.17	433.00
376.37	423.64
376.56	435.34
376.76	447.04
376.95	388.53
377.15	447.04
377.35	355.76
377.54	437.68
377.74	353.42
377.93	383.85
378.13	397.89
378.33	444.70
378.52	381.51
378.72	425.98
378.91	397.89
379.11	411.93
379.31	393.21
379.50	433.00
379.70	437.68
379.89	447.04
380.09	407.25
380.28	393.21
380.48	433.00
380.68	337.04
380.87	337.04
381.07	402.57
381.26	449.38
381.46	383.85
381.65	421.30
381.85	379.17
382.04	390.87
382.24	327.68
382.43	369.80
382.63	407.25
382.83	423.64
383.02	393.21
383.22	435.34
383.41	425.98
383.61	404.91
383.80	484.49
384.00	397.89
384.19	416.62
384.39	425.98
384.58	430.66
384.78	383.85
384.97	425.98
385.17	388.53
385.36	414.27
385.56	465.77
385.75	454.06
385.95	393.21
386.14	395.55
386.34	425.98
386.53	491.51
386.72	440.02
386.92	463.43
387.11	409.59
387.31	416.62
387.50	397.89
387.70	358.10
387.89	360.44
388.09	341.72
388.28	421.30
388.48	414.27
388.67	447.04
388.86	369.80
389.06	306.61
389.25	416.62
389.45	400.23
389.64	402.57
389.84	416.62
390.03	435.34
390.22	381.51
390.42	365.12
390.61	409.59
390.81	360.44
391.00	463.43
391.19	358.10
391.39	379.17
391.58	414.27
391.78	362.78
391.97	514.92
392.16	404.91
392.36	437.68
392.55	393.21
392.75	393.21
392.94	454.06
393.13	437.68
393.33	388.53
393.52	381.51
393.71	379.17
393.91	395.55
394.10	418.96
394.29	379.17
394.49	430.66
394.68	409.59
394.88	418.96
395.07	386.19
395.26	440.02
395.46	463.43
395.65	507.90
395.84	449.38
396.04	456.40
396.23	430.66
396.42	440.02
396.62	461.09
396.81	409.59
397.00	470.45
397.19	482.15
397.39	311.29
397.58	491.51
397.77	454.06
397.97	390.87
398.16	348.74
398.35	416.62
398.55	351.08
398.74	411.93
398.93	386.19
399.12	388.53
399.32	433.00
399.51	397.89
399.70	379.17
399.90	430.66
400.09	330.02
400.28	447.04
400.47	440.02
400.67	397.89
400.86	433.00
401.05	409.59
401.24	428.32
401.44	430.66
401.63	442.36
401.82	435.34
402.01	440.02
402.21	397.89
402.40	456.40
402.59	435.34
402.78	369.80
402.97	425.98
403.17	447.04
403.36	404.91
403.55	390.87
403.74	428.32
403.93	386.19
404.13	383.85
404.32	372.15
404.51	376.83
404.70	411.93
404.89	393.21
405.09	496.19
405.28	421.30
405.47	376.83
405.66	390.87
405.85	411.93
406.05	428.32
406.24	463.43
406.43	376.83
406.62	475.13
406.81	440.02
407.00	465.77
407.20	379.17
407.39	449.38
407.58	369.80
407.77	397.89
407.96	440.02
408.15	421.30
408.34	472.79
408.54	301.93
408.73	395.55
408.92	393.21
409.11	463.43
409.30	407.25
409.49	416.62
409.68	454.06
409.87	374.49
410.07	372.15
410.26	381.51
410.45	348.74
410.64	383.85
410.83	383.85
411.02	393.21
411.21	409.59
411.40	468.11
411.59	344.06
411.78	383.85
411.98	332.36
412.17	379.17
412.36	351.08
412.55	372.15
412.74	470.45
412.93	444.70
413.12	402.57
413.31	416.62
413.50	465.77
413.69	411.93
413.88	461.09
414.07	376.83
414.26	414.27
414.45	458.74
414.64	355.76
414.83	402.57
415.02	517.26
415.22	374.49
415.41	402.57
415.60	437.68
415.79	369.80
415.98	425.98
416.17	409.59
416.36	430.66
416.55	386.19
416.74	414.27
416.93	397.89
417.12	395.55
417.31	418.96
417.50	407.25
417.69	477.47
417.88	395.55
418.07	388.53
418.26	407.25
418.45	435.34
418.64	449.38
418.83	407.25
419.02	414.27
419.21	379.17
419.39	386.19
419.58	397.89
419.77	404.91
419.96	437.68
420.15	472.79
420.34	365.12
420.53	468.11
420.72	430.66
420.91	416.62
421.10	372.15
421.29	411.93
421.48	442.36
421.67	407.25
421.86	315.97
422.05	414.27
422.24	465.77
422.43	425.98
422.61	421.30
422.80	440.02
422.99	395.55
423.18	381.51
423.37	390.87
423.56	388.53
423.75	411.93
423.94	444.70
424.13	440.02
424.32	367.46
424.50	400.23
424.69	407.25
424.88	447.04
425.07	470.45
425.26	379.17
425.45	395.55
425.64	440.02
425.83	367.46
426.01	395.55
426.20	409.59
426.39	454.06
426.58	390.87
426.77	449.38
426.96	388.53
427.15	383.85
427.33	440.02
427.52	442.36
427.71	402.57
427.90	428.32
428.09	451.72
428.28	358.10
428.46	332.36
428.65	372.15
428.84	402.57
429.03	409.59
429.22	376.83
429.40	327.68
429.59	430.66
429.78	444.70
429.97	416.62
430.16	388.53
430.34	430.66
430.53	421.30
430.72	376.83
430.91	437.68
431.10	383.85
431.28	433.00
431.47	393.21
431.66	472.79
431.85	397.89
432.03	376.83
432.22	447.04
432.41	386.19
432.60	437.68
432.79	388.53
432.97	376.83
433.16	421.30
433.35	383.85
433.54	367.46
433.72	442.36
433.91	451.72
434.10	425.98
434.28	451.72
434.47	449.38
434.66	442.36
434.85	393.21
435.03	425.98
435.22	435.34
435.41	435.34
435.59	454.06
435.78	390.87
435.97	397.89
436.16	486.83
436.34	372.15
436.53	397.89
436.72	461.09
436.90	404.91
437.09	519.60
437.28	379.17
437.46	423.64
437.65	461.09
437.84	388.53
438.02	437.68
438.21	390.87
438.40	407.25
438.58	376.83
438.77	411.93
438.96	367.46
439.14	458.74
439.33	437.68
439.52	435.34
439.70	433.00
439.89	414.27
440.08	416.62
440.26	393.21
440.45	486.83
440.63	423.64
440.82	411.93
441.01	395.55
441.19	379.17
441.38	451.72
441.57	418.96
441.75	454.06
441.94	475.13
442.12	454.06
442.31	376.83
442.50	369.80
442.68	362.78
442.87	416.62
443.05	409.59
443.24	365.12
443.43	442.36
443.61	447.04
443.80	404.91
443.98	402.57
444.17	440.02
444.35	416.62
444.54	362.78
444.73	409.59
444.91	428.32
445.10	374.49
445.28	358.10
445.47	407.25
445.65	383.85
445.84	362.78
446.02	418.96
446.21	472.79
446.39	395.55
446.58	393.21
446.77	416.62
446.95	440.02
447.14	479.81
447.32	442.36
447.51	414.27
447.69	421.30
447.88	376.83
448.06	489.17
448.25	395.55
448.43	418.96
448.62	381.51
448.80	395.55
448.99	423.64
449.17	411.93
449.36	444.70
449.54	388.53
449.73	374.49
449.91	407.25
450.10	437.68
450.28	479.81
450.46	451.72
450.65	456.40
450.83	444.70
451.02	341.72
451.20	294.91
451.39	421.30
451.57	386.19
451.76	416.62
451.94	369.80
452.13	435.34
452.31	454.06
452.49	440.02
452.68	383.85
452.86	444.70
453.05	526.62
453.23	428.32
453.42	404.91
453.60	423.64
453.78	458.74
453.97	337.04
454.15	442.36
454.34	414.27
454.52	358.10
454.70	447.04
454.89	367.46
455.07	386.19
455.26	393.21
455.44	407.25
455.62	435.34
455.81	402.57
455.99	461.09
456.17	465.77
456.36	418.96
456.54	451.72
456.73	390.87
456.91	468.11
457.09	451.72
457.28	461.09
457.46	407.25
457.64	468.11
457.83	444.70
458.01	397.89
458.19	344.06
458.38	416.62
458.56	404.91
458.74	472.79
458.93	421.30
459.11	433.00
459.29	407.25
459.48	362.78
459.66	442.36
459.84	414.27
460.03	470.45
460.21	402.57
460.39	463.43
460.57	442.36
460.76	346.40
460.94	437.68
461.12	379.17
461.31	433.00
461.49	414.27
461.67	463.43
461.85	395.55
462.04	379.17
462.22	734.93
462.40	479.81
462.59	442.36
462.77	374.49
462.95	421.30
463.13	416.62
463.32	503.22
463.50	379.17
463.68	411.93
463.86	437.68
464.05	358.10
464.23	430.66
464.41	369.80
464.59	416.62
464.78	390.87
464.96	449.38
465.14	402.57
465.32	407.25
465.50	416.62
465.69	418.96
465.87	346.40
466.05	437.68
466.23	430.66
466.41	440.02
466.60	376.83
466.78	442.36
466.96	407.25
467.14	411.93
467.32	442.36
467.51	411.93
467.69	372.15
467.87	395.55
468.05	425.98
468.23	430.66
468.41	393.21
468.60	404.91
468.78	404.91
468.96	409.59
469.14	400.23
469.32	369.80
469.50	437.68
469.69	374.49
469.87	411.93
470.05	393.21
470.23	447.04
470.41	423.64
470.59	465.77
470.77	484.49
470.95	421.30
471.14	477.47
471.32	372.15
471.50	397.89
471.68	379.17
471.86	322.99
472.04	479.81
472.22	365.12
472.40	451.72
472.58	353.42
472.77	351.08
472.95	397.89
473.13	507.90
473.31	449.38
473.49	407.25
473.67	416.62
473.85	423.64
474.03	461.09
474.21	365.12
474.39	374.49
474.57	456.40
474.75	365.12
474.93	428.32
475.12	355.76
475.30	383.85
475.48	477.47
475.66	414.27
475.84	498.53
476.02	442.36
476.20	397.89
476.38	498.53
476.56	465.77
476.74	376.83
476.92	421.30
477.10	386.19
477.28	444.70
477.46	386.19
477.64	447.04
477.82	440.02
478.00	395.55
478.18	463.43
478.36	416.62
478.54	435.34
478.72	430.66
478.90	458.74
479.08	409.59
479.26	512.58
479.44	390.87
479.62	358.10
479.80	383.85
479.98	376.83
480.16	411.93
480.34	416.62
480.52	421.30
480.70	402.57
480.88	369.80
481.06	353.42
481.24	463.43
481.41	416.62
481.59	395.55
481.77	409.59
481.95	395.55
482.13	411.93
482.31	407.25
482.49	409.59
482.67	360.44
482.85	454.06
483.03	400.23
483.21	447.04
483.39	414.27
483.57	414.27
483.74	454.06
483.92	493.85
484.10	374.49
484.28	421.30
484.46	456.40
484.64	376.83
484.82	374.49
485.00	421.30
485.18	416.62
485.35	381.51
485.53	454.06
485.71	379.17
485.89	395.55
486.07	400.23
486.25	468.11
486.43	444.70
486.61	465.77
486.78	351.08
486.96	461.09
487.14	442.36
487.32	383.85
487.50	341.72
487.68	418.96
487.85	395.55
488.03	411.93
488.21	472.79
488.39	440.02
488.57	409.59
488.75	468.11
488.92	468.11
489.10	425.98
489.28	449.38
489.46	390.87
489.64	423.64
489.81	390.87
489.99	440.02
490.17	400.23
490.35	425.98
490.53	503.22
490.70	430.66
490.88	442.36
491.06	468.11
491.24	454.06
491.41	468.11
491.59	411.93
491.77	428.32
491.95	411.93
492.13	411.93
492.30	369.80
492.48	402.57
492.66	358.10
492.84	423.64
493.01	400.23
493.19	360.44
493.37	458.74
493.54	482.15
493.72	369.80
493.90	381.51
494.08	414.27
494.25	442.36
494.43	421.30
494.61	428.32
494.79	468.11
494.96	430.66
495.14	400.23
495.32	447.04
495.49	447.04
495.67	395.55
495.85	390.87
496.02	449.38
496.20	444.70
496.38	468.11
496.55	428.32
496.73	409.59
496.91	414.27
497.09	433.00
497.26	430.66
497.44	430.66
497.62	372.15
497.79	449.38
497.97	465.77
498.14	416.62
498.32	376.83
498.50	447.04
498.67	411.93
498.85	351.08
499.03	428.32
499.20	458.74
499.38	470.45
499.56	367.46
499.73	430.66
499.91	372.15
500.08	465.77
500.26	402.57
500.44	383.85
500.61	372.15
500.79	397.89
500.97	416.62
501.14	484.49
501.32	423.64
501.49	491.51
501.67	442.36
501.84	458.74
502.02	433.00
502.20	397.89
502.37	297.25
502.55	454.06
502.72	430.66
502.90	463.43
503.07	500.87
503.25	468.11
503.43	430.66
503.60	381.51
503.78	463.43
503.95	376.83
504.13	451.72
504.30	395.55
504.48	461.09
504.65	468.11
504.83	369.80
505.01	437.68
505.18	425.98
505.36	362.78
505.53	404.91
505.71	414.27
505.88	477.47
506.06	421.30
506.23	425.98
506.41	381.51
506.58	330.02
506.76	458.74
506.93	376.83
507.11	409.59
507.28	386.19
507.46	397.89
507.63	411.93
507.81	423.64
507.98	456.40
508.16	388.53
508.33	418.96
508.50	449.38
508.68	421.30
508.85	423.64
509.03	397.89
509.20	402.57
509.38	411.93
509.55	407.25
509.73	400.23
509.90	404.91
510.08	388.53
510.25	496.19
510.42	404.91
510.60	411.93
510.77	390.87
510.95	407.25
511.12	447.04
511.30	498.53
511.47	388.53
511.64	451.72
511.82	423.64
511.99	461.09
512.17	402.57
512.34	486.83
512.51	397.89
512.69	381.51
512.86	374.49
513.04	376.83
513.21	430.66
513.38	383.85
513.56	393.21
513.73	430.66
513.90	360.44
514.08	414.27
514.25	491.51
514.43	348.74
514.60	444.70
514.77	409.59
514.95	440.02
515.12	451.72
515.29	479.81
515.47	461.09
515.64	383.85
515.81	372.15
515.99	397.89
516.16	454.06
516.33	493.85
516.51	444.70
516.68	472.79
516.85	397.89
517.03	365.12
517.20	444.70
517.37	458.74
517.54	430.66
517.72	390.87
517.89	461.09
518.06	425.98
518.24	437.68
518.41	444.70
518.58	442.36
518.75	400.23
518.93	442.36
519.10	421.30
519.27	496.19
519.45	472.79
519.62	423.64
519.79	414.27
519.96	404.91
520.14	430.66
520.31	358.10
520.48	367.46
520.65	411.93
520.83	479.81
521.00	465.77
521.17	482.15
521.34	376.83
521.52	470.45
521.69	493.85
521.86	444.70
522.03	433.00
522.20	409.59
522.38	379.17
522.55	407.25
522.72	393.21
522.89	437.68
523.07	390.87
523.24	402.57
523.41	393.21
523.58	416.62
523.75	421.30
523.92	435.34
524.10	442.36
524.27	437.68
524.44	360.44
524.61	442.36
524.78	400.23
524.96	411.93
525.13	379.17
525.30	376.83
525.47	409.59
525.64	407.25
525.81	330.02
525.98	425.98
526.16	414.27
526.33	407.25
526.50	404.91
526.67	428.32
526.84	440.02
527.01	414.27
527.18	468.11
527.36	468.11
527.53	397.89
527.70	367.46
527.87	383.85
528.04	449.38
528.21	437.68
528.38	414.27
528.55	404.91
528.72	447.04
528.89	395.55
529.07	404.91
529.24	465.77
529.41	498.53
529.58	428.32
529.75	458.74
529.92	421.30
530.09	428.32
530.26	393.21
530.43	470.45
530.60	430.66
530.77	376.83
530.94	374.49
531.11	449.38
531.28	482.15
531.46	395.55
531.63	451.72
531.80	451.72
531.97	400.23
532.14	458.74
532.31	411.93
532.48	416.62
532.65	472.79
532.82	397.89
532.99	425.98
533.16	400.23
533.33	428.32
533.50	393.21
533.67	344.06
533.84	341.72
534.01	411.93
534.18	369.80
534.35	447.04
534.52	381.51
534.69	397.89
534.86	465.77
535.03	437.68
535.20	397.89
535.37	404.91
535.54	411.93
535.71	442.36
535.88	489.17
536.05	421.30
536.22	367.46
536.38	414.27
536.55	437.68
536.72	451.72
536.89	390.87
537.06	402.57
537.23	369.80
537.40	416.62
537.57	402.57
537.74	400.23
537.91	407.25
538.08	402.57
538.25	409.59
538.42	444.70
538.59	383.85
538.75	449.38
538.92	444.70
539.09	468.11
539.26	465.77
539.43	437.68
539.60	372.15
539.77	444.70
539.94	479.81
540.11	479.81
540.28	372.15
540.44	449.38
540.61	505.56
540.78	379.17
540.95	362.78
541.12	447.04
541.29	430.66
541.46	428.32
541.62	425.98
541.79	496.19
541.96	421.30
542.13	423.64
542.30	365.12
542.47	449.38
542.63	435.34
542.80	393.21
542.97	435.34
543.14	414.27
543.31	449.38
543.48	414.27
543.64	435.34
543.81	470.45
543.98	376.83
544.15	374.49
544.32	407.25
544.48	390.87
544.65	416.62
544.82	330.02
544.99	379.17
545.16	444.70
545.32	437.68
545.49	479.81
545.66	437.68
545.83	409.59
546.00	372.15
546.16	409.59
546.33	463.43
546.50	372.15
546.67	416.62
546.83	517.26
547.00	414.27
547.17	407.25
547.34	444.70
547.50	477.47
547.67	449.38
547.84	437.68
548.00	418.96
548.17	418.96
548.34	437.68
548.51	482.15
548.67	409.59
548.84	400.23
549.01	379.17
549.18	414.27
549.34	327.68
549.51	386.19
549.68	407.25
549.84	440.02
550.01	395.55
550.18	482.15
550.34	463.43
550.51	477.47
550.68	484.49
550.84	404.91
551.01	440.02
551.18	442.36
551.34	491.51
551.51	386.19
551.68	437.68
551.84	463.43
552.01	407.25
552.18	397.89
552.34	433.00
552.51	435.34
552.68	381.51
552.84	423.64
553.01	402.57
553.18	423.64
553.34	395.55
553.51	428.32
553.67	451.72
553.84	402.57
554.01	374.49
554.17	411.93
554.34	351.08
554.51	423.64
554.67	454.06
554.84	355.76
555.00	362.78
555.17	400.23
555.33	454.06
555.50	360.44
555.67	437.68
555.83	348.74
556.00	362.78
556.16	571.09
556.33	388.53
556.50	390.87
556.66	463.43
556.83	440.02
556.99	425.98
557.16	397.89
557.32	423.64
557.49	386.19
557.65	442.36
557.82	372.15
557.98	362.78
558.15	456.40
558.32	428.32
558.48	428.32
558.65	374.49
558.81	472.79
558.98	393.21
559.14	386.19
559.31	440.02
559.47	425.98
559.64	524.28
559.80	435.34
559.97	442.36
560.13	428.32
560.30	381.51
560.46	486.83
560.63	393.21
560.79	449.38
560.96	376.83
561.12	339.38
561.29	428.32
561.45	454.06
561.61	507.90
561.78	404.91
561.94	423.64
562.11	388.53
562.27	475.13
562.44	416.62
562.60	409.59
562.77	369.80
562.93	550.03
563.10	449.38
563.26	463.43
563.42	449.38
563.59	421.30
563.75	421.30
563.92	465.77
564.08	470.45
564.24	442.36
564.41	470.45
564.57	421.30
564.74	416.62
564.90	402.57
565.07	428.32
565.23	442.36
565.39	491.51
565.56	346.40
565.72	386.19
565.88	444.70
566.05	407.25
566.21	447.04
566.38	400.23
566.54	456.40
566.70	444.70
566.87	454.06
567.03	374.49
567.19	433.00
567.36	456.40
567.52	418.96
567.68	390.87
567.85	397.89
568.01	386.19
568.17	447.04
568.34	477.47
568.50	358.10
568.66	425.98
568.83	425.98
568.99	425.98
569.15	428.32
569.32	423.64
569.48	440.02
569.64	353.42
569.81	397.89
569.97	418.96
570.13	421.30
570.30	456.40
570.46	451.72
570.62	369.80
570.78	362.78
570.95	369.80
571.11	514.92
571.27	472.79
571.43	393.21
571.60	395.55
571.76	372.15
571.92	437.68
572.09	390.87
572.25	468.11
572.41	414.27
572.57	475.13
572.74	411.93
572.90	421.30
573.06	388.53
573.22	390.87
573.38	367.46
573.55	421.30
573.71	423.64
573.87	407.25
574.03	407.25
574.20	393.21
574.36	449.38
574.52	404.91
574.68	400.23
574.84	409.59
575.01	407.25
575.17	374.49
575.33	451.72
575.49	437.68
575.65	451.72
575.82	444.70
575.98	430.66
576.14	367.46
576.30	369.80
576.46	334.70
576.62	479.81
576.79	449.38
576.95	444.70
577.11	423.64
577.27	414.27
577.43	550.03
577.59	397.89
577.75	411.93
577.92	433.00
578.08	440.02
578.24	348.74
578.40	421.30
578.56	510.24
578.72	440.02
578.88	402.57
579.04	369.80
579.21	379.17
579.37	449.38
579.53	397.89
579.69	435.34
579.85	444.70
580.01	465.77
580.17	388.53
580.33	339.38
580.49	430.66
580.65	409.59
580.82	437.68
580.98	374.49
581.14	468.11
581.30	418.96
581.46	430.66
581.62	374.49
581.78	367.46
581.94	411.93
582.10	390.87
582.26	425.98
582.42	381.51
582.58	425.98
582.74	360.44
582.90	423.64
583.06	484.49
583.22	369.80
583.38	418.96
583.54	379.17
583.70	512.58
583.86	414.27
584.02	369.80
584.18	430.66
584.34	430.66
584.50	430.66
584.66	437.68
584.82	472.79
584.98	421.30
585.14	451.72
585.30	390.87
585.46	360.44
585.62	423.64
585.78	418.96
585.94	454.06
586.10	386.19
586.26	395.55
586.42	414.27
586.58	458.74
586.74	346.40
586.90	449.38
587.06	409.59
587.22	468.11
587.38	390.87
587.54	430.66
587.70	409.59
587.86	475.13
588.02	423.64
588.18	428.32
588.34	440.02
588.49	416.62
588.65	402.57
588.81	341.72
588.97	381.51
589.13	425.98
589.29	437.68
589.45	470.45
589.61	386.19
589.77	444.70
589.93	433.00
590.08	479.81
590.24	414.27
590.40	440.02
590.56	451.72
590.72	458.74
590.88	477.47
591.04	465.77
591.20	440.02
591.35	461.09
591.51	423.64
591.67	442.36
591.83	486.83
591.99	468.11
592.15	491.51
592.31	433.00
592.46	362.78
592.62	423.64
592.78	433.00
592.94	437.68
593.10	400.23
593.26	444.70
593.41	425.98
593.57	409.59
593.73	383.85
593.89	458.74
594.05	437.68
594.20	465.77
594.36	451.72
594.52	386.19
594.68	444.70
594.84	458.74
594.99	369.80
595.15	425.98
595.31	486.83
595.47	437.68
595.62	414.27
595.78	433.00
595.94	388.53
596.10	400.23
596.25	421.30
596.41	425.98
596.57	437.68
596.73	386.19
596.88	442.36
597.04	393.21
597.20	379.17
597.36	421.30
597.51	423.64
597.67	390.87
597.83	416.62
597.99	404.91
598.14	423.64
598.30	514.92
598.46	447.04
598.61	435.34
598.77	372.15
598.93	372.15
599.09	369.80
599.24	402.57
599.40	416.62
599.56	379.17
599.71	362.78
599.87	400.23
600.03	416.62
600.18	388.53
600.34	423.64
600.50	414.27
600.65	367.46
600.81	421.30
600.97	435.34
601.12	379.17
601.28	393.21
601.44	447.04
601.59	435.34
601.75	411.93
601.91	381.51
602.06	454.06
602.22	505.56
602.37	442.36
602.53	383.85
602.69	400.23
602.84	468.11
603.00	465.77
603.16	454.06
603.31	463.43
603.47	468.11
603.62	414.27
603.78	402.57
603.94	421.30
604.09	407.25
604.25	383.85
604.40	428.32
604.56	461.09
604.71	414.27
604.87	486.83
605.03	402.57
605.18	435.34
605.34	447.04
605.49	428.32
605.65	416.62
605.80	421.30
605.96	454.06
606.12	411.93
606.27	414.27
606.43	416.62
606.58	414.27
606.74	388.53
606.89	395.55
607.05	400.23
607.20	447.04
607.36	400.23
607.51	400.23
607.67	376.83
607.82	421.30
607.98	491.51
608.13	390.87
608.29	440.02
608.44	468.11
608.60	379.17
608.75	425.98
608.91	411.93
609.06	418.96
609.22	411.93
609.37	402.57
609.53	365.12
609.68	456.40
609.84	344.06
609.99	414.27
610.15	517.26
