SpectraSuite Data File
++++++++++++++++++++++++++++++++++++
Date: Fri Oct 25 12:11:06 EDT 2013
User: price-jones
Dark Spectrum Present: No
Reference Spectrum Present: No
Number of Sampled Component Spectra: 1
Spectrometers: USB2+H05261
Integration Time (usec): 100000 (USB2+H05261)
Spectra Averaged: 1 (USB2+H05261)
Boxcar Smoothing: 0 (USB2+H05261)
Correct for Electrical Dark: No (USB2+H05261)
Strobe/Lamp Enabled: No (USB2+H05261)
Correct for Detector Non-linearity: No (USB2+H05261)
Correct for Stray Light: No (USB2+H05261)
Number of Pixels in Processed Spectrum: 2048
>>>>>Begin Processed Spectral Data<<<<<
365.73	325.33
365.92	325.33
366.12	325.33
366.32	271.50
366.52	278.52
366.72	341.72
366.91	145.11
367.11	217.67
367.31	269.16
367.51	299.59
367.70	177.88
367.90	234.05
368.10	276.18
368.30	229.37
368.49	262.14
368.69	264.48
368.89	248.10
369.09	252.78
369.28	330.02
369.48	287.89
369.68	250.44
369.87	280.86
370.07	243.42
370.27	273.84
370.47	339.38
370.66	283.20
370.86	332.36
371.06	400.23
371.25	346.40
371.45	358.10
371.65	348.74
371.84	339.38
372.04	339.38
372.24	451.72
372.44	407.25
372.63	346.40
372.83	454.06
373.03	414.27
373.22	360.44
373.42	381.51
373.62	395.55
373.81	442.36
374.01	348.74
374.21	479.81
374.40	379.17
374.60	374.49
374.79	358.10
374.99	388.53
375.19	430.66
375.38	421.30
375.58	390.87
375.78	341.72
375.97	493.85
376.17	477.47
376.37	372.15
376.56	376.83
376.76	407.25
376.95	388.53
377.15	482.15
377.35	411.93
377.54	411.93
377.74	369.80
377.93	430.66
378.13	386.19
378.33	451.72
378.52	418.96
378.72	409.59
378.91	409.59
379.11	355.76
379.31	470.45
379.50	330.02
379.70	393.21
379.89	411.93
380.09	388.53
380.28	402.57
380.48	372.15
380.68	381.51
380.87	409.59
381.07	379.17
381.26	475.13
381.46	430.66
381.65	379.17
381.85	451.72
382.04	397.89
382.24	430.66
382.43	435.34
382.63	381.51
382.83	435.34
383.02	414.27
383.22	411.93
383.41	358.10
383.61	421.30
383.80	484.49
384.00	360.44
384.19	402.57
384.39	374.49
384.58	376.83
384.78	468.11
384.97	423.64
385.17	458.74
385.36	437.68
385.56	411.93
385.75	386.19
385.95	395.55
386.14	425.98
386.34	409.59
386.53	416.62
386.72	411.93
386.92	409.59
387.11	442.36
387.31	423.64
387.50	400.23
387.70	344.06
387.89	404.91
388.09	348.74
388.28	397.89
388.48	395.55
388.67	400.23
388.86	393.21
389.06	351.08
389.25	362.78
389.45	423.64
389.64	397.89
389.84	365.12
390.03	454.06
390.22	360.44
390.42	463.43
390.61	351.08
390.81	409.59
391.00	554.71
391.19	400.23
391.39	341.72
391.58	414.27
391.78	386.19
391.97	425.98
392.16	411.93
392.36	458.74
392.55	425.98
392.75	416.62
392.94	397.89
393.13	358.10
393.33	346.40
393.52	393.21
393.71	468.11
393.91	444.70
394.10	409.59
394.29	367.46
394.49	337.04
394.68	381.51
394.88	404.91
395.07	442.36
395.26	416.62
395.46	428.32
395.65	411.93
395.84	393.21
396.04	479.81
396.23	393.21
396.42	381.51
396.62	456.40
396.81	425.98
397.00	402.57
397.19	409.59
397.39	465.77
397.58	433.00
397.77	386.19
397.97	414.27
398.16	442.36
398.35	395.55
398.55	397.89
398.74	381.51
398.93	428.32
399.12	451.72
399.32	402.57
399.51	407.25
399.70	409.59
399.90	425.98
400.09	482.15
400.28	407.25
400.47	416.62
400.67	435.34
400.86	430.66
401.05	411.93
401.24	395.55
401.44	383.85
401.63	358.10
401.82	416.62
402.01	390.87
402.21	362.78
402.40	447.04
402.59	404.91
402.78	407.25
402.97	365.12
403.17	407.25
403.36	397.89
403.55	479.81
403.74	376.83
403.93	444.70
404.13	428.32
404.32	416.62
404.51	428.32
404.70	400.23
404.89	411.93
405.09	456.40
405.28	346.40
405.47	365.12
405.66	353.42
405.85	388.53
406.05	388.53
406.24	428.32
406.43	430.66
406.62	421.30
406.81	407.25
407.00	430.66
407.20	404.91
407.39	407.25
407.58	369.80
407.77	369.80
407.96	397.89
408.15	454.06
408.34	449.38
408.54	388.53
408.73	369.80
408.92	374.49
409.11	404.91
409.30	409.59
409.49	458.74
409.68	423.64
409.87	351.08
410.07	465.77
410.26	383.85
410.45	433.00
410.64	369.80
410.83	479.81
411.02	411.93
411.21	395.55
411.40	491.51
411.59	414.27
411.78	337.04
411.98	400.23
412.17	358.10
412.36	393.21
412.55	421.30
412.74	381.51
412.93	486.83
413.12	358.10
413.31	421.30
413.50	372.15
413.69	339.38
413.88	388.53
414.07	402.57
414.26	430.66
414.45	334.70
414.64	423.64
414.83	388.53
415.02	367.46
415.22	463.43
415.41	498.53
415.60	362.78
415.79	433.00
415.98	449.38
416.17	444.70
416.36	411.93
416.55	404.91
416.74	407.25
416.93	451.72
417.12	423.64
417.31	414.27
417.50	369.80
417.69	400.23
417.88	294.91
418.07	414.27
418.26	381.51
418.45	407.25
418.64	355.76
418.83	416.62
419.02	428.32
419.21	437.68
419.39	430.66
419.58	390.87
419.77	388.53
419.96	477.47
420.15	386.19
420.34	463.43
420.53	423.64
420.72	447.04
420.91	402.57
421.10	440.02
421.29	362.78
421.48	397.89
421.67	404.91
421.86	353.42
422.05	428.32
422.24	407.25
422.43	428.32
422.61	411.93
422.80	416.62
422.99	404.91
423.18	418.96
423.37	456.40
423.56	393.21
423.75	400.23
423.94	418.96
424.13	470.45
424.32	386.19
424.50	367.46
424.69	447.04
424.88	430.66
425.07	388.53
425.26	416.62
425.45	400.23
425.64	367.46
425.83	421.30
426.01	418.96
426.20	369.80
426.39	325.33
426.58	400.23
426.77	404.91
426.96	437.68
427.15	442.36
427.33	379.17
427.52	404.91
427.71	428.32
427.90	402.57
428.09	351.08
428.28	416.62
428.46	435.34
428.65	444.70
428.84	337.04
429.03	421.30
429.22	379.17
429.40	470.45
429.59	402.57
429.78	404.91
429.97	458.74
430.16	433.00
430.34	400.23
430.53	397.89
430.72	414.27
430.91	433.00
431.10	402.57
431.28	346.40
431.47	447.04
431.66	421.30
431.85	400.23
432.03	325.33
432.22	458.74
432.41	437.68
432.60	409.59
432.79	442.36
432.97	416.62
433.16	442.36
433.35	421.30
433.54	360.44
433.72	428.32
433.91	463.43
434.10	458.74
434.28	308.95
434.47	414.27
434.66	433.00
434.85	430.66
435.03	461.09
435.22	423.64
435.41	461.09
435.59	423.64
435.78	444.70
435.97	400.23
436.16	407.25
436.34	416.62
436.53	421.30
436.72	351.08
436.90	365.12
437.09	397.89
437.28	404.91
437.46	388.53
437.65	358.10
437.84	365.12
438.02	416.62
438.21	418.96
438.40	444.70
438.58	442.36
438.77	458.74
438.96	468.11
439.14	383.85
439.33	388.53
439.52	395.55
439.70	358.10
439.89	414.27
440.08	416.62
440.26	397.89
440.45	458.74
440.63	514.92
440.82	393.21
441.01	463.43
441.19	395.55
441.38	414.27
441.57	507.90
441.75	411.93
441.94	386.19
442.12	360.44
442.31	414.27
442.50	451.72
442.68	376.83
442.87	454.06
443.05	386.19
443.24	423.64
443.43	411.93
443.61	447.04
443.80	397.89
443.98	437.68
444.17	463.43
444.35	404.91
444.54	358.10
444.73	461.09
444.91	423.64
445.10	435.34
445.28	440.02
445.47	383.85
445.65	411.93
445.84	416.62
446.02	404.91
446.21	435.34
446.39	411.93
446.58	411.93
446.77	402.57
446.95	440.02
447.14	386.19
447.32	425.98
447.51	484.49
447.69	381.51
447.88	423.64
448.06	418.96
448.25	437.68
448.43	421.30
448.62	332.36
448.80	475.13
448.99	423.64
449.17	449.38
449.36	409.59
449.54	386.19
449.73	437.68
449.91	491.51
450.10	306.61
450.28	472.79
450.46	428.32
450.65	393.21
450.83	484.49
451.02	421.30
451.20	351.08
451.39	482.15
451.57	372.15
451.76	339.38
451.94	440.02
452.13	404.91
452.31	451.72
452.49	386.19
452.68	425.98
452.86	437.68
453.05	430.66
453.23	451.72
453.42	400.23
453.60	463.43
453.78	484.49
453.97	430.66
454.15	383.85
454.34	524.28
454.52	381.51
454.70	440.02
454.89	435.34
455.07	423.64
455.26	397.89
455.44	372.15
455.62	435.34
455.81	451.72
455.99	463.43
456.17	416.62
456.36	421.30
456.54	430.66
456.73	397.89
456.91	353.42
457.09	407.25
457.28	461.09
457.46	498.53
457.64	365.12
457.83	465.77
458.01	458.74
458.19	425.98
458.38	390.87
458.56	451.72
458.74	447.04
458.93	367.46
459.11	369.80
459.29	372.15
459.48	416.62
459.66	411.93
459.84	407.25
460.03	451.72
460.21	456.40
460.39	388.53
460.57	498.53
460.76	409.59
460.94	425.98
461.12	461.09
461.31	456.40
461.49	390.87
461.67	332.36
461.85	407.25
462.04	332.36
462.22	753.65
462.40	360.44
462.59	465.77
462.77	390.87
462.95	449.38
463.13	444.70
463.32	418.96
463.50	411.93
463.68	449.38
463.86	454.06
464.05	435.34
464.23	351.08
464.41	421.30
464.59	414.27
464.78	411.93
464.96	451.72
465.14	456.40
465.32	390.87
465.50	423.64
465.69	409.59
465.87	362.78
466.05	367.46
466.23	376.83
466.41	409.59
466.60	428.32
466.78	454.06
466.96	425.98
467.14	360.44
467.32	461.09
467.51	468.11
467.69	425.98
467.87	409.59
468.05	421.30
468.23	407.25
468.41	449.38
468.60	388.53
468.78	341.72
468.96	451.72
469.14	472.79
469.32	397.89
469.50	458.74
469.69	463.43
469.87	421.30
470.05	416.62
470.23	390.87
470.41	393.21
470.59	425.98
470.77	454.06
470.95	477.47
471.14	437.68
471.32	358.10
471.50	444.70
471.68	386.19
471.86	344.06
472.04	330.02
472.22	425.98
472.40	358.10
472.58	332.36
472.77	437.68
472.95	376.83
473.13	407.25
473.31	449.38
473.49	407.25
473.67	407.25
473.85	414.27
474.03	402.57
474.21	416.62
474.39	475.13
474.57	444.70
474.75	388.53
474.93	367.46
475.12	395.55
475.30	442.36
475.48	407.25
475.66	414.27
475.84	332.36
476.02	451.72
476.20	425.98
476.38	383.85
476.56	472.79
476.74	423.64
476.92	425.98
477.10	449.38
477.28	425.98
477.46	423.64
477.64	482.15
477.82	463.43
478.00	423.64
478.18	437.68
478.36	411.93
478.54	416.62
478.72	407.25
478.90	390.87
479.08	369.80
479.26	411.93
479.44	428.32
479.62	414.27
479.80	400.23
479.98	423.64
480.16	456.40
480.34	425.98
480.52	402.57
480.70	374.49
480.88	379.17
481.06	444.70
481.24	379.17
481.41	411.93
481.59	458.74
481.77	440.02
481.95	444.70
482.13	456.40
482.31	414.27
482.49	360.44
482.67	461.09
482.85	411.93
483.03	409.59
483.21	491.51
483.39	496.19
483.57	365.12
483.74	383.85
483.92	411.93
484.10	365.12
484.28	416.62
484.46	444.70
484.64	388.53
484.82	444.70
485.00	447.04
485.18	395.55
485.35	423.64
485.53	411.93
485.71	465.77
485.89	407.25
486.07	379.17
486.25	470.45
486.43	383.85
486.61	463.43
486.78	416.62
486.96	402.57
487.14	369.80
487.32	351.08
487.50	444.70
487.68	524.28
487.85	486.83
488.03	400.23
488.21	393.21
488.39	369.80
488.57	348.74
488.75	454.06
488.92	545.34
489.10	386.19
489.28	400.23
489.46	428.32
489.64	376.83
489.81	423.64
489.99	416.62
490.17	418.96
490.35	514.92
490.53	486.83
490.70	348.74
490.88	421.30
491.06	407.25
491.24	379.17
491.41	395.55
491.59	465.77
491.77	435.34
491.95	416.62
492.13	416.62
492.30	383.85
492.48	294.91
492.66	440.02
492.84	423.64
493.01	416.62
493.19	414.27
493.37	470.45
493.54	374.49
493.72	388.53
493.90	383.85
494.08	388.53
494.25	449.38
494.43	465.77
494.61	418.96
494.79	327.68
494.96	451.72
495.14	390.87
495.32	407.25
495.49	425.98
495.67	339.38
495.85	402.57
496.02	479.81
496.20	456.40
496.38	451.72
496.55	444.70
496.73	388.53
496.91	395.55
497.09	402.57
497.26	393.21
497.44	355.76
497.62	407.25
497.79	397.89
497.97	409.59
498.14	416.62
498.32	507.90
498.50	381.51
498.67	344.06
498.85	458.74
499.03	407.25
499.20	404.91
499.38	397.89
499.56	365.12
499.73	447.04
499.91	461.09
500.08	421.30
500.26	381.51
500.44	379.17
500.61	430.66
500.79	451.72
500.97	383.85
501.14	500.87
501.32	407.25
501.49	414.27
501.67	477.47
501.84	472.79
502.02	440.02
502.20	463.43
502.37	433.00
502.55	341.72
502.72	334.70
502.90	414.27
503.07	418.96
503.25	367.46
503.43	348.74
503.60	418.96
503.78	461.09
503.95	348.74
504.13	379.17
504.30	372.15
504.48	435.34
504.65	449.38
504.83	447.04
505.01	379.17
505.18	428.32
505.36	468.11
505.53	341.72
505.71	430.66
505.88	447.04
506.06	461.09
506.23	418.96
506.41	374.49
506.58	489.17
506.76	421.30
506.93	393.21
507.11	400.23
507.28	425.98
507.46	428.32
507.63	322.99
507.81	400.23
507.98	365.12
508.16	433.00
508.33	442.36
508.50	423.64
508.68	386.19
508.85	362.78
509.03	416.62
509.20	395.55
509.38	451.72
509.55	454.06
509.73	472.79
509.90	390.87
510.08	411.93
510.25	365.12
510.42	358.10
510.60	365.12
510.77	372.15
510.95	425.98
511.12	416.62
511.30	437.68
511.47	397.89
511.64	496.19
511.82	442.36
511.99	376.83
512.17	397.89
512.34	402.57
512.51	411.93
512.69	379.17
512.86	454.06
513.04	444.70
513.21	444.70
513.38	388.53
513.56	365.12
513.73	369.80
513.90	414.27
514.08	425.98
514.25	414.27
514.43	428.32
514.60	409.59
514.77	397.89
514.95	425.98
515.12	519.60
515.29	379.17
515.47	461.09
515.64	416.62
515.81	395.55
515.99	449.38
516.16	428.32
516.33	423.64
516.51	341.72
516.68	386.19
516.85	418.96
517.03	423.64
517.20	433.00
517.37	428.32
517.54	454.06
517.72	416.62
517.89	451.72
518.06	418.96
518.24	486.83
518.41	482.15
518.58	444.70
518.75	379.17
518.93	451.72
519.10	402.57
519.27	465.77
519.45	409.59
519.62	442.36
519.79	388.53
519.96	390.87
520.14	381.51
520.31	393.21
520.48	404.91
520.65	390.87
520.83	465.77
521.00	449.38
521.17	390.87
521.34	360.44
521.52	402.57
521.69	393.21
521.86	388.53
522.03	433.00
522.20	477.47
522.38	437.68
522.55	430.66
522.72	461.09
522.89	447.04
523.07	486.83
523.24	407.25
523.41	486.83
523.58	463.43
523.75	332.36
523.92	440.02
524.10	447.04
524.27	421.30
524.44	428.32
524.61	458.74
524.78	442.36
524.96	416.62
525.13	440.02
525.30	472.79
525.47	393.21
525.64	379.17
525.81	337.04
525.98	353.42
526.16	440.02
526.33	379.17
526.50	414.27
526.67	416.62
526.84	404.91
527.01	376.83
527.18	414.27
527.36	442.36
527.53	379.17
527.70	414.27
527.87	442.36
528.04	400.23
528.21	404.91
528.38	444.70
528.55	390.87
528.72	341.72
528.89	416.62
529.07	440.02
529.24	393.21
529.41	444.70
529.58	442.36
529.75	425.98
529.92	461.09
530.09	372.15
530.26	456.40
530.43	440.02
530.60	376.83
530.77	365.12
530.94	402.57
531.11	430.66
531.28	433.00
531.46	320.65
531.63	388.53
531.80	425.98
531.97	517.26
532.14	425.98
532.31	372.15
532.48	463.43
532.65	458.74
532.82	393.21
532.99	381.51
533.16	411.93
533.33	395.55
533.50	416.62
533.67	461.09
533.84	407.25
534.01	477.47
534.18	407.25
534.35	425.98
534.52	409.59
534.69	404.91
534.86	437.68
535.03	379.17
535.20	451.72
535.37	416.62
535.54	454.06
535.71	348.74
535.88	411.93
536.05	341.72
536.22	425.98
536.38	440.02
536.55	435.34
536.72	407.25
536.89	477.47
537.06	449.38
537.23	423.64
537.40	421.30
537.57	402.57
537.74	521.94
537.91	423.64
538.08	395.55
538.25	367.46
538.42	449.38
538.59	463.43
538.75	393.21
538.92	386.19
539.09	461.09
539.26	458.74
539.43	442.36
539.60	465.77
539.77	470.45
539.94	414.27
540.11	472.79
540.28	435.34
540.44	437.68
540.61	423.64
540.78	430.66
540.95	444.70
541.12	447.04
541.29	393.21
541.46	463.43
541.62	440.02
541.79	416.62
541.96	367.46
542.13	369.80
542.30	358.10
542.47	479.81
542.63	440.02
542.80	463.43
542.97	449.38
543.14	425.98
543.31	437.68
543.48	381.51
543.64	397.89
543.81	409.59
543.98	397.89
544.15	404.91
544.32	444.70
544.48	390.87
544.65	393.21
544.82	425.98
544.99	425.98
545.16	404.91
545.32	414.27
545.49	472.79
545.66	397.89
545.83	444.70
546.00	414.27
546.16	454.06
546.33	440.02
546.50	435.34
546.67	491.51
546.83	423.64
547.00	395.55
547.17	346.40
547.34	365.12
547.50	428.32
547.67	388.53
547.84	418.96
548.00	383.85
548.17	454.06
548.34	433.00
548.51	519.60
548.67	418.96
548.84	409.59
549.01	414.27
549.18	484.49
549.34	444.70
549.51	425.98
549.68	411.93
549.84	454.06
550.01	379.17
550.18	491.51
550.34	463.43
550.51	348.74
550.68	447.04
550.84	437.68
551.01	447.04
551.18	435.34
551.34	416.62
551.51	442.36
551.68	433.00
551.84	388.53
552.01	379.17
552.18	381.51
552.34	461.09
552.51	456.40
552.68	388.53
552.84	376.83
553.01	451.72
553.18	435.34
553.34	437.68
553.51	430.66
553.67	379.17
553.84	400.23
554.01	372.15
554.17	379.17
554.34	397.89
554.51	407.25
554.67	514.92
554.84	454.06
555.00	411.93
555.17	465.77
555.33	437.68
555.50	444.70
555.67	433.00
555.83	372.15
556.00	379.17
556.16	528.96
556.33	472.79
556.50	299.59
556.66	388.53
556.83	379.17
556.99	477.47
557.16	440.02
557.32	423.64
557.49	344.06
557.65	409.59
557.82	425.98
557.98	414.27
558.15	416.62
558.32	449.38
558.48	442.36
558.65	372.15
558.81	402.57
558.98	411.93
559.14	414.27
559.31	440.02
559.47	402.57
559.64	414.27
559.80	411.93
559.97	433.00
560.13	337.04
560.30	402.57
560.46	372.15
560.63	433.00
560.79	407.25
560.96	428.32
561.12	430.66
561.29	444.70
561.45	376.83
561.61	390.87
561.78	451.72
561.94	397.89
562.11	416.62
562.27	456.40
562.44	465.77
562.60	437.68
562.77	386.19
562.93	435.34
563.10	433.00
563.26	423.64
563.42	451.72
563.59	430.66
563.75	383.85
563.92	472.79
564.08	454.06
564.24	496.19
564.41	486.83
564.57	402.57
564.74	358.10
564.90	411.93
565.07	414.27
565.23	407.25
565.39	423.64
565.56	402.57
565.72	418.96
565.88	486.83
566.05	388.53
566.21	418.96
566.38	393.21
566.54	454.06
566.70	416.62
566.87	430.66
567.03	402.57
567.19	421.30
567.36	388.53
567.52	428.32
567.68	337.04
567.85	402.57
568.01	425.98
568.17	428.32
568.34	451.72
568.50	416.62
568.66	461.09
568.83	482.15
568.99	386.19
569.15	482.15
569.32	390.87
569.48	416.62
569.64	388.53
569.81	465.77
569.97	411.93
570.13	489.17
570.30	390.87
570.46	407.25
570.62	484.49
570.78	402.57
570.95	423.64
571.11	437.68
571.27	484.49
571.43	409.59
571.60	468.11
571.76	407.25
571.92	407.25
572.09	393.21
572.25	468.11
572.41	458.74
572.57	390.87
572.74	447.04
572.90	395.55
573.06	320.65
573.22	465.77
573.38	435.34
573.55	479.81
573.71	458.74
573.87	360.44
574.03	425.98
574.20	365.12
574.36	388.53
574.52	400.23
574.68	407.25
574.84	358.10
575.01	416.62
575.17	428.32
575.33	465.77
575.49	425.98
575.65	493.85
575.82	493.85
575.98	404.91
576.14	451.72
576.30	351.08
576.46	447.04
576.62	404.91
576.79	461.09
576.95	395.55
577.11	435.34
577.27	409.59
577.43	470.45
577.59	463.43
577.75	416.62
577.92	444.70
578.08	433.00
578.24	397.89
578.40	360.44
578.56	493.85
578.72	437.68
578.88	514.92
579.04	416.62
579.21	442.36
579.37	367.46
579.53	404.91
579.69	386.19
579.85	423.64
580.01	484.49
580.17	421.30
580.33	503.22
580.49	468.11
580.65	465.77
580.82	456.40
580.98	475.13
581.14	393.21
581.30	425.98
581.46	451.72
581.62	393.21
581.78	409.59
581.94	369.80
582.10	390.87
582.26	475.13
582.42	400.23
582.58	421.30
582.74	383.85
582.90	383.85
583.06	402.57
583.22	437.68
583.38	407.25
583.54	454.06
583.70	444.70
583.86	374.49
584.02	393.21
584.18	397.89
584.34	388.53
584.50	381.51
584.66	379.17
584.82	369.80
584.98	440.02
585.14	395.55
585.30	489.17
585.46	407.25
585.62	344.06
585.78	418.96
585.94	465.77
586.10	465.77
586.26	440.02
586.42	458.74
586.58	451.72
586.74	430.66
586.90	447.04
587.06	414.27
587.22	425.98
587.38	379.17
587.54	444.70
587.70	437.68
587.86	365.12
588.02	365.12
588.18	421.30
588.34	388.53
588.49	418.96
588.65	472.79
588.81	411.93
588.97	400.23
589.13	407.25
589.29	393.21
589.45	425.98
589.61	465.77
589.77	444.70
589.93	470.45
590.08	360.44
590.24	418.96
590.40	428.32
590.56	374.49
590.72	447.04
590.88	353.42
591.04	486.83
591.20	301.93
591.35	444.70
591.51	362.78
591.67	470.45
591.83	416.62
591.99	407.25
592.15	418.96
592.31	365.12
592.46	477.47
592.62	388.53
592.78	451.72
592.94	346.40
593.10	449.38
593.26	491.51
593.41	475.13
593.57	425.98
593.73	449.38
593.89	381.51
594.05	390.87
594.20	425.98
594.36	430.66
594.52	369.80
594.68	393.21
594.84	451.72
594.99	433.00
595.15	475.13
595.31	430.66
595.47	409.59
595.62	416.62
595.78	383.85
595.94	381.51
596.10	416.62
596.25	430.66
596.41	411.93
596.57	421.30
596.73	304.27
596.88	428.32
597.04	472.79
597.20	414.27
597.36	400.23
597.51	397.89
597.67	458.74
597.83	430.66
597.99	393.21
598.14	404.91
598.30	409.59
598.46	409.59
598.61	449.38
598.77	465.77
598.93	381.51
599.09	425.98
599.24	430.66
599.40	458.74
599.56	472.79
599.71	379.17
599.87	458.74
600.03	376.83
600.18	444.70
600.34	402.57
600.50	447.04
600.65	383.85
600.81	454.06
600.97	423.64
601.12	435.34
601.28	500.87
601.44	409.59
601.59	397.89
601.75	367.46
601.91	376.83
602.06	376.83
602.22	430.66
602.37	402.57
602.53	372.15
602.69	435.34
602.84	383.85
603.00	379.17
603.16	374.49
603.31	430.66
603.47	477.47
603.62	397.89
603.78	365.12
603.94	409.59
604.09	402.57
604.25	435.34
604.40	393.21
604.56	404.91
604.71	397.89
604.87	461.09
605.03	416.62
605.18	472.79
605.34	402.57
605.49	411.93
605.65	351.08
605.80	409.59
605.96	341.72
606.12	440.02
606.27	423.64
606.43	402.57
606.58	463.43
606.74	489.17
606.89	381.51
607.05	418.96
607.20	428.32
607.36	463.43
607.51	355.76
607.67	372.15
607.82	442.36
607.98	451.72
608.13	550.03
608.29	451.72
608.44	376.83
608.60	393.21
608.75	425.98
608.91	325.33
609.06	465.77
609.22	407.25
609.37	353.42
609.53	332.36
609.68	435.34
609.84	433.00
609.99	409.59
610.15	418.96
