SpectraSuite Data File
++++++++++++++++++++++++++++++++++++
Date: Fri Oct 25 12:11:26 EDT 2013
User: price-jones
Dark Spectrum Present: No
Reference Spectrum Present: No
Number of Sampled Component Spectra: 1
Spectrometers: USB2+H05261
Integration Time (usec): 100000 (USB2+H05261)
Spectra Averaged: 1 (USB2+H05261)
Boxcar Smoothing: 0 (USB2+H05261)
Correct for Electrical Dark: No (USB2+H05261)
Strobe/Lamp Enabled: No (USB2+H05261)
Correct for Detector Non-linearity: No (USB2+H05261)
Correct for Stray Light: No (USB2+H05261)
Number of Pixels in Processed Spectrum: 2048
>>>>>Begin Processed Spectral Data<<<<<
365.73	339.38
365.92	339.38
366.12	339.38
366.32	243.42
366.52	177.88
366.72	229.37
366.91	250.44
367.11	191.92
367.31	266.82
367.51	203.63
367.70	259.80
367.90	208.31
368.10	227.03
368.30	187.24
368.49	259.80
368.69	353.42
368.89	255.12
369.09	217.67
369.28	294.91
369.48	299.59
369.68	339.38
369.87	285.55
370.07	308.95
370.27	287.89
370.47	287.89
370.66	250.44
370.86	294.91
371.06	325.33
371.25	421.30
371.45	374.49
371.65	402.57
371.84	376.83
372.04	379.17
372.24	433.00
372.44	362.78
372.63	381.51
372.83	372.15
373.03	411.93
373.22	416.62
373.42	447.04
373.62	411.93
373.81	463.43
374.01	404.91
374.21	320.65
374.40	390.87
374.60	381.51
374.79	477.47
374.99	486.83
375.19	407.25
375.38	386.19
375.58	463.43
375.78	430.66
375.97	472.79
376.17	514.92
376.37	400.23
376.56	435.34
376.76	442.36
376.95	486.83
377.15	418.96
377.35	421.30
377.54	418.96
377.74	332.36
377.93	456.40
378.13	423.64
378.33	400.23
378.52	400.23
378.72	428.32
378.91	369.80
379.11	376.83
379.31	395.55
379.50	337.04
379.70	456.40
379.89	404.91
380.09	397.89
380.28	418.96
380.48	414.27
380.68	397.89
380.87	301.93
381.07	454.06
381.26	414.27
381.46	435.34
381.65	367.46
381.85	442.36
382.04	360.44
382.24	486.83
382.43	440.02
382.63	365.12
382.83	414.27
383.02	383.85
383.22	437.68
383.41	325.33
383.61	449.38
383.80	367.46
384.00	451.72
384.19	402.57
384.39	421.30
384.58	339.38
384.78	381.51
384.97	409.59
385.17	435.34
385.36	393.21
385.56	425.98
385.75	315.97
385.95	332.36
386.14	376.83
386.34	463.43
386.53	451.72
386.72	430.66
386.92	414.27
387.11	381.51
387.31	444.70
387.50	428.32
387.70	454.06
387.89	379.17
388.09	423.64
388.28	404.91
388.48	425.98
388.67	393.21
388.86	374.49
389.06	414.27
389.25	411.93
389.45	393.21
389.64	475.13
389.84	390.87
390.03	475.13
390.22	418.96
390.42	425.98
390.61	416.62
390.81	369.80
391.00	456.40
391.19	447.04
391.39	346.40
391.58	440.02
391.78	442.36
391.97	482.15
392.16	369.80
392.36	440.02
392.55	423.64
392.75	414.27
392.94	374.49
393.13	435.34
393.33	440.02
393.52	367.46
393.71	425.98
393.91	428.32
394.10	442.36
394.29	404.91
394.49	444.70
394.68	428.32
394.88	442.36
395.07	531.30
395.26	397.89
395.46	451.72
395.65	458.74
395.84	425.98
396.04	369.80
396.23	425.98
396.42	388.53
396.62	383.85
396.81	454.06
397.00	313.63
397.19	376.83
397.39	372.15
397.58	456.40
397.77	409.59
397.97	433.00
398.16	402.57
398.35	400.23
398.55	374.49
398.74	416.62
398.93	400.23
399.12	383.85
399.32	393.21
399.51	404.91
399.70	358.10
399.90	472.79
400.09	390.87
400.28	367.46
400.47	376.83
400.67	440.02
400.86	381.51
401.05	425.98
401.24	397.89
401.44	388.53
401.63	449.38
401.82	362.78
402.01	442.36
402.21	395.55
402.40	383.85
402.59	395.55
402.78	376.83
402.97	435.34
403.17	367.46
403.36	411.93
403.55	390.87
403.74	433.00
403.93	397.89
404.13	430.66
404.32	393.21
404.51	437.68
404.70	320.65
404.89	362.78
405.09	465.77
405.28	404.91
405.47	433.00
405.66	369.80
405.85	386.19
406.05	374.49
406.24	463.43
406.43	397.89
406.62	367.46
406.81	451.72
407.00	447.04
407.20	407.25
407.39	397.89
407.58	491.51
407.77	451.72
407.96	390.87
408.15	353.42
408.34	402.57
408.54	376.83
408.73	449.38
408.92	388.53
409.11	437.68
409.30	388.53
409.49	388.53
409.68	404.91
409.87	294.91
410.07	395.55
410.26	456.40
410.45	393.21
410.64	341.72
410.83	369.80
411.02	367.46
411.21	416.62
411.40	454.06
411.59	381.51
411.78	369.80
411.98	400.23
412.17	390.87
412.36	372.15
412.55	386.19
412.74	461.09
412.93	512.58
413.12	360.44
413.31	421.30
413.50	451.72
413.69	414.27
413.88	407.25
414.07	381.51
414.26	418.96
414.45	400.23
414.64	449.38
414.83	351.08
415.02	381.51
415.22	414.27
415.41	465.77
415.60	414.27
415.79	341.72
415.98	433.00
416.17	372.15
416.36	472.79
416.55	447.04
416.74	395.55
416.93	454.06
417.12	402.57
417.31	400.23
417.50	433.00
417.69	425.98
417.88	458.74
418.07	437.68
418.26	416.62
418.45	425.98
418.64	440.02
418.83	442.36
419.02	379.17
419.21	444.70
419.39	442.36
419.58	435.34
419.77	397.89
419.96	447.04
420.15	428.32
420.34	475.13
420.53	447.04
420.72	416.62
420.91	437.68
421.10	421.30
421.29	411.93
421.48	372.15
421.67	433.00
421.86	430.66
422.05	421.30
422.24	425.98
422.43	423.64
422.61	442.36
422.80	414.27
422.99	411.93
423.18	367.46
423.37	449.38
423.56	362.78
423.75	388.53
423.94	463.43
424.13	458.74
424.32	447.04
424.50	395.55
424.69	365.12
424.88	402.57
425.07	470.45
425.26	430.66
425.45	433.00
425.64	372.15
425.83	388.53
426.01	491.51
426.20	463.43
426.39	447.04
426.58	472.79
426.77	414.27
426.96	435.34
427.15	421.30
427.33	437.68
427.52	484.49
427.71	428.32
427.90	435.34
428.09	386.19
428.28	322.99
428.46	397.89
428.65	390.87
428.84	449.38
429.03	484.49
429.22	435.34
429.40	463.43
429.59	397.89
429.78	365.12
429.97	376.83
430.16	409.59
430.34	334.70
430.53	428.32
430.72	444.70
430.91	393.21
431.10	425.98
431.28	400.23
431.47	442.36
431.66	447.04
431.85	440.02
432.03	414.27
432.22	411.93
432.41	379.17
432.60	440.02
432.79	442.36
432.97	407.25
433.16	442.36
433.35	386.19
433.54	461.09
433.72	397.89
433.91	451.72
434.10	470.45
434.28	458.74
434.47	428.32
434.66	461.09
434.85	365.12
435.03	458.74
435.22	461.09
435.41	430.66
435.59	425.98
435.78	416.62
435.97	372.15
436.16	465.77
436.34	423.64
436.53	463.43
436.72	400.23
436.90	430.66
437.09	414.27
437.28	468.11
437.46	404.91
437.65	430.66
437.84	437.68
438.02	447.04
438.21	440.02
438.40	418.96
438.58	376.83
438.77	381.51
438.96	472.79
439.14	430.66
439.33	402.57
439.52	428.32
439.70	369.80
439.89	423.64
440.08	416.62
440.26	442.36
440.45	390.87
440.63	479.81
440.82	372.15
441.01	407.25
441.19	379.17
441.38	442.36
441.57	376.83
441.75	416.62
441.94	435.34
442.12	404.91
442.31	388.53
442.50	379.17
442.68	379.17
442.87	486.83
443.05	388.53
443.24	376.83
443.43	468.11
443.61	416.62
443.80	379.17
443.98	456.40
444.17	421.30
444.35	409.59
444.54	404.91
444.73	374.49
444.91	472.79
445.10	376.83
445.28	479.81
445.47	458.74
445.65	463.43
445.84	449.38
446.02	360.44
446.21	433.00
446.39	425.98
446.58	442.36
446.77	383.85
446.95	465.77
447.14	393.21
447.32	409.59
447.51	425.98
447.69	503.22
447.88	421.30
448.06	435.34
448.25	458.74
448.43	400.23
448.62	367.46
448.80	465.77
448.99	360.44
449.17	374.49
449.36	402.57
449.54	456.40
449.73	414.27
449.91	463.43
450.10	397.89
450.28	411.93
450.46	409.59
450.65	479.81
450.83	351.08
451.02	454.06
451.20	458.74
451.39	496.19
451.57	397.89
451.76	421.30
451.94	435.34
452.13	435.34
452.31	440.02
452.49	465.77
452.68	423.64
452.86	475.13
453.05	425.98
453.23	472.79
453.42	395.55
453.60	425.98
453.78	423.64
453.97	409.59
454.15	311.29
454.34	337.04
454.52	430.66
454.70	447.04
454.89	472.79
455.07	418.96
455.26	397.89
455.44	444.70
455.62	386.19
455.81	423.64
455.99	425.98
456.17	418.96
456.36	407.25
456.54	440.02
456.73	376.83
456.91	421.30
457.09	416.62
457.28	418.96
457.46	435.34
457.64	475.13
457.83	367.46
458.01	430.66
458.19	461.09
458.38	409.59
458.56	451.72
458.74	341.72
458.93	379.17
459.11	369.80
459.29	374.49
459.48	454.06
459.66	514.92
459.84	430.66
460.03	528.96
460.21	369.80
460.39	348.74
460.57	468.11
460.76	447.04
460.94	337.04
461.12	472.79
461.31	435.34
461.49	407.25
461.67	411.93
461.85	404.91
462.04	360.44
462.22	772.38
462.40	430.66
462.59	465.77
462.77	433.00
462.95	421.30
463.13	367.46
463.32	421.30
463.50	465.77
463.68	465.77
463.86	418.96
464.05	433.00
464.23	404.91
464.41	437.68
464.59	451.72
464.78	430.66
464.96	449.38
465.14	383.85
465.32	482.15
465.50	430.66
465.69	444.70
465.87	402.57
466.05	489.17
466.23	425.98
466.41	425.98
466.60	386.19
466.78	430.66
466.96	442.36
467.14	421.30
467.32	402.57
467.51	395.55
467.69	395.55
467.87	463.43
468.05	435.34
468.23	411.93
468.41	442.36
468.60	470.45
468.78	465.77
468.96	421.30
469.14	418.96
469.32	421.30
469.50	400.23
469.69	428.32
469.87	376.83
470.05	381.51
470.23	393.21
470.41	409.59
470.59	362.78
470.77	416.62
470.95	437.68
471.14	463.43
471.32	421.30
471.50	433.00
471.68	425.98
471.86	449.38
472.04	461.09
472.22	433.00
472.40	374.49
472.58	430.66
472.77	367.46
472.95	430.66
473.13	395.55
473.31	435.34
473.49	425.98
473.67	416.62
473.85	505.56
474.03	411.93
474.21	369.80
474.39	390.87
474.57	355.76
474.75	404.91
474.93	386.19
475.12	386.19
475.30	444.70
475.48	390.87
475.66	493.85
475.84	484.49
476.02	430.66
476.20	400.23
476.38	400.23
476.56	489.17
476.74	404.91
476.92	404.91
477.10	383.85
477.28	470.45
477.46	400.23
477.64	479.81
477.82	367.46
478.00	388.53
478.18	330.02
478.36	444.70
478.54	381.51
478.72	440.02
478.90	386.19
479.08	449.38
479.26	514.92
479.44	418.96
479.62	379.17
479.80	381.51
479.98	416.62
480.16	428.32
480.34	414.27
480.52	433.00
480.70	507.90
480.88	437.68
481.06	390.87
481.24	440.02
481.41	442.36
481.59	425.98
481.77	407.25
481.95	355.76
482.13	444.70
482.31	369.80
482.49	430.66
482.67	407.25
482.85	493.85
483.03	444.70
483.21	435.34
483.39	346.40
483.57	421.30
483.74	423.64
483.92	428.32
484.10	372.15
484.28	409.59
484.46	482.15
484.64	444.70
484.82	423.64
485.00	388.53
485.18	449.38
485.35	393.21
485.53	458.74
485.71	496.19
485.89	414.27
486.07	454.06
486.25	425.98
486.43	477.47
486.61	435.34
486.78	503.22
486.96	463.43
487.14	465.77
487.32	433.00
487.50	454.06
487.68	440.02
487.85	465.77
488.03	437.68
488.21	360.44
488.39	409.59
488.57	400.23
488.75	393.21
488.92	554.71
489.10	400.23
489.28	580.45
489.46	369.80
489.64	360.44
489.81	407.25
489.99	341.72
490.17	428.32
490.35	512.58
490.53	421.30
490.70	435.34
490.88	447.04
491.06	332.36
491.24	407.25
491.41	402.57
491.59	407.25
491.77	470.45
491.95	390.87
492.13	365.12
492.30	383.85
492.48	337.04
492.66	325.33
492.84	418.96
493.01	503.22
493.19	395.55
493.37	440.02
493.54	395.55
493.72	402.57
493.90	414.27
494.08	411.93
494.25	484.49
494.43	388.53
494.61	411.93
494.79	442.36
494.96	425.98
495.14	454.06
495.32	416.62
495.49	442.36
495.67	339.38
495.85	390.87
496.02	395.55
496.20	437.68
496.38	440.02
496.55	435.34
496.73	372.15
496.91	435.34
497.09	393.21
497.26	414.27
497.44	423.64
497.62	442.36
497.79	402.57
497.97	428.32
498.14	388.53
498.32	503.22
498.50	425.98
498.67	411.93
498.85	456.40
499.03	430.66
499.20	374.49
499.38	442.36
499.56	425.98
499.73	442.36
499.91	421.30
500.08	517.26
500.26	433.00
500.44	433.00
500.61	404.91
500.79	433.00
500.97	358.10
501.14	442.36
501.32	430.66
501.49	498.53
501.67	393.21
501.84	421.30
502.02	428.32
502.20	454.06
502.37	449.38
502.55	381.51
502.72	404.91
502.90	400.23
503.07	451.72
503.25	393.21
503.43	381.51
503.60	416.62
503.78	341.72
503.95	367.46
504.13	397.89
504.30	362.78
504.48	383.85
504.65	365.12
504.83	451.72
505.01	360.44
505.18	397.89
505.36	449.38
505.53	442.36
505.71	339.38
505.88	421.30
506.06	402.57
506.23	414.27
506.41	379.17
506.58	393.21
506.76	425.98
506.93	372.15
507.11	435.34
507.28	444.70
507.46	440.02
507.63	393.21
507.81	477.47
507.98	442.36
508.16	421.30
508.33	395.55
508.50	451.72
508.68	393.21
508.85	433.00
509.03	393.21
509.20	402.57
509.38	414.27
509.55	435.34
509.73	421.30
509.90	449.38
510.08	437.68
510.25	397.89
510.42	442.36
510.60	447.04
510.77	456.40
510.95	423.64
511.12	365.12
511.30	444.70
511.47	418.96
511.64	414.27
511.82	437.68
511.99	423.64
512.17	425.98
512.34	423.64
512.51	425.98
512.69	390.87
512.86	491.51
513.04	379.17
513.21	334.70
513.38	442.36
513.56	369.80
513.73	376.83
513.90	407.25
514.08	425.98
514.25	365.12
514.43	447.04
514.60	379.17
514.77	461.09
514.95	463.43
515.12	353.42
515.29	428.32
515.47	409.59
515.64	404.91
515.81	388.53
515.99	451.72
516.16	332.36
516.33	442.36
516.51	440.02
516.68	374.49
516.85	416.62
517.03	451.72
517.20	388.53
517.37	425.98
517.54	353.42
517.72	395.55
517.89	397.89
518.06	421.30
518.24	477.47
518.41	444.70
518.58	475.13
518.75	430.66
518.93	454.06
519.10	437.68
519.27	433.00
519.45	376.83
519.62	411.93
519.79	381.51
519.96	360.44
520.14	421.30
520.31	386.19
520.48	381.51
520.65	451.72
520.83	383.85
521.00	428.32
521.17	425.98
521.34	315.97
521.52	447.04
521.69	362.78
521.86	404.91
522.03	425.98
522.20	465.77
522.38	421.30
522.55	414.27
522.72	416.62
522.89	355.76
523.07	425.98
523.24	454.06
523.41	409.59
523.58	383.85
523.75	416.62
523.92	451.72
524.10	447.04
524.27	409.59
524.44	428.32
524.61	416.62
524.78	407.25
524.96	475.13
525.13	425.98
525.30	390.87
525.47	465.77
525.64	519.60
525.81	397.89
525.98	458.74
526.16	435.34
526.33	437.68
526.50	355.76
526.67	407.25
526.84	376.83
527.01	430.66
527.18	365.12
527.36	458.74
527.53	407.25
527.70	404.91
527.87	376.83
528.04	414.27
528.21	325.33
528.38	374.49
528.55	470.45
528.72	503.22
528.89	468.11
529.07	360.44
529.24	456.40
529.41	475.13
529.58	482.15
529.75	355.76
529.92	393.21
530.09	456.40
530.26	421.30
530.43	479.81
530.60	433.00
530.77	416.62
530.94	456.40
531.11	418.96
531.28	470.45
531.46	451.72
531.63	383.85
531.80	383.85
531.97	444.70
532.14	463.43
532.31	425.98
532.48	416.62
532.65	407.25
532.82	418.96
532.99	414.27
533.16	418.96
533.33	379.17
533.50	484.49
533.67	379.17
533.84	423.64
534.01	440.02
534.18	376.83
534.35	369.80
534.52	416.62
534.69	444.70
534.86	421.30
535.03	353.42
535.20	400.23
535.37	451.72
535.54	362.78
535.71	418.96
535.88	472.79
536.05	411.93
536.22	393.21
536.38	404.91
536.55	468.11
536.72	423.64
536.89	444.70
537.06	397.89
537.23	358.10
537.40	470.45
537.57	388.53
537.74	512.58
537.91	461.09
538.08	400.23
538.25	430.66
538.42	449.38
538.59	458.74
538.75	491.51
538.92	397.89
539.09	416.62
539.26	404.91
539.43	451.72
539.60	390.87
539.77	435.34
539.94	409.59
540.11	465.77
540.28	526.62
540.44	407.25
540.61	372.15
540.78	353.42
540.95	379.17
541.12	393.21
541.29	414.27
541.46	507.90
541.62	414.27
541.79	449.38
541.96	379.17
542.13	365.12
542.30	386.19
542.47	353.42
542.63	367.46
542.80	383.85
542.97	425.98
543.14	393.21
543.31	461.09
543.48	430.66
543.64	430.66
543.81	400.23
543.98	411.93
544.15	404.91
544.32	393.21
544.48	409.59
544.65	400.23
544.82	463.43
544.99	414.27
545.16	416.62
545.32	435.34
545.49	458.74
545.66	435.34
545.83	397.89
546.00	397.89
546.16	440.02
546.33	362.78
546.50	428.32
546.67	444.70
546.83	397.89
547.00	404.91
547.17	440.02
547.34	344.06
547.50	411.93
547.67	395.55
547.84	407.25
548.00	444.70
548.17	463.43
548.34	428.32
548.51	423.64
548.67	421.30
548.84	367.46
549.01	369.80
549.18	435.34
549.34	411.93
549.51	486.83
549.68	390.87
549.84	334.70
550.01	461.09
550.18	479.81
550.34	514.92
550.51	470.45
550.68	449.38
550.84	397.89
551.01	444.70
551.18	430.66
551.34	442.36
551.51	449.38
551.68	416.62
551.84	447.04
552.01	407.25
552.18	437.68
552.34	472.79
552.51	372.15
552.68	451.72
552.84	430.66
553.01	411.93
553.18	411.93
553.34	393.21
553.51	461.09
553.67	402.57
553.84	477.47
554.01	409.59
554.17	358.10
554.34	407.25
554.51	407.25
554.67	430.66
554.84	475.13
555.00	402.57
555.17	437.68
555.33	435.34
555.50	484.49
555.67	390.87
555.83	477.47
556.00	416.62
556.16	510.24
556.33	425.98
556.50	430.66
556.66	414.27
556.83	435.34
556.99	404.91
557.16	416.62
557.32	433.00
557.49	390.87
557.65	393.21
557.82	435.34
557.98	379.17
558.15	475.13
558.32	447.04
558.48	402.57
558.65	404.91
558.81	407.25
558.98	489.17
559.14	421.30
559.31	376.83
559.47	449.38
559.64	388.53
559.80	407.25
559.97	461.09
560.13	367.46
560.30	395.55
560.46	470.45
560.63	400.23
560.79	442.36
560.96	423.64
561.12	433.00
561.29	465.77
561.45	409.59
561.61	451.72
561.78	491.51
561.94	402.57
562.11	393.21
562.27	423.64
562.44	444.70
562.60	397.89
562.77	435.34
562.93	489.17
563.10	386.19
563.26	447.04
563.42	440.02
563.59	418.96
563.75	404.91
563.92	447.04
564.08	365.12
564.24	461.09
564.41	489.17
564.57	463.43
564.74	367.46
564.90	456.40
565.07	435.34
565.23	465.77
565.39	365.12
565.56	353.42
565.72	360.44
565.88	411.93
566.05	409.59
566.21	468.11
566.38	414.27
566.54	411.93
566.70	386.19
566.87	383.85
567.03	411.93
567.19	353.42
567.36	421.30
567.52	400.23
567.68	440.02
567.85	383.85
568.01	425.98
568.17	386.19
568.34	355.76
568.50	472.79
568.66	433.00
568.83	411.93
568.99	358.10
569.15	421.30
569.32	458.74
569.48	444.70
569.64	468.11
569.81	440.02
569.97	442.36
570.13	379.17
570.30	461.09
570.46	468.11
570.62	402.57
570.78	428.32
570.95	498.53
571.11	425.98
571.27	547.69
571.43	351.08
571.60	425.98
571.76	376.83
571.92	402.57
572.09	400.23
572.25	433.00
572.41	470.45
572.57	397.89
572.74	451.72
572.90	489.17
573.06	404.91
573.22	447.04
573.38	465.77
573.55	472.79
573.71	416.62
573.87	456.40
574.03	388.53
574.20	456.40
574.36	430.66
574.52	390.87
574.68	416.62
574.84	442.36
575.01	411.93
575.17	435.34
575.33	383.85
575.49	470.45
575.65	388.53
575.82	444.70
575.98	397.89
576.14	393.21
576.30	428.32
576.46	433.00
576.62	395.55
576.79	468.11
576.95	491.51
577.11	442.36
577.27	421.30
577.43	390.87
577.59	447.04
577.75	437.68
577.92	355.76
578.08	486.83
578.24	409.59
578.40	479.81
578.56	458.74
578.72	386.19
578.88	367.46
579.04	496.19
579.21	456.40
579.37	444.70
579.53	433.00
579.69	479.81
579.85	395.55
580.01	425.98
580.17	400.23
580.33	454.06
580.49	393.21
580.65	440.02
580.82	440.02
580.98	444.70
581.14	379.17
581.30	458.74
581.46	360.44
581.62	411.93
581.78	425.98
581.94	414.27
582.10	524.28
582.26	421.30
582.42	407.25
582.58	397.89
582.74	393.21
582.90	379.17
583.06	393.21
583.22	433.00
583.38	486.83
583.54	463.43
583.70	449.38
583.86	404.91
584.02	397.89
584.18	465.77
584.34	362.78
584.50	444.70
584.66	362.78
584.82	386.19
584.98	430.66
585.14	435.34
585.30	421.30
585.46	400.23
585.62	358.10
585.78	463.43
585.94	414.27
586.10	440.02
586.26	341.72
586.42	418.96
586.58	414.27
586.74	362.78
586.90	435.34
587.06	407.25
587.22	376.83
587.38	365.12
587.54	411.93
587.70	447.04
587.86	409.59
588.02	400.23
588.18	437.68
588.34	386.19
588.49	395.55
588.65	458.74
588.81	496.19
588.97	468.11
589.13	386.19
589.29	409.59
589.45	449.38
589.61	414.27
589.77	414.27
589.93	397.89
590.08	409.59
590.24	409.59
590.40	409.59
590.56	437.68
590.72	454.06
590.88	449.38
591.04	383.85
591.20	418.96
591.35	477.47
591.51	421.30
591.67	449.38
591.83	418.96
591.99	435.34
592.15	411.93
592.31	484.49
592.46	442.36
592.62	491.51
592.78	423.64
592.94	353.42
593.10	383.85
593.26	414.27
593.41	472.79
593.57	442.36
593.73	367.46
593.89	409.59
594.05	468.11
594.20	390.87
594.36	458.74
594.52	409.59
594.68	376.83
594.84	472.79
594.99	435.34
595.15	482.15
595.31	461.09
595.47	442.36
595.62	390.87
595.78	344.06
595.94	369.80
596.10	510.24
596.25	435.34
596.41	397.89
596.57	423.64
596.73	409.59
596.88	414.27
597.04	517.26
597.20	379.17
597.36	433.00
597.51	367.46
597.67	346.40
597.83	416.62
597.99	428.32
598.14	395.55
598.30	433.00
598.46	383.85
598.61	433.00
598.77	407.25
598.93	374.49
599.09	367.46
599.24	365.12
599.40	418.96
599.56	425.98
599.71	404.91
599.87	440.02
600.03	402.57
600.18	402.57
600.34	451.72
600.50	332.36
600.65	400.23
600.81	416.62
600.97	397.89
601.12	442.36
601.28	433.00
601.44	388.53
601.59	395.55
601.75	416.62
601.91	376.83
602.06	404.91
602.22	421.30
602.37	395.55
602.53	423.64
602.69	475.13
602.84	404.91
603.00	447.04
603.16	395.55
603.31	407.25
603.47	435.34
603.62	397.89
603.78	477.47
603.94	393.21
604.09	428.32
604.25	470.45
604.40	388.53
604.56	353.42
604.71	440.02
604.87	409.59
605.03	395.55
605.18	479.81
605.34	486.83
605.49	414.27
605.65	372.15
605.80	374.49
605.96	372.15
606.12	463.43
606.27	397.89
606.43	456.40
606.58	484.49
606.74	365.12
606.89	437.68
607.05	433.00
607.20	428.32
607.36	372.15
607.51	437.68
607.67	465.77
607.82	381.51
607.98	514.92
608.13	393.21
608.29	390.87
608.44	414.27
608.60	444.70
608.75	505.56
608.91	430.66
609.06	376.83
609.22	393.21
609.37	397.89
609.53	454.06
609.68	440.02
609.84	409.59
609.99	454.06
610.15	447.04
