SpectraSuite Data File
++++++++++++++++++++++++++++++++++++
Date: Fri Oct 25 12:11:42 EDT 2013
User: price-jones
Dark Spectrum Present: No
Reference Spectrum Present: No
Number of Sampled Component Spectra: 1
Spectrometers: USB2+H05261
Integration Time (usec): 100000 (USB2+H05261)
Spectra Averaged: 1 (USB2+H05261)
Boxcar Smoothing: 0 (USB2+H05261)
Correct for Electrical Dark: No (USB2+H05261)
Strobe/Lamp Enabled: No (USB2+H05261)
Correct for Detector Non-linearity: No (USB2+H05261)
Correct for Stray Light: No (USB2+H05261)
Number of Pixels in Processed Spectrum: 2048
>>>>>Begin Processed Spectral Data<<<<<
365.73	327.68
365.92	327.68
366.12	327.68
366.32	227.03
366.52	266.82
366.72	191.92
366.91	283.20
367.11	299.59
367.31	222.35
367.51	173.20
367.70	212.99
367.90	262.14
368.10	238.73
368.30	273.84
368.49	257.46
368.69	234.05
368.89	236.39
369.09	257.46
369.28	287.89
369.48	292.57
369.68	264.48
369.87	301.93
370.07	297.25
370.27	304.27
370.47	299.59
370.66	252.78
370.86	327.68
371.06	369.80
371.25	465.77
371.45	327.68
371.65	456.40
371.84	351.08
372.04	330.02
372.24	402.57
372.44	376.83
372.63	355.76
372.83	451.72
373.03	362.78
373.22	369.80
373.42	325.33
373.62	386.19
373.81	496.19
374.01	454.06
374.21	383.85
374.40	433.00
374.60	381.51
374.79	437.68
374.99	442.36
375.19	442.36
375.38	433.00
375.58	425.98
375.78	404.91
375.97	418.96
376.17	416.62
376.37	458.74
376.56	470.45
376.76	278.52
376.95	416.62
377.15	435.34
377.35	423.64
377.54	372.15
377.74	369.80
377.93	421.30
378.13	381.51
378.33	388.53
378.52	447.04
378.72	451.72
378.91	435.34
379.11	376.83
379.31	428.32
379.50	390.87
379.70	468.11
379.89	425.98
380.09	411.93
380.28	390.87
380.48	369.80
380.68	416.62
380.87	393.21
381.07	360.44
381.26	519.60
381.46	390.87
381.65	376.83
381.85	400.23
382.04	421.30
382.24	442.36
382.43	376.83
382.63	337.04
382.83	383.85
383.02	407.25
383.22	379.17
383.41	442.36
383.61	360.44
383.80	414.27
384.00	414.27
384.19	414.27
384.39	402.57
384.58	449.38
384.78	395.55
384.97	388.53
385.17	475.13
385.36	348.74
385.56	512.58
385.75	351.08
385.95	428.32
386.14	418.96
386.34	435.34
386.53	440.02
386.72	451.72
386.92	423.64
387.11	458.74
387.31	430.66
387.50	367.46
387.70	283.20
387.89	409.59
388.09	447.04
388.28	379.17
388.48	400.23
388.67	449.38
388.86	379.17
389.06	367.46
389.25	442.36
389.45	454.06
389.64	411.93
389.84	407.25
390.03	430.66
390.22	395.55
390.42	372.15
390.61	390.87
390.81	402.57
391.00	470.45
391.19	470.45
391.39	393.21
391.58	397.89
391.78	365.12
391.97	414.27
392.16	411.93
392.36	444.70
392.55	465.77
392.75	442.36
392.94	353.42
393.13	388.53
393.33	400.23
393.52	404.91
393.71	409.59
393.91	447.04
394.10	404.91
394.29	437.68
394.49	404.91
394.68	444.70
394.88	346.40
395.07	454.06
395.26	416.62
395.46	440.02
395.65	421.30
395.84	451.72
396.04	409.59
396.23	433.00
396.42	416.62
396.62	358.10
396.81	402.57
397.00	388.53
397.19	411.93
397.39	304.27
397.58	411.93
397.77	423.64
397.97	404.91
398.16	388.53
398.35	346.40
398.55	367.46
398.74	444.70
398.93	425.98
399.12	400.23
399.32	465.77
399.51	440.02
399.70	423.64
399.90	418.96
400.09	397.89
400.28	440.02
400.47	372.15
400.67	402.57
400.86	402.57
401.05	451.72
401.24	341.72
401.44	433.00
401.63	362.78
401.82	395.55
402.01	421.30
402.21	447.04
402.40	449.38
402.59	332.36
402.78	369.80
402.97	383.85
403.17	475.13
403.36	381.51
403.55	411.93
403.74	411.93
403.93	388.53
404.13	491.51
404.32	454.06
404.51	442.36
404.70	423.64
404.89	374.49
405.09	421.30
405.28	407.25
405.47	393.21
405.66	472.79
405.85	444.70
406.05	425.98
406.24	383.85
406.43	390.87
406.62	390.87
406.81	402.57
407.00	402.57
407.20	381.51
407.39	393.21
407.58	386.19
407.77	425.98
407.96	435.34
408.15	479.81
408.34	461.09
408.54	421.30
408.73	369.80
408.92	376.83
409.11	365.12
409.30	447.04
409.49	411.93
409.68	402.57
409.87	374.49
410.07	400.23
410.26	346.40
410.45	332.36
410.64	444.70
410.83	358.10
411.02	416.62
411.21	416.62
411.40	437.68
411.59	442.36
411.78	409.59
411.98	423.64
412.17	444.70
412.36	440.02
412.55	374.49
412.74	379.17
412.93	428.32
413.12	416.62
413.31	346.40
413.50	472.79
413.69	383.85
413.88	484.49
414.07	411.93
414.26	334.70
414.45	402.57
414.64	458.74
414.83	404.91
415.02	449.38
415.22	418.96
415.41	435.34
415.60	442.36
415.79	367.46
415.98	475.13
416.17	341.72
416.36	465.77
416.55	489.17
416.74	409.59
416.93	383.85
417.12	390.87
417.31	442.36
417.50	388.53
417.69	404.91
417.88	418.96
418.07	444.70
418.26	367.46
418.45	402.57
418.64	444.70
418.83	451.72
419.02	381.51
419.21	381.51
419.39	379.17
419.58	402.57
419.77	374.49
419.96	400.23
420.15	372.15
420.34	423.64
420.53	346.40
420.72	395.55
420.91	409.59
421.10	360.44
421.29	407.25
421.48	362.78
421.67	496.19
421.86	425.98
422.05	435.34
422.24	503.22
422.43	435.34
422.61	421.30
422.80	381.51
422.99	381.51
423.18	374.49
423.37	393.21
423.56	463.43
423.75	409.59
423.94	449.38
424.13	365.12
424.32	435.34
424.50	397.89
424.69	397.89
424.88	458.74
425.07	421.30
425.26	440.02
425.45	383.85
425.64	463.43
425.83	493.85
426.01	484.49
426.20	416.62
426.39	458.74
426.58	327.68
426.77	430.66
426.96	447.04
427.15	369.80
427.33	472.79
427.52	390.87
427.71	444.70
427.90	447.04
428.09	430.66
428.28	397.89
428.46	355.76
428.65	437.68
428.84	402.57
429.03	437.68
429.22	404.91
429.40	330.02
429.59	425.98
429.78	470.45
429.97	407.25
430.16	414.27
430.34	397.89
430.53	351.08
430.72	388.53
430.91	449.38
431.10	381.51
431.28	489.17
431.47	484.49
431.66	416.62
431.85	425.98
432.03	472.79
432.22	477.47
432.41	397.89
432.60	472.79
432.79	395.55
432.97	414.27
433.16	430.66
433.35	367.46
433.54	421.30
433.72	362.78
433.91	423.64
434.10	456.40
434.28	477.47
434.47	376.83
434.66	449.38
434.85	465.77
435.03	386.19
435.22	435.34
435.41	404.91
435.59	381.51
435.78	383.85
435.97	376.83
436.16	482.15
436.34	407.25
436.53	383.85
436.72	376.83
436.90	454.06
437.09	526.62
437.28	334.70
437.46	344.06
437.65	463.43
437.84	414.27
438.02	280.86
438.21	381.51
438.40	404.91
438.58	418.96
438.77	414.27
438.96	447.04
439.14	435.34
439.33	390.87
439.52	437.68
439.70	461.09
439.89	381.51
440.08	388.53
440.26	440.02
440.45	421.30
440.63	423.64
440.82	433.00
441.01	402.57
441.19	423.64
441.38	402.57
441.57	388.53
441.75	425.98
441.94	475.13
442.12	472.79
442.31	440.02
442.50	444.70
442.68	390.87
442.87	421.30
443.05	411.93
443.24	369.80
443.43	353.42
443.61	428.32
443.80	456.40
443.98	369.80
444.17	442.36
444.35	454.06
444.54	381.51
444.73	383.85
444.91	414.27
445.10	386.19
445.28	428.32
445.47	477.47
445.65	379.17
445.84	348.74
446.02	355.76
446.21	395.55
446.39	416.62
446.58	475.13
446.77	414.27
446.95	407.25
447.14	397.89
447.32	409.59
447.51	418.96
447.69	411.93
447.88	353.42
448.06	400.23
448.25	461.09
448.43	456.40
448.62	407.25
448.80	383.85
448.99	416.62
449.17	407.25
449.36	430.66
449.54	393.21
449.73	362.78
449.91	362.78
450.10	470.45
450.28	454.06
450.46	479.81
450.65	430.66
450.83	503.22
451.02	365.12
451.20	428.32
451.39	360.44
451.57	395.55
451.76	414.27
451.94	390.87
452.13	486.83
452.31	468.11
452.49	496.19
452.68	409.59
452.86	475.13
453.05	414.27
453.23	433.00
453.42	337.04
453.60	477.47
453.78	510.24
453.97	423.64
454.15	505.56
454.34	404.91
454.52	416.62
454.70	454.06
454.89	425.98
455.07	414.27
455.26	461.09
455.44	491.51
455.62	461.09
455.81	390.87
455.99	437.68
456.17	428.32
456.36	440.02
456.54	423.64
456.73	393.21
456.91	379.17
457.09	425.98
457.28	447.04
457.46	442.36
457.64	489.17
457.83	379.17
458.01	451.72
458.19	374.49
458.38	400.23
458.56	468.11
458.74	430.66
458.93	360.44
459.11	435.34
459.29	451.72
459.48	428.32
459.66	449.38
459.84	386.19
460.03	477.47
460.21	425.98
460.39	400.23
460.57	411.93
460.76	493.85
460.94	381.51
461.12	425.98
461.31	430.66
461.49	355.76
461.67	355.76
461.85	461.09
462.04	397.89
462.22	770.04
462.40	484.49
462.59	411.93
462.77	454.06
462.95	395.55
463.13	407.25
463.32	437.68
463.50	322.99
463.68	437.68
463.86	421.30
464.05	409.59
464.23	533.64
464.41	470.45
464.59	454.06
464.78	454.06
464.96	353.42
465.14	374.49
465.32	414.27
465.50	395.55
465.69	395.55
465.87	388.53
466.05	423.64
466.23	428.32
466.41	411.93
466.60	365.12
466.78	449.38
466.96	381.51
467.14	416.62
467.32	421.30
467.51	414.27
467.69	423.64
467.87	456.40
468.05	425.98
468.23	465.77
468.41	423.64
468.60	425.98
468.78	440.02
468.96	400.23
469.14	435.34
469.32	437.68
469.50	379.17
469.69	365.12
469.87	458.74
470.05	402.57
470.23	442.36
470.41	414.27
470.59	330.02
470.77	386.19
470.95	421.30
471.14	381.51
471.32	325.33
471.50	402.57
471.68	320.65
471.86	456.40
472.04	341.72
472.22	440.02
472.40	379.17
472.58	395.55
472.77	416.62
472.95	418.96
473.13	353.42
473.31	470.45
473.49	390.87
473.67	435.34
473.85	367.46
474.03	395.55
474.21	393.21
474.39	407.25
474.57	451.72
474.75	437.68
474.93	379.17
475.12	409.59
475.30	393.21
475.48	381.51
475.66	393.21
475.84	409.59
476.02	388.53
476.20	458.74
476.38	416.62
476.56	482.15
476.74	444.70
476.92	479.81
477.10	409.59
477.28	479.81
477.46	423.64
477.64	374.49
477.82	414.27
478.00	386.19
478.18	440.02
478.36	414.27
478.54	409.59
478.72	388.53
478.90	407.25
479.08	447.04
479.26	461.09
479.44	346.40
479.62	437.68
479.80	351.08
479.98	451.72
480.16	425.98
480.34	381.51
480.52	390.87
480.70	360.44
480.88	433.00
481.06	388.53
481.24	395.55
481.41	440.02
481.59	468.11
481.77	418.96
481.95	411.93
482.13	418.96
482.31	442.36
482.49	444.70
482.67	430.66
482.85	367.46
483.03	447.04
483.21	416.62
483.39	362.78
483.57	407.25
483.74	458.74
483.92	423.64
484.10	362.78
484.28	404.91
484.46	475.13
484.64	362.78
484.82	386.19
485.00	463.43
485.18	367.46
485.35	444.70
485.53	393.21
485.71	444.70
485.89	454.06
486.07	414.27
486.25	393.21
486.43	411.93
486.61	425.98
486.78	397.89
486.96	360.44
487.14	435.34
487.32	402.57
487.50	376.83
487.68	461.09
487.85	425.98
488.03	486.83
488.21	444.70
488.39	390.87
488.57	411.93
488.75	416.62
488.92	489.17
489.10	440.02
489.28	503.22
489.46	428.32
489.64	433.00
489.81	400.23
489.99	468.11
490.17	416.62
490.35	496.19
490.53	376.83
490.70	397.89
490.88	475.13
491.06	447.04
491.24	421.30
491.41	428.32
491.59	407.25
491.77	416.62
491.95	386.19
492.13	423.64
492.30	465.77
492.48	407.25
492.66	393.21
492.84	409.59
493.01	449.38
493.19	388.53
493.37	472.79
493.54	449.38
493.72	395.55
493.90	402.57
494.08	344.06
494.25	468.11
494.43	451.72
494.61	388.53
494.79	355.76
494.96	348.74
495.14	458.74
495.32	416.62
495.49	365.12
495.67	348.74
495.85	388.53
496.02	465.77
496.20	381.51
496.38	376.83
496.55	421.30
496.73	416.62
496.91	395.55
497.09	395.55
497.26	353.42
497.44	374.49
497.62	369.80
497.79	407.25
497.97	416.62
498.14	351.08
498.32	407.25
498.50	425.98
498.67	491.51
498.85	416.62
499.03	461.09
499.20	390.87
499.38	425.98
499.56	503.22
499.73	435.34
499.91	444.70
500.08	411.93
500.26	447.04
500.44	472.79
500.61	376.83
500.79	475.13
500.97	388.53
501.14	430.66
501.32	428.32
501.49	425.98
501.67	423.64
501.84	365.12
502.02	386.19
502.20	543.00
502.37	425.98
502.55	444.70
502.72	465.77
502.90	491.51
503.07	451.72
503.25	454.06
503.43	411.93
503.60	400.23
503.78	404.91
503.95	435.34
504.13	374.49
504.30	388.53
504.48	440.02
504.65	414.27
504.83	437.68
505.01	433.00
505.18	365.12
505.36	470.45
505.53	372.15
505.71	339.38
505.88	447.04
506.06	517.26
506.23	449.38
506.41	393.21
506.58	468.11
506.76	430.66
506.93	381.51
507.11	395.55
507.28	416.62
507.46	372.15
507.63	479.81
507.81	533.64
507.98	435.34
508.16	423.64
508.33	365.12
508.50	468.11
508.68	393.21
508.85	362.78
509.03	409.59
509.20	463.43
509.38	402.57
509.55	381.51
509.73	475.13
509.90	428.32
510.08	414.27
510.25	444.70
510.42	386.19
510.60	362.78
510.77	414.27
510.95	454.06
511.12	444.70
511.30	447.04
511.47	425.98
511.64	449.38
511.82	428.32
511.99	379.17
512.17	372.15
512.34	411.93
512.51	376.83
512.69	369.80
512.86	447.04
513.04	423.64
513.21	414.27
513.38	463.43
513.56	454.06
513.73	440.02
513.90	376.83
514.08	402.57
514.25	458.74
514.43	472.79
514.60	440.02
514.77	414.27
514.95	472.79
515.12	407.25
515.29	411.93
515.47	425.98
515.64	465.77
515.81	428.32
515.99	484.49
516.16	444.70
516.33	421.30
516.51	430.66
516.68	472.79
516.85	470.45
517.03	379.17
517.20	437.68
517.37	437.68
517.54	430.66
517.72	425.98
517.89	430.66
518.06	479.81
518.24	482.15
518.41	463.43
518.58	468.11
518.75	390.87
518.93	440.02
519.10	348.74
519.27	437.68
519.45	294.91
519.62	421.30
519.79	402.57
519.96	383.85
520.14	397.89
520.31	470.45
520.48	418.96
520.65	409.59
520.83	519.60
521.00	456.40
521.17	421.30
521.34	468.11
521.52	486.83
521.69	372.15
521.86	402.57
522.03	486.83
522.20	451.72
522.38	416.62
522.55	454.06
522.72	402.57
522.89	458.74
523.07	411.93
523.24	404.91
523.41	411.93
523.58	442.36
523.75	430.66
523.92	416.62
524.10	521.94
524.27	463.43
524.44	395.55
524.61	482.15
524.78	463.43
524.96	433.00
525.13	376.83
525.30	444.70
525.47	479.81
525.64	411.93
525.81	400.23
525.98	407.25
526.16	414.27
526.33	400.23
526.50	447.04
526.67	423.64
526.84	390.87
527.01	414.27
527.18	381.51
527.36	423.64
527.53	381.51
527.70	449.38
527.87	416.62
528.04	433.00
528.21	411.93
528.38	454.06
528.55	479.81
528.72	468.11
528.89	393.21
529.07	315.97
529.24	414.27
529.41	402.57
529.58	458.74
529.75	388.53
529.92	456.40
530.09	315.97
530.26	358.10
530.43	388.53
530.60	379.17
530.77	416.62
530.94	397.89
531.11	402.57
531.28	451.72
531.46	374.49
531.63	423.64
531.80	381.51
531.97	400.23
532.14	440.02
532.31	475.13
532.48	393.21
532.65	404.91
532.82	407.25
532.99	362.78
533.16	362.78
533.33	456.40
533.50	409.59
533.67	428.32
533.84	510.24
534.01	489.17
534.18	451.72
534.35	362.78
534.52	444.70
534.69	423.64
534.86	418.96
535.03	423.64
535.20	390.87
535.37	451.72
535.54	393.21
535.71	493.85
535.88	503.22
536.05	493.85
536.22	447.04
536.38	327.68
536.55	425.98
536.72	461.09
536.89	425.98
537.06	390.87
537.23	358.10
537.40	421.30
537.57	421.30
537.74	430.66
537.91	369.80
538.08	423.64
538.25	367.46
538.42	404.91
538.59	330.02
538.75	416.62
538.92	351.08
539.09	418.96
539.26	337.04
539.43	484.49
539.60	388.53
539.77	433.00
539.94	449.38
540.11	411.93
540.28	397.89
540.44	449.38
540.61	374.49
540.78	468.11
540.95	418.96
541.12	423.64
541.29	395.55
541.46	425.98
541.62	416.62
541.79	451.72
541.96	435.34
542.13	402.57
542.30	423.64
542.47	528.96
542.63	404.91
542.80	409.59
542.97	428.32
543.14	393.21
543.31	414.27
543.48	402.57
543.64	444.70
543.81	447.04
543.98	397.89
544.15	435.34
544.32	337.04
544.48	337.04
544.65	414.27
544.82	374.49
544.99	440.02
545.16	369.80
545.32	320.65
545.49	414.27
545.66	416.62
545.83	344.06
546.00	458.74
546.16	386.19
546.33	425.98
546.50	383.85
546.67	456.40
546.83	493.85
547.00	482.15
547.17	360.44
547.34	428.32
547.50	393.21
547.67	482.15
547.84	407.25
548.00	486.83
548.17	418.96
548.34	491.51
548.51	433.00
548.67	421.30
548.84	435.34
549.01	393.21
549.18	500.87
549.34	416.62
549.51	397.89
549.68	437.68
549.84	442.36
550.01	470.45
550.18	477.47
550.34	402.57
550.51	355.76
550.68	470.45
550.84	465.77
551.01	468.11
551.18	444.70
551.34	376.83
551.51	308.95
551.68	430.66
551.84	484.49
552.01	376.83
552.18	433.00
552.34	435.34
552.51	456.40
552.68	430.66
552.84	503.22
553.01	367.46
553.18	428.32
553.34	355.76
553.51	369.80
553.67	416.62
553.84	451.72
554.01	465.77
554.17	362.78
554.34	388.53
554.51	411.93
554.67	461.09
554.84	409.59
555.00	437.68
555.17	414.27
555.33	461.09
555.50	484.49
555.67	402.57
555.83	472.79
556.00	440.02
556.16	507.90
556.33	423.64
556.50	383.85
556.66	393.21
556.83	400.23
556.99	381.51
557.16	376.83
557.32	428.32
557.49	461.09
557.65	411.93
557.82	442.36
557.98	400.23
558.15	383.85
558.32	428.32
558.48	388.53
558.65	500.87
558.81	416.62
558.98	449.38
559.14	425.98
559.31	430.66
559.47	428.32
559.64	390.87
559.80	360.44
559.97	402.57
560.13	465.77
560.30	425.98
560.46	362.78
560.63	395.55
560.79	397.89
560.96	379.17
561.12	386.19
561.29	395.55
561.45	374.49
561.61	411.93
561.78	456.40
561.94	484.49
562.11	447.04
562.27	444.70
562.44	423.64
562.60	451.72
562.77	372.15
562.93	463.43
563.10	435.34
563.26	407.25
563.42	407.25
563.59	337.04
563.75	454.06
563.92	454.06
564.08	465.77
564.24	376.83
564.41	444.70
564.57	390.87
564.74	397.89
564.90	409.59
565.07	386.19
565.23	421.30
565.39	430.66
565.56	444.70
565.72	416.62
565.88	404.91
566.05	365.12
566.21	451.72
566.38	386.19
566.54	430.66
566.70	411.93
566.87	365.12
567.03	421.30
567.19	402.57
567.36	411.93
567.52	458.74
567.68	463.43
567.85	421.30
568.01	430.66
568.17	456.40
568.34	402.57
568.50	505.56
568.66	423.64
568.83	461.09
568.99	397.89
569.15	468.11
569.32	395.55
569.48	355.76
569.64	355.76
569.81	369.80
569.97	404.91
570.13	430.66
570.30	402.57
570.46	320.65
570.62	430.66
570.78	435.34
570.95	428.32
571.11	512.58
571.27	461.09
571.43	369.80
571.60	433.00
571.76	456.40
571.92	421.30
572.09	433.00
572.25	367.46
572.41	472.79
572.57	423.64
572.74	458.74
572.90	430.66
573.06	369.80
573.22	421.30
573.38	442.36
573.55	407.25
573.71	442.36
573.87	491.51
574.03	456.40
574.20	425.98
574.36	465.77
574.52	402.57
574.68	425.98
574.84	435.34
575.01	423.64
575.17	477.47
575.33	437.68
575.49	503.22
575.65	433.00
575.82	383.85
575.98	440.02
576.14	372.15
576.30	454.06
576.46	463.43
576.62	440.02
576.79	454.06
576.95	468.11
577.11	369.80
577.27	348.74
577.43	477.47
577.59	458.74
577.75	447.04
577.92	411.93
578.08	409.59
578.24	348.74
578.40	404.91
578.56	491.51
578.72	468.11
578.88	416.62
579.04	465.77
579.21	400.23
579.37	465.77
579.53	468.11
579.69	456.40
579.85	393.21
580.01	454.06
580.17	423.64
580.33	414.27
580.49	482.15
580.65	468.11
580.82	414.27
580.98	402.57
581.14	451.72
581.30	440.02
581.46	493.85
581.62	402.57
581.78	381.51
581.94	458.74
582.10	351.08
582.26	454.06
582.42	407.25
582.58	402.57
582.74	414.27
582.90	390.87
583.06	475.13
583.22	465.77
583.38	376.83
583.54	372.15
583.70	475.13
583.86	428.32
584.02	442.36
584.18	463.43
584.34	449.38
584.50	411.93
584.66	435.34
584.82	339.38
584.98	341.72
585.14	416.62
585.30	367.46
585.46	430.66
585.62	362.78
585.78	484.49
585.94	433.00
586.10	451.72
586.26	421.30
586.42	442.36
586.58	477.47
586.74	404.91
586.90	430.66
587.06	386.19
587.22	407.25
587.38	348.74
587.54	397.89
587.70	425.98
587.86	451.72
588.02	423.64
588.18	397.89
588.34	447.04
588.49	362.78
588.65	339.38
588.81	454.06
588.97	397.89
589.13	376.83
589.29	447.04
589.45	500.87
589.61	386.19
589.77	468.11
589.93	402.57
590.08	451.72
590.24	442.36
590.40	402.57
590.56	425.98
590.72	390.87
590.88	367.46
591.04	407.25
591.20	475.13
591.35	409.59
591.51	430.66
591.67	430.66
591.83	402.57
591.99	456.40
592.15	393.21
592.31	379.17
592.46	379.17
592.62	468.11
592.78	461.09
592.94	425.98
593.10	444.70
593.26	428.32
593.41	472.79
593.57	327.68
593.73	407.25
593.89	416.62
594.05	383.85
594.20	341.72
594.36	407.25
594.52	444.70
594.68	472.79
594.84	418.96
594.99	411.93
595.15	440.02
595.31	337.04
595.47	470.45
595.62	454.06
595.78	395.55
595.94	491.51
596.10	388.53
596.25	362.78
596.41	435.34
596.57	414.27
596.73	395.55
596.88	454.06
597.04	390.87
597.20	372.15
597.36	470.45
597.51	472.79
597.67	400.23
597.83	407.25
597.99	442.36
598.14	468.11
598.30	425.98
598.46	367.46
598.61	465.77
598.77	503.22
598.93	433.00
599.09	402.57
599.24	358.10
599.40	407.25
599.56	393.21
599.71	484.49
599.87	418.96
600.03	411.93
600.18	383.85
600.34	383.85
600.50	430.66
600.65	355.76
600.81	414.27
600.97	393.21
601.12	477.47
601.28	442.36
601.44	400.23
601.59	414.27
601.75	386.19
601.91	428.32
602.06	355.76
602.22	442.36
602.37	416.62
602.53	449.38
602.69	404.91
602.84	332.36
603.00	451.72
603.16	404.91
603.31	400.23
603.47	404.91
603.62	379.17
603.78	322.99
603.94	444.70
604.09	461.09
604.25	484.49
604.40	416.62
604.56	379.17
604.71	414.27
604.87	433.00
605.03	433.00
605.18	484.49
605.34	433.00
605.49	451.72
605.65	402.57
605.80	355.76
605.96	379.17
606.12	383.85
606.27	465.77
606.43	435.34
606.58	468.11
606.74	400.23
606.89	367.46
607.05	524.28
607.20	395.55
607.36	463.43
607.51	379.17
607.67	376.83
607.82	409.59
607.98	369.80
608.13	461.09
608.29	402.57
608.44	435.34
608.60	341.72
608.75	442.36
608.91	451.72
609.06	470.45
609.22	472.79
609.37	440.02
609.53	451.72
609.68	376.83
609.84	421.30
609.99	411.93
610.15	442.36
