SpectraSuite Data File
++++++++++++++++++++++++++++++++++++
Date: Fri Oct 25 12:10:42 EDT 2013
User: price-jones
Dark Spectrum Present: No
Reference Spectrum Present: No
Number of Sampled Component Spectra: 1
Spectrometers: USB2+H05261
Integration Time (usec): 100000 (USB2+H05261)
Spectra Averaged: 1 (USB2+H05261)
Boxcar Smoothing: 0 (USB2+H05261)
Correct for Electrical Dark: No (USB2+H05261)
Strobe/Lamp Enabled: No (USB2+H05261)
Correct for Detector Non-linearity: No (USB2+H05261)
Correct for Stray Light: No (USB2+H05261)
Number of Pixels in Processed Spectrum: 2048
>>>>>Begin Processed Spectral Data<<<<<
365.73	374.49
365.92	374.49
366.12	374.49
366.32	311.29
366.52	231.71
366.72	269.16
366.91	262.14
367.11	252.78
367.31	252.78
367.51	250.44
367.70	264.48
367.90	262.14
368.10	341.72
368.30	203.63
368.49	299.59
368.69	220.01
368.89	278.52
369.09	191.92
369.28	248.10
369.48	259.80
369.68	191.92
369.87	325.33
370.07	248.10
370.27	381.51
370.47	327.68
370.66	290.23
370.86	348.74
371.06	358.10
371.25	418.96
371.45	383.85
371.65	416.62
371.84	348.74
372.04	372.15
372.24	418.96
372.44	416.62
372.63	388.53
372.83	454.06
373.03	372.15
373.22	430.66
373.42	418.96
373.62	425.98
373.81	395.55
374.01	416.62
374.21	433.00
374.40	381.51
374.60	465.77
374.79	428.32
374.99	407.25
375.19	416.62
375.38	423.64
375.58	507.90
375.78	353.42
375.97	421.30
376.17	444.70
376.37	416.62
376.56	425.98
376.76	458.74
376.95	451.72
377.15	397.89
377.35	440.02
377.54	379.17
377.74	444.70
377.93	418.96
378.13	395.55
378.33	376.83
378.52	449.38
378.72	416.62
378.91	393.21
379.11	437.68
379.31	362.78
379.50	404.91
379.70	468.11
379.89	409.59
380.09	388.53
380.28	421.30
380.48	372.15
380.68	418.96
380.87	365.12
381.07	430.66
381.26	407.25
381.46	374.49
381.65	339.38
381.85	383.85
382.04	395.55
382.24	355.76
382.43	425.98
382.63	397.89
382.83	381.51
383.02	393.21
383.22	482.15
383.41	402.57
383.61	369.80
383.80	395.55
384.00	425.98
384.19	400.23
384.39	358.10
384.58	372.15
384.78	372.15
384.97	390.87
385.17	362.78
385.36	411.93
385.56	278.52
385.75	393.21
385.95	435.34
386.14	407.25
386.34	440.02
386.53	355.76
386.72	414.27
386.92	444.70
387.11	344.06
387.31	414.27
387.50	404.91
387.70	390.87
387.89	327.68
388.09	411.93
388.28	386.19
388.48	395.55
388.67	360.44
388.86	451.72
389.06	390.87
389.25	411.93
389.45	369.80
389.64	393.21
389.84	379.17
390.03	475.13
390.22	344.06
390.42	390.87
390.61	414.27
390.81	397.89
391.00	397.89
391.19	407.25
391.39	449.38
391.58	358.10
391.78	409.59
391.97	407.25
392.16	409.59
392.36	444.70
392.55	435.34
392.75	440.02
392.94	341.72
393.13	475.13
393.33	454.06
393.52	376.83
393.71	416.62
393.91	402.57
394.10	358.10
394.29	311.29
394.49	402.57
394.68	400.23
394.88	451.72
395.07	430.66
395.26	393.21
395.46	479.81
395.65	409.59
395.84	339.38
396.04	411.93
396.23	456.40
396.42	400.23
396.62	402.57
396.81	381.51
397.00	348.74
397.19	395.55
397.39	411.93
397.58	404.91
397.77	372.15
397.97	393.21
398.16	447.04
398.35	400.23
398.55	423.64
398.74	393.21
398.93	383.85
399.12	449.38
399.32	365.12
399.51	362.78
399.70	425.98
399.90	428.32
400.09	374.49
400.28	425.98
400.47	437.68
400.67	358.10
400.86	421.30
401.05	367.46
401.24	388.53
401.44	395.55
401.63	454.06
401.82	416.62
402.01	402.57
402.21	407.25
402.40	379.17
402.59	430.66
402.78	414.27
402.97	367.46
403.17	414.27
403.36	409.59
403.55	358.10
403.74	374.49
403.93	386.19
404.13	456.40
404.32	365.12
404.51	355.76
404.70	402.57
404.89	418.96
405.09	449.38
405.28	440.02
405.47	414.27
405.66	433.00
405.85	407.25
406.05	402.57
406.24	372.15
406.43	449.38
406.62	376.83
406.81	437.68
407.00	388.53
407.20	400.23
407.39	358.10
407.58	381.51
407.77	407.25
407.96	428.32
408.15	428.32
408.34	463.43
408.54	383.85
408.73	400.23
408.92	437.68
409.11	428.32
409.30	428.32
409.49	395.55
409.68	435.34
409.87	428.32
410.07	442.36
410.26	376.83
410.45	348.74
410.64	379.17
410.83	421.30
411.02	477.47
411.21	414.27
411.40	444.70
411.59	407.25
411.78	365.12
411.98	383.85
412.17	409.59
412.36	404.91
412.55	400.23
412.74	379.17
412.93	503.22
413.12	428.32
413.31	407.25
413.50	425.98
413.69	388.53
413.88	416.62
414.07	379.17
414.26	379.17
414.45	442.36
414.64	416.62
414.83	442.36
415.02	524.28
415.22	465.77
415.41	367.46
415.60	367.46
415.79	327.68
415.98	358.10
416.17	327.68
416.36	447.04
416.55	402.57
416.74	362.78
416.93	451.72
417.12	393.21
417.31	402.57
417.50	327.68
417.69	437.68
417.88	348.74
418.07	447.04
418.26	395.55
418.45	421.30
418.64	444.70
418.83	482.15
419.02	397.89
419.21	465.77
419.39	461.09
419.58	372.15
419.77	334.70
419.96	463.43
420.15	386.19
420.34	381.51
420.53	397.89
420.72	404.91
420.91	404.91
421.10	440.02
421.29	407.25
421.48	477.47
421.67	381.51
421.86	416.62
422.05	409.59
422.24	397.89
422.43	381.51
422.61	365.12
422.80	470.45
422.99	421.30
423.18	442.36
423.37	468.11
423.56	409.59
423.75	325.33
423.94	418.96
424.13	374.49
424.32	365.12
424.50	454.06
424.69	402.57
424.88	416.62
425.07	325.33
425.26	376.83
425.45	440.02
425.64	367.46
425.83	388.53
426.01	411.93
426.20	390.87
426.39	423.64
426.58	404.91
426.77	423.64
426.96	390.87
427.15	472.79
427.33	421.30
427.52	372.15
427.71	402.57
427.90	374.49
428.09	360.44
428.28	386.19
428.46	433.00
428.65	374.49
428.84	404.91
429.03	433.00
429.22	365.12
429.40	449.38
429.59	447.04
429.78	411.93
429.97	407.25
430.16	315.97
430.34	414.27
430.53	386.19
430.72	425.98
430.91	360.44
431.10	388.53
431.28	449.38
431.47	395.55
431.66	381.51
431.85	440.02
432.03	440.02
432.22	498.53
432.41	381.51
432.60	414.27
432.79	397.89
432.97	454.06
433.16	468.11
433.35	456.40
433.54	409.59
433.72	388.53
433.91	411.93
434.10	327.68
434.28	400.23
434.47	388.53
434.66	388.53
434.85	379.17
435.03	486.83
435.22	484.49
435.41	381.51
435.59	360.44
435.78	407.25
435.97	407.25
436.16	425.98
436.34	388.53
436.53	409.59
436.72	428.32
436.90	409.59
437.09	461.09
437.28	390.87
437.46	348.74
437.65	379.17
437.84	411.93
438.02	428.32
438.21	456.40
438.40	383.85
438.58	503.22
438.77	393.21
438.96	442.36
439.14	437.68
439.33	435.34
439.52	430.66
439.70	425.98
439.89	444.70
440.08	397.89
440.26	393.21
440.45	390.87
440.63	484.49
440.82	437.68
441.01	362.78
441.19	386.19
441.38	397.89
441.57	463.43
441.75	451.72
441.94	496.19
442.12	479.81
442.31	458.74
442.50	442.36
442.68	365.12
442.87	477.47
443.05	447.04
443.24	381.51
443.43	402.57
443.61	496.19
443.80	433.00
443.98	435.34
444.17	320.65
444.35	468.11
444.54	386.19
444.73	430.66
444.91	472.79
445.10	390.87
445.28	465.77
445.47	461.09
445.65	409.59
445.84	388.53
446.02	437.68
446.21	411.93
446.39	362.78
446.58	369.80
446.77	489.17
446.95	470.45
447.14	416.62
447.32	416.62
447.51	423.64
447.69	444.70
447.88	397.89
448.06	507.90
448.25	404.91
448.43	482.15
448.62	369.80
448.80	376.83
448.99	404.91
449.17	381.51
449.36	393.21
449.54	493.85
449.73	402.57
449.91	437.68
450.10	414.27
450.28	397.89
450.46	484.49
450.65	402.57
450.83	433.00
451.02	414.27
451.20	402.57
451.39	409.59
451.57	444.70
451.76	341.72
451.94	407.25
452.13	421.30
452.31	454.06
452.49	362.78
452.68	428.32
452.86	362.78
453.05	477.47
453.23	407.25
453.42	327.68
453.60	407.25
453.78	430.66
453.97	383.85
454.15	465.77
454.34	358.10
454.52	381.51
454.70	397.89
454.89	390.87
455.07	383.85
455.26	402.57
455.44	458.74
455.62	425.98
455.81	379.17
455.99	390.87
456.17	449.38
456.36	390.87
456.54	416.62
456.73	383.85
456.91	395.55
457.09	425.98
457.28	442.36
457.46	362.78
457.64	367.46
457.83	388.53
458.01	421.30
458.19	442.36
458.38	400.23
458.56	449.38
458.74	435.34
458.93	416.62
459.11	425.98
459.29	416.62
459.48	465.77
459.66	388.53
459.84	414.27
460.03	472.79
460.21	367.46
460.39	414.27
460.57	461.09
460.76	409.59
460.94	444.70
461.12	461.09
461.31	456.40
461.49	381.51
461.67	369.80
461.85	395.55
462.04	454.06
462.22	840.25
462.40	409.59
462.59	402.57
462.77	407.25
462.95	444.70
463.13	425.98
463.32	402.57
463.50	402.57
463.68	414.27
463.86	409.59
464.05	395.55
464.23	458.74
464.41	437.68
464.59	465.77
464.78	409.59
464.96	367.46
465.14	447.04
465.32	379.17
465.50	421.30
465.69	524.28
465.87	442.36
466.05	437.68
466.23	409.59
466.41	390.87
466.60	463.43
466.78	400.23
466.96	475.13
467.14	386.19
467.32	341.72
467.51	484.49
467.69	475.13
467.87	386.19
468.05	369.80
468.23	393.21
468.41	386.19
468.60	374.49
468.78	458.74
468.96	458.74
469.14	484.49
469.32	360.44
469.50	437.68
469.69	386.19
469.87	402.57
470.05	411.93
470.23	423.64
470.41	390.87
470.59	390.87
470.77	498.53
470.95	440.02
471.14	414.27
471.32	454.06
471.50	456.40
471.68	433.00
471.86	447.04
472.04	437.68
472.22	435.34
472.40	428.32
472.58	465.77
472.77	369.80
472.95	393.21
473.13	423.64
473.31	425.98
473.49	376.83
473.67	390.87
473.85	475.13
474.03	346.40
474.21	430.66
474.39	491.51
474.57	416.62
474.75	369.80
474.93	411.93
475.12	353.42
475.30	397.89
475.48	433.00
475.66	402.57
475.84	428.32
476.02	425.98
476.20	416.62
476.38	402.57
476.56	458.74
476.74	454.06
476.92	449.38
477.10	386.19
477.28	369.80
477.46	421.30
477.64	456.40
477.82	437.68
478.00	404.91
478.18	447.04
478.36	411.93
478.54	379.17
478.72	362.78
478.90	425.98
479.08	400.23
479.26	425.98
479.44	374.49
479.62	360.44
479.80	390.87
479.98	400.23
480.16	458.74
480.34	421.30
480.52	428.32
480.70	407.25
480.88	393.21
481.06	400.23
481.24	390.87
481.41	425.98
481.59	440.02
481.77	470.45
481.95	397.89
482.13	376.83
482.31	454.06
482.49	418.96
482.67	400.23
482.85	435.34
483.03	451.72
483.21	355.76
483.39	454.06
483.57	421.30
483.74	482.15
483.92	425.98
484.10	402.57
484.28	358.10
484.46	468.11
484.64	430.66
484.82	388.53
485.00	451.72
485.18	376.83
485.35	414.27
485.53	449.38
485.71	465.77
485.89	318.31
486.07	449.38
486.25	479.81
486.43	463.43
486.61	404.91
486.78	404.91
486.96	484.49
487.14	386.19
487.32	334.70
487.50	369.80
487.68	402.57
487.85	437.68
488.03	390.87
488.21	472.79
488.39	418.96
488.57	430.66
488.75	411.93
488.92	491.51
489.10	395.55
489.28	414.27
489.46	400.23
489.64	376.83
489.81	449.38
489.99	369.80
490.17	456.40
490.35	531.30
490.53	423.64
490.70	411.93
490.88	447.04
491.06	461.09
491.24	311.29
491.41	416.62
491.59	407.25
491.77	390.87
491.95	395.55
492.13	418.96
492.30	416.62
492.48	411.93
492.66	425.98
492.84	386.19
493.01	440.02
493.19	437.68
493.37	437.68
493.54	456.40
493.72	433.00
493.90	320.65
494.08	463.43
494.25	433.00
494.43	423.64
494.61	428.32
494.79	463.43
494.96	395.55
495.14	400.23
495.32	369.80
495.49	386.19
495.67	430.66
495.85	475.13
496.02	409.59
496.20	428.32
496.38	404.91
496.55	411.93
496.73	404.91
496.91	402.57
497.09	416.62
497.26	374.49
497.44	407.25
497.62	442.36
497.79	461.09
497.97	411.93
498.14	414.27
498.32	337.04
498.50	430.66
498.67	411.93
498.85	414.27
499.03	379.17
499.20	440.02
499.38	428.32
499.56	400.23
499.73	491.51
499.91	433.00
500.08	400.23
500.26	433.00
500.44	381.51
500.61	430.66
500.79	390.87
500.97	451.72
501.14	393.21
501.32	374.49
501.49	395.55
501.67	393.21
501.84	475.13
502.02	404.91
502.20	407.25
502.37	423.64
502.55	428.32
502.72	437.68
502.90	454.06
503.07	397.89
503.25	437.68
503.43	379.17
503.60	374.49
503.78	428.32
503.95	442.36
504.13	440.02
504.30	435.34
504.48	456.40
504.65	409.59
504.83	369.80
505.01	477.47
505.18	411.93
505.36	433.00
505.53	430.66
505.71	358.10
505.88	404.91
506.06	423.64
506.23	437.68
506.41	390.87
506.58	416.62
506.76	440.02
506.93	416.62
507.11	388.53
507.28	437.68
507.46	435.34
507.63	484.49
507.81	477.47
507.98	456.40
508.16	367.46
508.33	372.15
508.50	409.59
508.68	463.43
508.85	365.12
509.03	388.53
509.20	456.40
509.38	402.57
509.55	433.00
509.73	428.32
509.90	454.06
510.08	416.62
510.25	395.55
510.42	379.17
510.60	390.87
510.77	421.30
510.95	407.25
511.12	379.17
511.30	407.25
511.47	393.21
511.64	470.45
511.82	301.93
511.99	404.91
512.17	393.21
512.34	425.98
512.51	430.66
512.69	451.72
512.86	360.44
513.04	402.57
513.21	475.13
513.38	395.55
513.56	414.27
513.73	430.66
513.90	379.17
514.08	430.66
514.25	425.98
514.43	383.85
514.60	437.68
514.77	400.23
514.95	407.25
515.12	397.89
515.29	411.93
515.47	435.34
515.64	454.06
515.81	463.43
515.99	414.27
516.16	397.89
516.33	409.59
516.51	407.25
516.68	390.87
516.85	435.34
517.03	395.55
517.20	472.79
517.37	388.53
517.54	400.23
517.72	383.85
517.89	430.66
518.06	447.04
518.24	472.79
518.41	503.22
518.58	461.09
518.75	449.38
518.93	348.74
519.10	388.53
519.27	433.00
519.45	423.64
519.62	414.27
519.79	369.80
519.96	444.70
520.14	365.12
520.31	512.58
520.48	421.30
520.65	451.72
520.83	421.30
521.00	383.85
521.17	465.77
521.34	376.83
521.52	397.89
521.69	430.66
521.86	416.62
522.03	402.57
522.20	341.72
522.38	423.64
522.55	440.02
522.72	395.55
522.89	458.74
523.07	428.32
523.24	418.96
523.41	468.11
523.58	351.08
523.75	383.85
523.92	390.87
524.10	503.22
524.27	381.51
524.44	503.22
524.61	440.02
524.78	437.68
524.96	496.19
525.13	367.46
525.30	433.00
525.47	395.55
525.64	414.27
525.81	367.46
525.98	430.66
526.16	376.83
526.33	360.44
526.50	496.19
526.67	325.33
526.84	351.08
527.01	369.80
527.18	400.23
527.36	341.72
527.53	374.49
527.70	477.47
527.87	369.80
528.04	486.83
528.21	409.59
528.38	461.09
528.55	486.83
528.72	369.80
528.89	458.74
529.07	423.64
529.24	360.44
529.41	404.91
529.58	425.98
529.75	388.53
529.92	397.89
530.09	402.57
530.26	440.02
530.43	404.91
530.60	362.78
530.77	400.23
530.94	430.66
531.11	355.76
531.28	397.89
531.46	393.21
531.63	475.13
531.80	430.66
531.97	418.96
532.14	465.77
532.31	337.04
532.48	365.12
532.65	444.70
532.82	421.30
532.99	468.11
533.16	470.45
533.33	472.79
533.50	395.55
533.67	465.77
533.84	470.45
534.01	355.76
534.18	423.64
534.35	463.43
534.52	456.40
534.69	404.91
534.86	400.23
535.03	390.87
535.20	507.90
535.37	454.06
535.54	421.30
535.71	381.51
535.88	458.74
536.05	374.49
536.22	418.96
536.38	454.06
536.55	498.53
536.72	458.74
536.89	397.89
537.06	381.51
537.23	477.47
537.40	407.25
537.57	409.59
537.74	437.68
537.91	374.49
538.08	477.47
538.25	519.60
538.42	428.32
538.59	407.25
538.75	393.21
538.92	451.72
539.09	409.59
539.26	430.66
539.43	468.11
539.60	477.47
539.77	395.55
539.94	444.70
540.11	449.38
540.28	421.30
540.44	444.70
540.61	402.57
540.78	379.17
540.95	423.64
541.12	498.53
541.29	388.53
541.46	409.59
541.62	437.68
541.79	418.96
541.96	376.83
542.13	411.93
542.30	348.74
542.47	461.09
542.63	353.42
542.80	346.40
542.97	447.04
543.14	402.57
543.31	447.04
543.48	404.91
543.64	402.57
543.81	397.89
543.98	376.83
544.15	386.19
544.32	414.27
544.48	411.93
544.65	425.98
544.82	341.72
544.99	393.21
545.16	435.34
545.32	386.19
545.49	400.23
545.66	491.51
545.83	437.68
546.00	376.83
546.16	418.96
546.33	393.21
546.50	444.70
546.67	418.96
546.83	372.15
547.00	442.36
547.17	451.72
547.34	437.68
547.50	451.72
547.67	451.72
547.84	379.17
548.00	540.66
548.17	411.93
548.34	369.80
548.51	458.74
548.67	425.98
548.84	397.89
549.01	360.44
549.18	449.38
549.34	458.74
549.51	454.06
549.68	416.62
549.84	376.83
550.01	411.93
550.18	533.64
550.34	465.77
550.51	425.98
550.68	477.47
550.84	416.62
551.01	496.19
551.18	489.17
551.34	393.21
551.51	416.62
551.68	416.62
551.84	407.25
552.01	381.51
552.18	454.06
552.34	463.43
552.51	390.87
552.68	456.40
552.84	479.81
553.01	414.27
553.18	411.93
553.34	381.51
553.51	423.64
553.67	442.36
553.84	510.24
554.01	418.96
554.17	416.62
554.34	421.30
554.51	423.64
554.67	484.49
554.84	470.45
555.00	362.78
555.17	365.12
555.33	360.44
555.50	381.51
555.67	425.98
555.83	400.23
556.00	421.30
556.16	592.16
556.33	503.22
556.50	507.90
556.66	425.98
556.83	402.57
556.99	454.06
557.16	388.53
557.32	472.79
557.49	472.79
557.65	421.30
557.82	416.62
557.98	379.17
558.15	423.64
558.32	365.12
558.48	444.70
558.65	400.23
558.81	470.45
558.98	475.13
559.14	414.27
559.31	421.30
559.47	402.57
559.64	423.64
559.80	367.46
559.97	353.42
560.13	379.17
560.30	409.59
560.46	362.78
560.63	365.12
560.79	407.25
560.96	395.55
561.12	383.85
561.29	442.36
561.45	430.66
561.61	360.44
561.78	465.77
561.94	425.98
562.11	395.55
562.27	362.78
562.44	393.21
562.60	447.04
562.77	437.68
562.93	397.89
563.10	418.96
563.26	425.98
563.42	346.40
563.59	393.21
563.75	416.62
563.92	416.62
564.08	374.49
564.24	376.83
564.41	468.11
564.57	423.64
564.74	365.12
564.90	409.59
565.07	322.99
565.23	369.80
565.39	341.72
565.56	383.85
565.72	444.70
565.88	395.55
566.05	376.83
566.21	348.74
566.38	449.38
566.54	437.68
566.70	360.44
566.87	444.70
567.03	425.98
567.19	404.91
567.36	407.25
567.52	421.30
567.68	365.12
567.85	425.98
568.01	428.32
568.17	425.98
568.34	414.27
568.50	433.00
568.66	397.89
568.83	444.70
568.99	491.51
569.15	447.04
569.32	348.74
569.48	454.06
569.64	353.42
569.81	397.89
569.97	433.00
570.13	472.79
570.30	442.36
570.46	425.98
570.62	402.57
570.78	437.68
570.95	334.70
571.11	407.25
571.27	444.70
571.43	449.38
571.60	451.72
571.76	379.17
571.92	463.43
572.09	428.32
572.25	430.66
572.41	493.85
572.57	428.32
572.74	458.74
572.90	411.93
573.06	390.87
573.22	414.27
573.38	491.51
573.55	430.66
573.71	411.93
573.87	407.25
574.03	409.59
574.20	383.85
574.36	470.45
574.52	421.30
574.68	395.55
574.84	449.38
575.01	407.25
575.17	477.47
575.33	393.21
575.49	470.45
575.65	416.62
575.82	334.70
575.98	451.72
576.14	451.72
576.30	390.87
576.46	456.40
576.62	409.59
576.79	344.06
576.95	421.30
577.11	433.00
577.27	428.32
577.43	416.62
577.59	475.13
577.75	470.45
577.92	416.62
578.08	407.25
578.24	409.59
578.40	402.57
578.56	435.34
578.72	444.70
578.88	430.66
579.04	425.98
579.21	484.49
579.37	423.64
579.53	393.21
579.69	433.00
579.85	409.59
580.01	465.77
580.17	379.17
580.33	383.85
580.49	388.53
580.65	414.27
580.82	470.45
580.98	388.53
581.14	355.76
581.30	376.83
581.46	351.08
581.62	421.30
581.78	440.02
581.94	393.21
582.10	461.09
582.26	402.57
582.42	404.91
582.58	475.13
582.74	416.62
582.90	444.70
583.06	379.17
583.22	400.23
583.38	451.72
583.54	423.64
583.70	353.42
583.86	388.53
584.02	409.59
584.18	409.59
584.34	477.47
584.50	425.98
584.66	404.91
584.82	447.04
584.98	472.79
585.14	461.09
585.30	407.25
585.46	449.38
585.62	407.25
585.78	430.66
585.94	404.91
586.10	388.53
586.26	444.70
586.42	465.77
586.58	383.85
586.74	423.64
586.90	341.72
587.06	437.68
587.22	484.49
587.38	395.55
587.54	421.30
587.70	468.11
587.86	425.98
588.02	430.66
588.18	400.23
588.34	435.34
588.49	374.49
588.65	463.43
588.81	440.02
588.97	440.02
589.13	430.66
589.29	421.30
589.45	435.34
589.61	442.36
589.77	418.96
589.93	381.51
590.08	404.91
590.24	390.87
590.40	425.98
590.56	425.98
590.72	414.27
590.88	379.17
591.04	355.76
591.20	477.47
591.35	428.32
591.51	393.21
591.67	416.62
591.83	411.93
591.99	397.89
592.15	458.74
592.31	402.57
592.46	369.80
592.62	390.87
592.78	421.30
592.94	421.30
593.10	437.68
593.26	407.25
593.41	411.93
593.57	433.00
593.73	416.62
593.89	433.00
594.05	400.23
594.20	379.17
594.36	418.96
594.52	407.25
594.68	433.00
594.84	454.06
594.99	423.64
595.15	386.19
595.31	418.96
595.47	428.32
595.62	468.11
595.78	428.32
595.94	421.30
596.10	458.74
596.25	470.45
596.41	440.02
596.57	430.66
596.73	411.93
596.88	381.51
597.04	418.96
597.20	433.00
597.36	437.68
597.51	353.42
597.67	407.25
597.83	454.06
597.99	472.79
598.14	407.25
598.30	379.17
598.46	348.74
598.61	456.40
598.77	454.06
598.93	416.62
599.09	402.57
599.24	330.02
599.40	458.74
599.56	461.09
599.71	367.46
599.87	395.55
600.03	465.77
600.18	362.78
600.34	339.38
600.50	411.93
600.65	456.40
600.81	491.51
600.97	437.68
601.12	381.51
601.28	423.64
601.44	362.78
601.59	411.93
601.75	337.04
601.91	374.49
602.06	404.91
602.22	444.70
602.37	402.57
602.53	367.46
602.69	507.90
602.84	402.57
603.00	365.12
603.16	418.96
603.31	414.27
603.47	411.93
603.62	330.02
603.78	409.59
603.94	437.68
604.09	440.02
604.25	416.62
604.40	367.46
604.56	470.45
604.71	430.66
604.87	437.68
605.03	437.68
605.18	447.04
605.34	477.47
605.49	365.12
605.65	414.27
605.80	376.83
605.96	425.98
606.12	395.55
606.27	411.93
606.43	491.51
606.58	344.06
606.74	430.66
606.89	395.55
607.05	339.38
607.20	465.77
607.36	418.96
607.51	470.45
607.67	376.83
607.82	437.68
607.98	435.34
608.13	442.36
608.29	465.77
608.44	423.64
608.60	397.89
608.75	423.64
608.91	451.72
609.06	489.17
609.22	482.15
609.37	379.17
609.53	433.00
609.68	393.21
609.84	383.85
609.99	409.59
610.15	484.49
