SpectraSuite Data File
++++++++++++++++++++++++++++++++++++
Date: Fri Oct 25 12:11:14 EDT 2013
User: price-jones
Dark Spectrum Present: No
Reference Spectrum Present: No
Number of Sampled Component Spectra: 1
Spectrometers: USB2+H05261
Integration Time (usec): 100000 (USB2+H05261)
Spectra Averaged: 1 (USB2+H05261)
Boxcar Smoothing: 0 (USB2+H05261)
Correct for Electrical Dark: No (USB2+H05261)
Strobe/Lamp Enabled: No (USB2+H05261)
Correct for Detector Non-linearity: No (USB2+H05261)
Correct for Stray Light: No (USB2+H05261)
Number of Pixels in Processed Spectrum: 2048
>>>>>Begin Processed Spectral Data<<<<<
365.73	416.62
365.92	416.62
366.12	416.62
366.32	259.80
366.52	313.63
366.72	301.93
366.91	220.01
367.11	203.63
367.31	241.08
367.51	205.97
367.70	177.88
367.90	255.12
368.10	236.39
368.30	276.18
368.49	208.31
368.69	306.61
368.89	250.44
369.09	201.29
369.28	313.63
369.48	273.84
369.68	320.65
369.87	290.23
370.07	266.82
370.27	311.29
370.47	393.21
370.66	400.23
370.86	355.76
371.06	358.10
371.25	362.78
371.45	411.93
371.65	451.72
371.84	346.40
372.04	348.74
372.24	393.21
372.44	367.46
372.63	409.59
372.83	397.89
373.03	407.25
373.22	421.30
373.42	461.09
373.62	360.44
373.81	451.72
374.01	440.02
374.21	351.08
374.40	421.30
374.60	433.00
374.79	463.43
374.99	393.21
375.19	400.23
375.38	468.11
375.58	402.57
375.78	393.21
375.97	414.27
376.17	477.47
376.37	463.43
376.56	437.68
376.76	449.38
376.95	418.96
377.15	472.79
377.35	397.89
377.54	454.06
377.74	341.72
377.93	416.62
378.13	414.27
378.33	447.04
378.52	346.40
378.72	447.04
378.91	390.87
379.11	484.49
379.31	425.98
379.50	390.87
379.70	440.02
379.89	416.62
380.09	411.93
380.28	440.02
380.48	421.30
380.68	402.57
380.87	369.80
381.07	463.43
381.26	489.17
381.46	372.15
381.65	386.19
381.85	440.02
382.04	463.43
382.24	418.96
382.43	472.79
382.63	416.62
382.83	409.59
383.02	461.09
383.22	409.59
383.41	334.70
383.61	362.78
383.80	397.89
384.00	447.04
384.19	461.09
384.39	374.49
384.58	353.42
384.78	404.91
384.97	381.51
385.17	442.36
385.36	407.25
385.56	449.38
385.75	407.25
385.95	416.62
386.14	393.21
386.34	355.76
386.53	402.57
386.72	435.34
386.92	388.53
387.11	416.62
387.31	454.06
387.50	395.55
387.70	435.34
387.89	348.74
388.09	383.85
388.28	440.02
388.48	367.46
388.67	437.68
388.86	440.02
389.06	414.27
389.25	449.38
389.45	388.53
389.64	421.30
389.84	341.72
390.03	411.93
390.22	404.91
390.42	425.98
390.61	430.66
390.81	402.57
391.00	367.46
391.19	393.21
391.39	442.36
391.58	449.38
391.78	402.57
391.97	388.53
392.16	414.27
392.36	346.40
392.55	411.93
392.75	411.93
392.94	369.80
393.13	404.91
393.33	341.72
393.52	397.89
393.71	449.38
393.91	428.32
394.10	456.40
394.29	465.77
394.49	374.49
394.68	442.36
394.88	489.17
395.07	414.27
395.26	433.00
395.46	397.89
395.65	433.00
395.84	449.38
396.04	425.98
396.23	388.53
396.42	376.83
396.62	379.17
396.81	409.59
397.00	418.96
397.19	411.93
397.39	430.66
397.58	449.38
397.77	407.25
397.97	416.62
398.16	402.57
398.35	407.25
398.55	451.72
398.74	414.27
398.93	465.77
399.12	430.66
399.32	393.21
399.51	416.62
399.70	479.81
399.90	383.85
400.09	475.13
400.28	437.68
400.47	454.06
400.67	404.91
400.86	383.85
401.05	421.30
401.24	437.68
401.44	440.02
401.63	418.96
401.82	383.85
402.01	395.55
402.21	440.02
402.40	400.23
402.59	437.68
402.78	425.98
402.97	402.57
403.17	416.62
403.36	348.74
403.55	360.44
403.74	402.57
403.93	320.65
404.13	374.49
404.32	428.32
404.51	369.80
404.70	407.25
404.89	407.25
405.09	423.64
405.28	397.89
405.47	416.62
405.66	407.25
405.85	449.38
406.05	416.62
406.24	451.72
406.43	414.27
406.62	414.27
406.81	475.13
407.00	383.85
407.20	440.02
407.39	400.23
407.58	402.57
407.77	484.49
407.96	421.30
408.15	449.38
408.34	400.23
408.54	381.51
408.73	365.12
408.92	414.27
409.11	437.68
409.30	444.70
409.49	402.57
409.68	423.64
409.87	416.62
410.07	407.25
410.26	409.59
410.45	397.89
410.64	393.21
410.83	383.85
411.02	372.15
411.21	435.34
411.40	393.21
411.59	395.55
411.78	430.66
411.98	449.38
412.17	386.19
412.36	433.00
412.55	404.91
412.74	367.46
412.93	437.68
413.12	376.83
413.31	397.89
413.50	425.98
413.69	442.36
413.88	468.11
414.07	409.59
414.26	402.57
414.45	348.74
414.64	383.85
414.83	470.45
415.02	418.96
415.22	376.83
415.41	440.02
415.60	374.49
415.79	381.51
415.98	388.53
416.17	449.38
416.36	341.72
416.55	404.91
416.74	365.12
416.93	440.02
417.12	409.59
417.31	372.15
417.50	341.72
417.69	390.87
417.88	428.32
418.07	395.55
418.26	308.95
418.45	388.53
418.64	458.74
418.83	351.08
419.02	393.21
419.21	428.32
419.39	407.25
419.58	435.34
419.77	400.23
419.96	435.34
420.15	517.26
420.34	433.00
420.53	397.89
420.72	386.19
420.91	435.34
421.10	379.17
421.29	407.25
421.48	458.74
421.67	360.44
421.86	390.87
422.05	388.53
422.24	414.27
422.43	430.66
422.61	390.87
422.80	383.85
422.99	414.27
423.18	381.51
423.37	395.55
423.56	379.17
423.75	425.98
423.94	442.36
424.13	402.57
424.32	381.51
424.50	386.19
424.69	397.89
424.88	397.89
425.07	376.83
425.26	458.74
425.45	381.51
425.64	463.43
425.83	334.70
426.01	437.68
426.20	428.32
426.39	404.91
426.58	433.00
426.77	409.59
426.96	423.64
427.15	376.83
427.33	393.21
427.52	395.55
427.71	421.30
427.90	390.87
428.09	433.00
428.28	463.43
428.46	414.27
428.65	454.06
428.84	402.57
429.03	390.87
429.22	414.27
429.40	414.27
429.59	425.98
429.78	430.66
429.97	416.62
430.16	379.17
430.34	369.80
430.53	372.15
430.72	454.06
430.91	402.57
431.10	381.51
431.28	418.96
431.47	435.34
431.66	472.79
431.85	397.89
432.03	411.93
432.22	428.32
432.41	477.47
432.60	428.32
432.79	400.23
432.97	421.30
433.16	404.91
433.35	463.43
433.54	390.87
433.72	423.64
433.91	454.06
434.10	407.25
434.28	472.79
434.47	381.51
434.66	409.59
434.85	414.27
435.03	379.17
435.22	435.34
435.41	421.30
435.59	442.36
435.78	376.83
435.97	451.72
436.16	430.66
436.34	402.57
436.53	458.74
436.72	512.58
436.90	444.70
437.09	437.68
437.28	447.04
437.46	379.17
437.65	374.49
437.84	383.85
438.02	440.02
438.21	418.96
438.40	414.27
438.58	440.02
438.77	479.81
438.96	395.55
439.14	433.00
439.33	435.34
439.52	381.51
439.70	414.27
439.89	411.93
440.08	442.36
440.26	383.85
440.45	395.55
440.63	425.98
440.82	367.46
441.01	468.11
441.19	367.46
441.38	416.62
441.57	416.62
441.75	470.45
441.94	447.04
442.12	362.78
442.31	425.98
442.50	386.19
442.68	390.87
442.87	430.66
443.05	393.21
443.24	400.23
443.43	402.57
443.61	463.43
443.80	400.23
443.98	418.96
444.17	400.23
444.35	362.78
444.54	437.68
444.73	442.36
444.91	430.66
445.10	425.98
445.28	386.19
445.47	402.57
445.65	437.68
445.84	386.19
446.02	383.85
446.21	475.13
446.39	475.13
446.58	449.38
446.77	404.91
446.95	386.19
447.14	440.02
447.32	456.40
447.51	360.44
447.69	411.93
447.88	425.98
448.06	451.72
448.25	430.66
448.43	428.32
448.62	390.87
448.80	447.04
448.99	418.96
449.17	395.55
449.36	404.91
449.54	449.38
449.73	365.12
449.91	409.59
450.10	353.42
450.28	475.13
450.46	470.45
450.65	442.36
450.83	465.77
451.02	433.00
451.20	395.55
451.39	376.83
451.57	404.91
451.76	400.23
451.94	472.79
452.13	435.34
452.31	423.64
452.49	372.15
452.68	404.91
452.86	367.46
453.05	400.23
453.23	407.25
453.42	365.12
453.60	374.49
453.78	468.11
453.97	411.93
454.15	348.74
454.34	449.38
454.52	411.93
454.70	376.83
454.89	479.81
455.07	414.27
455.26	383.85
455.44	430.66
455.62	435.34
455.81	407.25
455.99	404.91
456.17	458.74
456.36	416.62
456.54	386.19
456.73	468.11
456.91	369.80
457.09	365.12
457.28	376.83
457.46	416.62
457.64	383.85
457.83	325.33
458.01	444.70
458.19	402.57
458.38	404.91
458.56	395.55
458.74	362.78
458.93	472.79
459.11	444.70
459.29	484.49
459.48	479.81
459.66	404.91
459.84	428.32
460.03	456.40
460.21	411.93
460.39	435.34
460.57	376.83
460.76	435.34
460.94	402.57
461.12	475.13
461.31	395.55
461.49	386.19
461.67	425.98
461.85	407.25
462.04	421.30
462.22	720.88
462.40	451.72
462.59	332.36
462.77	421.30
462.95	407.25
463.13	308.95
463.32	393.21
463.50	390.87
463.68	409.59
463.86	418.96
464.05	414.27
464.23	440.02
464.41	430.66
464.59	369.80
464.78	430.66
464.96	463.43
465.14	390.87
465.32	376.83
465.50	386.19
465.69	397.89
465.87	337.04
466.05	367.46
466.23	402.57
466.41	376.83
466.60	407.25
466.78	423.64
466.96	425.98
467.14	454.06
467.32	416.62
467.51	444.70
467.69	475.13
467.87	447.04
468.05	395.55
468.23	418.96
468.41	386.19
468.60	383.85
468.78	486.83
468.96	449.38
469.14	468.11
469.32	425.98
469.50	365.12
469.69	442.36
469.87	458.74
470.05	418.96
470.23	386.19
470.41	407.25
470.59	250.44
470.77	390.87
470.95	463.43
471.14	456.40
471.32	376.83
471.50	416.62
471.68	367.46
471.86	369.80
472.04	449.38
472.22	400.23
472.40	381.51
472.58	358.10
472.77	393.21
472.95	381.51
473.13	449.38
473.31	442.36
473.49	386.19
473.67	461.09
473.85	428.32
474.03	479.81
474.21	428.32
474.39	428.32
474.57	463.43
474.75	444.70
474.93	397.89
475.12	416.62
475.30	376.83
475.48	421.30
475.66	383.85
475.84	425.98
476.02	430.66
476.20	351.08
476.38	390.87
476.56	472.79
476.74	402.57
476.92	379.17
477.10	407.25
477.28	437.68
477.46	475.13
477.64	454.06
477.82	442.36
478.00	414.27
478.18	374.49
478.36	430.66
478.54	404.91
478.72	425.98
478.90	465.77
479.08	407.25
479.26	421.30
479.44	428.32
479.62	430.66
479.80	461.09
479.98	454.06
480.16	381.51
480.34	402.57
480.52	437.68
480.70	463.43
480.88	386.19
481.06	386.19
481.24	416.62
481.41	442.36
481.59	407.25
481.77	409.59
481.95	423.64
482.13	444.70
482.31	430.66
482.49	416.62
482.67	433.00
482.85	379.17
483.03	442.36
483.21	315.97
483.39	430.66
483.57	433.00
483.74	430.66
483.92	376.83
484.10	416.62
484.28	400.23
484.46	414.27
484.64	386.19
484.82	414.27
485.00	423.64
485.18	458.74
485.35	444.70
485.53	416.62
485.71	411.93
485.89	353.42
486.07	400.23
486.25	477.47
486.43	440.02
486.61	322.99
486.78	381.51
486.96	367.46
487.14	435.34
487.32	386.19
487.50	376.83
487.68	447.04
487.85	390.87
488.03	393.21
488.21	404.91
488.39	390.87
488.57	372.15
488.75	461.09
488.92	489.17
489.10	390.87
489.28	500.87
489.46	376.83
489.64	395.55
489.81	407.25
489.99	362.78
490.17	454.06
490.35	402.57
490.53	379.17
490.70	369.80
490.88	440.02
491.06	383.85
491.24	388.53
491.41	503.22
491.59	425.98
491.77	428.32
491.95	402.57
492.13	332.36
492.30	388.53
492.48	383.85
492.66	393.21
492.84	397.89
493.01	454.06
493.19	379.17
493.37	463.43
493.54	461.09
493.72	386.19
493.90	421.30
494.08	404.91
494.25	348.74
494.43	454.06
494.61	423.64
494.79	351.08
494.96	414.27
495.14	423.64
495.32	402.57
495.49	482.15
495.67	397.89
495.85	411.93
496.02	376.83
496.20	510.24
496.38	505.56
496.55	402.57
496.73	428.32
496.91	428.32
497.09	433.00
497.26	351.08
497.44	451.72
497.62	397.89
497.79	454.06
497.97	421.30
498.14	418.96
498.32	430.66
498.50	407.25
498.67	353.42
498.85	409.59
499.03	390.87
499.20	465.77
499.38	369.80
499.56	437.68
499.73	510.24
499.91	447.04
500.08	407.25
500.26	451.72
500.44	421.30
500.61	425.98
500.79	449.38
500.97	423.64
501.14	344.06
501.32	421.30
501.49	402.57
501.67	433.00
501.84	414.27
502.02	369.80
502.20	407.25
502.37	475.13
502.55	388.53
502.72	442.36
502.90	484.49
503.07	421.30
503.25	444.70
503.43	402.57
503.60	358.10
503.78	400.23
503.95	367.46
504.13	416.62
504.30	381.51
504.48	510.24
504.65	421.30
504.83	498.53
505.01	472.79
505.18	454.06
505.36	442.36
505.53	402.57
505.71	367.46
505.88	358.10
506.06	425.98
506.23	395.55
506.41	400.23
506.58	423.64
506.76	414.27
506.93	416.62
507.11	388.53
507.28	397.89
507.46	407.25
507.63	437.68
507.81	369.80
507.98	409.59
508.16	369.80
508.33	379.17
508.50	479.81
508.68	379.17
508.85	437.68
509.03	362.78
509.20	365.12
509.38	433.00
509.55	367.46
509.73	421.30
509.90	484.49
510.08	465.77
510.25	400.23
510.42	381.51
510.60	425.98
510.77	440.02
510.95	461.09
511.12	440.02
511.30	428.32
511.47	435.34
511.64	388.53
511.82	351.08
511.99	346.40
512.17	381.51
512.34	355.76
512.51	372.15
512.69	400.23
512.86	437.68
513.04	449.38
513.21	425.98
513.38	402.57
513.56	388.53
513.73	388.53
513.90	416.62
514.08	395.55
514.25	468.11
514.43	339.38
514.60	421.30
514.77	379.17
514.95	440.02
515.12	402.57
515.29	402.57
515.47	360.44
515.64	388.53
515.81	362.78
515.99	393.21
516.16	463.43
516.33	404.91
516.51	313.63
516.68	461.09
516.85	423.64
517.03	372.15
517.20	425.98
517.37	386.19
517.54	411.93
517.72	442.36
517.89	372.15
518.06	411.93
518.24	402.57
518.41	486.83
518.58	407.25
518.75	402.57
518.93	376.83
519.10	423.64
519.27	416.62
519.45	430.66
519.62	484.49
519.79	390.87
519.96	425.98
520.14	440.02
520.31	433.00
520.48	421.30
520.65	411.93
520.83	367.46
521.00	416.62
521.17	400.23
521.34	397.89
521.52	458.74
521.69	411.93
521.86	388.53
522.03	421.30
522.20	402.57
522.38	381.51
522.55	465.77
522.72	407.25
522.89	433.00
523.07	440.02
523.24	477.47
523.41	463.43
523.58	388.53
523.75	348.74
523.92	374.49
524.10	437.68
524.27	388.53
524.44	428.32
524.61	447.04
524.78	372.15
524.96	346.40
525.13	411.93
525.30	423.64
525.47	437.68
525.64	362.78
525.81	400.23
525.98	484.49
526.16	379.17
526.33	367.46
526.50	381.51
526.67	388.53
526.84	365.12
527.01	458.74
527.18	440.02
527.36	442.36
527.53	430.66
527.70	449.38
527.87	402.57
528.04	486.83
528.21	428.32
528.38	409.59
528.55	461.09
528.72	379.17
528.89	463.43
529.07	430.66
529.24	374.49
529.41	400.23
529.58	383.85
529.75	425.98
529.92	358.10
530.09	407.25
530.26	381.51
530.43	400.23
530.60	400.23
530.77	381.51
530.94	425.98
531.11	404.91
531.28	475.13
531.46	409.59
531.63	400.23
531.80	433.00
531.97	411.93
532.14	484.49
532.31	416.62
532.48	407.25
532.65	461.09
532.82	442.36
532.99	486.83
533.16	407.25
533.33	315.97
533.50	418.96
533.67	409.59
533.84	435.34
534.01	369.80
534.18	416.62
534.35	374.49
534.52	482.15
534.69	496.19
534.86	489.17
535.03	418.96
535.20	423.64
535.37	479.81
535.54	440.02
535.71	381.51
535.88	376.83
536.05	418.96
536.22	423.64
536.38	374.49
536.55	440.02
536.72	451.72
536.89	437.68
537.06	390.87
537.23	442.36
537.40	372.15
537.57	423.64
537.74	524.28
537.91	409.59
538.08	402.57
538.25	409.59
538.42	461.09
538.59	381.51
538.75	428.32
538.92	395.55
539.09	388.53
539.26	430.66
539.43	463.43
539.60	367.46
539.77	437.68
539.94	341.72
540.11	435.34
540.28	449.38
540.44	456.40
540.61	393.21
540.78	414.27
540.95	411.93
541.12	430.66
541.29	404.91
541.46	437.68
541.62	390.87
541.79	395.55
541.96	374.49
542.13	400.23
542.30	332.36
542.47	458.74
542.63	365.12
542.80	400.23
542.97	379.17
543.14	395.55
543.31	383.85
543.48	416.62
543.64	402.57
543.81	463.43
543.98	440.02
544.15	367.46
544.32	383.85
544.48	421.30
544.65	437.68
544.82	404.91
544.99	393.21
545.16	383.85
545.32	393.21
545.49	482.15
545.66	451.72
545.83	454.06
546.00	418.96
546.16	442.36
546.33	409.59
546.50	407.25
546.67	451.72
546.83	484.49
547.00	461.09
547.17	479.81
547.34	430.66
547.50	367.46
547.67	334.70
547.84	358.10
548.00	351.08
548.17	395.55
548.34	411.93
548.51	449.38
548.67	376.83
548.84	353.42
549.01	472.79
549.18	433.00
549.34	435.34
549.51	365.12
549.68	491.51
549.84	458.74
550.01	454.06
550.18	510.24
550.34	540.66
550.51	423.64
550.68	472.79
550.84	379.17
551.01	444.70
551.18	465.77
551.34	409.59
551.51	372.15
551.68	437.68
551.84	379.17
552.01	379.17
552.18	423.64
552.34	444.70
552.51	444.70
552.68	493.85
552.84	395.55
553.01	442.36
553.18	351.08
553.34	365.12
553.51	435.34
553.67	397.89
553.84	447.04
554.01	484.49
554.17	362.78
554.34	400.23
554.51	437.68
554.67	496.19
554.84	418.96
555.00	402.57
555.17	418.96
555.33	418.96
555.50	404.91
555.67	374.49
555.83	388.53
556.00	461.09
556.16	547.69
556.33	421.30
556.50	477.47
556.66	355.76
556.83	416.62
556.99	433.00
557.16	477.47
557.32	423.64
557.49	407.25
557.65	353.42
557.82	409.59
557.98	440.02
558.15	411.93
558.32	388.53
558.48	440.02
558.65	400.23
558.81	414.27
558.98	397.89
559.14	454.06
559.31	440.02
559.47	411.93
559.64	374.49
559.80	484.49
559.97	430.66
560.13	458.74
560.30	465.77
560.46	411.93
560.63	447.04
560.79	423.64
560.96	447.04
561.12	421.30
561.29	447.04
561.45	435.34
561.61	461.09
561.78	440.02
561.94	418.96
562.11	341.72
562.27	430.66
562.44	381.51
562.60	388.53
562.77	449.38
562.93	444.70
563.10	442.36
563.26	397.89
563.42	486.83
563.59	468.11
563.75	409.59
563.92	353.42
564.08	440.02
564.24	402.57
564.41	475.13
564.57	470.45
564.74	367.46
564.90	365.12
565.07	461.09
565.23	442.36
565.39	496.19
565.56	381.51
565.72	463.43
565.88	456.40
566.05	447.04
566.21	407.25
566.38	365.12
566.54	383.85
566.70	397.89
566.87	407.25
567.03	372.15
567.19	376.83
567.36	428.32
567.52	388.53
567.68	498.53
567.85	440.02
568.01	470.45
568.17	327.68
568.34	449.38
568.50	468.11
568.66	430.66
568.83	589.82
568.99	418.96
569.15	411.93
569.32	397.89
569.48	374.49
569.64	421.30
569.81	433.00
569.97	440.02
570.13	418.96
570.30	416.62
570.46	376.83
570.62	346.40
570.78	367.46
570.95	360.44
571.11	421.30
571.27	442.36
571.43	470.45
571.60	433.00
571.76	414.27
571.92	449.38
572.09	435.34
572.25	491.51
572.41	440.02
572.57	381.51
572.74	428.32
572.90	390.87
573.06	482.15
573.22	468.11
573.38	454.06
573.55	390.87
573.71	454.06
573.87	444.70
574.03	489.17
574.20	365.12
574.36	400.23
574.52	344.06
574.68	414.27
574.84	440.02
575.01	428.32
575.17	435.34
575.33	386.19
575.49	379.17
575.65	444.70
575.82	444.70
575.98	463.43
576.14	442.36
576.30	421.30
576.46	397.89
576.62	393.21
576.79	376.83
576.95	423.64
577.11	358.10
577.27	421.30
577.43	379.17
577.59	461.09
577.75	440.02
577.92	402.57
578.08	435.34
578.24	411.93
578.40	479.81
578.56	404.91
578.72	486.83
578.88	498.53
579.04	414.27
579.21	414.27
579.37	418.96
579.53	390.87
579.69	538.32
579.85	386.19
580.01	430.66
580.17	322.99
580.33	454.06
580.49	404.91
580.65	400.23
580.82	383.85
580.98	402.57
581.14	437.68
581.30	524.28
581.46	440.02
581.62	409.59
581.78	409.59
581.94	407.25
582.10	416.62
582.26	320.65
582.42	414.27
582.58	423.64
582.74	404.91
582.90	479.81
583.06	362.78
583.22	461.09
583.38	402.57
583.54	341.72
583.70	468.11
583.86	409.59
584.02	325.33
584.18	456.40
584.34	440.02
584.50	416.62
584.66	374.49
584.82	458.74
584.98	407.25
585.14	430.66
585.30	425.98
585.46	468.11
585.62	456.40
585.78	428.32
585.94	472.79
586.10	409.59
586.26	472.79
586.42	463.43
586.58	397.89
586.74	362.78
586.90	379.17
587.06	355.76
587.22	409.59
587.38	402.57
587.54	421.30
587.70	472.79
587.86	407.25
588.02	397.89
588.18	486.83
588.34	437.68
588.49	400.23
588.65	444.70
588.81	428.32
588.97	388.53
589.13	400.23
589.29	353.42
589.45	425.98
589.61	381.51
589.77	472.79
589.93	428.32
590.08	383.85
590.24	418.96
590.40	372.15
590.56	425.98
590.72	418.96
590.88	430.66
591.04	430.66
591.20	386.19
591.35	435.34
591.51	416.62
591.67	334.70
591.83	397.89
591.99	425.98
592.15	383.85
592.31	423.64
592.46	430.66
592.62	407.25
592.78	442.36
592.94	383.85
593.10	369.80
593.26	374.49
593.41	376.83
593.57	456.40
593.73	423.64
593.89	423.64
594.05	376.83
594.20	449.38
594.36	482.15
594.52	514.92
594.68	393.21
594.84	451.72
594.99	503.22
595.15	442.36
595.31	423.64
595.47	402.57
595.62	437.68
595.78	402.57
595.94	423.64
596.10	489.17
596.25	437.68
596.41	355.76
596.57	461.09
596.73	440.02
596.88	449.38
597.04	376.83
597.20	355.76
597.36	447.04
597.51	428.32
597.67	369.80
597.83	395.55
597.99	456.40
598.14	411.93
598.30	470.45
598.46	423.64
598.61	465.77
598.77	388.53
598.93	430.66
599.09	400.23
599.24	379.17
599.40	465.77
599.56	421.30
599.71	411.93
599.87	468.11
600.03	409.59
600.18	402.57
600.34	409.59
600.50	367.46
600.65	430.66
600.81	346.40
600.97	355.76
601.12	421.30
601.28	458.74
601.44	376.83
601.59	397.89
601.75	449.38
601.91	421.30
602.06	411.93
602.22	479.81
602.37	433.00
602.53	479.81
602.69	486.83
602.84	418.96
603.00	433.00
603.16	414.27
603.31	383.85
603.47	411.93
603.62	404.91
603.78	433.00
603.94	430.66
604.09	463.43
604.25	440.02
604.40	514.92
604.56	449.38
604.71	447.04
604.87	465.77
605.03	449.38
605.18	442.36
605.34	461.09
605.49	437.68
605.65	393.21
605.80	444.70
605.96	402.57
606.12	381.51
606.27	430.66
606.43	397.89
606.58	376.83
606.74	418.96
606.89	339.38
607.05	416.62
607.20	468.11
607.36	339.38
607.51	423.64
607.67	437.68
607.82	379.17
607.98	430.66
608.13	397.89
608.29	365.12
608.44	414.27
608.60	383.85
608.75	393.21
608.91	416.62
609.06	510.24
609.22	402.57
609.37	386.19
609.53	351.08
609.68	393.21
609.84	454.06
609.99	404.91
610.15	479.81
