SpectraSuite Data File
++++++++++++++++++++++++++++++++++++
Date: Fri Oct 25 12:11:03 EDT 2013
User: price-jones
Dark Spectrum Present: No
Reference Spectrum Present: No
Number of Sampled Component Spectra: 1
Spectrometers: USB2+H05261
Integration Time (usec): 100000 (USB2+H05261)
Spectra Averaged: 1 (USB2+H05261)
Boxcar Smoothing: 0 (USB2+H05261)
Correct for Electrical Dark: No (USB2+H05261)
Strobe/Lamp Enabled: No (USB2+H05261)
Correct for Detector Non-linearity: No (USB2+H05261)
Correct for Stray Light: No (USB2+H05261)
Number of Pixels in Processed Spectrum: 2048
>>>>>Begin Processed Spectral Data<<<<<
365.73	407.25
365.92	407.25
366.12	407.25
366.32	311.29
366.52	283.20
366.72	227.03
366.91	264.48
367.11	196.60
367.31	290.23
367.51	255.12
367.70	194.26
367.90	215.33
368.10	241.08
368.30	248.10
368.49	294.91
368.69	238.73
368.89	238.73
369.09	217.67
369.28	264.48
369.48	194.26
369.68	262.14
369.87	372.15
370.07	271.50
370.27	330.02
370.47	367.46
370.66	259.80
370.86	325.33
371.06	416.62
371.25	437.68
371.45	334.70
371.65	358.10
371.84	365.12
372.04	442.36
372.24	475.13
372.44	409.59
372.63	351.08
372.83	472.79
373.03	393.21
373.22	414.27
373.42	451.72
373.62	472.79
373.81	341.72
374.01	472.79
374.21	458.74
374.40	416.62
374.60	475.13
374.79	409.59
374.99	451.72
375.19	456.40
375.38	430.66
375.58	376.83
375.78	416.62
375.97	395.55
376.17	447.04
376.37	395.55
376.56	433.00
376.76	299.59
376.95	404.91
377.15	416.62
377.35	428.32
377.54	388.53
377.74	404.91
377.93	344.06
378.13	404.91
378.33	468.11
378.52	435.34
378.72	437.68
378.91	358.10
379.11	351.08
379.31	386.19
379.50	400.23
379.70	442.36
379.89	449.38
380.09	418.96
380.28	402.57
380.48	374.49
380.68	320.65
380.87	381.51
381.07	437.68
381.26	484.49
381.46	376.83
381.65	433.00
381.85	367.46
382.04	374.49
382.24	449.38
382.43	400.23
382.63	397.89
382.83	393.21
383.02	404.91
383.22	437.68
383.41	404.91
383.61	414.27
383.80	435.34
384.00	418.96
384.19	402.57
384.39	355.76
384.58	390.87
384.78	358.10
384.97	379.17
385.17	423.64
385.36	402.57
385.56	383.85
385.75	418.96
385.95	430.66
386.14	423.64
386.34	372.15
386.53	348.74
386.72	365.12
386.92	440.02
387.11	393.21
387.31	435.34
387.50	388.53
387.70	353.42
387.89	454.06
388.09	428.32
388.28	365.12
388.48	409.59
388.67	442.36
388.86	358.10
389.06	465.77
389.25	430.66
389.45	454.06
389.64	435.34
389.84	397.89
390.03	402.57
390.22	388.53
390.42	376.83
390.61	402.57
390.81	339.38
391.00	404.91
391.19	430.66
391.39	402.57
391.58	444.70
391.78	367.46
391.97	425.98
392.16	381.51
392.36	465.77
392.55	444.70
392.75	409.59
392.94	470.45
393.13	327.68
393.33	449.38
393.52	407.25
393.71	437.68
393.91	367.46
394.10	379.17
394.29	421.30
394.49	381.51
394.68	386.19
394.88	442.36
395.07	442.36
395.26	383.85
395.46	470.45
395.65	456.40
395.84	367.46
396.04	479.81
396.23	456.40
396.42	395.55
396.62	477.47
396.81	393.21
397.00	369.80
397.19	390.87
397.39	400.23
397.58	465.77
397.77	351.08
397.97	425.98
398.16	409.59
398.35	418.96
398.55	372.15
398.74	367.46
398.93	376.83
399.12	433.00
399.32	451.72
399.51	407.25
399.70	409.59
399.90	402.57
400.09	500.87
400.28	365.12
400.47	470.45
400.67	374.49
400.86	442.36
401.05	477.47
401.24	463.43
401.44	372.15
401.63	372.15
401.82	442.36
402.01	367.46
402.21	369.80
402.40	395.55
402.59	447.04
402.78	348.74
402.97	376.83
403.17	430.66
403.36	358.10
403.55	444.70
403.74	367.46
403.93	407.25
404.13	397.89
404.32	388.53
404.51	465.77
404.70	444.70
404.89	379.17
405.09	454.06
405.28	421.30
405.47	454.06
405.66	388.53
405.85	430.66
406.05	397.89
406.24	414.27
406.43	386.19
406.62	451.72
406.81	367.46
407.00	393.21
407.20	334.70
407.39	355.76
407.58	346.40
407.77	416.62
407.96	409.59
408.15	390.87
408.34	435.34
408.54	442.36
408.73	442.36
408.92	381.51
409.11	430.66
409.30	423.64
409.49	402.57
409.68	400.23
409.87	409.59
410.07	444.70
410.26	374.49
410.45	428.32
410.64	393.21
410.83	404.91
411.02	367.46
411.21	404.91
411.40	411.93
411.59	397.89
411.78	344.06
411.98	433.00
412.17	428.32
412.36	411.93
412.55	404.91
412.74	468.11
412.93	479.81
413.12	376.83
413.31	486.83
413.50	388.53
413.69	411.93
413.88	437.68
414.07	372.15
414.26	444.70
414.45	414.27
414.64	381.51
414.83	421.30
415.02	395.55
415.22	451.72
415.41	433.00
415.60	444.70
415.79	528.96
415.98	451.72
416.17	332.36
416.36	397.89
416.55	315.97
416.74	421.30
416.93	376.83
417.12	386.19
417.31	418.96
417.50	425.98
417.69	491.51
417.88	409.59
418.07	393.21
418.26	456.40
418.45	411.93
418.64	451.72
418.83	423.64
419.02	456.40
419.21	383.85
419.39	435.34
419.58	407.25
419.77	421.30
419.96	437.68
420.15	355.76
420.34	327.68
420.53	397.89
420.72	418.96
420.91	365.12
421.10	411.93
421.29	423.64
421.48	409.59
421.67	442.36
421.86	386.19
422.05	454.06
422.24	376.83
422.43	435.34
422.61	416.62
422.80	411.93
422.99	400.23
423.18	341.72
423.37	430.66
423.56	433.00
423.75	418.96
423.94	411.93
424.13	327.68
424.32	374.49
424.50	418.96
424.69	486.83
424.88	402.57
425.07	409.59
425.26	454.06
425.45	365.12
425.64	456.40
425.83	442.36
426.01	428.32
426.20	372.15
426.39	367.46
426.58	388.53
426.77	428.32
426.96	421.30
427.15	442.36
427.33	418.96
427.52	444.70
427.71	433.00
427.90	433.00
428.09	362.78
428.28	365.12
428.46	376.83
428.65	411.93
428.84	416.62
429.03	458.74
429.22	325.33
429.40	369.80
429.59	388.53
429.78	402.57
429.97	386.19
430.16	430.66
430.34	486.83
430.53	388.53
430.72	397.89
430.91	421.30
431.10	409.59
431.28	360.44
431.47	451.72
431.66	395.55
431.85	440.02
432.03	348.74
432.22	468.11
432.41	365.12
432.60	409.59
432.79	397.89
432.97	435.34
433.16	325.33
433.35	390.87
433.54	425.98
433.72	440.02
433.91	400.23
434.10	411.93
434.28	456.40
434.47	344.06
434.66	465.77
434.85	395.55
435.03	437.68
435.22	468.11
435.41	390.87
435.59	411.93
435.78	390.87
435.97	386.19
436.16	433.00
436.34	388.53
436.53	388.53
436.72	421.30
436.90	395.55
437.09	409.59
437.28	386.19
437.46	486.83
437.65	409.59
437.84	437.68
438.02	372.15
438.21	451.72
438.40	416.62
438.58	367.46
438.77	409.59
438.96	404.91
439.14	365.12
439.33	456.40
439.52	379.17
439.70	472.79
439.89	423.64
440.08	393.21
440.26	409.59
440.45	458.74
440.63	376.83
440.82	444.70
441.01	395.55
441.19	437.68
441.38	465.77
441.57	339.38
441.75	372.15
441.94	425.98
442.12	395.55
442.31	409.59
442.50	409.59
442.68	407.25
442.87	440.02
443.05	454.06
443.24	435.34
443.43	414.27
443.61	423.64
443.80	428.32
443.98	472.79
444.17	362.78
444.35	447.04
444.54	409.59
444.73	351.08
444.91	379.17
445.10	334.70
445.28	325.33
445.47	395.55
445.65	425.98
445.84	355.76
446.02	505.56
446.21	500.87
446.39	414.27
446.58	447.04
446.77	393.21
446.95	423.64
447.14	440.02
447.32	489.17
447.51	369.80
447.69	353.42
447.88	397.89
448.06	472.79
448.25	409.59
448.43	393.21
448.62	451.72
448.80	433.00
448.99	442.36
449.17	425.98
449.36	425.98
449.54	383.85
449.73	463.43
449.91	376.83
450.10	418.96
450.28	449.38
450.46	484.49
450.65	447.04
450.83	416.62
451.02	435.34
451.20	397.89
451.39	428.32
451.57	425.98
451.76	456.40
451.94	334.70
452.13	416.62
452.31	458.74
452.49	491.51
452.68	409.59
452.86	407.25
453.05	479.81
453.23	374.49
453.42	463.43
453.60	404.91
453.78	283.20
453.97	390.87
454.15	383.85
454.34	425.98
454.52	409.59
454.70	400.23
454.89	407.25
455.07	351.08
455.26	367.46
455.44	449.38
455.62	318.31
455.81	376.83
455.99	421.30
456.17	475.13
456.36	437.68
456.54	341.72
456.73	442.36
456.91	423.64
457.09	449.38
457.28	451.72
457.46	414.27
457.64	451.72
457.83	390.87
458.01	425.98
458.19	447.04
458.38	444.70
458.56	360.44
458.74	416.62
458.93	395.55
459.11	435.34
459.29	498.53
459.48	388.53
459.66	390.87
459.84	411.93
460.03	496.19
460.21	409.59
460.39	351.08
460.57	463.43
460.76	447.04
460.94	400.23
461.12	423.64
461.31	407.25
461.49	404.91
461.67	418.96
461.85	430.66
462.04	407.25
462.22	758.33
462.40	414.27
462.59	414.27
462.77	397.89
462.95	395.55
463.13	425.98
463.32	374.49
463.50	425.98
463.68	447.04
463.86	470.45
464.05	465.77
464.23	402.57
464.41	407.25
464.59	407.25
464.78	393.21
464.96	365.12
465.14	414.27
465.32	437.68
465.50	428.32
465.69	360.44
465.87	397.89
466.05	395.55
466.23	362.78
466.41	411.93
466.60	337.04
466.78	414.27
466.96	458.74
467.14	454.06
467.32	404.91
467.51	458.74
467.69	411.93
467.87	470.45
468.05	425.98
468.23	468.11
468.41	369.80
468.60	486.83
468.78	430.66
468.96	334.70
469.14	358.10
469.32	418.96
469.50	395.55
469.69	418.96
469.87	425.98
470.05	433.00
470.23	395.55
470.41	425.98
470.59	409.59
470.77	397.89
470.95	414.27
471.14	372.15
471.32	362.78
471.50	369.80
471.68	440.02
471.86	416.62
472.04	425.98
472.22	400.23
472.40	334.70
472.58	346.40
472.77	367.46
472.95	411.93
473.13	482.15
473.31	416.62
473.49	299.59
473.67	451.72
473.85	404.91
474.03	461.09
474.21	428.32
474.39	414.27
474.57	393.21
474.75	383.85
474.93	383.85
475.12	416.62
475.30	379.17
475.48	437.68
475.66	451.72
475.84	465.77
476.02	360.44
476.20	468.11
476.38	383.85
476.56	435.34
476.74	374.49
476.92	369.80
477.10	358.10
477.28	454.06
477.46	402.57
477.64	367.46
477.82	454.06
478.00	423.64
478.18	404.91
478.36	404.91
478.54	381.51
478.72	390.87
478.90	409.59
479.08	404.91
479.26	332.36
479.44	416.62
479.62	404.91
479.80	407.25
479.98	367.46
480.16	444.70
480.34	376.83
480.52	400.23
480.70	444.70
480.88	404.91
481.06	421.30
481.24	451.72
481.41	482.15
481.59	344.06
481.77	411.93
481.95	442.36
482.13	461.09
482.31	372.15
482.49	472.79
482.67	496.19
482.85	454.06
483.03	383.85
483.21	416.62
483.39	395.55
483.57	409.59
483.74	465.77
483.92	456.40
484.10	402.57
484.28	421.30
484.46	468.11
484.64	437.68
484.82	390.87
485.00	425.98
485.18	397.89
485.35	449.38
485.53	447.04
485.71	430.66
485.89	397.89
486.07	393.21
486.25	430.66
486.43	374.49
486.61	451.72
486.78	395.55
486.96	433.00
487.14	400.23
487.32	430.66
487.50	351.08
487.68	407.25
487.85	423.64
488.03	390.87
488.21	451.72
488.39	421.30
488.57	400.23
488.75	433.00
488.92	503.22
489.10	456.40
489.28	409.59
489.46	376.83
489.64	379.17
489.81	468.11
489.99	360.44
490.17	435.34
490.35	433.00
490.53	423.64
490.70	393.21
490.88	444.70
491.06	451.72
491.24	475.13
491.41	365.12
491.59	397.89
491.77	381.51
491.95	421.30
492.13	423.64
492.30	463.43
492.48	409.59
492.66	444.70
492.84	397.89
493.01	451.72
493.19	383.85
493.37	351.08
493.54	458.74
493.72	447.04
493.90	404.91
494.08	358.10
494.25	418.96
494.43	386.19
494.61	395.55
494.79	397.89
494.96	404.91
495.14	421.30
495.32	414.27
495.49	456.40
495.67	463.43
495.85	374.49
496.02	416.62
496.20	367.46
496.38	411.93
496.55	369.80
496.73	440.02
496.91	418.96
497.09	411.93
497.26	484.49
497.44	468.11
497.62	402.57
497.79	425.98
497.97	411.93
498.14	388.53
498.32	325.33
498.50	402.57
498.67	416.62
498.85	482.15
499.03	425.98
499.20	440.02
499.38	428.32
499.56	355.76
499.73	423.64
499.91	360.44
500.08	444.70
500.26	400.23
500.44	411.93
500.61	388.53
500.79	388.53
500.97	444.70
501.14	451.72
501.32	393.21
501.49	425.98
501.67	404.91
501.84	472.79
502.02	376.83
502.20	482.15
502.37	404.91
502.55	451.72
502.72	461.09
502.90	528.96
503.07	372.15
503.25	372.15
503.43	416.62
503.60	390.87
503.78	351.08
503.95	395.55
504.13	355.76
504.30	461.09
504.48	451.72
504.65	482.15
504.83	456.40
505.01	308.95
505.18	414.27
505.36	423.64
505.53	482.15
505.71	376.83
505.88	425.98
506.06	344.06
506.23	421.30
506.41	411.93
506.58	437.68
506.76	409.59
506.93	411.93
507.11	388.53
507.28	409.59
507.46	353.42
507.63	428.32
507.81	351.08
507.98	388.53
508.16	423.64
508.33	458.74
508.50	390.87
508.68	383.85
508.85	395.55
509.03	425.98
509.20	381.51
509.38	358.10
509.55	442.36
509.73	468.11
509.90	477.47
510.08	416.62
510.25	416.62
510.42	409.59
510.60	437.68
510.77	421.30
510.95	472.79
511.12	454.06
511.30	390.87
511.47	440.02
511.64	409.59
511.82	402.57
511.99	430.66
512.17	458.74
512.34	397.89
512.51	449.38
512.69	395.55
512.86	386.19
513.04	348.74
513.21	397.89
513.38	402.57
513.56	449.38
513.73	456.40
513.90	390.87
514.08	351.08
514.25	381.51
514.43	348.74
514.60	475.13
514.77	379.17
514.95	381.51
515.12	416.62
515.29	461.09
515.47	442.36
515.64	437.68
515.81	379.17
515.99	376.83
516.16	423.64
516.33	447.04
516.51	369.80
516.68	449.38
516.85	369.80
517.03	425.98
517.20	465.77
517.37	421.30
517.54	407.25
517.72	454.06
517.89	416.62
518.06	397.89
518.24	416.62
518.41	465.77
518.58	379.17
518.75	348.74
518.93	463.43
519.10	425.98
519.27	308.95
519.45	440.02
519.62	440.02
519.79	442.36
519.96	383.85
520.14	337.04
520.31	461.09
520.48	442.36
520.65	479.81
520.83	437.68
521.00	463.43
521.17	411.93
521.34	407.25
521.52	400.23
521.69	425.98
521.86	395.55
522.03	428.32
522.20	414.27
522.38	465.77
522.55	451.72
522.72	451.72
522.89	402.57
523.07	468.11
523.24	451.72
523.41	376.83
523.58	379.17
523.75	449.38
523.92	362.78
524.10	458.74
524.27	386.19
524.44	332.36
524.61	369.80
524.78	400.23
524.96	465.77
525.13	390.87
525.30	440.02
525.47	440.02
525.64	496.19
525.81	414.27
525.98	407.25
526.16	327.68
526.33	454.06
526.50	376.83
526.67	367.46
526.84	395.55
527.01	418.96
527.18	423.64
527.36	428.32
527.53	449.38
527.70	409.59
527.87	475.13
528.04	425.98
528.21	372.15
528.38	421.30
528.55	435.34
528.72	444.70
528.89	425.98
529.07	418.96
529.24	397.89
529.41	477.47
529.58	381.51
529.75	425.98
529.92	430.66
530.09	346.40
530.26	416.62
530.43	433.00
530.60	367.46
530.77	353.42
530.94	397.89
531.11	355.76
531.28	397.89
531.46	397.89
531.63	447.04
531.80	447.04
531.97	409.59
532.14	468.11
532.31	409.59
532.48	348.74
532.65	421.30
532.82	390.87
532.99	402.57
533.16	425.98
533.33	362.78
533.50	397.89
533.67	372.15
533.84	407.25
534.01	306.61
534.18	425.98
534.35	470.45
534.52	444.70
534.69	458.74
534.86	477.47
535.03	428.32
535.20	421.30
535.37	444.70
535.54	423.64
535.71	322.99
535.88	416.62
536.05	395.55
536.22	414.27
536.38	393.21
536.55	374.49
536.72	454.06
536.89	390.87
537.06	425.98
537.23	409.59
537.40	477.47
537.57	395.55
537.74	514.92
537.91	423.64
538.08	486.83
538.25	451.72
538.42	397.89
538.59	428.32
538.75	390.87
538.92	409.59
539.09	425.98
539.26	400.23
539.43	433.00
539.60	348.74
539.77	369.80
539.94	463.43
540.11	472.79
540.28	442.36
540.44	383.85
540.61	456.40
540.78	407.25
540.95	472.79
541.12	442.36
541.29	383.85
541.46	458.74
541.62	411.93
541.79	383.85
541.96	423.64
542.13	435.34
542.30	365.12
542.47	430.66
542.63	301.93
542.80	442.36
542.97	510.24
543.14	351.08
543.31	351.08
543.48	454.06
543.64	433.00
543.81	433.00
543.98	362.78
544.15	402.57
544.32	404.91
544.48	402.57
544.65	454.06
544.82	442.36
544.99	400.23
545.16	402.57
545.32	341.72
545.49	379.17
545.66	362.78
545.83	409.59
546.00	353.42
546.16	425.98
546.33	365.12
546.50	411.93
546.67	390.87
546.83	458.74
547.00	437.68
547.17	418.96
547.34	407.25
547.50	395.55
547.67	393.21
547.84	433.00
548.00	447.04
548.17	379.17
548.34	362.78
548.51	402.57
548.67	458.74
548.84	374.49
549.01	425.98
549.18	449.38
549.34	369.80
549.51	395.55
549.68	433.00
549.84	442.36
550.01	470.45
550.18	514.92
550.34	437.68
550.51	393.21
550.68	456.40
550.84	416.62
551.01	430.66
551.18	393.21
551.34	435.34
551.51	430.66
551.68	348.74
551.84	416.62
552.01	348.74
552.18	444.70
552.34	489.17
552.51	374.49
552.68	458.74
552.84	503.22
553.01	435.34
553.18	362.78
553.34	379.17
553.51	320.65
553.67	388.53
553.84	397.89
554.01	437.68
554.17	449.38
554.34	437.68
554.51	463.43
554.67	433.00
554.84	390.87
555.00	414.27
555.17	435.34
555.33	430.66
555.50	435.34
555.67	440.02
555.83	381.51
556.00	383.85
556.16	461.09
556.33	461.09
556.50	409.59
556.66	374.49
556.83	425.98
556.99	383.85
557.16	449.38
557.32	421.30
557.49	383.85
557.65	360.44
557.82	327.68
557.98	365.12
558.15	437.68
558.32	447.04
558.48	442.36
558.65	395.55
558.81	428.32
558.98	491.51
559.14	395.55
559.31	409.59
559.47	444.70
559.64	390.87
559.80	388.53
559.97	395.55
560.13	451.72
560.30	379.17
560.46	418.96
560.63	374.49
560.79	444.70
560.96	435.34
561.12	376.83
561.29	409.59
561.45	498.53
561.61	390.87
561.78	458.74
561.94	365.12
562.11	351.08
562.27	409.59
562.44	409.59
562.60	400.23
562.77	402.57
562.93	416.62
563.10	465.77
563.26	421.30
563.42	425.98
563.59	411.93
563.75	304.27
563.92	404.91
564.08	411.93
564.24	428.32
564.41	526.62
564.57	376.83
564.74	425.98
564.90	381.51
565.07	428.32
565.23	472.79
565.39	372.15
565.56	428.32
565.72	388.53
565.88	451.72
566.05	472.79
566.21	402.57
566.38	395.55
566.54	388.53
566.70	388.53
566.87	374.49
567.03	355.76
567.19	411.93
567.36	388.53
567.52	397.89
567.68	465.77
567.85	383.85
568.01	381.51
568.17	348.74
568.34	397.89
568.50	491.51
568.66	440.02
568.83	442.36
568.99	400.23
569.15	475.13
569.32	458.74
569.48	433.00
569.64	383.85
569.81	472.79
569.97	348.74
570.13	433.00
570.30	418.96
570.46	367.46
570.62	440.02
570.78	456.40
570.95	339.38
571.11	381.51
571.27	425.98
571.43	292.57
571.60	402.57
571.76	411.93
571.92	402.57
572.09	428.32
572.25	400.23
572.41	428.32
572.57	381.51
572.74	414.27
572.90	451.72
573.06	458.74
573.22	404.91
573.38	437.68
573.55	404.91
573.71	456.40
573.87	470.45
574.03	409.59
574.20	505.56
574.36	444.70
574.52	414.27
574.68	416.62
574.84	484.49
575.01	388.53
575.17	416.62
575.33	428.32
575.49	440.02
575.65	404.91
575.82	500.87
575.98	461.09
576.14	416.62
576.30	393.21
576.46	418.96
576.62	456.40
576.79	390.87
576.95	489.17
577.11	447.04
577.27	416.62
577.43	454.06
577.59	435.34
577.75	475.13
577.92	461.09
578.08	428.32
578.24	360.44
578.40	421.30
578.56	430.66
578.72	440.02
578.88	458.74
579.04	421.30
579.21	472.79
579.37	388.53
579.53	418.96
579.69	358.10
579.85	433.00
580.01	465.77
580.17	482.15
580.33	428.32
580.49	451.72
580.65	461.09
580.82	425.98
580.98	470.45
581.14	435.34
581.30	411.93
581.46	442.36
581.62	402.57
581.78	430.66
581.94	435.34
582.10	397.89
582.26	435.34
582.42	465.77
582.58	411.93
582.74	458.74
582.90	390.87
583.06	416.62
583.22	376.83
583.38	390.87
583.54	362.78
583.70	486.83
583.86	451.72
584.02	444.70
584.18	404.91
584.34	379.17
584.50	402.57
584.66	390.87
584.82	435.34
584.98	456.40
585.14	402.57
585.30	397.89
585.46	360.44
585.62	402.57
585.78	440.02
585.94	367.46
586.10	395.55
586.26	397.89
586.42	442.36
586.58	433.00
586.74	433.00
586.90	388.53
587.06	404.91
587.22	376.83
587.38	428.32
587.54	402.57
587.70	416.62
587.86	444.70
588.02	435.34
588.18	449.38
588.34	437.68
588.49	430.66
588.65	433.00
588.81	411.93
588.97	435.34
589.13	369.80
589.29	430.66
589.45	425.98
589.61	423.64
589.77	414.27
589.93	351.08
590.08	369.80
590.24	369.80
590.40	430.66
590.56	393.21
590.72	425.98
590.88	404.91
591.04	430.66
591.20	414.27
591.35	397.89
591.51	440.02
591.67	433.00
591.83	381.51
591.99	442.36
592.15	458.74
592.31	444.70
592.46	358.10
592.62	421.30
592.78	470.45
592.94	418.96
593.10	463.43
593.26	374.49
593.41	383.85
593.57	449.38
593.73	383.85
593.89	414.27
594.05	425.98
594.20	372.15
594.36	496.19
594.52	374.49
594.68	397.89
594.84	437.68
594.99	402.57
595.15	435.34
595.31	444.70
595.47	498.53
595.62	416.62
595.78	308.95
595.94	374.49
596.10	440.02
596.25	411.93
596.41	475.13
596.57	407.25
596.73	395.55
596.88	358.10
597.04	379.17
597.20	425.98
597.36	400.23
597.51	428.32
597.67	395.55
597.83	313.63
597.99	393.21
598.14	477.47
598.30	430.66
598.46	400.23
598.61	451.72
598.77	430.66
598.93	393.21
599.09	456.40
599.24	451.72
599.40	428.32
599.56	402.57
599.71	376.83
599.87	440.02
600.03	423.64
600.18	449.38
600.34	526.62
600.50	344.06
600.65	395.55
600.81	449.38
600.97	430.66
601.12	414.27
601.28	470.45
601.44	404.91
601.59	428.32
601.75	475.13
601.91	353.42
602.06	360.44
602.22	407.25
602.37	418.96
602.53	423.64
602.69	423.64
602.84	362.78
603.00	435.34
603.16	500.87
603.31	358.10
603.47	416.62
603.62	407.25
603.78	475.13
603.94	428.32
604.09	440.02
604.25	470.45
604.40	423.64
604.56	440.02
604.71	425.98
604.87	400.23
605.03	365.12
605.18	435.34
605.34	447.04
605.49	402.57
605.65	449.38
605.80	388.53
605.96	440.02
606.12	421.30
606.27	472.79
606.43	444.70
606.58	451.72
606.74	421.30
606.89	393.21
607.05	393.21
607.20	360.44
607.36	397.89
607.51	341.72
607.67	409.59
607.82	449.38
607.98	414.27
608.13	447.04
608.29	393.21
608.44	444.70
608.60	381.51
608.75	456.40
608.91	409.59
609.06	496.19
609.22	416.62
609.37	454.06
609.53	402.57
609.68	402.57
609.84	409.59
609.99	409.59
610.15	395.55
