SpectraSuite Data File
++++++++++++++++++++++++++++++++++++
Date: Fri Oct 25 12:10:36 EDT 2013
User: price-jones
Dark Spectrum Present: No
Reference Spectrum Present: No
Number of Sampled Component Spectra: 1
Spectrometers: USB2+H05261
Integration Time (usec): 100000 (USB2+H05261)
Spectra Averaged: 1 (USB2+H05261)
Boxcar Smoothing: 0 (USB2+H05261)
Correct for Electrical Dark: No (USB2+H05261)
Strobe/Lamp Enabled: No (USB2+H05261)
Correct for Detector Non-linearity: No (USB2+H05261)
Correct for Stray Light: No (USB2+H05261)
Number of Pixels in Processed Spectrum: 2048
>>>>>Begin Processed Spectral Data<<<<<
365.73	355.76
365.92	355.76
366.12	355.76
366.32	189.58
366.52	292.57
366.72	269.16
366.91	271.50
367.11	191.92
367.31	220.01
367.51	189.58
367.70	283.20
367.90	259.80
368.10	238.73
368.30	234.05
368.49	276.18
368.69	248.10
368.89	236.39
369.09	266.82
369.28	337.04
369.48	346.40
369.68	278.52
369.87	280.86
370.07	313.63
370.27	301.93
370.47	273.84
370.66	322.99
370.86	334.70
371.06	374.49
371.25	416.62
371.45	322.99
371.65	360.44
371.84	416.62
372.04	418.96
372.24	418.96
372.44	386.19
372.63	463.43
372.83	458.74
373.03	404.91
373.22	411.93
373.42	353.42
373.62	414.27
373.81	400.23
374.01	444.70
374.21	444.70
374.40	374.49
374.60	402.57
374.79	451.72
374.99	425.98
375.19	479.81
375.38	458.74
375.58	318.31
375.78	404.91
375.97	458.74
376.17	463.43
376.37	411.93
376.56	479.81
376.76	414.27
376.95	393.21
377.15	355.76
377.35	407.25
377.54	475.13
377.74	386.19
377.93	447.04
378.13	360.44
378.33	414.27
378.52	414.27
378.72	463.43
378.91	360.44
379.11	353.42
379.31	341.72
379.50	383.85
379.70	400.23
379.89	451.72
380.09	395.55
380.28	358.10
380.48	484.49
380.68	400.23
380.87	353.42
381.07	418.96
381.26	404.91
381.46	428.32
381.65	400.23
381.85	393.21
382.04	449.38
382.24	458.74
382.43	421.30
382.63	414.27
382.83	461.09
383.02	402.57
383.22	510.24
383.41	416.62
383.61	383.85
383.80	409.59
384.00	369.80
384.19	339.38
384.39	435.34
384.58	461.09
384.78	437.68
384.97	386.19
385.17	451.72
385.36	369.80
385.56	381.51
385.75	315.97
385.95	404.91
386.14	400.23
386.34	451.72
386.53	437.68
386.72	374.49
386.92	369.80
387.11	435.34
387.31	421.30
387.50	423.64
387.70	454.06
387.89	430.66
388.09	418.96
388.28	360.44
388.48	397.89
388.67	503.22
388.86	430.66
389.06	365.12
389.25	315.97
389.45	341.72
389.64	362.78
389.84	449.38
390.03	353.42
390.22	449.38
390.42	351.08
390.61	409.59
390.81	292.57
391.00	376.83
391.19	360.44
391.39	372.15
391.58	355.76
391.78	383.85
391.97	404.91
392.16	383.85
392.36	388.53
392.55	346.40
392.75	388.53
392.94	355.76
393.13	482.15
393.33	383.85
393.52	404.91
393.71	514.92
393.91	433.00
394.10	348.74
394.29	346.40
394.49	416.62
394.68	409.59
394.88	369.80
395.07	458.74
395.26	395.55
395.46	428.32
395.65	421.30
395.84	400.23
396.04	519.60
396.23	414.27
396.42	437.68
396.62	430.66
396.81	409.59
397.00	482.15
397.19	411.93
397.39	381.51
397.58	444.70
397.77	386.19
397.97	433.00
398.16	409.59
398.35	369.80
398.55	437.68
398.74	435.34
398.93	414.27
399.12	397.89
399.32	353.42
399.51	393.21
399.70	376.83
399.90	421.30
400.09	348.74
400.28	379.17
400.47	390.87
400.67	414.27
400.86	430.66
401.05	463.43
401.24	407.25
401.44	379.17
401.63	458.74
401.82	348.74
402.01	327.68
402.21	386.19
402.40	421.30
402.59	330.02
402.78	451.72
402.97	372.15
403.17	423.64
403.36	367.46
403.55	344.06
403.74	353.42
403.93	423.64
404.13	353.42
404.32	390.87
404.51	430.66
404.70	444.70
404.89	390.87
405.09	456.40
405.28	402.57
405.47	477.47
405.66	470.45
405.85	472.79
406.05	444.70
406.24	430.66
406.43	458.74
406.62	498.53
406.81	451.72
407.00	444.70
407.20	409.59
407.39	397.89
407.58	351.08
407.77	416.62
407.96	428.32
408.15	461.09
408.34	423.64
408.54	477.47
408.73	425.98
408.92	477.47
409.11	402.57
409.30	430.66
409.49	430.66
409.68	383.85
409.87	418.96
410.07	372.15
410.26	423.64
410.45	365.12
410.64	362.78
410.83	484.49
411.02	372.15
411.21	397.89
411.40	395.55
411.59	407.25
411.78	400.23
411.98	433.00
412.17	458.74
412.36	381.51
412.55	433.00
412.74	393.21
412.93	468.11
413.12	367.46
413.31	440.02
413.50	437.68
413.69	407.25
413.88	395.55
414.07	430.66
414.26	355.76
414.45	393.21
414.64	372.15
414.83	444.70
415.02	407.25
415.22	402.57
415.41	404.91
415.60	383.85
415.79	280.86
415.98	447.04
416.17	393.21
416.36	402.57
416.55	421.30
416.74	337.04
416.93	416.62
417.12	372.15
417.31	433.00
417.50	393.21
417.69	402.57
417.88	402.57
418.07	374.49
418.26	404.91
418.45	351.08
418.64	421.30
418.83	386.19
419.02	383.85
419.21	423.64
419.39	411.93
419.58	372.15
419.77	390.87
419.96	456.40
420.15	411.93
420.34	449.38
420.53	428.32
420.72	425.98
420.91	386.19
421.10	493.85
421.29	404.91
421.48	414.27
421.67	468.11
421.86	386.19
422.05	416.62
422.24	456.40
422.43	339.38
422.61	421.30
422.80	433.00
422.99	402.57
423.18	365.12
423.37	440.02
423.56	369.80
423.75	379.17
423.94	379.17
424.13	421.30
424.32	409.59
424.50	423.64
424.69	454.06
424.88	388.53
425.07	447.04
425.26	372.15
425.45	465.77
425.64	418.96
425.83	416.62
426.01	425.98
426.20	404.91
426.39	395.55
426.58	409.59
426.77	360.44
426.96	498.53
427.15	341.72
427.33	421.30
427.52	409.59
427.71	374.49
427.90	435.34
428.09	393.21
428.28	388.53
428.46	421.30
428.65	463.43
428.84	395.55
429.03	416.62
429.22	390.87
429.40	395.55
429.59	409.59
429.78	435.34
429.97	437.68
430.16	430.66
430.34	397.89
430.53	418.96
430.72	531.30
430.91	423.64
431.10	358.10
431.28	503.22
431.47	444.70
431.66	451.72
431.85	365.12
432.03	465.77
432.22	472.79
432.41	400.23
432.60	458.74
432.79	374.49
432.97	472.79
433.16	444.70
433.35	428.32
433.54	367.46
433.72	486.83
433.91	465.77
434.10	362.78
434.28	376.83
434.47	411.93
434.66	360.44
434.85	444.70
435.03	458.74
435.22	461.09
435.41	400.23
435.59	430.66
435.78	397.89
435.97	397.89
436.16	369.80
436.34	383.85
436.53	447.04
436.72	498.53
436.90	435.34
437.09	442.36
437.28	451.72
437.46	379.17
437.65	379.17
437.84	402.57
438.02	468.11
438.21	383.85
438.40	416.62
438.58	358.10
438.77	367.46
438.96	400.23
439.14	421.30
439.33	442.36
439.52	367.46
439.70	400.23
439.89	383.85
440.08	449.38
440.26	482.15
440.45	447.04
440.63	418.96
440.82	451.72
441.01	414.27
441.19	379.17
441.38	395.55
441.57	433.00
441.75	386.19
441.94	393.21
442.12	386.19
442.31	423.64
442.50	367.46
442.68	388.53
442.87	351.08
443.05	437.68
443.24	425.98
443.43	423.64
443.61	461.09
443.80	482.15
443.98	379.17
444.17	428.32
444.35	362.78
444.54	435.34
444.73	416.62
444.91	355.76
445.10	397.89
445.28	418.96
445.47	390.87
445.65	393.21
445.84	463.43
446.02	442.36
446.21	449.38
446.39	421.30
446.58	454.06
446.77	411.93
446.95	365.12
447.14	456.40
447.32	484.49
447.51	369.80
447.69	407.25
447.88	423.64
448.06	475.13
448.25	374.49
448.43	421.30
448.62	386.19
448.80	400.23
448.99	468.11
449.17	381.51
449.36	355.76
449.54	430.66
449.73	489.17
449.91	381.51
450.10	308.95
450.28	477.47
450.46	472.79
450.65	456.40
450.83	339.38
451.02	386.19
451.20	379.17
451.39	409.59
451.57	390.87
451.76	414.27
451.94	461.09
452.13	407.25
452.31	435.34
452.49	376.83
452.68	400.23
452.86	348.74
453.05	395.55
453.23	454.06
453.42	430.66
453.60	360.44
453.78	411.93
453.97	395.55
454.15	404.91
454.34	421.30
454.52	404.91
454.70	437.68
454.89	442.36
455.07	411.93
455.26	402.57
455.44	416.62
455.62	428.32
455.81	465.77
455.99	372.15
456.17	322.99
456.36	388.53
456.54	428.32
456.73	440.02
456.91	390.87
457.09	451.72
457.28	393.21
457.46	411.93
457.64	404.91
457.83	379.17
458.01	430.66
458.19	425.98
458.38	449.38
458.56	425.98
458.74	400.23
458.93	379.17
459.11	369.80
459.29	411.93
459.48	416.62
459.66	430.66
459.84	433.00
460.03	470.45
460.21	423.64
460.39	386.19
460.57	456.40
460.76	475.13
460.94	477.47
461.12	416.62
461.31	465.77
461.49	400.23
461.67	425.98
461.85	407.25
462.04	447.04
462.22	699.82
462.40	456.40
462.59	416.62
462.77	433.00
462.95	397.89
463.13	367.46
463.32	458.74
463.50	428.32
463.68	409.59
463.86	348.74
464.05	454.06
464.23	458.74
464.41	430.66
464.59	397.89
464.78	400.23
464.96	369.80
465.14	409.59
465.32	397.89
465.50	463.43
465.69	416.62
465.87	390.87
466.05	360.44
466.23	393.21
466.41	341.72
466.60	435.34
466.78	454.06
466.96	465.77
467.14	430.66
467.32	418.96
467.51	390.87
467.69	470.45
467.87	484.49
468.05	402.57
468.23	447.04
468.41	447.04
468.60	449.38
468.78	454.06
468.96	435.34
469.14	428.32
469.32	428.32
469.50	344.06
469.69	430.66
469.87	390.87
470.05	409.59
470.23	465.77
470.41	447.04
470.59	330.02
470.77	451.72
470.95	435.34
471.14	435.34
471.32	367.46
471.50	411.93
471.68	421.30
471.86	421.30
472.04	383.85
472.22	369.80
472.40	428.32
472.58	358.10
472.77	472.79
472.95	409.59
473.13	423.64
473.31	348.74
473.49	376.83
473.67	407.25
473.85	435.34
474.03	526.62
474.21	400.23
474.39	416.62
474.57	411.93
474.75	358.10
474.93	465.77
475.12	379.17
475.30	379.17
475.48	379.17
475.66	376.83
475.84	402.57
476.02	393.21
476.20	416.62
476.38	447.04
476.56	425.98
476.74	397.89
476.92	383.85
477.10	454.06
477.28	433.00
477.46	449.38
477.64	400.23
477.82	355.76
478.00	465.77
478.18	423.64
478.36	337.04
478.54	444.70
478.72	425.98
478.90	433.00
479.08	493.85
479.26	454.06
479.44	437.68
479.62	381.51
479.80	400.23
479.98	470.45
480.16	393.21
480.34	409.59
480.52	411.93
480.70	421.30
480.88	407.25
481.06	416.62
481.24	383.85
481.41	376.83
481.59	442.36
481.77	383.85
481.95	379.17
482.13	440.02
482.31	397.89
482.49	433.00
482.67	444.70
482.85	451.72
483.03	414.27
483.21	411.93
483.39	351.08
483.57	374.49
483.74	442.36
483.92	388.53
484.10	365.12
484.28	395.55
484.46	503.22
484.64	360.44
484.82	423.64
485.00	348.74
485.18	404.91
485.35	358.10
485.53	372.15
485.71	416.62
485.89	454.06
486.07	383.85
486.25	430.66
486.43	372.15
486.61	383.85
486.78	362.78
486.96	372.15
487.14	411.93
487.32	479.81
487.50	449.38
487.68	400.23
487.85	383.85
488.03	423.64
488.21	524.28
488.39	404.91
488.57	421.30
488.75	456.40
488.92	449.38
489.10	369.80
489.28	475.13
489.46	470.45
489.64	425.98
489.81	376.83
489.99	358.10
490.17	402.57
490.35	465.77
490.53	397.89
490.70	414.27
490.88	472.79
491.06	456.40
491.24	297.25
491.41	393.21
491.59	395.55
491.77	360.44
491.95	404.91
492.13	409.59
492.30	430.66
492.48	449.38
492.66	425.98
492.84	402.57
493.01	423.64
493.19	383.85
493.37	491.51
493.54	456.40
493.72	428.32
493.90	407.25
494.08	372.15
494.25	425.98
494.43	421.30
494.61	416.62
494.79	383.85
494.96	414.27
495.14	327.68
495.32	425.98
495.49	414.27
495.67	498.53
495.85	440.02
496.02	367.46
496.20	372.15
496.38	367.46
496.55	400.23
496.73	489.17
496.91	381.51
497.09	390.87
497.26	414.27
497.44	421.30
497.62	402.57
497.79	397.89
497.97	416.62
498.14	397.89
498.32	379.17
498.50	404.91
498.67	379.17
498.85	484.49
499.03	395.55
499.20	418.96
499.38	404.91
499.56	433.00
499.73	489.17
499.91	425.98
500.08	489.17
500.26	416.62
500.44	444.70
500.61	374.49
500.79	465.77
500.97	479.81
501.14	425.98
501.32	491.51
501.49	482.15
501.67	423.64
501.84	353.42
502.02	383.85
502.20	430.66
502.37	423.64
502.55	407.25
502.72	393.21
502.90	425.98
503.07	449.38
503.25	461.09
503.43	458.74
503.60	447.04
503.78	437.68
503.95	430.66
504.13	400.23
504.30	430.66
504.48	367.46
504.65	447.04
504.83	423.64
505.01	290.23
505.18	395.55
505.36	402.57
505.53	451.72
505.71	381.51
505.88	411.93
506.06	428.32
506.23	353.42
506.41	437.68
506.58	374.49
506.76	409.59
506.93	430.66
507.11	395.55
507.28	397.89
507.46	428.32
507.63	400.23
507.81	402.57
507.98	395.55
508.16	437.68
508.33	395.55
508.50	393.21
508.68	374.49
508.85	344.06
509.03	411.93
509.20	425.98
509.38	409.59
509.55	355.76
509.73	390.87
509.90	458.74
510.08	327.68
510.25	404.91
510.42	365.12
510.60	435.34
510.77	411.93
510.95	414.27
511.12	451.72
511.30	402.57
511.47	442.36
511.64	379.17
511.82	367.46
511.99	390.87
512.17	353.42
512.34	437.68
512.51	374.49
512.69	456.40
512.86	482.15
513.04	402.57
513.21	351.08
513.38	322.99
513.56	444.70
513.73	393.21
513.90	379.17
514.08	421.30
514.25	433.00
514.43	465.77
514.60	442.36
514.77	386.19
514.95	449.38
515.12	463.43
515.29	404.91
515.47	383.85
515.64	416.62
515.81	409.59
515.99	482.15
516.16	442.36
516.33	393.21
516.51	395.55
516.68	407.25
516.85	365.12
517.03	355.76
517.20	503.22
517.37	463.43
517.54	367.46
517.72	407.25
517.89	423.64
518.06	390.87
518.24	400.23
518.41	451.72
518.58	440.02
518.75	353.42
518.93	372.15
519.10	414.27
519.27	451.72
519.45	402.57
519.62	456.40
519.79	428.32
519.96	372.15
520.14	341.72
520.31	402.57
520.48	442.36
520.65	416.62
520.83	447.04
521.00	435.34
521.17	411.93
521.34	400.23
521.52	526.62
521.69	435.34
521.86	423.64
522.03	411.93
522.20	409.59
522.38	346.40
522.55	463.43
522.72	404.91
522.89	411.93
523.07	456.40
523.24	433.00
523.41	400.23
523.58	353.42
523.75	416.62
523.92	454.06
524.10	500.87
524.27	423.64
524.44	365.12
524.61	456.40
524.78	369.80
524.96	430.66
525.13	404.91
525.30	428.32
525.47	442.36
525.64	430.66
525.81	414.27
525.98	447.04
526.16	390.87
526.33	433.00
526.50	376.83
526.67	421.30
526.84	379.17
527.01	402.57
527.18	381.51
527.36	435.34
527.53	409.59
527.70	421.30
527.87	454.06
528.04	465.77
528.21	393.21
528.38	465.77
528.55	435.34
528.72	360.44
528.89	470.45
529.07	395.55
529.24	372.15
529.41	353.42
529.58	468.11
529.75	425.98
529.92	477.47
530.09	351.08
530.26	437.68
530.43	393.21
530.60	435.34
530.77	348.74
530.94	390.87
531.11	440.02
531.28	372.15
531.46	461.09
531.63	402.57
531.80	381.51
531.97	407.25
532.14	411.93
532.31	383.85
532.48	397.89
532.65	433.00
532.82	379.17
532.99	470.45
533.16	381.51
533.33	397.89
533.50	414.27
533.67	454.06
533.84	425.98
534.01	454.06
534.18	430.66
534.35	500.87
534.52	421.30
534.69	435.34
534.86	430.66
535.03	400.23
535.20	353.42
535.37	442.36
535.54	465.77
535.71	458.74
535.88	456.40
536.05	447.04
536.22	421.30
536.38	388.53
536.55	400.23
536.72	381.51
536.89	362.78
537.06	386.19
537.23	451.72
537.40	407.25
537.57	376.83
537.74	437.68
537.91	440.02
538.08	454.06
538.25	407.25
538.42	409.59
538.59	428.32
538.75	416.62
538.92	423.64
539.09	449.38
539.26	337.04
539.43	440.02
539.60	402.57
539.77	339.38
539.94	463.43
540.11	470.45
540.28	430.66
540.44	472.79
540.61	430.66
540.78	425.98
540.95	381.51
541.12	435.34
541.29	397.89
541.46	433.00
541.62	409.59
541.79	435.34
541.96	339.38
542.13	402.57
542.30	397.89
542.47	395.55
542.63	372.15
542.80	491.51
542.97	404.91
543.14	374.49
543.31	491.51
543.48	369.80
543.64	369.80
543.81	379.17
543.98	407.25
544.15	428.32
544.32	381.51
544.48	365.12
544.65	367.46
544.82	437.68
544.99	386.19
545.16	409.59
545.32	365.12
545.49	404.91
545.66	411.93
545.83	425.98
546.00	491.51
546.16	383.85
546.33	367.46
546.50	390.87
546.67	376.83
546.83	402.57
547.00	456.40
547.17	517.26
547.34	355.76
547.50	383.85
547.67	435.34
547.84	374.49
548.00	365.12
548.17	454.06
548.34	414.27
548.51	454.06
548.67	348.74
548.84	425.98
549.01	362.78
549.18	402.57
549.34	461.09
549.51	440.02
549.68	365.12
549.84	428.32
550.01	425.98
550.18	447.04
550.34	468.11
550.51	362.78
550.68	416.62
550.84	372.15
551.01	381.51
551.18	425.98
551.34	449.38
551.51	409.59
551.68	463.43
551.84	421.30
552.01	395.55
552.18	430.66
552.34	456.40
552.51	367.46
552.68	447.04
552.84	395.55
553.01	360.44
553.18	482.15
553.34	388.53
553.51	416.62
553.67	414.27
553.84	447.04
554.01	433.00
554.17	440.02
554.34	440.02
554.51	353.42
554.67	433.00
554.84	414.27
555.00	491.51
555.17	402.57
555.33	468.11
555.50	454.06
555.67	381.51
555.83	479.81
556.00	447.04
556.16	512.58
556.33	421.30
556.50	332.36
556.66	475.13
556.83	418.96
556.99	418.96
557.16	517.26
557.32	395.55
557.49	383.85
557.65	418.96
557.82	435.34
557.98	433.00
558.15	428.32
558.32	346.40
558.48	395.55
558.65	447.04
558.81	374.49
558.98	369.80
559.14	451.72
559.31	362.78
559.47	535.98
559.64	388.53
559.80	386.19
559.97	430.66
560.13	374.49
560.30	346.40
560.46	376.83
560.63	365.12
560.79	491.51
560.96	433.00
561.12	407.25
561.29	374.49
561.45	493.85
561.61	444.70
561.78	416.62
561.94	344.06
562.11	360.44
562.27	479.81
562.44	381.51
562.60	414.27
562.77	386.19
562.93	451.72
563.10	374.49
563.26	477.47
563.42	454.06
563.59	393.21
563.75	362.78
563.92	468.11
564.08	416.62
564.24	411.93
564.41	437.68
564.57	374.49
564.74	388.53
564.90	428.32
565.07	433.00
565.23	386.19
565.39	468.11
565.56	430.66
565.72	344.06
565.88	404.91
566.05	428.32
566.21	379.17
566.38	414.27
566.54	456.40
566.70	454.06
566.87	435.34
567.03	423.64
567.19	376.83
567.36	430.66
567.52	395.55
567.68	421.30
567.85	442.36
568.01	369.80
568.17	411.93
568.34	456.40
568.50	465.77
568.66	393.21
568.83	430.66
568.99	444.70
569.15	421.30
569.32	397.89
569.48	458.74
569.64	369.80
569.81	358.10
569.97	400.23
570.13	411.93
570.30	418.96
570.46	327.68
570.62	456.40
570.78	369.80
570.95	418.96
571.11	409.59
571.27	425.98
571.43	437.68
571.60	433.00
571.76	404.91
571.92	386.19
572.09	425.98
572.25	430.66
572.41	465.77
572.57	468.11
572.74	484.49
572.90	390.87
573.06	444.70
573.22	463.43
573.38	475.13
573.55	442.36
573.71	409.59
573.87	461.09
574.03	479.81
574.20	442.36
574.36	423.64
574.52	437.68
574.68	407.25
574.84	465.77
575.01	444.70
575.17	379.17
575.33	465.77
575.49	360.44
575.65	402.57
575.82	428.32
575.98	428.32
576.14	400.23
576.30	339.38
576.46	416.62
576.62	437.68
576.79	437.68
576.95	454.06
577.11	397.89
577.27	395.55
577.43	463.43
577.59	456.40
577.75	416.62
577.92	433.00
578.08	489.17
578.24	372.15
578.40	463.43
578.56	395.55
578.72	503.22
578.88	442.36
579.04	425.98
579.21	461.09
579.37	428.32
579.53	444.70
579.69	428.32
579.85	367.46
580.01	458.74
580.17	430.66
580.33	351.08
580.49	428.32
580.65	418.96
580.82	416.62
580.98	425.98
581.14	386.19
581.30	418.96
581.46	435.34
581.62	400.23
581.78	411.93
581.94	416.62
582.10	402.57
582.26	470.45
582.42	414.27
582.58	435.34
582.74	416.62
582.90	437.68
583.06	407.25
583.22	449.38
583.38	440.02
583.54	372.15
583.70	435.34
583.86	442.36
584.02	442.36
584.18	463.43
584.34	400.23
584.50	435.34
584.66	395.55
584.82	374.49
584.98	444.70
585.14	437.68
585.30	442.36
585.46	365.12
585.62	418.96
585.78	351.08
585.94	486.83
586.10	451.72
586.26	447.04
586.42	430.66
586.58	376.83
586.74	433.00
586.90	397.89
587.06	449.38
587.22	447.04
587.38	393.21
587.54	344.06
587.70	421.30
587.86	400.23
588.02	449.38
588.18	407.25
588.34	463.43
588.49	463.43
588.65	365.12
588.81	482.15
588.97	407.25
589.13	325.33
589.29	456.40
589.45	442.36
589.61	418.96
589.77	454.06
589.93	498.53
590.08	437.68
590.24	437.68
590.40	383.85
590.56	351.08
590.72	463.43
590.88	447.04
591.04	433.00
591.20	454.06
591.35	444.70
591.51	374.49
591.67	402.57
591.83	402.57
591.99	407.25
592.15	437.68
592.31	461.09
592.46	400.23
592.62	416.62
592.78	437.68
592.94	440.02
593.10	465.77
593.26	409.59
593.41	393.21
593.57	433.00
593.73	433.00
593.89	411.93
594.05	477.47
594.20	463.43
594.36	447.04
594.52	437.68
594.68	362.78
594.84	433.00
594.99	430.66
595.15	409.59
595.31	470.45
595.47	416.62
595.62	449.38
595.78	369.80
595.94	407.25
596.10	423.64
596.25	461.09
596.41	468.11
596.57	421.30
596.73	397.89
596.88	383.85
597.04	376.83
597.20	411.93
597.36	440.02
597.51	339.38
597.67	402.57
597.83	358.10
597.99	447.04
598.14	397.89
598.30	372.15
598.46	418.96
598.61	395.55
598.77	430.66
598.93	428.32
599.09	425.98
599.24	404.91
599.40	386.19
599.56	416.62
599.71	395.55
599.87	418.96
600.03	381.51
600.18	418.96
600.34	421.30
600.50	447.04
600.65	425.98
600.81	491.51
600.97	414.27
601.12	369.80
601.28	418.96
601.44	379.17
601.59	463.43
601.75	388.53
601.91	414.27
602.06	341.72
602.22	449.38
602.37	358.10
602.53	430.66
602.69	425.98
602.84	430.66
603.00	339.38
603.16	437.68
603.31	411.93
603.47	393.21
603.62	365.12
603.78	475.13
603.94	400.23
604.09	428.32
604.25	416.62
604.40	428.32
604.56	421.30
604.71	400.23
604.87	409.59
605.03	402.57
605.18	362.78
605.34	400.23
605.49	444.70
605.65	435.34
605.80	346.40
605.96	458.74
606.12	428.32
606.27	447.04
606.43	491.51
606.58	454.06
606.74	428.32
606.89	376.83
607.05	416.62
607.20	421.30
607.36	482.15
607.51	465.77
607.67	372.15
607.82	402.57
607.98	472.79
608.13	407.25
608.29	454.06
608.44	449.38
608.60	435.34
608.75	341.72
608.91	475.13
609.06	425.98
609.22	341.72
609.37	451.72
609.53	402.57
609.68	425.98
609.84	388.53
609.99	400.23
610.15	449.38
