SpectraSuite Data File
++++++++++++++++++++++++++++++++++++
Date: Fri Oct 25 12:11:41 EDT 2013
User: price-jones
Dark Spectrum Present: No
Reference Spectrum Present: No
Number of Sampled Component Spectra: 1
Spectrometers: USB2+H05261
Integration Time (usec): 100000 (USB2+H05261)
Spectra Averaged: 1 (USB2+H05261)
Boxcar Smoothing: 0 (USB2+H05261)
Correct for Electrical Dark: No (USB2+H05261)
Strobe/Lamp Enabled: No (USB2+H05261)
Correct for Detector Non-linearity: No (USB2+H05261)
Correct for Stray Light: No (USB2+H05261)
Number of Pixels in Processed Spectrum: 2048
>>>>>Begin Processed Spectral Data<<<<<
365.73	339.38
365.92	339.38
366.12	339.38
366.32	285.55
366.52	273.84
366.72	266.82
366.91	255.12
367.11	203.63
367.31	255.12
367.51	269.16
367.70	285.55
367.90	234.05
368.10	231.71
368.30	208.31
368.49	250.44
368.69	241.08
368.89	315.97
369.09	220.01
369.28	231.71
369.48	250.44
369.68	290.23
369.87	325.33
370.07	376.83
370.27	341.72
370.47	372.15
370.66	322.99
370.86	369.80
371.06	430.66
371.25	416.62
371.45	337.04
371.65	454.06
371.84	402.57
372.04	449.38
372.24	337.04
372.44	360.44
372.63	418.96
372.83	430.66
373.03	407.25
373.22	388.53
373.42	353.42
373.62	414.27
373.81	442.36
374.01	397.89
374.21	461.09
374.40	437.68
374.60	416.62
374.79	433.00
374.99	395.55
375.19	388.53
375.38	444.70
375.58	388.53
375.78	411.93
375.97	388.53
376.17	430.66
376.37	428.32
376.56	388.53
376.76	353.42
376.95	372.15
377.15	369.80
377.35	435.34
377.54	369.80
377.74	383.85
377.93	411.93
378.13	372.15
378.33	397.89
378.52	402.57
378.72	393.21
378.91	402.57
379.11	418.96
379.31	383.85
379.50	358.10
379.70	437.68
379.89	437.68
380.09	374.49
380.28	418.96
380.48	388.53
380.68	358.10
380.87	442.36
381.07	437.68
381.26	411.93
381.46	407.25
381.65	383.85
381.85	383.85
382.04	388.53
382.24	500.87
382.43	365.12
382.63	360.44
382.83	400.23
383.02	425.98
383.22	430.66
383.41	341.72
383.61	404.91
383.80	409.59
384.00	400.23
384.19	351.08
384.39	402.57
384.58	456.40
384.78	430.66
384.97	397.89
385.17	376.83
385.36	374.49
385.56	411.93
385.75	449.38
385.95	444.70
386.14	425.98
386.34	442.36
386.53	395.55
386.72	428.32
386.92	428.32
387.11	407.25
387.31	430.66
387.50	358.10
387.70	369.80
387.89	435.34
388.09	449.38
388.28	351.08
388.48	402.57
388.67	435.34
388.86	437.68
389.06	395.55
389.25	423.64
389.45	437.68
389.64	416.62
389.84	435.34
390.03	440.02
390.22	400.23
390.42	397.89
390.61	381.51
390.81	365.12
391.00	456.40
391.19	407.25
391.39	372.15
391.58	402.57
391.78	369.80
391.97	388.53
392.16	365.12
392.36	456.40
392.55	428.32
392.75	425.98
392.94	400.23
393.13	423.64
393.33	418.96
393.52	421.30
393.71	477.47
393.91	339.38
394.10	341.72
394.29	416.62
394.49	418.96
394.68	447.04
394.88	451.72
395.07	407.25
395.26	388.53
395.46	374.49
395.65	397.89
395.84	437.68
396.04	451.72
396.23	383.85
396.42	425.98
396.62	425.98
396.81	383.85
397.00	390.87
397.19	339.38
397.39	383.85
397.58	451.72
397.77	383.85
397.97	390.87
398.16	393.21
398.35	477.47
398.55	358.10
398.74	437.68
398.93	365.12
399.12	447.04
399.32	425.98
399.51	355.76
399.70	447.04
399.90	440.02
400.09	388.53
400.28	390.87
400.47	447.04
400.67	440.02
400.86	390.87
401.05	395.55
401.24	505.56
401.44	390.87
401.63	423.64
401.82	418.96
402.01	404.91
402.21	411.93
402.40	414.27
402.59	407.25
402.78	395.55
402.97	468.11
403.17	433.00
403.36	397.89
403.55	346.40
403.74	407.25
403.93	327.68
404.13	433.00
404.32	472.79
404.51	510.24
404.70	479.81
404.89	442.36
405.09	395.55
405.28	416.62
405.47	430.66
405.66	442.36
405.85	463.43
406.05	376.83
406.24	416.62
406.43	341.72
406.62	421.30
406.81	475.13
407.00	393.21
407.20	388.53
407.39	440.02
407.58	458.74
407.77	454.06
407.96	440.02
408.15	437.68
408.34	430.66
408.54	421.30
408.73	418.96
408.92	367.46
409.11	468.11
409.30	437.68
409.49	451.72
409.68	379.17
409.87	400.23
410.07	393.21
410.26	402.57
410.45	362.78
410.64	437.68
410.83	409.59
411.02	430.66
411.21	430.66
411.40	498.53
411.59	444.70
411.78	395.55
411.98	425.98
412.17	407.25
412.36	400.23
412.55	409.59
412.74	397.89
412.93	486.83
413.12	337.04
413.31	404.91
413.50	400.23
413.69	430.66
413.88	454.06
414.07	430.66
414.26	402.57
414.45	409.59
414.64	400.23
414.83	411.93
415.02	430.66
415.22	444.70
415.41	435.34
415.60	447.04
415.79	383.85
415.98	407.25
416.17	327.68
416.36	428.32
416.55	416.62
416.74	395.55
416.93	411.93
417.12	383.85
417.31	425.98
417.50	369.80
417.69	440.02
417.88	421.30
418.07	390.87
418.26	369.80
418.45	430.66
418.64	484.49
418.83	400.23
419.02	433.00
419.21	447.04
419.39	423.64
419.58	362.78
419.77	435.34
419.96	411.93
420.15	535.98
420.34	444.70
420.53	379.17
420.72	428.32
420.91	388.53
421.10	437.68
421.29	437.68
421.48	465.77
421.67	386.19
421.86	458.74
422.05	414.27
422.24	468.11
422.43	458.74
422.61	362.78
422.80	421.30
422.99	418.96
423.18	468.11
423.37	425.98
423.56	397.89
423.75	376.83
423.94	414.27
424.13	407.25
424.32	461.09
424.50	388.53
424.69	374.49
424.88	402.57
425.07	383.85
425.26	437.68
425.45	407.25
425.64	421.30
425.83	470.45
426.01	418.96
426.20	449.38
426.39	397.89
426.58	379.17
426.77	465.77
426.96	414.27
427.15	491.51
427.33	381.51
427.52	425.98
427.71	402.57
427.90	372.15
428.09	425.98
428.28	395.55
428.46	430.66
428.65	400.23
428.84	381.51
429.03	514.92
429.22	351.08
429.40	367.46
429.59	409.59
429.78	428.32
429.97	351.08
430.16	470.45
430.34	390.87
430.53	365.12
430.72	454.06
430.91	418.96
431.10	330.02
431.28	407.25
431.47	351.08
431.66	400.23
431.85	376.83
432.03	358.10
432.22	470.45
432.41	418.96
432.60	442.36
432.79	397.89
432.97	327.68
433.16	435.34
433.35	351.08
433.54	423.64
433.72	463.43
433.91	374.49
434.10	414.27
434.28	407.25
434.47	449.38
434.66	435.34
434.85	411.93
435.03	397.89
435.22	414.27
435.41	437.68
435.59	402.57
435.78	437.68
435.97	416.62
436.16	449.38
436.34	402.57
436.53	444.70
436.72	393.21
436.90	479.81
437.09	463.43
437.28	400.23
437.46	402.57
437.65	435.34
437.84	440.02
438.02	440.02
438.21	407.25
438.40	425.98
438.58	372.15
438.77	397.89
438.96	372.15
439.14	435.34
439.33	435.34
439.52	390.87
439.70	423.64
439.89	402.57
440.08	475.13
440.26	486.83
440.45	344.06
440.63	440.02
440.82	402.57
441.01	379.17
441.19	386.19
441.38	400.23
441.57	402.57
441.75	433.00
441.94	386.19
442.12	496.19
442.31	493.85
442.50	409.59
442.68	390.87
442.87	428.32
443.05	440.02
443.24	423.64
443.43	477.47
443.61	463.43
443.80	379.17
443.98	517.26
444.17	416.62
444.35	414.27
444.54	468.11
444.73	479.81
444.91	390.87
445.10	308.95
445.28	423.64
445.47	435.34
445.65	411.93
445.84	383.85
446.02	404.91
446.21	440.02
446.39	334.70
446.58	400.23
446.77	407.25
446.95	390.87
447.14	407.25
447.32	397.89
447.51	400.23
447.69	444.70
447.88	440.02
448.06	404.91
448.25	388.53
448.43	404.91
448.62	393.21
448.80	348.74
448.99	351.08
449.17	376.83
449.36	395.55
449.54	472.79
449.73	376.83
449.91	470.45
450.10	433.00
450.28	510.24
450.46	423.64
450.65	411.93
450.83	428.32
451.02	414.27
451.20	430.66
451.39	430.66
451.57	369.80
451.76	421.30
451.94	440.02
452.13	400.23
452.31	489.17
452.49	496.19
452.68	374.49
452.86	409.59
453.05	477.47
453.23	390.87
453.42	421.30
453.60	433.00
453.78	360.44
453.97	353.42
454.15	397.89
454.34	414.27
454.52	388.53
454.70	400.23
454.89	493.85
455.07	433.00
455.26	454.06
455.44	437.68
455.62	425.98
455.81	505.56
455.99	381.51
456.17	381.51
456.36	475.13
456.54	425.98
456.73	322.99
456.91	496.19
457.09	463.43
457.28	484.49
457.46	414.27
457.64	465.77
457.83	437.68
458.01	383.85
458.19	461.09
458.38	416.62
458.56	358.10
458.74	423.64
458.93	482.15
459.11	437.68
459.29	404.91
459.48	397.89
459.66	456.40
459.84	456.40
460.03	395.55
460.21	472.79
460.39	465.77
460.57	435.34
460.76	493.85
460.94	411.93
461.12	437.68
461.31	404.91
461.49	449.38
461.67	393.21
461.85	451.72
462.04	449.38
462.22	748.97
462.40	433.00
462.59	505.56
462.77	353.42
462.95	372.15
463.13	451.72
463.32	400.23
463.50	421.30
463.68	386.19
463.86	407.25
464.05	472.79
464.23	414.27
464.41	386.19
464.59	411.93
464.78	489.17
464.96	372.15
465.14	489.17
465.32	430.66
465.50	442.36
465.69	433.00
465.87	447.04
466.05	440.02
466.23	463.43
466.41	367.46
466.60	435.34
466.78	472.79
466.96	421.30
467.14	500.87
467.32	404.91
467.51	465.77
467.69	388.53
467.87	496.19
468.05	369.80
468.23	428.32
468.41	421.30
468.60	397.89
468.78	470.45
468.96	470.45
469.14	428.32
469.32	442.36
469.50	397.89
469.69	472.79
469.87	411.93
470.05	407.25
470.23	430.66
470.41	400.23
470.59	367.46
470.77	447.04
470.95	390.87
471.14	435.34
471.32	409.59
471.50	465.77
471.68	440.02
471.86	482.15
472.04	388.53
472.22	461.09
472.40	386.19
472.58	435.34
472.77	369.80
472.95	369.80
473.13	486.83
473.31	472.79
473.49	428.32
473.67	435.34
473.85	425.98
474.03	484.49
474.21	430.66
474.39	472.79
474.57	430.66
474.75	404.91
474.93	383.85
475.12	358.10
475.30	402.57
475.48	351.08
475.66	383.85
475.84	463.43
476.02	491.51
476.20	451.72
476.38	435.34
476.56	491.51
476.74	498.53
476.92	372.15
477.10	423.64
477.28	390.87
477.46	465.77
477.64	433.00
477.82	365.12
478.00	421.30
478.18	428.32
478.36	390.87
478.54	428.32
478.72	379.17
478.90	416.62
479.08	383.85
479.26	390.87
479.44	404.91
479.62	428.32
479.80	337.04
479.98	451.72
480.16	409.59
480.34	407.25
480.52	376.83
480.70	367.46
480.88	400.23
481.06	433.00
481.24	449.38
481.41	355.76
481.59	423.64
481.77	318.31
481.95	367.46
482.13	458.74
482.31	367.46
482.49	400.23
482.67	341.72
482.85	411.93
483.03	449.38
483.21	458.74
483.39	400.23
483.57	409.59
483.74	425.98
483.92	425.98
484.10	383.85
484.28	456.40
484.46	449.38
484.64	397.89
484.82	367.46
485.00	449.38
485.18	367.46
485.35	332.36
485.53	451.72
485.71	358.10
485.89	393.21
486.07	414.27
486.25	437.68
486.43	397.89
486.61	418.96
486.78	423.64
486.96	374.49
487.14	383.85
487.32	414.27
487.50	404.91
487.68	465.77
487.85	376.83
488.03	388.53
488.21	437.68
488.39	407.25
488.57	484.49
488.75	393.21
488.92	484.49
489.10	437.68
489.28	477.47
489.46	404.91
489.64	418.96
489.81	435.34
489.99	489.17
490.17	325.33
490.35	451.72
490.53	423.64
490.70	400.23
490.88	449.38
491.06	400.23
491.24	369.80
491.41	414.27
491.59	461.09
491.77	449.38
491.95	365.12
492.13	470.45
492.30	386.19
492.48	320.65
492.66	421.30
492.84	418.96
493.01	463.43
493.19	444.70
493.37	442.36
493.54	428.32
493.72	402.57
493.90	414.27
494.08	395.55
494.25	437.68
494.43	402.57
494.61	477.47
494.79	414.27
494.96	411.93
495.14	440.02
495.32	440.02
495.49	393.21
495.67	355.76
495.85	440.02
496.02	433.00
496.20	482.15
496.38	383.85
496.55	440.02
496.73	379.17
496.91	402.57
497.09	442.36
497.26	411.93
497.44	353.42
497.62	463.43
497.79	451.72
497.97	404.91
498.14	423.64
498.32	311.29
498.50	416.62
498.67	416.62
498.85	449.38
499.03	430.66
499.20	425.98
499.38	491.51
499.56	411.93
499.73	456.40
499.91	390.87
500.08	451.72
500.26	402.57
500.44	416.62
500.61	425.98
500.79	423.64
500.97	404.91
501.14	458.74
501.32	404.91
501.49	458.74
501.67	425.98
501.84	362.78
502.02	395.55
502.20	442.36
502.37	402.57
502.55	440.02
502.72	416.62
502.90	437.68
503.07	454.06
503.25	425.98
503.43	365.12
503.60	440.02
503.78	465.77
503.95	433.00
504.13	461.09
504.30	437.68
504.48	491.51
504.65	367.46
504.83	449.38
505.01	472.79
505.18	404.91
505.36	330.02
505.53	388.53
505.71	365.12
505.88	393.21
506.06	442.36
506.23	344.06
506.41	388.53
506.58	416.62
506.76	369.80
506.93	395.55
507.11	458.74
507.28	433.00
507.46	472.79
507.63	397.89
507.81	369.80
507.98	418.96
508.16	400.23
508.33	423.64
508.50	435.34
508.68	449.38
508.85	388.53
509.03	383.85
509.20	369.80
509.38	409.59
509.55	423.64
509.73	442.36
509.90	381.51
510.08	390.87
510.25	397.89
510.42	468.11
510.60	360.44
510.77	475.13
510.95	461.09
511.12	409.59
511.30	444.70
511.47	477.47
511.64	500.87
511.82	393.21
511.99	409.59
512.17	425.98
512.34	486.83
512.51	404.91
512.69	414.27
512.86	454.06
513.04	449.38
513.21	379.17
513.38	428.32
513.56	416.62
513.73	447.04
513.90	407.25
514.08	341.72
514.25	465.77
514.43	381.51
514.60	447.04
514.77	409.59
514.95	390.87
515.12	372.15
515.29	381.51
515.47	411.93
515.64	425.98
515.81	430.66
515.99	416.62
516.16	496.19
516.33	468.11
516.51	433.00
516.68	372.15
516.85	444.70
517.03	425.98
517.20	421.30
517.37	379.17
517.54	458.74
517.72	374.49
517.89	407.25
518.06	315.97
518.24	393.21
518.41	472.79
518.58	344.06
518.75	379.17
518.93	449.38
519.10	486.83
519.27	519.60
519.45	388.53
519.62	435.34
519.79	348.74
519.96	430.66
520.14	465.77
520.31	430.66
520.48	386.19
520.65	418.96
520.83	423.64
521.00	397.89
521.17	444.70
521.34	447.04
521.52	435.34
521.69	414.27
521.86	407.25
522.03	386.19
522.20	477.47
522.38	425.98
522.55	383.85
522.72	409.59
522.89	430.66
523.07	428.32
523.24	470.45
523.41	397.89
523.58	379.17
523.75	409.59
523.92	374.49
524.10	414.27
524.27	407.25
524.44	407.25
524.61	475.13
524.78	407.25
524.96	437.68
525.13	416.62
525.30	376.83
525.47	463.43
525.64	411.93
525.81	430.66
525.98	409.59
526.16	355.76
526.33	440.02
526.50	423.64
526.67	423.64
526.84	528.96
527.01	400.23
527.18	402.57
527.36	393.21
527.53	440.02
527.70	421.30
527.87	444.70
528.04	489.17
528.21	381.51
528.38	475.13
528.55	449.38
528.72	433.00
528.89	390.87
529.07	397.89
529.24	397.89
529.41	449.38
529.58	365.12
529.75	435.34
529.92	468.11
530.09	400.23
530.26	444.70
530.43	402.57
530.60	344.06
530.77	489.17
530.94	477.47
531.11	486.83
531.28	421.30
531.46	463.43
531.63	447.04
531.80	369.80
531.97	447.04
532.14	407.25
532.31	421.30
532.48	404.91
532.65	393.21
532.82	369.80
532.99	365.12
533.16	404.91
533.33	482.15
533.50	393.21
533.67	404.91
533.84	437.68
534.01	414.27
534.18	414.27
534.35	416.62
534.52	449.38
534.69	468.11
534.86	407.25
535.03	388.53
535.20	416.62
535.37	418.96
535.54	393.21
535.71	416.62
535.88	369.80
536.05	440.02
536.22	423.64
536.38	454.06
536.55	442.36
536.72	510.24
536.89	381.51
537.06	367.46
537.23	416.62
537.40	360.44
537.57	381.51
537.74	444.70
537.91	463.43
538.08	374.49
538.25	348.74
538.42	393.21
538.59	418.96
538.75	383.85
538.92	423.64
539.09	433.00
539.26	468.11
539.43	430.66
539.60	437.68
539.77	404.91
539.94	425.98
540.11	430.66
540.28	454.06
540.44	390.87
540.61	374.49
540.78	393.21
540.95	440.02
541.12	433.00
541.29	388.53
541.46	416.62
541.62	435.34
541.79	421.30
541.96	440.02
542.13	414.27
542.30	346.40
542.47	421.30
542.63	393.21
542.80	435.34
542.97	437.68
543.14	416.62
543.31	402.57
543.48	348.74
543.64	407.25
543.81	388.53
543.98	383.85
544.15	423.64
544.32	463.43
544.48	440.02
544.65	425.98
544.82	472.79
544.99	437.68
545.16	456.40
545.32	428.32
545.49	493.85
545.66	433.00
545.83	470.45
546.00	418.96
546.16	421.30
546.33	386.19
546.50	369.80
546.67	390.87
546.83	507.90
547.00	463.43
547.17	421.30
547.34	397.89
547.50	414.27
547.67	360.44
547.84	395.55
548.00	491.51
548.17	416.62
548.34	458.74
548.51	416.62
548.67	451.72
548.84	411.93
549.01	418.96
549.18	409.59
549.34	428.32
549.51	507.90
549.68	383.85
549.84	407.25
550.01	414.27
550.18	489.17
550.34	428.32
550.51	418.96
550.68	388.53
550.84	489.17
551.01	400.23
551.18	465.77
551.34	414.27
551.51	409.59
551.68	390.87
551.84	414.27
552.01	395.55
552.18	400.23
552.34	444.70
552.51	472.79
552.68	423.64
552.84	468.11
553.01	393.21
553.18	468.11
553.34	447.04
553.51	402.57
553.67	444.70
553.84	433.00
554.01	437.68
554.17	421.30
554.34	402.57
554.51	456.40
554.67	435.34
554.84	484.49
555.00	344.06
555.17	540.66
555.33	341.72
555.50	421.30
555.67	400.23
555.83	402.57
556.00	440.02
556.16	554.71
556.33	372.15
556.50	444.70
556.66	433.00
556.83	390.87
556.99	400.23
557.16	421.30
557.32	416.62
557.49	344.06
557.65	344.06
557.82	456.40
557.98	393.21
558.15	418.96
558.32	423.64
558.48	346.40
558.65	449.38
558.81	477.47
558.98	388.53
559.14	369.80
559.31	388.53
559.47	383.85
559.64	456.40
559.80	348.74
559.97	447.04
560.13	416.62
560.30	425.98
560.46	418.96
560.63	418.96
560.79	442.36
560.96	400.23
561.12	423.64
561.29	484.49
561.45	484.49
561.61	355.76
561.78	503.22
561.94	440.02
562.11	355.76
562.27	428.32
562.44	430.66
562.60	482.15
562.77	447.04
562.93	475.13
563.10	400.23
563.26	348.74
563.42	444.70
563.59	440.02
563.75	444.70
563.92	421.30
564.08	486.83
564.24	397.89
564.41	442.36
564.57	437.68
564.74	313.63
564.90	430.66
565.07	456.40
565.23	388.53
565.39	388.53
565.56	355.76
565.72	397.89
565.88	397.89
566.05	383.85
566.21	379.17
566.38	430.66
566.54	468.11
566.70	451.72
566.87	416.62
567.03	397.89
567.19	407.25
567.36	463.43
567.52	475.13
567.68	437.68
567.85	409.59
568.01	388.53
568.17	414.27
568.34	442.36
568.50	409.59
568.66	362.78
568.83	407.25
568.99	379.17
569.15	444.70
569.32	428.32
569.48	447.04
569.64	456.40
569.81	451.72
569.97	428.32
570.13	444.70
570.30	393.21
570.46	367.46
570.62	449.38
570.78	407.25
570.95	409.59
571.11	383.85
571.27	430.66
571.43	369.80
571.60	390.87
571.76	428.32
571.92	428.32
572.09	362.78
572.25	411.93
572.41	379.17
572.57	411.93
572.74	519.60
572.90	414.27
573.06	414.27
573.22	400.23
573.38	451.72
573.55	397.89
573.71	381.51
573.87	411.93
574.03	411.93
574.20	360.44
574.36	428.32
574.52	444.70
574.68	458.74
574.84	416.62
575.01	390.87
575.17	465.77
575.33	418.96
575.49	435.34
575.65	383.85
575.82	437.68
575.98	418.96
576.14	421.30
576.30	444.70
576.46	428.32
576.62	447.04
576.79	409.59
576.95	444.70
577.11	416.62
577.27	416.62
577.43	374.49
577.59	409.59
577.75	472.79
577.92	449.38
578.08	369.80
578.24	358.10
578.40	449.38
578.56	437.68
578.72	564.07
578.88	430.66
579.04	351.08
579.21	421.30
579.37	463.43
579.53	444.70
579.69	458.74
579.85	407.25
580.01	414.27
580.17	358.10
580.33	397.89
580.49	414.27
580.65	407.25
580.82	451.72
580.98	425.98
581.14	355.76
581.30	409.59
581.46	351.08
581.62	447.04
581.78	528.96
581.94	395.55
582.10	379.17
582.26	397.89
582.42	414.27
582.58	425.98
582.74	393.21
582.90	454.06
583.06	465.77
583.22	407.25
583.38	433.00
583.54	437.68
583.70	404.91
583.86	454.06
584.02	456.40
584.18	491.51
584.34	447.04
584.50	444.70
584.66	498.53
584.82	400.23
584.98	348.74
585.14	393.21
585.30	435.34
585.46	463.43
585.62	390.87
585.78	355.76
585.94	414.27
586.10	411.93
586.26	397.89
586.42	482.15
586.58	372.15
586.74	418.96
586.90	411.93
587.06	374.49
587.22	425.98
587.38	465.77
587.54	442.36
587.70	447.04
587.86	362.78
588.02	482.15
588.18	376.83
588.34	402.57
588.49	402.57
588.65	393.21
588.81	416.62
588.97	407.25
589.13	425.98
589.29	348.74
589.45	416.62
589.61	458.74
589.77	458.74
589.93	404.91
590.08	355.76
590.24	325.33
590.40	395.55
590.56	404.91
590.72	409.59
590.88	360.44
591.04	496.19
591.20	393.21
591.35	444.70
591.51	428.32
591.67	447.04
591.83	428.32
591.99	397.89
592.15	414.27
592.31	409.59
592.46	430.66
592.62	414.27
592.78	404.91
592.94	407.25
593.10	367.46
593.26	411.93
593.41	381.51
593.57	449.38
593.73	388.53
593.89	407.25
594.05	386.19
594.20	435.34
594.36	416.62
594.52	374.49
594.68	411.93
594.84	418.96
594.99	390.87
595.15	442.36
595.31	411.93
595.47	435.34
595.62	458.74
595.78	395.55
595.94	414.27
596.10	390.87
596.25	383.85
596.41	477.47
596.57	409.59
596.73	430.66
596.88	465.77
597.04	397.89
597.20	479.81
597.36	416.62
597.51	411.93
597.67	383.85
597.83	437.68
597.99	451.72
598.14	402.57
598.30	393.21
598.46	447.04
598.61	372.15
598.77	451.72
598.93	376.83
599.09	386.19
599.24	433.00
599.40	393.21
599.56	451.72
599.71	428.32
599.87	433.00
600.03	458.74
600.18	433.00
600.34	493.85
600.50	468.11
600.65	430.66
600.81	435.34
600.97	255.12
601.12	411.93
601.28	369.80
601.44	430.66
601.59	348.74
601.75	433.00
601.91	425.98
602.06	425.98
602.22	498.53
602.37	479.81
602.53	365.12
602.69	404.91
602.84	386.19
603.00	404.91
603.16	383.85
603.31	416.62
603.47	395.55
603.62	430.66
603.78	463.43
603.94	425.98
604.09	362.78
604.25	428.32
604.40	456.40
604.56	414.27
604.71	346.40
604.87	416.62
605.03	407.25
605.18	458.74
605.34	463.43
605.49	444.70
605.65	414.27
605.80	463.43
605.96	447.04
606.12	397.89
606.27	449.38
606.43	390.87
606.58	404.91
606.74	386.19
606.89	355.76
607.05	409.59
607.20	402.57
607.36	362.78
607.51	414.27
607.67	430.66
607.82	472.79
607.98	521.94
608.13	390.87
608.29	386.19
608.44	400.23
608.60	393.21
608.75	390.87
608.91	393.21
609.06	411.93
609.22	390.87
609.37	479.81
609.53	353.42
609.68	449.38
609.84	409.59
609.99	447.04
610.15	433.00
