SpectraSuite Data File
++++++++++++++++++++++++++++++++++++
Date: Fri Oct 25 12:11:01 EDT 2013
User: price-jones
Dark Spectrum Present: No
Reference Spectrum Present: No
Number of Sampled Component Spectra: 1
Spectrometers: USB2+H05261
Integration Time (usec): 100000 (USB2+H05261)
Spectra Averaged: 1 (USB2+H05261)
Boxcar Smoothing: 0 (USB2+H05261)
Correct for Electrical Dark: No (USB2+H05261)
Strobe/Lamp Enabled: No (USB2+H05261)
Correct for Detector Non-linearity: No (USB2+H05261)
Correct for Stray Light: No (USB2+H05261)
Number of Pixels in Processed Spectrum: 2048
>>>>>Begin Processed Spectral Data<<<<<
365.73	348.74
365.92	348.74
366.12	348.74
366.32	220.01
366.52	203.63
366.72	297.25
366.91	285.55
367.11	229.37
367.31	243.42
367.51	163.84
367.70	238.73
367.90	334.70
368.10	266.82
368.30	227.03
368.49	280.86
368.69	187.24
368.89	255.12
369.09	220.01
369.28	287.89
369.48	222.35
369.68	280.86
369.87	344.06
370.07	299.59
370.27	292.57
370.47	332.36
370.66	259.80
370.86	306.61
371.06	353.42
371.25	400.23
371.45	358.10
371.65	463.43
371.84	318.31
372.04	388.53
372.24	393.21
372.44	454.06
372.63	400.23
372.83	423.64
373.03	440.02
373.22	393.21
373.42	341.72
373.62	353.42
373.81	395.55
374.01	451.72
374.21	461.09
374.40	430.66
374.60	458.74
374.79	451.72
374.99	423.64
375.19	402.57
375.38	388.53
375.58	409.59
375.78	425.98
375.97	381.51
376.17	454.06
376.37	430.66
376.56	407.25
376.76	395.55
376.95	425.98
377.15	383.85
377.35	440.02
377.54	411.93
377.74	428.32
377.93	444.70
378.13	353.42
378.33	407.25
378.52	409.59
378.72	393.21
378.91	409.59
379.11	386.19
379.31	397.89
379.50	461.09
379.70	395.55
379.89	468.11
380.09	435.34
380.28	416.62
380.48	374.49
380.68	423.64
380.87	337.04
381.07	428.32
381.26	442.36
381.46	355.76
381.65	430.66
381.85	386.19
382.04	372.15
382.24	407.25
382.43	437.68
382.63	510.24
382.83	395.55
383.02	362.78
383.22	423.64
383.41	358.10
383.61	447.04
383.80	418.96
384.00	456.40
384.19	372.15
384.39	367.46
384.58	449.38
384.78	327.68
384.97	461.09
385.17	395.55
385.36	395.55
385.56	451.72
385.75	367.46
385.95	430.66
386.14	388.53
386.34	400.23
386.53	400.23
386.72	414.27
386.92	449.38
387.11	444.70
387.31	369.80
387.50	360.44
387.70	428.32
387.89	369.80
388.09	421.30
388.28	362.78
388.48	421.30
388.67	430.66
388.86	416.62
389.06	447.04
389.25	376.83
389.45	437.68
389.64	367.46
389.84	351.08
390.03	346.40
390.22	468.11
390.42	428.32
390.61	299.59
390.81	301.93
391.00	351.08
391.19	430.66
391.39	339.38
391.58	416.62
391.78	353.42
391.97	484.49
392.16	423.64
392.36	388.53
392.55	341.72
392.75	393.21
392.94	414.27
393.13	437.68
393.33	468.11
393.52	458.74
393.71	383.85
393.91	390.87
394.10	449.38
394.29	414.27
394.49	365.12
394.68	411.93
394.88	423.64
395.07	477.47
395.26	454.06
395.46	451.72
395.65	337.04
395.84	400.23
396.04	411.93
396.23	393.21
396.42	451.72
396.62	503.22
396.81	465.77
397.00	362.78
397.19	414.27
397.39	390.87
397.58	482.15
397.77	386.19
397.97	362.78
398.16	465.77
398.35	376.83
398.55	404.91
398.74	400.23
398.93	409.59
399.12	383.85
399.32	461.09
399.51	376.83
399.70	367.46
399.90	379.17
400.09	381.51
400.28	421.30
400.47	351.08
400.67	397.89
400.86	409.59
401.05	397.89
401.24	409.59
401.44	386.19
401.63	360.44
401.82	435.34
402.01	388.53
402.21	428.32
402.40	386.19
402.59	372.15
402.78	418.96
402.97	374.49
403.17	381.51
403.36	421.30
403.55	428.32
403.74	458.74
403.93	407.25
404.13	388.53
404.32	404.91
404.51	400.23
404.70	386.19
404.89	390.87
405.09	458.74
405.28	395.55
405.47	440.02
405.66	418.96
405.85	407.25
406.05	374.49
406.24	351.08
406.43	428.32
406.62	493.85
406.81	433.00
407.00	404.91
407.20	381.51
407.39	386.19
407.58	414.27
407.77	425.98
407.96	407.25
408.15	374.49
408.34	374.49
408.54	400.23
408.73	416.62
408.92	372.15
409.11	425.98
409.30	557.05
409.49	430.66
409.68	379.17
409.87	397.89
410.07	411.93
410.26	393.21
410.45	386.19
410.64	379.17
410.83	365.12
411.02	402.57
411.21	376.83
411.40	430.66
411.59	355.76
411.78	346.40
411.98	348.74
412.17	355.76
412.36	463.43
412.55	444.70
412.74	440.02
412.93	465.77
413.12	430.66
413.31	381.51
413.50	428.32
413.69	404.91
413.88	395.55
414.07	477.47
414.26	449.38
414.45	407.25
414.64	416.62
414.83	444.70
415.02	402.57
415.22	369.80
415.41	390.87
415.60	444.70
415.79	388.53
415.98	362.78
416.17	353.42
416.36	397.89
416.55	402.57
416.74	404.91
416.93	486.83
417.12	390.87
417.31	461.09
417.50	421.30
417.69	430.66
417.88	451.72
418.07	393.21
418.26	337.04
418.45	395.55
418.64	425.98
418.83	404.91
419.02	358.10
419.21	374.49
419.39	447.04
419.58	337.04
419.77	456.40
419.96	538.32
420.15	465.77
420.34	367.46
420.53	414.27
420.72	409.59
420.91	402.57
421.10	320.65
421.29	397.89
421.48	407.25
421.67	428.32
421.86	390.87
422.05	409.59
422.24	402.57
422.43	430.66
422.61	376.83
422.80	374.49
422.99	360.44
423.18	470.45
423.37	435.34
423.56	332.36
423.75	416.62
423.94	386.19
424.13	416.62
424.32	383.85
424.50	414.27
424.69	341.72
424.88	430.66
425.07	414.27
425.26	397.89
425.45	425.98
425.64	428.32
425.83	344.06
426.01	416.62
426.20	461.09
426.39	423.64
426.58	414.27
426.77	433.00
426.96	395.55
427.15	348.74
427.33	430.66
427.52	437.68
427.71	482.15
427.90	411.93
428.09	447.04
428.28	425.98
428.46	400.23
428.65	374.49
428.84	393.21
429.03	407.25
429.22	435.34
429.40	360.44
429.59	430.66
429.78	404.91
429.97	442.36
430.16	489.17
430.34	437.68
430.53	411.93
430.72	409.59
430.91	402.57
431.10	404.91
431.28	456.40
431.47	411.93
431.66	442.36
431.85	402.57
432.03	390.87
432.22	437.68
432.41	374.49
432.60	416.62
432.79	388.53
432.97	430.66
433.16	397.89
433.35	414.27
433.54	400.23
433.72	379.17
433.91	409.59
434.10	393.21
434.28	444.70
434.47	397.89
434.66	418.96
434.85	414.27
435.03	425.98
435.22	381.51
435.41	430.66
435.59	395.55
435.78	416.62
435.97	433.00
436.16	409.59
436.34	397.89
436.53	362.78
436.72	402.57
436.90	428.32
437.09	353.42
437.28	454.06
437.46	393.21
437.65	416.62
437.84	395.55
438.02	404.91
438.21	475.13
438.40	430.66
438.58	360.44
438.77	397.89
438.96	332.36
439.14	390.87
439.33	397.89
439.52	435.34
439.70	475.13
439.89	435.34
440.08	451.72
440.26	397.89
440.45	400.23
440.63	416.62
440.82	376.83
441.01	433.00
441.19	341.72
441.38	437.68
441.57	458.74
441.75	369.80
441.94	479.81
442.12	393.21
442.31	395.55
442.50	411.93
442.68	407.25
442.87	411.93
443.05	435.34
443.24	416.62
443.43	414.27
443.61	456.40
443.80	418.96
443.98	451.72
444.17	449.38
444.35	440.02
444.54	435.34
444.73	351.08
444.91	465.77
445.10	379.17
445.28	393.21
445.47	400.23
445.65	414.27
445.84	346.40
446.02	421.30
446.21	421.30
446.39	451.72
446.58	388.53
446.77	425.98
446.95	407.25
447.14	388.53
447.32	442.36
447.51	376.83
447.69	517.26
447.88	404.91
448.06	428.32
448.25	390.87
448.43	372.15
448.62	383.85
448.80	465.77
448.99	503.22
449.17	407.25
449.36	444.70
449.54	390.87
449.73	322.99
449.91	444.70
450.10	337.04
450.28	465.77
450.46	514.92
450.65	421.30
450.83	461.09
451.02	491.51
451.20	367.46
451.39	369.80
451.57	397.89
451.76	397.89
451.94	383.85
452.13	437.68
452.31	397.89
452.49	447.04
452.68	386.19
452.86	414.27
453.05	449.38
453.23	447.04
453.42	339.38
453.60	430.66
453.78	376.83
453.97	458.74
454.15	393.21
454.34	411.93
454.52	418.96
454.70	374.49
454.89	383.85
455.07	390.87
455.26	421.30
455.44	411.93
455.62	393.21
455.81	458.74
455.99	404.91
456.17	468.11
456.36	409.59
456.54	416.62
456.73	458.74
456.91	390.87
457.09	449.38
457.28	395.55
457.46	372.15
457.64	468.11
457.83	372.15
458.01	447.04
458.19	461.09
458.38	353.42
458.56	470.45
458.74	411.93
458.93	365.12
459.11	451.72
459.29	358.10
459.48	341.72
459.66	449.38
459.84	374.49
460.03	451.72
460.21	440.02
460.39	456.40
460.57	425.98
460.76	468.11
460.94	411.93
461.12	472.79
461.31	493.85
461.49	404.91
461.67	414.27
461.85	346.40
462.04	376.83
462.22	496.19
462.40	390.87
462.59	451.72
462.77	332.36
462.95	395.55
463.13	449.38
463.32	447.04
463.50	456.40
463.68	433.00
463.86	355.76
464.05	402.57
464.23	411.93
464.41	407.25
464.59	365.12
464.78	355.76
464.96	379.17
465.14	425.98
465.32	400.23
465.50	416.62
465.69	440.02
465.87	337.04
466.05	442.36
466.23	334.70
466.41	379.17
466.60	395.55
466.78	369.80
466.96	454.06
467.14	454.06
467.32	411.93
467.51	454.06
467.69	475.13
467.87	421.30
468.05	367.46
468.23	451.72
468.41	430.66
468.60	454.06
468.78	376.83
468.96	449.38
469.14	390.87
469.32	414.27
469.50	409.59
469.69	407.25
469.87	442.36
470.05	418.96
470.23	444.70
470.41	351.08
470.59	351.08
470.77	404.91
470.95	440.02
471.14	395.55
471.32	428.32
471.50	428.32
471.68	442.36
471.86	421.30
472.04	376.83
472.22	479.81
472.40	416.62
472.58	433.00
472.77	411.93
472.95	407.25
473.13	425.98
473.31	444.70
473.49	348.74
473.67	416.62
473.85	330.02
474.03	358.10
474.21	430.66
474.39	388.53
474.57	444.70
474.75	388.53
474.93	423.64
475.12	346.40
475.30	430.66
475.48	362.78
475.66	440.02
475.84	400.23
476.02	341.72
476.20	346.40
476.38	451.72
476.56	507.90
476.74	421.30
476.92	351.08
477.10	433.00
477.28	444.70
477.46	416.62
477.64	477.47
477.82	454.06
478.00	411.93
478.18	463.43
478.36	397.89
478.54	402.57
478.72	470.45
478.90	372.15
479.08	423.64
479.26	454.06
479.44	402.57
479.62	423.64
479.80	318.31
479.98	489.17
480.16	374.49
480.34	503.22
480.52	376.83
480.70	468.11
480.88	407.25
481.06	407.25
481.24	374.49
481.41	393.21
481.59	475.13
481.77	423.64
481.95	379.17
482.13	430.66
482.31	435.34
482.49	454.06
482.67	381.51
482.85	437.68
483.03	383.85
483.21	409.59
483.39	479.81
483.57	402.57
483.74	416.62
483.92	425.98
484.10	407.25
484.28	381.51
484.46	449.38
484.64	437.68
484.82	425.98
485.00	383.85
485.18	428.32
485.35	390.87
485.53	416.62
485.71	369.80
485.89	388.53
486.07	379.17
486.25	447.04
486.43	435.34
486.61	444.70
486.78	416.62
486.96	322.99
487.14	470.45
487.32	425.98
487.50	428.32
487.68	402.57
487.85	423.64
488.03	428.32
488.21	458.74
488.39	493.85
488.57	444.70
488.75	353.42
488.92	503.22
489.10	414.27
489.28	402.57
489.46	339.38
489.64	411.93
489.81	414.27
489.99	346.40
490.17	407.25
490.35	524.28
490.53	423.64
490.70	409.59
490.88	456.40
491.06	344.06
491.24	456.40
491.41	458.74
491.59	386.19
491.77	444.70
491.95	512.58
492.13	421.30
492.30	355.76
492.48	423.64
492.66	367.46
492.84	383.85
493.01	421.30
493.19	430.66
493.37	498.53
493.54	430.66
493.72	458.74
493.90	456.40
494.08	444.70
494.25	437.68
494.43	351.08
494.61	376.83
494.79	365.12
494.96	428.32
495.14	437.68
495.32	358.10
495.49	400.23
495.67	454.06
495.85	435.34
496.02	395.55
496.20	454.06
496.38	390.87
496.55	454.06
496.73	381.51
496.91	400.23
497.09	421.30
497.26	440.02
497.44	383.85
497.62	372.15
497.79	374.49
497.97	440.02
498.14	463.43
498.32	437.68
498.50	353.42
498.67	463.43
498.85	390.87
499.03	435.34
499.20	430.66
499.38	404.91
499.56	411.93
499.73	451.72
499.91	449.38
500.08	358.10
500.26	355.76
500.44	440.02
500.61	458.74
500.79	411.93
500.97	475.13
501.14	454.06
501.32	465.77
501.49	442.36
501.67	418.96
501.84	374.49
502.02	472.79
502.20	447.04
502.37	449.38
502.55	402.57
502.72	390.87
502.90	461.09
503.07	341.72
503.25	397.89
503.43	425.98
503.60	381.51
503.78	337.04
503.95	386.19
504.13	493.85
504.30	400.23
504.48	416.62
504.65	468.11
504.83	423.64
505.01	369.80
505.18	367.46
505.36	376.83
505.53	404.91
505.71	468.11
505.88	360.44
506.06	407.25
506.23	414.27
506.41	395.55
506.58	379.17
506.76	430.66
506.93	339.38
507.11	393.21
507.28	332.36
507.46	341.72
507.63	334.70
507.81	386.19
507.98	404.91
508.16	397.89
508.33	465.77
508.50	402.57
508.68	428.32
508.85	433.00
509.03	379.17
509.20	381.51
509.38	372.15
509.55	395.55
509.73	374.49
509.90	379.17
510.08	486.83
510.25	397.89
510.42	400.23
510.60	479.81
510.77	435.34
510.95	496.19
511.12	390.87
511.30	390.87
511.47	379.17
511.64	423.64
511.82	437.68
511.99	381.51
512.17	468.11
512.34	404.91
512.51	418.96
512.69	379.17
512.86	423.64
513.04	454.06
513.21	362.78
513.38	421.30
513.56	472.79
513.73	475.13
513.90	355.76
514.08	404.91
514.25	409.59
514.43	468.11
514.60	404.91
514.77	538.32
514.95	435.34
515.12	400.23
515.29	440.02
515.47	484.49
515.64	428.32
515.81	367.46
515.99	416.62
516.16	388.53
516.33	416.62
516.51	421.30
516.68	390.87
516.85	430.66
517.03	393.21
517.20	369.80
517.37	430.66
517.54	365.12
517.72	430.66
517.89	367.46
518.06	456.40
518.24	433.00
518.41	402.57
518.58	449.38
518.75	409.59
518.93	440.02
519.10	479.81
519.27	442.36
519.45	360.44
519.62	421.30
519.79	414.27
519.96	346.40
520.14	472.79
520.31	402.57
520.48	477.47
520.65	402.57
520.83	482.15
521.00	407.25
521.17	454.06
521.34	435.34
521.52	365.12
521.69	383.85
521.86	458.74
522.03	409.59
522.20	416.62
522.38	383.85
522.55	409.59
522.72	346.40
522.89	425.98
523.07	465.77
523.24	393.21
523.41	332.36
523.58	519.60
523.75	365.12
523.92	416.62
524.10	411.93
524.27	379.17
524.44	416.62
524.61	449.38
524.78	463.43
524.96	447.04
525.13	400.23
525.30	411.93
525.47	418.96
525.64	393.21
525.81	407.25
525.98	449.38
526.16	472.79
526.33	400.23
526.50	402.57
526.67	468.11
526.84	400.23
527.01	379.17
527.18	397.89
527.36	416.62
527.53	383.85
527.70	486.83
527.87	400.23
528.04	477.47
528.21	365.12
528.38	442.36
528.55	388.53
528.72	491.51
528.89	472.79
529.07	409.59
529.24	414.27
529.41	449.38
529.58	372.15
529.75	395.55
529.92	482.15
530.09	379.17
530.26	407.25
530.43	444.70
530.60	397.89
530.77	444.70
530.94	454.06
531.11	421.30
531.28	325.33
531.46	411.93
531.63	404.91
531.80	442.36
531.97	411.93
532.14	423.64
532.31	376.83
532.48	402.57
532.65	407.25
532.82	379.17
532.99	440.02
533.16	404.91
533.33	416.62
533.50	372.15
533.67	381.51
533.84	407.25
534.01	416.62
534.18	386.19
534.35	409.59
534.52	411.93
534.69	442.36
534.86	400.23
535.03	407.25
535.20	395.55
535.37	458.74
535.54	390.87
535.71	390.87
535.88	435.34
536.05	425.98
536.22	381.51
536.38	409.59
536.55	404.91
536.72	379.17
536.89	360.44
537.06	400.23
537.23	355.76
537.40	423.64
537.57	435.34
537.74	435.34
537.91	409.59
538.08	372.15
538.25	407.25
538.42	407.25
538.59	400.23
538.75	454.06
538.92	397.89
539.09	418.96
539.26	395.55
539.43	454.06
539.60	430.66
539.77	418.96
539.94	411.93
540.11	433.00
540.28	444.70
540.44	442.36
540.61	400.23
540.78	458.74
540.95	388.53
541.12	498.53
541.29	409.59
541.46	500.87
541.62	407.25
541.79	393.21
541.96	341.72
542.13	428.32
542.30	430.66
542.47	440.02
542.63	451.72
542.80	428.32
542.97	482.15
543.14	411.93
543.31	447.04
543.48	477.47
543.64	425.98
543.81	433.00
543.98	407.25
544.15	381.51
544.32	397.89
544.48	416.62
544.65	472.79
544.82	390.87
544.99	433.00
545.16	423.64
545.32	386.19
545.49	414.27
545.66	430.66
545.83	465.77
546.00	381.51
546.16	416.62
546.33	430.66
546.50	435.34
546.67	393.21
546.83	393.21
547.00	400.23
547.17	433.00
547.34	423.64
547.50	400.23
547.67	397.89
547.84	407.25
548.00	414.27
548.17	362.78
548.34	400.23
548.51	418.96
548.67	390.87
548.84	409.59
549.01	414.27
549.18	402.57
549.34	383.85
549.51	411.93
549.68	386.19
549.84	351.08
550.01	421.30
550.18	519.60
550.34	503.22
550.51	416.62
550.68	381.51
550.84	449.38
551.01	388.53
551.18	322.99
551.34	386.19
551.51	433.00
551.68	444.70
551.84	444.70
552.01	386.19
552.18	374.49
552.34	514.92
552.51	379.17
552.68	367.46
552.84	458.74
553.01	430.66
553.18	421.30
553.34	421.30
553.51	479.81
553.67	414.27
553.84	454.06
554.01	360.44
554.17	407.25
554.34	430.66
554.51	440.02
554.67	482.15
554.84	425.98
555.00	440.02
555.17	430.66
555.33	428.32
555.50	425.98
555.67	435.34
555.83	388.53
556.00	339.38
556.16	543.00
556.33	447.04
556.50	346.40
556.66	486.83
556.83	458.74
556.99	458.74
557.16	407.25
557.32	353.42
557.49	430.66
557.65	367.46
557.82	421.30
557.98	433.00
558.15	386.19
558.32	421.30
558.48	421.30
558.65	437.68
558.81	435.34
558.98	411.93
559.14	367.46
559.31	482.15
559.47	379.17
559.64	369.80
559.80	369.80
559.97	388.53
560.13	386.19
560.30	442.36
560.46	376.83
560.63	468.11
560.79	407.25
560.96	416.62
561.12	369.80
561.29	477.47
561.45	416.62
561.61	414.27
561.78	411.93
561.94	376.83
562.11	416.62
562.27	397.89
562.44	362.78
562.60	423.64
562.77	435.34
562.93	505.56
563.10	407.25
563.26	421.30
563.42	402.57
563.59	463.43
563.75	416.62
563.92	386.19
564.08	440.02
564.24	451.72
564.41	482.15
564.57	372.15
564.74	393.21
564.90	510.24
565.07	418.96
565.23	468.11
565.39	425.98
565.56	447.04
565.72	477.47
565.88	397.89
566.05	440.02
566.21	388.53
566.38	365.12
566.54	404.91
566.70	369.80
566.87	414.27
567.03	374.49
567.19	428.32
567.36	423.64
567.52	454.06
567.68	454.06
567.85	491.51
568.01	451.72
568.17	355.76
568.34	367.46
568.50	545.34
568.66	418.96
568.83	486.83
568.99	444.70
569.15	407.25
569.32	360.44
569.48	404.91
569.64	444.70
569.81	358.10
569.97	451.72
570.13	444.70
570.30	360.44
570.46	456.40
570.62	447.04
570.78	411.93
570.95	355.76
571.11	479.81
571.27	428.32
571.43	414.27
571.60	404.91
571.76	395.55
571.92	362.78
572.09	390.87
572.25	360.44
572.41	414.27
572.57	451.72
572.74	400.23
572.90	491.51
573.06	388.53
573.22	433.00
573.38	458.74
573.55	477.47
573.71	325.33
573.87	367.46
574.03	397.89
574.20	423.64
574.36	374.49
574.52	458.74
574.68	379.17
574.84	437.68
575.01	407.25
575.17	418.96
575.33	388.53
575.49	477.47
575.65	456.40
575.82	390.87
575.98	414.27
576.14	425.98
576.30	367.46
576.46	393.21
576.62	449.38
576.79	402.57
576.95	454.06
577.11	437.68
577.27	437.68
577.43	421.30
577.59	479.81
577.75	433.00
577.92	461.09
578.08	428.32
578.24	423.64
578.40	414.27
578.56	414.27
578.72	449.38
578.88	400.23
579.04	484.49
579.21	362.78
579.37	379.17
579.53	390.87
579.69	451.72
579.85	444.70
580.01	458.74
580.17	425.98
580.33	416.62
580.49	402.57
580.65	461.09
580.82	442.36
580.98	418.96
581.14	442.36
581.30	468.11
581.46	372.15
581.62	372.15
581.78	367.46
581.94	376.83
582.10	386.19
582.26	409.59
582.42	416.62
582.58	353.42
582.74	404.91
582.90	423.64
583.06	402.57
583.22	381.51
583.38	414.27
583.54	397.89
583.70	428.32
583.86	456.40
584.02	414.27
584.18	409.59
584.34	458.74
584.50	505.56
584.66	341.72
584.82	397.89
584.98	369.80
585.14	395.55
585.30	475.13
585.46	430.66
585.62	421.30
585.78	388.53
585.94	437.68
586.10	430.66
586.26	404.91
586.42	414.27
586.58	409.59
586.74	444.70
586.90	404.91
587.06	416.62
587.22	416.62
587.38	418.96
587.54	447.04
587.70	379.17
587.86	484.49
588.02	402.57
588.18	351.08
588.34	435.34
588.49	390.87
588.65	418.96
588.81	416.62
588.97	367.46
589.13	440.02
589.29	458.74
589.45	451.72
589.61	475.13
589.77	475.13
589.93	444.70
590.08	430.66
590.24	372.15
590.40	458.74
590.56	454.06
590.72	507.90
590.88	367.46
591.04	461.09
591.20	458.74
591.35	400.23
591.51	383.85
591.67	416.62
591.83	390.87
591.99	372.15
592.15	447.04
592.31	437.68
592.46	386.19
592.62	388.53
592.78	486.83
592.94	433.00
593.10	458.74
593.26	390.87
593.41	489.17
593.57	430.66
593.73	390.87
593.89	482.15
594.05	360.44
594.20	374.49
594.36	374.49
594.52	367.46
594.68	503.22
594.84	404.91
594.99	456.40
595.15	428.32
595.31	437.68
595.47	444.70
595.62	374.49
595.78	416.62
595.94	400.23
596.10	435.34
596.25	472.79
596.41	456.40
596.57	458.74
596.73	442.36
596.88	360.44
597.04	456.40
597.20	369.80
597.36	496.19
597.51	421.30
597.67	411.93
597.83	421.30
597.99	472.79
598.14	451.72
598.30	475.13
598.46	411.93
598.61	381.51
598.77	435.34
598.93	440.02
599.09	395.55
599.24	397.89
599.40	505.56
599.56	414.27
599.71	402.57
599.87	454.06
600.03	423.64
600.18	390.87
600.34	365.12
600.50	437.68
600.65	425.98
600.81	379.17
600.97	376.83
601.12	390.87
601.28	451.72
601.44	369.80
601.59	418.96
601.75	418.96
601.91	416.62
602.06	444.70
602.22	461.09
602.37	322.99
602.53	351.08
602.69	418.96
602.84	409.59
603.00	414.27
603.16	374.49
603.31	358.10
603.47	362.78
603.62	458.74
603.78	433.00
603.94	397.89
604.09	479.81
604.25	442.36
604.40	477.47
604.56	414.27
604.71	369.80
604.87	425.98
605.03	484.49
605.18	444.70
605.34	402.57
605.49	386.19
605.65	402.57
605.80	454.06
605.96	449.38
606.12	393.21
606.27	451.72
606.43	440.02
606.58	461.09
606.74	381.51
606.89	374.49
607.05	348.74
607.20	526.62
607.36	496.19
607.51	409.59
607.67	402.57
607.82	456.40
607.98	421.30
608.13	433.00
608.29	407.25
608.44	447.04
608.60	418.96
608.75	444.70
608.91	409.59
609.06	425.98
609.22	381.51
609.37	451.72
609.53	409.59
609.68	447.04
609.84	346.40
609.99	383.85
610.15	428.32
