SpectraSuite Data File
++++++++++++++++++++++++++++++++++++
Date: Fri Oct 25 12:11:32 EDT 2013
User: price-jones
Dark Spectrum Present: No
Reference Spectrum Present: No
Number of Sampled Component Spectra: 1
Spectrometers: USB2+H05261
Integration Time (usec): 100000 (USB2+H05261)
Spectra Averaged: 1 (USB2+H05261)
Boxcar Smoothing: 0 (USB2+H05261)
Correct for Electrical Dark: No (USB2+H05261)
Strobe/Lamp Enabled: No (USB2+H05261)
Correct for Detector Non-linearity: No (USB2+H05261)
Correct for Stray Light: No (USB2+H05261)
Number of Pixels in Processed Spectrum: 2048
>>>>>Begin Processed Spectral Data<<<<<
365.73	269.16
365.92	269.16
366.12	269.16
366.32	337.04
366.52	252.78
366.72	306.61
366.91	147.45
367.11	245.76
367.31	196.60
367.51	285.55
367.70	217.67
367.90	212.99
368.10	217.67
368.30	243.42
368.49	177.88
368.69	210.65
368.89	297.25
369.09	252.78
369.28	301.93
369.48	318.31
369.68	325.33
369.87	325.33
370.07	290.23
370.27	308.95
370.47	346.40
370.66	365.12
370.86	369.80
371.06	395.55
371.25	444.70
371.45	325.33
371.65	374.49
371.84	358.10
372.04	362.78
372.24	402.57
372.44	407.25
372.63	390.87
372.83	388.53
373.03	428.32
373.22	344.06
373.42	383.85
373.62	397.89
373.81	428.32
374.01	428.32
374.21	454.06
374.40	435.34
374.60	449.38
374.79	404.91
374.99	353.42
375.19	404.91
375.38	348.74
375.58	423.64
375.78	458.74
375.97	458.74
376.17	388.53
376.37	435.34
376.56	475.13
376.76	353.42
376.95	411.93
377.15	470.45
377.35	395.55
377.54	458.74
377.74	470.45
377.93	433.00
378.13	435.34
378.33	477.47
378.52	372.15
378.72	404.91
378.91	395.55
379.11	409.59
379.31	372.15
379.50	351.08
379.70	402.57
379.89	421.30
380.09	341.72
380.28	376.83
380.48	320.65
380.68	416.62
380.87	407.25
381.07	444.70
381.26	470.45
381.46	500.87
381.65	433.00
381.85	379.17
382.04	414.27
382.24	447.04
382.43	411.93
382.63	369.80
382.83	400.23
383.02	526.62
383.22	477.47
383.41	423.64
383.61	397.89
383.80	383.85
384.00	400.23
384.19	482.15
384.39	395.55
384.58	411.93
384.78	437.68
384.97	362.78
385.17	437.68
385.36	421.30
385.56	437.68
385.75	414.27
385.95	444.70
386.14	505.56
386.34	362.78
386.53	390.87
386.72	379.17
386.92	444.70
387.11	444.70
387.31	374.49
387.50	407.25
387.70	463.43
387.89	374.49
388.09	423.64
388.28	468.11
388.48	337.04
388.67	358.10
388.86	458.74
389.06	383.85
389.25	341.72
389.45	404.91
389.64	435.34
389.84	437.68
390.03	402.57
390.22	390.87
390.42	411.93
390.61	355.76
390.81	418.96
391.00	369.80
391.19	440.02
391.39	358.10
391.58	463.43
391.78	374.49
391.97	351.08
392.16	365.12
392.36	449.38
392.55	388.53
392.75	421.30
392.94	421.30
393.13	479.81
393.33	388.53
393.52	428.32
393.71	379.17
393.91	418.96
394.10	454.06
394.29	402.57
394.49	400.23
394.68	442.36
394.88	393.21
395.07	383.85
395.26	444.70
395.46	411.93
395.65	423.64
395.84	465.77
396.04	470.45
396.23	383.85
396.42	475.13
396.62	437.68
396.81	430.66
397.00	388.53
397.19	360.44
397.39	421.30
397.58	512.58
397.77	463.43
397.97	393.21
398.16	428.32
398.35	362.78
398.55	447.04
398.74	451.72
398.93	390.87
399.12	447.04
399.32	435.34
399.51	365.12
399.70	383.85
399.90	411.93
400.09	416.62
400.28	418.96
400.47	386.19
400.67	435.34
400.86	369.80
401.05	449.38
401.24	411.93
401.44	418.96
401.63	470.45
401.82	308.95
402.01	362.78
402.21	397.89
402.40	449.38
402.59	402.57
402.78	341.72
402.97	435.34
403.17	435.34
403.36	407.25
403.55	362.78
403.74	386.19
403.93	344.06
404.13	442.36
404.32	360.44
404.51	444.70
404.70	430.66
404.89	388.53
405.09	381.51
405.28	404.91
405.47	447.04
405.66	369.80
405.85	395.55
406.05	416.62
406.24	400.23
406.43	461.09
406.62	447.04
406.81	397.89
407.00	479.81
407.20	468.11
407.39	379.17
407.58	454.06
407.77	472.79
407.96	458.74
408.15	442.36
408.34	416.62
408.54	472.79
408.73	400.23
408.92	449.38
409.11	437.68
409.30	458.74
409.49	418.96
409.68	440.02
409.87	397.89
410.07	449.38
410.26	409.59
410.45	428.32
410.64	472.79
410.83	440.02
411.02	381.51
411.21	407.25
411.40	472.79
411.59	433.00
411.78	374.49
411.98	379.17
412.17	393.21
412.36	433.00
412.55	334.70
412.74	447.04
412.93	498.53
413.12	348.74
413.31	442.36
413.50	449.38
413.69	454.06
413.88	465.77
414.07	479.81
414.26	458.74
414.45	440.02
414.64	416.62
414.83	458.74
415.02	393.21
415.22	428.32
415.41	339.38
415.60	404.91
415.79	461.09
415.98	393.21
416.17	407.25
416.36	463.43
416.55	423.64
416.74	346.40
416.93	465.77
417.12	334.70
417.31	454.06
417.50	360.44
417.69	400.23
417.88	416.62
418.07	362.78
418.26	407.25
418.45	395.55
418.64	489.17
418.83	484.49
419.02	449.38
419.21	425.98
419.39	472.79
419.58	381.51
419.77	369.80
419.96	423.64
420.15	437.68
420.34	376.83
420.53	425.98
420.72	421.30
420.91	372.15
421.10	454.06
421.29	444.70
421.48	468.11
421.67	365.12
421.86	407.25
422.05	442.36
422.24	477.47
422.43	416.62
422.61	390.87
422.80	358.10
422.99	351.08
423.18	430.66
423.37	489.17
423.56	414.27
423.75	526.62
423.94	421.30
424.13	390.87
424.32	486.83
424.50	383.85
424.69	421.30
424.88	484.49
425.07	386.19
425.26	440.02
425.45	428.32
425.64	470.45
425.83	418.96
426.01	372.15
426.20	393.21
426.39	376.83
426.58	437.68
426.77	442.36
426.96	444.70
427.15	388.53
427.33	393.21
427.52	404.91
427.71	407.25
427.90	458.74
428.09	381.51
428.28	409.59
428.46	330.02
428.65	395.55
428.84	421.30
429.03	423.64
429.22	402.57
429.40	322.99
429.59	327.68
429.78	411.93
429.97	365.12
430.16	468.11
430.34	454.06
430.53	374.49
430.72	393.21
430.91	388.53
431.10	451.72
431.28	433.00
431.47	526.62
431.66	379.17
431.85	433.00
432.03	362.78
432.22	440.02
432.41	428.32
432.60	379.17
432.79	386.19
432.97	346.40
433.16	430.66
433.35	337.04
433.54	421.30
433.72	484.49
433.91	369.80
434.10	435.34
434.28	444.70
434.47	489.17
434.66	386.19
434.85	430.66
435.03	458.74
435.22	461.09
435.41	444.70
435.59	414.27
435.78	376.83
435.97	458.74
436.16	407.25
436.34	449.38
436.53	395.55
436.72	479.81
436.90	409.59
437.09	390.87
437.28	479.81
437.46	402.57
437.65	360.44
437.84	442.36
438.02	475.13
438.21	447.04
438.40	421.30
438.58	400.23
438.77	437.68
438.96	454.06
439.14	404.91
439.33	400.23
439.52	440.02
439.70	435.34
439.89	411.93
440.08	475.13
440.26	395.55
440.45	404.91
440.63	372.15
440.82	360.44
441.01	430.66
441.19	372.15
441.38	383.85
441.57	416.62
441.75	414.27
441.94	433.00
442.12	374.49
442.31	360.44
442.50	465.77
442.68	437.68
442.87	465.77
443.05	414.27
443.24	388.53
443.43	435.34
443.61	514.92
443.80	425.98
443.98	475.13
444.17	433.00
444.35	374.49
444.54	418.96
444.73	433.00
444.91	402.57
445.10	411.93
445.28	414.27
445.47	449.38
445.65	463.43
445.84	416.62
446.02	423.64
446.21	435.34
446.39	393.21
446.58	386.19
446.77	337.04
446.95	372.15
447.14	456.40
447.32	463.43
447.51	425.98
447.69	456.40
447.88	444.70
448.06	372.15
448.25	421.30
448.43	395.55
448.62	414.27
448.80	472.79
448.99	456.40
449.17	407.25
449.36	369.80
449.54	376.83
449.73	437.68
449.91	423.64
450.10	440.02
450.28	468.11
450.46	365.12
450.65	369.80
450.83	484.49
451.02	386.19
451.20	433.00
451.39	411.93
451.57	381.51
451.76	339.38
451.94	430.66
452.13	374.49
452.31	435.34
452.49	463.43
452.68	388.53
452.86	390.87
453.05	421.30
453.23	430.66
453.42	397.89
453.60	425.98
453.78	409.59
453.97	365.12
454.15	414.27
454.34	482.15
454.52	404.91
454.70	442.36
454.89	379.17
455.07	393.21
455.26	379.17
455.44	442.36
455.62	402.57
455.81	468.11
455.99	374.49
456.17	407.25
456.36	397.89
456.54	362.78
456.73	395.55
456.91	383.85
457.09	388.53
457.28	418.96
457.46	430.66
457.64	379.17
457.83	421.30
458.01	465.77
458.19	379.17
458.38	444.70
458.56	451.72
458.74	390.87
458.93	454.06
459.11	400.23
459.29	397.89
459.48	395.55
459.66	416.62
459.84	456.40
460.03	519.60
460.21	416.62
460.39	442.36
460.57	383.85
460.76	442.36
460.94	390.87
461.12	425.98
461.31	383.85
461.49	407.25
461.67	416.62
461.85	465.77
462.04	407.25
462.22	788.76
462.40	477.47
462.59	463.43
462.77	372.15
462.95	451.72
463.13	395.55
463.32	465.77
463.50	447.04
463.68	472.79
463.86	444.70
464.05	402.57
464.23	482.15
464.41	425.98
464.59	423.64
464.78	386.19
464.96	444.70
465.14	358.10
465.32	425.98
465.50	447.04
465.69	430.66
465.87	407.25
466.05	418.96
466.23	449.38
466.41	360.44
466.60	409.59
466.78	341.72
466.96	395.55
467.14	339.38
467.32	390.87
467.51	437.68
467.69	348.74
467.87	433.00
468.05	425.98
468.23	440.02
468.41	458.74
468.60	461.09
468.78	411.93
468.96	414.27
469.14	355.76
469.32	320.65
469.50	482.15
469.69	451.72
469.87	367.46
470.05	390.87
470.23	388.53
470.41	433.00
470.59	355.76
470.77	418.96
470.95	458.74
471.14	496.19
471.32	458.74
471.50	421.30
471.68	440.02
471.86	437.68
472.04	414.27
472.22	404.91
472.40	393.21
472.58	428.32
472.77	440.02
472.95	393.21
473.13	383.85
473.31	447.04
473.49	456.40
473.67	372.15
473.85	449.38
474.03	437.68
474.21	451.72
474.39	500.87
474.57	344.06
474.75	505.56
474.93	341.72
475.12	430.66
475.30	360.44
475.48	416.62
475.66	400.23
475.84	383.85
476.02	472.79
476.20	451.72
476.38	407.25
476.56	449.38
476.74	393.21
476.92	411.93
477.10	449.38
477.28	416.62
477.46	381.51
477.64	449.38
477.82	435.34
478.00	423.64
478.18	463.43
478.36	362.78
478.54	465.77
478.72	440.02
478.90	435.34
479.08	411.93
479.26	365.12
479.44	428.32
479.62	381.51
479.80	386.19
479.98	400.23
480.16	489.17
480.34	465.77
480.52	388.53
480.70	402.57
480.88	425.98
481.06	440.02
481.24	369.80
481.41	524.28
481.59	369.80
481.77	444.70
481.95	440.02
482.13	463.43
482.31	418.96
482.49	393.21
482.67	386.19
482.85	416.62
483.03	397.89
483.21	416.62
483.39	374.49
483.57	472.79
483.74	468.11
483.92	421.30
484.10	407.25
484.28	395.55
484.46	475.13
484.64	435.34
484.82	440.02
485.00	440.02
485.18	379.17
485.35	407.25
485.53	390.87
485.71	376.83
485.89	447.04
486.07	407.25
486.25	444.70
486.43	416.62
486.61	437.68
486.78	479.81
486.96	322.99
487.14	404.91
487.32	372.15
487.50	425.98
487.68	379.17
487.85	376.83
488.03	461.09
488.21	430.66
488.39	484.49
488.57	421.30
488.75	449.38
488.92	540.66
489.10	414.27
489.28	454.06
489.46	404.91
489.64	418.96
489.81	423.64
489.99	423.64
490.17	402.57
490.35	468.11
490.53	362.78
490.70	407.25
490.88	444.70
491.06	451.72
491.24	414.27
491.41	411.93
491.59	414.27
491.77	461.09
491.95	374.49
492.13	386.19
492.30	341.72
492.48	421.30
492.66	437.68
492.84	376.83
493.01	388.53
493.19	379.17
493.37	404.91
493.54	418.96
493.72	360.44
493.90	444.70
494.08	400.23
494.25	407.25
494.43	449.38
494.61	477.47
494.79	435.34
494.96	365.12
495.14	442.36
495.32	411.93
495.49	339.38
495.67	409.59
495.85	470.45
496.02	458.74
496.20	365.12
496.38	482.15
496.55	388.53
496.73	421.30
496.91	493.85
497.09	414.27
497.26	367.46
497.44	461.09
497.62	414.27
497.79	397.89
497.97	430.66
498.14	383.85
498.32	465.77
498.50	428.32
498.67	416.62
498.85	500.87
499.03	416.62
499.20	320.65
499.38	442.36
499.56	430.66
499.73	486.83
499.91	414.27
500.08	397.89
500.26	409.59
500.44	339.38
500.61	425.98
500.79	374.49
500.97	454.06
501.14	430.66
501.32	425.98
501.49	461.09
501.67	376.83
501.84	411.93
502.02	374.49
502.20	425.98
502.37	444.70
502.55	435.34
502.72	393.21
502.90	404.91
503.07	411.93
503.25	379.17
503.43	463.43
503.60	388.53
503.78	388.53
503.95	512.58
504.13	418.96
504.30	442.36
504.48	463.43
504.65	514.92
504.83	421.30
505.01	381.51
505.18	437.68
505.36	414.27
505.53	402.57
505.71	351.08
505.88	440.02
506.06	468.11
506.23	463.43
506.41	468.11
506.58	395.55
506.76	421.30
506.93	365.12
507.11	390.87
507.28	454.06
507.46	458.74
507.63	454.06
507.81	381.51
507.98	367.46
508.16	454.06
508.33	440.02
508.50	475.13
508.68	418.96
508.85	418.96
509.03	472.79
509.20	400.23
509.38	442.36
509.55	465.77
509.73	519.60
509.90	367.46
510.08	388.53
510.25	402.57
510.42	444.70
510.60	407.25
510.77	414.27
510.95	500.87
511.12	390.87
511.30	475.13
511.47	505.56
511.64	484.49
511.82	421.30
511.99	447.04
512.17	383.85
512.34	407.25
512.51	337.04
512.69	393.21
512.86	383.85
513.04	416.62
513.21	428.32
513.38	425.98
513.56	425.98
513.73	442.36
513.90	390.87
514.08	440.02
514.25	400.23
514.43	411.93
514.60	449.38
514.77	444.70
514.95	400.23
515.12	407.25
515.29	411.93
515.47	355.76
515.64	458.74
515.81	437.68
515.99	372.15
516.16	423.64
516.33	454.06
516.51	411.93
516.68	402.57
516.85	395.55
517.03	367.46
517.20	374.49
517.37	407.25
517.54	360.44
517.72	388.53
517.89	393.21
518.06	444.70
518.24	355.76
518.41	449.38
518.58	458.74
518.75	383.85
518.93	461.09
519.10	423.64
519.27	433.00
519.45	409.59
519.62	397.89
519.79	409.59
519.96	369.80
520.14	409.59
520.31	416.62
520.48	416.62
520.65	414.27
520.83	402.57
521.00	444.70
521.17	430.66
521.34	397.89
521.52	456.40
521.69	489.17
521.86	440.02
522.03	416.62
522.20	416.62
522.38	379.17
522.55	390.87
522.72	393.21
522.89	360.44
523.07	367.46
523.24	397.89
523.41	449.38
523.58	367.46
523.75	437.68
523.92	435.34
524.10	421.30
524.27	465.77
524.44	379.17
524.61	376.83
524.78	423.64
524.96	423.64
525.13	414.27
525.30	397.89
525.47	383.85
525.64	447.04
525.81	482.15
525.98	409.59
526.16	428.32
526.33	390.87
526.50	409.59
526.67	355.76
526.84	358.10
527.01	437.68
527.18	390.87
527.36	365.12
527.53	379.17
527.70	430.66
527.87	437.68
528.04	444.70
528.21	390.87
528.38	418.96
528.55	388.53
528.72	449.38
528.89	475.13
529.07	458.74
529.24	425.98
529.41	454.06
529.58	379.17
529.75	388.53
529.92	475.13
530.09	468.11
530.26	390.87
530.43	451.72
530.60	472.79
530.77	435.34
530.94	496.19
531.11	484.49
531.28	470.45
531.46	360.44
531.63	386.19
531.80	425.98
531.97	430.66
532.14	484.49
532.31	458.74
532.48	461.09
532.65	444.70
532.82	470.45
532.99	351.08
533.16	482.15
533.33	407.25
533.50	414.27
533.67	444.70
533.84	414.27
534.01	388.53
534.18	402.57
534.35	477.47
534.52	322.99
534.69	374.49
534.86	510.24
535.03	500.87
535.20	411.93
535.37	416.62
535.54	383.85
535.71	475.13
535.88	425.98
536.05	372.15
536.22	435.34
536.38	334.70
536.55	418.96
536.72	421.30
536.89	400.23
537.06	482.15
537.23	425.98
537.40	402.57
537.57	376.83
537.74	512.58
537.91	433.00
538.08	433.00
538.25	418.96
538.42	395.55
538.59	423.64
538.75	486.83
538.92	479.81
539.09	411.93
539.26	477.47
539.43	423.64
539.60	423.64
539.77	430.66
539.94	461.09
540.11	367.46
540.28	484.49
540.44	386.19
540.61	395.55
540.78	362.78
540.95	435.34
541.12	400.23
541.29	449.38
541.46	355.76
541.62	437.68
541.79	444.70
541.96	362.78
542.13	351.08
542.30	348.74
542.47	430.66
542.63	421.30
542.80	430.66
542.97	404.91
543.14	376.83
543.31	503.22
543.48	402.57
543.64	418.96
543.81	400.23
543.98	465.77
544.15	414.27
544.32	433.00
544.48	447.04
544.65	449.38
544.82	423.64
544.99	402.57
545.16	397.89
545.32	365.12
545.49	409.59
545.66	440.02
545.83	386.19
546.00	400.23
546.16	418.96
546.33	440.02
546.50	461.09
546.67	475.13
546.83	454.06
547.00	344.06
547.17	416.62
547.34	442.36
547.50	358.10
547.67	365.12
547.84	393.21
548.00	411.93
548.17	423.64
548.34	444.70
548.51	454.06
548.67	409.59
548.84	418.96
549.01	418.96
549.18	409.59
549.34	442.36
549.51	440.02
549.68	411.93
549.84	449.38
550.01	444.70
550.18	423.64
550.34	524.28
550.51	493.85
550.68	416.62
550.84	365.12
551.01	430.66
551.18	374.49
551.34	386.19
551.51	409.59
551.68	313.63
551.84	461.09
552.01	437.68
552.18	402.57
552.34	421.30
552.51	414.27
552.68	409.59
552.84	418.96
553.01	430.66
553.18	414.27
553.34	440.02
553.51	414.27
553.67	444.70
553.84	395.55
554.01	388.53
554.17	414.27
554.34	400.23
554.51	493.85
554.67	470.45
554.84	418.96
555.00	442.36
555.17	376.83
555.33	472.79
555.50	428.32
555.67	390.87
555.83	414.27
556.00	430.66
556.16	578.11
556.33	409.59
556.50	358.10
556.66	400.23
556.83	472.79
556.99	416.62
557.16	372.15
557.32	411.93
557.49	433.00
557.65	449.38
557.82	407.25
557.98	383.85
558.15	376.83
558.32	437.68
558.48	428.32
558.65	444.70
558.81	458.74
558.98	402.57
559.14	461.09
559.31	348.74
559.47	416.62
559.64	423.64
559.80	414.27
559.97	472.79
560.13	442.36
560.30	311.29
560.46	383.85
560.63	423.64
560.79	365.12
560.96	409.59
561.12	430.66
561.29	493.85
561.45	402.57
561.61	344.06
561.78	507.90
561.94	400.23
562.11	425.98
562.27	360.44
562.44	421.30
562.60	425.98
562.77	418.96
562.93	547.69
563.10	409.59
563.26	456.40
563.42	482.15
563.59	491.51
563.75	423.64
563.92	472.79
564.08	454.06
564.24	367.46
564.41	458.74
564.57	433.00
564.74	348.74
564.90	418.96
565.07	414.27
565.23	365.12
565.39	505.56
565.56	409.59
565.72	449.38
565.88	440.02
566.05	393.21
566.21	353.42
566.38	440.02
566.54	454.06
566.70	381.51
566.87	365.12
567.03	400.23
567.19	416.62
567.36	381.51
567.52	428.32
567.68	449.38
567.85	477.47
568.01	430.66
568.17	421.30
568.34	421.30
568.50	435.34
568.66	379.17
568.83	447.04
568.99	411.93
569.15	493.85
569.32	472.79
569.48	421.30
569.64	409.59
569.81	414.27
569.97	397.89
570.13	407.25
570.30	416.62
570.46	493.85
570.62	465.77
570.78	425.98
570.95	449.38
571.11	491.51
571.27	496.19
571.43	456.40
571.60	372.15
571.76	381.51
571.92	428.32
572.09	409.59
572.25	430.66
572.41	393.21
572.57	421.30
572.74	493.85
572.90	437.68
573.06	468.11
573.22	407.25
573.38	468.11
573.55	418.96
573.71	440.02
573.87	402.57
574.03	482.15
574.20	421.30
574.36	414.27
574.52	393.21
574.68	390.87
574.84	402.57
575.01	407.25
575.17	386.19
575.33	418.96
575.49	425.98
575.65	383.85
575.82	376.83
575.98	435.34
576.14	386.19
576.30	463.43
576.46	355.76
576.62	442.36
576.79	477.47
576.95	451.72
577.11	395.55
577.27	444.70
577.43	407.25
577.59	416.62
577.75	433.00
577.92	440.02
578.08	442.36
578.24	456.40
578.40	447.04
578.56	454.06
578.72	475.13
578.88	451.72
579.04	393.21
579.21	461.09
579.37	355.76
579.53	390.87
579.69	477.47
579.85	456.40
580.01	498.53
580.17	402.57
580.33	386.19
580.49	454.06
580.65	456.40
580.82	393.21
580.98	416.62
581.14	433.00
581.30	395.55
581.46	397.89
581.62	435.34
581.78	404.91
581.94	393.21
582.10	395.55
582.26	367.46
582.42	416.62
582.58	397.89
582.74	346.40
582.90	397.89
583.06	435.34
583.22	409.59
583.38	428.32
583.54	372.15
583.70	374.49
583.86	444.70
584.02	393.21
584.18	395.55
584.34	428.32
584.50	421.30
584.66	416.62
584.82	400.23
584.98	484.49
585.14	372.15
585.30	477.47
585.46	402.57
585.62	390.87
585.78	358.10
585.94	456.40
586.10	447.04
586.26	402.57
586.42	362.78
586.58	477.47
586.74	468.11
586.90	430.66
587.06	411.93
587.22	444.70
587.38	423.64
587.54	437.68
587.70	395.55
587.86	369.80
588.02	433.00
588.18	381.51
588.34	437.68
588.49	372.15
588.65	395.55
588.81	458.74
588.97	465.77
589.13	402.57
589.29	444.70
589.45	451.72
589.61	390.87
589.77	409.59
589.93	425.98
590.08	367.46
590.24	451.72
590.40	383.85
590.56	449.38
590.72	449.38
590.88	404.91
591.04	456.40
591.20	435.34
591.35	402.57
591.51	444.70
591.67	393.21
591.83	404.91
591.99	437.68
592.15	433.00
592.31	423.64
592.46	379.17
592.62	428.32
592.78	383.85
592.94	393.21
593.10	360.44
593.26	442.36
593.41	477.47
593.57	383.85
593.73	421.30
593.89	379.17
594.05	346.40
594.20	379.17
594.36	477.47
594.52	411.93
594.68	442.36
594.84	369.80
594.99	456.40
595.15	454.06
595.31	449.38
595.47	468.11
595.62	472.79
595.78	416.62
595.94	386.19
596.10	397.89
596.25	381.51
596.41	379.17
596.57	454.06
596.73	404.91
596.88	416.62
597.04	379.17
597.20	414.27
597.36	395.55
597.51	482.15
597.67	414.27
597.83	327.68
597.99	479.81
598.14	435.34
598.30	423.64
598.46	454.06
598.61	374.49
598.77	437.68
598.93	435.34
599.09	437.68
599.24	454.06
599.40	407.25
599.56	409.59
599.71	435.34
599.87	418.96
600.03	383.85
600.18	393.21
600.34	454.06
600.50	334.70
600.65	444.70
600.81	486.83
600.97	425.98
601.12	404.91
601.28	416.62
601.44	423.64
601.59	407.25
601.75	381.51
601.91	435.34
602.06	435.34
602.22	475.13
602.37	397.89
602.53	449.38
602.69	430.66
602.84	435.34
603.00	374.49
603.16	404.91
603.31	423.64
603.47	423.64
603.62	409.59
603.78	367.46
603.94	454.06
604.09	454.06
604.25	468.11
604.40	465.77
604.56	383.85
604.71	472.79
604.87	404.91
605.03	381.51
605.18	379.17
605.34	440.02
605.49	433.00
605.65	386.19
605.80	428.32
605.96	365.12
606.12	388.53
606.27	477.47
606.43	348.74
606.58	407.25
606.74	470.45
606.89	362.78
607.05	404.91
607.20	374.49
607.36	425.98
607.51	383.85
607.67	365.12
607.82	423.64
607.98	416.62
608.13	404.91
608.29	423.64
608.44	444.70
608.60	374.49
608.75	435.34
608.91	404.91
609.06	472.79
609.22	468.11
609.37	353.42
609.53	503.22
609.68	461.09
609.84	447.04
609.99	402.57
610.15	418.96
