SpectraSuite Data File
++++++++++++++++++++++++++++++++++++
Date: Fri Oct 25 12:10:24 EDT 2013
User: price-jones
Dark Spectrum Present: No
Reference Spectrum Present: No
Number of Sampled Component Spectra: 1
Spectrometers: USB2+H05261
Integration Time (usec): 100000 (USB2+H05261)
Spectra Averaged: 1 (USB2+H05261)
Boxcar Smoothing: 0 (USB2+H05261)
Correct for Electrical Dark: No (USB2+H05261)
Strobe/Lamp Enabled: No (USB2+H05261)
Correct for Detector Non-linearity: No (USB2+H05261)
Correct for Stray Light: No (USB2+H05261)
Number of Pixels in Processed Spectrum: 2048
>>>>>Begin Processed Spectral Data<<<<<
365.73	386.19
365.92	386.19
366.12	386.19
366.32	215.33
366.52	184.90
366.72	238.73
366.91	234.05
367.11	184.90
367.31	248.10
367.51	294.91
367.70	301.93
367.90	278.52
368.10	292.57
368.30	229.37
368.49	215.33
368.69	262.14
368.89	203.63
369.09	191.92
369.28	287.89
369.48	306.61
369.68	283.20
369.87	257.46
370.07	299.59
370.27	367.46
370.47	409.59
370.66	320.65
370.86	367.46
371.06	355.76
371.25	416.62
371.45	327.68
371.65	341.72
371.84	358.10
372.04	409.59
372.24	367.46
372.44	423.64
372.63	477.47
372.83	390.87
373.03	402.57
373.22	402.57
373.42	393.21
373.62	381.51
373.81	362.78
374.01	428.32
374.21	475.13
374.40	444.70
374.60	421.30
374.79	362.78
374.99	433.00
375.19	435.34
375.38	430.66
375.58	435.34
375.78	402.57
375.97	411.93
376.17	533.64
376.37	418.96
376.56	425.98
376.76	397.89
376.95	374.49
377.15	411.93
377.35	355.76
377.54	437.68
377.74	395.55
377.93	355.76
378.13	435.34
378.33	390.87
378.52	360.44
378.72	397.89
378.91	388.53
379.11	433.00
379.31	365.12
379.50	367.46
379.70	407.25
379.89	395.55
380.09	360.44
380.28	418.96
380.48	416.62
380.68	376.83
380.87	271.50
381.07	355.76
381.26	362.78
381.46	372.15
381.65	395.55
381.85	376.83
382.04	472.79
382.24	442.36
382.43	400.23
382.63	381.51
382.83	486.83
383.02	379.17
383.22	379.17
383.41	397.89
383.61	397.89
383.80	404.91
384.00	430.66
384.19	369.80
384.39	355.76
384.58	341.72
384.78	402.57
384.97	423.64
385.17	418.96
385.36	421.30
385.56	402.57
385.75	393.21
385.95	402.57
386.14	367.46
386.34	449.38
386.53	472.79
386.72	421.30
386.92	433.00
387.11	369.80
387.31	451.72
387.50	428.32
387.70	379.17
387.89	404.91
388.09	397.89
388.28	414.27
388.48	381.51
388.67	404.91
388.86	374.49
389.06	381.51
389.25	430.66
389.45	402.57
389.64	381.51
389.84	418.96
390.03	381.51
390.22	421.30
390.42	379.17
390.61	510.24
390.81	367.46
391.00	470.45
391.19	493.85
391.39	433.00
391.58	355.76
391.78	409.59
391.97	402.57
392.16	414.27
392.36	400.23
392.55	402.57
392.75	388.53
392.94	362.78
393.13	383.85
393.33	369.80
393.52	334.70
393.71	388.53
393.91	418.96
394.10	411.93
394.29	374.49
394.49	383.85
394.68	372.15
394.88	463.43
395.07	390.87
395.26	411.93
395.46	454.06
395.65	414.27
395.84	423.64
396.04	486.83
396.23	447.04
396.42	390.87
396.62	435.34
396.81	369.80
397.00	451.72
397.19	447.04
397.39	351.08
397.58	449.38
397.77	351.08
397.97	442.36
398.16	418.96
398.35	503.22
398.55	341.72
398.74	367.46
398.93	374.49
399.12	390.87
399.32	465.77
399.51	330.02
399.70	430.66
399.90	442.36
400.09	365.12
400.28	407.25
400.47	451.72
400.67	425.98
400.86	411.93
401.05	442.36
401.24	442.36
401.44	454.06
401.63	458.74
401.82	348.74
402.01	360.44
402.21	322.99
402.40	386.19
402.59	332.36
402.78	454.06
402.97	334.70
403.17	416.62
403.36	430.66
403.55	351.08
403.74	402.57
403.93	339.38
404.13	435.34
404.32	447.04
404.51	472.79
404.70	461.09
404.89	374.49
405.09	425.98
405.28	414.27
405.47	435.34
405.66	451.72
405.85	500.87
406.05	456.40
406.24	510.24
406.43	379.17
406.62	379.17
406.81	386.19
407.00	376.83
407.20	437.68
407.39	421.30
407.58	447.04
407.77	355.76
407.96	423.64
408.15	402.57
408.34	386.19
408.54	400.23
408.73	355.76
408.92	411.93
409.11	423.64
409.30	456.40
409.49	407.25
409.68	425.98
409.87	435.34
410.07	358.10
410.26	365.12
410.45	360.44
410.64	407.25
410.83	414.27
411.02	414.27
411.21	402.57
411.40	470.45
411.59	414.27
411.78	411.93
411.98	386.19
412.17	365.12
412.36	428.32
412.55	418.96
412.74	367.46
412.93	428.32
413.12	386.19
413.31	437.68
413.50	428.32
413.69	383.85
413.88	440.02
414.07	400.23
414.26	414.27
414.45	400.23
414.64	414.27
414.83	435.34
415.02	440.02
415.22	360.44
415.41	437.68
415.60	332.36
415.79	454.06
415.98	425.98
416.17	463.43
416.36	418.96
416.55	404.91
416.74	475.13
416.93	430.66
417.12	397.89
417.31	379.17
417.50	456.40
417.69	421.30
417.88	390.87
418.07	348.74
418.26	421.30
418.45	369.80
418.64	449.38
418.83	400.23
419.02	430.66
419.21	456.40
419.39	367.46
419.58	390.87
419.77	353.42
419.96	447.04
420.15	442.36
420.34	409.59
420.53	463.43
420.72	402.57
420.91	383.85
421.10	383.85
421.29	421.30
421.48	437.68
421.67	395.55
421.86	383.85
422.05	388.53
422.24	411.93
422.43	346.40
422.61	365.12
422.80	393.21
422.99	381.51
423.18	402.57
423.37	402.57
423.56	381.51
423.75	369.80
423.94	428.32
424.13	442.36
424.32	409.59
424.50	388.53
424.69	400.23
424.88	402.57
425.07	374.49
425.26	428.32
425.45	456.40
425.64	449.38
425.83	362.78
426.01	449.38
426.20	461.09
426.39	416.62
426.58	444.70
426.77	348.74
426.96	393.21
427.15	416.62
427.33	444.70
427.52	437.68
427.71	451.72
427.90	395.55
428.09	437.68
428.28	353.42
428.46	337.04
428.65	379.17
428.84	379.17
429.03	428.32
429.22	444.70
429.40	407.25
429.59	423.64
429.78	451.72
429.97	397.89
430.16	402.57
430.34	355.76
430.53	348.74
430.72	400.23
430.91	409.59
431.10	388.53
431.28	407.25
431.47	442.36
431.66	433.00
431.85	465.77
432.03	433.00
432.22	388.53
432.41	402.57
432.60	355.76
432.79	388.53
432.97	362.78
433.16	348.74
433.35	381.51
433.54	411.93
433.72	425.98
433.91	440.02
434.10	339.38
434.28	433.00
434.47	407.25
434.66	386.19
434.85	409.59
435.03	348.74
435.22	423.64
435.41	510.24
435.59	414.27
435.78	407.25
435.97	428.32
436.16	461.09
436.34	353.42
436.53	437.68
436.72	362.78
436.90	425.98
437.09	468.11
437.28	407.25
437.46	388.53
437.65	409.59
437.84	425.98
438.02	435.34
438.21	360.44
438.40	376.83
438.58	428.32
438.77	449.38
438.96	404.91
439.14	409.59
439.33	491.51
439.52	437.68
439.70	437.68
439.89	421.30
440.08	404.91
440.26	418.96
440.45	449.38
440.63	477.47
440.82	430.66
441.01	496.19
441.19	479.81
441.38	418.96
441.57	461.09
441.75	470.45
441.94	458.74
442.12	379.17
442.31	379.17
442.50	383.85
442.68	411.93
442.87	503.22
443.05	433.00
443.24	407.25
443.43	386.19
443.61	395.55
443.80	425.98
443.98	433.00
444.17	376.83
444.35	388.53
444.54	393.21
444.73	374.49
444.91	421.30
445.10	379.17
445.28	325.33
445.47	428.32
445.65	358.10
445.84	379.17
446.02	360.44
446.21	358.10
446.39	416.62
446.58	421.30
446.77	376.83
446.95	416.62
447.14	496.19
447.32	411.93
447.51	400.23
447.69	346.40
447.88	430.66
448.06	498.53
448.25	332.36
448.43	367.46
448.62	374.49
448.80	423.64
448.99	404.91
449.17	379.17
449.36	397.89
449.54	339.38
449.73	433.00
449.91	404.91
450.10	444.70
450.28	465.77
450.46	449.38
450.65	470.45
450.83	386.19
451.02	407.25
451.20	440.02
451.39	386.19
451.57	318.31
451.76	400.23
451.94	505.56
452.13	421.30
452.31	400.23
452.49	440.02
452.68	360.44
452.86	463.43
453.05	440.02
453.23	414.27
453.42	465.77
453.60	444.70
453.78	381.51
453.97	440.02
454.15	449.38
454.34	400.23
454.52	440.02
454.70	362.78
454.89	407.25
455.07	414.27
455.26	433.00
455.44	433.00
455.62	383.85
455.81	444.70
455.99	428.32
456.17	351.08
456.36	440.02
456.54	409.59
456.73	393.21
456.91	447.04
457.09	411.93
457.28	393.21
457.46	388.53
457.64	379.17
457.83	414.27
458.01	468.11
458.19	395.55
458.38	437.68
458.56	372.15
458.74	365.12
458.93	437.68
459.11	416.62
459.29	416.62
459.48	430.66
459.66	418.96
459.84	425.98
460.03	451.72
460.21	411.93
460.39	447.04
460.57	315.97
460.76	411.93
460.94	409.59
461.12	444.70
461.31	482.15
461.49	376.83
461.67	379.17
461.85	458.74
462.04	402.57
462.22	800.46
462.40	482.15
462.59	463.43
462.77	322.99
462.95	381.51
463.13	353.42
463.32	444.70
463.50	449.38
463.68	414.27
463.86	381.51
464.05	437.68
464.23	393.21
464.41	440.02
464.59	395.55
464.78	456.40
464.96	388.53
465.14	379.17
465.32	421.30
465.50	400.23
465.69	428.32
465.87	411.93
466.05	472.79
466.23	379.17
466.41	402.57
466.60	407.25
466.78	409.59
466.96	440.02
467.14	409.59
467.32	423.64
467.51	456.40
467.69	367.46
467.87	428.32
468.05	468.11
468.23	496.19
468.41	409.59
468.60	433.00
468.78	414.27
468.96	447.04
469.14	477.47
469.32	433.00
469.50	393.21
469.69	362.78
469.87	433.00
470.05	435.34
470.23	404.91
470.41	411.93
470.59	425.98
470.77	379.17
470.95	322.99
471.14	442.36
471.32	337.04
471.50	400.23
471.68	346.40
471.86	379.17
472.04	407.25
472.22	484.49
472.40	369.80
472.58	362.78
472.77	437.68
472.95	411.93
473.13	449.38
473.31	477.47
473.49	374.49
473.67	416.62
473.85	482.15
474.03	418.96
474.21	402.57
474.39	440.02
474.57	449.38
474.75	393.21
474.93	421.30
475.12	402.57
475.30	341.72
475.48	437.68
475.66	489.17
475.84	374.49
476.02	440.02
476.20	423.64
476.38	397.89
476.56	477.47
476.74	430.66
476.92	430.66
477.10	416.62
477.28	404.91
477.46	484.49
477.64	437.68
477.82	451.72
478.00	407.25
478.18	397.89
478.36	470.45
478.54	442.36
478.72	414.27
478.90	351.08
479.08	444.70
479.26	449.38
479.44	454.06
479.62	390.87
479.80	463.43
479.98	374.49
480.16	404.91
480.34	437.68
480.52	374.49
480.70	416.62
480.88	348.74
481.06	421.30
481.24	395.55
481.41	416.62
481.59	411.93
481.77	447.04
481.95	418.96
482.13	418.96
482.31	402.57
482.49	489.17
482.67	423.64
482.85	475.13
483.03	421.30
483.21	381.51
483.39	402.57
483.57	414.27
483.74	440.02
483.92	425.98
484.10	344.06
484.28	510.24
484.46	400.23
484.64	407.25
484.82	418.96
485.00	407.25
485.18	400.23
485.35	416.62
485.53	409.59
485.71	463.43
485.89	308.95
486.07	402.57
486.25	510.24
486.43	440.02
486.61	376.83
486.78	442.36
486.96	379.17
487.14	374.49
487.32	348.74
487.50	390.87
487.68	458.74
487.85	404.91
488.03	468.11
488.21	461.09
488.39	416.62
488.57	430.66
488.75	351.08
488.92	533.64
489.10	425.98
489.28	411.93
489.46	421.30
489.64	463.43
489.81	379.17
489.99	484.49
490.17	400.23
490.35	491.51
490.53	388.53
490.70	472.79
490.88	360.44
491.06	472.79
491.24	447.04
491.41	468.11
491.59	477.47
491.77	442.36
491.95	395.55
492.13	461.09
492.30	397.89
492.48	430.66
492.66	409.59
492.84	351.08
493.01	353.42
493.19	390.87
493.37	409.59
493.54	489.17
493.72	442.36
493.90	437.68
494.08	421.30
494.25	416.62
494.43	440.02
494.61	341.72
494.79	372.15
494.96	493.85
495.14	390.87
495.32	484.49
495.49	372.15
495.67	458.74
495.85	404.91
496.02	425.98
496.20	402.57
496.38	468.11
496.55	470.45
496.73	430.66
496.91	395.55
497.09	437.68
497.26	442.36
497.44	437.68
497.62	440.02
497.79	454.06
497.97	402.57
498.14	496.19
498.32	407.25
498.50	390.87
498.67	381.51
498.85	318.31
499.03	440.02
499.20	381.51
499.38	369.80
499.56	465.77
499.73	444.70
499.91	470.45
500.08	461.09
500.26	465.77
500.44	449.38
500.61	454.06
500.79	442.36
500.97	470.45
501.14	425.98
501.32	475.13
501.49	456.40
501.67	447.04
501.84	393.21
502.02	425.98
502.20	461.09
502.37	425.98
502.55	409.59
502.72	351.08
502.90	407.25
503.07	458.74
503.25	444.70
503.43	367.46
503.60	440.02
503.78	325.33
503.95	407.25
504.13	367.46
504.30	421.30
504.48	404.91
504.65	423.64
504.83	440.02
505.01	468.11
505.18	472.79
505.36	430.66
505.53	449.38
505.71	337.04
505.88	437.68
506.06	421.30
506.23	440.02
506.41	383.85
506.58	383.85
506.76	447.04
506.93	388.53
507.11	423.64
507.28	411.93
507.46	435.34
507.63	470.45
507.81	496.19
507.98	435.34
508.16	397.89
508.33	393.21
508.50	334.70
508.68	390.87
508.85	397.89
509.03	362.78
509.20	365.12
509.38	404.91
509.55	498.53
509.73	458.74
509.90	440.02
510.08	411.93
510.25	437.68
510.42	430.66
510.60	407.25
510.77	425.98
510.95	351.08
511.12	379.17
511.30	423.64
511.47	418.96
511.64	454.06
511.82	442.36
511.99	421.30
512.17	470.45
512.34	421.30
512.51	402.57
512.69	362.78
512.86	418.96
513.04	447.04
513.21	404.91
513.38	376.83
513.56	351.08
513.73	435.34
513.90	341.72
514.08	374.49
514.25	430.66
514.43	414.27
514.60	372.15
514.77	402.57
514.95	372.15
515.12	407.25
515.29	418.96
515.47	409.59
515.64	397.89
515.81	409.59
515.99	447.04
516.16	390.87
516.33	409.59
516.51	421.30
516.68	404.91
516.85	330.02
517.03	465.77
517.20	440.02
517.37	397.89
517.54	404.91
517.72	496.19
517.89	395.55
518.06	461.09
518.24	430.66
518.41	479.81
518.58	421.30
518.75	428.32
518.93	442.36
519.10	451.72
519.27	433.00
519.45	339.38
519.62	395.55
519.79	428.32
519.96	355.76
520.14	376.83
520.31	397.89
520.48	393.21
520.65	423.64
520.83	414.27
521.00	395.55
521.17	433.00
521.34	407.25
521.52	330.02
521.69	447.04
521.86	369.80
522.03	437.68
522.20	421.30
522.38	421.30
522.55	461.09
522.72	433.00
522.89	433.00
523.07	461.09
523.24	442.36
523.41	484.49
523.58	388.53
523.75	402.57
523.92	372.15
524.10	369.80
524.27	360.44
524.44	449.38
524.61	442.36
524.78	449.38
524.96	477.47
525.13	353.42
525.30	411.93
525.47	344.06
525.64	423.64
525.81	442.36
525.98	470.45
526.16	428.32
526.33	416.62
526.50	449.38
526.67	404.91
526.84	393.21
527.01	381.51
527.18	421.30
527.36	425.98
527.53	402.57
527.70	463.43
527.87	407.25
528.04	468.11
528.21	437.68
528.38	475.13
528.55	402.57
528.72	465.77
528.89	470.45
529.07	486.83
529.24	386.19
529.41	463.43
529.58	386.19
529.75	400.23
529.92	393.21
530.09	456.40
530.26	416.62
530.43	416.62
530.60	407.25
530.77	433.00
530.94	433.00
531.11	454.06
531.28	421.30
531.46	414.27
531.63	442.36
531.80	472.79
531.97	423.64
532.14	407.25
532.31	397.89
532.48	423.64
532.65	421.30
532.82	337.04
532.99	339.38
533.16	416.62
533.33	411.93
533.50	416.62
533.67	409.59
533.84	381.51
534.01	433.00
534.18	482.15
534.35	414.27
534.52	416.62
534.69	416.62
534.86	411.93
535.03	395.55
535.20	440.02
535.37	416.62
535.54	430.66
535.71	437.68
535.88	449.38
536.05	416.62
536.22	514.92
536.38	386.19
536.55	409.59
536.72	433.00
536.89	381.51
537.06	397.89
537.23	416.62
537.40	407.25
537.57	376.83
537.74	489.17
537.91	367.46
538.08	461.09
538.25	404.91
538.42	381.51
538.59	411.93
538.75	435.34
538.92	390.87
539.09	430.66
539.26	482.15
539.43	400.23
539.60	433.00
539.77	528.96
539.94	360.44
540.11	416.62
540.28	461.09
540.44	437.68
540.61	416.62
540.78	423.64
540.95	407.25
541.12	456.40
541.29	421.30
541.46	376.83
541.62	418.96
541.79	503.22
541.96	435.34
542.13	404.91
542.30	444.70
542.47	374.49
542.63	388.53
542.80	390.87
542.97	521.94
543.14	477.47
543.31	456.40
543.48	411.93
543.64	381.51
543.81	395.55
543.98	386.19
544.15	447.04
544.32	463.43
544.48	524.28
544.65	447.04
544.82	353.42
544.99	306.61
545.16	496.19
545.32	388.53
545.49	395.55
545.66	388.53
545.83	411.93
546.00	348.74
546.16	381.51
546.33	407.25
546.50	435.34
546.67	449.38
546.83	418.96
547.00	437.68
547.17	437.68
547.34	407.25
547.50	376.83
547.67	418.96
547.84	397.89
548.00	416.62
548.17	362.78
548.34	433.00
548.51	514.92
548.67	421.30
548.84	341.72
549.01	461.09
549.18	381.51
549.34	411.93
549.51	451.72
549.68	416.62
549.84	346.40
550.01	367.46
550.18	510.24
550.34	472.79
550.51	456.40
550.68	505.56
550.84	491.51
551.01	404.91
551.18	402.57
551.34	418.96
551.51	451.72
551.68	383.85
551.84	437.68
552.01	435.34
552.18	444.70
552.34	376.83
552.51	418.96
552.68	402.57
552.84	409.59
553.01	416.62
553.18	416.62
553.34	351.08
553.51	367.46
553.67	468.11
553.84	428.32
554.01	477.47
554.17	400.23
554.34	386.19
554.51	428.32
554.67	442.36
554.84	498.53
555.00	440.02
555.17	421.30
555.33	444.70
555.50	414.27
555.67	386.19
555.83	386.19
556.00	346.40
556.16	554.71
556.33	503.22
556.50	423.64
556.66	435.34
556.83	418.96
556.99	402.57
557.16	496.19
557.32	365.12
557.49	400.23
557.65	414.27
557.82	433.00
557.98	379.17
558.15	390.87
558.32	425.98
558.48	381.51
558.65	414.27
558.81	435.34
558.98	423.64
559.14	423.64
559.31	369.80
559.47	409.59
559.64	358.10
559.80	454.06
559.97	433.00
560.13	416.62
560.30	416.62
560.46	400.23
560.63	423.64
560.79	390.87
560.96	456.40
561.12	414.27
561.29	393.21
561.45	346.40
561.61	402.57
561.78	540.66
561.94	388.53
562.11	411.93
562.27	407.25
562.44	416.62
562.60	395.55
562.77	416.62
562.93	449.38
563.10	386.19
563.26	400.23
563.42	440.02
563.59	372.15
563.75	411.93
563.92	428.32
564.08	416.62
564.24	505.56
564.41	383.85
564.57	360.44
564.74	440.02
564.90	383.85
565.07	411.93
565.23	425.98
565.39	379.17
565.56	451.72
565.72	383.85
565.88	435.34
566.05	449.38
566.21	383.85
566.38	472.79
566.54	416.62
566.70	334.70
566.87	409.59
567.03	388.53
567.19	395.55
567.36	433.00
567.52	433.00
567.68	416.62
567.85	421.30
568.01	440.02
568.17	451.72
568.34	402.57
568.50	442.36
568.66	416.62
568.83	416.62
568.99	437.68
569.15	430.66
569.32	479.81
569.48	442.36
569.64	402.57
569.81	454.06
569.97	423.64
570.13	491.51
570.30	383.85
570.46	418.96
570.62	449.38
570.78	454.06
570.95	360.44
571.11	407.25
571.27	433.00
571.43	374.49
571.60	451.72
571.76	358.10
571.92	425.98
572.09	369.80
572.25	397.89
572.41	393.21
572.57	383.85
572.74	444.70
572.90	416.62
573.06	461.09
573.22	458.74
573.38	388.53
573.55	372.15
573.71	379.17
573.87	444.70
574.03	411.93
574.20	339.38
574.36	414.27
574.52	470.45
574.68	404.91
574.84	374.49
575.01	397.89
575.17	393.21
575.33	369.80
575.49	355.76
575.65	365.12
575.82	456.40
575.98	318.31
576.14	486.83
576.30	374.49
576.46	341.72
576.62	442.36
576.79	428.32
576.95	423.64
577.11	327.68
577.27	454.06
577.43	423.64
577.59	330.02
577.75	444.70
577.92	409.59
578.08	381.51
578.24	428.32
578.40	362.78
578.56	491.51
578.72	479.81
578.88	472.79
579.04	409.59
579.21	360.44
579.37	451.72
579.53	409.59
579.69	482.15
579.85	362.78
580.01	514.92
580.17	411.93
580.33	348.74
580.49	440.02
580.65	428.32
580.82	440.02
580.98	468.11
581.14	440.02
581.30	404.91
581.46	465.77
581.62	444.70
581.78	379.17
581.94	433.00
582.10	447.04
582.26	454.06
582.42	386.19
582.58	334.70
582.74	447.04
582.90	404.91
583.06	388.53
583.22	407.25
583.38	458.74
583.54	416.62
583.70	458.74
583.86	388.53
584.02	372.15
584.18	456.40
584.34	437.68
584.50	360.44
584.66	400.23
584.82	379.17
584.98	386.19
585.14	447.04
585.30	383.85
585.46	383.85
585.62	444.70
585.78	393.21
585.94	451.72
586.10	372.15
586.26	435.34
586.42	507.90
586.58	428.32
586.74	365.12
586.90	400.23
587.06	447.04
587.22	486.83
587.38	437.68
587.54	393.21
587.70	468.11
587.86	447.04
588.02	458.74
588.18	379.17
588.34	416.62
588.49	395.55
588.65	425.98
588.81	461.09
588.97	421.30
589.13	423.64
589.29	423.64
589.45	477.47
589.61	449.38
589.77	505.56
589.93	416.62
590.08	423.64
590.24	456.40
590.40	430.66
590.56	365.12
590.72	369.80
590.88	416.62
591.04	376.83
591.20	395.55
591.35	472.79
591.51	484.49
591.67	383.85
591.83	425.98
591.99	369.80
592.15	440.02
592.31	444.70
592.46	458.74
592.62	369.80
592.78	376.83
592.94	458.74
593.10	402.57
593.26	423.64
593.41	358.10
593.57	327.68
593.73	388.53
593.89	451.72
594.05	430.66
594.20	428.32
594.36	430.66
594.52	437.68
594.68	341.72
594.84	458.74
594.99	458.74
595.15	444.70
595.31	433.00
595.47	414.27
595.62	383.85
595.78	395.55
595.94	428.32
596.10	503.22
596.25	404.91
596.41	500.87
596.57	404.91
596.73	409.59
596.88	440.02
597.04	414.27
597.20	470.45
597.36	428.32
597.51	444.70
597.67	468.11
597.83	383.85
597.99	421.30
598.14	411.93
598.30	407.25
598.46	383.85
598.61	400.23
598.77	451.72
598.93	435.34
599.09	400.23
599.24	388.53
599.40	395.55
599.56	346.40
599.71	393.21
599.87	374.49
600.03	421.30
600.18	440.02
600.34	451.72
600.50	365.12
600.65	358.10
600.81	482.15
600.97	397.89
601.12	414.27
601.28	514.92
601.44	437.68
601.59	407.25
601.75	500.87
601.91	351.08
602.06	386.19
602.22	416.62
602.37	456.40
602.53	416.62
602.69	348.74
602.84	376.83
603.00	390.87
603.16	393.21
603.31	411.93
603.47	395.55
603.62	423.64
603.78	421.30
603.94	442.36
604.09	402.57
604.25	428.32
604.40	475.13
604.56	486.83
604.71	416.62
604.87	332.36
605.03	423.64
605.18	470.45
605.34	379.17
605.49	430.66
605.65	447.04
605.80	425.98
605.96	409.59
606.12	423.64
606.27	465.77
606.43	447.04
606.58	428.32
606.74	395.55
606.89	411.93
607.05	463.43
607.20	376.83
607.36	440.02
607.51	374.49
607.67	416.62
607.82	381.51
607.98	491.51
608.13	344.06
608.29	423.64
608.44	423.64
608.60	440.02
608.75	435.34
608.91	414.27
609.06	411.93
609.22	416.62
609.37	425.98
609.53	365.12
609.68	367.46
609.84	404.91
609.99	390.87
610.15	397.89
