SpectraSuite Data File
++++++++++++++++++++++++++++++++++++
Date: Fri Oct 25 12:11:38 EDT 2013
User: price-jones
Dark Spectrum Present: No
Reference Spectrum Present: No
Number of Sampled Component Spectra: 1
Spectrometers: USB2+H05261
Integration Time (usec): 100000 (USB2+H05261)
Spectra Averaged: 1 (USB2+H05261)
Boxcar Smoothing: 0 (USB2+H05261)
Correct for Electrical Dark: No (USB2+H05261)
Strobe/Lamp Enabled: No (USB2+H05261)
Correct for Detector Non-linearity: No (USB2+H05261)
Correct for Stray Light: No (USB2+H05261)
Number of Pixels in Processed Spectrum: 2048
>>>>>Begin Processed Spectral Data<<<<<
365.73	365.12
365.92	365.12
366.12	365.12
366.32	299.59
366.52	276.18
366.72	259.80
366.91	269.16
367.11	339.38
367.31	180.22
367.51	194.26
367.70	243.42
367.90	243.42
368.10	220.01
368.30	149.79
368.49	287.89
368.69	248.10
368.89	196.60
369.09	262.14
369.28	278.52
369.48	243.42
369.68	313.63
369.87	344.06
370.07	315.97
370.27	280.86
370.47	259.80
370.66	330.02
370.86	320.65
371.06	292.57
371.25	325.33
371.45	332.36
371.65	332.36
371.84	386.19
372.04	325.33
372.24	409.59
372.44	416.62
372.63	339.38
372.83	430.66
373.03	390.87
373.22	369.80
373.42	442.36
373.62	477.47
373.81	365.12
374.01	418.96
374.21	437.68
374.40	397.89
374.60	351.08
374.79	423.64
374.99	447.04
375.19	414.27
375.38	477.47
375.58	390.87
375.78	451.72
375.97	468.11
376.17	458.74
376.37	447.04
376.56	423.64
376.76	521.94
376.95	472.79
377.15	456.40
377.35	461.09
377.54	456.40
377.74	428.32
377.93	393.21
378.13	409.59
378.33	428.32
378.52	374.49
378.72	435.34
378.91	458.74
379.11	428.32
379.31	411.93
379.50	344.06
379.70	447.04
379.89	465.77
380.09	351.08
380.28	358.10
380.48	381.51
380.68	421.30
380.87	451.72
381.07	393.21
381.26	440.02
381.46	390.87
381.65	416.62
381.85	404.91
382.04	348.74
382.24	367.46
382.43	435.34
382.63	418.96
382.83	428.32
383.02	472.79
383.22	425.98
383.41	425.98
383.61	404.91
383.80	472.79
384.00	344.06
384.19	444.70
384.39	287.89
384.58	409.59
384.78	442.36
384.97	390.87
385.17	404.91
385.36	407.25
385.56	376.83
385.75	376.83
385.95	393.21
386.14	442.36
386.34	379.17
386.53	374.49
386.72	383.85
386.92	479.81
387.11	440.02
387.31	400.23
387.50	404.91
387.70	428.32
387.89	444.70
388.09	348.74
388.28	421.30
388.48	411.93
388.67	484.49
388.86	381.51
389.06	376.83
389.25	390.87
389.45	393.21
389.64	416.62
389.84	451.72
390.03	376.83
390.22	418.96
390.42	393.21
390.61	428.32
390.81	407.25
391.00	402.57
391.19	507.90
391.39	383.85
391.58	395.55
391.78	334.70
391.97	381.51
392.16	433.00
392.36	470.45
392.55	440.02
392.75	456.40
392.94	383.85
393.13	411.93
393.33	456.40
393.52	381.51
393.71	381.51
393.91	411.93
394.10	430.66
394.29	437.68
394.49	433.00
394.68	458.74
394.88	381.51
395.07	379.17
395.26	367.46
395.46	411.93
395.65	393.21
395.84	423.64
396.04	444.70
396.23	428.32
396.42	503.22
396.62	407.25
396.81	442.36
397.00	386.19
397.19	388.53
397.39	409.59
397.58	414.27
397.77	421.30
397.97	376.83
398.16	393.21
398.35	411.93
398.55	425.98
398.74	388.53
398.93	411.93
399.12	348.74
399.32	383.85
399.51	355.76
399.70	428.32
399.90	456.40
400.09	491.51
400.28	442.36
400.47	395.55
400.67	463.43
400.86	430.66
401.05	381.51
401.24	404.91
401.44	360.44
401.63	421.30
401.82	402.57
402.01	414.27
402.21	367.46
402.40	433.00
402.59	447.04
402.78	498.53
402.97	397.89
403.17	372.15
403.36	484.49
403.55	330.02
403.74	416.62
403.93	344.06
404.13	458.74
404.32	449.38
404.51	379.17
404.70	386.19
404.89	334.70
405.09	393.21
405.28	360.44
405.47	404.91
405.66	409.59
405.85	440.02
406.05	402.57
406.24	500.87
406.43	479.81
406.62	456.40
406.81	531.30
407.00	409.59
407.20	362.78
407.39	400.23
407.58	451.72
407.77	365.12
407.96	444.70
408.15	353.42
408.34	409.59
408.54	407.25
408.73	369.80
408.92	411.93
409.11	433.00
409.30	437.68
409.49	433.00
409.68	437.68
409.87	416.62
410.07	416.62
410.26	400.23
410.45	353.42
410.64	381.51
410.83	414.27
411.02	454.06
411.21	337.04
411.40	454.06
411.59	381.51
411.78	482.15
411.98	358.10
412.17	400.23
412.36	418.96
412.55	383.85
412.74	397.89
412.93	414.27
413.12	418.96
413.31	451.72
413.50	425.98
413.69	425.98
413.88	472.79
414.07	447.04
414.26	458.74
414.45	430.66
414.64	463.43
414.83	388.53
415.02	475.13
415.22	416.62
415.41	435.34
415.60	463.43
415.79	386.19
415.98	442.36
416.17	341.72
416.36	425.98
416.55	400.23
416.74	388.53
416.93	414.27
417.12	472.79
417.31	414.27
417.50	390.87
417.69	423.64
417.88	416.62
418.07	435.34
418.26	332.36
418.45	339.38
418.64	451.72
418.83	390.87
419.02	341.72
419.21	512.58
419.39	447.04
419.58	386.19
419.77	430.66
419.96	456.40
420.15	482.15
420.34	409.59
420.53	421.30
420.72	365.12
420.91	449.38
421.10	468.11
421.29	498.53
421.48	397.89
421.67	477.47
421.86	428.32
422.05	447.04
422.24	379.17
422.43	423.64
422.61	353.42
422.80	416.62
422.99	491.51
423.18	423.64
423.37	447.04
423.56	442.36
423.75	402.57
423.94	339.38
424.13	376.83
424.32	404.91
424.50	414.27
424.69	381.51
424.88	433.00
425.07	461.09
425.26	390.87
425.45	425.98
425.64	416.62
425.83	425.98
426.01	477.47
426.20	383.85
426.39	369.80
426.58	393.21
426.77	428.32
426.96	418.96
427.15	379.17
427.33	449.38
427.52	440.02
427.71	421.30
427.90	461.09
428.09	468.11
428.28	465.77
428.46	330.02
428.65	461.09
428.84	327.68
429.03	458.74
429.22	411.93
429.40	351.08
429.59	381.51
429.78	414.27
429.97	496.19
430.16	407.25
430.34	344.06
430.53	400.23
430.72	348.74
430.91	451.72
431.10	449.38
431.28	418.96
431.47	482.15
431.66	437.68
431.85	404.91
432.03	435.34
432.22	463.43
432.41	407.25
432.60	465.77
432.79	414.27
432.97	414.27
433.16	388.53
433.35	414.27
433.54	437.68
433.72	428.32
433.91	491.51
434.10	440.02
434.28	386.19
434.47	454.06
434.66	379.17
434.85	407.25
435.03	449.38
435.22	449.38
435.41	376.83
435.59	493.85
435.78	465.77
435.97	360.44
436.16	409.59
436.34	411.93
436.53	379.17
436.72	416.62
436.90	498.53
437.09	402.57
437.28	388.53
437.46	425.98
437.65	418.96
437.84	428.32
438.02	463.43
438.21	339.38
438.40	407.25
438.58	465.77
438.77	475.13
438.96	372.15
439.14	433.00
439.33	416.62
439.52	402.57
439.70	407.25
439.89	437.68
440.08	454.06
440.26	440.02
440.45	416.62
440.63	461.09
440.82	437.68
441.01	369.80
441.19	381.51
441.38	397.89
441.57	435.34
441.75	451.72
441.94	454.06
442.12	381.51
442.31	402.57
442.50	362.78
442.68	407.25
442.87	468.11
443.05	437.68
443.24	407.25
443.43	339.38
443.61	433.00
443.80	411.93
443.98	411.93
444.17	376.83
444.35	435.34
444.54	369.80
444.73	372.15
444.91	475.13
445.10	374.49
445.28	374.49
445.47	449.38
445.65	449.38
445.84	358.10
446.02	418.96
446.21	376.83
446.39	372.15
446.58	376.83
446.77	423.64
446.95	425.98
447.14	456.40
447.32	418.96
447.51	423.64
447.69	458.74
447.88	430.66
448.06	451.72
448.25	461.09
448.43	444.70
448.62	397.89
448.80	475.13
448.99	447.04
449.17	407.25
449.36	386.19
449.54	332.36
449.73	381.51
449.91	465.77
450.10	379.17
450.28	423.64
450.46	470.45
450.65	456.40
450.83	425.98
451.02	458.74
451.20	425.98
451.39	423.64
451.57	414.27
451.76	353.42
451.94	379.17
452.13	458.74
452.31	524.28
452.49	430.66
452.68	425.98
452.86	414.27
453.05	374.49
453.23	456.40
453.42	390.87
453.60	367.46
453.78	318.31
453.97	386.19
454.15	461.09
454.34	437.68
454.52	421.30
454.70	421.30
454.89	437.68
455.07	341.72
455.26	386.19
455.44	430.66
455.62	425.98
455.81	461.09
455.99	440.02
456.17	414.27
456.36	341.72
456.54	386.19
456.73	409.59
456.91	449.38
457.09	414.27
457.28	381.51
457.46	318.31
457.64	433.00
457.83	411.93
458.01	423.64
458.19	447.04
458.38	463.43
458.56	395.55
458.74	390.87
458.93	430.66
459.11	360.44
459.29	414.27
459.48	435.34
459.66	444.70
459.84	437.68
460.03	437.68
460.21	421.30
460.39	433.00
460.57	308.95
460.76	433.00
460.94	383.85
461.12	449.38
461.31	472.79
461.49	435.34
461.67	430.66
461.85	447.04
462.04	404.91
462.22	788.76
462.40	451.72
462.59	414.27
462.77	435.34
462.95	428.32
463.13	393.21
463.32	421.30
463.50	383.85
463.68	418.96
463.86	278.52
464.05	372.15
464.23	454.06
464.41	449.38
464.59	428.32
464.78	416.62
464.96	407.25
465.14	433.00
465.32	351.08
465.50	472.79
465.69	379.17
465.87	416.62
466.05	423.64
466.23	404.91
466.41	355.76
466.60	437.68
466.78	386.19
466.96	449.38
467.14	397.89
467.32	451.72
467.51	402.57
467.69	404.91
467.87	475.13
468.05	425.98
468.23	451.72
468.41	416.62
468.60	461.09
468.78	423.64
468.96	360.44
469.14	379.17
469.32	442.36
469.50	362.78
469.69	454.06
469.87	386.19
470.05	400.23
470.23	402.57
470.41	409.59
470.59	447.04
470.77	449.38
470.95	379.17
471.14	397.89
471.32	358.10
471.50	456.40
471.68	449.38
471.86	463.43
472.04	470.45
472.22	374.49
472.40	409.59
472.58	358.10
472.77	376.83
472.95	390.87
473.13	421.30
473.31	545.34
473.49	341.72
473.67	360.44
473.85	397.89
474.03	390.87
474.21	449.38
474.39	390.87
474.57	402.57
474.75	423.64
474.93	388.53
475.12	414.27
475.30	482.15
475.48	451.72
475.66	425.98
475.84	388.53
476.02	404.91
476.20	428.32
476.38	425.98
476.56	456.40
476.74	372.15
476.92	451.72
477.10	355.76
477.28	418.96
477.46	437.68
477.64	407.25
477.82	456.40
478.00	379.17
478.18	381.51
478.36	411.93
478.54	365.12
478.72	374.49
478.90	395.55
479.08	414.27
479.26	393.21
479.44	440.02
479.62	367.46
479.80	407.25
479.98	306.61
480.16	383.85
480.34	390.87
480.52	409.59
480.70	400.23
480.88	383.85
481.06	423.64
481.24	409.59
481.41	395.55
481.59	402.57
481.77	496.19
481.95	334.70
482.13	423.64
482.31	351.08
482.49	383.85
482.67	475.13
482.85	425.98
483.03	437.68
483.21	400.23
483.39	472.79
483.57	351.08
483.74	404.91
483.92	395.55
484.10	472.79
484.28	498.53
484.46	447.04
484.64	416.62
484.82	484.49
485.00	416.62
485.18	390.87
485.35	353.42
485.53	346.40
485.71	430.66
485.89	451.72
486.07	402.57
486.25	421.30
486.43	447.04
486.61	386.19
486.78	383.85
486.96	395.55
487.14	402.57
487.32	449.38
487.50	379.17
487.68	411.93
487.85	477.47
488.03	379.17
488.21	465.77
488.39	449.38
488.57	374.49
488.75	395.55
488.92	454.06
489.10	383.85
489.28	379.17
489.46	451.72
489.64	411.93
489.81	334.70
489.99	468.11
490.17	397.89
490.35	458.74
490.53	360.44
490.70	456.40
490.88	379.17
491.06	381.51
491.24	430.66
491.41	393.21
491.59	451.72
491.77	430.66
491.95	411.93
492.13	355.76
492.30	418.96
492.48	400.23
492.66	416.62
492.84	430.66
493.01	430.66
493.19	351.08
493.37	409.59
493.54	435.34
493.72	414.27
493.90	423.64
494.08	428.32
494.25	496.19
494.43	435.34
494.61	360.44
494.79	437.68
494.96	421.30
495.14	430.66
495.32	425.98
495.49	416.62
495.67	397.89
495.85	400.23
496.02	381.51
496.20	435.34
496.38	402.57
496.55	409.59
496.73	437.68
496.91	430.66
497.09	397.89
497.26	313.63
497.44	397.89
497.62	376.83
497.79	369.80
497.97	393.21
498.14	468.11
498.32	397.89
498.50	379.17
498.67	386.19
498.85	379.17
499.03	383.85
499.20	468.11
499.38	486.83
499.56	449.38
499.73	510.24
499.91	376.83
500.08	440.02
500.26	409.59
500.44	365.12
500.61	351.08
500.79	388.53
500.97	428.32
501.14	402.57
501.32	421.30
501.49	379.17
501.67	390.87
501.84	510.24
502.02	416.62
502.20	451.72
502.37	407.25
502.55	390.87
502.72	456.40
502.90	430.66
503.07	397.89
503.25	418.96
503.43	369.80
503.60	477.47
503.78	430.66
503.95	409.59
504.13	414.27
504.30	425.98
504.48	475.13
504.65	400.23
504.83	484.49
505.01	402.57
505.18	381.51
505.36	437.68
505.53	411.93
505.71	421.30
505.88	442.36
506.06	383.85
506.23	386.19
506.41	435.34
506.58	395.55
506.76	367.46
506.93	458.74
507.11	440.02
507.28	395.55
507.46	414.27
507.63	444.70
507.81	369.80
507.98	395.55
508.16	461.09
508.33	355.76
508.50	393.21
508.68	411.93
508.85	442.36
509.03	409.59
509.20	470.45
509.38	491.51
509.55	458.74
509.73	451.72
509.90	472.79
510.08	372.15
510.25	496.19
510.42	433.00
510.60	461.09
510.77	400.23
510.95	374.49
511.12	505.56
511.30	428.32
511.47	332.36
511.64	468.11
511.82	411.93
511.99	416.62
512.17	395.55
512.34	447.04
512.51	390.87
512.69	400.23
512.86	383.85
513.04	444.70
513.21	395.55
513.38	397.89
513.56	428.32
513.73	372.15
513.90	367.46
514.08	433.00
514.25	423.64
514.43	395.55
514.60	393.21
514.77	416.62
514.95	416.62
515.12	358.10
515.29	400.23
515.47	369.80
515.64	444.70
515.81	463.43
515.99	425.98
516.16	416.62
516.33	444.70
516.51	337.04
516.68	484.49
516.85	376.83
517.03	383.85
517.20	451.72
517.37	416.62
517.54	449.38
517.72	409.59
517.89	390.87
518.06	397.89
518.24	372.15
518.41	526.62
518.58	409.59
518.75	440.02
518.93	454.06
519.10	348.74
519.27	355.76
519.45	322.99
519.62	407.25
519.79	376.83
519.96	411.93
520.14	367.46
520.31	447.04
520.48	411.93
520.65	390.87
520.83	468.11
521.00	411.93
521.17	465.77
521.34	379.17
521.52	435.34
521.69	470.45
521.86	447.04
522.03	435.34
522.20	475.13
522.38	437.68
522.55	458.74
522.72	416.62
522.89	461.09
523.07	435.34
523.24	414.27
523.41	393.21
523.58	407.25
523.75	393.21
523.92	390.87
524.10	409.59
524.27	411.93
524.44	430.66
524.61	416.62
524.78	402.57
524.96	402.57
525.13	440.02
525.30	444.70
525.47	383.85
525.64	437.68
525.81	454.06
525.98	381.51
526.16	395.55
526.33	407.25
526.50	442.36
526.67	362.78
526.84	428.32
527.01	447.04
527.18	397.89
527.36	456.40
527.53	440.02
527.70	402.57
527.87	416.62
528.04	397.89
528.21	400.23
528.38	463.43
528.55	351.08
528.72	472.79
528.89	451.72
529.07	404.91
529.24	381.51
529.41	517.26
529.58	430.66
529.75	395.55
529.92	428.32
530.09	372.15
530.26	416.62
530.43	414.27
530.60	461.09
530.77	421.30
530.94	418.96
531.11	421.30
531.28	421.30
531.46	475.13
531.63	411.93
531.80	461.09
531.97	442.36
532.14	393.21
532.31	404.91
532.48	388.53
532.65	433.00
532.82	477.47
532.99	430.66
533.16	402.57
533.33	428.32
533.50	440.02
533.67	472.79
533.84	414.27
534.01	414.27
534.18	376.83
534.35	379.17
534.52	421.30
534.69	463.43
534.86	362.78
535.03	358.10
535.20	449.38
535.37	425.98
535.54	491.51
535.71	437.68
535.88	447.04
536.05	416.62
536.22	475.13
536.38	362.78
536.55	402.57
536.72	447.04
536.89	379.17
537.06	402.57
537.23	425.98
537.40	390.87
537.57	358.10
537.74	458.74
537.91	388.53
538.08	447.04
538.25	423.64
538.42	402.57
538.59	449.38
538.75	402.57
538.92	372.15
539.09	374.49
539.26	435.34
539.43	402.57
539.60	358.10
539.77	388.53
539.94	379.17
540.11	465.77
540.28	416.62
540.44	411.93
540.61	433.00
540.78	355.76
540.95	409.59
541.12	461.09
541.29	414.27
541.46	461.09
541.62	430.66
541.79	489.17
541.96	463.43
542.13	402.57
542.30	402.57
542.47	358.10
542.63	379.17
542.80	390.87
542.97	512.58
543.14	472.79
543.31	463.43
543.48	414.27
543.64	369.80
543.81	362.78
543.98	428.32
544.15	454.06
544.32	360.44
544.48	418.96
544.65	440.02
544.82	374.49
544.99	416.62
545.16	430.66
545.32	444.70
545.49	463.43
545.66	500.87
545.83	440.02
546.00	411.93
546.16	442.36
546.33	482.15
546.50	458.74
546.67	433.00
546.83	425.98
547.00	369.80
547.17	353.42
547.34	447.04
547.50	454.06
547.67	472.79
547.84	400.23
548.00	454.06
548.17	456.40
548.34	367.46
548.51	381.51
548.67	383.85
548.84	388.53
549.01	461.09
549.18	400.23
549.34	435.34
549.51	430.66
549.68	449.38
549.84	362.78
550.01	444.70
550.18	468.11
550.34	447.04
550.51	418.96
550.68	388.53
550.84	437.68
551.01	430.66
551.18	393.21
551.34	430.66
551.51	402.57
551.68	489.17
551.84	400.23
552.01	444.70
552.18	390.87
552.34	428.32
552.51	463.43
552.68	433.00
552.84	484.49
553.01	479.81
553.18	451.72
553.34	444.70
553.51	355.76
553.67	428.32
553.84	437.68
554.01	407.25
554.17	454.06
554.34	355.76
554.51	503.22
554.67	493.85
554.84	437.68
555.00	416.62
555.17	414.27
555.33	437.68
555.50	435.34
555.67	435.34
555.83	362.78
556.00	458.74
556.16	547.69
556.33	468.11
556.50	435.34
556.66	430.66
556.83	393.21
556.99	447.04
557.16	397.89
557.32	416.62
557.49	433.00
557.65	407.25
557.82	325.33
557.98	440.02
558.15	437.68
558.32	374.49
558.48	430.66
558.65	397.89
558.81	425.98
558.98	423.64
559.14	440.02
559.31	409.59
559.47	447.04
559.64	376.83
559.80	456.40
559.97	386.19
560.13	400.23
560.30	362.78
560.46	404.91
560.63	423.64
560.79	416.62
560.96	374.49
561.12	444.70
561.29	437.68
561.45	456.40
561.61	402.57
561.78	500.87
561.94	407.25
562.11	482.15
562.27	456.40
562.44	416.62
562.60	381.51
562.77	322.99
562.93	547.69
563.10	367.46
563.26	428.32
563.42	402.57
563.59	475.13
563.75	465.77
563.92	465.77
564.08	372.15
564.24	456.40
564.41	498.53
564.57	425.98
564.74	449.38
564.90	372.15
565.07	482.15
565.23	421.30
565.39	351.08
565.56	372.15
565.72	409.59
565.88	376.83
566.05	414.27
566.21	353.42
566.38	449.38
566.54	433.00
566.70	440.02
566.87	395.55
567.03	388.53
567.19	390.87
567.36	379.17
567.52	428.32
567.68	428.32
567.85	351.08
568.01	390.87
568.17	404.91
568.34	423.64
568.50	337.04
568.66	414.27
568.83	428.32
568.99	404.91
569.15	404.91
569.32	397.89
569.48	465.77
569.64	402.57
569.81	449.38
569.97	421.30
570.13	440.02
570.30	423.64
570.46	400.23
570.62	414.27
570.78	479.81
570.95	440.02
571.11	491.51
571.27	425.98
571.43	430.66
571.60	369.80
571.76	393.21
571.92	388.53
572.09	447.04
572.25	395.55
572.41	404.91
572.57	330.02
572.74	514.92
572.90	437.68
573.06	393.21
573.22	390.87
573.38	365.12
573.55	379.17
573.71	411.93
573.87	379.17
574.03	430.66
574.20	421.30
574.36	404.91
574.52	372.15
574.68	381.51
574.84	444.70
575.01	477.47
575.17	447.04
575.33	358.10
575.49	486.83
575.65	477.47
575.82	428.32
575.98	397.89
576.14	423.64
576.30	425.98
576.46	486.83
576.62	379.17
576.79	400.23
576.95	477.47
577.11	440.02
577.27	461.09
577.43	428.32
577.59	411.93
577.75	423.64
577.92	496.19
578.08	395.55
578.24	397.89
578.40	414.27
578.56	411.93
578.72	435.34
578.88	388.53
579.04	351.08
579.21	414.27
579.37	447.04
579.53	411.93
579.69	428.32
579.85	442.36
580.01	442.36
580.17	355.76
580.33	395.55
580.49	428.32
580.65	411.93
580.82	425.98
580.98	365.12
581.14	430.66
581.30	465.77
581.46	416.62
581.62	388.53
581.78	374.49
581.94	337.04
582.10	430.66
582.26	411.93
582.42	360.44
582.58	423.64
582.74	461.09
582.90	435.34
583.06	428.32
583.22	447.04
583.38	397.89
583.54	477.47
583.70	470.45
583.86	454.06
584.02	393.21
584.18	458.74
584.34	435.34
584.50	393.21
584.66	409.59
584.82	468.11
584.98	461.09
585.14	402.57
585.30	411.93
585.46	425.98
585.62	418.96
585.78	435.34
585.94	437.68
586.10	433.00
586.26	409.59
586.42	447.04
586.58	444.70
586.74	395.55
586.90	414.27
587.06	425.98
587.22	433.00
587.38	411.93
587.54	421.30
587.70	416.62
587.86	447.04
588.02	416.62
588.18	416.62
588.34	423.64
588.49	346.40
588.65	456.40
588.81	400.23
588.97	404.91
589.13	444.70
589.29	372.15
589.45	379.17
589.61	512.58
589.77	414.27
589.93	365.12
590.08	386.19
590.24	416.62
590.40	402.57
590.56	407.25
590.72	418.96
590.88	411.93
591.04	428.32
591.20	381.51
591.35	437.68
591.51	475.13
591.67	318.31
591.83	395.55
591.99	386.19
592.15	437.68
592.31	435.34
592.46	421.30
592.62	397.89
592.78	341.72
592.94	386.19
593.10	369.80
593.26	369.80
593.41	414.27
593.57	386.19
593.73	447.04
593.89	435.34
594.05	348.74
594.20	430.66
594.36	416.62
594.52	430.66
594.68	411.93
594.84	433.00
594.99	407.25
595.15	386.19
595.31	400.23
595.47	440.02
595.62	318.31
595.78	493.85
595.94	365.12
596.10	503.22
596.25	395.55
596.41	393.21
596.57	514.92
596.73	425.98
596.88	447.04
597.04	456.40
597.20	465.77
597.36	465.77
597.51	433.00
597.67	458.74
597.83	444.70
597.99	458.74
598.14	442.36
598.30	479.81
598.46	449.38
598.61	458.74
598.77	374.49
598.93	435.34
599.09	400.23
599.24	451.72
599.40	407.25
599.56	475.13
599.71	430.66
599.87	435.34
600.03	393.21
600.18	390.87
600.34	458.74
600.50	397.89
600.65	444.70
600.81	442.36
600.97	407.25
601.12	388.53
601.28	379.17
601.44	454.06
601.59	402.57
601.75	454.06
601.91	418.96
602.06	442.36
602.22	433.00
602.37	444.70
602.53	411.93
602.69	564.07
602.84	435.34
603.00	414.27
603.16	477.47
603.31	393.21
603.47	404.91
603.62	418.96
603.78	390.87
603.94	376.83
604.09	346.40
604.25	362.78
604.40	386.19
604.56	451.72
604.71	470.45
604.87	404.91
605.03	421.30
605.18	449.38
605.34	400.23
605.49	491.51
605.65	402.57
605.80	355.76
605.96	458.74
606.12	456.40
606.27	369.80
606.43	456.40
606.58	437.68
606.74	435.34
606.89	451.72
607.05	444.70
607.20	407.25
607.36	489.17
607.51	390.87
607.67	456.40
607.82	397.89
607.98	451.72
608.13	440.02
608.29	449.38
608.44	416.62
608.60	507.90
608.75	388.53
608.91	416.62
609.06	435.34
609.22	491.51
609.37	428.32
609.53	386.19
609.68	339.38
609.84	454.06
609.99	407.25
610.15	451.72
