SpectraSuite Data File
++++++++++++++++++++++++++++++++++++
Date: Fri Oct 25 12:10:06 EDT 2013
User: price-jones
Dark Spectrum Present: No
Reference Spectrum Present: No
Number of Sampled Component Spectra: 1
Spectrometers: USB2+H05261
Integration Time (usec): 100000 (USB2+H05261)
Spectra Averaged: 1 (USB2+H05261)
Boxcar Smoothing: 0 (USB2+H05261)
Correct for Electrical Dark: No (USB2+H05261)
Strobe/Lamp Enabled: No (USB2+H05261)
Correct for Detector Non-linearity: No (USB2+H05261)
Correct for Stray Light: No (USB2+H05261)
Number of Pixels in Processed Spectrum: 2048
>>>>>Begin Processed Spectral Data<<<<<
365.73	351.08
365.92	351.08
366.12	351.08
366.32	341.72
366.52	229.37
366.72	285.55
366.91	208.31
367.11	243.42
367.31	276.18
367.51	231.71
367.70	264.48
367.90	208.31
368.10	248.10
368.30	198.95
368.49	198.95
368.69	287.89
368.89	238.73
369.09	184.90
369.28	238.73
369.48	285.55
369.68	257.46
369.87	255.12
370.07	283.20
370.27	339.38
370.47	379.17
370.66	278.52
370.86	374.49
371.06	402.57
371.25	425.98
371.45	346.40
371.65	447.04
371.84	344.06
372.04	376.83
372.24	416.62
372.44	388.53
372.63	435.34
372.83	386.19
373.03	449.38
373.22	435.34
373.42	444.70
373.62	402.57
373.81	409.59
374.01	437.68
374.21	414.27
374.40	402.57
374.60	430.66
374.79	346.40
374.99	411.93
375.19	447.04
375.38	379.17
375.58	386.19
375.78	440.02
375.97	493.85
376.17	414.27
376.37	397.89
376.56	411.93
376.76	395.55
376.95	393.21
377.15	489.17
377.35	374.49
377.54	451.72
377.74	348.74
377.93	397.89
378.13	400.23
378.33	444.70
378.52	437.68
378.72	409.59
378.91	421.30
379.11	372.15
379.31	425.98
379.50	353.42
379.70	411.93
379.89	402.57
380.09	376.83
380.28	383.85
380.48	416.62
380.68	433.00
380.87	379.17
381.07	381.51
381.26	465.77
381.46	411.93
381.65	386.19
381.85	425.98
382.04	430.66
382.24	449.38
382.43	339.38
382.63	400.23
382.83	379.17
383.02	435.34
383.22	465.77
383.41	383.85
383.61	465.77
383.80	411.93
384.00	362.78
384.19	435.34
384.39	416.62
384.58	365.12
384.78	414.27
384.97	374.49
385.17	346.40
385.36	369.80
385.56	372.15
385.75	318.31
385.95	425.98
386.14	465.77
386.34	381.51
386.53	402.57
386.72	404.91
386.92	442.36
387.11	393.21
387.31	421.30
387.50	365.12
387.70	416.62
387.89	395.55
388.09	400.23
388.28	322.99
388.48	449.38
388.67	409.59
388.86	379.17
389.06	390.87
389.25	442.36
389.45	482.15
389.64	388.53
389.84	423.64
390.03	386.19
390.22	407.25
390.42	435.34
390.61	433.00
390.81	360.44
391.00	346.40
391.19	400.23
391.39	372.15
391.58	381.51
391.78	407.25
391.97	395.55
392.16	416.62
392.36	484.49
392.55	423.64
392.75	421.30
392.94	402.57
393.13	421.30
393.33	390.87
393.52	397.89
393.71	425.98
393.91	369.80
394.10	458.74
394.29	425.98
394.49	456.40
394.68	355.76
394.88	388.53
395.07	423.64
395.26	475.13
395.46	388.53
395.65	430.66
395.84	393.21
396.04	465.77
396.23	409.59
396.42	353.42
396.62	428.32
396.81	390.87
397.00	456.40
397.19	402.57
397.39	367.46
397.58	428.32
397.77	369.80
397.97	390.87
398.16	397.89
398.35	416.62
398.55	376.83
398.74	334.70
398.93	435.34
399.12	367.46
399.32	428.32
399.51	454.06
399.70	400.23
399.90	442.36
400.09	379.17
400.28	414.27
400.47	369.80
400.67	362.78
400.86	416.62
401.05	355.76
401.24	447.04
401.44	444.70
401.63	414.27
401.82	386.19
402.01	337.04
402.21	447.04
402.40	390.87
402.59	418.96
402.78	383.85
402.97	353.42
403.17	358.10
403.36	360.44
403.55	332.36
403.74	358.10
403.93	367.46
404.13	472.79
404.32	383.85
404.51	376.83
404.70	379.17
404.89	404.91
405.09	465.77
405.28	454.06
405.47	334.70
405.66	435.34
405.85	411.93
406.05	386.19
406.24	365.12
406.43	423.64
406.62	388.53
406.81	400.23
407.00	407.25
407.20	423.64
407.39	425.98
407.58	428.32
407.77	440.02
407.96	454.06
408.15	425.98
408.34	365.12
408.54	365.12
408.73	386.19
408.92	400.23
409.11	421.30
409.30	390.87
409.49	372.15
409.68	437.68
409.87	381.51
410.07	458.74
410.26	409.59
410.45	346.40
410.64	322.99
410.83	400.23
411.02	367.46
411.21	423.64
411.40	470.45
411.59	409.59
411.78	416.62
411.98	407.25
412.17	407.25
412.36	409.59
412.55	372.15
412.74	411.93
412.93	381.51
413.12	393.21
413.31	334.70
413.50	435.34
413.69	348.74
413.88	465.77
414.07	421.30
414.26	451.72
414.45	484.49
414.64	449.38
414.83	428.32
415.02	376.83
415.22	414.27
415.41	386.19
415.60	423.64
415.79	407.25
415.98	388.53
416.17	470.45
416.36	330.02
416.55	341.72
416.74	367.46
416.93	421.30
417.12	414.27
417.31	365.12
417.50	397.89
417.69	322.99
417.88	433.00
418.07	411.93
418.26	397.89
418.45	397.89
418.64	526.62
418.83	423.64
419.02	411.93
419.21	386.19
419.39	447.04
419.58	337.04
419.77	332.36
419.96	397.89
420.15	411.93
420.34	402.57
420.53	421.30
420.72	407.25
420.91	397.89
421.10	358.10
421.29	411.93
421.48	458.74
421.67	468.11
421.86	330.02
422.05	404.91
422.24	367.46
422.43	379.17
422.61	369.80
422.80	393.21
422.99	393.21
423.18	400.23
423.37	433.00
423.56	360.44
423.75	400.23
423.94	339.38
424.13	360.44
424.32	430.66
424.50	416.62
424.69	463.43
424.88	376.83
425.07	365.12
425.26	381.51
425.45	397.89
425.64	365.12
425.83	425.98
426.01	393.21
426.20	400.23
426.39	433.00
426.58	409.59
426.77	416.62
426.96	470.45
427.15	393.21
427.33	456.40
427.52	407.25
427.71	395.55
427.90	451.72
428.09	456.40
428.28	393.21
428.46	444.70
428.65	414.27
428.84	407.25
429.03	489.17
429.22	404.91
429.40	454.06
429.59	388.53
429.78	449.38
429.97	365.12
430.16	456.40
430.34	414.27
430.53	395.55
430.72	390.87
430.91	400.23
431.10	433.00
431.28	416.62
431.47	409.59
431.66	393.21
431.85	411.93
432.03	379.17
432.22	425.98
432.41	421.30
432.60	369.80
432.79	386.19
432.97	376.83
433.16	416.62
433.35	383.85
433.54	376.83
433.72	393.21
433.91	395.55
434.10	400.23
434.28	416.62
434.47	404.91
434.66	442.36
434.85	435.34
435.03	425.98
435.22	407.25
435.41	383.85
435.59	367.46
435.78	395.55
435.97	379.17
436.16	435.34
436.34	346.40
436.53	351.08
436.72	472.79
436.90	414.27
437.09	379.17
437.28	458.74
437.46	362.78
437.65	421.30
437.84	449.38
438.02	404.91
438.21	496.19
438.40	411.93
438.58	395.55
438.77	407.25
438.96	402.57
439.14	379.17
439.33	386.19
439.52	390.87
439.70	388.53
439.89	379.17
440.08	397.89
440.26	421.30
440.45	468.11
440.63	400.23
440.82	348.74
441.01	369.80
441.19	416.62
441.38	376.83
441.57	454.06
441.75	442.36
441.94	388.53
442.12	444.70
442.31	388.53
442.50	458.74
442.68	372.15
442.87	456.40
443.05	400.23
443.24	465.77
443.43	425.98
443.61	468.11
443.80	411.93
443.98	421.30
444.17	456.40
444.35	430.66
444.54	379.17
444.73	374.49
444.91	423.64
445.10	400.23
445.28	435.34
445.47	461.09
445.65	367.46
445.84	369.80
446.02	433.00
446.21	400.23
446.39	421.30
446.58	416.62
446.77	444.70
446.95	397.89
447.14	418.96
447.32	423.64
447.51	400.23
447.69	360.44
447.88	435.34
448.06	437.68
448.25	344.06
448.43	318.31
448.62	365.12
448.80	400.23
448.99	369.80
449.17	458.74
449.36	404.91
449.54	390.87
449.73	456.40
449.91	449.38
450.10	411.93
450.28	489.17
450.46	489.17
450.65	482.15
450.83	486.83
451.02	458.74
451.20	423.64
451.39	395.55
451.57	430.66
451.76	425.98
451.94	407.25
452.13	407.25
452.31	428.32
452.49	449.38
452.68	454.06
452.86	425.98
453.05	447.04
453.23	393.21
453.42	400.23
453.60	369.80
453.78	418.96
453.97	386.19
454.15	376.83
454.34	360.44
454.52	437.68
454.70	409.59
454.89	376.83
455.07	374.49
455.26	411.93
455.44	454.06
455.62	372.15
455.81	369.80
455.99	484.49
456.17	400.23
456.36	411.93
456.54	386.19
456.73	475.13
456.91	393.21
457.09	454.06
457.28	423.64
457.46	397.89
457.64	435.34
457.83	360.44
458.01	397.89
458.19	411.93
458.38	376.83
458.56	468.11
458.74	390.87
458.93	442.36
459.11	407.25
459.29	390.87
459.48	433.00
459.66	465.77
459.84	437.68
460.03	519.60
460.21	456.40
460.39	442.36
460.57	383.85
460.76	353.42
460.94	489.17
461.12	404.91
461.31	463.43
461.49	475.13
461.67	407.25
461.85	470.45
462.04	411.93
462.22	791.10
462.40	383.85
462.59	418.96
462.77	400.23
462.95	470.45
463.13	367.46
463.32	500.87
463.50	433.00
463.68	463.43
463.86	421.30
464.05	442.36
464.23	362.78
464.41	437.68
464.59	435.34
464.78	346.40
464.96	362.78
465.14	386.19
465.32	369.80
465.50	379.17
465.69	376.83
465.87	344.06
466.05	444.70
466.23	367.46
466.41	397.89
466.60	367.46
466.78	416.62
466.96	491.51
467.14	365.12
467.32	346.40
467.51	379.17
467.69	365.12
467.87	409.59
468.05	437.68
468.23	477.47
468.41	470.45
468.60	386.19
468.78	449.38
468.96	407.25
469.14	477.47
469.32	379.17
469.50	369.80
469.69	479.81
469.87	372.15
470.05	393.21
470.23	430.66
470.41	400.23
470.59	397.89
470.77	379.17
470.95	418.96
471.14	461.09
471.32	428.32
471.50	514.92
471.68	416.62
471.86	416.62
472.04	393.21
472.22	397.89
472.40	407.25
472.58	400.23
472.77	451.72
472.95	414.27
473.13	425.98
473.31	418.96
473.49	381.51
473.67	428.32
473.85	421.30
474.03	393.21
474.21	433.00
474.39	465.77
474.57	421.30
474.75	414.27
474.93	421.30
475.12	388.53
475.30	393.21
475.48	402.57
475.66	365.12
475.84	374.49
476.02	463.43
476.20	383.85
476.38	449.38
476.56	416.62
476.74	454.06
476.92	437.68
477.10	388.53
477.28	383.85
477.46	395.55
477.64	463.43
477.82	397.89
478.00	454.06
478.18	400.23
478.36	379.17
478.54	468.11
478.72	421.30
478.90	393.21
479.08	475.13
479.26	400.23
479.44	418.96
479.62	393.21
479.80	381.51
479.98	367.46
480.16	458.74
480.34	437.68
480.52	353.42
480.70	440.02
480.88	355.76
481.06	416.62
481.24	414.27
481.41	411.93
481.59	409.59
481.77	402.57
481.95	395.55
482.13	463.43
482.31	362.78
482.49	435.34
482.67	365.12
482.85	498.53
483.03	440.02
483.21	451.72
483.39	470.45
483.57	423.64
483.74	404.91
483.92	400.23
484.10	451.72
484.28	416.62
484.46	435.34
484.64	386.19
484.82	379.17
485.00	362.78
485.18	395.55
485.35	402.57
485.53	428.32
485.71	454.06
485.89	388.53
486.07	414.27
486.25	456.40
486.43	376.83
486.61	451.72
486.78	430.66
486.96	369.80
487.14	463.43
487.32	479.81
487.50	416.62
487.68	470.45
487.85	344.06
488.03	381.51
488.21	421.30
488.39	397.89
488.57	430.66
488.75	421.30
488.92	538.32
489.10	423.64
489.28	479.81
489.46	404.91
489.64	372.15
489.81	437.68
489.99	409.59
490.17	397.89
490.35	440.02
490.53	374.49
490.70	449.38
490.88	440.02
491.06	395.55
491.24	447.04
491.41	451.72
491.59	425.98
491.77	418.96
491.95	491.51
492.13	383.85
492.30	400.23
492.48	404.91
492.66	411.93
492.84	395.55
493.01	489.17
493.19	386.19
493.37	390.87
493.54	402.57
493.72	381.51
493.90	369.80
494.08	428.32
494.25	358.10
494.43	369.80
494.61	374.49
494.79	463.43
494.96	449.38
495.14	421.30
495.32	402.57
495.49	444.70
495.67	369.80
495.85	393.21
496.02	374.49
496.20	442.36
496.38	395.55
496.55	400.23
496.73	388.53
496.91	430.66
497.09	456.40
497.26	433.00
497.44	465.77
497.62	388.53
497.79	379.17
497.97	397.89
498.14	372.15
498.32	390.87
498.50	442.36
498.67	414.27
498.85	486.83
499.03	430.66
499.20	390.87
499.38	383.85
499.56	402.57
499.73	477.47
499.91	409.59
500.08	512.58
500.26	383.85
500.44	344.06
500.61	430.66
500.79	440.02
500.97	435.34
501.14	463.43
501.32	330.02
501.49	407.25
501.67	472.79
501.84	414.27
502.02	440.02
502.20	449.38
502.37	346.40
502.55	423.64
502.72	416.62
502.90	463.43
503.07	463.43
503.25	475.13
503.43	430.66
503.60	470.45
503.78	414.27
503.95	428.32
504.13	433.00
504.30	411.93
504.48	491.51
504.65	428.32
504.83	409.59
505.01	416.62
505.18	465.77
505.36	423.64
505.53	369.80
505.71	416.62
505.88	416.62
506.06	444.70
506.23	456.40
506.41	381.51
506.58	449.38
506.76	404.91
506.93	402.57
507.11	393.21
507.28	365.12
507.46	440.02
507.63	358.10
507.81	430.66
507.98	386.19
508.16	374.49
508.33	409.59
508.50	404.91
508.68	440.02
508.85	416.62
509.03	411.93
509.20	383.85
509.38	444.70
509.55	402.57
509.73	428.32
509.90	404.91
510.08	372.15
510.25	418.96
510.42	381.51
510.60	386.19
510.77	458.74
510.95	365.12
511.12	388.53
511.30	404.91
511.47	425.98
511.64	461.09
511.82	440.02
511.99	512.58
512.17	395.55
512.34	372.15
512.51	437.68
512.69	400.23
512.86	437.68
513.04	351.08
513.21	470.45
513.38	404.91
513.56	451.72
513.73	393.21
513.90	374.49
514.08	381.51
514.25	367.46
514.43	414.27
514.60	376.83
514.77	423.64
514.95	353.42
515.12	447.04
515.29	461.09
515.47	393.21
515.64	390.87
515.81	430.66
515.99	381.51
516.16	461.09
516.33	425.98
516.51	437.68
516.68	484.49
516.85	425.98
517.03	376.83
517.20	454.06
517.37	402.57
517.54	465.77
517.72	437.68
517.89	402.57
518.06	465.77
518.24	507.90
518.41	496.19
518.58	393.21
518.75	411.93
518.93	407.25
519.10	400.23
519.27	388.53
519.45	404.91
519.62	407.25
519.79	449.38
519.96	365.12
520.14	369.80
520.31	468.11
520.48	332.36
520.65	407.25
520.83	400.23
521.00	397.89
521.17	442.36
521.34	402.57
521.52	390.87
521.69	404.91
521.86	463.43
522.03	409.59
522.20	411.93
522.38	430.66
522.55	404.91
522.72	397.89
522.89	465.77
523.07	489.17
523.24	425.98
523.41	379.17
523.58	411.93
523.75	433.00
523.92	372.15
524.10	390.87
524.27	395.55
524.44	376.83
524.61	386.19
524.78	315.97
524.96	447.04
525.13	465.77
525.30	484.49
525.47	362.78
525.64	423.64
525.81	421.30
525.98	463.43
526.16	447.04
526.33	407.25
526.50	383.85
526.67	374.49
526.84	442.36
527.01	369.80
527.18	447.04
527.36	418.96
527.53	409.59
527.70	470.45
527.87	435.34
528.04	447.04
528.21	454.06
528.38	479.81
528.55	498.53
528.72	510.24
528.89	472.79
529.07	407.25
529.24	475.13
529.41	423.64
529.58	458.74
529.75	355.76
529.92	454.06
530.09	454.06
530.26	433.00
530.43	496.19
530.60	489.17
530.77	435.34
530.94	461.09
531.11	414.27
531.28	442.36
531.46	397.89
531.63	409.59
531.80	447.04
531.97	451.72
532.14	425.98
532.31	416.62
532.48	470.45
532.65	461.09
532.82	369.80
532.99	421.30
533.16	374.49
533.33	428.32
533.50	358.10
533.67	367.46
533.84	470.45
534.01	390.87
534.18	402.57
534.35	362.78
534.52	362.78
534.69	374.49
534.86	393.21
535.03	468.11
535.20	411.93
535.37	379.17
535.54	351.08
535.71	416.62
535.88	449.38
536.05	402.57
536.22	390.87
536.38	409.59
536.55	468.11
536.72	411.93
536.89	400.23
537.06	339.38
537.23	381.51
537.40	369.80
537.57	372.15
537.74	489.17
537.91	465.77
538.08	411.93
538.25	461.09
538.42	440.02
538.59	367.46
538.75	355.76
538.92	418.96
539.09	428.32
539.26	388.53
539.43	409.59
539.60	409.59
539.77	421.30
539.94	390.87
540.11	456.40
540.28	360.44
540.44	437.68
540.61	423.64
540.78	442.36
540.95	418.96
541.12	367.46
541.29	355.76
541.46	482.15
541.62	414.27
541.79	390.87
541.96	379.17
542.13	435.34
542.30	440.02
542.47	393.21
542.63	381.51
542.80	433.00
542.97	369.80
543.14	372.15
543.31	386.19
543.48	402.57
543.64	388.53
543.81	435.34
543.98	355.76
544.15	362.78
544.32	402.57
544.48	374.49
544.65	381.51
544.82	404.91
544.99	404.91
545.16	456.40
545.32	451.72
545.49	416.62
545.66	430.66
545.83	461.09
546.00	383.85
546.16	418.96
546.33	402.57
546.50	437.68
546.67	416.62
546.83	421.30
547.00	386.19
547.17	402.57
547.34	400.23
547.50	397.89
547.67	306.61
547.84	404.91
548.00	430.66
548.17	402.57
548.34	461.09
548.51	458.74
548.67	414.27
548.84	437.68
549.01	348.74
549.18	433.00
549.34	395.55
549.51	374.49
549.68	397.89
549.84	395.55
550.01	402.57
550.18	484.49
550.34	386.19
550.51	407.25
550.68	475.13
550.84	407.25
551.01	468.11
551.18	414.27
551.34	465.77
551.51	442.36
551.68	411.93
551.84	526.62
552.01	407.25
552.18	411.93
552.34	372.15
552.51	395.55
552.68	437.68
552.84	362.78
553.01	449.38
553.18	369.80
553.34	402.57
553.51	409.59
553.67	325.33
553.84	407.25
554.01	362.78
554.17	407.25
554.34	479.81
554.51	381.51
554.67	433.00
554.84	428.32
555.00	414.27
555.17	381.51
555.33	472.79
555.50	339.38
555.67	449.38
555.83	369.80
556.00	503.22
556.16	543.00
556.33	444.70
556.50	414.27
556.66	425.98
556.83	442.36
556.99	454.06
557.16	437.68
557.32	414.27
557.49	337.04
557.65	383.85
557.82	374.49
557.98	400.23
558.15	411.93
558.32	407.25
558.48	379.17
558.65	430.66
558.81	463.43
558.98	374.49
559.14	454.06
559.31	470.45
559.47	428.32
559.64	428.32
559.80	416.62
559.97	388.53
560.13	393.21
560.30	447.04
560.46	386.19
560.63	423.64
560.79	458.74
560.96	386.19
561.12	388.53
561.29	416.62
561.45	456.40
561.61	423.64
561.78	468.11
561.94	386.19
562.11	435.34
562.27	435.34
562.44	430.66
562.60	444.70
562.77	372.15
562.93	456.40
563.10	393.21
563.26	440.02
563.42	379.17
563.59	386.19
563.75	365.12
563.92	402.57
564.08	465.77
564.24	444.70
564.41	479.81
564.57	383.85
564.74	409.59
564.90	360.44
565.07	344.06
565.23	437.68
565.39	442.36
565.56	344.06
565.72	337.04
565.88	444.70
566.05	444.70
566.21	369.80
566.38	470.45
566.54	390.87
566.70	397.89
566.87	428.32
567.03	337.04
567.19	400.23
567.36	369.80
567.52	428.32
567.68	435.34
567.85	491.51
568.01	528.96
568.17	376.83
568.34	479.81
568.50	475.13
568.66	353.42
568.83	465.77
568.99	379.17
569.15	477.47
569.32	437.68
569.48	465.77
569.64	423.64
569.81	358.10
569.97	395.55
570.13	557.05
570.30	447.04
570.46	411.93
570.62	402.57
570.78	358.10
570.95	402.57
571.11	454.06
571.27	407.25
571.43	339.38
571.60	421.30
571.76	447.04
571.92	411.93
572.09	477.47
572.25	447.04
572.41	369.80
572.57	386.19
572.74	435.34
572.90	409.59
573.06	421.30
573.22	423.64
573.38	404.91
573.55	351.08
573.71	470.45
573.87	440.02
574.03	465.77
574.20	468.11
574.36	484.49
574.52	402.57
574.68	369.80
574.84	430.66
575.01	416.62
575.17	463.43
575.33	355.76
575.49	477.47
575.65	472.79
575.82	411.93
575.98	409.59
576.14	411.93
576.30	423.64
576.46	379.17
576.62	430.66
576.79	444.70
576.95	447.04
577.11	383.85
577.27	411.93
577.43	447.04
577.59	425.98
577.75	458.74
577.92	395.55
578.08	407.25
578.24	416.62
578.40	484.49
578.56	435.34
578.72	421.30
578.88	433.00
579.04	423.64
579.21	414.27
579.37	414.27
579.53	407.25
579.69	400.23
579.85	395.55
580.01	444.70
580.17	379.17
580.33	454.06
580.49	379.17
580.65	411.93
580.82	468.11
580.98	425.98
581.14	381.51
581.30	463.43
581.46	423.64
581.62	421.30
581.78	407.25
581.94	395.55
582.10	407.25
582.26	461.09
582.42	388.53
582.58	472.79
582.74	433.00
582.90	423.64
583.06	465.77
583.22	365.12
583.38	395.55
583.54	440.02
583.70	458.74
583.86	353.42
584.02	444.70
584.18	505.56
584.34	383.85
584.50	444.70
584.66	425.98
584.82	470.45
584.98	475.13
585.14	451.72
585.30	465.77
585.46	456.40
585.62	444.70
585.78	435.34
585.94	447.04
586.10	397.89
586.26	395.55
586.42	517.26
586.58	386.19
586.74	383.85
586.90	348.74
587.06	400.23
587.22	510.24
587.38	365.12
587.54	407.25
587.70	421.30
587.86	404.91
588.02	449.38
588.18	393.21
588.34	362.78
588.49	407.25
588.65	381.51
588.81	404.91
588.97	393.21
589.13	458.74
589.29	390.87
589.45	400.23
589.61	456.40
589.77	447.04
589.93	493.85
590.08	479.81
590.24	418.96
590.40	451.72
590.56	463.43
590.72	388.53
590.88	400.23
591.04	404.91
591.20	360.44
591.35	458.74
591.51	383.85
591.67	449.38
591.83	404.91
591.99	454.06
592.15	428.32
592.31	409.59
592.46	400.23
592.62	472.79
592.78	423.64
592.94	374.49
593.10	362.78
593.26	374.49
593.41	376.83
593.57	397.89
593.73	437.68
593.89	461.09
594.05	437.68
594.20	395.55
594.36	423.64
594.52	397.89
594.68	407.25
594.84	503.22
594.99	447.04
595.15	351.08
595.31	416.62
595.47	461.09
595.62	458.74
595.78	407.25
595.94	442.36
596.10	400.23
596.25	395.55
596.41	414.27
596.57	402.57
596.73	404.91
596.88	365.12
597.04	458.74
597.20	383.85
597.36	489.17
597.51	407.25
597.67	456.40
597.83	463.43
597.99	362.78
598.14	418.96
598.30	414.27
598.46	358.10
598.61	404.91
598.77	395.55
598.93	332.36
599.09	451.72
599.24	437.68
599.40	444.70
599.56	416.62
599.71	433.00
599.87	386.19
600.03	465.77
600.18	416.62
600.34	458.74
600.50	386.19
600.65	388.53
600.81	477.47
600.97	414.27
601.12	418.96
601.28	451.72
601.44	486.83
601.59	402.57
601.75	355.76
601.91	409.59
602.06	440.02
602.22	486.83
602.37	411.93
602.53	400.23
602.69	397.89
602.84	388.53
603.00	409.59
603.16	360.44
603.31	393.21
603.47	372.15
603.62	451.72
603.78	433.00
603.94	402.57
604.09	421.30
604.25	416.62
604.40	444.70
604.56	407.25
604.71	397.89
604.87	425.98
605.03	402.57
605.18	334.70
605.34	482.15
605.49	404.91
605.65	393.21
605.80	334.70
605.96	404.91
606.12	383.85
606.27	425.98
606.43	430.66
606.58	374.49
606.74	365.12
606.89	428.32
607.05	355.76
607.20	425.98
607.36	418.96
607.51	433.00
607.67	463.43
607.82	463.43
607.98	500.87
608.13	402.57
608.29	416.62
608.44	486.83
608.60	451.72
608.75	362.78
608.91	463.43
609.06	463.43
609.22	341.72
609.37	430.66
609.53	418.96
609.68	381.51
609.84	390.87
609.99	479.81
610.15	463.43
