SpectraSuite Data File
++++++++++++++++++++++++++++++++++++
Date: Fri Oct 25 12:10:36 EDT 2013
User: price-jones
Dark Spectrum Present: No
Reference Spectrum Present: No
Number of Sampled Component Spectra: 1
Spectrometers: USB2+H05261
Integration Time (usec): 100000 (USB2+H05261)
Spectra Averaged: 1 (USB2+H05261)
Boxcar Smoothing: 0 (USB2+H05261)
Correct for Electrical Dark: No (USB2+H05261)
Strobe/Lamp Enabled: No (USB2+H05261)
Correct for Detector Non-linearity: No (USB2+H05261)
Correct for Stray Light: No (USB2+H05261)
Number of Pixels in Processed Spectrum: 2048
>>>>>Begin Processed Spectral Data<<<<<
365.73	379.17
365.92	379.17
366.12	379.17
366.32	234.05
366.52	196.60
366.72	238.73
366.91	264.48
367.11	250.44
367.31	243.42
367.51	220.01
367.70	182.56
367.90	259.80
368.10	201.29
368.30	229.37
368.49	290.23
368.69	264.48
368.89	292.57
369.09	290.23
369.28	238.73
369.48	271.50
369.68	358.10
369.87	320.65
370.07	276.18
370.27	313.63
370.47	348.74
370.66	266.82
370.86	367.46
371.06	376.83
371.25	454.06
371.45	404.91
371.65	341.72
371.84	381.51
372.04	346.40
372.24	383.85
372.44	376.83
372.63	362.78
372.83	386.19
373.03	437.68
373.22	414.27
373.42	390.87
373.62	430.66
373.81	465.77
374.01	414.27
374.21	397.89
374.40	482.15
374.60	414.27
374.79	454.06
374.99	411.93
375.19	470.45
375.38	388.53
375.58	454.06
375.78	458.74
375.97	465.77
376.17	440.02
376.37	430.66
376.56	440.02
376.76	418.96
376.95	346.40
377.15	369.80
377.35	428.32
377.54	400.23
377.74	372.15
377.93	374.49
378.13	414.27
378.33	416.62
378.52	416.62
378.72	407.25
378.91	437.68
379.11	400.23
379.31	383.85
379.50	386.19
379.70	451.72
379.89	365.12
380.09	351.08
380.28	334.70
380.48	353.42
380.68	381.51
380.87	428.32
381.07	395.55
381.26	454.06
381.46	372.15
381.65	327.68
381.85	362.78
382.04	374.49
382.24	435.34
382.43	428.32
382.63	376.83
382.83	416.62
383.02	374.49
383.22	409.59
383.41	435.34
383.61	381.51
383.80	358.10
384.00	390.87
384.19	437.68
384.39	395.55
384.58	416.62
384.78	447.04
384.97	454.06
385.17	463.43
385.36	402.57
385.56	400.23
385.75	440.02
385.95	423.64
386.14	435.34
386.34	381.51
386.53	386.19
386.72	372.15
386.92	383.85
387.11	365.12
387.31	397.89
387.50	430.66
387.70	339.38
387.89	402.57
388.09	386.19
388.28	362.78
388.48	390.87
388.67	428.32
388.86	395.55
389.06	374.49
389.25	423.64
389.45	440.02
389.64	442.36
389.84	351.08
390.03	503.22
390.22	381.51
390.42	479.81
390.61	388.53
390.81	402.57
391.00	386.19
391.19	435.34
391.39	400.23
391.58	379.17
391.78	458.74
391.97	358.10
392.16	344.06
392.36	451.72
392.55	404.91
392.75	383.85
392.94	369.80
393.13	367.46
393.33	339.38
393.52	421.30
393.71	477.47
393.91	400.23
394.10	341.72
394.29	433.00
394.49	388.53
394.68	447.04
394.88	414.27
395.07	318.31
395.26	360.44
395.46	322.99
395.65	454.06
395.84	353.42
396.04	435.34
396.23	397.89
396.42	430.66
396.62	421.30
396.81	402.57
397.00	416.62
397.19	416.62
397.39	397.89
397.58	440.02
397.77	411.93
397.97	463.43
398.16	400.23
398.35	442.36
398.55	362.78
398.74	362.78
398.93	433.00
399.12	383.85
399.32	444.70
399.51	334.70
399.70	409.59
399.90	374.49
400.09	376.83
400.28	402.57
400.47	444.70
400.67	374.49
400.86	311.29
401.05	454.06
401.24	421.30
401.44	440.02
401.63	414.27
401.82	381.51
402.01	379.17
402.21	379.17
402.40	423.64
402.59	374.49
402.78	395.55
402.97	346.40
403.17	355.76
403.36	381.51
403.55	381.51
403.74	456.40
403.93	423.64
404.13	418.96
404.32	285.55
404.51	397.89
404.70	386.19
404.89	376.83
405.09	402.57
405.28	461.09
405.47	397.89
405.66	416.62
405.85	409.59
406.05	409.59
406.24	472.79
406.43	433.00
406.62	397.89
406.81	479.81
407.00	414.27
407.20	423.64
407.39	355.76
407.58	407.25
407.77	374.49
407.96	402.57
408.15	423.64
408.34	454.06
408.54	414.27
408.73	456.40
408.92	451.72
409.11	388.53
409.30	470.45
409.49	397.89
409.68	447.04
409.87	428.32
410.07	468.11
410.26	397.89
410.45	418.96
410.64	369.80
410.83	402.57
411.02	339.38
411.21	465.77
411.40	414.27
411.59	421.30
411.78	330.02
411.98	423.64
412.17	390.87
412.36	423.64
412.55	365.12
412.74	435.34
412.93	423.64
413.12	421.30
413.31	433.00
413.50	418.96
413.69	402.57
413.88	407.25
414.07	381.51
414.26	404.91
414.45	430.66
414.64	409.59
414.83	433.00
415.02	461.09
415.22	416.62
415.41	409.59
415.60	346.40
415.79	479.81
415.98	402.57
416.17	404.91
416.36	411.93
416.55	416.62
416.74	409.59
416.93	393.21
417.12	435.34
417.31	454.06
417.50	489.17
417.69	397.89
417.88	351.08
418.07	414.27
418.26	430.66
418.45	425.98
418.64	468.11
418.83	442.36
419.02	393.21
419.21	393.21
419.39	315.97
419.58	372.15
419.77	503.22
419.96	430.66
420.15	423.64
420.34	458.74
420.53	456.40
420.72	465.77
420.91	355.76
421.10	381.51
421.29	379.17
421.48	435.34
421.67	397.89
421.86	423.64
422.05	367.46
422.24	379.17
422.43	428.32
422.61	407.25
422.80	414.27
422.99	358.10
423.18	369.80
423.37	379.17
423.56	404.91
423.75	411.93
423.94	383.85
424.13	330.02
424.32	395.55
424.50	463.43
424.69	418.96
424.88	425.98
425.07	388.53
425.26	430.66
425.45	463.43
425.64	454.06
425.83	442.36
426.01	421.30
426.20	400.23
426.39	425.98
426.58	395.55
426.77	379.17
426.96	407.25
427.15	402.57
427.33	404.91
427.52	433.00
427.71	395.55
427.90	383.85
428.09	402.57
428.28	524.28
428.46	379.17
428.65	484.49
428.84	402.57
429.03	461.09
429.22	397.89
429.40	472.79
429.59	428.32
429.78	475.13
429.97	411.93
430.16	411.93
430.34	402.57
430.53	360.44
430.72	414.27
430.91	440.02
431.10	393.21
431.28	351.08
431.47	437.68
431.66	435.34
431.85	409.59
432.03	397.89
432.22	435.34
432.41	458.74
432.60	397.89
432.79	393.21
432.97	344.06
433.16	423.64
433.35	421.30
433.54	397.89
433.72	451.72
433.91	468.11
434.10	411.93
434.28	404.91
434.47	367.46
434.66	407.25
434.85	416.62
435.03	500.87
435.22	430.66
435.41	421.30
435.59	365.12
435.78	442.36
435.97	440.02
436.16	381.51
436.34	376.83
436.53	372.15
436.72	346.40
436.90	372.15
437.09	425.98
437.28	440.02
437.46	409.59
437.65	442.36
437.84	425.98
438.02	404.91
438.21	428.32
438.40	369.80
438.58	397.89
438.77	428.32
438.96	397.89
439.14	376.83
439.33	447.04
439.52	437.68
439.70	374.49
439.89	524.28
440.08	470.45
440.26	395.55
440.45	479.81
440.63	416.62
440.82	416.62
441.01	454.06
441.19	381.51
441.38	402.57
441.57	435.34
441.75	372.15
441.94	376.83
442.12	353.42
442.31	381.51
442.50	379.17
442.68	456.40
442.87	400.23
443.05	344.06
443.24	407.25
443.43	418.96
443.61	400.23
443.80	407.25
443.98	351.08
444.17	367.46
444.35	418.96
444.54	369.80
444.73	299.59
444.91	327.68
445.10	346.40
445.28	379.17
445.47	428.32
445.65	430.66
445.84	379.17
446.02	393.21
446.21	379.17
446.39	381.51
446.58	505.56
446.77	468.11
446.95	393.21
447.14	444.70
447.32	428.32
447.51	372.15
447.69	463.43
447.88	440.02
448.06	458.74
448.25	454.06
448.43	397.89
448.62	400.23
448.80	390.87
448.99	463.43
449.17	411.93
449.36	393.21
449.54	440.02
449.73	381.51
449.91	447.04
450.10	376.83
450.28	411.93
450.46	477.47
450.65	479.81
450.83	381.51
451.02	465.77
451.20	470.45
451.39	353.42
451.57	428.32
451.76	433.00
451.94	437.68
452.13	433.00
452.31	416.62
452.49	444.70
452.68	409.59
452.86	386.19
453.05	411.93
453.23	433.00
453.42	397.89
453.60	374.49
453.78	421.30
453.97	449.38
454.15	372.15
454.34	409.59
454.52	358.10
454.70	397.89
454.89	468.11
455.07	416.62
455.26	369.80
455.44	409.59
455.62	414.27
455.81	388.53
455.99	367.46
456.17	440.02
456.36	435.34
456.54	421.30
456.73	416.62
456.91	402.57
457.09	435.34
457.28	421.30
457.46	402.57
457.64	491.51
457.83	514.92
458.01	351.08
458.19	442.36
458.38	388.53
458.56	379.17
458.74	379.17
458.93	449.38
459.11	414.27
459.29	444.70
459.48	381.51
459.66	461.09
459.84	421.30
460.03	493.85
460.21	383.85
460.39	430.66
460.57	528.96
460.76	447.04
460.94	386.19
461.12	479.81
461.31	435.34
461.49	475.13
461.67	416.62
461.85	428.32
462.04	376.83
462.22	770.04
462.40	489.17
462.59	397.89
462.77	400.23
462.95	440.02
463.13	414.27
463.32	470.45
463.50	409.59
463.68	435.34
463.86	421.30
464.05	416.62
464.23	433.00
464.41	416.62
464.59	435.34
464.78	414.27
464.96	440.02
465.14	409.59
465.32	393.21
465.50	479.81
465.69	383.85
465.87	468.11
466.05	461.09
466.23	346.40
466.41	369.80
466.60	383.85
466.78	461.09
466.96	409.59
467.14	404.91
467.32	409.59
467.51	404.91
467.69	411.93
467.87	404.91
468.05	362.78
468.23	421.30
468.41	402.57
468.60	428.32
468.78	433.00
468.96	472.79
469.14	468.11
469.32	421.30
469.50	390.87
469.69	393.21
469.87	400.23
470.05	463.43
470.23	437.68
470.41	468.11
470.59	355.76
470.77	430.66
470.95	358.10
471.14	397.89
471.32	418.96
471.50	430.66
471.68	395.55
471.86	397.89
472.04	411.93
472.22	416.62
472.40	454.06
472.58	376.83
472.77	472.79
472.95	360.44
473.13	388.53
473.31	393.21
473.49	355.76
473.67	442.36
473.85	400.23
474.03	407.25
474.21	430.66
474.39	475.13
474.57	428.32
474.75	383.85
474.93	374.49
475.12	425.98
475.30	411.93
475.48	449.38
475.66	395.55
475.84	428.32
476.02	428.32
476.20	416.62
476.38	397.89
476.56	524.28
476.74	416.62
476.92	411.93
477.10	414.27
477.28	402.57
477.46	465.77
477.64	407.25
477.82	393.21
478.00	407.25
478.18	418.96
478.36	463.43
478.54	402.57
478.72	402.57
478.90	379.17
479.08	348.74
479.26	402.57
479.44	433.00
479.62	390.87
479.80	400.23
479.98	395.55
480.16	454.06
480.34	456.40
480.52	444.70
480.70	383.85
480.88	435.34
481.06	468.11
481.24	414.27
481.41	433.00
481.59	435.34
481.77	414.27
481.95	465.77
482.13	470.45
482.31	404.91
482.49	379.17
482.67	376.83
482.85	390.87
483.03	442.36
483.21	351.08
483.39	374.49
483.57	458.74
483.74	386.19
483.92	393.21
484.10	404.91
484.28	395.55
484.46	486.83
484.64	425.98
484.82	383.85
485.00	397.89
485.18	440.02
485.35	428.32
485.53	397.89
485.71	470.45
485.89	353.42
486.07	477.47
486.25	479.81
486.43	454.06
486.61	472.79
486.78	454.06
486.96	435.34
487.14	374.49
487.32	435.34
487.50	404.91
487.68	423.64
487.85	348.74
488.03	435.34
488.21	461.09
488.39	451.72
488.57	428.32
488.75	411.93
488.92	512.58
489.10	386.19
489.28	430.66
489.46	327.68
489.64	418.96
489.81	404.91
489.99	416.62
490.17	339.38
490.35	463.43
490.53	418.96
490.70	369.80
490.88	393.21
491.06	400.23
491.24	390.87
491.41	444.70
491.59	433.00
491.77	458.74
491.95	372.15
492.13	388.53
492.30	386.19
492.48	447.04
492.66	397.89
492.84	454.06
493.01	442.36
493.19	414.27
493.37	484.49
493.54	402.57
493.72	428.32
493.90	456.40
494.08	376.83
494.25	379.17
494.43	418.96
494.61	409.59
494.79	451.72
494.96	379.17
495.14	390.87
495.32	294.91
495.49	423.64
495.67	395.55
495.85	421.30
496.02	369.80
496.20	449.38
496.38	444.70
496.55	425.98
496.73	383.85
496.91	454.06
497.09	341.72
497.26	381.51
497.44	435.34
497.62	362.78
497.79	404.91
497.97	444.70
498.14	430.66
498.32	482.15
498.50	423.64
498.67	411.93
498.85	409.59
499.03	425.98
499.20	362.78
499.38	463.43
499.56	486.83
499.73	440.02
499.91	367.46
500.08	411.93
500.26	430.66
500.44	416.62
500.61	369.80
500.79	435.34
500.97	409.59
501.14	484.49
501.32	402.57
501.49	390.87
501.67	430.66
501.84	425.98
502.02	421.30
502.20	414.27
502.37	461.09
502.55	402.57
502.72	449.38
502.90	451.72
503.07	400.23
503.25	400.23
503.43	458.74
503.60	454.06
503.78	463.43
503.95	435.34
504.13	409.59
504.30	395.55
504.48	416.62
504.65	454.06
504.83	428.32
505.01	414.27
505.18	470.45
505.36	421.30
505.53	442.36
505.71	451.72
505.88	447.04
506.06	449.38
506.23	435.34
506.41	337.04
506.58	442.36
506.76	496.19
506.93	472.79
507.11	390.87
507.28	468.11
507.46	444.70
507.63	407.25
507.81	458.74
507.98	414.27
508.16	414.27
508.33	451.72
508.50	461.09
508.68	423.64
508.85	355.76
509.03	374.49
509.20	402.57
509.38	414.27
509.55	447.04
509.73	463.43
509.90	390.87
510.08	404.91
510.25	430.66
510.42	437.68
510.60	449.38
510.77	423.64
510.95	468.11
511.12	409.59
511.30	374.49
511.47	355.76
511.64	393.21
511.82	503.22
511.99	397.89
512.17	435.34
512.34	423.64
512.51	425.98
512.69	423.64
512.86	433.00
513.04	379.17
513.21	400.23
513.38	390.87
513.56	444.70
513.73	435.34
513.90	388.53
514.08	367.46
514.25	444.70
514.43	507.90
514.60	468.11
514.77	447.04
514.95	313.63
515.12	418.96
515.29	470.45
515.47	390.87
515.64	447.04
515.81	435.34
515.99	468.11
516.16	369.80
516.33	454.06
516.51	334.70
516.68	444.70
516.85	442.36
517.03	425.98
517.20	374.49
517.37	409.59
517.54	414.27
517.72	400.23
517.89	414.27
518.06	418.96
518.24	449.38
518.41	444.70
518.58	423.64
518.75	404.91
518.93	362.78
519.10	395.55
519.27	299.59
519.45	477.47
519.62	433.00
519.79	414.27
519.96	458.74
520.14	423.64
520.31	465.77
520.48	374.49
520.65	407.25
520.83	475.13
521.00	397.89
521.17	423.64
521.34	404.91
521.52	449.38
521.69	428.32
521.86	428.32
522.03	409.59
522.20	421.30
522.38	381.51
522.55	409.59
522.72	390.87
522.89	435.34
523.07	503.22
523.24	430.66
523.41	388.53
523.58	397.89
523.75	451.72
523.92	433.00
524.10	435.34
524.27	414.27
524.44	404.91
524.61	395.55
524.78	376.83
524.96	437.68
525.13	442.36
525.30	334.70
525.47	447.04
525.64	416.62
525.81	404.91
525.98	461.09
526.16	404.91
526.33	451.72
526.50	404.91
526.67	381.51
526.84	468.11
527.01	421.30
527.18	372.15
527.36	346.40
527.53	409.59
527.70	400.23
527.87	346.40
528.04	414.27
528.21	395.55
528.38	383.85
528.55	477.47
528.72	496.19
528.89	444.70
529.07	358.10
529.24	372.15
529.41	404.91
529.58	458.74
529.75	437.68
529.92	472.79
530.09	444.70
530.26	470.45
530.43	409.59
530.60	374.49
530.77	407.25
530.94	362.78
531.11	421.30
531.28	386.19
531.46	402.57
531.63	475.13
531.80	500.87
531.97	472.79
532.14	416.62
532.31	421.30
532.48	365.12
532.65	451.72
532.82	390.87
532.99	463.43
533.16	409.59
533.33	404.91
533.50	362.78
533.67	381.51
533.84	414.27
534.01	416.62
534.18	435.34
534.35	416.62
534.52	390.87
534.69	416.62
534.86	421.30
535.03	348.74
535.20	461.09
535.37	479.81
535.54	440.02
535.71	411.93
535.88	458.74
536.05	435.34
536.22	463.43
536.38	332.36
536.55	437.68
536.72	430.66
536.89	433.00
537.06	358.10
537.23	425.98
537.40	374.49
537.57	421.30
537.74	486.83
537.91	458.74
538.08	416.62
538.25	423.64
538.42	393.21
538.59	393.21
538.75	379.17
538.92	390.87
539.09	414.27
539.26	367.46
539.43	454.06
539.60	447.04
539.77	379.17
539.94	416.62
540.11	437.68
540.28	449.38
540.44	498.53
540.61	386.19
540.78	477.47
540.95	315.97
541.12	430.66
541.29	433.00
541.46	430.66
541.62	430.66
541.79	395.55
541.96	451.72
542.13	395.55
542.30	367.46
542.47	437.68
542.63	423.64
542.80	425.98
542.97	458.74
543.14	442.36
543.31	386.19
543.48	418.96
543.64	472.79
543.81	430.66
543.98	458.74
544.15	433.00
544.32	425.98
544.48	386.19
544.65	374.49
544.82	360.44
544.99	491.51
545.16	440.02
545.32	470.45
545.49	425.98
545.66	421.30
545.83	425.98
546.00	437.68
546.16	355.76
546.33	444.70
546.50	407.25
546.67	418.96
546.83	479.81
547.00	393.21
547.17	393.21
547.34	423.64
547.50	393.21
547.67	383.85
547.84	456.40
548.00	440.02
548.17	416.62
548.34	402.57
548.51	521.94
548.67	489.17
548.84	397.89
549.01	435.34
549.18	451.72
549.34	353.42
549.51	402.57
549.68	393.21
549.84	395.55
550.01	393.21
550.18	404.91
550.34	507.90
550.51	454.06
550.68	428.32
550.84	496.19
551.01	416.62
551.18	500.87
551.34	402.57
551.51	477.47
551.68	477.47
551.84	423.64
552.01	407.25
552.18	409.59
552.34	461.09
552.51	465.77
552.68	430.66
552.84	421.30
553.01	393.21
553.18	404.91
553.34	433.00
553.51	409.59
553.67	379.17
553.84	442.36
554.01	454.06
554.17	341.72
554.34	423.64
554.51	435.34
554.67	381.51
554.84	491.51
555.00	454.06
555.17	386.19
555.33	416.62
555.50	407.25
555.67	423.64
555.83	381.51
556.00	454.06
556.16	538.32
556.33	449.38
556.50	346.40
556.66	447.04
556.83	360.44
556.99	409.59
557.16	442.36
557.32	367.46
557.49	437.68
557.65	433.00
557.82	402.57
557.98	440.02
558.15	423.64
558.32	423.64
558.48	414.27
558.65	407.25
558.81	444.70
558.98	430.66
559.14	367.46
559.31	449.38
559.47	421.30
559.64	465.77
559.80	397.89
559.97	313.63
560.13	416.62
560.30	423.64
560.46	386.19
560.63	402.57
560.79	407.25
560.96	425.98
561.12	470.45
561.29	390.87
561.45	344.06
561.61	379.17
561.78	437.68
561.94	428.32
562.11	428.32
562.27	411.93
562.44	381.51
562.60	430.66
562.77	512.58
562.93	442.36
563.10	411.93
563.26	414.27
563.42	402.57
563.59	374.49
563.75	395.55
563.92	369.80
564.08	449.38
564.24	404.91
564.41	437.68
564.57	367.46
564.74	409.59
564.90	510.24
565.07	440.02
565.23	447.04
565.39	479.81
565.56	524.28
565.72	461.09
565.88	388.53
566.05	484.49
566.21	449.38
566.38	458.74
566.54	421.30
566.70	437.68
566.87	393.21
567.03	400.23
567.19	454.06
567.36	404.91
567.52	411.93
567.68	430.66
567.85	404.91
568.01	491.51
568.17	430.66
568.34	381.51
568.50	470.45
568.66	447.04
568.83	353.42
568.99	421.30
569.15	393.21
569.32	421.30
569.48	451.72
569.64	507.90
569.81	444.70
569.97	484.49
570.13	337.04
570.30	402.57
570.46	341.72
570.62	400.23
570.78	348.74
570.95	433.00
571.11	456.40
571.27	404.91
571.43	332.36
571.60	444.70
571.76	421.30
571.92	433.00
572.09	425.98
572.25	444.70
572.41	388.53
572.57	423.64
572.74	482.15
572.90	456.40
573.06	430.66
573.22	528.96
573.38	454.06
573.55	416.62
573.71	465.77
573.87	428.32
574.03	418.96
574.20	454.06
574.36	416.62
574.52	386.19
574.68	379.17
574.84	372.15
575.01	404.91
575.17	475.13
575.33	404.91
575.49	454.06
575.65	433.00
575.82	393.21
575.98	372.15
576.14	489.17
576.30	395.55
576.46	383.85
576.62	444.70
576.79	444.70
576.95	451.72
577.11	409.59
577.27	409.59
577.43	416.62
577.59	461.09
577.75	442.36
577.92	456.40
578.08	407.25
578.24	411.93
578.40	449.38
578.56	444.70
578.72	449.38
578.88	449.38
579.04	449.38
579.21	386.19
579.37	402.57
579.53	397.89
579.69	489.17
579.85	395.55
580.01	477.47
580.17	416.62
580.33	454.06
580.49	386.19
580.65	390.87
580.82	444.70
580.98	374.49
581.14	404.91
581.30	451.72
581.46	411.93
581.62	458.74
581.78	411.93
581.94	404.91
582.10	454.06
582.26	390.87
582.42	468.11
582.58	376.83
582.74	397.89
582.90	344.06
583.06	428.32
583.22	411.93
583.38	362.78
583.54	353.42
583.70	449.38
583.86	379.17
584.02	393.21
584.18	414.27
584.34	433.00
584.50	388.53
584.66	346.40
584.82	447.04
584.98	456.40
585.14	468.11
585.30	444.70
585.46	411.93
585.62	435.34
585.78	409.59
585.94	440.02
586.10	355.76
586.26	402.57
586.42	437.68
586.58	461.09
586.74	369.80
586.90	437.68
587.06	386.19
587.22	451.72
587.38	437.68
587.54	374.49
587.70	430.66
587.86	362.78
588.02	344.06
588.18	395.55
588.34	449.38
588.49	393.21
588.65	322.99
588.81	395.55
588.97	404.91
589.13	395.55
589.29	327.68
589.45	486.83
589.61	479.81
589.77	437.68
589.93	381.51
590.08	383.85
590.24	423.64
590.40	414.27
590.56	430.66
590.72	374.49
590.88	433.00
591.04	456.40
591.20	482.15
591.35	381.51
591.51	386.19
591.67	390.87
591.83	367.46
591.99	365.12
592.15	451.72
592.31	390.87
592.46	372.15
592.62	454.06
592.78	425.98
592.94	411.93
593.10	390.87
593.26	407.25
593.41	402.57
593.57	393.21
593.73	465.77
593.89	465.77
594.05	425.98
594.20	360.44
594.36	388.53
594.52	428.32
594.68	390.87
594.84	397.89
594.99	444.70
595.15	449.38
595.31	444.70
595.47	383.85
595.62	447.04
595.78	346.40
595.94	456.40
596.10	421.30
596.25	386.19
596.41	472.79
596.57	435.34
596.73	416.62
596.88	433.00
597.04	433.00
597.20	407.25
597.36	381.51
597.51	465.77
597.67	390.87
597.83	418.96
597.99	454.06
598.14	351.08
598.30	397.89
598.46	418.96
598.61	472.79
598.77	393.21
598.93	440.02
599.09	411.93
599.24	367.46
599.40	479.81
599.56	444.70
599.71	379.17
599.87	397.89
600.03	442.36
600.18	411.93
600.34	402.57
600.50	414.27
600.65	447.04
600.81	369.80
600.97	409.59
601.12	444.70
601.28	411.93
601.44	486.83
601.59	414.27
601.75	397.89
601.91	517.26
602.06	472.79
602.22	451.72
602.37	430.66
602.53	503.22
602.69	430.66
602.84	374.49
603.00	318.31
603.16	470.45
603.31	451.72
603.47	402.57
603.62	393.21
603.78	477.47
603.94	428.32
604.09	433.00
604.25	418.96
604.40	447.04
604.56	395.55
604.71	367.46
604.87	421.30
605.03	409.59
605.18	465.77
605.34	444.70
605.49	449.38
605.65	386.19
605.80	451.72
605.96	430.66
606.12	416.62
606.27	458.74
606.43	472.79
606.58	411.93
606.74	414.27
606.89	425.98
607.05	400.23
607.20	376.83
607.36	400.23
607.51	397.89
607.67	503.22
607.82	407.25
607.98	397.89
608.13	425.98
608.29	362.78
608.44	461.09
608.60	433.00
608.75	407.25
608.91	470.45
609.06	461.09
609.22	421.30
609.37	367.46
609.53	374.49
609.68	442.36
609.84	433.00
609.99	400.23
610.15	461.09
