SpectraSuite Data File
++++++++++++++++++++++++++++++++++++
Date: Fri Oct 25 12:10:16 EDT 2013
User: price-jones
Dark Spectrum Present: No
Reference Spectrum Present: No
Number of Sampled Component Spectra: 1
Spectrometers: USB2+H05261
Integration Time (usec): 100000 (USB2+H05261)
Spectra Averaged: 1 (USB2+H05261)
Boxcar Smoothing: 0 (USB2+H05261)
Correct for Electrical Dark: No (USB2+H05261)
Strobe/Lamp Enabled: No (USB2+H05261)
Correct for Detector Non-linearity: No (USB2+H05261)
Correct for Stray Light: No (USB2+H05261)
Number of Pixels in Processed Spectrum: 2048
>>>>>Begin Processed Spectral Data<<<<<
365.73	264.48
365.92	264.48
366.12	264.48
366.32	287.89
366.52	294.91
366.72	252.78
366.91	285.55
367.11	255.12
367.31	168.52
367.51	215.33
367.70	236.39
367.90	217.67
368.10	222.35
368.30	250.44
368.49	175.54
368.69	287.89
368.89	203.63
369.09	266.82
369.28	276.18
369.48	301.93
369.68	252.78
369.87	320.65
370.07	330.02
370.27	341.72
370.47	283.20
370.66	313.63
370.86	358.10
371.06	362.78
371.25	376.83
371.45	299.59
371.65	397.89
371.84	332.36
372.04	372.15
372.24	416.62
372.44	395.55
372.63	348.74
372.83	402.57
373.03	421.30
373.22	409.59
373.42	400.23
373.62	465.77
373.81	425.98
374.01	512.58
374.21	526.62
374.40	447.04
374.60	390.87
374.79	407.25
374.99	400.23
375.19	465.77
375.38	435.34
375.58	444.70
375.78	447.04
375.97	372.15
376.17	451.72
376.37	381.51
376.56	451.72
376.76	397.89
376.95	451.72
377.15	390.87
377.35	344.06
377.54	416.62
377.74	437.68
377.93	351.08
378.13	416.62
378.33	397.89
378.52	390.87
378.72	411.93
378.91	390.87
379.11	458.74
379.31	407.25
379.50	404.91
379.70	456.40
379.89	409.59
380.09	416.62
380.28	344.06
380.48	447.04
380.68	367.46
380.87	367.46
381.07	433.00
381.26	440.02
381.46	355.76
381.65	423.64
381.85	395.55
382.04	313.63
382.24	449.38
382.43	374.49
382.63	376.83
382.83	435.34
383.02	395.55
383.22	447.04
383.41	320.65
383.61	365.12
383.80	376.83
384.00	435.34
384.19	454.06
384.39	372.15
384.58	425.98
384.78	358.10
384.97	355.76
385.17	369.80
385.36	395.55
385.56	372.15
385.75	430.66
385.95	388.53
386.14	442.36
386.34	397.89
386.53	379.17
386.72	421.30
386.92	470.45
387.11	374.49
387.31	395.55
387.50	407.25
387.70	393.21
387.89	376.83
388.09	355.76
388.28	444.70
388.48	411.93
388.67	440.02
388.86	461.09
389.06	472.79
389.25	442.36
389.45	433.00
389.64	449.38
389.84	451.72
390.03	386.19
390.22	421.30
390.42	428.32
390.61	383.85
390.81	435.34
391.00	411.93
391.19	407.25
391.39	320.65
391.58	381.51
391.78	292.57
391.97	400.23
392.16	390.87
392.36	374.49
392.55	400.23
392.75	416.62
392.94	320.65
393.13	447.04
393.33	358.10
393.52	404.91
393.71	414.27
393.91	414.27
394.10	379.17
394.29	407.25
394.49	379.17
394.68	409.59
394.88	454.06
395.07	454.06
395.26	407.25
395.46	435.34
395.65	430.66
395.84	393.21
396.04	465.77
396.23	388.53
396.42	393.21
396.62	440.02
396.81	500.87
397.00	421.30
397.19	402.57
397.39	355.76
397.58	477.47
397.77	400.23
397.97	414.27
398.16	414.27
398.35	519.60
398.55	430.66
398.74	381.51
398.93	400.23
399.12	414.27
399.32	351.08
399.51	400.23
399.70	451.72
399.90	365.12
400.09	386.19
400.28	418.96
400.47	376.83
400.67	458.74
400.86	404.91
401.05	411.93
401.24	393.21
401.44	440.02
401.63	423.64
401.82	355.76
402.01	421.30
402.21	440.02
402.40	374.49
402.59	397.89
402.78	374.49
402.97	388.53
403.17	379.17
403.36	451.72
403.55	444.70
403.74	353.42
403.93	379.17
404.13	428.32
404.32	362.78
404.51	330.02
404.70	393.21
404.89	367.46
405.09	451.72
405.28	369.80
405.47	383.85
405.66	381.51
405.85	418.96
406.05	423.64
406.24	383.85
406.43	379.17
406.62	411.93
406.81	428.32
407.00	479.81
407.20	390.87
407.39	421.30
407.58	367.46
407.77	468.11
407.96	461.09
408.15	353.42
408.34	390.87
408.54	451.72
408.73	411.93
408.92	390.87
409.11	421.30
409.30	435.34
409.49	461.09
409.68	444.70
409.87	397.89
410.07	372.15
410.26	383.85
410.45	430.66
410.64	346.40
410.83	390.87
411.02	351.08
411.21	435.34
411.40	404.91
411.59	461.09
411.78	383.85
411.98	404.91
412.17	360.44
412.36	369.80
412.55	479.81
412.74	477.47
412.93	367.46
413.12	395.55
413.31	409.59
413.50	400.23
413.69	430.66
413.88	428.32
414.07	400.23
414.26	404.91
414.45	397.89
414.64	381.51
414.83	369.80
415.02	418.96
415.22	451.72
415.41	505.56
415.60	334.70
415.79	407.25
415.98	388.53
416.17	423.64
416.36	381.51
416.55	367.46
416.74	374.49
416.93	456.40
417.12	344.06
417.31	367.46
417.50	416.62
417.69	428.32
417.88	437.68
418.07	409.59
418.26	414.27
418.45	360.44
418.64	379.17
418.83	374.49
419.02	425.98
419.21	411.93
419.39	358.10
419.58	390.87
419.77	421.30
419.96	430.66
420.15	383.85
420.34	376.83
420.53	355.76
420.72	395.55
420.91	435.34
421.10	442.36
421.29	393.21
421.48	395.55
421.67	482.15
421.86	346.40
422.05	416.62
422.24	411.93
422.43	369.80
422.61	463.43
422.80	355.76
422.99	428.32
423.18	435.34
423.37	388.53
423.56	440.02
423.75	395.55
423.94	395.55
424.13	346.40
424.32	447.04
424.50	395.55
424.69	444.70
424.88	461.09
425.07	362.78
425.26	435.34
425.45	395.55
425.64	290.23
425.83	369.80
426.01	395.55
426.20	400.23
426.39	404.91
426.58	379.17
426.77	456.40
426.96	402.57
427.15	416.62
427.33	355.76
427.52	397.89
427.71	442.36
427.90	489.17
428.09	393.21
428.28	337.04
428.46	369.80
428.65	437.68
428.84	390.87
429.03	362.78
429.22	479.81
429.40	351.08
429.59	393.21
429.78	411.93
429.97	477.47
430.16	470.45
430.34	397.89
430.53	390.87
430.72	442.36
430.91	447.04
431.10	351.08
431.28	344.06
431.47	383.85
431.66	435.34
431.85	390.87
432.03	381.51
432.22	484.49
432.41	358.10
432.60	423.64
432.79	400.23
432.97	393.21
433.16	346.40
433.35	407.25
433.54	362.78
433.72	428.32
433.91	503.22
434.10	400.23
434.28	376.83
434.47	454.06
434.66	381.51
434.85	418.96
435.03	458.74
435.22	428.32
435.41	430.66
435.59	407.25
435.78	425.98
435.97	444.70
436.16	372.15
436.34	376.83
436.53	390.87
436.72	447.04
436.90	407.25
437.09	409.59
437.28	447.04
437.46	409.59
437.65	365.12
437.84	496.19
438.02	435.34
438.21	418.96
438.40	402.57
438.58	414.27
438.77	428.32
438.96	442.36
439.14	351.08
439.33	440.02
439.52	393.21
439.70	433.00
439.89	496.19
440.08	470.45
440.26	397.89
440.45	411.93
440.63	397.89
440.82	381.51
441.01	498.53
441.19	430.66
441.38	334.70
441.57	454.06
441.75	486.83
441.94	425.98
442.12	355.76
442.31	463.43
442.50	423.64
442.68	458.74
442.87	428.32
443.05	395.55
443.24	402.57
443.43	430.66
443.61	425.98
443.80	409.59
443.98	407.25
444.17	414.27
444.35	346.40
444.54	440.02
444.73	402.57
444.91	472.79
445.10	313.63
445.28	435.34
445.47	395.55
445.65	418.96
445.84	341.72
446.02	292.57
446.21	383.85
446.39	388.53
446.58	435.34
446.77	358.10
446.95	428.32
447.14	458.74
447.32	468.11
447.51	395.55
447.69	418.96
447.88	447.04
448.06	425.98
448.25	435.34
448.43	367.46
448.62	367.46
448.80	383.85
448.99	428.32
449.17	379.17
449.36	402.57
449.54	468.11
449.73	423.64
449.91	463.43
450.10	451.72
450.28	444.70
450.46	411.93
450.65	416.62
450.83	454.06
451.02	404.91
451.20	383.85
451.39	449.38
451.57	376.83
451.76	449.38
451.94	372.15
452.13	442.36
452.31	451.72
452.49	362.78
452.68	393.21
452.86	425.98
453.05	449.38
453.23	407.25
453.42	414.27
453.60	465.77
453.78	428.32
453.97	409.59
454.15	308.95
454.34	388.53
454.52	411.93
454.70	486.83
454.89	454.06
455.07	442.36
455.26	521.94
455.44	444.70
455.62	390.87
455.81	433.00
455.99	390.87
456.17	428.32
456.36	383.85
456.54	447.04
456.73	414.27
456.91	400.23
457.09	421.30
457.28	449.38
457.46	437.68
457.64	402.57
457.83	381.51
458.01	472.79
458.19	435.34
458.38	383.85
458.56	365.12
458.74	428.32
458.93	447.04
459.11	416.62
459.29	461.09
459.48	519.60
459.66	379.17
459.84	433.00
460.03	433.00
460.21	411.93
460.39	421.30
460.57	390.87
460.76	362.78
460.94	435.34
461.12	418.96
461.31	465.77
461.49	397.89
461.67	397.89
461.85	411.93
462.04	402.57
462.22	816.85
462.40	458.74
462.59	362.78
462.77	334.70
462.95	414.27
463.13	407.25
463.32	465.77
463.50	397.89
463.68	458.74
463.86	367.46
464.05	437.68
464.23	414.27
464.41	381.51
464.59	360.44
464.78	449.38
464.96	435.34
465.14	393.21
465.32	472.79
465.50	369.80
465.69	430.66
465.87	421.30
466.05	475.13
466.23	409.59
466.41	381.51
466.60	374.49
466.78	423.64
466.96	414.27
467.14	386.19
467.32	433.00
467.51	425.98
467.69	472.79
467.87	407.25
468.05	458.74
468.23	454.06
468.41	461.09
468.60	435.34
468.78	528.96
468.96	402.57
469.14	393.21
469.32	353.42
469.50	374.49
469.69	416.62
469.87	437.68
470.05	414.27
470.23	414.27
470.41	449.38
470.59	430.66
470.77	463.43
470.95	414.27
471.14	458.74
471.32	475.13
471.50	442.36
471.68	397.89
471.86	353.42
472.04	390.87
472.22	449.38
472.40	465.77
472.58	409.59
472.77	390.87
472.95	442.36
473.13	475.13
473.31	430.66
473.49	390.87
473.67	386.19
473.85	372.15
474.03	418.96
474.21	430.66
474.39	423.64
474.57	440.02
474.75	402.57
474.93	442.36
475.12	386.19
475.30	428.32
475.48	407.25
475.66	400.23
475.84	486.83
476.02	418.96
476.20	470.45
476.38	411.93
476.56	507.90
476.74	430.66
476.92	437.68
477.10	395.55
477.28	479.81
477.46	379.17
477.64	433.00
477.82	369.80
478.00	381.51
478.18	390.87
478.36	397.89
478.54	421.30
478.72	397.89
478.90	372.15
479.08	423.64
479.26	409.59
479.44	440.02
479.62	418.96
479.80	407.25
479.98	447.04
480.16	456.40
480.34	449.38
480.52	393.21
480.70	423.64
480.88	423.64
481.06	395.55
481.24	407.25
481.41	489.17
481.59	374.49
481.77	451.72
481.95	447.04
482.13	479.81
482.31	442.36
482.49	437.68
482.67	458.74
482.85	470.45
483.03	437.68
483.21	447.04
483.39	395.55
483.57	325.33
483.74	468.11
483.92	470.45
484.10	454.06
484.28	505.56
484.46	421.30
484.64	418.96
484.82	402.57
485.00	386.19
485.18	423.64
485.35	372.15
485.53	411.93
485.71	454.06
485.89	444.70
486.07	381.51
486.25	514.92
486.43	374.49
486.61	372.15
486.78	407.25
486.96	376.83
487.14	428.32
487.32	423.64
487.50	397.89
487.68	421.30
487.85	421.30
488.03	444.70
488.21	447.04
488.39	491.51
488.57	409.59
488.75	433.00
488.92	475.13
489.10	425.98
489.28	456.40
489.46	409.59
489.64	407.25
489.81	407.25
489.99	369.80
490.17	444.70
490.35	447.04
490.53	482.15
490.70	374.49
490.88	433.00
491.06	425.98
491.24	421.30
491.41	479.81
491.59	416.62
491.77	379.17
491.95	390.87
492.13	390.87
492.30	428.32
492.48	395.55
492.66	433.00
492.84	299.59
493.01	360.44
493.19	414.27
493.37	447.04
493.54	437.68
493.72	402.57
493.90	449.38
494.08	400.23
494.25	369.80
494.43	416.62
494.61	386.19
494.79	383.85
494.96	404.91
495.14	390.87
495.32	440.02
495.49	367.46
495.67	315.97
495.85	325.33
496.02	351.08
496.20	423.64
496.38	451.72
496.55	423.64
496.73	435.34
496.91	383.85
497.09	421.30
497.26	376.83
497.44	395.55
497.62	425.98
497.79	421.30
497.97	388.53
498.14	395.55
498.32	437.68
498.50	512.58
498.67	388.53
498.85	409.59
499.03	397.89
499.20	407.25
499.38	447.04
499.56	411.93
499.73	372.15
499.91	400.23
500.08	454.06
500.26	425.98
500.44	454.06
500.61	554.71
500.79	416.62
500.97	334.70
501.14	409.59
501.32	418.96
501.49	435.34
501.67	407.25
501.84	411.93
502.02	465.77
502.20	465.77
502.37	383.85
502.55	428.32
502.72	376.83
502.90	379.17
503.07	447.04
503.25	332.36
503.43	404.91
503.60	330.02
503.78	440.02
503.95	414.27
504.13	400.23
504.30	470.45
504.48	386.19
504.65	430.66
504.83	437.68
505.01	348.74
505.18	428.32
505.36	360.44
505.53	355.76
505.71	447.04
505.88	444.70
506.06	409.59
506.23	395.55
506.41	425.98
506.58	437.68
506.76	362.78
506.93	393.21
507.11	433.00
507.28	360.44
507.46	409.59
507.63	454.06
507.81	374.49
507.98	390.87
508.16	454.06
508.33	369.80
508.50	475.13
508.68	472.79
508.85	409.59
509.03	344.06
509.20	404.91
509.38	428.32
509.55	416.62
509.73	404.91
509.90	437.68
510.08	458.74
510.25	416.62
510.42	369.80
510.60	383.85
510.77	428.32
510.95	433.00
511.12	386.19
511.30	376.83
511.47	456.40
511.64	416.62
511.82	365.12
511.99	421.30
512.17	374.49
512.34	428.32
512.51	351.08
512.69	400.23
512.86	372.15
513.04	365.12
513.21	393.21
513.38	447.04
513.56	390.87
513.73	376.83
513.90	393.21
514.08	397.89
514.25	397.89
514.43	430.66
514.60	355.76
514.77	428.32
514.95	433.00
515.12	372.15
515.29	503.22
515.47	461.09
515.64	397.89
515.81	383.85
515.99	550.03
516.16	442.36
516.33	372.15
516.51	374.49
516.68	435.34
516.85	470.45
517.03	414.27
517.20	418.96
517.37	402.57
517.54	390.87
517.72	400.23
517.89	404.91
518.06	388.53
518.24	433.00
518.41	433.00
518.58	442.36
518.75	414.27
518.93	388.53
519.10	402.57
519.27	454.06
519.45	402.57
519.62	409.59
519.79	418.96
519.96	400.23
520.14	362.78
520.31	414.27
520.48	479.81
520.65	463.43
520.83	409.59
521.00	493.85
521.17	454.06
521.34	393.21
521.52	468.11
521.69	344.06
521.86	428.32
522.03	423.64
522.20	407.25
522.38	447.04
522.55	390.87
522.72	358.10
522.89	416.62
523.07	411.93
523.24	437.68
523.41	414.27
523.58	358.10
523.75	360.44
523.92	383.85
524.10	423.64
524.27	468.11
524.44	376.83
524.61	461.09
524.78	421.30
524.96	393.21
525.13	404.91
525.30	456.40
525.47	435.34
525.64	475.13
525.81	381.51
525.98	409.59
526.16	358.10
526.33	388.53
526.50	358.10
526.67	411.93
526.84	418.96
527.01	463.43
527.18	451.72
527.36	416.62
527.53	404.91
527.70	500.87
527.87	423.64
528.04	538.32
528.21	463.43
528.38	430.66
528.55	407.25
528.72	454.06
528.89	369.80
529.07	407.25
529.24	421.30
529.41	407.25
529.58	416.62
529.75	407.25
529.92	374.49
530.09	444.70
530.26	402.57
530.43	407.25
530.60	428.32
530.77	430.66
530.94	379.17
531.11	447.04
531.28	442.36
531.46	379.17
531.63	425.98
531.80	491.51
531.97	461.09
532.14	425.98
532.31	437.68
532.48	423.64
532.65	372.15
532.82	400.23
532.99	418.96
533.16	442.36
533.33	482.15
533.50	351.08
533.67	414.27
533.84	482.15
534.01	407.25
534.18	416.62
534.35	482.15
534.52	393.21
534.69	372.15
534.86	418.96
535.03	421.30
535.20	374.49
535.37	442.36
535.54	470.45
535.71	463.43
535.88	486.83
536.05	454.06
536.22	505.56
536.38	402.57
536.55	482.15
536.72	484.49
536.89	449.38
537.06	430.66
537.23	397.89
537.40	486.83
537.57	468.11
537.74	503.22
537.91	451.72
538.08	374.49
538.25	447.04
538.42	430.66
538.59	400.23
538.75	348.74
538.92	500.87
539.09	437.68
539.26	416.62
539.43	468.11
539.60	379.17
539.77	404.91
539.94	442.36
540.11	409.59
540.28	554.71
540.44	416.62
540.61	465.77
540.78	376.83
540.95	402.57
541.12	510.24
541.29	346.40
541.46	444.70
541.62	437.68
541.79	430.66
541.96	386.19
542.13	461.09
542.30	418.96
542.47	456.40
542.63	358.10
542.80	433.00
542.97	472.79
543.14	362.78
543.31	425.98
543.48	463.43
543.64	360.44
543.81	437.68
543.98	341.72
544.15	337.04
544.32	454.06
544.48	479.81
544.65	435.34
544.82	451.72
544.99	489.17
545.16	517.26
545.32	447.04
545.49	374.49
545.66	451.72
545.83	397.89
546.00	411.93
546.16	322.99
546.33	367.46
546.50	414.27
546.67	477.47
546.83	421.30
547.00	411.93
547.17	454.06
547.34	421.30
547.50	433.00
547.67	428.32
547.84	353.42
548.00	456.40
548.17	372.15
548.34	374.49
548.51	489.17
548.67	416.62
548.84	465.77
549.01	407.25
549.18	337.04
549.34	461.09
549.51	468.11
549.68	416.62
549.84	416.62
550.01	402.57
550.18	468.11
550.34	428.32
550.51	383.85
550.68	393.21
550.84	369.80
551.01	482.15
551.18	393.21
551.34	463.43
551.51	374.49
551.68	449.38
551.84	433.00
552.01	411.93
552.18	524.28
552.34	433.00
552.51	393.21
552.68	362.78
552.84	395.55
553.01	411.93
553.18	430.66
553.34	435.34
553.51	390.87
553.67	442.36
553.84	514.92
554.01	393.21
554.17	418.96
554.34	433.00
554.51	397.89
554.67	444.70
554.84	400.23
555.00	409.59
555.17	444.70
555.33	447.04
555.50	379.17
555.67	414.27
555.83	430.66
556.00	395.55
556.16	526.62
556.33	449.38
556.50	442.36
556.66	484.49
556.83	468.11
556.99	414.27
557.16	374.49
557.32	381.51
557.49	421.30
557.65	355.76
557.82	400.23
557.98	510.24
558.15	388.53
558.32	400.23
558.48	486.83
558.65	339.38
558.81	393.21
558.98	414.27
559.14	430.66
559.31	400.23
559.47	479.81
559.64	402.57
559.80	358.10
559.97	360.44
560.13	423.64
560.30	395.55
560.46	503.22
560.63	418.96
560.79	418.96
560.96	454.06
561.12	390.87
561.29	407.25
561.45	451.72
561.61	444.70
561.78	456.40
561.94	484.49
562.11	435.34
562.27	442.36
562.44	362.78
562.60	393.21
562.77	435.34
562.93	472.79
563.10	442.36
563.26	390.87
563.42	498.53
563.59	411.93
563.75	430.66
563.92	475.13
564.08	435.34
564.24	395.55
564.41	425.98
564.57	477.47
564.74	411.93
564.90	402.57
565.07	435.34
565.23	421.30
565.39	362.78
565.56	456.40
565.72	362.78
565.88	411.93
566.05	395.55
566.21	388.53
566.38	437.68
566.54	491.51
566.70	435.34
566.87	360.44
567.03	468.11
567.19	444.70
567.36	479.81
567.52	418.96
567.68	489.17
567.85	423.64
568.01	442.36
568.17	386.19
568.34	407.25
568.50	468.11
568.66	433.00
568.83	531.30
568.99	435.34
569.15	468.11
569.32	430.66
569.48	526.62
569.64	468.11
569.81	447.04
569.97	407.25
570.13	425.98
570.30	330.02
570.46	355.76
570.62	374.49
570.78	458.74
570.95	397.89
571.11	463.43
571.27	470.45
571.43	444.70
571.60	482.15
571.76	414.27
571.92	416.62
572.09	414.27
572.25	470.45
572.41	381.51
572.57	369.80
572.74	423.64
572.90	447.04
573.06	362.78
573.22	425.98
573.38	486.83
573.55	421.30
573.71	451.72
573.87	374.49
574.03	362.78
574.20	369.80
574.36	353.42
574.52	418.96
574.68	470.45
574.84	458.74
575.01	362.78
575.17	507.90
575.33	435.34
575.49	397.89
575.65	416.62
575.82	390.87
575.98	451.72
576.14	451.72
576.30	437.68
576.46	386.19
576.62	479.81
576.79	449.38
576.95	472.79
577.11	400.23
577.27	365.12
577.43	404.91
577.59	512.58
577.75	355.76
577.92	435.34
578.08	437.68
578.24	418.96
578.40	507.90
578.56	447.04
578.72	479.81
578.88	444.70
579.04	444.70
579.21	421.30
579.37	416.62
579.53	376.83
579.69	444.70
579.85	386.19
580.01	458.74
580.17	421.30
580.33	418.96
580.49	353.42
580.65	421.30
580.82	379.17
580.98	447.04
581.14	440.02
581.30	430.66
581.46	461.09
581.62	360.44
581.78	418.96
581.94	416.62
582.10	449.38
582.26	369.80
582.42	425.98
582.58	360.44
582.74	365.12
582.90	409.59
583.06	433.00
583.22	435.34
583.38	376.83
583.54	376.83
583.70	379.17
583.86	425.98
584.02	369.80
584.18	423.64
584.34	428.32
584.50	437.68
584.66	418.96
584.82	409.59
584.98	407.25
585.14	372.15
585.30	465.77
585.46	379.17
585.62	411.93
585.78	388.53
585.94	470.45
586.10	376.83
586.26	477.47
586.42	444.70
586.58	355.76
586.74	409.59
586.90	367.46
587.06	449.38
587.22	355.76
587.38	379.17
587.54	444.70
587.70	421.30
587.86	505.56
588.02	411.93
588.18	444.70
588.34	475.13
588.49	374.49
588.65	376.83
588.81	414.27
588.97	386.19
589.13	407.25
589.29	416.62
589.45	458.74
589.61	386.19
589.77	444.70
589.93	337.04
590.08	355.76
590.24	393.21
590.40	379.17
590.56	367.46
590.72	486.83
590.88	475.13
591.04	400.23
591.20	433.00
591.35	440.02
591.51	435.34
591.67	425.98
591.83	440.02
591.99	428.32
592.15	505.56
592.31	463.43
592.46	397.89
592.62	463.43
592.78	393.21
592.94	444.70
593.10	425.98
593.26	414.27
593.41	486.83
593.57	425.98
593.73	381.51
593.89	423.64
594.05	313.63
594.20	407.25
594.36	404.91
594.52	461.09
594.68	461.09
594.84	479.81
594.99	414.27
595.15	449.38
595.31	484.49
595.47	456.40
595.62	498.53
595.78	374.49
595.94	388.53
596.10	470.45
596.25	440.02
596.41	475.13
596.57	414.27
596.73	395.55
596.88	355.76
597.04	423.64
597.20	461.09
597.36	353.42
597.51	435.34
597.67	463.43
597.83	374.49
597.99	400.23
598.14	379.17
598.30	477.47
598.46	430.66
598.61	442.36
598.77	416.62
598.93	435.34
599.09	437.68
599.24	491.51
599.40	402.57
599.56	416.62
599.71	411.93
599.87	444.70
600.03	365.12
600.18	365.12
600.34	416.62
600.50	395.55
600.65	301.93
600.81	454.06
600.97	376.83
601.12	435.34
601.28	400.23
601.44	449.38
601.59	404.91
601.75	395.55
601.91	447.04
602.06	397.89
602.22	468.11
602.37	433.00
602.53	449.38
602.69	440.02
602.84	390.87
603.00	421.30
603.16	365.12
603.31	437.68
603.47	411.93
603.62	374.49
603.78	463.43
603.94	435.34
604.09	512.58
604.25	402.57
604.40	388.53
604.56	414.27
604.71	414.27
604.87	425.98
605.03	461.09
605.18	397.89
605.34	454.06
605.49	447.04
605.65	447.04
605.80	428.32
605.96	421.30
606.12	447.04
606.27	421.30
606.43	383.85
606.58	418.96
606.74	416.62
606.89	400.23
607.05	440.02
607.20	451.72
607.36	510.24
607.51	470.45
607.67	388.53
607.82	383.85
607.98	360.44
608.13	407.25
608.29	433.00
608.44	397.89
608.60	428.32
608.75	507.90
608.91	390.87
609.06	416.62
609.22	430.66
609.37	430.66
609.53	475.13
609.68	372.15
609.84	388.53
609.99	414.27
610.15	407.25
