SpectraSuite Data File
++++++++++++++++++++++++++++++++++++
Date: Fri Oct 25 12:10:42 EDT 2013
User: price-jones
Dark Spectrum Present: No
Reference Spectrum Present: No
Number of Sampled Component Spectra: 1
Spectrometers: USB2+H05261
Integration Time (usec): 100000 (USB2+H05261)
Spectra Averaged: 1 (USB2+H05261)
Boxcar Smoothing: 0 (USB2+H05261)
Correct for Electrical Dark: No (USB2+H05261)
Strobe/Lamp Enabled: No (USB2+H05261)
Correct for Detector Non-linearity: No (USB2+H05261)
Correct for Stray Light: No (USB2+H05261)
Number of Pixels in Processed Spectrum: 2048
>>>>>Begin Processed Spectral Data<<<<<
365.73	245.76
365.92	245.76
366.12	245.76
366.32	266.82
366.52	269.16
366.72	252.78
366.91	250.44
367.11	212.99
367.31	196.60
367.51	205.97
367.70	245.76
367.90	245.76
368.10	201.29
368.30	266.82
368.49	182.56
368.69	215.33
368.89	311.29
369.09	287.89
369.28	264.48
369.48	238.73
369.68	278.52
369.87	227.03
370.07	285.55
370.27	353.42
370.47	278.52
370.66	444.70
370.86	358.10
371.06	369.80
371.25	447.04
371.45	311.29
371.65	367.46
371.84	341.72
372.04	322.99
372.24	320.65
372.44	404.91
372.63	458.74
372.83	367.46
373.03	409.59
373.22	393.21
373.42	383.85
373.62	395.55
373.81	411.93
374.01	418.96
374.21	425.98
374.40	393.21
374.60	411.93
374.79	437.68
374.99	414.27
375.19	503.22
375.38	383.85
375.58	383.85
375.78	498.53
375.97	402.57
376.17	442.36
376.37	409.59
376.56	369.80
376.76	404.91
376.95	414.27
377.15	409.59
377.35	421.30
377.54	475.13
377.74	411.93
377.93	379.17
378.13	425.98
378.33	421.30
378.52	390.87
378.72	404.91
378.91	320.65
379.11	383.85
379.31	430.66
379.50	390.87
379.70	440.02
379.89	440.02
380.09	437.68
380.28	369.80
380.48	383.85
380.68	395.55
380.87	365.12
381.07	376.83
381.26	404.91
381.46	374.49
381.65	402.57
381.85	475.13
382.04	440.02
382.24	423.64
382.43	404.91
382.63	409.59
382.83	425.98
383.02	411.93
383.22	400.23
383.41	407.25
383.61	409.59
383.80	475.13
384.00	395.55
384.19	379.17
384.39	362.78
384.58	369.80
384.78	365.12
384.97	423.64
385.17	367.46
385.36	421.30
385.56	388.53
385.75	383.85
385.95	360.44
386.14	463.43
386.34	428.32
386.53	442.36
386.72	390.87
386.92	367.46
387.11	388.53
387.31	425.98
387.50	372.15
387.70	358.10
387.89	400.23
388.09	355.76
388.28	402.57
388.48	433.00
388.67	449.38
388.86	381.51
389.06	449.38
389.25	355.76
389.45	454.06
389.64	374.49
389.84	397.89
390.03	416.62
390.22	388.53
390.42	409.59
390.61	360.44
390.81	381.51
391.00	369.80
391.19	416.62
391.39	390.87
391.58	388.53
391.78	418.96
391.97	449.38
392.16	421.30
392.36	430.66
392.55	400.23
392.75	414.27
392.94	437.68
393.13	430.66
393.33	416.62
393.52	470.45
393.71	409.59
393.91	447.04
394.10	330.02
394.29	355.76
394.49	386.19
394.68	472.79
394.88	470.45
395.07	407.25
395.26	503.22
395.46	358.10
395.65	397.89
395.84	418.96
396.04	475.13
396.23	386.19
396.42	322.99
396.62	442.36
396.81	400.23
397.00	369.80
397.19	388.53
397.39	400.23
397.58	390.87
397.77	498.53
397.97	449.38
398.16	386.19
398.35	379.17
398.55	416.62
398.74	449.38
398.93	447.04
399.12	416.62
399.32	435.34
399.51	353.42
399.70	318.31
399.90	425.98
400.09	416.62
400.28	355.76
400.47	416.62
400.67	362.78
400.86	449.38
401.05	449.38
401.24	407.25
401.44	379.17
401.63	376.83
401.82	418.96
402.01	423.64
402.21	414.27
402.40	449.38
402.59	454.06
402.78	418.96
402.97	358.10
403.17	463.43
403.36	409.59
403.55	369.80
403.74	393.21
403.93	369.80
404.13	440.02
404.32	390.87
404.51	393.21
404.70	435.34
404.89	411.93
405.09	360.44
405.28	414.27
405.47	461.09
405.66	437.68
405.85	437.68
406.05	465.77
406.24	418.96
406.43	411.93
406.62	351.08
406.81	468.11
407.00	433.00
407.20	435.34
407.39	404.91
407.58	449.38
407.77	372.15
407.96	484.49
408.15	400.23
408.34	360.44
408.54	383.85
408.73	414.27
408.92	393.21
409.11	489.17
409.30	397.89
409.49	334.70
409.68	383.85
409.87	348.74
410.07	430.66
410.26	355.76
410.45	402.57
410.64	374.49
410.83	442.36
411.02	362.78
411.21	404.91
411.40	425.98
411.59	430.66
411.78	411.93
411.98	351.08
412.17	372.15
412.36	444.70
412.55	463.43
412.74	491.51
412.93	475.13
413.12	404.91
413.31	372.15
413.50	332.36
413.69	334.70
413.88	404.91
414.07	430.66
414.26	475.13
414.45	360.44
414.64	421.30
414.83	414.27
415.02	388.53
415.22	379.17
415.41	514.92
415.60	330.02
415.79	411.93
415.98	475.13
416.17	421.30
416.36	447.04
416.55	308.95
416.74	458.74
416.93	374.49
417.12	456.40
417.31	395.55
417.50	465.77
417.69	465.77
417.88	440.02
418.07	428.32
418.26	433.00
418.45	400.23
418.64	440.02
418.83	381.51
419.02	416.62
419.21	414.27
419.39	421.30
419.58	404.91
419.77	428.32
419.96	484.49
420.15	423.64
420.34	395.55
420.53	423.64
420.72	362.78
420.91	409.59
421.10	355.76
421.29	404.91
421.48	367.46
421.67	346.40
421.86	369.80
422.05	372.15
422.24	395.55
422.43	433.00
422.61	332.36
422.80	365.12
422.99	390.87
423.18	418.96
423.37	531.30
423.56	404.91
423.75	409.59
423.94	409.59
424.13	388.53
424.32	325.33
424.50	451.72
424.69	374.49
424.88	418.96
425.07	428.32
425.26	344.06
425.45	388.53
425.64	407.25
425.83	386.19
426.01	425.98
426.20	383.85
426.39	411.93
426.58	402.57
426.77	472.79
426.96	421.30
427.15	505.56
427.33	365.12
427.52	372.15
427.71	421.30
427.90	388.53
428.09	386.19
428.28	430.66
428.46	313.63
428.65	395.55
428.84	346.40
429.03	383.85
429.22	376.83
429.40	374.49
429.59	358.10
429.78	400.23
429.97	444.70
430.16	379.17
430.34	355.76
430.53	411.93
430.72	395.55
430.91	397.89
431.10	397.89
431.28	421.30
431.47	376.83
431.66	402.57
431.85	402.57
432.03	353.42
432.22	454.06
432.41	440.02
432.60	362.78
432.79	404.91
432.97	463.43
433.16	433.00
433.35	404.91
433.54	447.04
433.72	421.30
433.91	491.51
434.10	449.38
434.28	447.04
434.47	393.21
434.66	351.08
434.85	414.27
435.03	433.00
435.22	418.96
435.41	407.25
435.59	414.27
435.78	468.11
435.97	421.30
436.16	416.62
436.34	360.44
436.53	365.12
436.72	379.17
436.90	505.56
437.09	421.30
437.28	402.57
437.46	395.55
437.65	381.51
437.84	437.68
438.02	440.02
438.21	393.21
438.40	348.74
438.58	430.66
438.77	390.87
438.96	409.59
439.14	418.96
439.33	374.49
439.52	400.23
439.70	425.98
439.89	461.09
440.08	418.96
440.26	416.62
440.45	461.09
440.63	393.21
440.82	451.72
441.01	301.93
441.19	507.90
441.38	344.06
441.57	402.57
441.75	433.00
441.94	484.49
442.12	414.27
442.31	348.74
442.50	397.89
442.68	400.23
442.87	386.19
443.05	428.32
443.24	407.25
443.43	395.55
443.61	442.36
443.80	400.23
443.98	395.55
444.17	425.98
444.35	409.59
444.54	402.57
444.73	479.81
444.91	454.06
445.10	517.26
445.28	395.55
445.47	395.55
445.65	498.53
445.84	407.25
446.02	503.22
446.21	407.25
446.39	367.46
446.58	339.38
446.77	379.17
446.95	332.36
447.14	477.47
447.32	423.64
447.51	430.66
447.69	400.23
447.88	435.34
448.06	409.59
448.25	400.23
448.43	447.04
448.62	381.51
448.80	402.57
448.99	440.02
449.17	358.10
449.36	411.93
449.54	447.04
449.73	454.06
449.91	414.27
450.10	386.19
450.28	456.40
450.46	510.24
450.65	388.53
450.83	374.49
451.02	470.45
451.20	449.38
451.39	421.30
451.57	376.83
451.76	404.91
451.94	428.32
452.13	442.36
452.31	355.76
452.49	400.23
452.68	440.02
452.86	407.25
453.05	416.62
453.23	383.85
453.42	341.72
453.60	400.23
453.78	334.70
453.97	337.04
454.15	440.02
454.34	442.36
454.52	374.49
454.70	489.17
454.89	451.72
455.07	348.74
455.26	416.62
455.44	463.43
455.62	407.25
455.81	423.64
455.99	395.55
456.17	454.06
456.36	433.00
456.54	414.27
456.73	402.57
456.91	397.89
457.09	440.02
457.28	437.68
457.46	423.64
457.64	425.98
457.83	454.06
458.01	402.57
458.19	418.96
458.38	491.51
458.56	463.43
458.74	379.17
458.93	388.53
459.11	393.21
459.29	433.00
459.48	435.34
459.66	454.06
459.84	388.53
460.03	517.26
460.21	477.47
460.39	435.34
460.57	369.80
460.76	365.12
460.94	447.04
461.12	414.27
461.31	447.04
461.49	388.53
461.67	407.25
461.85	463.43
462.04	397.89
462.22	781.74
462.40	430.66
462.59	456.40
462.77	390.87
462.95	395.55
463.13	440.02
463.32	322.99
463.50	397.89
463.68	416.62
463.86	409.59
464.05	383.85
464.23	355.76
464.41	475.13
464.59	379.17
464.78	409.59
464.96	411.93
465.14	353.42
465.32	402.57
465.50	383.85
465.69	428.32
465.87	423.64
466.05	404.91
466.23	411.93
466.41	430.66
466.60	388.53
466.78	400.23
466.96	402.57
467.14	414.27
467.32	470.45
467.51	442.36
467.69	355.76
467.87	491.51
468.05	369.80
468.23	402.57
468.41	407.25
468.60	454.06
468.78	447.04
468.96	437.68
469.14	421.30
469.32	479.81
469.50	383.85
469.69	433.00
469.87	461.09
470.05	409.59
470.23	447.04
470.41	430.66
470.59	451.72
470.77	458.74
470.95	397.89
471.14	498.53
471.32	381.51
471.50	388.53
471.68	395.55
471.86	376.83
472.04	376.83
472.22	374.49
472.40	421.30
472.58	383.85
472.77	383.85
472.95	428.32
473.13	376.83
473.31	433.00
473.49	388.53
473.67	390.87
473.85	454.06
474.03	372.15
474.21	362.78
474.39	447.04
474.57	477.47
474.75	458.74
474.93	393.21
475.12	447.04
475.30	390.87
475.48	397.89
475.66	440.02
475.84	383.85
476.02	358.10
476.20	362.78
476.38	484.49
476.56	451.72
476.74	435.34
476.92	447.04
477.10	461.09
477.28	477.47
477.46	444.70
477.64	484.49
477.82	393.21
478.00	468.11
478.18	451.72
478.36	493.85
478.54	430.66
478.72	472.79
478.90	411.93
479.08	482.15
479.26	463.43
479.44	433.00
479.62	421.30
479.80	411.93
479.98	395.55
480.16	440.02
480.34	395.55
480.52	400.23
480.70	404.91
480.88	400.23
481.06	351.08
481.24	440.02
481.41	425.98
481.59	322.99
481.77	411.93
481.95	437.68
482.13	409.59
482.31	407.25
482.49	437.68
482.67	442.36
482.85	374.49
483.03	433.00
483.21	397.89
483.39	407.25
483.57	388.53
483.74	376.83
483.92	397.89
484.10	425.98
484.28	447.04
484.46	503.22
484.64	381.51
484.82	362.78
485.00	468.11
485.18	409.59
485.35	397.89
485.53	397.89
485.71	416.62
485.89	425.98
486.07	414.27
486.25	433.00
486.43	449.38
486.61	397.89
486.78	369.80
486.96	376.83
487.14	416.62
487.32	365.12
487.50	397.89
487.68	390.87
487.85	360.44
488.03	449.38
488.21	397.89
488.39	383.85
488.57	407.25
488.75	393.21
488.92	463.43
489.10	355.76
489.28	463.43
489.46	440.02
489.64	428.32
489.81	409.59
489.99	404.91
490.17	402.57
490.35	503.22
490.53	468.11
490.70	454.06
490.88	463.43
491.06	400.23
491.24	442.36
491.41	458.74
491.59	418.96
491.77	320.65
491.95	379.17
492.13	435.34
492.30	430.66
492.48	416.62
492.66	447.04
492.84	369.80
493.01	451.72
493.19	411.93
493.37	360.44
493.54	440.02
493.72	437.68
493.90	409.59
494.08	388.53
494.25	444.70
494.43	421.30
494.61	334.70
494.79	346.40
494.96	444.70
495.14	416.62
495.32	425.98
495.49	360.44
495.67	376.83
495.85	418.96
496.02	407.25
496.20	404.91
496.38	470.45
496.55	507.90
496.73	437.68
496.91	428.32
497.09	451.72
497.26	486.83
497.44	456.40
497.62	348.74
497.79	447.04
497.97	461.09
498.14	402.57
498.32	435.34
498.50	386.19
498.67	372.15
498.85	435.34
499.03	409.59
499.20	416.62
499.38	379.17
499.56	327.68
499.73	421.30
499.91	458.74
500.08	461.09
500.26	468.11
500.44	423.64
500.61	477.47
500.79	400.23
500.97	423.64
501.14	470.45
501.32	395.55
501.49	451.72
501.67	451.72
501.84	430.66
502.02	440.02
502.20	425.98
502.37	449.38
502.55	416.62
502.72	430.66
502.90	447.04
503.07	418.96
503.25	423.64
503.43	458.74
503.60	411.93
503.78	465.77
503.95	360.44
504.13	365.12
504.30	395.55
504.48	376.83
504.65	519.60
504.83	393.21
505.01	409.59
505.18	386.19
505.36	397.89
505.53	325.33
505.71	332.36
505.88	400.23
506.06	393.21
506.23	461.09
506.41	374.49
506.58	421.30
506.76	407.25
506.93	435.34
507.11	479.81
507.28	435.34
507.46	440.02
507.63	470.45
507.81	360.44
507.98	514.92
508.16	421.30
508.33	421.30
508.50	416.62
508.68	468.11
508.85	475.13
509.03	315.97
509.20	428.32
509.38	456.40
509.55	444.70
509.73	437.68
509.90	348.74
510.08	379.17
510.25	365.12
510.42	461.09
510.60	440.02
510.77	348.74
510.95	461.09
511.12	400.23
511.30	447.04
511.47	369.80
511.64	454.06
511.82	421.30
511.99	433.00
512.17	416.62
512.34	425.98
512.51	463.43
512.69	461.09
512.86	456.40
513.04	458.74
513.21	376.83
513.38	372.15
513.56	379.17
513.73	386.19
513.90	470.45
514.08	341.72
514.25	395.55
514.43	362.78
514.60	386.19
514.77	393.21
514.95	411.93
515.12	395.55
515.29	376.83
515.47	360.44
515.64	414.27
515.81	407.25
515.99	428.32
516.16	416.62
516.33	344.06
516.51	428.32
516.68	442.36
516.85	449.38
517.03	463.43
517.20	442.36
517.37	348.74
517.54	451.72
517.72	440.02
517.89	461.09
518.06	379.17
518.24	458.74
518.41	493.85
518.58	313.63
518.75	337.04
518.93	458.74
519.10	383.85
519.27	475.13
519.45	458.74
519.62	486.83
519.79	470.45
519.96	433.00
520.14	433.00
520.31	470.45
520.48	449.38
520.65	397.89
520.83	397.89
521.00	376.83
521.17	388.53
521.34	418.96
521.52	397.89
521.69	411.93
521.86	519.60
522.03	411.93
522.20	428.32
522.38	418.96
522.55	470.45
522.72	416.62
522.89	416.62
523.07	390.87
523.24	461.09
523.41	383.85
523.58	369.80
523.75	437.68
523.92	435.34
524.10	418.96
524.27	423.64
524.44	383.85
524.61	449.38
524.78	353.42
524.96	470.45
525.13	374.49
525.30	372.15
525.47	463.43
525.64	442.36
525.81	463.43
525.98	479.81
526.16	421.30
526.33	409.59
526.50	447.04
526.67	433.00
526.84	461.09
527.01	409.59
527.18	421.30
527.36	449.38
527.53	437.68
527.70	500.87
527.87	449.38
528.04	437.68
528.21	358.10
528.38	407.25
528.55	428.32
528.72	381.51
528.89	503.22
529.07	393.21
529.24	395.55
529.41	437.68
529.58	388.53
529.75	458.74
529.92	395.55
530.09	393.21
530.26	421.30
530.43	421.30
530.60	442.36
530.77	346.40
530.94	376.83
531.11	465.77
531.28	397.89
531.46	423.64
531.63	477.47
531.80	397.89
531.97	404.91
532.14	456.40
532.31	458.74
532.48	425.98
532.65	428.32
532.82	332.36
532.99	456.40
533.16	407.25
533.33	489.17
533.50	414.27
533.67	500.87
533.84	393.21
534.01	379.17
534.18	414.27
534.35	402.57
534.52	421.30
534.69	430.66
534.86	444.70
535.03	454.06
535.20	388.53
535.37	416.62
535.54	409.59
535.71	430.66
535.88	358.10
536.05	374.49
536.22	444.70
536.38	339.38
536.55	395.55
536.72	386.19
536.89	449.38
537.06	437.68
537.23	381.51
537.40	388.53
537.57	449.38
537.74	500.87
537.91	393.21
538.08	362.78
538.25	409.59
538.42	472.79
538.59	425.98
538.75	407.25
538.92	430.66
539.09	437.68
539.26	383.85
539.43	482.15
539.60	404.91
539.77	383.85
539.94	428.32
540.11	400.23
540.28	479.81
540.44	470.45
540.61	388.53
540.78	416.62
540.95	430.66
541.12	416.62
541.29	402.57
541.46	449.38
541.62	400.23
541.79	442.36
541.96	383.85
542.13	414.27
542.30	362.78
542.47	407.25
542.63	407.25
542.80	393.21
542.97	383.85
543.14	418.96
543.31	437.68
543.48	362.78
543.64	409.59
543.81	400.23
543.98	381.51
544.15	397.89
544.32	400.23
544.48	425.98
544.65	409.59
544.82	414.27
544.99	449.38
545.16	444.70
545.32	355.76
545.49	395.55
545.66	402.57
545.83	367.46
546.00	365.12
546.16	381.51
546.33	383.85
546.50	409.59
546.67	456.40
546.83	374.49
547.00	491.51
547.17	400.23
547.34	379.17
547.50	421.30
547.67	344.06
547.84	388.53
548.00	440.02
548.17	440.02
548.34	416.62
548.51	454.06
548.67	454.06
548.84	376.83
549.01	428.32
549.18	442.36
549.34	433.00
549.51	465.77
549.68	437.68
549.84	447.04
550.01	365.12
550.18	573.43
550.34	493.85
550.51	404.91
550.68	472.79
550.84	404.91
551.01	397.89
551.18	407.25
551.34	416.62
551.51	435.34
551.68	381.51
551.84	484.49
552.01	386.19
552.18	477.47
552.34	440.02
552.51	414.27
552.68	451.72
552.84	372.15
553.01	468.11
553.18	428.32
553.34	355.76
553.51	372.15
553.67	381.51
553.84	447.04
554.01	444.70
554.17	393.21
554.34	425.98
554.51	461.09
554.67	430.66
554.84	449.38
555.00	482.15
555.17	454.06
555.33	512.58
555.50	503.22
555.67	383.85
555.83	395.55
556.00	414.27
556.16	526.62
556.33	484.49
556.50	376.83
556.66	418.96
556.83	388.53
556.99	402.57
557.16	468.11
557.32	451.72
557.49	407.25
557.65	353.42
557.82	409.59
557.98	423.64
558.15	440.02
558.32	402.57
558.48	465.77
558.65	470.45
558.81	388.53
558.98	468.11
559.14	444.70
559.31	461.09
559.47	440.02
559.64	440.02
559.80	418.96
559.97	365.12
560.13	421.30
560.30	341.72
560.46	470.45
560.63	365.12
560.79	425.98
560.96	402.57
561.12	397.89
561.29	493.85
561.45	444.70
561.61	414.27
561.78	500.87
561.94	468.11
562.11	507.90
562.27	468.11
562.44	418.96
562.60	444.70
562.77	369.80
562.93	428.32
563.10	437.68
563.26	454.06
563.42	409.59
563.59	440.02
563.75	430.66
563.92	369.80
564.08	421.30
564.24	475.13
564.41	458.74
564.57	402.57
564.74	456.40
564.90	442.36
565.07	416.62
565.23	444.70
565.39	454.06
565.56	489.17
565.72	447.04
565.88	430.66
566.05	409.59
566.21	421.30
566.38	411.93
566.54	463.43
566.70	433.00
566.87	425.98
567.03	390.87
567.19	383.85
567.36	440.02
567.52	390.87
567.68	407.25
567.85	493.85
568.01	423.64
568.17	388.53
568.34	337.04
568.50	442.36
568.66	423.64
568.83	449.38
568.99	409.59
569.15	390.87
569.32	404.91
569.48	461.09
569.64	425.98
569.81	437.68
569.97	428.32
570.13	418.96
570.30	400.23
570.46	442.36
570.62	421.30
570.78	421.30
570.95	362.78
571.11	430.66
571.27	472.79
571.43	411.93
571.60	421.30
571.76	472.79
571.92	404.91
572.09	388.53
572.25	390.87
572.41	374.49
572.57	423.64
572.74	395.55
572.90	472.79
573.06	400.23
573.22	479.81
573.38	465.77
573.55	519.60
573.71	409.59
573.87	498.53
574.03	390.87
574.20	430.66
574.36	437.68
574.52	433.00
574.68	402.57
574.84	404.91
575.01	475.13
575.17	430.66
575.33	393.21
575.49	428.32
575.65	458.74
575.82	428.32
575.98	414.27
576.14	421.30
576.30	388.53
576.46	526.62
576.62	475.13
576.79	437.68
576.95	421.30
577.11	325.33
577.27	376.83
577.43	411.93
577.59	416.62
577.75	411.93
577.92	393.21
578.08	376.83
578.24	404.91
578.40	397.89
578.56	407.25
578.72	425.98
578.88	482.15
579.04	390.87
579.21	418.96
579.37	411.93
579.53	437.68
579.69	463.43
579.85	479.81
580.01	402.57
580.17	395.55
580.33	418.96
580.49	447.04
580.65	390.87
580.82	479.81
580.98	407.25
581.14	437.68
581.30	491.51
581.46	416.62
581.62	414.27
581.78	414.27
581.94	416.62
582.10	393.21
582.26	447.04
582.42	425.98
582.58	456.40
582.74	404.91
582.90	423.64
583.06	454.06
583.22	444.70
583.38	428.32
583.54	444.70
583.70	451.72
583.86	418.96
584.02	430.66
584.18	484.49
584.34	360.44
584.50	407.25
584.66	449.38
584.82	425.98
584.98	454.06
585.14	376.83
585.30	433.00
585.46	440.02
585.62	390.87
585.78	383.85
585.94	451.72
586.10	425.98
586.26	388.53
586.42	489.17
586.58	456.40
586.74	388.53
586.90	437.68
587.06	423.64
587.22	400.23
587.38	388.53
587.54	402.57
587.70	430.66
587.86	386.19
588.02	442.36
588.18	416.62
588.34	440.02
588.49	353.42
588.65	379.17
588.81	435.34
588.97	334.70
589.13	402.57
589.29	465.77
589.45	428.32
589.61	337.04
589.77	409.59
589.93	423.64
590.08	472.79
590.24	414.27
590.40	475.13
590.56	454.06
590.72	416.62
590.88	376.83
591.04	442.36
591.20	369.80
591.35	454.06
591.51	423.64
591.67	407.25
591.83	472.79
591.99	360.44
592.15	442.36
592.31	411.93
592.46	458.74
592.62	435.34
592.78	456.40
592.94	440.02
593.10	369.80
593.26	397.89
593.41	435.34
593.57	440.02
593.73	395.55
593.89	332.36
594.05	442.36
594.20	463.43
594.36	465.77
594.52	402.57
594.68	402.57
594.84	428.32
594.99	477.47
595.15	404.91
595.31	430.66
595.47	484.49
595.62	327.68
595.78	468.11
595.94	383.85
596.10	383.85
596.25	379.17
596.41	428.32
596.57	346.40
596.73	390.87
596.88	414.27
597.04	493.85
597.20	367.46
597.36	463.43
597.51	367.46
597.67	428.32
597.83	353.42
597.99	449.38
598.14	425.98
598.30	449.38
598.46	430.66
598.61	449.38
598.77	418.96
598.93	463.43
599.09	381.51
599.24	404.91
599.40	503.22
599.56	416.62
599.71	444.70
599.87	465.77
600.03	458.74
600.18	451.72
600.34	416.62
600.50	449.38
600.65	397.89
600.81	475.13
600.97	456.40
601.12	418.96
601.28	470.45
601.44	414.27
601.59	423.64
601.75	423.64
601.91	367.46
602.06	407.25
602.22	437.68
602.37	461.09
602.53	428.32
602.69	451.72
602.84	402.57
603.00	433.00
603.16	454.06
603.31	395.55
603.47	447.04
603.62	491.51
603.78	421.30
603.94	374.49
604.09	383.85
604.25	458.74
604.40	390.87
604.56	393.21
604.71	383.85
604.87	416.62
605.03	416.62
605.18	397.89
605.34	386.19
605.49	437.68
605.65	388.53
605.80	390.87
605.96	447.04
606.12	397.89
606.27	437.68
606.43	337.04
606.58	404.91
606.74	440.02
606.89	402.57
607.05	393.21
607.20	409.59
607.36	440.02
607.51	435.34
607.67	477.47
607.82	416.62
607.98	418.96
608.13	327.68
608.29	376.83
608.44	416.62
608.60	407.25
608.75	442.36
608.91	437.68
609.06	430.66
609.22	444.70
609.37	416.62
609.53	393.21
609.68	461.09
609.84	379.17
609.99	402.57
610.15	444.70
