SpectraSuite Data File
++++++++++++++++++++++++++++++++++++
Date: Fri Oct 25 12:10:31 EDT 2013
User: price-jones
Dark Spectrum Present: No
Reference Spectrum Present: No
Number of Sampled Component Spectra: 1
Spectrometers: USB2+H05261
Integration Time (usec): 100000 (USB2+H05261)
Spectra Averaged: 1 (USB2+H05261)
Boxcar Smoothing: 0 (USB2+H05261)
Correct for Electrical Dark: No (USB2+H05261)
Strobe/Lamp Enabled: No (USB2+H05261)
Correct for Detector Non-linearity: No (USB2+H05261)
Correct for Stray Light: No (USB2+H05261)
Number of Pixels in Processed Spectrum: 2048
>>>>>Begin Processed Spectral Data<<<<<
365.73	308.95
365.92	308.95
366.12	308.95
366.32	255.12
366.52	252.78
366.72	339.38
366.91	224.69
367.11	271.50
367.31	229.37
367.51	194.26
367.70	220.01
367.90	248.10
368.10	241.08
368.30	290.23
368.49	184.90
368.69	259.80
368.89	292.57
369.09	259.80
369.28	264.48
369.48	262.14
369.68	262.14
369.87	290.23
370.07	304.27
370.27	315.97
370.47	358.10
370.66	330.02
370.86	355.76
371.06	397.89
371.25	449.38
371.45	358.10
371.65	449.38
371.84	355.76
372.04	325.33
372.24	369.80
372.44	376.83
372.63	404.91
372.83	334.70
373.03	411.93
373.22	447.04
373.42	353.42
373.62	369.80
373.81	411.93
374.01	402.57
374.21	421.30
374.40	421.30
374.60	470.45
374.79	486.83
374.99	407.25
375.19	440.02
375.38	444.70
375.58	433.00
375.78	444.70
375.97	461.09
376.17	475.13
376.37	397.89
376.56	416.62
376.76	339.38
376.95	404.91
377.15	407.25
377.35	421.30
377.54	435.34
377.74	379.17
377.93	402.57
378.13	395.55
378.33	435.34
378.52	393.21
378.72	421.30
378.91	437.68
379.11	353.42
379.31	376.83
379.50	454.06
379.70	496.19
379.89	411.93
380.09	351.08
380.28	388.53
380.48	407.25
380.68	454.06
380.87	400.23
381.07	411.93
381.26	458.74
381.46	416.62
381.65	381.51
381.85	414.27
382.04	468.11
382.24	411.93
382.43	383.85
382.63	341.72
382.83	418.96
383.02	409.59
383.22	402.57
383.41	327.68
383.61	393.21
383.80	393.21
384.00	409.59
384.19	421.30
384.39	360.44
384.58	351.08
384.78	416.62
384.97	423.64
385.17	379.17
385.36	496.19
385.56	421.30
385.75	376.83
385.95	397.89
386.14	381.51
386.34	395.55
386.53	425.98
386.72	372.15
386.92	395.55
387.11	365.12
387.31	423.64
387.50	393.21
387.70	379.17
387.89	461.09
388.09	383.85
388.28	423.64
388.48	393.21
388.67	395.55
388.86	411.93
389.06	437.68
389.25	437.68
389.45	407.25
389.64	418.96
389.84	423.64
390.03	400.23
390.22	418.96
390.42	458.74
390.61	379.17
390.81	379.17
391.00	418.96
391.19	433.00
391.39	388.53
391.58	404.91
391.78	390.87
391.97	458.74
392.16	435.34
392.36	386.19
392.55	461.09
392.75	510.24
392.94	404.91
393.13	428.32
393.33	421.30
393.52	341.72
393.71	458.74
393.91	404.91
394.10	400.23
394.29	479.81
394.49	442.36
394.68	367.46
394.88	454.06
395.07	484.49
395.26	463.43
395.46	461.09
395.65	400.23
395.84	395.55
396.04	519.60
396.23	367.46
396.42	355.76
396.62	409.59
396.81	353.42
397.00	376.83
397.19	400.23
397.39	346.40
397.58	482.15
397.77	407.25
397.97	395.55
398.16	447.04
398.35	454.06
398.55	433.00
398.74	440.02
398.93	423.64
399.12	425.98
399.32	393.21
399.51	393.21
399.70	407.25
399.90	418.96
400.09	395.55
400.28	383.85
400.47	353.42
400.67	411.93
400.86	327.68
401.05	386.19
401.24	421.30
401.44	360.44
401.63	454.06
401.82	416.62
402.01	395.55
402.21	372.15
402.40	353.42
402.59	393.21
402.78	386.19
402.97	379.17
403.17	425.98
403.36	395.55
403.55	395.55
403.74	430.66
403.93	461.09
404.13	423.64
404.32	447.04
404.51	383.85
404.70	416.62
404.89	383.85
405.09	428.32
405.28	362.78
405.47	404.91
405.66	409.59
405.85	395.55
406.05	416.62
406.24	393.21
406.43	362.78
406.62	423.64
406.81	402.57
407.00	449.38
407.20	388.53
407.39	442.36
407.58	423.64
407.77	348.74
407.96	435.34
408.15	437.68
408.34	362.78
408.54	381.51
408.73	433.00
408.92	381.51
409.11	381.51
409.30	486.83
409.49	330.02
409.68	383.85
409.87	390.87
410.07	393.21
410.26	421.30
410.45	449.38
410.64	381.51
410.83	421.30
411.02	428.32
411.21	358.10
411.40	404.91
411.59	444.70
411.78	442.36
411.98	486.83
412.17	339.38
412.36	372.15
412.55	376.83
412.74	447.04
412.93	411.93
413.12	297.25
413.31	409.59
413.50	395.55
413.69	404.91
413.88	407.25
414.07	428.32
414.26	472.79
414.45	372.15
414.64	425.98
414.83	388.53
415.02	404.91
415.22	437.68
415.41	318.31
415.60	390.87
415.79	416.62
415.98	498.53
416.17	397.89
416.36	418.96
416.55	304.27
416.74	519.60
416.93	395.55
417.12	330.02
417.31	423.64
417.50	390.87
417.69	526.62
417.88	386.19
418.07	407.25
418.26	393.21
418.45	365.12
418.64	395.55
418.83	383.85
419.02	444.70
419.21	351.08
419.39	397.89
419.58	374.49
419.77	381.51
419.96	393.21
420.15	440.02
420.34	463.43
420.53	409.59
420.72	365.12
420.91	451.72
421.10	313.63
421.29	472.79
421.48	465.77
421.67	386.19
421.86	346.40
422.05	416.62
422.24	425.98
422.43	423.64
422.61	372.15
422.80	327.68
422.99	449.38
423.18	416.62
423.37	386.19
423.56	393.21
423.75	369.80
423.94	358.10
424.13	393.21
424.32	425.98
424.50	325.33
424.69	456.40
424.88	388.53
425.07	372.15
425.26	411.93
425.45	393.21
425.64	390.87
425.83	451.72
426.01	465.77
426.20	402.57
426.39	400.23
426.58	386.19
426.77	390.87
426.96	484.49
427.15	367.46
427.33	348.74
427.52	374.49
427.71	383.85
427.90	430.66
428.09	402.57
428.28	418.96
428.46	337.04
428.65	411.93
428.84	423.64
429.03	482.15
429.22	379.17
429.40	402.57
429.59	463.43
429.78	390.87
429.97	400.23
430.16	390.87
430.34	437.68
430.53	400.23
430.72	355.76
430.91	449.38
431.10	456.40
431.28	404.91
431.47	386.19
431.66	409.59
431.85	390.87
432.03	409.59
432.22	442.36
432.41	369.80
432.60	404.91
432.79	414.27
432.97	414.27
433.16	444.70
433.35	381.51
433.54	395.55
433.72	409.59
433.91	390.87
434.10	339.38
434.28	433.00
434.47	411.93
434.66	500.87
434.85	454.06
435.03	383.85
435.22	435.34
435.41	383.85
435.59	433.00
435.78	421.30
435.97	411.93
436.16	416.62
436.34	388.53
436.53	430.66
436.72	355.76
436.90	428.32
437.09	458.74
437.28	393.21
437.46	341.72
437.65	402.57
437.84	374.49
438.02	423.64
438.21	393.21
438.40	433.00
438.58	372.15
438.77	358.10
438.96	468.11
439.14	456.40
439.33	376.83
439.52	411.93
439.70	390.87
439.89	407.25
440.08	374.49
440.26	433.00
440.45	330.02
440.63	411.93
440.82	465.77
441.01	423.64
441.19	416.62
441.38	376.83
441.57	418.96
441.75	451.72
441.94	479.81
442.12	414.27
442.31	402.57
442.50	465.77
442.68	428.32
442.87	393.21
443.05	358.10
443.24	461.09
443.43	440.02
443.61	458.74
443.80	423.64
443.98	442.36
444.17	411.93
444.35	449.38
444.54	337.04
444.73	372.15
444.91	402.57
445.10	393.21
445.28	437.68
445.47	437.68
445.65	435.34
445.84	376.83
446.02	386.19
446.21	423.64
446.39	407.25
446.58	433.00
446.77	367.46
446.95	404.91
447.14	470.45
447.32	402.57
447.51	416.62
447.69	402.57
447.88	374.49
448.06	409.59
448.25	365.12
448.43	353.42
448.62	395.55
448.80	416.62
448.99	400.23
449.17	393.21
449.36	369.80
449.54	388.53
449.73	433.00
449.91	407.25
450.10	421.30
450.28	461.09
450.46	512.58
450.65	442.36
450.83	418.96
451.02	379.17
451.20	409.59
451.39	397.89
451.57	411.93
451.76	409.59
451.94	442.36
452.13	425.98
452.31	407.25
452.49	397.89
452.68	395.55
452.86	442.36
453.05	390.87
453.23	425.98
453.42	360.44
453.60	390.87
453.78	475.13
453.97	423.64
454.15	423.64
454.34	416.62
454.52	388.53
454.70	433.00
454.89	493.85
455.07	400.23
455.26	414.27
455.44	463.43
455.62	423.64
455.81	444.70
455.99	430.66
456.17	435.34
456.36	383.85
456.54	372.15
456.73	414.27
456.91	390.87
457.09	390.87
457.28	479.81
457.46	430.66
457.64	468.11
457.83	409.59
458.01	313.63
458.19	430.66
458.38	407.25
458.56	454.06
458.74	379.17
458.93	411.93
459.11	318.31
459.29	414.27
459.48	386.19
459.66	507.90
459.84	458.74
460.03	407.25
460.21	325.33
460.39	435.34
460.57	404.91
460.76	458.74
460.94	381.51
461.12	376.83
461.31	393.21
461.49	374.49
461.67	425.98
461.85	404.91
462.04	425.98
462.22	795.78
462.40	468.11
462.59	470.45
462.77	425.98
462.95	367.46
463.13	386.19
463.32	425.98
463.50	428.32
463.68	411.93
463.86	447.04
464.05	381.51
464.23	465.77
464.41	430.66
464.59	442.36
464.78	379.17
464.96	395.55
465.14	421.30
465.32	456.40
465.50	395.55
465.69	449.38
465.87	362.78
466.05	465.77
466.23	388.53
466.41	411.93
466.60	379.17
466.78	472.79
466.96	442.36
467.14	479.81
467.32	425.98
467.51	461.09
467.69	414.27
467.87	475.13
468.05	404.91
468.23	444.70
468.41	449.38
468.60	393.21
468.78	402.57
468.96	451.72
469.14	437.68
469.32	435.34
469.50	414.27
469.69	482.15
469.87	435.34
470.05	498.53
470.23	465.77
470.41	423.64
470.59	388.53
470.77	482.15
470.95	397.89
471.14	425.98
471.32	367.46
471.50	430.66
471.68	379.17
471.86	379.17
472.04	369.80
472.22	435.34
472.40	437.68
472.58	390.87
472.77	390.87
472.95	435.34
473.13	407.25
473.31	418.96
473.49	409.59
473.67	381.51
473.85	365.12
474.03	397.89
474.21	407.25
474.39	428.32
474.57	505.56
474.75	440.02
474.93	395.55
475.12	376.83
475.30	393.21
475.48	461.09
475.66	407.25
475.84	437.68
476.02	374.49
476.20	437.68
476.38	425.98
476.56	465.77
476.74	409.59
476.92	367.46
477.10	353.42
477.28	451.72
477.46	400.23
477.64	489.17
477.82	421.30
478.00	409.59
478.18	421.30
478.36	409.59
478.54	386.19
478.72	409.59
478.90	388.53
479.08	358.10
479.26	468.11
479.44	444.70
479.62	411.93
479.80	358.10
479.98	315.97
480.16	318.31
480.34	411.93
480.52	386.19
480.70	433.00
480.88	369.80
481.06	440.02
481.24	411.93
481.41	353.42
481.59	484.49
481.77	461.09
481.95	390.87
482.13	411.93
482.31	435.34
482.49	435.34
482.67	510.24
482.85	440.02
483.03	411.93
483.21	400.23
483.39	330.02
483.57	379.17
483.74	374.49
483.92	393.21
484.10	388.53
484.28	463.43
484.46	531.30
484.64	320.65
484.82	376.83
485.00	360.44
485.18	425.98
485.35	395.55
485.53	435.34
485.71	491.51
485.89	388.53
486.07	423.64
486.25	461.09
486.43	479.81
486.61	407.25
486.78	449.38
486.96	416.62
487.14	379.17
487.32	437.68
487.50	407.25
487.68	451.72
487.85	379.17
488.03	390.87
488.21	428.32
488.39	367.46
488.57	395.55
488.75	346.40
488.92	533.64
489.10	337.04
489.28	418.96
489.46	351.08
489.64	402.57
489.81	353.42
489.99	402.57
490.17	367.46
490.35	454.06
490.53	414.27
490.70	470.45
490.88	440.02
491.06	404.91
491.24	376.83
491.41	493.85
491.59	489.17
491.77	360.44
491.95	393.21
492.13	430.66
492.30	470.45
492.48	390.87
492.66	411.93
492.84	425.98
493.01	395.55
493.19	407.25
493.37	442.36
493.54	468.11
493.72	402.57
493.90	482.15
494.08	362.78
494.25	395.55
494.43	470.45
494.61	386.19
494.79	437.68
494.96	411.93
495.14	482.15
495.32	367.46
495.49	414.27
495.67	461.09
495.85	421.30
496.02	390.87
496.20	425.98
496.38	423.64
496.55	433.00
496.73	503.22
496.91	348.74
497.09	468.11
497.26	411.93
497.44	484.49
497.62	395.55
497.79	393.21
497.97	418.96
498.14	372.15
498.32	437.68
498.50	407.25
498.67	416.62
498.85	355.76
499.03	374.49
499.20	416.62
499.38	416.62
499.56	402.57
499.73	437.68
499.91	447.04
500.08	437.68
500.26	360.44
500.44	332.36
500.61	486.83
500.79	390.87
500.97	334.70
501.14	433.00
501.32	449.38
501.49	416.62
501.67	463.43
501.84	416.62
502.02	451.72
502.20	449.38
502.37	409.59
502.55	330.02
502.72	390.87
502.90	421.30
503.07	379.17
503.25	407.25
503.43	299.59
503.60	407.25
503.78	456.40
503.95	386.19
504.13	330.02
504.30	449.38
504.48	374.49
504.65	411.93
504.83	414.27
505.01	404.91
505.18	435.34
505.36	402.57
505.53	362.78
505.71	332.36
505.88	451.72
506.06	440.02
506.23	409.59
506.41	379.17
506.58	514.92
506.76	437.68
506.93	369.80
507.11	479.81
507.28	414.27
507.46	386.19
507.63	386.19
507.81	402.57
507.98	386.19
508.16	374.49
508.33	381.51
508.50	500.87
508.68	395.55
508.85	456.40
509.03	442.36
509.20	395.55
509.38	447.04
509.55	411.93
509.73	430.66
509.90	416.62
510.08	365.12
510.25	461.09
510.42	456.40
510.60	433.00
510.77	397.89
510.95	463.43
511.12	411.93
511.30	400.23
511.47	428.32
511.64	421.30
511.82	425.98
511.99	388.53
512.17	491.51
512.34	421.30
512.51	409.59
512.69	428.32
512.86	521.94
513.04	397.89
513.21	404.91
513.38	365.12
513.56	416.62
513.73	444.70
513.90	414.27
514.08	369.80
514.25	383.85
514.43	421.30
514.60	444.70
514.77	379.17
514.95	479.81
515.12	393.21
515.29	374.49
515.47	346.40
515.64	355.76
515.81	416.62
515.99	414.27
516.16	379.17
516.33	404.91
516.51	414.27
516.68	379.17
516.85	428.32
517.03	353.42
517.20	423.64
517.37	458.74
517.54	454.06
517.72	444.70
517.89	358.10
518.06	393.21
518.24	414.27
518.41	528.96
518.58	484.49
518.75	404.91
518.93	379.17
519.10	444.70
519.27	374.49
519.45	463.43
519.62	421.30
519.79	411.93
519.96	440.02
520.14	416.62
520.31	402.57
520.48	440.02
520.65	374.49
520.83	372.15
521.00	433.00
521.17	425.98
521.34	404.91
521.52	430.66
521.69	456.40
521.86	456.40
522.03	428.32
522.20	489.17
522.38	360.44
522.55	489.17
522.72	397.89
522.89	395.55
523.07	482.15
523.24	367.46
523.41	433.00
523.58	365.12
523.75	388.53
523.92	365.12
524.10	372.15
524.27	409.59
524.44	414.27
524.61	379.17
524.78	479.81
524.96	423.64
525.13	486.83
525.30	444.70
525.47	407.25
525.64	435.34
525.81	512.58
525.98	414.27
526.16	386.19
526.33	358.10
526.50	500.87
526.67	402.57
526.84	414.27
527.01	409.59
527.18	337.04
527.36	367.46
527.53	365.12
527.70	500.87
527.87	395.55
528.04	442.36
528.21	393.21
528.38	411.93
528.55	423.64
528.72	444.70
528.89	404.91
529.07	449.38
529.24	379.17
529.41	433.00
529.58	444.70
529.75	367.46
529.92	465.77
530.09	390.87
530.26	416.62
530.43	428.32
530.60	374.49
530.77	379.17
530.94	416.62
531.11	503.22
531.28	425.98
531.46	456.40
531.63	372.15
531.80	411.93
531.97	383.85
532.14	454.06
532.31	416.62
532.48	400.23
532.65	416.62
532.82	388.53
532.99	414.27
533.16	449.38
533.33	386.19
533.50	430.66
533.67	416.62
533.84	428.32
534.01	407.25
534.18	348.74
534.35	330.02
534.52	444.70
534.69	447.04
534.86	397.89
535.03	383.85
535.20	397.89
535.37	386.19
535.54	524.28
535.71	433.00
535.88	470.45
536.05	489.17
536.22	458.74
536.38	428.32
536.55	465.77
536.72	486.83
536.89	395.55
537.06	376.83
537.23	414.27
537.40	341.72
537.57	447.04
537.74	463.43
537.91	489.17
538.08	388.53
538.25	470.45
538.42	411.93
538.59	369.80
538.75	414.27
538.92	418.96
539.09	458.74
539.26	461.09
539.43	416.62
539.60	444.70
539.77	409.59
539.94	381.51
540.11	409.59
540.28	430.66
540.44	486.83
540.61	376.83
540.78	332.36
540.95	435.34
541.12	456.40
541.29	379.17
541.46	355.76
541.62	451.72
541.79	447.04
541.96	414.27
542.13	461.09
542.30	409.59
542.47	458.74
542.63	383.85
542.80	404.91
542.97	472.79
543.14	409.59
543.31	407.25
543.48	440.02
543.64	414.27
543.81	397.89
543.98	489.17
544.15	341.72
544.32	339.38
544.48	461.09
544.65	447.04
544.82	437.68
544.99	395.55
545.16	444.70
545.32	409.59
545.49	393.21
545.66	341.72
545.83	430.66
546.00	379.17
546.16	414.27
546.33	444.70
546.50	409.59
546.67	465.77
546.83	435.34
547.00	388.53
547.17	348.74
547.34	447.04
547.50	451.72
547.67	440.02
547.84	433.00
548.00	425.98
548.17	402.57
548.34	395.55
548.51	416.62
548.67	472.79
548.84	425.98
549.01	440.02
549.18	463.43
549.34	423.64
549.51	454.06
549.68	456.40
549.84	400.23
550.01	367.46
550.18	416.62
550.34	407.25
550.51	418.96
550.68	449.38
550.84	379.17
551.01	440.02
551.18	496.19
551.34	411.93
551.51	423.64
551.68	397.89
551.84	379.17
552.01	425.98
552.18	409.59
552.34	437.68
552.51	437.68
552.68	482.15
552.84	372.15
553.01	409.59
553.18	456.40
553.34	440.02
553.51	330.02
553.67	397.89
553.84	414.27
554.01	479.81
554.17	416.62
554.34	407.25
554.51	390.87
554.67	397.89
554.84	463.43
555.00	395.55
555.17	379.17
555.33	414.27
555.50	454.06
555.67	461.09
555.83	306.61
556.00	423.64
556.16	535.98
556.33	486.83
556.50	341.72
556.66	372.15
556.83	444.70
556.99	407.25
557.16	493.85
557.32	458.74
557.49	372.15
557.65	423.64
557.82	367.46
557.98	433.00
558.15	383.85
558.32	470.45
558.48	374.49
558.65	379.17
558.81	435.34
558.98	423.64
559.14	468.11
559.31	348.74
559.47	435.34
559.64	470.45
559.80	484.49
559.97	470.45
560.13	390.87
560.30	433.00
560.46	421.30
560.63	379.17
560.79	393.21
560.96	386.19
561.12	461.09
561.29	411.93
561.45	386.19
561.61	402.57
561.78	538.32
561.94	360.44
562.11	421.30
562.27	442.36
562.44	451.72
562.60	409.59
562.77	449.38
562.93	484.49
563.10	451.72
563.26	447.04
563.42	479.81
563.59	451.72
563.75	442.36
563.92	477.47
564.08	447.04
564.24	454.06
564.41	514.92
564.57	407.25
564.74	465.77
564.90	449.38
565.07	351.08
565.23	486.83
565.39	456.40
565.56	468.11
565.72	397.89
565.88	400.23
566.05	486.83
566.21	430.66
566.38	444.70
566.54	397.89
566.70	409.59
566.87	414.27
567.03	433.00
567.19	461.09
567.36	409.59
567.52	428.32
567.68	409.59
567.85	449.38
568.01	409.59
568.17	444.70
568.34	365.12
568.50	379.17
568.66	444.70
568.83	475.13
568.99	395.55
569.15	458.74
569.32	437.68
569.48	367.46
569.64	397.89
569.81	379.17
569.97	409.59
570.13	348.74
570.30	381.51
570.46	395.55
570.62	404.91
570.78	381.51
570.95	379.17
571.11	449.38
571.27	390.87
571.43	381.51
571.60	475.13
571.76	409.59
571.92	416.62
572.09	414.27
572.25	416.62
572.41	414.27
572.57	440.02
572.74	451.72
572.90	442.36
573.06	418.96
573.22	381.51
573.38	395.55
573.55	456.40
573.71	454.06
573.87	423.64
574.03	390.87
574.20	444.70
574.36	451.72
574.52	456.40
574.68	458.74
574.84	407.25
575.01	416.62
575.17	421.30
575.33	440.02
575.49	416.62
575.65	362.78
575.82	315.97
575.98	376.83
576.14	393.21
576.30	421.30
576.46	400.23
576.62	355.76
576.79	423.64
576.95	402.57
577.11	376.83
577.27	475.13
577.43	458.74
577.59	433.00
577.75	479.81
577.92	407.25
578.08	421.30
578.24	393.21
578.40	414.27
578.56	475.13
578.72	454.06
578.88	472.79
579.04	402.57
579.21	388.53
579.37	421.30
579.53	400.23
579.69	388.53
579.85	423.64
580.01	346.40
580.17	365.12
580.33	404.91
580.49	442.36
580.65	372.15
580.82	397.89
580.98	407.25
581.14	402.57
581.30	472.79
581.46	437.68
581.62	489.17
581.78	491.51
581.94	411.93
582.10	395.55
582.26	360.44
582.42	409.59
582.58	463.43
582.74	376.83
582.90	442.36
583.06	468.11
583.22	435.34
583.38	381.51
583.54	416.62
583.70	423.64
583.86	425.98
584.02	348.74
584.18	484.49
584.34	437.68
584.50	430.66
584.66	379.17
584.82	365.12
584.98	358.10
585.14	400.23
585.30	470.45
585.46	484.49
585.62	393.21
585.78	341.72
585.94	416.62
586.10	411.93
586.26	454.06
586.42	440.02
586.58	500.87
586.74	456.40
586.90	409.59
587.06	465.77
587.22	442.36
587.38	468.11
587.54	442.36
587.70	425.98
587.86	421.30
588.02	430.66
588.18	444.70
588.34	433.00
588.49	444.70
588.65	451.72
588.81	440.02
588.97	402.57
589.13	353.42
589.29	430.66
589.45	433.00
589.61	409.59
589.77	566.41
589.93	449.38
590.08	397.89
590.24	430.66
590.40	402.57
590.56	428.32
590.72	433.00
590.88	411.93
591.04	379.17
591.20	379.17
591.35	416.62
591.51	416.62
591.67	421.30
591.83	365.12
591.99	388.53
592.15	484.49
592.31	430.66
592.46	400.23
592.62	390.87
592.78	390.87
592.94	414.27
593.10	355.76
593.26	390.87
593.41	379.17
593.57	440.02
593.73	428.32
593.89	376.83
594.05	372.15
594.20	407.25
594.36	397.89
594.52	383.85
594.68	390.87
594.84	491.51
594.99	454.06
595.15	428.32
595.31	414.27
595.47	533.64
595.62	416.62
595.78	411.93
595.94	374.49
596.10	416.62
596.25	451.72
596.41	393.21
596.57	456.40
596.73	409.59
596.88	461.09
597.04	379.17
597.20	437.68
597.36	423.64
597.51	444.70
597.67	456.40
597.83	383.85
597.99	388.53
598.14	386.19
598.30	482.15
598.46	433.00
598.61	421.30
598.77	383.85
598.93	402.57
599.09	395.55
599.24	437.68
599.40	482.15
599.56	454.06
599.71	407.25
599.87	433.00
600.03	440.02
600.18	465.77
600.34	465.77
600.50	409.59
600.65	404.91
600.81	447.04
600.97	339.38
601.12	409.59
601.28	461.09
601.44	393.21
601.59	477.47
601.75	369.80
601.91	367.46
602.06	435.34
602.22	440.02
602.37	428.32
602.53	372.15
602.69	451.72
602.84	397.89
603.00	435.34
603.16	404.91
603.31	388.53
603.47	451.72
603.62	393.21
603.78	416.62
603.94	440.02
604.09	428.32
604.25	517.26
604.40	383.85
604.56	381.51
604.71	407.25
604.87	454.06
605.03	411.93
605.18	418.96
605.34	435.34
605.49	402.57
605.65	458.74
605.80	416.62
605.96	360.44
606.12	390.87
606.27	435.34
606.43	383.85
606.58	475.13
606.74	388.53
606.89	381.51
607.05	444.70
607.20	397.89
607.36	407.25
607.51	444.70
607.67	461.09
607.82	444.70
607.98	416.62
608.13	414.27
608.29	395.55
608.44	454.06
608.60	358.10
608.75	404.91
608.91	379.17
609.06	400.23
609.22	414.27
609.37	407.25
609.53	369.80
609.68	437.68
609.84	334.70
609.99	411.93
610.15	463.43
