SpectraSuite Data File
++++++++++++++++++++++++++++++++++++
Date: Fri Oct 25 12:10:58 EDT 2013
User: price-jones
Dark Spectrum Present: No
Reference Spectrum Present: No
Number of Sampled Component Spectra: 1
Spectrometers: USB2+H05261
Integration Time (usec): 100000 (USB2+H05261)
Spectra Averaged: 1 (USB2+H05261)
Boxcar Smoothing: 0 (USB2+H05261)
Correct for Electrical Dark: No (USB2+H05261)
Strobe/Lamp Enabled: No (USB2+H05261)
Correct for Detector Non-linearity: No (USB2+H05261)
Correct for Stray Light: No (USB2+H05261)
Number of Pixels in Processed Spectrum: 2048
>>>>>Begin Processed Spectral Data<<<<<
365.73	409.59
365.92	409.59
366.12	409.59
366.32	236.39
366.52	229.37
366.72	234.05
366.91	180.22
367.11	182.56
367.31	283.20
367.51	220.01
367.70	229.37
367.90	285.55
368.10	308.95
368.30	276.18
368.49	285.55
368.69	276.18
368.89	229.37
369.09	191.92
369.28	297.25
369.48	208.31
369.68	229.37
369.87	308.95
370.07	301.93
370.27	332.36
370.47	330.02
370.66	318.31
370.86	245.76
371.06	313.63
371.25	393.21
371.45	334.70
371.65	372.15
371.84	418.96
372.04	383.85
372.24	418.96
372.44	315.97
372.63	491.51
372.83	437.68
373.03	365.12
373.22	533.64
373.42	379.17
373.62	393.21
373.81	451.72
374.01	428.32
374.21	491.51
374.40	402.57
374.60	407.25
374.79	381.51
374.99	418.96
375.19	442.36
375.38	416.62
375.58	414.27
375.78	486.83
375.97	386.19
376.17	414.27
376.37	451.72
376.56	395.55
376.76	425.98
376.95	372.15
377.15	449.38
377.35	383.85
377.54	461.09
377.74	463.43
377.93	418.96
378.13	376.83
378.33	376.83
378.52	393.21
378.72	416.62
378.91	465.77
379.11	470.45
379.31	341.72
379.50	428.32
379.70	367.46
379.89	402.57
380.09	327.68
380.28	388.53
380.48	367.46
380.68	519.60
380.87	379.17
381.07	332.36
381.26	369.80
381.46	367.46
381.65	411.93
381.85	423.64
382.04	386.19
382.24	416.62
382.43	482.15
382.63	362.78
382.83	388.53
383.02	451.72
383.22	435.34
383.41	311.29
383.61	404.91
383.80	358.10
384.00	386.19
384.19	409.59
384.39	379.17
384.58	379.17
384.78	458.74
384.97	451.72
385.17	372.15
385.36	379.17
385.56	360.44
385.75	355.76
385.95	404.91
386.14	435.34
386.34	379.17
386.53	388.53
386.72	421.30
386.92	372.15
387.11	463.43
387.31	395.55
387.50	390.87
387.70	383.85
387.89	402.57
388.09	386.19
388.28	365.12
388.48	423.64
388.67	416.62
388.86	461.09
389.06	360.44
389.25	376.83
389.45	456.40
389.64	367.46
389.84	433.00
390.03	451.72
390.22	437.68
390.42	404.91
390.61	468.11
390.81	325.33
391.00	402.57
391.19	428.32
391.39	470.45
391.58	468.11
391.78	372.15
391.97	330.02
392.16	379.17
392.36	430.66
392.55	418.96
392.75	327.68
392.94	414.27
393.13	395.55
393.33	451.72
393.52	404.91
393.71	411.93
393.91	418.96
394.10	416.62
394.29	365.12
394.49	400.23
394.68	458.74
394.88	425.98
395.07	344.06
395.26	376.83
395.46	383.85
395.65	433.00
395.84	442.36
396.04	430.66
396.23	407.25
396.42	367.46
396.62	362.78
396.81	418.96
397.00	430.66
397.19	393.21
397.39	386.19
397.58	433.00
397.77	351.08
397.97	353.42
398.16	437.68
398.35	407.25
398.55	397.89
398.74	449.38
398.93	444.70
399.12	390.87
399.32	395.55
399.51	372.15
399.70	425.98
399.90	454.06
400.09	489.17
400.28	374.49
400.47	376.83
400.67	395.55
400.86	395.55
401.05	416.62
401.24	428.32
401.44	416.62
401.63	463.43
401.82	458.74
402.01	428.32
402.21	383.85
402.40	451.72
402.59	414.27
402.78	463.43
402.97	397.89
403.17	386.19
403.36	402.57
403.55	409.59
403.74	381.51
403.93	369.80
404.13	386.19
404.32	386.19
404.51	388.53
404.70	465.77
404.89	428.32
405.09	440.02
405.28	355.76
405.47	400.23
405.66	411.93
405.85	397.89
406.05	418.96
406.24	418.96
406.43	484.49
406.62	402.57
406.81	421.30
407.00	400.23
407.20	381.51
407.39	468.11
407.58	383.85
407.77	407.25
407.96	400.23
408.15	425.98
408.34	498.53
408.54	409.59
408.73	418.96
408.92	376.83
409.11	383.85
409.30	454.06
409.49	367.46
409.68	458.74
409.87	442.36
410.07	348.74
410.26	430.66
410.45	475.13
410.64	362.78
410.83	433.00
411.02	369.80
411.21	498.53
411.40	407.25
411.59	346.40
411.78	388.53
411.98	430.66
412.17	397.89
412.36	437.68
412.55	447.04
412.74	358.10
412.93	395.55
413.12	383.85
413.31	440.02
413.50	444.70
413.69	365.12
413.88	470.45
414.07	477.47
414.26	442.36
414.45	440.02
414.64	339.38
414.83	470.45
415.02	407.25
415.22	421.30
415.41	362.78
415.60	388.53
415.79	470.45
415.98	435.34
416.17	404.91
416.36	475.13
416.55	423.64
416.74	428.32
416.93	376.83
417.12	360.44
417.31	447.04
417.50	381.51
417.69	442.36
417.88	454.06
418.07	365.12
418.26	442.36
418.45	463.43
418.64	468.11
418.83	463.43
419.02	355.76
419.21	423.64
419.39	451.72
419.58	447.04
419.77	369.80
419.96	388.53
420.15	416.62
420.34	475.13
420.53	430.66
420.72	425.98
420.91	397.89
421.10	402.57
421.29	348.74
421.48	484.49
421.67	472.79
421.86	400.23
422.05	390.87
422.24	332.36
422.43	367.46
422.61	318.31
422.80	421.30
422.99	346.40
423.18	423.64
423.37	437.68
423.56	414.27
423.75	386.19
423.94	381.51
424.13	386.19
424.32	416.62
424.50	428.32
424.69	374.49
424.88	454.06
425.07	390.87
425.26	390.87
425.45	397.89
425.64	362.78
425.83	379.17
426.01	402.57
426.20	440.02
426.39	407.25
426.58	428.32
426.77	477.47
426.96	376.83
427.15	407.25
427.33	369.80
427.52	353.42
427.71	440.02
427.90	369.80
428.09	344.06
428.28	423.64
428.46	402.57
428.65	367.46
428.84	386.19
429.03	414.27
429.22	367.46
429.40	346.40
429.59	444.70
429.78	442.36
429.97	386.19
430.16	418.96
430.34	425.98
430.53	376.83
430.72	418.96
430.91	376.83
431.10	332.36
431.28	327.68
431.47	393.21
431.66	376.83
431.85	409.59
432.03	383.85
432.22	451.72
432.41	374.49
432.60	451.72
432.79	390.87
432.97	463.43
433.16	421.30
433.35	376.83
433.54	362.78
433.72	404.91
433.91	430.66
434.10	470.45
434.28	437.68
434.47	416.62
434.66	381.51
434.85	411.93
435.03	362.78
435.22	498.53
435.41	402.57
435.59	395.55
435.78	444.70
435.97	397.89
436.16	493.85
436.34	409.59
436.53	386.19
436.72	458.74
436.90	425.98
437.09	369.80
437.28	376.83
437.46	404.91
437.65	365.12
437.84	421.30
438.02	437.68
438.21	456.40
438.40	440.02
438.58	374.49
438.77	404.91
438.96	409.59
439.14	390.87
439.33	463.43
439.52	468.11
439.70	433.00
439.89	442.36
440.08	447.04
440.26	402.57
440.45	348.74
440.63	447.04
440.82	470.45
441.01	407.25
441.19	414.27
441.38	416.62
441.57	344.06
441.75	423.64
441.94	444.70
442.12	388.53
442.31	411.93
442.50	409.59
442.68	360.44
442.87	442.36
443.05	393.21
443.24	390.87
443.43	440.02
443.61	372.15
443.80	411.93
443.98	421.30
444.17	379.17
444.35	404.91
444.54	397.89
444.73	425.98
444.91	454.06
445.10	285.55
445.28	458.74
445.47	423.64
445.65	386.19
445.84	388.53
446.02	472.79
446.21	475.13
446.39	395.55
446.58	418.96
446.77	341.72
446.95	372.15
447.14	435.34
447.32	435.34
447.51	353.42
447.69	428.32
447.88	451.72
448.06	440.02
448.25	386.19
448.43	395.55
448.62	416.62
448.80	430.66
448.99	409.59
449.17	393.21
449.36	369.80
449.54	386.19
449.73	411.93
449.91	351.08
450.10	400.23
450.28	447.04
450.46	430.66
450.65	402.57
450.83	484.49
451.02	390.87
451.20	383.85
451.39	358.10
451.57	362.78
451.76	416.62
451.94	456.40
452.13	365.12
452.31	414.27
452.49	435.34
452.68	454.06
452.86	376.83
453.05	500.87
453.23	407.25
453.42	414.27
453.60	395.55
453.78	421.30
453.97	358.10
454.15	393.21
454.34	372.15
454.52	409.59
454.70	404.91
454.89	465.77
455.07	332.36
455.26	369.80
455.44	358.10
455.62	435.34
455.81	369.80
455.99	433.00
456.17	470.45
456.36	397.89
456.54	397.89
456.73	421.30
456.91	315.97
457.09	402.57
457.28	393.21
457.46	353.42
457.64	400.23
457.83	360.44
458.01	416.62
458.19	421.30
458.38	397.89
458.56	379.17
458.74	365.12
458.93	411.93
459.11	409.59
459.29	369.80
459.48	503.22
459.66	423.64
459.84	491.51
460.03	430.66
460.21	470.45
460.39	421.30
460.57	388.53
460.76	367.46
460.94	470.45
461.12	477.47
461.31	447.04
461.49	444.70
461.67	358.10
461.85	416.62
462.04	358.10
462.22	800.46
462.40	390.87
462.59	451.72
462.77	376.83
462.95	451.72
463.13	461.09
463.32	430.66
463.50	402.57
463.68	411.93
463.86	341.72
464.05	458.74
464.23	454.06
464.41	458.74
464.59	390.87
464.78	409.59
464.96	388.53
465.14	397.89
465.32	381.51
465.50	383.85
465.69	416.62
465.87	292.57
466.05	425.98
466.23	395.55
466.41	428.32
466.60	397.89
466.78	421.30
466.96	430.66
467.14	414.27
467.32	409.59
467.51	404.91
467.69	402.57
467.87	491.51
468.05	437.68
468.23	423.64
468.41	409.59
468.60	470.45
468.78	472.79
468.96	402.57
469.14	437.68
469.32	421.30
469.50	390.87
469.69	482.15
469.87	404.91
470.05	435.34
470.23	507.90
470.41	423.64
470.59	404.91
470.77	447.04
470.95	414.27
471.14	397.89
471.32	383.85
471.50	437.68
471.68	365.12
471.86	442.36
472.04	423.64
472.22	294.91
472.40	383.85
472.58	435.34
472.77	425.98
472.95	430.66
473.13	454.06
473.31	484.49
473.49	430.66
473.67	414.27
473.85	416.62
474.03	425.98
474.21	395.55
474.39	418.96
474.57	475.13
474.75	425.98
474.93	367.46
475.12	444.70
475.30	390.87
475.48	348.74
475.66	425.98
475.84	390.87
476.02	442.36
476.20	393.21
476.38	442.36
476.56	521.94
476.74	454.06
476.92	402.57
477.10	418.96
477.28	383.85
477.46	428.32
477.64	409.59
477.82	372.15
478.00	402.57
478.18	334.70
478.36	395.55
478.54	362.78
478.72	372.15
478.90	414.27
479.08	402.57
479.26	440.02
479.44	355.76
479.62	404.91
479.80	402.57
479.98	409.59
480.16	388.53
480.34	365.12
480.52	418.96
480.70	390.87
480.88	435.34
481.06	388.53
481.24	440.02
481.41	414.27
481.59	479.81
481.77	390.87
481.95	430.66
482.13	433.00
482.31	397.89
482.49	442.36
482.67	449.38
482.85	505.56
483.03	435.34
483.21	425.98
483.39	423.64
483.57	456.40
483.74	423.64
483.92	402.57
484.10	447.04
484.28	418.96
484.46	430.66
484.64	407.25
484.82	435.34
485.00	458.74
485.18	400.23
485.35	444.70
485.53	374.49
485.71	409.59
485.89	388.53
486.07	390.87
486.25	440.02
486.43	430.66
486.61	402.57
486.78	407.25
486.96	383.85
487.14	437.68
487.32	404.91
487.50	421.30
487.68	447.04
487.85	393.21
488.03	423.64
488.21	486.83
488.39	440.02
488.57	346.40
488.75	400.23
488.92	547.69
489.10	458.74
489.28	498.53
489.46	458.74
489.64	374.49
489.81	442.36
489.99	369.80
490.17	369.80
490.35	482.15
490.53	437.68
490.70	468.11
490.88	496.19
491.06	376.83
491.24	449.38
491.41	409.59
491.59	409.59
491.77	442.36
491.95	456.40
492.13	407.25
492.30	386.19
492.48	383.85
492.66	416.62
492.84	404.91
493.01	451.72
493.19	425.98
493.37	381.51
493.54	404.91
493.72	367.46
493.90	390.87
494.08	409.59
494.25	383.85
494.43	421.30
494.61	374.49
494.79	402.57
494.96	393.21
495.14	411.93
495.32	437.68
495.49	374.49
495.67	386.19
495.85	407.25
496.02	416.62
496.20	510.24
496.38	440.02
496.55	505.56
496.73	421.30
496.91	379.17
497.09	404.91
497.26	477.47
497.44	393.21
497.62	468.11
497.79	491.51
497.97	484.49
498.14	416.62
498.32	454.06
498.50	341.72
498.67	388.53
498.85	447.04
499.03	449.38
499.20	400.23
499.38	503.22
499.56	397.89
499.73	397.89
499.91	463.43
500.08	461.09
500.26	463.43
500.44	461.09
500.61	451.72
500.79	402.57
500.97	418.96
501.14	447.04
501.32	465.77
501.49	475.13
501.67	407.25
501.84	388.53
502.02	416.62
502.20	489.17
502.37	461.09
502.55	390.87
502.72	409.59
502.90	351.08
503.07	418.96
503.25	339.38
503.43	433.00
503.60	369.80
503.78	425.98
503.95	402.57
504.13	433.00
504.30	411.93
504.48	400.23
504.65	447.04
504.83	440.02
505.01	397.89
505.18	358.10
505.36	425.98
505.53	325.33
505.71	397.89
505.88	437.68
506.06	341.72
506.23	369.80
506.41	416.62
506.58	465.77
506.76	372.15
506.93	416.62
507.11	437.68
507.28	451.72
507.46	383.85
507.63	374.49
507.81	383.85
507.98	407.25
508.16	418.96
508.33	449.38
508.50	390.87
508.68	393.21
508.85	344.06
509.03	390.87
509.20	348.74
509.38	423.64
509.55	360.44
509.73	402.57
509.90	482.15
510.08	376.83
510.25	348.74
510.42	360.44
510.60	400.23
510.77	381.51
510.95	512.58
511.12	442.36
511.30	386.19
511.47	440.02
511.64	503.22
511.82	400.23
511.99	367.46
512.17	442.36
512.34	402.57
512.51	463.43
512.69	451.72
512.86	557.05
513.04	383.85
513.21	468.11
513.38	479.81
513.56	425.98
513.73	465.77
513.90	334.70
514.08	416.62
514.25	454.06
514.43	430.66
514.60	411.93
514.77	376.83
514.95	472.79
515.12	367.46
515.29	367.46
515.47	386.19
515.64	435.34
515.81	381.51
515.99	472.79
516.16	416.62
516.33	442.36
516.51	386.19
516.68	411.93
516.85	395.55
517.03	353.42
517.20	435.34
517.37	393.21
517.54	365.12
517.72	369.80
517.89	388.53
518.06	428.32
518.24	433.00
518.41	433.00
518.58	418.96
518.75	411.93
518.93	484.49
519.10	461.09
519.27	393.21
519.45	388.53
519.62	339.38
519.79	454.06
519.96	365.12
520.14	451.72
520.31	458.74
520.48	430.66
520.65	379.17
520.83	447.04
521.00	463.43
521.17	404.91
521.34	425.98
521.52	404.91
521.69	447.04
521.86	498.53
522.03	449.38
522.20	376.83
522.38	470.45
522.55	416.62
522.72	383.85
522.89	468.11
523.07	496.19
523.24	477.47
523.41	388.53
523.58	440.02
523.75	437.68
523.92	397.89
524.10	400.23
524.27	449.38
524.44	395.55
524.61	407.25
524.78	374.49
524.96	400.23
525.13	447.04
525.30	425.98
525.47	451.72
525.64	465.77
525.81	421.30
525.98	390.87
526.16	442.36
526.33	372.15
526.50	451.72
526.67	442.36
526.84	416.62
527.01	418.96
527.18	458.74
527.36	458.74
527.53	397.89
527.70	402.57
527.87	444.70
528.04	503.22
528.21	463.43
528.38	435.34
528.55	390.87
528.72	430.66
528.89	470.45
529.07	468.11
529.24	400.23
529.41	484.49
529.58	416.62
529.75	402.57
529.92	421.30
530.09	393.21
530.26	402.57
530.43	425.98
530.60	442.36
530.77	430.66
530.94	454.06
531.11	388.53
531.28	416.62
531.46	416.62
531.63	418.96
531.80	379.17
531.97	458.74
532.14	472.79
532.31	435.34
532.48	430.66
532.65	435.34
532.82	437.68
532.99	449.38
533.16	430.66
533.33	365.12
533.50	430.66
533.67	374.49
533.84	437.68
534.01	472.79
534.18	369.80
534.35	482.15
534.52	395.55
534.69	411.93
534.86	358.10
535.03	397.89
535.20	348.74
535.37	402.57
535.54	409.59
535.71	388.53
535.88	458.74
536.05	423.64
536.22	337.04
536.38	400.23
536.55	409.59
536.72	369.80
536.89	423.64
537.06	428.32
537.23	423.64
537.40	327.68
537.57	383.85
537.74	463.43
537.91	376.83
538.08	437.68
538.25	393.21
538.42	440.02
538.59	423.64
538.75	430.66
538.92	362.78
539.09	447.04
539.26	409.59
539.43	430.66
539.60	383.85
539.77	456.40
539.94	390.87
540.11	404.91
540.28	407.25
540.44	435.34
540.61	383.85
540.78	318.31
540.95	330.02
541.12	404.91
541.29	444.70
541.46	468.11
541.62	355.76
541.79	428.32
541.96	433.00
542.13	463.43
542.30	440.02
542.47	503.22
542.63	353.42
542.80	496.19
542.97	418.96
543.14	454.06
543.31	447.04
543.48	390.87
543.64	374.49
543.81	407.25
543.98	376.83
544.15	400.23
544.32	386.19
544.48	421.30
544.65	444.70
544.82	344.06
544.99	386.19
545.16	433.00
545.32	428.32
545.49	482.15
545.66	430.66
545.83	440.02
546.00	428.32
546.16	327.68
546.33	346.40
546.50	454.06
546.67	456.40
546.83	470.45
547.00	435.34
547.17	435.34
547.34	348.74
547.50	388.53
547.67	376.83
547.84	360.44
548.00	440.02
548.17	447.04
548.34	442.36
548.51	507.90
548.67	486.83
548.84	423.64
549.01	404.91
549.18	430.66
549.34	449.38
549.51	456.40
549.68	428.32
549.84	447.04
550.01	409.59
550.18	505.56
550.34	440.02
550.51	477.47
550.68	437.68
550.84	395.55
551.01	512.58
551.18	470.45
551.34	442.36
551.51	407.25
551.68	454.06
551.84	365.12
552.01	341.72
552.18	442.36
552.34	484.49
552.51	400.23
552.68	425.98
552.84	383.85
553.01	440.02
553.18	461.09
553.34	395.55
553.51	465.77
553.67	456.40
553.84	334.70
554.01	393.21
554.17	369.80
554.34	416.62
554.51	442.36
554.67	430.66
554.84	442.36
555.00	388.53
555.17	463.43
555.33	489.17
555.50	362.78
555.67	463.43
555.83	404.91
556.00	402.57
556.16	545.34
556.33	416.62
556.50	360.44
556.66	416.62
556.83	475.13
556.99	372.15
557.16	425.98
557.32	407.25
557.49	362.78
557.65	362.78
557.82	433.00
557.98	437.68
558.15	404.91
558.32	461.09
558.48	430.66
558.65	449.38
558.81	411.93
558.98	465.77
559.14	458.74
559.31	360.44
559.47	372.15
559.64	416.62
559.80	444.70
559.97	355.76
560.13	440.02
560.30	442.36
560.46	475.13
560.63	423.64
560.79	428.32
560.96	369.80
561.12	400.23
561.29	407.25
561.45	482.15
561.61	395.55
561.78	472.79
561.94	461.09
562.11	496.19
562.27	407.25
562.44	407.25
562.60	400.23
562.77	393.21
562.93	475.13
563.10	414.27
563.26	402.57
563.42	425.98
563.59	444.70
563.75	451.72
563.92	456.40
564.08	454.06
564.24	447.04
564.41	484.49
564.57	472.79
564.74	423.64
564.90	353.42
565.07	449.38
565.23	383.85
565.39	407.25
565.56	395.55
565.72	449.38
565.88	458.74
566.05	332.36
566.21	348.74
566.38	395.55
566.54	418.96
566.70	447.04
566.87	400.23
567.03	388.53
567.19	458.74
567.36	362.78
567.52	430.66
567.68	437.68
567.85	400.23
568.01	461.09
568.17	402.57
568.34	472.79
568.50	463.43
568.66	421.30
568.83	540.66
568.99	383.85
569.15	475.13
569.32	395.55
569.48	411.93
569.64	383.85
569.81	404.91
569.97	402.57
570.13	381.51
570.30	428.32
570.46	447.04
570.62	397.89
570.78	433.00
570.95	451.72
571.11	437.68
571.27	390.87
571.43	351.08
571.60	407.25
571.76	393.21
571.92	346.40
572.09	334.70
572.25	337.04
572.41	414.27
572.57	482.15
572.74	430.66
572.90	475.13
573.06	470.45
573.22	400.23
573.38	444.70
573.55	449.38
573.71	362.78
573.87	374.49
574.03	383.85
574.20	367.46
574.36	458.74
574.52	404.91
574.68	414.27
574.84	433.00
575.01	390.87
575.17	465.77
575.33	461.09
575.49	475.13
575.65	388.53
575.82	447.04
575.98	421.30
576.14	393.21
576.30	325.33
576.46	383.85
576.62	416.62
576.79	411.93
576.95	550.03
577.11	510.24
577.27	372.15
577.43	512.58
577.59	402.57
577.75	444.70
577.92	454.06
578.08	489.17
578.24	470.45
578.40	425.98
578.56	440.02
578.72	433.00
578.88	423.64
579.04	390.87
579.21	386.19
579.37	351.08
579.53	400.23
579.69	486.83
579.85	402.57
580.01	447.04
580.17	442.36
580.33	407.25
580.49	351.08
580.65	416.62
580.82	463.43
580.98	407.25
581.14	365.12
581.30	456.40
581.46	404.91
581.62	402.57
581.78	461.09
581.94	433.00
582.10	381.51
582.26	440.02
582.42	360.44
582.58	407.25
582.74	404.91
582.90	430.66
583.06	435.34
583.22	423.64
583.38	437.68
583.54	393.21
583.70	388.53
583.86	365.12
584.02	416.62
584.18	341.72
584.34	430.66
584.50	449.38
584.66	411.93
584.82	416.62
584.98	449.38
585.14	369.80
585.30	477.47
585.46	369.80
585.62	397.89
585.78	367.46
585.94	400.23
586.10	358.10
586.26	400.23
586.42	402.57
586.58	411.93
586.74	449.38
586.90	428.32
587.06	374.49
587.22	465.77
587.38	407.25
587.54	449.38
587.70	423.64
587.86	423.64
588.02	423.64
588.18	400.23
588.34	416.62
588.49	386.19
588.65	407.25
588.81	433.00
588.97	383.85
589.13	393.21
589.29	416.62
589.45	423.64
589.61	451.72
589.77	440.02
589.93	407.25
590.08	414.27
590.24	374.49
590.40	444.70
590.56	374.49
590.72	306.61
590.88	383.85
591.04	425.98
591.20	463.43
591.35	425.98
591.51	360.44
591.67	411.93
591.83	447.04
591.99	423.64
592.15	458.74
592.31	404.91
592.46	379.17
592.62	477.47
592.78	400.23
592.94	374.49
593.10	416.62
593.26	367.46
593.41	383.85
593.57	400.23
593.73	507.90
593.89	397.89
594.05	423.64
594.20	451.72
594.36	437.68
594.52	365.12
594.68	379.17
594.84	395.55
594.99	482.15
595.15	388.53
595.31	435.34
595.47	493.85
595.62	461.09
595.78	411.93
595.94	449.38
596.10	498.53
596.25	393.21
596.41	383.85
596.57	353.42
596.73	393.21
596.88	421.30
597.04	397.89
597.20	479.81
597.36	411.93
597.51	447.04
597.67	433.00
597.83	411.93
597.99	456.40
598.14	430.66
598.30	374.49
598.46	390.87
598.61	491.51
598.77	425.98
598.93	409.59
599.09	442.36
599.24	423.64
599.40	482.15
599.56	397.89
599.71	463.43
599.87	348.74
600.03	425.98
600.18	477.47
600.34	437.68
600.50	395.55
600.65	367.46
600.81	404.91
600.97	327.68
601.12	440.02
601.28	444.70
601.44	456.40
601.59	414.27
601.75	402.57
601.91	379.17
602.06	454.06
602.22	484.49
602.37	416.62
602.53	400.23
602.69	428.32
602.84	355.76
603.00	376.83
603.16	386.19
603.31	442.36
603.47	397.89
603.62	376.83
603.78	355.76
603.94	425.98
604.09	402.57
604.25	416.62
604.40	454.06
604.56	390.87
604.71	437.68
604.87	454.06
605.03	393.21
605.18	376.83
605.34	510.24
605.49	393.21
605.65	360.44
605.80	365.12
605.96	458.74
606.12	390.87
606.27	372.15
606.43	475.13
606.58	325.33
606.74	372.15
606.89	393.21
607.05	447.04
607.20	440.02
607.36	433.00
607.51	411.93
607.67	400.23
607.82	390.87
607.98	423.64
608.13	425.98
608.29	449.38
608.44	400.23
608.60	456.40
608.75	447.04
608.91	433.00
609.06	348.74
609.22	379.17
609.37	451.72
609.53	348.74
609.68	421.30
609.84	376.83
609.99	458.74
610.15	404.91
