SpectraSuite Data File
++++++++++++++++++++++++++++++++++++
Date: Fri Oct 25 12:10:37 EDT 2013
User: price-jones
Dark Spectrum Present: No
Reference Spectrum Present: No
Number of Sampled Component Spectra: 1
Spectrometers: USB2+H05261
Integration Time (usec): 100000 (USB2+H05261)
Spectra Averaged: 1 (USB2+H05261)
Boxcar Smoothing: 0 (USB2+H05261)
Correct for Electrical Dark: No (USB2+H05261)
Strobe/Lamp Enabled: No (USB2+H05261)
Correct for Detector Non-linearity: No (USB2+H05261)
Correct for Stray Light: No (USB2+H05261)
Number of Pixels in Processed Spectrum: 2048
>>>>>Begin Processed Spectral Data<<<<<
365.73	379.17
365.92	379.17
366.12	379.17
366.32	217.67
366.52	234.05
366.72	301.93
366.91	245.76
367.11	227.03
367.31	215.33
367.51	210.65
367.70	212.99
367.90	292.57
368.10	245.76
368.30	280.86
368.49	245.76
368.69	297.25
368.89	238.73
369.09	231.71
369.28	266.82
369.48	238.73
369.68	292.57
369.87	299.59
370.07	306.61
370.27	358.10
370.47	297.25
370.66	346.40
370.86	325.33
371.06	369.80
371.25	341.72
371.45	372.15
371.65	353.42
371.84	346.40
372.04	362.78
372.24	414.27
372.44	444.70
372.63	437.68
372.83	444.70
373.03	458.74
373.22	348.74
373.42	393.21
373.62	484.49
373.81	444.70
374.01	365.12
374.21	355.76
374.40	346.40
374.60	456.40
374.79	449.38
374.99	435.34
375.19	414.27
375.38	456.40
375.58	442.36
375.78	390.87
375.97	372.15
376.17	498.53
376.37	409.59
376.56	477.47
376.76	369.80
376.95	430.66
377.15	425.98
377.35	472.79
377.54	409.59
377.74	393.21
377.93	348.74
378.13	447.04
378.33	376.83
378.52	383.85
378.72	484.49
378.91	418.96
379.11	407.25
379.31	425.98
379.50	376.83
379.70	358.10
379.89	430.66
380.09	407.25
380.28	433.00
380.48	327.68
380.68	423.64
380.87	322.99
381.07	416.62
381.26	404.91
381.46	407.25
381.65	365.12
381.85	416.62
382.04	400.23
382.24	388.53
382.43	425.98
382.63	322.99
382.83	463.43
383.02	390.87
383.22	355.76
383.41	390.87
383.61	362.78
383.80	465.77
384.00	383.85
384.19	367.46
384.39	418.96
384.58	421.30
384.78	365.12
384.97	402.57
385.17	390.87
385.36	379.17
385.56	379.17
385.75	362.78
385.95	440.02
386.14	465.77
386.34	402.57
386.53	376.83
386.72	386.19
386.92	430.66
387.11	397.89
387.31	407.25
387.50	428.32
387.70	393.21
387.89	440.02
388.09	332.36
388.28	374.49
388.48	365.12
388.67	428.32
388.86	440.02
389.06	393.21
389.25	428.32
389.45	440.02
389.64	404.91
389.84	372.15
390.03	440.02
390.22	346.40
390.42	409.59
390.61	351.08
390.81	442.36
391.00	397.89
391.19	330.02
391.39	379.17
391.58	454.06
391.78	346.40
391.97	367.46
392.16	397.89
392.36	423.64
392.55	428.32
392.75	400.23
392.94	437.68
393.13	411.93
393.33	447.04
393.52	383.85
393.71	388.53
393.91	397.89
394.10	390.87
394.29	447.04
394.49	423.64
394.68	423.64
394.88	409.59
395.07	393.21
395.26	372.15
395.46	390.87
395.65	365.12
395.84	477.47
396.04	498.53
396.23	451.72
396.42	376.83
396.62	458.74
396.81	416.62
397.00	442.36
397.19	353.42
397.39	433.00
397.58	442.36
397.77	381.51
397.97	374.49
398.16	425.98
398.35	425.98
398.55	444.70
398.74	435.34
398.93	430.66
399.12	425.98
399.32	477.47
399.51	411.93
399.70	351.08
399.90	376.83
400.09	365.12
400.28	444.70
400.47	337.04
400.67	386.19
400.86	418.96
401.05	451.72
401.24	421.30
401.44	425.98
401.63	367.46
401.82	365.12
402.01	379.17
402.21	393.21
402.40	400.23
402.59	423.64
402.78	463.43
402.97	456.40
403.17	461.09
403.36	454.06
403.55	351.08
403.74	430.66
403.93	397.89
404.13	423.64
404.32	416.62
404.51	386.19
404.70	444.70
404.89	327.68
405.09	411.93
405.28	418.96
405.47	402.57
405.66	395.55
405.85	456.40
406.05	367.46
406.24	332.36
406.43	381.51
406.62	409.59
406.81	454.06
407.00	447.04
407.20	386.19
407.39	369.80
407.58	433.00
407.77	330.02
407.96	376.83
408.15	416.62
408.34	369.80
408.54	409.59
408.73	435.34
408.92	411.93
409.11	470.45
409.30	433.00
409.49	442.36
409.68	421.30
409.87	374.49
410.07	379.17
410.26	414.27
410.45	367.46
410.64	379.17
410.83	449.38
411.02	435.34
411.21	468.11
411.40	411.93
411.59	414.27
411.78	344.06
411.98	454.06
412.17	376.83
412.36	416.62
412.55	437.68
412.74	358.10
412.93	447.04
413.12	322.99
413.31	390.87
413.50	386.19
413.69	451.72
413.88	440.02
414.07	461.09
414.26	372.15
414.45	355.76
414.64	435.34
414.83	327.68
415.02	388.53
415.22	400.23
415.41	374.49
415.60	374.49
415.79	341.72
415.98	437.68
416.17	367.46
416.36	369.80
416.55	383.85
416.74	442.36
416.93	365.12
417.12	374.49
417.31	416.62
417.50	411.93
417.69	418.96
417.88	358.10
418.07	365.12
418.26	372.15
418.45	414.27
418.64	381.51
418.83	425.98
419.02	397.89
419.21	440.02
419.39	430.66
419.58	379.17
419.77	376.83
419.96	411.93
420.15	393.21
420.34	381.51
420.53	388.53
420.72	428.32
420.91	404.91
421.10	425.98
421.29	449.38
421.48	425.98
421.67	423.64
421.86	358.10
422.05	381.51
422.24	423.64
422.43	418.96
422.61	379.17
422.80	315.97
422.99	416.62
423.18	425.98
423.37	442.36
423.56	339.38
423.75	337.04
423.94	362.78
424.13	437.68
424.32	332.36
424.50	425.98
424.69	423.64
424.88	433.00
425.07	388.53
425.26	379.17
425.45	390.87
425.64	393.21
425.83	433.00
426.01	451.72
426.20	442.36
426.39	411.93
426.58	418.96
426.77	365.12
426.96	421.30
427.15	330.02
427.33	362.78
427.52	402.57
427.71	372.15
427.90	353.42
428.09	400.23
428.28	367.46
428.46	369.80
428.65	381.51
428.84	404.91
429.03	397.89
429.22	421.30
429.40	421.30
429.59	442.36
429.78	411.93
429.97	386.19
430.16	451.72
430.34	397.89
430.53	395.55
430.72	369.80
430.91	468.11
431.10	381.51
431.28	423.64
431.47	468.11
431.66	418.96
431.85	348.74
432.03	367.46
432.22	383.85
432.41	425.98
432.60	470.45
432.79	425.98
432.97	402.57
433.16	425.98
433.35	388.53
433.54	397.89
433.72	351.08
433.91	421.30
434.10	409.59
434.28	374.49
434.47	428.32
434.66	407.25
434.85	418.96
435.03	465.77
435.22	468.11
435.41	423.64
435.59	390.87
435.78	402.57
435.97	348.74
436.16	402.57
436.34	407.25
436.53	433.00
436.72	388.53
436.90	425.98
437.09	435.34
437.28	369.80
437.46	425.98
437.65	397.89
437.84	428.32
438.02	397.89
438.21	381.51
438.40	425.98
438.58	360.44
438.77	425.98
438.96	421.30
439.14	402.57
439.33	402.57
439.52	376.83
439.70	339.38
439.89	418.96
440.08	390.87
440.26	393.21
440.45	428.32
440.63	444.70
440.82	404.91
441.01	482.15
441.19	458.74
441.38	475.13
441.57	360.44
441.75	407.25
441.94	414.27
442.12	454.06
442.31	381.51
442.50	376.83
442.68	348.74
442.87	404.91
443.05	381.51
443.24	390.87
443.43	465.77
443.61	486.83
443.80	393.21
443.98	433.00
444.17	409.59
444.35	376.83
444.54	395.55
444.73	369.80
444.91	353.42
445.10	397.89
445.28	374.49
445.47	358.10
445.65	444.70
445.84	430.66
446.02	407.25
446.21	358.10
446.39	428.32
446.58	468.11
446.77	334.70
446.95	414.27
447.14	365.12
447.32	379.17
447.51	423.64
447.69	491.51
447.88	388.53
448.06	463.43
448.25	498.53
448.43	376.83
448.62	381.51
448.80	404.91
448.99	400.23
449.17	463.43
449.36	404.91
449.54	411.93
449.73	430.66
449.91	376.83
450.10	395.55
450.28	465.77
450.46	393.21
450.65	327.68
450.83	390.87
451.02	479.81
451.20	418.96
451.39	430.66
451.57	374.49
451.76	468.11
451.94	461.09
452.13	489.17
452.31	337.04
452.49	458.74
452.68	463.43
452.86	461.09
453.05	369.80
453.23	456.40
453.42	407.25
453.60	489.17
453.78	428.32
453.97	337.04
454.15	437.68
454.34	369.80
454.52	376.83
454.70	486.83
454.89	472.79
455.07	334.70
455.26	388.53
455.44	388.53
455.62	386.19
455.81	386.19
455.99	365.12
456.17	437.68
456.36	386.19
456.54	449.38
456.73	397.89
456.91	411.93
457.09	437.68
457.28	447.04
457.46	395.55
457.64	458.74
457.83	421.30
458.01	411.93
458.19	416.62
458.38	444.70
458.56	416.62
458.74	402.57
458.93	362.78
459.11	428.32
459.29	372.15
459.48	425.98
459.66	414.27
459.84	437.68
460.03	458.74
460.21	428.32
460.39	330.02
460.57	449.38
460.76	390.87
460.94	456.40
461.12	430.66
461.31	477.47
461.49	493.85
461.67	358.10
461.85	393.21
462.04	400.23
462.22	786.42
462.40	421.30
462.59	435.34
462.77	442.36
462.95	433.00
463.13	444.70
463.32	423.64
463.50	386.19
463.68	463.43
463.86	409.59
464.05	414.27
464.23	493.85
464.41	468.11
464.59	390.87
464.78	407.25
464.96	440.02
465.14	444.70
465.32	456.40
465.50	418.96
465.69	372.15
465.87	428.32
466.05	470.45
466.23	374.49
466.41	386.19
466.60	458.74
466.78	386.19
466.96	437.68
467.14	414.27
467.32	489.17
467.51	383.85
467.69	393.21
467.87	416.62
468.05	362.78
468.23	458.74
468.41	414.27
468.60	339.38
468.78	372.15
468.96	346.40
469.14	374.49
469.32	477.47
469.50	374.49
469.69	447.04
469.87	463.43
470.05	402.57
470.23	390.87
470.41	376.83
470.59	409.59
470.77	358.10
470.95	442.36
471.14	411.93
471.32	360.44
471.50	393.21
471.68	411.93
471.86	402.57
472.04	386.19
472.22	423.64
472.40	437.68
472.58	442.36
472.77	379.17
472.95	360.44
473.13	470.45
473.31	409.59
473.49	411.93
473.67	449.38
473.85	418.96
474.03	423.64
474.21	416.62
474.39	376.83
474.57	400.23
474.75	407.25
474.93	327.68
475.12	383.85
475.30	435.34
475.48	404.91
475.66	461.09
475.84	381.51
476.02	372.15
476.20	393.21
476.38	404.91
476.56	465.77
476.74	507.90
476.92	351.08
477.10	423.64
477.28	416.62
477.46	423.64
477.64	374.49
477.82	423.64
478.00	395.55
478.18	456.40
478.36	465.77
478.54	449.38
478.72	386.19
478.90	437.68
479.08	407.25
479.26	355.76
479.44	367.46
479.62	376.83
479.80	409.59
479.98	369.80
480.16	360.44
480.34	423.64
480.52	472.79
480.70	402.57
480.88	386.19
481.06	397.89
481.24	418.96
481.41	440.02
481.59	456.40
481.77	458.74
481.95	440.02
482.13	411.93
482.31	409.59
482.49	390.87
482.67	475.13
482.85	447.04
483.03	404.91
483.21	397.89
483.39	433.00
483.57	397.89
483.74	496.19
483.92	374.49
484.10	330.02
484.28	402.57
484.46	402.57
484.64	498.53
484.82	374.49
485.00	402.57
485.18	428.32
485.35	447.04
485.53	355.76
485.71	475.13
485.89	444.70
486.07	416.62
486.25	451.72
486.43	393.21
486.61	386.19
486.78	395.55
486.96	414.27
487.14	388.53
487.32	447.04
487.50	388.53
487.68	505.56
487.85	451.72
488.03	339.38
488.21	411.93
488.39	416.62
488.57	433.00
488.75	465.77
488.92	535.98
489.10	397.89
489.28	407.25
489.46	351.08
489.64	381.51
489.81	362.78
489.99	451.72
490.17	400.23
490.35	505.56
490.53	451.72
490.70	379.17
490.88	428.32
491.06	418.96
491.24	376.83
491.41	435.34
491.59	461.09
491.77	353.42
491.95	402.57
492.13	395.55
492.30	393.21
492.48	454.06
492.66	388.53
492.84	414.27
493.01	386.19
493.19	416.62
493.37	418.96
493.54	407.25
493.72	416.62
493.90	437.68
494.08	421.30
494.25	411.93
494.43	458.74
494.61	447.04
494.79	468.11
494.96	418.96
495.14	386.19
495.32	437.68
495.49	449.38
495.67	339.38
495.85	475.13
496.02	435.34
496.20	425.98
496.38	430.66
496.55	327.68
496.73	465.77
496.91	411.93
497.09	411.93
497.26	407.25
497.44	428.32
497.62	414.27
497.79	353.42
497.97	365.12
498.14	386.19
498.32	423.64
498.50	444.70
498.67	346.40
498.85	425.98
499.03	365.12
499.20	409.59
499.38	325.33
499.56	442.36
499.73	430.66
499.91	383.85
500.08	433.00
500.26	360.44
500.44	376.83
500.61	449.38
500.79	475.13
500.97	451.72
501.14	425.98
501.32	437.68
501.49	409.59
501.67	402.57
501.84	409.59
502.02	414.27
502.20	407.25
502.37	393.21
502.55	365.12
502.72	425.98
502.90	479.81
503.07	409.59
503.25	416.62
503.43	390.87
503.60	362.78
503.78	437.68
503.95	409.59
504.13	414.27
504.30	390.87
504.48	407.25
504.65	423.64
504.83	404.91
505.01	353.42
505.18	447.04
505.36	430.66
505.53	425.98
505.71	362.78
505.88	433.00
506.06	397.89
506.23	372.15
506.41	428.32
506.58	388.53
506.76	418.96
506.93	423.64
507.11	433.00
507.28	388.53
507.46	451.72
507.63	444.70
507.81	402.57
507.98	397.89
508.16	360.44
508.33	451.72
508.50	442.36
508.68	409.59
508.85	334.70
509.03	407.25
509.20	400.23
509.38	507.90
509.55	418.96
509.73	362.78
509.90	404.91
510.08	337.04
510.25	421.30
510.42	425.98
510.60	383.85
510.77	451.72
510.95	454.06
511.12	468.11
511.30	433.00
511.47	435.34
511.64	482.15
511.82	362.78
511.99	423.64
512.17	313.63
512.34	430.66
512.51	383.85
512.69	393.21
512.86	454.06
513.04	388.53
513.21	388.53
513.38	409.59
513.56	341.72
513.73	421.30
513.90	341.72
514.08	367.46
514.25	418.96
514.43	407.25
514.60	447.04
514.77	411.93
514.95	360.44
515.12	425.98
515.29	339.38
515.47	421.30
515.64	437.68
515.81	416.62
515.99	484.49
516.16	458.74
516.33	477.47
516.51	458.74
516.68	374.49
516.85	433.00
517.03	381.51
517.20	330.02
517.37	395.55
517.54	393.21
517.72	463.43
517.89	479.81
518.06	428.32
518.24	451.72
518.41	425.98
518.58	456.40
518.75	456.40
518.93	425.98
519.10	400.23
519.27	414.27
519.45	311.29
519.62	362.78
519.79	433.00
519.96	383.85
520.14	425.98
520.31	416.62
520.48	376.83
520.65	463.43
520.83	421.30
521.00	440.02
521.17	444.70
521.34	397.89
521.52	393.21
521.69	416.62
521.86	369.80
522.03	479.81
522.20	451.72
522.38	358.10
522.55	418.96
522.72	425.98
522.89	402.57
523.07	496.19
523.24	444.70
523.41	409.59
523.58	407.25
523.75	374.49
523.92	386.19
524.10	503.22
524.27	421.30
524.44	388.53
524.61	465.77
524.78	421.30
524.96	416.62
525.13	425.98
525.30	395.55
525.47	479.81
525.64	465.77
525.81	472.79
525.98	390.87
526.16	468.11
526.33	376.83
526.50	379.17
526.67	386.19
526.84	435.34
527.01	433.00
527.18	428.32
527.36	444.70
527.53	325.33
527.70	372.15
527.87	367.46
528.04	395.55
528.21	440.02
528.38	451.72
528.55	409.59
528.72	440.02
528.89	395.55
529.07	465.77
529.24	421.30
529.41	472.79
529.58	465.77
529.75	379.17
529.92	442.36
530.09	397.89
530.26	416.62
530.43	397.89
530.60	407.25
530.77	381.51
530.94	428.32
531.11	390.87
531.28	423.64
531.46	367.46
531.63	461.09
531.80	393.21
531.97	407.25
532.14	355.76
532.31	395.55
532.48	395.55
532.65	341.72
532.82	397.89
532.99	381.51
533.16	428.32
533.33	428.32
533.50	362.78
533.67	411.93
533.84	397.89
534.01	454.06
534.18	435.34
534.35	395.55
534.52	393.21
534.69	423.64
534.86	397.89
535.03	407.25
535.20	437.68
535.37	449.38
535.54	486.83
535.71	393.21
535.88	416.62
536.05	400.23
536.22	376.83
536.38	484.49
536.55	397.89
536.72	444.70
536.89	397.89
537.06	355.76
537.23	365.12
537.40	344.06
537.57	400.23
537.74	447.04
537.91	498.53
538.08	348.74
538.25	393.21
538.42	444.70
538.59	388.53
538.75	472.79
538.92	440.02
539.09	402.57
539.26	388.53
539.43	386.19
539.60	442.36
539.77	442.36
539.94	435.34
540.11	414.27
540.28	470.45
540.44	472.79
540.61	472.79
540.78	353.42
540.95	369.80
541.12	451.72
541.29	423.64
541.46	493.85
541.62	404.91
541.79	365.12
541.96	479.81
542.13	444.70
542.30	397.89
542.47	395.55
542.63	423.64
542.80	449.38
542.97	454.06
543.14	386.19
543.31	442.36
543.48	442.36
543.64	435.34
543.81	414.27
543.98	395.55
544.15	386.19
544.32	421.30
544.48	367.46
544.65	451.72
544.82	435.34
544.99	388.53
545.16	482.15
545.32	353.42
545.49	397.89
545.66	395.55
545.83	390.87
546.00	358.10
546.16	404.91
546.33	414.27
546.50	388.53
546.67	458.74
546.83	449.38
547.00	416.62
547.17	355.76
547.34	404.91
547.50	416.62
547.67	437.68
547.84	421.30
548.00	479.81
548.17	390.87
548.34	433.00
548.51	437.68
548.67	465.77
548.84	400.23
549.01	437.68
549.18	400.23
549.34	435.34
549.51	423.64
549.68	447.04
549.84	428.32
550.01	402.57
550.18	421.30
550.34	440.02
550.51	386.19
550.68	517.26
550.84	362.78
551.01	381.51
551.18	444.70
551.34	411.93
551.51	337.04
551.68	404.91
551.84	458.74
552.01	477.47
552.18	395.55
552.34	423.64
552.51	395.55
552.68	418.96
552.84	433.00
553.01	376.83
553.18	355.76
553.34	416.62
553.51	465.77
553.67	435.34
553.84	433.00
554.01	444.70
554.17	348.74
554.34	421.30
554.51	390.87
554.67	461.09
554.84	414.27
555.00	510.24
555.17	414.27
555.33	393.21
555.50	442.36
555.67	489.17
555.83	414.27
556.00	355.76
556.16	507.90
556.33	418.96
556.50	369.80
556.66	393.21
556.83	484.49
556.99	421.30
557.16	383.85
557.32	372.15
557.49	407.25
557.65	461.09
557.82	428.32
557.98	451.72
558.15	383.85
558.32	440.02
558.48	416.62
558.65	470.45
558.81	461.09
558.98	489.17
559.14	514.92
559.31	430.66
559.47	393.21
559.64	409.59
559.80	425.98
559.97	358.10
560.13	395.55
560.30	430.66
560.46	395.55
560.63	332.36
560.79	447.04
560.96	334.70
561.12	435.34
561.29	339.38
561.45	456.40
561.61	395.55
561.78	425.98
561.94	381.51
562.11	383.85
562.27	409.59
562.44	433.00
562.60	447.04
562.77	449.38
562.93	421.30
563.10	332.36
563.26	461.09
563.42	505.56
563.59	475.13
563.75	409.59
563.92	416.62
564.08	402.57
564.24	386.19
564.41	440.02
564.57	360.44
564.74	451.72
564.90	404.91
565.07	402.57
565.23	334.70
565.39	386.19
565.56	435.34
565.72	433.00
565.88	365.12
566.05	390.87
566.21	430.66
566.38	423.64
566.54	346.40
566.70	393.21
566.87	449.38
567.03	365.12
567.19	395.55
567.36	454.06
567.52	383.85
567.68	416.62
567.85	358.10
568.01	367.46
568.17	355.76
568.34	421.30
568.50	442.36
568.66	381.51
568.83	404.91
568.99	430.66
569.15	423.64
569.32	458.74
569.48	372.15
569.64	458.74
569.81	372.15
569.97	451.72
570.13	510.24
570.30	358.10
570.46	423.64
570.62	447.04
570.78	409.59
570.95	379.17
571.11	409.59
571.27	435.34
571.43	376.83
571.60	456.40
571.76	421.30
571.92	397.89
572.09	423.64
572.25	449.38
572.41	433.00
572.57	411.93
572.74	423.64
572.90	404.91
573.06	421.30
573.22	344.06
573.38	409.59
573.55	397.89
573.71	428.32
573.87	440.02
574.03	383.85
574.20	369.80
574.36	437.68
574.52	472.79
574.68	442.36
574.84	411.93
575.01	400.23
575.17	463.43
575.33	337.04
575.49	400.23
575.65	444.70
575.82	367.46
575.98	428.32
576.14	423.64
576.30	355.76
576.46	360.44
576.62	451.72
576.79	390.87
576.95	465.77
577.11	416.62
577.27	482.15
577.43	376.83
577.59	423.64
577.75	437.68
577.92	360.44
578.08	327.68
578.24	428.32
578.40	407.25
578.56	393.21
578.72	463.43
578.88	381.51
579.04	395.55
579.21	454.06
579.37	444.70
579.53	409.59
579.69	454.06
579.85	402.57
580.01	428.32
580.17	409.59
580.33	395.55
580.49	447.04
580.65	376.83
580.82	428.32
580.98	386.19
581.14	454.06
581.30	416.62
581.46	521.94
581.62	358.10
581.78	365.12
581.94	351.08
582.10	390.87
582.26	369.80
582.42	454.06
582.58	383.85
582.74	388.53
582.90	390.87
583.06	440.02
583.22	400.23
583.38	433.00
583.54	423.64
583.70	475.13
583.86	458.74
584.02	465.77
584.18	376.83
584.34	395.55
584.50	294.91
584.66	435.34
584.82	386.19
584.98	461.09
585.14	411.93
585.30	430.66
585.46	404.91
585.62	418.96
585.78	475.13
585.94	433.00
586.10	435.34
586.26	372.15
586.42	383.85
586.58	447.04
586.74	442.36
586.90	395.55
587.06	465.77
587.22	437.68
587.38	411.93
587.54	407.25
587.70	395.55
587.86	437.68
588.02	400.23
588.18	353.42
588.34	341.72
588.49	411.93
588.65	367.46
588.81	493.85
588.97	351.08
589.13	411.93
589.29	451.72
589.45	449.38
589.61	416.62
589.77	465.77
589.93	337.04
590.08	407.25
590.24	360.44
590.40	458.74
590.56	447.04
590.72	435.34
590.88	425.98
591.04	418.96
591.20	376.83
591.35	440.02
591.51	397.89
591.67	451.72
591.83	383.85
591.99	421.30
592.15	425.98
592.31	454.06
592.46	369.80
592.62	430.66
592.78	402.57
592.94	388.53
593.10	367.46
593.26	393.21
593.41	430.66
593.57	428.32
593.73	451.72
593.89	484.49
594.05	458.74
594.20	428.32
594.36	421.30
594.52	411.93
594.68	414.27
594.84	416.62
594.99	475.13
595.15	402.57
595.31	334.70
595.47	449.38
595.62	503.22
595.78	468.11
595.94	402.57
596.10	428.32
596.25	449.38
596.41	437.68
596.57	411.93
596.73	402.57
596.88	430.66
597.04	374.49
597.20	404.91
597.36	411.93
597.51	372.15
597.67	379.17
597.83	444.70
597.99	442.36
598.14	437.68
598.30	493.85
598.46	440.02
598.61	376.83
598.77	411.93
598.93	444.70
599.09	386.19
599.24	400.23
599.40	395.55
599.56	440.02
599.71	423.64
599.87	442.36
600.03	447.04
600.18	477.47
600.34	418.96
600.50	430.66
600.65	341.72
600.81	395.55
600.97	388.53
601.12	383.85
601.28	454.06
601.44	397.89
601.59	465.77
601.75	400.23
601.91	381.51
602.06	372.15
602.22	416.62
602.37	407.25
602.53	351.08
602.69	421.30
602.84	463.43
603.00	365.12
603.16	479.81
603.31	491.51
603.47	437.68
603.62	428.32
603.78	397.89
603.94	374.49
604.09	379.17
604.25	465.77
604.40	465.77
604.56	444.70
604.71	456.40
604.87	409.59
605.03	479.81
605.18	442.36
605.34	454.06
605.49	383.85
605.65	430.66
605.80	482.15
605.96	402.57
606.12	444.70
606.27	428.32
606.43	402.57
606.58	416.62
606.74	425.98
606.89	463.43
607.05	463.43
607.20	430.66
607.36	472.79
607.51	425.98
607.67	372.15
607.82	442.36
607.98	486.83
608.13	425.98
608.29	465.77
608.44	486.83
608.60	393.21
608.75	479.81
608.91	395.55
609.06	447.04
609.22	458.74
609.37	472.79
609.53	451.72
609.68	440.02
609.84	400.23
609.99	402.57
610.15	437.68
