SpectraSuite Data File
++++++++++++++++++++++++++++++++++++
Date: Fri Oct 25 12:10:33 EDT 2013
User: price-jones
Dark Spectrum Present: No
Reference Spectrum Present: No
Number of Sampled Component Spectra: 1
Spectrometers: USB2+H05261
Integration Time (usec): 100000 (USB2+H05261)
Spectra Averaged: 1 (USB2+H05261)
Boxcar Smoothing: 0 (USB2+H05261)
Correct for Electrical Dark: No (USB2+H05261)
Strobe/Lamp Enabled: No (USB2+H05261)
Correct for Detector Non-linearity: No (USB2+H05261)
Correct for Stray Light: No (USB2+H05261)
Number of Pixels in Processed Spectrum: 2048
>>>>>Begin Processed Spectral Data<<<<<
365.73	318.31
365.92	318.31
366.12	318.31
366.32	243.42
366.52	287.89
366.72	196.60
366.91	313.63
367.11	259.80
367.31	182.56
367.51	208.31
367.70	304.27
367.90	290.23
368.10	262.14
368.30	252.78
368.49	201.29
368.69	257.46
368.89	212.99
369.09	217.67
369.28	259.80
369.48	322.99
369.68	250.44
369.87	252.78
370.07	280.86
370.27	337.04
370.47	320.65
370.66	407.25
370.86	400.23
371.06	330.02
371.25	404.91
371.45	306.61
371.65	362.78
371.84	386.19
372.04	341.72
372.24	433.00
372.44	416.62
372.63	390.87
372.83	404.91
373.03	402.57
373.22	458.74
373.42	360.44
373.62	390.87
373.81	451.72
374.01	421.30
374.21	470.45
374.40	421.30
374.60	470.45
374.79	414.27
374.99	334.70
375.19	442.36
375.38	374.49
375.58	400.23
375.78	423.64
375.97	428.32
376.17	489.17
376.37	381.51
376.56	451.72
376.76	409.59
376.95	440.02
377.15	355.76
377.35	416.62
377.54	447.04
377.74	390.87
377.93	402.57
378.13	395.55
378.33	409.59
378.52	425.98
378.72	458.74
378.91	360.44
379.11	416.62
379.31	451.72
379.50	423.64
379.70	423.64
379.89	383.85
380.09	318.31
380.28	442.36
380.48	376.83
380.68	393.21
380.87	379.17
381.07	393.21
381.26	407.25
381.46	397.89
381.65	400.23
381.85	367.46
382.04	330.02
382.24	433.00
382.43	348.74
382.63	358.10
382.83	365.12
383.02	437.68
383.22	407.25
383.41	374.49
383.61	404.91
383.80	400.23
384.00	421.30
384.19	465.77
384.39	383.85
384.58	449.38
384.78	444.70
384.97	451.72
385.17	435.34
385.36	423.64
385.56	414.27
385.75	390.87
385.95	425.98
386.14	376.83
386.34	428.32
386.53	365.12
386.72	395.55
386.92	456.40
387.11	409.59
387.31	397.89
387.50	454.06
387.70	425.98
387.89	430.66
388.09	435.34
388.28	435.34
388.48	381.51
388.67	418.96
388.86	365.12
389.06	390.87
389.25	374.49
389.45	423.64
389.64	468.11
389.84	451.72
390.03	402.57
390.22	397.89
390.42	463.43
390.61	379.17
390.81	372.15
391.00	440.02
391.19	390.87
391.39	397.89
391.58	381.51
391.78	395.55
391.97	395.55
392.16	362.78
392.36	397.89
392.55	418.96
392.75	418.96
392.94	430.66
393.13	383.85
393.33	395.55
393.52	437.68
393.71	489.17
393.91	355.76
394.10	379.17
394.29	404.91
394.49	451.72
394.68	386.19
394.88	458.74
395.07	430.66
395.26	442.36
395.46	402.57
395.65	421.30
395.84	360.44
396.04	425.98
396.23	433.00
396.42	318.31
396.62	458.74
396.81	475.13
397.00	365.12
397.19	334.70
397.39	372.15
397.58	496.19
397.77	433.00
397.97	440.02
398.16	411.93
398.35	458.74
398.55	400.23
398.74	454.06
398.93	348.74
399.12	428.32
399.32	365.12
399.51	402.57
399.70	414.27
399.90	369.80
400.09	360.44
400.28	416.62
400.47	369.80
400.67	395.55
400.86	437.68
401.05	411.93
401.24	421.30
401.44	435.34
401.63	383.85
401.82	407.25
402.01	428.32
402.21	334.70
402.40	414.27
402.59	430.66
402.78	465.77
402.97	444.70
403.17	447.04
403.36	461.09
403.55	374.49
403.74	444.70
403.93	404.91
404.13	388.53
404.32	421.30
404.51	428.32
404.70	367.46
404.89	322.99
405.09	379.17
405.28	397.89
405.47	360.44
405.66	386.19
405.85	325.33
406.05	351.08
406.24	416.62
406.43	360.44
406.62	428.32
406.81	461.09
407.00	440.02
407.20	337.04
407.39	407.25
407.58	423.64
407.77	456.40
407.96	528.96
408.15	440.02
408.34	402.57
408.54	442.36
408.73	388.53
408.92	437.68
409.11	440.02
409.30	475.13
409.49	437.68
409.68	367.46
409.87	454.06
410.07	374.49
410.26	383.85
410.45	383.85
410.64	341.72
410.83	365.12
411.02	451.72
411.21	456.40
411.40	437.68
411.59	362.78
411.78	376.83
411.98	435.34
412.17	404.91
412.36	414.27
412.55	400.23
412.74	428.32
412.93	425.98
413.12	360.44
413.31	447.04
413.50	332.36
413.69	425.98
413.88	433.00
414.07	376.83
414.26	393.21
414.45	390.87
414.64	463.43
414.83	468.11
415.02	440.02
415.22	447.04
415.41	404.91
415.60	482.15
415.79	430.66
415.98	416.62
416.17	400.23
416.36	381.51
416.55	430.66
416.74	479.81
416.93	444.70
417.12	484.49
417.31	425.98
417.50	353.42
417.69	416.62
417.88	383.85
418.07	395.55
418.26	381.51
418.45	484.49
418.64	379.17
418.83	381.51
419.02	362.78
419.21	407.25
419.39	454.06
419.58	381.51
419.77	428.32
419.96	393.21
420.15	449.38
420.34	444.70
420.53	411.93
420.72	404.91
420.91	402.57
421.10	355.76
421.29	390.87
421.48	369.80
421.67	404.91
421.86	433.00
422.05	397.89
422.24	430.66
422.43	409.59
422.61	433.00
422.80	383.85
422.99	360.44
423.18	447.04
423.37	456.40
423.56	374.49
423.75	414.27
423.94	409.59
424.13	400.23
424.32	418.96
424.50	362.78
424.69	435.34
424.88	376.83
425.07	463.43
425.26	388.53
425.45	498.53
425.64	435.34
425.83	332.36
426.01	414.27
426.20	500.87
426.39	414.27
426.58	437.68
426.77	397.89
426.96	308.95
427.15	346.40
427.33	411.93
427.52	327.68
427.71	414.27
427.90	402.57
428.09	367.46
428.28	414.27
428.46	369.80
428.65	395.55
428.84	339.38
429.03	444.70
429.22	397.89
429.40	355.76
429.59	416.62
429.78	374.49
429.97	372.15
430.16	479.81
430.34	386.19
430.53	355.76
430.72	397.89
430.91	397.89
431.10	451.72
431.28	458.74
431.47	472.79
431.66	390.87
431.85	358.10
432.03	344.06
432.22	423.64
432.41	402.57
432.60	390.87
432.79	383.85
432.97	418.96
433.16	388.53
433.35	390.87
433.54	418.96
433.72	507.90
433.91	435.34
434.10	393.21
434.28	409.59
434.47	425.98
434.66	507.90
434.85	468.11
435.03	411.93
435.22	414.27
435.41	449.38
435.59	383.85
435.78	365.12
435.97	341.72
436.16	430.66
436.34	400.23
436.53	435.34
436.72	435.34
436.90	376.83
437.09	440.02
437.28	416.62
437.46	465.77
437.65	402.57
437.84	395.55
438.02	451.72
438.21	430.66
438.40	404.91
438.58	423.64
438.77	416.62
438.96	369.80
439.14	423.64
439.33	486.83
439.52	461.09
439.70	383.85
439.89	397.89
440.08	383.85
440.26	418.96
440.45	395.55
440.63	320.65
440.82	325.33
441.01	367.46
441.19	423.64
441.38	449.38
441.57	355.76
441.75	479.81
441.94	428.32
442.12	374.49
442.31	409.59
442.50	381.51
442.68	423.64
442.87	390.87
443.05	388.53
443.24	421.30
443.43	393.21
443.61	374.49
443.80	461.09
443.98	425.98
444.17	421.30
444.35	418.96
444.54	440.02
444.73	409.59
444.91	444.70
445.10	390.87
445.28	341.72
445.47	418.96
445.65	404.91
445.84	353.42
446.02	430.66
446.21	383.85
446.39	418.96
446.58	395.55
446.77	376.83
446.95	475.13
447.14	421.30
447.32	407.25
447.51	358.10
447.69	428.32
447.88	362.78
448.06	435.34
448.25	461.09
448.43	365.12
448.62	388.53
448.80	358.10
448.99	414.27
449.17	454.06
449.36	411.93
449.54	510.24
449.73	416.62
449.91	416.62
450.10	449.38
450.28	528.96
450.46	475.13
450.65	449.38
450.83	472.79
451.02	435.34
451.20	449.38
451.39	400.23
451.57	404.91
451.76	365.12
451.94	400.23
452.13	414.27
452.31	376.83
452.49	330.02
452.68	409.59
452.86	411.93
453.05	463.43
453.23	404.91
453.42	365.12
453.60	430.66
453.78	374.49
453.97	372.15
454.15	381.51
454.34	388.53
454.52	353.42
454.70	393.21
454.89	433.00
455.07	414.27
455.26	437.68
455.44	444.70
455.62	358.10
455.81	383.85
455.99	397.89
456.17	411.93
456.36	390.87
456.54	411.93
456.73	470.45
456.91	381.51
457.09	360.44
457.28	395.55
457.46	456.40
457.64	395.55
457.83	416.62
458.01	440.02
458.19	362.78
458.38	400.23
458.56	374.49
458.74	404.91
458.93	421.30
459.11	383.85
459.29	435.34
459.48	388.53
459.66	369.80
459.84	409.59
460.03	554.71
460.21	433.00
460.39	447.04
460.57	390.87
460.76	421.30
460.94	393.21
461.12	369.80
461.31	404.91
461.49	411.93
461.67	468.11
461.85	435.34
462.04	404.91
462.22	732.59
462.40	416.62
462.59	458.74
462.77	437.68
462.95	435.34
463.13	355.76
463.32	388.53
463.50	374.49
463.68	381.51
463.86	372.15
464.05	344.06
464.23	477.47
464.41	458.74
464.59	468.11
464.78	390.87
464.96	365.12
465.14	472.79
465.32	379.17
465.50	355.76
465.69	416.62
465.87	376.83
466.05	383.85
466.23	393.21
466.41	388.53
466.60	358.10
466.78	442.36
466.96	454.06
467.14	437.68
467.32	404.91
467.51	430.66
467.69	411.93
467.87	402.57
468.05	507.90
468.23	435.34
468.41	397.89
468.60	447.04
468.78	376.83
468.96	437.68
469.14	451.72
469.32	360.44
469.50	393.21
469.69	416.62
469.87	447.04
470.05	451.72
470.23	416.62
470.41	383.85
470.59	362.78
470.77	393.21
470.95	418.96
471.14	381.51
471.32	437.68
471.50	451.72
471.68	386.19
471.86	461.09
472.04	400.23
472.22	414.27
472.40	414.27
472.58	402.57
472.77	376.83
472.95	327.68
473.13	458.74
473.31	433.00
473.49	355.76
473.67	369.80
473.85	362.78
474.03	421.30
474.21	388.53
474.39	507.90
474.57	393.21
474.75	402.57
474.93	393.21
475.12	369.80
475.30	395.55
475.48	463.43
475.66	390.87
475.84	433.00
476.02	400.23
476.20	400.23
476.38	362.78
476.56	533.64
476.74	463.43
476.92	430.66
477.10	416.62
477.28	411.93
477.46	449.38
477.64	458.74
477.82	428.32
478.00	409.59
478.18	442.36
478.36	458.74
478.54	388.53
478.72	416.62
478.90	388.53
479.08	477.47
479.26	400.23
479.44	351.08
479.62	351.08
479.80	355.76
479.98	344.06
480.16	447.04
480.34	451.72
480.52	430.66
480.70	423.64
480.88	360.44
481.06	451.72
481.24	414.27
481.41	369.80
481.59	444.70
481.77	477.47
481.95	400.23
482.13	404.91
482.31	372.15
482.49	416.62
482.67	395.55
482.85	461.09
483.03	465.77
483.21	341.72
483.39	374.49
483.57	421.30
483.74	411.93
483.92	402.57
484.10	486.83
484.28	430.66
484.46	484.49
484.64	414.27
484.82	423.64
485.00	383.85
485.18	411.93
485.35	430.66
485.53	416.62
485.71	463.43
485.89	409.59
486.07	351.08
486.25	404.91
486.43	397.89
486.61	458.74
486.78	465.77
486.96	479.81
487.14	411.93
487.32	430.66
487.50	407.25
487.68	437.68
487.85	365.12
488.03	435.34
488.21	423.64
488.39	433.00
488.57	409.59
488.75	414.27
488.92	484.49
489.10	397.89
489.28	430.66
489.46	383.85
489.64	470.45
489.81	451.72
489.99	435.34
490.17	402.57
490.35	430.66
490.53	425.98
490.70	428.32
490.88	409.59
491.06	369.80
491.24	491.51
491.41	477.47
491.59	339.38
491.77	430.66
491.95	369.80
492.13	400.23
492.30	379.17
492.48	402.57
492.66	355.76
492.84	367.46
493.01	433.00
493.19	472.79
493.37	433.00
493.54	397.89
493.72	414.27
493.90	383.85
494.08	365.12
494.25	440.02
494.43	393.21
494.61	369.80
494.79	386.19
494.96	447.04
495.14	468.11
495.32	383.85
495.49	418.96
495.67	383.85
495.85	381.51
496.02	463.43
496.20	454.06
496.38	339.38
496.55	468.11
496.73	390.87
496.91	372.15
497.09	407.25
497.26	390.87
497.44	386.19
497.62	402.57
497.79	393.21
497.97	435.34
498.14	437.68
498.32	449.38
498.50	475.13
498.67	397.89
498.85	395.55
499.03	402.57
499.20	423.64
499.38	386.19
499.56	416.62
499.73	475.13
499.91	374.49
500.08	388.53
500.26	388.53
500.44	414.27
500.61	414.27
500.79	444.70
500.97	444.70
501.14	437.68
501.32	451.72
501.49	374.49
501.67	355.76
501.84	379.17
502.02	348.74
502.20	416.62
502.37	390.87
502.55	318.31
502.72	334.70
502.90	411.93
503.07	353.42
503.25	390.87
503.43	400.23
503.60	402.57
503.78	444.70
503.95	407.25
504.13	433.00
504.30	433.00
504.48	491.51
504.65	411.93
504.83	379.17
505.01	411.93
505.18	440.02
505.36	372.15
505.53	451.72
505.71	407.25
505.88	489.17
506.06	353.42
506.23	411.93
506.41	407.25
506.58	301.93
506.76	386.19
506.93	423.64
507.11	484.49
507.28	395.55
507.46	383.85
507.63	411.93
507.81	414.27
507.98	362.78
508.16	416.62
508.33	383.85
508.50	444.70
508.68	379.17
508.85	449.38
509.03	440.02
509.20	440.02
509.38	355.76
509.55	451.72
509.73	440.02
509.90	465.77
510.08	409.59
510.25	390.87
510.42	437.68
510.60	414.27
510.77	414.27
510.95	397.89
511.12	479.81
511.30	425.98
511.47	404.91
511.64	442.36
511.82	390.87
511.99	411.93
512.17	456.40
512.34	411.93
512.51	390.87
512.69	463.43
512.86	435.34
513.04	372.15
513.21	393.21
513.38	461.09
513.56	409.59
513.73	404.91
513.90	325.33
514.08	395.55
514.25	444.70
514.43	376.83
514.60	437.68
514.77	425.98
514.95	425.98
515.12	372.15
515.29	393.21
515.47	430.66
515.64	498.53
515.81	454.06
515.99	421.30
516.16	425.98
516.33	479.81
516.51	484.49
516.68	430.66
516.85	400.23
517.03	409.59
517.20	435.34
517.37	451.72
517.54	390.87
517.72	425.98
517.89	341.72
518.06	341.72
518.24	414.27
518.41	442.36
518.58	456.40
518.75	376.83
518.93	351.08
519.10	428.32
519.27	407.25
519.45	461.09
519.62	388.53
519.79	461.09
519.96	386.19
520.14	503.22
520.31	428.32
520.48	428.32
520.65	418.96
520.83	423.64
521.00	458.74
521.17	411.93
521.34	428.32
521.52	425.98
521.69	383.85
521.86	402.57
522.03	430.66
522.20	477.47
522.38	369.80
522.55	423.64
522.72	430.66
522.89	444.70
523.07	383.85
523.24	409.59
523.41	447.04
523.58	381.51
523.75	433.00
523.92	486.83
524.10	381.51
524.27	470.45
524.44	447.04
524.61	475.13
524.78	421.30
524.96	390.87
525.13	365.12
525.30	491.51
525.47	386.19
525.64	423.64
525.81	440.02
525.98	440.02
526.16	393.21
526.33	421.30
526.50	299.59
526.67	383.85
526.84	472.79
527.01	395.55
527.18	421.30
527.36	355.76
527.53	484.49
527.70	393.21
527.87	456.40
528.04	521.94
528.21	437.68
528.38	433.00
528.55	404.91
528.72	451.72
528.89	449.38
529.07	367.46
529.24	411.93
529.41	423.64
529.58	433.00
529.75	421.30
529.92	395.55
530.09	393.21
530.26	416.62
530.43	444.70
530.60	369.80
530.77	428.32
530.94	393.21
531.11	386.19
531.28	418.96
531.46	386.19
531.63	423.64
531.80	374.49
531.97	447.04
532.14	491.51
532.31	493.85
532.48	447.04
532.65	458.74
532.82	421.30
532.99	388.53
533.16	430.66
533.33	365.12
533.50	397.89
533.67	376.83
533.84	381.51
534.01	463.43
534.18	414.27
534.35	404.91
534.52	444.70
534.69	449.38
534.86	458.74
535.03	397.89
535.20	381.51
535.37	400.23
535.54	393.21
535.71	421.30
535.88	376.83
536.05	463.43
536.22	390.87
536.38	402.57
536.55	430.66
536.72	428.32
536.89	407.25
537.06	451.72
537.23	440.02
537.40	365.12
537.57	374.49
537.74	433.00
537.91	428.32
538.08	411.93
538.25	479.81
538.42	468.11
538.59	421.30
538.75	402.57
538.92	461.09
539.09	479.81
539.26	484.49
539.43	404.91
539.60	418.96
539.77	402.57
539.94	433.00
540.11	404.91
540.28	425.98
540.44	489.17
540.61	442.36
540.78	451.72
540.95	435.34
541.12	425.98
541.29	334.70
541.46	514.92
541.62	379.17
541.79	433.00
541.96	404.91
542.13	477.47
542.30	477.47
542.47	449.38
542.63	463.43
542.80	423.64
542.97	491.51
543.14	402.57
543.31	369.80
543.48	397.89
543.64	421.30
543.81	367.46
543.98	411.93
544.15	388.53
544.32	386.19
544.48	348.74
544.65	339.38
544.82	379.17
544.99	404.91
545.16	400.23
545.32	402.57
545.49	423.64
545.66	414.27
545.83	397.89
546.00	414.27
546.16	454.06
546.33	395.55
546.50	362.78
546.67	411.93
546.83	330.02
547.00	397.89
547.17	409.59
547.34	386.19
547.50	372.15
547.67	461.09
547.84	435.34
548.00	411.93
548.17	440.02
548.34	402.57
548.51	456.40
548.67	454.06
548.84	430.66
549.01	458.74
549.18	379.17
549.34	372.15
549.51	444.70
549.68	353.42
549.84	407.25
550.01	372.15
550.18	433.00
550.34	475.13
550.51	447.04
550.68	421.30
550.84	442.36
551.01	475.13
551.18	489.17
551.34	430.66
551.51	437.68
551.68	437.68
551.84	379.17
552.01	428.32
552.18	404.91
552.34	390.87
552.51	344.06
552.68	381.51
552.84	437.68
553.01	451.72
553.18	414.27
553.34	327.68
553.51	388.53
553.67	465.77
553.84	435.34
554.01	514.92
554.17	404.91
554.34	435.34
554.51	418.96
554.67	407.25
554.84	430.66
555.00	465.77
555.17	388.53
555.33	358.10
555.50	428.32
555.67	491.51
555.83	397.89
556.00	376.83
556.16	512.58
556.33	482.15
556.50	470.45
556.66	442.36
556.83	381.51
556.99	491.51
557.16	425.98
557.32	435.34
557.49	442.36
557.65	433.00
557.82	393.21
557.98	458.74
558.15	428.32
558.32	435.34
558.48	425.98
558.65	423.64
558.81	435.34
558.98	454.06
559.14	428.32
559.31	521.94
559.47	440.02
559.64	411.93
559.80	458.74
559.97	367.46
560.13	416.62
560.30	428.32
560.46	433.00
560.63	346.40
560.79	425.98
560.96	395.55
561.12	362.78
561.29	433.00
561.45	411.93
561.61	468.11
561.78	489.17
561.94	477.47
562.11	423.64
562.27	440.02
562.44	442.36
562.60	379.17
562.77	456.40
562.93	440.02
563.10	444.70
563.26	475.13
563.42	447.04
563.59	423.64
563.75	447.04
563.92	435.34
564.08	386.19
564.24	482.15
564.41	503.22
564.57	358.10
564.74	362.78
564.90	365.12
565.07	407.25
565.23	468.11
565.39	348.74
565.56	423.64
565.72	376.83
565.88	447.04
566.05	395.55
566.21	395.55
566.38	447.04
566.54	407.25
566.70	411.93
566.87	395.55
567.03	404.91
567.19	451.72
567.36	416.62
567.52	402.57
567.68	376.83
567.85	425.98
568.01	376.83
568.17	425.98
568.34	428.32
568.50	414.27
568.66	454.06
568.83	461.09
568.99	416.62
569.15	409.59
569.32	379.17
569.48	386.19
569.64	449.38
569.81	442.36
569.97	435.34
570.13	376.83
570.30	372.15
570.46	472.79
570.62	402.57
570.78	360.44
570.95	468.11
571.11	479.81
571.27	435.34
571.43	372.15
571.60	456.40
571.76	435.34
571.92	330.02
572.09	376.83
572.25	414.27
572.41	388.53
572.57	402.57
572.74	430.66
572.90	435.34
573.06	430.66
573.22	440.02
573.38	456.40
573.55	337.04
573.71	423.64
573.87	454.06
574.03	318.31
574.20	409.59
574.36	447.04
574.52	456.40
574.68	360.44
574.84	414.27
575.01	444.70
575.17	458.74
575.33	365.12
575.49	416.62
575.65	365.12
575.82	367.46
575.98	477.47
576.14	390.87
576.30	402.57
576.46	374.49
576.62	418.96
576.79	390.87
576.95	390.87
577.11	404.91
577.27	456.40
577.43	418.96
577.59	390.87
577.75	468.11
577.92	421.30
578.08	381.51
578.24	463.43
578.40	486.83
578.56	437.68
578.72	395.55
578.88	458.74
579.04	449.38
579.21	397.89
579.37	409.59
579.53	421.30
579.69	383.85
579.85	367.46
580.01	416.62
580.17	367.46
580.33	425.98
580.49	369.80
580.65	407.25
580.82	409.59
580.98	381.51
581.14	433.00
581.30	444.70
581.46	411.93
581.62	447.04
581.78	421.30
581.94	477.47
582.10	425.98
582.26	369.80
582.42	402.57
582.58	468.11
582.74	374.49
582.90	358.10
583.06	514.92
583.22	423.64
583.38	468.11
583.54	400.23
583.70	435.34
583.86	421.30
584.02	407.25
584.18	423.64
584.34	325.33
584.50	468.11
584.66	449.38
584.82	423.64
584.98	423.64
585.14	479.81
585.30	414.27
585.46	395.55
585.62	367.46
585.78	430.66
585.94	416.62
586.10	428.32
586.26	421.30
586.42	475.13
586.58	465.77
586.74	397.89
586.90	437.68
587.06	447.04
587.22	365.12
587.38	393.21
587.54	447.04
587.70	447.04
587.86	491.51
588.02	320.65
588.18	500.87
588.34	444.70
588.49	472.79
588.65	421.30
588.81	528.96
588.97	400.23
589.13	425.98
589.29	379.17
589.45	433.00
589.61	430.66
589.77	409.59
589.93	334.70
590.08	440.02
590.24	409.59
590.40	409.59
590.56	479.81
590.72	376.83
590.88	379.17
591.04	365.12
591.20	393.21
591.35	456.40
591.51	386.19
591.67	418.96
591.83	318.31
591.99	477.47
592.15	430.66
592.31	440.02
592.46	470.45
592.62	447.04
592.78	418.96
592.94	409.59
593.10	411.93
593.26	383.85
593.41	461.09
593.57	444.70
593.73	444.70
593.89	332.36
594.05	402.57
594.20	416.62
594.36	479.81
594.52	395.55
594.68	351.08
594.84	447.04
594.99	435.34
595.15	428.32
595.31	437.68
595.47	435.34
595.62	454.06
595.78	458.74
595.94	337.04
596.10	421.30
596.25	414.27
596.41	454.06
596.57	442.36
596.73	428.32
596.88	435.34
597.04	423.64
597.20	365.12
597.36	416.62
597.51	334.70
597.67	418.96
597.83	402.57
597.99	418.96
598.14	407.25
598.30	365.12
598.46	470.45
598.61	421.30
598.77	388.53
598.93	355.76
599.09	386.19
599.24	423.64
599.40	440.02
599.56	404.91
599.71	430.66
599.87	440.02
600.03	444.70
600.18	428.32
600.34	395.55
600.50	332.36
600.65	383.85
600.81	421.30
600.97	381.51
601.12	411.93
601.28	409.59
601.44	346.40
601.59	407.25
601.75	503.22
601.91	425.98
602.06	393.21
602.22	425.98
602.37	348.74
602.53	428.32
602.69	470.45
602.84	379.17
603.00	465.77
603.16	372.15
603.31	425.98
603.47	421.30
603.62	423.64
603.78	437.68
603.94	404.91
604.09	442.36
604.25	379.17
604.40	381.51
604.56	414.27
604.71	414.27
604.87	386.19
605.03	449.38
605.18	383.85
605.34	435.34
605.49	416.62
605.65	496.19
605.80	435.34
605.96	374.49
606.12	376.83
606.27	379.17
606.43	425.98
606.58	435.34
606.74	409.59
606.89	397.89
607.05	496.19
607.20	404.91
607.36	409.59
607.51	409.59
607.67	397.89
607.82	458.74
607.98	397.89
608.13	461.09
608.29	390.87
608.44	456.40
608.60	407.25
608.75	411.93
608.91	475.13
609.06	351.08
609.22	407.25
609.37	374.49
609.53	348.74
609.68	365.12
609.84	444.70
609.99	400.23
610.15	416.62
