SpectraSuite Data File
++++++++++++++++++++++++++++++++++++
Date: Fri Oct 25 12:11:10 EDT 2013
User: price-jones
Dark Spectrum Present: No
Reference Spectrum Present: No
Number of Sampled Component Spectra: 1
Spectrometers: USB2+H05261
Integration Time (usec): 100000 (USB2+H05261)
Spectra Averaged: 1 (USB2+H05261)
Boxcar Smoothing: 0 (USB2+H05261)
Correct for Electrical Dark: No (USB2+H05261)
Strobe/Lamp Enabled: No (USB2+H05261)
Correct for Detector Non-linearity: No (USB2+H05261)
Correct for Stray Light: No (USB2+H05261)
Number of Pixels in Processed Spectrum: 2048
>>>>>Begin Processed Spectral Data<<<<<
365.73	351.08
365.92	351.08
366.12	351.08
366.32	315.97
366.52	285.55
366.72	318.31
366.91	224.69
367.11	252.78
367.31	306.61
367.51	229.37
367.70	168.52
367.90	252.78
368.10	224.69
368.30	252.78
368.49	194.26
368.69	243.42
368.89	255.12
369.09	283.20
369.28	245.76
369.48	217.67
369.68	297.25
369.87	290.23
370.07	280.86
370.27	346.40
370.47	369.80
370.66	411.93
370.86	339.38
371.06	418.96
371.25	372.15
371.45	379.17
371.65	374.49
371.84	411.93
372.04	369.80
372.24	444.70
372.44	400.23
372.63	447.04
372.83	397.89
373.03	416.62
373.22	379.17
373.42	374.49
373.62	318.31
373.81	344.06
374.01	411.93
374.21	440.02
374.40	447.04
374.60	437.68
374.79	355.76
374.99	425.98
375.19	449.38
375.38	388.53
375.58	404.91
375.78	348.74
375.97	468.11
376.17	454.06
376.37	381.51
376.56	423.64
376.76	425.98
376.95	383.85
377.15	517.26
377.35	402.57
377.54	491.51
377.74	421.30
377.93	397.89
378.13	407.25
378.33	367.46
378.52	379.17
378.72	454.06
378.91	365.12
379.11	365.12
379.31	463.43
379.50	395.55
379.70	393.21
379.89	351.08
380.09	435.34
380.28	332.36
380.48	409.59
380.68	393.21
380.87	416.62
381.07	386.19
381.26	421.30
381.46	360.44
381.65	440.02
381.85	390.87
382.04	337.04
382.24	454.06
382.43	369.80
382.63	383.85
382.83	390.87
383.02	395.55
383.22	437.68
383.41	376.83
383.61	369.80
383.80	458.74
384.00	402.57
384.19	381.51
384.39	390.87
384.58	470.45
384.78	423.64
384.97	418.96
385.17	404.91
385.36	369.80
385.56	428.32
385.75	451.72
385.95	430.66
386.14	442.36
386.34	430.66
386.53	404.91
386.72	404.91
386.92	390.87
387.11	414.27
387.31	423.64
387.50	367.46
387.70	454.06
387.89	451.72
388.09	381.51
388.28	383.85
388.48	322.99
388.67	423.64
388.86	425.98
389.06	437.68
389.25	416.62
389.45	414.27
389.64	395.55
389.84	486.83
390.03	418.96
390.22	369.80
390.42	409.59
390.61	353.42
390.81	348.74
391.00	470.45
391.19	475.13
391.39	421.30
391.58	440.02
391.78	402.57
391.97	379.17
392.16	379.17
392.36	421.30
392.55	444.70
392.75	437.68
392.94	442.36
393.13	393.21
393.33	346.40
393.52	442.36
393.71	418.96
393.91	353.42
394.10	374.49
394.29	468.11
394.49	358.10
394.68	397.89
394.88	423.64
395.07	444.70
395.26	379.17
395.46	458.74
395.65	444.70
395.84	479.81
396.04	564.07
396.23	423.64
396.42	353.42
396.62	456.40
396.81	465.77
397.00	468.11
397.19	374.49
397.39	402.57
397.58	404.91
397.77	458.74
397.97	325.33
398.16	433.00
398.35	444.70
398.55	381.51
398.74	456.40
398.93	489.17
399.12	381.51
399.32	479.81
399.51	416.62
399.70	440.02
399.90	428.32
400.09	404.91
400.28	334.70
400.47	465.77
400.67	442.36
400.86	442.36
401.05	437.68
401.24	465.77
401.44	468.11
401.63	428.32
401.82	374.49
402.01	475.13
402.21	358.10
402.40	374.49
402.59	463.43
402.78	421.30
402.97	430.66
403.17	484.49
403.36	425.98
403.55	388.53
403.74	358.10
403.93	416.62
404.13	388.53
404.32	402.57
404.51	390.87
404.70	421.30
404.89	414.27
405.09	423.64
405.28	411.93
405.47	390.87
405.66	482.15
405.85	416.62
406.05	440.02
406.24	381.51
406.43	447.04
406.62	479.81
406.81	425.98
407.00	458.74
407.20	418.96
407.39	416.62
407.58	353.42
407.77	451.72
407.96	348.74
408.15	421.30
408.34	358.10
408.54	456.40
408.73	418.96
408.92	362.78
409.11	442.36
409.30	447.04
409.49	451.72
409.68	416.62
409.87	402.57
410.07	411.93
410.26	400.23
410.45	456.40
410.64	381.51
410.83	360.44
411.02	465.77
411.21	421.30
411.40	411.93
411.59	447.04
411.78	400.23
411.98	372.15
412.17	416.62
412.36	423.64
412.55	404.91
412.74	496.19
412.93	435.34
413.12	428.32
413.31	433.00
413.50	355.76
413.69	470.45
413.88	358.10
414.07	423.64
414.26	397.89
414.45	402.57
414.64	393.21
414.83	423.64
415.02	374.49
415.22	376.83
415.41	517.26
415.60	386.19
415.79	437.68
415.98	353.42
416.17	388.53
416.36	395.55
416.55	386.19
416.74	444.70
416.93	411.93
417.12	367.46
417.31	362.78
417.50	437.68
417.69	456.40
417.88	339.38
418.07	393.21
418.26	447.04
418.45	458.74
418.64	430.66
418.83	400.23
419.02	400.23
419.21	461.09
419.39	428.32
419.58	437.68
419.77	390.87
419.96	393.21
420.15	383.85
420.34	444.70
420.53	461.09
420.72	425.98
420.91	365.12
421.10	386.19
421.29	428.32
421.48	433.00
421.67	435.34
421.86	383.85
422.05	477.47
422.24	449.38
422.43	407.25
422.61	409.59
422.80	449.38
422.99	395.55
423.18	383.85
423.37	407.25
423.56	468.11
423.75	418.96
423.94	358.10
424.13	360.44
424.32	404.91
424.50	409.59
424.69	407.25
424.88	428.32
425.07	418.96
425.26	386.19
425.45	411.93
425.64	451.72
425.83	414.27
426.01	437.68
426.20	418.96
426.39	376.83
426.58	428.32
426.77	440.02
426.96	383.85
427.15	404.91
427.33	475.13
427.52	395.55
427.71	353.42
427.90	379.17
428.09	411.93
428.28	472.79
428.46	397.89
428.65	411.93
428.84	362.78
429.03	416.62
429.22	477.47
429.40	374.49
429.59	395.55
429.78	400.23
429.97	444.70
430.16	416.62
430.34	341.72
430.53	397.89
430.72	423.64
430.91	437.68
431.10	369.80
431.28	437.68
431.47	435.34
431.66	390.87
431.85	402.57
432.03	362.78
432.22	489.17
432.41	435.34
432.60	454.06
432.79	411.93
432.97	423.64
433.16	418.96
433.35	393.21
433.54	393.21
433.72	472.79
433.91	458.74
434.10	407.25
434.28	440.02
434.47	386.19
434.66	491.51
434.85	379.17
435.03	411.93
435.22	414.27
435.41	433.00
435.59	444.70
435.78	416.62
435.97	425.98
436.16	404.91
436.34	388.53
436.53	404.91
436.72	458.74
436.90	383.85
437.09	358.10
437.28	395.55
437.46	372.15
437.65	351.08
437.84	461.09
438.02	442.36
438.21	475.13
438.40	418.96
438.58	404.91
438.77	421.30
438.96	470.45
439.14	381.51
439.33	416.62
439.52	442.36
439.70	449.38
439.89	404.91
440.08	404.91
440.26	461.09
440.45	393.21
440.63	374.49
440.82	461.09
441.01	425.98
441.19	475.13
441.38	369.80
441.57	416.62
441.75	491.51
441.94	428.32
442.12	454.06
442.31	358.10
442.50	496.19
442.68	388.53
442.87	395.55
443.05	325.33
443.24	428.32
443.43	479.81
443.61	362.78
443.80	449.38
443.98	400.23
444.17	393.21
444.35	414.27
444.54	388.53
444.73	341.72
444.91	337.04
445.10	472.79
445.28	344.06
445.47	454.06
445.65	395.55
445.84	475.13
446.02	402.57
446.21	454.06
446.39	444.70
446.58	435.34
446.77	411.93
446.95	339.38
447.14	428.32
447.32	395.55
447.51	404.91
447.69	442.36
447.88	458.74
448.06	414.27
448.25	433.00
448.43	423.64
448.62	477.47
448.80	400.23
448.99	435.34
449.17	418.96
449.36	421.30
449.54	435.34
449.73	468.11
449.91	458.74
450.10	482.15
450.28	442.36
450.46	411.93
450.65	430.66
450.83	374.49
451.02	407.25
451.20	383.85
451.39	442.36
451.57	489.17
451.76	440.02
451.94	390.87
452.13	376.83
452.31	440.02
452.49	395.55
452.68	404.91
452.86	442.36
453.05	433.00
453.23	461.09
453.42	374.49
453.60	365.12
453.78	447.04
453.97	423.64
454.15	393.21
454.34	397.89
454.52	365.12
454.70	430.66
454.89	489.17
455.07	428.32
455.26	472.79
455.44	414.27
455.62	404.91
455.81	449.38
455.99	397.89
456.17	430.66
456.36	447.04
456.54	414.27
456.73	421.30
456.91	430.66
457.09	444.70
457.28	409.59
457.46	367.46
457.64	458.74
457.83	386.19
458.01	433.00
458.19	383.85
458.38	407.25
458.56	456.40
458.74	447.04
458.93	404.91
459.11	418.96
459.29	425.98
459.48	428.32
459.66	376.83
459.84	390.87
460.03	491.51
460.21	348.74
460.39	374.49
460.57	458.74
460.76	503.22
460.94	425.98
461.12	486.83
461.31	430.66
461.49	423.64
461.67	418.96
461.85	430.66
462.04	484.49
462.22	767.70
462.40	395.55
462.59	440.02
462.77	395.55
462.95	353.42
463.13	369.80
463.32	428.32
463.50	397.89
463.68	395.55
463.86	407.25
464.05	423.64
464.23	395.55
464.41	393.21
464.59	402.57
464.78	437.68
464.96	367.46
465.14	465.77
465.32	365.12
465.50	388.53
465.69	397.89
465.87	409.59
466.05	486.83
466.23	423.64
466.41	447.04
466.60	425.98
466.78	341.72
466.96	383.85
467.14	416.62
467.32	411.93
467.51	402.57
467.69	484.49
467.87	477.47
468.05	456.40
468.23	435.34
468.41	407.25
468.60	414.27
468.78	442.36
468.96	414.27
469.14	311.29
469.32	404.91
469.50	400.23
469.69	440.02
469.87	442.36
470.05	379.17
470.23	390.87
470.41	341.72
470.59	447.04
470.77	425.98
470.95	404.91
471.14	503.22
471.32	425.98
471.50	486.83
471.68	521.94
471.86	376.83
472.04	423.64
472.22	463.43
472.40	355.76
472.58	475.13
472.77	414.27
472.95	477.47
473.13	472.79
473.31	418.96
473.49	397.89
473.67	430.66
473.85	430.66
474.03	353.42
474.21	447.04
474.39	393.21
474.57	423.64
474.75	447.04
474.93	447.04
475.12	418.96
475.30	402.57
475.48	447.04
475.66	404.91
475.84	351.08
476.02	437.68
476.20	444.70
476.38	435.34
476.56	437.68
476.74	437.68
476.92	400.23
477.10	433.00
477.28	416.62
477.46	423.64
477.64	442.36
477.82	425.98
478.00	449.38
478.18	423.64
478.36	418.96
478.54	423.64
478.72	372.15
478.90	425.98
479.08	411.93
479.26	388.53
479.44	442.36
479.62	454.06
479.80	414.27
479.98	440.02
480.16	383.85
480.34	503.22
480.52	404.91
480.70	416.62
480.88	484.49
481.06	379.17
481.24	428.32
481.41	411.93
481.59	435.34
481.77	456.40
481.95	433.00
482.13	428.32
482.31	402.57
482.49	362.78
482.67	358.10
482.85	470.45
483.03	404.91
483.21	372.15
483.39	395.55
483.57	430.66
483.74	449.38
483.92	435.34
484.10	367.46
484.28	435.34
484.46	498.53
484.64	353.42
484.82	402.57
485.00	390.87
485.18	440.02
485.35	447.04
485.53	486.83
485.71	355.76
485.89	423.64
486.07	362.78
486.25	482.15
486.43	407.25
486.61	440.02
486.78	402.57
486.96	397.89
487.14	386.19
487.32	346.40
487.50	404.91
487.68	423.64
487.85	472.79
488.03	458.74
488.21	440.02
488.39	332.36
488.57	433.00
488.75	458.74
488.92	531.30
489.10	477.47
489.28	451.72
489.46	374.49
489.64	362.78
489.81	444.70
489.99	379.17
490.17	449.38
490.35	554.71
490.53	404.91
490.70	388.53
490.88	447.04
491.06	360.44
491.24	390.87
491.41	442.36
491.59	428.32
491.77	456.40
491.95	437.68
492.13	327.68
492.30	404.91
492.48	311.29
492.66	423.64
492.84	416.62
493.01	339.38
493.19	402.57
493.37	430.66
493.54	435.34
493.72	437.68
493.90	442.36
494.08	390.87
494.25	440.02
494.43	397.89
494.61	449.38
494.79	358.10
494.96	402.57
495.14	421.30
495.32	374.49
495.49	437.68
495.67	376.83
495.85	463.43
496.02	360.44
496.20	416.62
496.38	456.40
496.55	407.25
496.73	395.55
496.91	402.57
497.09	351.08
497.26	472.79
497.44	416.62
497.62	437.68
497.79	390.87
497.97	393.21
498.14	444.70
498.32	388.53
498.50	430.66
498.67	386.19
498.85	400.23
499.03	397.89
499.20	411.93
499.38	449.38
499.56	430.66
499.73	463.43
499.91	418.96
500.08	440.02
500.26	407.25
500.44	435.34
500.61	472.79
500.79	468.11
500.97	482.15
501.14	449.38
501.32	493.85
501.49	470.45
501.67	458.74
501.84	430.66
502.02	421.30
502.20	517.26
502.37	411.93
502.55	395.55
502.72	414.27
502.90	421.30
503.07	390.87
503.25	442.36
503.43	428.32
503.60	393.21
503.78	472.79
503.95	416.62
504.13	358.10
504.30	465.77
504.48	423.64
504.65	463.43
504.83	454.06
505.01	388.53
505.18	414.27
505.36	430.66
505.53	407.25
505.71	447.04
505.88	407.25
506.06	458.74
506.23	334.70
506.41	397.89
506.58	454.06
506.76	428.32
506.93	437.68
507.11	440.02
507.28	395.55
507.46	414.27
507.63	376.83
507.81	433.00
507.98	435.34
508.16	442.36
508.33	402.57
508.50	470.45
508.68	454.06
508.85	395.55
509.03	440.02
509.20	376.83
509.38	418.96
509.55	433.00
509.73	458.74
509.90	414.27
510.08	381.51
510.25	421.30
510.42	444.70
510.60	390.87
510.77	440.02
510.95	407.25
511.12	449.38
511.30	458.74
511.47	395.55
511.64	442.36
511.82	353.42
511.99	421.30
512.17	362.78
512.34	358.10
512.51	372.15
512.69	409.59
512.86	454.06
513.04	409.59
513.21	442.36
513.38	421.30
513.56	454.06
513.73	407.25
513.90	339.38
514.08	367.46
514.25	379.17
514.43	433.00
514.60	404.91
514.77	369.80
514.95	409.59
515.12	451.72
515.29	465.77
515.47	428.32
515.64	416.62
515.81	430.66
515.99	407.25
516.16	470.45
516.33	351.08
516.51	372.15
516.68	435.34
516.85	454.06
517.03	402.57
517.20	395.55
517.37	465.77
517.54	379.17
517.72	428.32
517.89	388.53
518.06	383.85
518.24	334.70
518.41	461.09
518.58	461.09
518.75	362.78
518.93	409.59
519.10	454.06
519.27	418.96
519.45	407.25
519.62	330.02
519.79	381.51
519.96	430.66
520.14	374.49
520.31	442.36
520.48	454.06
520.65	454.06
520.83	449.38
521.00	407.25
521.17	479.81
521.34	411.93
521.52	444.70
521.69	449.38
521.86	344.06
522.03	528.96
522.20	472.79
522.38	344.06
522.55	440.02
522.72	458.74
522.89	416.62
523.07	379.17
523.24	393.21
523.41	393.21
523.58	414.27
523.75	383.85
523.92	400.23
524.10	425.98
524.27	423.64
524.44	402.57
524.61	421.30
524.78	451.72
524.96	430.66
525.13	367.46
525.30	472.79
525.47	376.83
525.64	418.96
525.81	388.53
525.98	402.57
526.16	409.59
526.33	482.15
526.50	360.44
526.67	451.72
526.84	393.21
527.01	418.96
527.18	442.36
527.36	400.23
527.53	383.85
527.70	437.68
527.87	451.72
528.04	451.72
528.21	372.15
528.38	449.38
528.55	451.72
528.72	433.00
528.89	465.77
529.07	404.91
529.24	397.89
529.41	423.64
529.58	374.49
529.75	353.42
529.92	437.68
530.09	477.47
530.26	421.30
530.43	493.85
530.60	428.32
530.77	388.53
530.94	435.34
531.11	404.91
531.28	409.59
531.46	447.04
531.63	479.81
531.80	409.59
531.97	414.27
532.14	437.68
532.31	430.66
532.48	383.85
532.65	519.60
532.82	407.25
532.99	407.25
533.16	416.62
533.33	386.19
533.50	353.42
533.67	404.91
533.84	435.34
534.01	475.13
534.18	407.25
534.35	440.02
534.52	430.66
534.69	433.00
534.86	407.25
535.03	383.85
535.20	428.32
535.37	496.19
535.54	397.89
535.71	404.91
535.88	404.91
536.05	414.27
536.22	407.25
536.38	433.00
536.55	407.25
536.72	416.62
536.89	346.40
537.06	437.68
537.23	433.00
537.40	362.78
537.57	428.32
537.74	505.56
537.91	409.59
538.08	409.59
538.25	425.98
538.42	379.17
538.59	435.34
538.75	423.64
538.92	433.00
539.09	348.74
539.26	397.89
539.43	440.02
539.60	472.79
539.77	454.06
539.94	442.36
540.11	374.49
540.28	416.62
540.44	475.13
540.61	393.21
540.78	454.06
540.95	447.04
541.12	468.11
541.29	470.45
541.46	430.66
541.62	421.30
541.79	348.74
541.96	442.36
542.13	386.19
542.30	388.53
542.47	423.64
542.63	416.62
542.80	355.76
542.97	402.57
543.14	416.62
543.31	365.12
543.48	390.87
543.64	505.56
543.81	444.70
543.98	461.09
544.15	348.74
544.32	475.13
544.48	463.43
544.65	379.17
544.82	386.19
544.99	393.21
545.16	505.56
545.32	463.43
545.49	414.27
545.66	390.87
545.83	458.74
546.00	351.08
546.16	376.83
546.33	390.87
546.50	414.27
546.67	484.49
546.83	416.62
547.00	423.64
547.17	395.55
547.34	390.87
547.50	489.17
547.67	416.62
547.84	400.23
548.00	454.06
548.17	397.89
548.34	372.15
548.51	390.87
548.67	435.34
548.84	482.15
549.01	447.04
549.18	433.00
549.34	346.40
549.51	421.30
549.68	435.34
549.84	463.43
550.01	362.78
550.18	491.51
550.34	465.77
550.51	451.72
550.68	479.81
550.84	442.36
551.01	458.74
551.18	479.81
551.34	435.34
551.51	470.45
551.68	414.27
551.84	393.21
552.01	411.93
552.18	353.42
552.34	418.96
552.51	425.98
552.68	475.13
552.84	414.27
553.01	360.44
553.18	468.11
553.34	418.96
553.51	414.27
553.67	393.21
553.84	475.13
554.01	428.32
554.17	430.66
554.34	414.27
554.51	451.72
554.67	411.93
554.84	433.00
555.00	442.36
555.17	421.30
555.33	444.70
555.50	402.57
555.67	393.21
555.83	475.13
556.00	414.27
556.16	517.26
556.33	397.89
556.50	395.55
556.66	397.89
556.83	437.68
556.99	454.06
557.16	376.83
557.32	479.81
557.49	388.53
557.65	379.17
557.82	334.70
557.98	512.58
558.15	332.36
558.32	435.34
558.48	383.85
558.65	390.87
558.81	388.53
558.98	435.34
559.14	435.34
559.31	428.32
559.47	416.62
559.64	449.38
559.80	409.59
559.97	418.96
560.13	395.55
560.30	409.59
560.46	379.17
560.63	479.81
560.79	531.30
560.96	353.42
561.12	421.30
561.29	465.77
561.45	440.02
561.61	416.62
561.78	484.49
561.94	409.59
562.11	404.91
562.27	397.89
562.44	425.98
562.60	430.66
562.77	374.49
562.93	472.79
563.10	435.34
563.26	369.80
563.42	393.21
563.59	477.47
563.75	447.04
563.92	435.34
564.08	470.45
564.24	463.43
564.41	463.43
564.57	404.91
564.74	454.06
564.90	442.36
565.07	407.25
565.23	430.66
565.39	409.59
565.56	367.46
565.72	463.43
565.88	374.49
566.05	411.93
566.21	428.32
566.38	379.17
566.54	339.38
566.70	374.49
566.87	444.70
567.03	397.89
567.19	362.78
567.36	461.09
567.52	365.12
567.68	421.30
567.85	395.55
568.01	447.04
568.17	430.66
568.34	421.30
568.50	421.30
568.66	543.00
568.83	505.56
568.99	397.89
569.15	388.53
569.32	463.43
569.48	376.83
569.64	447.04
569.81	430.66
569.97	486.83
570.13	449.38
570.30	475.13
570.46	355.76
570.62	435.34
570.78	461.09
570.95	346.40
571.11	402.57
571.27	472.79
571.43	341.72
571.60	365.12
571.76	411.93
571.92	430.66
572.09	390.87
572.25	400.23
572.41	355.76
572.57	451.72
572.74	491.51
572.90	461.09
573.06	428.32
573.22	362.78
573.38	395.55
573.55	486.83
573.71	475.13
573.87	451.72
574.03	411.93
574.20	390.87
574.36	475.13
574.52	472.79
574.68	433.00
574.84	489.17
575.01	440.02
575.17	461.09
575.33	409.59
575.49	416.62
575.65	402.57
575.82	421.30
575.98	456.40
576.14	449.38
576.30	400.23
576.46	341.72
576.62	461.09
576.79	428.32
576.95	379.17
577.11	402.57
577.27	407.25
577.43	454.06
577.59	437.68
577.75	365.12
577.92	400.23
578.08	367.46
578.24	465.77
578.40	430.66
578.56	524.28
578.72	512.58
578.88	400.23
579.04	386.19
579.21	414.27
579.37	428.32
579.53	379.17
579.69	435.34
579.85	404.91
580.01	400.23
580.17	430.66
580.33	383.85
580.49	440.02
580.65	376.83
580.82	393.21
580.98	411.93
581.14	416.62
581.30	489.17
581.46	372.15
581.62	468.11
581.78	330.02
581.94	454.06
582.10	414.27
582.26	393.21
582.42	365.12
582.58	442.36
582.74	393.21
582.90	461.09
583.06	463.43
583.22	365.12
583.38	393.21
583.54	428.32
583.70	430.66
583.86	454.06
584.02	475.13
584.18	388.53
584.34	372.15
584.50	468.11
584.66	397.89
584.82	440.02
584.98	416.62
585.14	442.36
585.30	465.77
585.46	451.72
585.62	400.23
585.78	404.91
585.94	444.70
586.10	409.59
586.26	390.87
586.42	435.34
586.58	388.53
586.74	461.09
586.90	386.19
587.06	407.25
587.22	461.09
587.38	414.27
587.54	416.62
587.70	355.76
587.86	393.21
588.02	411.93
588.18	416.62
588.34	498.53
588.49	393.21
588.65	358.10
588.81	404.91
588.97	362.78
589.13	447.04
589.29	425.98
589.45	423.64
589.61	416.62
589.77	425.98
589.93	367.46
590.08	433.00
590.24	390.87
590.40	353.42
590.56	440.02
590.72	463.43
590.88	325.33
591.04	442.36
591.20	451.72
591.35	447.04
591.51	407.25
591.67	428.32
591.83	390.87
591.99	458.74
592.15	447.04
592.31	414.27
592.46	472.79
592.62	418.96
592.78	397.89
592.94	411.93
593.10	407.25
593.26	369.80
593.41	418.96
593.57	451.72
593.73	372.15
593.89	456.40
594.05	447.04
594.20	458.74
594.36	442.36
594.52	430.66
594.68	430.66
594.84	437.68
594.99	451.72
595.15	454.06
595.31	362.78
595.47	449.38
595.62	421.30
595.78	365.12
595.94	423.64
596.10	447.04
596.25	442.36
596.41	353.42
596.57	447.04
596.73	414.27
596.88	449.38
597.04	409.59
597.20	442.36
597.36	468.11
597.51	416.62
597.67	423.64
597.83	351.08
597.99	374.49
598.14	376.83
598.30	430.66
598.46	437.68
598.61	428.32
598.77	358.10
598.93	418.96
599.09	498.53
599.24	409.59
599.40	411.93
599.56	444.70
599.71	416.62
599.87	456.40
600.03	402.57
600.18	437.68
600.34	472.79
600.50	400.23
600.65	449.38
600.81	402.57
600.97	484.49
601.12	477.47
601.28	407.25
601.44	411.93
601.59	393.21
601.75	458.74
601.91	423.64
602.06	437.68
602.22	484.49
602.37	346.40
602.53	463.43
602.69	482.15
602.84	421.30
603.00	414.27
603.16	461.09
603.31	404.91
603.47	386.19
603.62	397.89
603.78	456.40
603.94	407.25
604.09	421.30
604.25	440.02
604.40	376.83
604.56	425.98
604.71	423.64
604.87	433.00
605.03	425.98
605.18	430.66
605.34	430.66
605.49	386.19
605.65	437.68
605.80	346.40
605.96	376.83
606.12	458.74
606.27	402.57
606.43	456.40
606.58	498.53
606.74	411.93
606.89	393.21
607.05	416.62
607.20	425.98
607.36	449.38
607.51	351.08
607.67	400.23
607.82	360.44
607.98	428.32
608.13	435.34
608.29	365.12
608.44	451.72
608.60	388.53
608.75	472.79
608.91	463.43
609.06	360.44
609.22	397.89
609.37	376.83
609.53	447.04
609.68	315.97
609.84	390.87
609.99	402.57
610.15	447.04
