SpectraSuite Data File
++++++++++++++++++++++++++++++++++++
Date: Fri Oct 25 12:11:08 EDT 2013
User: price-jones
Dark Spectrum Present: No
Reference Spectrum Present: No
Number of Sampled Component Spectra: 1
Spectrometers: USB2+H05261
Integration Time (usec): 100000 (USB2+H05261)
Spectra Averaged: 1 (USB2+H05261)
Boxcar Smoothing: 0 (USB2+H05261)
Correct for Electrical Dark: No (USB2+H05261)
Strobe/Lamp Enabled: No (USB2+H05261)
Correct for Detector Non-linearity: No (USB2+H05261)
Correct for Stray Light: No (USB2+H05261)
Number of Pixels in Processed Spectrum: 2048
>>>>>Begin Processed Spectral Data<<<<<
365.73	372.15
365.92	372.15
366.12	372.15
366.32	339.38
366.52	266.82
366.72	243.42
366.91	170.86
367.11	241.08
367.31	203.63
367.51	264.48
367.70	191.92
367.90	255.12
368.10	259.80
368.30	231.71
368.49	212.99
368.69	283.20
368.89	278.52
369.09	238.73
369.28	304.27
369.48	278.52
369.68	299.59
369.87	344.06
370.07	348.74
370.27	292.57
370.47	367.46
370.66	259.80
370.86	334.70
371.06	393.21
371.25	386.19
371.45	402.57
371.65	372.15
371.84	341.72
372.04	414.27
372.24	414.27
372.44	365.12
372.63	390.87
372.83	402.57
373.03	458.74
373.22	355.76
373.42	458.74
373.62	507.90
373.81	433.00
374.01	440.02
374.21	402.57
374.40	442.36
374.60	444.70
374.79	425.98
374.99	414.27
375.19	411.93
375.38	463.43
375.58	470.45
375.78	475.13
375.97	397.89
376.17	346.40
376.37	479.81
376.56	456.40
376.76	447.04
376.95	456.40
377.15	393.21
377.35	454.06
377.54	386.19
377.74	355.76
377.93	416.62
378.13	365.12
378.33	433.00
378.52	463.43
378.72	416.62
378.91	482.15
379.11	479.81
379.31	444.70
379.50	393.21
379.70	468.11
379.89	418.96
380.09	397.89
380.28	463.43
380.48	411.93
380.68	390.87
380.87	322.99
381.07	444.70
381.26	472.79
381.46	318.31
381.65	470.45
381.85	393.21
382.04	360.44
382.24	440.02
382.43	461.09
382.63	327.68
382.83	351.08
383.02	425.98
383.22	351.08
383.41	397.89
383.61	393.21
383.80	458.74
384.00	454.06
384.19	369.80
384.39	402.57
384.58	428.32
384.78	374.49
384.97	393.21
385.17	315.97
385.36	381.51
385.56	327.68
385.75	442.36
385.95	475.13
386.14	372.15
386.34	390.87
386.53	365.12
386.72	369.80
386.92	505.56
387.11	395.55
387.31	458.74
387.50	411.93
387.70	390.87
387.89	444.70
388.09	386.19
388.28	435.34
388.48	365.12
388.67	393.21
388.86	437.68
389.06	330.02
389.25	362.78
389.45	433.00
389.64	388.53
389.84	498.53
390.03	449.38
390.22	404.91
390.42	409.59
390.61	414.27
390.81	344.06
391.00	400.23
391.19	418.96
391.39	411.93
391.58	334.70
391.78	327.68
391.97	386.19
392.16	386.19
392.36	444.70
392.55	390.87
392.75	414.27
392.94	423.64
393.13	451.72
393.33	421.30
393.52	355.76
393.71	500.87
393.91	390.87
394.10	372.15
394.29	421.30
394.49	393.21
394.68	433.00
394.88	470.45
395.07	369.80
395.26	388.53
395.46	416.62
395.65	440.02
395.84	428.32
396.04	421.30
396.23	404.91
396.42	444.70
396.62	395.55
396.81	454.06
397.00	374.49
397.19	383.85
397.39	430.66
397.58	395.55
397.77	433.00
397.97	411.93
398.16	449.38
398.35	362.78
398.55	353.42
398.74	404.91
398.93	402.57
399.12	428.32
399.32	418.96
399.51	402.57
399.70	365.12
399.90	411.93
400.09	395.55
400.28	428.32
400.47	442.36
400.67	444.70
400.86	395.55
401.05	390.87
401.24	428.32
401.44	402.57
401.63	344.06
401.82	402.57
402.01	379.17
402.21	355.76
402.40	346.40
402.59	390.87
402.78	393.21
402.97	449.38
403.17	416.62
403.36	388.53
403.55	388.53
403.74	421.30
403.93	365.12
404.13	402.57
404.32	416.62
404.51	435.34
404.70	376.83
404.89	348.74
405.09	393.21
405.28	435.34
405.47	411.93
405.66	400.23
405.85	414.27
406.05	463.43
406.24	430.66
406.43	367.46
406.62	407.25
406.81	430.66
407.00	444.70
407.20	351.08
407.39	379.17
407.58	433.00
407.77	383.85
407.96	404.91
408.15	433.00
408.34	425.98
408.54	381.51
408.73	372.15
408.92	395.55
409.11	425.98
409.30	367.46
409.49	458.74
409.68	383.85
409.87	407.25
410.07	414.27
410.26	458.74
410.45	404.91
410.64	423.64
410.83	341.72
411.02	365.12
411.21	400.23
411.40	447.04
411.59	486.83
411.78	397.89
411.98	397.89
412.17	454.06
412.36	409.59
412.55	393.21
412.74	381.51
412.93	428.32
413.12	411.93
413.31	372.15
413.50	456.40
413.69	402.57
413.88	444.70
414.07	482.15
414.26	386.19
414.45	395.55
414.64	365.12
414.83	397.89
415.02	409.59
415.22	376.83
415.41	365.12
415.60	461.09
415.79	402.57
415.98	440.02
416.17	454.06
416.36	437.68
416.55	428.32
416.74	400.23
416.93	440.02
417.12	315.97
417.31	395.55
417.50	402.57
417.69	414.27
417.88	477.47
418.07	376.83
418.26	358.10
418.45	355.76
418.64	423.64
418.83	451.72
419.02	395.55
419.21	465.77
419.39	411.93
419.58	411.93
419.77	423.64
419.96	390.87
420.15	451.72
420.34	400.23
420.53	437.68
420.72	428.32
420.91	461.09
421.10	425.98
421.29	376.83
421.48	381.51
421.67	449.38
421.86	407.25
422.05	409.59
422.24	334.70
422.43	456.40
422.61	367.46
422.80	346.40
422.99	358.10
423.18	404.91
423.37	489.17
423.56	447.04
423.75	510.24
423.94	367.46
424.13	381.51
424.32	437.68
424.50	411.93
424.69	430.66
424.88	435.34
425.07	421.30
425.26	388.53
425.45	376.83
425.64	383.85
425.83	355.76
426.01	449.38
426.20	404.91
426.39	404.91
426.58	416.62
426.77	416.62
426.96	353.42
427.15	400.23
427.33	337.04
427.52	393.21
427.71	402.57
427.90	365.12
428.09	430.66
428.28	379.17
428.46	411.93
428.65	318.31
428.84	355.76
429.03	444.70
429.22	407.25
429.40	374.49
429.59	437.68
429.78	451.72
429.97	414.27
430.16	372.15
430.34	400.23
430.53	379.17
430.72	428.32
430.91	421.30
431.10	379.17
431.28	407.25
431.47	376.83
431.66	458.74
431.85	397.89
432.03	386.19
432.22	447.04
432.41	475.13
432.60	421.30
432.79	458.74
432.97	369.80
433.16	447.04
433.35	400.23
433.54	463.43
433.72	409.59
433.91	477.47
434.10	376.83
434.28	395.55
434.47	437.68
434.66	376.83
434.85	409.59
435.03	393.21
435.22	386.19
435.41	433.00
435.59	313.63
435.78	433.00
435.97	407.25
436.16	440.02
436.34	468.11
436.53	390.87
436.72	421.30
436.90	463.43
437.09	437.68
437.28	444.70
437.46	477.47
437.65	418.96
437.84	425.98
438.02	407.25
438.21	409.59
438.40	519.60
438.58	421.30
438.77	458.74
438.96	404.91
439.14	388.53
439.33	353.42
439.52	397.89
439.70	386.19
439.89	442.36
440.08	400.23
440.26	416.62
440.45	386.19
440.63	362.78
440.82	365.12
441.01	409.59
441.19	498.53
441.38	442.36
441.57	386.19
441.75	372.15
441.94	390.87
442.12	372.15
442.31	435.34
442.50	416.62
442.68	395.55
442.87	374.49
443.05	454.06
443.24	374.49
443.43	393.21
443.61	395.55
443.80	444.70
443.98	421.30
444.17	388.53
444.35	418.96
444.54	411.93
444.73	465.77
444.91	505.56
445.10	454.06
445.28	376.83
445.47	381.51
445.65	442.36
445.84	421.30
446.02	416.62
446.21	421.30
446.39	414.27
446.58	404.91
446.77	428.32
446.95	395.55
447.14	390.87
447.32	444.70
447.51	400.23
447.69	339.38
447.88	475.13
448.06	484.49
448.25	437.68
448.43	381.51
448.62	407.25
448.80	451.72
448.99	411.93
449.17	437.68
449.36	400.23
449.54	475.13
449.73	358.10
449.91	421.30
450.10	315.97
450.28	444.70
450.46	404.91
450.65	416.62
450.83	458.74
451.02	369.80
451.20	430.66
451.39	407.25
451.57	437.68
451.76	418.96
451.94	430.66
452.13	409.59
452.31	423.64
452.49	449.38
452.68	463.43
452.86	449.38
453.05	383.85
453.23	437.68
453.42	397.89
453.60	435.34
453.78	407.25
453.97	428.32
454.15	433.00
454.34	458.74
454.52	402.57
454.70	407.25
454.89	416.62
455.07	379.17
455.26	430.66
455.44	482.15
455.62	390.87
455.81	409.59
455.99	463.43
456.17	449.38
456.36	393.21
456.54	428.32
456.73	409.59
456.91	358.10
457.09	475.13
457.28	409.59
457.46	397.89
457.64	404.91
457.83	327.68
458.01	409.59
458.19	351.08
458.38	374.49
458.56	414.27
458.74	395.55
458.93	482.15
459.11	430.66
459.29	456.40
459.48	416.62
459.66	433.00
459.84	477.47
460.03	458.74
460.21	470.45
460.39	430.66
460.57	358.10
460.76	404.91
460.94	409.59
461.12	414.27
461.31	498.53
461.49	386.19
461.67	397.89
461.85	454.06
462.04	425.98
462.22	842.59
462.40	386.19
462.59	437.68
462.77	355.76
462.95	444.70
463.13	428.32
463.32	486.83
463.50	423.64
463.68	421.30
463.86	423.64
464.05	397.89
464.23	433.00
464.41	430.66
464.59	418.96
464.78	444.70
464.96	358.10
465.14	425.98
465.32	486.83
465.50	395.55
465.69	475.13
465.87	418.96
466.05	402.57
466.23	374.49
466.41	433.00
466.60	365.12
466.78	449.38
466.96	465.77
467.14	386.19
467.32	411.93
467.51	416.62
467.69	482.15
467.87	444.70
468.05	414.27
468.23	414.27
468.41	411.93
468.60	435.34
468.78	418.96
468.96	435.34
469.14	388.53
469.32	351.08
469.50	400.23
469.69	409.59
469.87	414.27
470.05	500.87
470.23	433.00
470.41	402.57
470.59	409.59
470.77	404.91
470.95	367.46
471.14	458.74
471.32	423.64
471.50	496.19
471.68	433.00
471.86	510.24
472.04	435.34
472.22	416.62
472.40	451.72
472.58	386.19
472.77	362.78
472.95	367.46
473.13	482.15
473.31	428.32
473.49	372.15
473.67	313.63
473.85	381.51
474.03	379.17
474.21	404.91
474.39	390.87
474.57	456.40
474.75	421.30
474.93	393.21
475.12	468.11
475.30	454.06
475.48	414.27
475.66	433.00
475.84	374.49
476.02	376.83
476.20	461.09
476.38	437.68
476.56	470.45
476.74	442.36
476.92	430.66
477.10	386.19
477.28	416.62
477.46	402.57
477.64	372.15
477.82	463.43
478.00	351.08
478.18	437.68
478.36	400.23
478.54	463.43
478.72	407.25
478.90	388.53
479.08	358.10
479.26	486.83
479.44	430.66
479.62	369.80
479.80	308.95
479.98	400.23
480.16	418.96
480.34	463.43
480.52	493.85
480.70	418.96
480.88	479.81
481.06	404.91
481.24	313.63
481.41	472.79
481.59	416.62
481.77	447.04
481.95	353.42
482.13	454.06
482.31	376.83
482.49	402.57
482.67	423.64
482.85	416.62
483.03	418.96
483.21	348.74
483.39	428.32
483.57	428.32
483.74	416.62
483.92	425.98
484.10	454.06
484.28	461.09
484.46	517.26
484.64	418.96
484.82	407.25
485.00	517.26
485.18	496.19
485.35	395.55
485.53	346.40
485.71	442.36
485.89	348.74
486.07	397.89
486.25	482.15
486.43	425.98
486.61	355.76
486.78	404.91
486.96	376.83
487.14	369.80
487.32	414.27
487.50	365.12
487.68	365.12
487.85	381.51
488.03	407.25
488.21	449.38
488.39	386.19
488.57	390.87
488.75	411.93
488.92	500.87
489.10	395.55
489.28	437.68
489.46	421.30
489.64	451.72
489.81	341.72
489.99	402.57
490.17	416.62
490.35	409.59
490.53	409.59
490.70	409.59
490.88	447.04
491.06	414.27
491.24	475.13
491.41	451.72
491.59	477.47
491.77	447.04
491.95	454.06
492.13	367.46
492.30	437.68
492.48	397.89
492.66	428.32
492.84	386.19
493.01	477.47
493.19	362.78
493.37	418.96
493.54	484.49
493.72	386.19
493.90	414.27
494.08	400.23
494.25	365.12
494.43	449.38
494.61	442.36
494.79	477.47
494.96	390.87
495.14	418.96
495.32	404.91
495.49	360.44
495.67	395.55
495.85	383.85
496.02	425.98
496.20	407.25
496.38	440.02
496.55	402.57
496.73	435.34
496.91	397.89
497.09	411.93
497.26	433.00
497.44	442.36
497.62	435.34
497.79	390.87
497.97	498.53
498.14	388.53
498.32	379.17
498.50	374.49
498.67	367.46
498.85	372.15
499.03	416.62
499.20	400.23
499.38	407.25
499.56	505.56
499.73	451.72
499.91	430.66
500.08	374.49
500.26	374.49
500.44	430.66
500.61	421.30
500.79	442.36
500.97	500.87
501.14	454.06
501.32	421.30
501.49	425.98
501.67	409.59
501.84	444.70
502.02	418.96
502.20	465.77
502.37	482.15
502.55	442.36
502.72	430.66
502.90	433.00
503.07	407.25
503.25	454.06
503.43	442.36
503.60	393.21
503.78	454.06
503.95	477.47
504.13	442.36
504.30	348.74
504.48	442.36
504.65	430.66
504.83	388.53
505.01	376.83
505.18	397.89
505.36	472.79
505.53	388.53
505.71	442.36
505.88	430.66
506.06	440.02
506.23	428.32
506.41	402.57
506.58	355.76
506.76	458.74
506.93	407.25
507.11	393.21
507.28	379.17
507.46	416.62
507.63	456.40
507.81	402.57
507.98	425.98
508.16	407.25
508.33	433.00
508.50	383.85
508.68	362.78
508.85	346.40
509.03	442.36
509.20	306.61
509.38	440.02
509.55	358.10
509.73	402.57
509.90	381.51
510.08	397.89
510.25	428.32
510.42	454.06
510.60	465.77
510.77	358.10
510.95	486.83
511.12	395.55
511.30	444.70
511.47	402.57
511.64	376.83
511.82	416.62
511.99	416.62
512.17	407.25
512.34	423.64
512.51	411.93
512.69	430.66
512.86	437.68
513.04	451.72
513.21	407.25
513.38	411.93
513.56	454.06
513.73	414.27
513.90	421.30
514.08	355.76
514.25	383.85
514.43	433.00
514.60	367.46
514.77	388.53
514.95	456.40
515.12	418.96
515.29	461.09
515.47	468.11
515.64	458.74
515.81	421.30
515.99	365.12
516.16	479.81
516.33	404.91
516.51	409.59
516.68	411.93
516.85	465.77
517.03	411.93
517.20	447.04
517.37	437.68
517.54	393.21
517.72	404.91
517.89	327.68
518.06	433.00
518.24	451.72
518.41	409.59
518.58	411.93
518.75	421.30
518.93	393.21
519.10	383.85
519.27	390.87
519.45	451.72
519.62	407.25
519.79	369.80
519.96	442.36
520.14	456.40
520.31	435.34
520.48	407.25
520.65	381.51
520.83	444.70
521.00	463.43
521.17	435.34
521.34	390.87
521.52	411.93
521.69	444.70
521.86	358.10
522.03	404.91
522.20	477.47
522.38	521.94
522.55	430.66
522.72	376.83
522.89	442.36
523.07	489.17
523.24	447.04
523.41	444.70
523.58	402.57
523.75	358.10
523.92	379.17
524.10	407.25
524.27	437.68
524.44	404.91
524.61	397.89
524.78	430.66
524.96	454.06
525.13	484.49
525.30	421.30
525.47	435.34
525.64	353.42
525.81	376.83
525.98	409.59
526.16	390.87
526.33	402.57
526.50	435.34
526.67	418.96
526.84	416.62
527.01	404.91
527.18	440.02
527.36	344.06
527.53	397.89
527.70	430.66
527.87	395.55
528.04	433.00
528.21	395.55
528.38	379.17
528.55	355.76
528.72	458.74
528.89	449.38
529.07	414.27
529.24	433.00
529.41	493.85
529.58	365.12
529.75	365.12
529.92	404.91
530.09	386.19
530.26	421.30
530.43	440.02
530.60	388.53
530.77	404.91
530.94	416.62
531.11	444.70
531.28	386.19
531.46	372.15
531.63	414.27
531.80	430.66
531.97	409.59
532.14	411.93
532.31	425.98
532.48	463.43
532.65	423.64
532.82	351.08
532.99	374.49
533.16	472.79
533.33	437.68
533.50	407.25
533.67	374.49
533.84	372.15
534.01	447.04
534.18	386.19
534.35	435.34
534.52	400.23
534.69	482.15
534.86	423.64
535.03	327.68
535.20	372.15
535.37	482.15
535.54	393.21
535.71	376.83
535.88	444.70
536.05	470.45
536.22	465.77
536.38	397.89
536.55	404.91
536.72	437.68
536.89	437.68
537.06	465.77
537.23	367.46
537.40	447.04
537.57	411.93
537.74	578.11
537.91	475.13
538.08	435.34
538.25	390.87
538.42	454.06
538.59	425.98
538.75	449.38
538.92	451.72
539.09	461.09
539.26	433.00
539.43	458.74
539.60	430.66
539.77	437.68
539.94	423.64
540.11	451.72
540.28	465.77
540.44	407.25
540.61	440.02
540.78	358.10
540.95	360.44
541.12	433.00
541.29	397.89
541.46	430.66
541.62	411.93
541.79	442.36
541.96	465.77
542.13	404.91
542.30	437.68
542.47	475.13
542.63	435.34
542.80	425.98
542.97	454.06
543.14	414.27
543.31	447.04
543.48	461.09
543.64	468.11
543.81	360.44
543.98	409.59
544.15	414.27
544.32	404.91
544.48	402.57
544.65	383.85
544.82	425.98
544.99	379.17
545.16	437.68
545.32	411.93
545.49	402.57
545.66	409.59
545.83	430.66
546.00	444.70
546.16	519.60
546.33	407.25
546.50	393.21
546.67	463.43
546.83	379.17
547.00	421.30
547.17	402.57
547.34	346.40
547.50	414.27
547.67	409.59
547.84	489.17
548.00	533.64
548.17	465.77
548.34	451.72
548.51	463.43
548.67	475.13
548.84	369.80
549.01	447.04
549.18	369.80
549.34	416.62
549.51	482.15
549.68	442.36
549.84	435.34
550.01	397.89
550.18	493.85
550.34	456.40
550.51	472.79
550.68	486.83
550.84	416.62
551.01	465.77
551.18	444.70
551.34	458.74
551.51	496.19
551.68	451.72
551.84	346.40
552.01	425.98
552.18	444.70
552.34	351.08
552.51	428.32
552.68	472.79
552.84	425.98
553.01	409.59
553.18	444.70
553.34	442.36
553.51	442.36
553.67	451.72
553.84	423.64
554.01	421.30
554.17	369.80
554.34	414.27
554.51	507.90
554.67	482.15
554.84	510.24
555.00	390.87
555.17	411.93
555.33	414.27
555.50	313.63
555.67	472.79
555.83	407.25
556.00	414.27
556.16	519.60
556.33	442.36
556.50	421.30
556.66	367.46
556.83	430.66
556.99	430.66
557.16	407.25
557.32	430.66
557.49	390.87
557.65	447.04
557.82	433.00
557.98	411.93
558.15	332.36
558.32	362.78
558.48	428.32
558.65	404.91
558.81	414.27
558.98	435.34
559.14	374.49
559.31	425.98
559.47	449.38
559.64	372.15
559.80	358.10
559.97	416.62
560.13	407.25
560.30	430.66
560.46	425.98
560.63	458.74
560.79	402.57
560.96	395.55
561.12	425.98
561.29	409.59
561.45	395.55
561.61	411.93
561.78	589.82
561.94	390.87
562.11	416.62
562.27	437.68
562.44	395.55
562.60	367.46
562.77	404.91
562.93	428.32
563.10	418.96
563.26	388.53
563.42	430.66
563.59	423.64
563.75	447.04
563.92	458.74
564.08	465.77
564.24	428.32
564.41	449.38
564.57	440.02
564.74	428.32
564.90	383.85
565.07	470.45
565.23	414.27
565.39	362.78
565.56	393.21
565.72	372.15
565.88	451.72
566.05	348.74
566.21	341.72
566.38	409.59
566.54	400.23
566.70	433.00
566.87	358.10
567.03	437.68
567.19	465.77
567.36	411.93
567.52	454.06
567.68	444.70
567.85	360.44
568.01	390.87
568.17	365.12
568.34	468.11
568.50	442.36
568.66	414.27
568.83	440.02
568.99	395.55
569.15	444.70
569.32	388.53
569.48	395.55
569.64	327.68
569.81	414.27
569.97	425.98
570.13	461.09
570.30	402.57
570.46	447.04
570.62	500.87
570.78	414.27
570.95	416.62
571.11	484.49
571.27	433.00
571.43	404.91
571.60	430.66
571.76	330.02
571.92	374.49
572.09	348.74
572.25	430.66
572.41	400.23
572.57	428.32
572.74	512.58
572.90	388.53
573.06	351.08
573.22	393.21
573.38	418.96
573.55	482.15
573.71	414.27
573.87	414.27
574.03	421.30
574.20	430.66
574.36	414.27
574.52	463.43
574.68	388.53
574.84	388.53
575.01	379.17
575.17	449.38
575.33	362.78
575.49	454.06
575.65	390.87
575.82	437.68
575.98	388.53
576.14	414.27
576.30	437.68
576.46	463.43
576.62	421.30
576.79	379.17
576.95	482.15
577.11	421.30
577.27	390.87
577.43	456.40
577.59	449.38
577.75	433.00
577.92	351.08
578.08	451.72
578.24	458.74
578.40	425.98
578.56	407.25
578.72	444.70
578.88	428.32
579.04	454.06
579.21	437.68
579.37	407.25
579.53	449.38
579.69	517.26
579.85	442.36
580.01	404.91
580.17	458.74
580.33	374.49
580.49	449.38
580.65	423.64
580.82	437.68
580.98	423.64
581.14	418.96
581.30	411.93
581.46	425.98
581.62	428.32
581.78	402.57
581.94	379.17
582.10	423.64
582.26	409.59
582.42	409.59
582.58	400.23
582.74	388.53
582.90	440.02
583.06	505.56
583.22	421.30
583.38	428.32
583.54	353.42
583.70	430.66
583.86	358.10
584.02	393.21
584.18	503.22
584.34	409.59
584.50	425.98
584.66	367.46
584.82	395.55
584.98	428.32
585.14	348.74
585.30	386.19
585.46	547.69
585.62	339.38
585.78	358.10
585.94	449.38
586.10	468.11
586.26	437.68
586.42	463.43
586.58	442.36
586.74	367.46
586.90	444.70
587.06	404.91
587.22	351.08
587.38	421.30
587.54	386.19
587.70	372.15
587.86	442.36
588.02	404.91
588.18	456.40
588.34	447.04
588.49	421.30
588.65	374.49
588.81	388.53
588.97	428.32
589.13	440.02
589.29	451.72
589.45	512.58
589.61	355.76
589.77	444.70
589.93	376.83
590.08	414.27
590.24	411.93
590.40	423.64
590.56	512.58
590.72	369.80
590.88	423.64
591.04	421.30
591.20	379.17
591.35	376.83
591.51	360.44
591.67	388.53
591.83	454.06
591.99	376.83
592.15	440.02
592.31	475.13
592.46	437.68
592.62	437.68
592.78	458.74
592.94	418.96
593.10	437.68
593.26	437.68
593.41	447.04
593.57	421.30
593.73	433.00
593.89	442.36
594.05	400.23
594.20	433.00
594.36	458.74
594.52	418.96
594.68	365.12
594.84	414.27
594.99	425.98
595.15	383.85
595.31	463.43
595.47	416.62
595.62	428.32
595.78	344.06
595.94	486.83
596.10	425.98
596.25	428.32
596.41	470.45
596.57	423.64
596.73	423.64
596.88	397.89
597.04	376.83
597.20	456.40
597.36	308.95
597.51	470.45
597.67	449.38
597.83	383.85
597.99	416.62
598.14	416.62
598.30	451.72
598.46	442.36
598.61	379.17
598.77	421.30
598.93	489.17
599.09	430.66
599.24	407.25
599.40	416.62
599.56	367.46
599.71	411.93
599.87	461.09
600.03	409.59
600.18	421.30
600.34	367.46
600.50	409.59
600.65	479.81
600.81	409.59
600.97	411.93
601.12	430.66
601.28	390.87
601.44	484.49
601.59	430.66
601.75	475.13
601.91	418.96
602.06	418.96
602.22	411.93
602.37	386.19
602.53	505.56
602.69	409.59
602.84	402.57
603.00	456.40
603.16	369.80
603.31	468.11
603.47	461.09
603.62	440.02
603.78	402.57
603.94	468.11
604.09	383.85
604.25	414.27
604.40	402.57
604.56	461.09
604.71	444.70
604.87	414.27
605.03	353.42
605.18	437.68
605.34	524.28
605.49	479.81
605.65	395.55
605.80	397.89
605.96	433.00
606.12	449.38
606.27	435.34
606.43	510.24
606.58	437.68
606.74	454.06
606.89	346.40
607.05	451.72
607.20	337.04
607.36	461.09
607.51	433.00
607.67	407.25
607.82	393.21
607.98	430.66
608.13	383.85
608.29	449.38
608.44	444.70
608.60	440.02
608.75	437.68
608.91	435.34
609.06	376.83
609.22	374.49
609.37	465.77
609.53	409.59
609.68	358.10
609.84	409.59
609.99	379.17
610.15	409.59
