SpectraSuite Data File
++++++++++++++++++++++++++++++++++++
Date: Fri Oct 25 12:10:38 EDT 2013
User: price-jones
Dark Spectrum Present: No
Reference Spectrum Present: No
Number of Sampled Component Spectra: 1
Spectrometers: USB2+H05261
Integration Time (usec): 100000 (USB2+H05261)
Spectra Averaged: 1 (USB2+H05261)
Boxcar Smoothing: 0 (USB2+H05261)
Correct for Electrical Dark: No (USB2+H05261)
Strobe/Lamp Enabled: No (USB2+H05261)
Correct for Detector Non-linearity: No (USB2+H05261)
Correct for Stray Light: No (USB2+H05261)
Number of Pixels in Processed Spectrum: 2048
>>>>>Begin Processed Spectral Data<<<<<
365.73	369.80
365.92	369.80
366.12	369.80
366.32	278.52
366.52	236.39
366.72	318.31
366.91	227.03
367.11	210.65
367.31	227.03
367.51	241.08
367.70	182.56
367.90	222.35
368.10	241.08
368.30	250.44
368.49	217.67
368.69	224.69
368.89	245.76
369.09	238.73
369.28	285.55
369.48	315.97
369.68	320.65
369.87	238.73
370.07	301.93
370.27	294.91
370.47	320.65
370.66	339.38
370.86	346.40
371.06	362.78
371.25	374.49
371.45	390.87
371.65	355.76
371.84	287.89
372.04	397.89
372.24	418.96
372.44	400.23
372.63	379.17
372.83	332.36
373.03	372.15
373.22	447.04
373.42	472.79
373.62	376.83
373.81	374.49
374.01	390.87
374.21	479.81
374.40	411.93
374.60	531.30
374.79	430.66
374.99	409.59
375.19	374.49
375.38	404.91
375.58	374.49
375.78	456.40
375.97	402.57
376.17	397.89
376.37	421.30
376.56	393.21
376.76	435.34
376.95	390.87
377.15	454.06
377.35	451.72
377.54	433.00
377.74	372.15
377.93	372.15
378.13	433.00
378.33	395.55
378.52	353.42
378.72	458.74
378.91	388.53
379.11	444.70
379.31	386.19
379.50	395.55
379.70	313.63
379.89	409.59
380.09	374.49
380.28	414.27
380.48	428.32
380.68	327.68
380.87	383.85
381.07	411.93
381.26	435.34
381.46	372.15
381.65	369.80
381.85	379.17
382.04	393.21
382.24	395.55
382.43	421.30
382.63	395.55
382.83	407.25
383.02	358.10
383.22	430.66
383.41	372.15
383.61	414.27
383.80	397.89
384.00	395.55
384.19	416.62
384.39	400.23
384.58	374.49
384.78	383.85
384.97	421.30
385.17	365.12
385.36	447.04
385.56	444.70
385.75	416.62
385.95	332.36
386.14	421.30
386.34	425.98
386.53	386.19
386.72	348.74
386.92	456.40
387.11	498.53
387.31	404.91
387.50	404.91
387.70	409.59
387.89	381.51
388.09	383.85
388.28	367.46
388.48	390.87
388.67	437.68
388.86	425.98
389.06	458.74
389.25	414.27
389.45	425.98
389.64	404.91
389.84	456.40
390.03	430.66
390.22	423.64
390.42	409.59
390.61	421.30
390.81	341.72
391.00	444.70
391.19	458.74
391.39	365.12
391.58	367.46
391.78	330.02
391.97	447.04
392.16	435.34
392.36	397.89
392.55	482.15
392.75	433.00
392.94	437.68
393.13	407.25
393.33	395.55
393.52	425.98
393.71	465.77
393.91	421.30
394.10	444.70
394.29	388.53
394.49	381.51
394.68	379.17
394.88	442.36
395.07	463.43
395.26	428.32
395.46	360.44
395.65	355.76
395.84	404.91
396.04	503.22
396.23	379.17
396.42	458.74
396.62	472.79
396.81	430.66
397.00	409.59
397.19	386.19
397.39	409.59
397.58	440.02
397.77	430.66
397.97	421.30
398.16	414.27
398.35	372.15
398.55	407.25
398.74	386.19
398.93	496.19
399.12	425.98
399.32	414.27
399.51	339.38
399.70	351.08
399.90	365.12
400.09	482.15
400.28	409.59
400.47	416.62
400.67	423.64
400.86	393.21
401.05	386.19
401.24	397.89
401.44	496.19
401.63	407.25
401.82	397.89
402.01	407.25
402.21	414.27
402.40	442.36
402.59	409.59
402.78	479.81
402.97	440.02
403.17	339.38
403.36	400.23
403.55	433.00
403.74	346.40
403.93	449.38
404.13	421.30
404.32	381.51
404.51	351.08
404.70	447.04
404.89	346.40
405.09	514.92
405.28	428.32
405.47	418.96
405.66	367.46
405.85	470.45
406.05	388.53
406.24	360.44
406.43	386.19
406.62	395.55
406.81	477.47
407.00	404.91
407.20	383.85
407.39	367.46
407.58	451.72
407.77	433.00
407.96	465.77
408.15	440.02
408.34	437.68
408.54	358.10
408.73	430.66
408.92	358.10
409.11	365.12
409.30	425.98
409.49	306.61
409.68	423.64
409.87	388.53
410.07	341.72
410.26	404.91
410.45	414.27
410.64	376.83
410.83	351.08
411.02	421.30
411.21	414.27
411.40	397.89
411.59	367.46
411.78	386.19
411.98	454.06
412.17	411.93
412.36	444.70
412.55	418.96
412.74	411.93
412.93	433.00
413.12	468.11
413.31	454.06
413.50	430.66
413.69	458.74
413.88	418.96
414.07	376.83
414.26	355.76
414.45	339.38
414.64	390.87
414.83	461.09
415.02	454.06
415.22	367.46
415.41	433.00
415.60	416.62
415.79	454.06
415.98	477.47
416.17	388.53
416.36	447.04
416.55	407.25
416.74	416.62
416.93	425.98
417.12	372.15
417.31	393.21
417.50	414.27
417.69	400.23
417.88	374.49
418.07	362.78
418.26	393.21
418.45	351.08
418.64	442.36
418.83	409.59
419.02	421.30
419.21	367.46
419.39	456.40
419.58	351.08
419.77	414.27
419.96	337.04
420.15	435.34
420.34	402.57
420.53	416.62
420.72	404.91
420.91	442.36
421.10	425.98
421.29	402.57
421.48	423.64
421.67	447.04
421.86	428.32
422.05	358.10
422.24	337.04
422.43	397.89
422.61	372.15
422.80	376.83
422.99	404.91
423.18	451.72
423.37	454.06
423.56	400.23
423.75	416.62
423.94	397.89
424.13	437.68
424.32	400.23
424.50	374.49
424.69	404.91
424.88	388.53
425.07	447.04
425.26	442.36
425.45	442.36
425.64	418.96
425.83	421.30
426.01	442.36
426.20	421.30
426.39	421.30
426.58	407.25
426.77	428.32
426.96	362.78
427.15	411.93
427.33	402.57
427.52	353.42
427.71	418.96
427.90	376.83
428.09	442.36
428.28	372.15
428.46	447.04
428.65	411.93
428.84	440.02
429.03	454.06
429.22	402.57
429.40	376.83
429.59	383.85
429.78	383.85
429.97	339.38
430.16	418.96
430.34	341.72
430.53	442.36
430.72	489.17
430.91	388.53
431.10	411.93
431.28	386.19
431.47	351.08
431.66	421.30
431.85	360.44
432.03	433.00
432.22	493.85
432.41	332.36
432.60	407.25
432.79	365.12
432.97	372.15
433.16	360.44
433.35	435.34
433.54	376.83
433.72	341.72
433.91	351.08
434.10	393.21
434.28	425.98
434.47	444.70
434.66	482.15
434.85	400.23
435.03	395.55
435.22	421.30
435.41	425.98
435.59	351.08
435.78	393.21
435.97	449.38
436.16	421.30
436.34	470.45
436.53	411.93
436.72	388.53
436.90	512.58
437.09	393.21
437.28	433.00
437.46	383.85
437.65	404.91
437.84	430.66
438.02	383.85
438.21	418.96
438.40	444.70
438.58	376.83
438.77	365.12
438.96	381.51
439.14	423.64
439.33	442.36
439.52	374.49
439.70	379.17
439.89	414.27
440.08	498.53
440.26	451.72
440.45	407.25
440.63	355.76
440.82	404.91
441.01	428.32
441.19	402.57
441.38	383.85
441.57	388.53
441.75	409.59
441.94	393.21
442.12	414.27
442.31	388.53
442.50	355.76
442.68	482.15
442.87	395.55
443.05	411.93
443.24	407.25
443.43	397.89
443.61	418.96
443.80	327.68
443.98	383.85
444.17	411.93
444.35	472.79
444.54	456.40
444.73	407.25
444.91	433.00
445.10	362.78
445.28	407.25
445.47	463.43
445.65	421.30
445.84	435.34
446.02	468.11
446.21	433.00
446.39	416.62
446.58	358.10
446.77	409.59
446.95	381.51
447.14	435.34
447.32	409.59
447.51	404.91
447.69	449.38
447.88	383.85
448.06	425.98
448.25	409.59
448.43	404.91
448.62	409.59
448.80	479.81
448.99	428.32
449.17	465.77
449.36	414.27
449.54	374.49
449.73	449.38
449.91	355.76
450.10	386.19
450.28	430.66
450.46	414.27
450.65	402.57
450.83	400.23
451.02	393.21
451.20	355.76
451.39	411.93
451.57	381.51
451.76	461.09
451.94	397.89
452.13	423.64
452.31	372.15
452.49	425.98
452.68	400.23
452.86	418.96
453.05	510.24
453.23	397.89
453.42	433.00
453.60	379.17
453.78	376.83
453.97	404.91
454.15	383.85
454.34	400.23
454.52	372.15
454.70	383.85
454.89	430.66
455.07	395.55
455.26	418.96
455.44	383.85
455.62	397.89
455.81	376.83
455.99	425.98
456.17	489.17
456.36	425.98
456.54	400.23
456.73	409.59
456.91	388.53
457.09	402.57
457.28	454.06
457.46	362.78
457.64	461.09
457.83	411.93
458.01	404.91
458.19	379.17
458.38	400.23
458.56	386.19
458.74	463.43
458.93	397.89
459.11	435.34
459.29	344.06
459.48	498.53
459.66	524.28
459.84	470.45
460.03	535.98
460.21	430.66
460.39	423.64
460.57	402.57
460.76	369.80
460.94	409.59
461.12	451.72
461.31	442.36
461.49	386.19
461.67	440.02
461.85	358.10
462.04	360.44
462.22	760.67
462.40	540.66
462.59	393.21
462.77	461.09
462.95	404.91
463.13	418.96
463.32	496.19
463.50	491.51
463.68	425.98
463.86	442.36
464.05	390.87
464.23	393.21
464.41	390.87
464.59	416.62
464.78	416.62
464.96	425.98
465.14	425.98
465.32	376.83
465.50	374.49
465.69	404.91
465.87	440.02
466.05	458.74
466.23	337.04
466.41	358.10
466.60	367.46
466.78	386.19
466.96	411.93
467.14	416.62
467.32	444.70
467.51	461.09
467.69	407.25
467.87	388.53
468.05	430.66
468.23	540.66
468.41	404.91
468.60	344.06
468.78	404.91
468.96	435.34
469.14	395.55
469.32	423.64
469.50	433.00
469.69	447.04
469.87	447.04
470.05	425.98
470.23	402.57
470.41	461.09
470.59	435.34
470.77	397.89
470.95	451.72
471.14	444.70
471.32	409.59
471.50	416.62
471.68	435.34
471.86	428.32
472.04	402.57
472.22	411.93
472.40	369.80
472.58	379.17
472.77	440.02
472.95	414.27
473.13	444.70
473.31	461.09
473.49	421.30
473.67	344.06
473.85	386.19
474.03	388.53
474.21	348.74
474.39	397.89
474.57	404.91
474.75	379.17
474.93	456.40
475.12	383.85
475.30	397.89
475.48	397.89
475.66	372.15
475.84	383.85
476.02	411.93
476.20	491.51
476.38	437.68
476.56	437.68
476.74	402.57
476.92	442.36
477.10	428.32
477.28	414.27
477.46	472.79
477.64	479.81
477.82	500.87
478.00	395.55
478.18	400.23
478.36	379.17
478.54	381.51
478.72	409.59
478.90	393.21
479.08	465.77
479.26	433.00
479.44	428.32
479.62	458.74
479.80	430.66
479.98	369.80
480.16	407.25
480.34	395.55
480.52	416.62
480.70	395.55
480.88	435.34
481.06	484.49
481.24	458.74
481.41	383.85
481.59	428.32
481.77	374.49
481.95	433.00
482.13	411.93
482.31	437.68
482.49	421.30
482.67	409.59
482.85	306.61
483.03	442.36
483.21	409.59
483.39	454.06
483.57	444.70
483.74	456.40
483.92	482.15
484.10	416.62
484.28	411.93
484.46	458.74
484.64	369.80
484.82	482.15
485.00	379.17
485.18	400.23
485.35	484.49
485.53	362.78
485.71	472.79
485.89	409.59
486.07	402.57
486.25	496.19
486.43	416.62
486.61	470.45
486.78	500.87
486.96	465.77
487.14	362.78
487.32	430.66
487.50	383.85
487.68	421.30
487.85	442.36
488.03	461.09
488.21	428.32
488.39	489.17
488.57	355.76
488.75	381.51
488.92	514.92
489.10	414.27
489.28	442.36
489.46	486.83
489.64	442.36
489.81	390.87
489.99	430.66
490.17	400.23
490.35	482.15
490.53	376.83
490.70	423.64
490.88	402.57
491.06	318.31
491.24	379.17
491.41	486.83
491.59	365.12
491.77	416.62
491.95	409.59
492.13	421.30
492.30	447.04
492.48	449.38
492.66	353.42
492.84	416.62
493.01	404.91
493.19	388.53
493.37	514.92
493.54	468.11
493.72	465.77
493.90	433.00
494.08	458.74
494.25	411.93
494.43	411.93
494.61	442.36
494.79	402.57
494.96	353.42
495.14	475.13
495.32	400.23
495.49	393.21
495.67	428.32
495.85	400.23
496.02	433.00
496.20	393.21
496.38	404.91
496.55	369.80
496.73	463.43
496.91	425.98
497.09	409.59
497.26	470.45
497.44	449.38
497.62	440.02
497.79	454.06
497.97	477.47
498.14	411.93
498.32	416.62
498.50	393.21
498.67	348.74
498.85	390.87
499.03	414.27
499.20	388.53
499.38	379.17
499.56	458.74
499.73	409.59
499.91	418.96
500.08	475.13
500.26	355.76
500.44	411.93
500.61	407.25
500.79	437.68
500.97	531.30
501.14	437.68
501.32	400.23
501.49	456.40
501.67	376.83
501.84	379.17
502.02	393.21
502.20	386.19
502.37	411.93
502.55	421.30
502.72	402.57
502.90	414.27
503.07	414.27
503.25	418.96
503.43	451.72
503.60	409.59
503.78	386.19
503.95	449.38
504.13	444.70
504.30	369.80
504.48	402.57
504.65	428.32
504.83	348.74
505.01	409.59
505.18	491.51
505.36	416.62
505.53	461.09
505.71	390.87
505.88	447.04
506.06	411.93
506.23	395.55
506.41	367.46
506.58	395.55
506.76	400.23
506.93	454.06
507.11	358.10
507.28	470.45
507.46	433.00
507.63	404.91
507.81	425.98
507.98	444.70
508.16	397.89
508.33	386.19
508.50	498.53
508.68	414.27
508.85	442.36
509.03	425.98
509.20	456.40
509.38	430.66
509.55	353.42
509.73	400.23
509.90	444.70
510.08	318.31
510.25	386.19
510.42	402.57
510.60	393.21
510.77	395.55
510.95	386.19
511.12	362.78
511.30	414.27
511.47	440.02
511.64	435.34
511.82	330.02
511.99	381.51
512.17	402.57
512.34	332.36
512.51	442.36
512.69	325.33
512.86	484.49
513.04	458.74
513.21	454.06
513.38	376.83
513.56	358.10
513.73	470.45
513.90	451.72
514.08	465.77
514.25	388.53
514.43	468.11
514.60	386.19
514.77	390.87
514.95	421.30
515.12	376.83
515.29	444.70
515.47	409.59
515.64	472.79
515.81	414.27
515.99	393.21
516.16	397.89
516.33	437.68
516.51	433.00
516.68	402.57
516.85	372.15
517.03	425.98
517.20	433.00
517.37	428.32
517.54	465.77
517.72	393.21
517.89	369.80
518.06	390.87
518.24	489.17
518.41	437.68
518.58	402.57
518.75	404.91
518.93	379.17
519.10	484.49
519.27	365.12
519.45	402.57
519.62	390.87
519.79	449.38
519.96	388.53
520.14	407.25
520.31	416.62
520.48	444.70
520.65	447.04
520.83	454.06
521.00	437.68
521.17	393.21
521.34	362.78
521.52	440.02
521.69	456.40
521.86	379.17
522.03	430.66
522.20	430.66
522.38	421.30
522.55	428.32
522.72	414.27
522.89	437.68
523.07	461.09
523.24	362.78
523.41	404.91
523.58	381.51
523.75	365.12
523.92	414.27
524.10	390.87
524.27	397.89
524.44	435.34
524.61	465.77
524.78	365.12
524.96	381.51
525.13	390.87
525.30	369.80
525.47	475.13
525.64	449.38
525.81	414.27
525.98	482.15
526.16	461.09
526.33	470.45
526.50	447.04
526.67	402.57
526.84	463.43
527.01	344.06
527.18	402.57
527.36	433.00
527.53	362.78
527.70	442.36
527.87	409.59
528.04	449.38
528.21	456.40
528.38	397.89
528.55	381.51
528.72	465.77
528.89	444.70
529.07	461.09
529.24	325.33
529.41	393.21
529.58	465.77
529.75	395.55
529.92	449.38
530.09	433.00
530.26	449.38
530.43	442.36
530.60	381.51
530.77	407.25
530.94	444.70
531.11	449.38
531.28	381.51
531.46	407.25
531.63	355.76
531.80	461.09
531.97	444.70
532.14	376.83
532.31	435.34
532.48	475.13
532.65	402.57
532.82	358.10
532.99	477.47
533.16	421.30
533.33	421.30
533.50	440.02
533.67	414.27
533.84	416.62
534.01	430.66
534.18	430.66
534.35	433.00
534.52	404.91
534.69	393.21
534.86	423.64
535.03	311.29
535.20	435.34
535.37	435.34
535.54	360.44
535.71	402.57
535.88	362.78
536.05	386.19
536.22	482.15
536.38	369.80
536.55	477.47
536.72	442.36
536.89	409.59
537.06	437.68
537.23	372.15
537.40	416.62
537.57	393.21
537.74	402.57
537.91	458.74
538.08	360.44
538.25	402.57
538.42	360.44
538.59	437.68
538.75	435.34
538.92	440.02
539.09	411.93
539.26	458.74
539.43	491.51
539.60	421.30
539.77	388.53
539.94	440.02
540.11	379.17
540.28	428.32
540.44	521.94
540.61	440.02
540.78	348.74
540.95	397.89
541.12	465.77
541.29	486.83
541.46	442.36
541.62	442.36
541.79	409.59
541.96	353.42
542.13	390.87
542.30	437.68
542.47	468.11
542.63	468.11
542.80	390.87
542.97	447.04
543.14	454.06
543.31	433.00
543.48	397.89
543.64	425.98
543.81	334.70
543.98	381.51
544.15	355.76
544.32	348.74
544.48	355.76
544.65	404.91
544.82	376.83
544.99	369.80
545.16	451.72
545.32	397.89
545.49	437.68
545.66	411.93
545.83	372.15
546.00	416.62
546.16	353.42
546.33	416.62
546.50	374.49
546.67	372.15
546.83	449.38
547.00	489.17
547.17	447.04
547.34	402.57
547.50	400.23
547.67	360.44
547.84	379.17
548.00	447.04
548.17	344.06
548.34	491.51
548.51	418.96
548.67	390.87
548.84	433.00
549.01	437.68
549.18	423.64
549.34	313.63
549.51	381.51
549.68	468.11
549.84	479.81
550.01	411.93
550.18	468.11
550.34	456.40
550.51	521.94
550.68	468.11
550.84	461.09
551.01	421.30
551.18	489.17
551.34	435.34
551.51	428.32
551.68	381.51
551.84	447.04
552.01	414.27
552.18	430.66
552.34	409.59
552.51	402.57
552.68	416.62
552.84	402.57
553.01	454.06
553.18	376.83
553.34	325.33
553.51	451.72
553.67	463.43
553.84	430.66
554.01	449.38
554.17	423.64
554.34	344.06
554.51	376.83
554.67	416.62
554.84	367.46
555.00	411.93
555.17	484.49
555.33	433.00
555.50	414.27
555.67	404.91
555.83	341.72
556.00	447.04
556.16	521.94
556.33	402.57
556.50	379.17
556.66	435.34
556.83	423.64
556.99	390.87
557.16	360.44
557.32	421.30
557.49	388.53
557.65	409.59
557.82	402.57
557.98	383.85
558.15	390.87
558.32	423.64
558.48	451.72
558.65	433.00
558.81	433.00
558.98	416.62
559.14	456.40
559.31	437.68
559.47	404.91
559.64	414.27
559.80	411.93
559.97	505.56
560.13	433.00
560.30	468.11
560.46	407.25
560.63	543.00
560.79	374.49
560.96	437.68
561.12	428.32
561.29	367.46
561.45	451.72
561.61	388.53
561.78	512.58
561.94	451.72
562.11	402.57
562.27	461.09
562.44	362.78
562.60	458.74
562.77	491.51
562.93	444.70
563.10	440.02
563.26	397.89
563.42	386.19
563.59	404.91
563.75	411.93
563.92	507.90
564.08	414.27
564.24	449.38
564.41	421.30
564.57	421.30
564.74	461.09
564.90	433.00
565.07	463.43
565.23	414.27
565.39	348.74
565.56	444.70
565.72	421.30
565.88	390.87
566.05	409.59
566.21	423.64
566.38	472.79
566.54	390.87
566.70	461.09
566.87	416.62
567.03	430.66
567.19	395.55
567.36	484.49
567.52	472.79
567.68	393.21
567.85	482.15
568.01	416.62
568.17	447.04
568.34	507.90
568.50	477.47
568.66	388.53
568.83	498.53
568.99	407.25
569.15	402.57
569.32	454.06
569.48	456.40
569.64	456.40
569.81	395.55
569.97	435.34
570.13	411.93
570.30	400.23
570.46	367.46
570.62	442.36
570.78	360.44
570.95	390.87
571.11	468.11
571.27	425.98
571.43	482.15
571.60	386.19
571.76	428.32
571.92	425.98
572.09	374.49
572.25	414.27
572.41	411.93
572.57	409.59
572.74	433.00
572.90	491.51
573.06	404.91
573.22	358.10
573.38	407.25
573.55	379.17
573.71	390.87
573.87	465.77
574.03	477.47
574.20	379.17
574.36	411.93
574.52	510.24
574.68	437.68
574.84	449.38
575.01	397.89
575.17	423.64
575.33	388.53
575.49	461.09
575.65	421.30
575.82	470.45
575.98	468.11
576.14	379.17
576.30	386.19
576.46	451.72
576.62	430.66
576.79	430.66
576.95	521.94
577.11	383.85
577.27	442.36
577.43	423.64
577.59	414.27
577.75	442.36
577.92	468.11
578.08	472.79
578.24	414.27
578.40	470.45
578.56	449.38
578.72	444.70
578.88	416.62
579.04	395.55
579.21	425.98
579.37	393.21
579.53	449.38
579.69	503.22
579.85	397.89
580.01	484.49
580.17	451.72
580.33	465.77
580.49	400.23
580.65	449.38
580.82	355.76
580.98	435.34
581.14	423.64
581.30	416.62
581.46	404.91
581.62	472.79
581.78	468.11
581.94	430.66
582.10	397.89
582.26	393.21
582.42	430.66
582.58	411.93
582.74	507.90
582.90	367.46
583.06	486.83
583.22	411.93
583.38	407.25
583.54	423.64
583.70	458.74
583.86	428.32
584.02	379.17
584.18	388.53
584.34	353.42
584.50	423.64
584.66	437.68
584.82	404.91
584.98	416.62
585.14	388.53
585.30	430.66
585.46	395.55
585.62	388.53
585.78	400.23
585.94	374.49
586.10	367.46
586.26	409.59
586.42	496.19
586.58	465.77
586.74	454.06
586.90	379.17
587.06	428.32
587.22	404.91
587.38	425.98
587.54	425.98
587.70	454.06
587.86	433.00
588.02	397.89
588.18	402.57
588.34	421.30
588.49	402.57
588.65	330.02
588.81	400.23
588.97	353.42
589.13	428.32
589.29	428.32
589.45	430.66
589.61	386.19
589.77	472.79
589.93	360.44
590.08	423.64
590.24	292.57
590.40	374.49
590.56	425.98
590.72	442.36
590.88	381.51
591.04	486.83
591.20	390.87
591.35	435.34
591.51	332.36
591.67	332.36
591.83	433.00
591.99	411.93
592.15	442.36
592.31	409.59
592.46	421.30
592.62	365.12
592.78	397.89
592.94	404.91
593.10	369.80
593.26	395.55
593.41	348.74
593.57	418.96
593.73	461.09
593.89	486.83
594.05	458.74
594.20	381.51
594.36	393.21
594.52	496.19
594.68	433.00
594.84	477.47
594.99	468.11
595.15	423.64
595.31	397.89
595.47	449.38
595.62	395.55
595.78	379.17
595.94	479.81
596.10	400.23
596.25	428.32
596.41	470.45
596.57	418.96
596.73	454.06
596.88	416.62
597.04	409.59
597.20	379.17
597.36	440.02
597.51	498.53
597.67	386.19
597.83	390.87
597.99	409.59
598.14	388.53
598.30	437.68
598.46	344.06
598.61	514.92
598.77	402.57
598.93	402.57
599.09	313.63
599.24	397.89
599.40	461.09
599.56	393.21
599.71	395.55
599.87	461.09
600.03	463.43
600.18	372.15
600.34	393.21
600.50	404.91
600.65	379.17
600.81	451.72
600.97	397.89
601.12	479.81
601.28	418.96
601.44	444.70
601.59	430.66
601.75	311.29
601.91	379.17
602.06	404.91
602.22	514.92
602.37	414.27
602.53	454.06
602.69	423.64
602.84	383.85
603.00	337.04
603.16	299.59
603.31	428.32
603.47	496.19
603.62	337.04
603.78	447.04
603.94	369.80
604.09	440.02
604.25	416.62
604.40	374.49
604.56	442.36
604.71	444.70
604.87	440.02
605.03	362.78
605.18	449.38
605.34	440.02
605.49	372.15
605.65	383.85
605.80	456.40
605.96	435.34
606.12	407.25
606.27	418.96
606.43	411.93
606.58	461.09
606.74	440.02
606.89	433.00
607.05	402.57
607.20	444.70
607.36	472.79
607.51	470.45
607.67	407.25
607.82	402.57
607.98	388.53
608.13	425.98
608.29	428.32
608.44	421.30
608.60	409.59
608.75	451.72
608.91	416.62
609.06	449.38
609.22	376.83
609.37	400.23
609.53	409.59
609.68	386.19
609.84	383.85
609.99	414.27
610.15	472.79
