SpectraSuite Data File
++++++++++++++++++++++++++++++++++++
Date: Fri Oct 25 12:11:29 EDT 2013
User: price-jones
Dark Spectrum Present: No
Reference Spectrum Present: No
Number of Sampled Component Spectra: 1
Spectrometers: USB2+H05261
Integration Time (usec): 100000 (USB2+H05261)
Spectra Averaged: 1 (USB2+H05261)
Boxcar Smoothing: 0 (USB2+H05261)
Correct for Electrical Dark: No (USB2+H05261)
Strobe/Lamp Enabled: No (USB2+H05261)
Correct for Detector Non-linearity: No (USB2+H05261)
Correct for Stray Light: No (USB2+H05261)
Number of Pixels in Processed Spectrum: 2048
>>>>>Begin Processed Spectral Data<<<<<
365.73	358.10
365.92	358.10
366.12	358.10
366.32	299.59
366.52	287.89
366.72	269.16
366.91	231.71
367.11	351.08
367.31	330.02
367.51	245.76
367.70	285.55
367.90	271.50
368.10	287.89
368.30	290.23
368.49	259.80
368.69	217.67
368.89	297.25
369.09	264.48
369.28	252.78
369.48	332.36
369.68	325.33
369.87	351.08
370.07	304.27
370.27	224.69
370.47	369.80
370.66	351.08
370.86	402.57
371.06	318.31
371.25	393.21
371.45	409.59
371.65	411.93
371.84	407.25
372.04	358.10
372.24	414.27
372.44	374.49
372.63	458.74
372.83	360.44
373.03	390.87
373.22	360.44
373.42	423.64
373.62	451.72
373.81	320.65
374.01	390.87
374.21	440.02
374.40	404.91
374.60	409.59
374.79	468.11
374.99	428.32
375.19	423.64
375.38	477.47
375.58	421.30
375.78	470.45
375.97	358.10
376.17	381.51
376.37	463.43
376.56	388.53
376.76	433.00
376.95	444.70
377.15	430.66
377.35	390.87
377.54	440.02
377.74	404.91
377.93	421.30
378.13	428.32
378.33	395.55
378.52	404.91
378.72	440.02
378.91	437.68
379.11	430.66
379.31	428.32
379.50	365.12
379.70	468.11
379.89	428.32
380.09	456.40
380.28	395.55
380.48	402.57
380.68	315.97
380.87	372.15
381.07	369.80
381.26	416.62
381.46	447.04
381.65	442.36
381.85	418.96
382.04	400.23
382.24	435.34
382.43	435.34
382.63	423.64
382.83	437.68
383.02	411.93
383.22	451.72
383.41	311.29
383.61	458.74
383.80	449.38
384.00	444.70
384.19	395.55
384.39	517.26
384.58	376.83
384.78	407.25
384.97	400.23
385.17	330.02
385.36	386.19
385.56	374.49
385.75	425.98
385.95	334.70
386.14	411.93
386.34	386.19
386.53	376.83
386.72	435.34
386.92	505.56
387.11	409.59
387.31	374.49
387.50	358.10
387.70	409.59
387.89	358.10
388.09	442.36
388.28	416.62
388.48	381.51
388.67	505.56
388.86	362.78
389.06	425.98
389.25	454.06
389.45	393.21
389.64	351.08
389.84	440.02
390.03	393.21
390.22	428.32
390.42	425.98
390.61	428.32
390.81	372.15
391.00	409.59
391.19	451.72
391.39	351.08
391.58	407.25
391.78	428.32
391.97	437.68
392.16	433.00
392.36	393.21
392.55	484.49
392.75	395.55
392.94	484.49
393.13	442.36
393.33	367.46
393.52	327.68
393.71	428.32
393.91	416.62
394.10	376.83
394.29	411.93
394.49	421.30
394.68	393.21
394.88	407.25
395.07	393.21
395.26	463.43
395.46	489.17
395.65	400.23
395.84	449.38
396.04	528.96
396.23	365.12
396.42	433.00
396.62	376.83
396.81	463.43
397.00	430.66
397.19	369.80
397.39	322.99
397.58	404.91
397.77	440.02
397.97	425.98
398.16	425.98
398.35	425.98
398.55	442.36
398.74	414.27
398.93	397.89
399.12	416.62
399.32	376.83
399.51	465.77
399.70	404.91
399.90	395.55
400.09	346.40
400.28	393.21
400.47	425.98
400.67	334.70
400.86	444.70
401.05	404.91
401.24	465.77
401.44	414.27
401.63	414.27
401.82	400.23
402.01	407.25
402.21	397.89
402.40	442.36
402.59	444.70
402.78	379.17
402.97	447.04
403.17	447.04
403.36	421.30
403.55	393.21
403.74	367.46
403.93	411.93
404.13	482.15
404.32	379.17
404.51	397.89
404.70	430.66
404.89	425.98
405.09	447.04
405.28	418.96
405.47	423.64
405.66	416.62
405.85	414.27
406.05	470.45
406.24	386.19
406.43	365.12
406.62	416.62
406.81	423.64
407.00	442.36
407.20	360.44
407.39	425.98
407.58	409.59
407.77	447.04
407.96	444.70
408.15	367.46
408.34	355.76
408.54	367.46
408.73	470.45
408.92	416.62
409.11	440.02
409.30	411.93
409.49	372.15
409.68	414.27
409.87	421.30
410.07	369.80
410.26	421.30
410.45	400.23
410.64	456.40
410.83	418.96
411.02	414.27
411.21	463.43
411.40	379.17
411.59	339.38
411.78	376.83
411.98	421.30
412.17	414.27
412.36	400.23
412.55	383.85
412.74	454.06
412.93	442.36
413.12	428.32
413.31	418.96
413.50	351.08
413.69	503.22
413.88	437.68
414.07	376.83
414.26	346.40
414.45	433.00
414.64	451.72
414.83	407.25
415.02	465.77
415.22	449.38
415.41	437.68
415.60	407.25
415.79	470.45
415.98	491.51
416.17	306.61
416.36	372.15
416.55	400.23
416.74	358.10
416.93	458.74
417.12	423.64
417.31	440.02
417.50	383.85
417.69	463.43
417.88	365.12
418.07	393.21
418.26	440.02
418.45	500.87
418.64	440.02
418.83	442.36
419.02	428.32
419.21	435.34
419.39	411.93
419.58	451.72
419.77	416.62
419.96	402.57
420.15	409.59
420.34	430.66
420.53	465.77
420.72	433.00
420.91	416.62
421.10	435.34
421.29	449.38
421.48	451.72
421.67	425.98
421.86	409.59
422.05	407.25
422.24	358.10
422.43	458.74
422.61	400.23
422.80	407.25
422.99	409.59
423.18	430.66
423.37	440.02
423.56	425.98
423.75	425.98
423.94	411.93
424.13	379.17
424.32	437.68
424.50	404.91
424.69	421.30
424.88	330.02
425.07	484.49
425.26	428.32
425.45	468.11
425.64	374.49
425.83	404.91
426.01	390.87
426.20	449.38
426.39	447.04
426.58	454.06
426.77	442.36
426.96	376.83
427.15	414.27
427.33	383.85
427.52	372.15
427.71	447.04
427.90	400.23
428.09	404.91
428.28	397.89
428.46	395.55
428.65	381.51
428.84	430.66
429.03	404.91
429.22	369.80
429.40	339.38
429.59	372.15
429.78	477.47
429.97	421.30
430.16	430.66
430.34	433.00
430.53	372.15
430.72	402.57
430.91	435.34
431.10	444.70
431.28	435.34
431.47	414.27
431.66	372.15
431.85	402.57
432.03	376.83
432.22	442.36
432.41	409.59
432.60	496.19
432.79	386.19
432.97	395.55
433.16	353.42
433.35	437.68
433.54	407.25
433.72	458.74
433.91	512.58
434.10	409.59
434.28	458.74
434.47	500.87
434.66	482.15
434.85	416.62
435.03	440.02
435.22	428.32
435.41	477.47
435.59	477.47
435.78	496.19
435.97	369.80
436.16	447.04
436.34	390.87
436.53	428.32
436.72	456.40
436.90	407.25
437.09	383.85
437.28	482.15
437.46	365.12
437.65	414.27
437.84	360.44
438.02	383.85
438.21	407.25
438.40	465.77
438.58	376.83
438.77	493.85
438.96	475.13
439.14	341.72
439.33	393.21
439.52	418.96
439.70	400.23
439.89	463.43
440.08	437.68
440.26	421.30
440.45	421.30
440.63	411.93
440.82	367.46
441.01	381.51
441.19	400.23
441.38	393.21
441.57	379.17
441.75	444.70
441.94	479.81
442.12	477.47
442.31	458.74
442.50	379.17
442.68	330.02
442.87	330.02
443.05	482.15
443.24	472.79
443.43	421.30
443.61	409.59
443.80	421.30
443.98	411.93
444.17	418.96
444.35	470.45
444.54	372.15
444.73	379.17
444.91	348.74
445.10	379.17
445.28	423.64
445.47	397.89
445.65	409.59
445.84	458.74
446.02	376.83
446.21	327.68
446.39	414.27
446.58	402.57
446.77	388.53
446.95	447.04
447.14	395.55
447.32	395.55
447.51	381.51
447.69	428.32
447.88	449.38
448.06	383.85
448.25	386.19
448.43	451.72
448.62	390.87
448.80	381.51
448.99	489.17
449.17	388.53
449.36	400.23
449.54	433.00
449.73	414.27
449.91	381.51
450.10	353.42
450.28	437.68
450.46	400.23
450.65	414.27
450.83	414.27
451.02	325.33
451.20	479.81
451.39	376.83
451.57	496.19
451.76	416.62
451.94	383.85
452.13	475.13
452.31	465.77
452.49	428.32
452.68	400.23
452.86	472.79
453.05	416.62
453.23	374.49
453.42	362.78
453.60	334.70
453.78	423.64
453.97	444.70
454.15	353.42
454.34	397.89
454.52	360.44
454.70	421.30
454.89	388.53
455.07	433.00
455.26	444.70
455.44	454.06
455.62	383.85
455.81	496.19
455.99	414.27
456.17	461.09
456.36	486.83
456.54	407.25
456.73	468.11
456.91	435.34
457.09	472.79
457.28	456.40
457.46	388.53
457.64	456.40
457.83	348.74
458.01	395.55
458.19	327.68
458.38	430.66
458.56	482.15
458.74	423.64
458.93	386.19
459.11	461.09
459.29	390.87
459.48	414.27
459.66	430.66
459.84	397.89
460.03	437.68
460.21	365.12
460.39	388.53
460.57	433.00
460.76	348.74
460.94	351.08
461.12	479.81
461.31	489.17
461.49	449.38
461.67	393.21
461.85	400.23
462.04	423.64
462.22	805.14
462.40	395.55
462.59	447.04
462.77	358.10
462.95	393.21
463.13	334.70
463.32	456.40
463.50	407.25
463.68	456.40
463.86	479.81
464.05	402.57
464.23	461.09
464.41	414.27
464.59	381.51
464.78	388.53
464.96	437.68
465.14	442.36
465.32	409.59
465.50	456.40
465.69	442.36
465.87	407.25
466.05	423.64
466.23	386.19
466.41	456.40
466.60	423.64
466.78	447.04
466.96	507.90
467.14	416.62
467.32	461.09
467.51	402.57
467.69	404.91
467.87	360.44
468.05	447.04
468.23	454.06
468.41	510.24
468.60	386.19
468.78	322.99
468.96	444.70
469.14	472.79
469.32	353.42
469.50	435.34
469.69	440.02
469.87	367.46
470.05	454.06
470.23	423.64
470.41	390.87
470.59	402.57
470.77	458.74
470.95	409.59
471.14	435.34
471.32	430.66
471.50	440.02
471.68	447.04
471.86	442.36
472.04	376.83
472.22	430.66
472.40	442.36
472.58	456.40
472.77	461.09
472.95	465.77
473.13	414.27
473.31	400.23
473.49	423.64
473.67	400.23
473.85	397.89
474.03	416.62
474.21	414.27
474.39	465.77
474.57	421.30
474.75	449.38
474.93	409.59
475.12	465.77
475.30	489.17
475.48	379.17
475.66	428.32
475.84	334.70
476.02	416.62
476.20	414.27
476.38	418.96
476.56	430.66
476.74	477.47
476.92	411.93
477.10	456.40
477.28	500.87
477.46	430.66
477.64	437.68
477.82	470.45
478.00	447.04
478.18	437.68
478.36	365.12
478.54	449.38
478.72	482.15
478.90	379.17
479.08	423.64
479.26	414.27
479.44	425.98
479.62	414.27
479.80	402.57
479.98	440.02
480.16	404.91
480.34	458.74
480.52	435.34
480.70	463.43
480.88	482.15
481.06	383.85
481.24	395.55
481.41	440.02
481.59	477.47
481.77	421.30
481.95	461.09
482.13	411.93
482.31	372.15
482.49	402.57
482.67	421.30
482.85	376.83
483.03	454.06
483.21	404.91
483.39	407.25
483.57	383.85
483.74	433.00
483.92	428.32
484.10	425.98
484.28	433.00
484.46	524.28
484.64	470.45
484.82	433.00
485.00	468.11
485.18	477.47
485.35	376.83
485.53	444.70
485.71	390.87
485.89	360.44
486.07	395.55
486.25	430.66
486.43	360.44
486.61	463.43
486.78	454.06
486.96	425.98
487.14	374.49
487.32	386.19
487.50	437.68
487.68	449.38
487.85	360.44
488.03	430.66
488.21	411.93
488.39	545.34
488.57	449.38
488.75	404.91
488.92	472.79
489.10	444.70
489.28	465.77
489.46	411.93
489.64	423.64
489.81	421.30
489.99	461.09
490.17	451.72
490.35	465.77
490.53	482.15
490.70	348.74
490.88	383.85
491.06	411.93
491.24	358.10
491.41	430.66
491.59	411.93
491.77	416.62
491.95	421.30
492.13	374.49
492.30	407.25
492.48	393.21
492.66	444.70
492.84	414.27
493.01	395.55
493.19	416.62
493.37	456.40
493.54	409.59
493.72	379.17
493.90	390.87
494.08	547.69
494.25	388.53
494.43	351.08
494.61	358.10
494.79	383.85
494.96	393.21
495.14	341.72
495.32	355.76
495.49	435.34
495.67	491.51
495.85	477.47
496.02	454.06
496.20	442.36
496.38	442.36
496.55	423.64
496.73	440.02
496.91	400.23
497.09	407.25
497.26	447.04
497.44	402.57
497.62	374.49
497.79	472.79
497.97	376.83
498.14	409.59
498.32	407.25
498.50	449.38
498.67	386.19
498.85	428.32
499.03	456.40
499.20	463.43
499.38	390.87
499.56	388.53
499.73	447.04
499.91	423.64
500.08	411.93
500.26	397.89
500.44	404.91
500.61	503.22
500.79	414.27
500.97	425.98
501.14	468.11
501.32	393.21
501.49	533.64
501.67	465.77
501.84	454.06
502.02	348.74
502.20	409.59
502.37	470.45
502.55	433.00
502.72	402.57
502.90	411.93
503.07	428.32
503.25	404.91
503.43	386.19
503.60	421.30
503.78	402.57
503.95	362.78
504.13	442.36
504.30	407.25
504.48	486.83
504.65	468.11
504.83	461.09
505.01	423.64
505.18	397.89
505.36	423.64
505.53	430.66
505.71	447.04
505.88	472.79
506.06	484.49
506.23	365.12
506.41	355.76
506.58	428.32
506.76	423.64
506.93	407.25
507.11	477.47
507.28	407.25
507.46	339.38
507.63	383.85
507.81	418.96
507.98	430.66
508.16	505.56
508.33	365.12
508.50	433.00
508.68	337.04
508.85	447.04
509.03	404.91
509.20	449.38
509.38	376.83
509.55	425.98
509.73	463.43
509.90	479.81
510.08	444.70
510.25	416.62
510.42	433.00
510.60	449.38
510.77	407.25
510.95	379.17
511.12	353.42
511.30	430.66
511.47	489.17
511.64	458.74
511.82	388.53
511.99	411.93
512.17	409.59
512.34	465.77
512.51	388.53
512.69	404.91
512.86	404.91
513.04	458.74
513.21	400.23
513.38	440.02
513.56	458.74
513.73	390.87
513.90	486.83
514.08	358.10
514.25	435.34
514.43	404.91
514.60	411.93
514.77	400.23
514.95	475.13
515.12	397.89
515.29	416.62
515.47	470.45
515.64	458.74
515.81	367.46
515.99	355.76
516.16	493.85
516.33	388.53
516.51	416.62
516.68	395.55
516.85	482.15
517.03	421.30
517.20	449.38
517.37	344.06
517.54	400.23
517.72	461.09
517.89	458.74
518.06	416.62
518.24	456.40
518.41	489.17
518.58	416.62
518.75	421.30
518.93	393.21
519.10	341.72
519.27	435.34
519.45	416.62
519.62	393.21
519.79	414.27
519.96	423.64
520.14	388.53
520.31	437.68
520.48	503.22
520.65	458.74
520.83	390.87
521.00	470.45
521.17	390.87
521.34	449.38
521.52	458.74
521.69	381.51
521.86	510.24
522.03	479.81
522.20	477.47
522.38	383.85
522.55	428.32
522.72	423.64
522.89	451.72
523.07	461.09
523.24	341.72
523.41	327.68
523.58	383.85
523.75	454.06
523.92	407.25
524.10	376.83
524.27	463.43
524.44	404.91
524.61	456.40
524.78	393.21
524.96	423.64
525.13	362.78
525.30	470.45
525.47	484.49
525.64	479.81
525.81	433.00
525.98	463.43
526.16	400.23
526.33	418.96
526.50	454.06
526.67	397.89
526.84	421.30
527.01	404.91
527.18	369.80
527.36	416.62
527.53	465.77
527.70	402.57
527.87	475.13
528.04	402.57
528.21	379.17
528.38	381.51
528.55	425.98
528.72	423.64
528.89	547.69
529.07	423.64
529.24	414.27
529.41	393.21
529.58	388.53
529.75	425.98
529.92	407.25
530.09	404.91
530.26	386.19
530.43	402.57
530.60	418.96
530.77	428.32
530.94	447.04
531.11	454.06
531.28	409.59
531.46	351.08
531.63	388.53
531.80	437.68
531.97	416.62
532.14	402.57
532.31	374.49
532.48	454.06
532.65	418.96
532.82	404.91
532.99	362.78
533.16	414.27
533.33	428.32
533.50	437.68
533.67	400.23
533.84	425.98
534.01	393.21
534.18	442.36
534.35	470.45
534.52	379.17
534.69	386.19
534.86	425.98
535.03	433.00
535.20	393.21
535.37	402.57
535.54	393.21
535.71	341.72
535.88	475.13
536.05	463.43
536.22	449.38
536.38	397.89
536.55	437.68
536.72	489.17
536.89	421.30
537.06	404.91
537.23	463.43
537.40	465.77
537.57	475.13
537.74	514.92
537.91	360.44
538.08	484.49
538.25	369.80
538.42	395.55
538.59	411.93
538.75	332.36
538.92	393.21
539.09	383.85
539.26	442.36
539.43	404.91
539.60	430.66
539.77	451.72
539.94	447.04
540.11	395.55
540.28	346.40
540.44	465.77
540.61	449.38
540.78	404.91
540.95	444.70
541.12	435.34
541.29	416.62
541.46	484.49
541.62	491.51
541.79	353.42
541.96	451.72
542.13	444.70
542.30	411.93
542.47	407.25
542.63	407.25
542.80	362.78
542.97	418.96
543.14	402.57
543.31	433.00
543.48	416.62
543.64	402.57
543.81	402.57
543.98	404.91
544.15	390.87
544.32	435.34
544.48	407.25
544.65	383.85
544.82	423.64
544.99	395.55
545.16	435.34
545.32	397.89
545.49	437.68
545.66	400.23
545.83	414.27
546.00	402.57
546.16	369.80
546.33	339.38
546.50	475.13
546.67	449.38
546.83	418.96
547.00	411.93
547.17	491.51
547.34	388.53
547.50	425.98
547.67	433.00
547.84	365.12
548.00	449.38
548.17	465.77
548.34	404.91
548.51	496.19
548.67	421.30
548.84	388.53
549.01	482.15
549.18	390.87
549.34	442.36
549.51	388.53
549.68	360.44
549.84	407.25
550.01	468.11
550.18	531.30
550.34	430.66
550.51	376.83
550.68	514.92
550.84	374.49
551.01	407.25
551.18	404.91
551.34	404.91
551.51	447.04
551.68	344.06
551.84	430.66
552.01	430.66
552.18	400.23
552.34	470.45
552.51	390.87
552.68	461.09
552.84	411.93
553.01	449.38
553.18	411.93
553.34	442.36
553.51	362.78
553.67	444.70
553.84	386.19
554.01	444.70
554.17	339.38
554.34	362.78
554.51	468.11
554.67	491.51
554.84	411.93
555.00	454.06
555.17	404.91
555.33	397.89
555.50	409.59
555.67	475.13
555.83	470.45
556.00	447.04
556.16	510.24
556.33	498.53
556.50	416.62
556.66	442.36
556.83	355.76
556.99	414.27
557.16	442.36
557.32	397.89
557.49	313.63
557.65	449.38
557.82	397.89
557.98	395.55
558.15	393.21
558.32	437.68
558.48	428.32
558.65	414.27
558.81	440.02
558.98	411.93
559.14	442.36
559.31	463.43
559.47	397.89
559.64	367.46
559.80	360.44
559.97	444.70
560.13	393.21
560.30	341.72
560.46	414.27
560.63	416.62
560.79	444.70
560.96	430.66
561.12	404.91
561.29	388.53
561.45	428.32
561.61	498.53
561.78	456.40
561.94	461.09
562.11	322.99
562.27	423.64
562.44	360.44
562.60	400.23
562.77	428.32
562.93	407.25
563.10	430.66
563.26	456.40
563.42	395.55
563.59	444.70
563.75	334.70
563.92	393.21
564.08	430.66
564.24	390.87
564.41	418.96
564.57	437.68
564.74	409.59
564.90	388.53
565.07	444.70
565.23	437.68
565.39	351.08
565.56	470.45
565.72	425.98
565.88	489.17
566.05	458.74
566.21	367.46
566.38	386.19
566.54	418.96
566.70	372.15
566.87	454.06
567.03	458.74
567.19	421.30
567.36	395.55
567.52	433.00
567.68	449.38
567.85	444.70
568.01	388.53
568.17	404.91
568.34	416.62
568.50	458.74
568.66	475.13
568.83	524.28
568.99	351.08
569.15	454.06
569.32	379.17
569.48	461.09
569.64	418.96
569.81	409.59
569.97	365.12
570.13	507.90
570.30	386.19
570.46	437.68
570.62	407.25
570.78	365.12
570.95	451.72
571.11	554.71
571.27	477.47
571.43	486.83
571.60	463.43
571.76	407.25
571.92	454.06
572.09	437.68
572.25	440.02
572.41	491.51
572.57	409.59
572.74	451.72
572.90	390.87
573.06	440.02
573.22	484.49
573.38	407.25
573.55	337.04
573.71	400.23
573.87	407.25
574.03	407.25
574.20	402.57
574.36	479.81
574.52	435.34
574.68	351.08
574.84	423.64
575.01	428.32
575.17	447.04
575.33	376.83
575.49	416.62
575.65	428.32
575.82	435.34
575.98	433.00
576.14	404.91
576.30	404.91
576.46	444.70
576.62	381.51
576.79	390.87
576.95	425.98
577.11	414.27
577.27	421.30
577.43	475.13
577.59	397.89
577.75	404.91
577.92	411.93
578.08	418.96
578.24	416.62
578.40	458.74
578.56	458.74
578.72	390.87
578.88	503.22
579.04	433.00
579.21	374.49
579.37	456.40
579.53	428.32
579.69	425.98
579.85	372.15
580.01	402.57
580.17	407.25
580.33	484.49
580.49	461.09
580.65	400.23
580.82	414.27
580.98	437.68
581.14	447.04
581.30	400.23
581.46	444.70
581.62	470.45
581.78	456.40
581.94	411.93
582.10	430.66
582.26	386.19
582.42	456.40
582.58	440.02
582.74	458.74
582.90	477.47
583.06	376.83
583.22	414.27
583.38	463.43
583.54	435.34
583.70	414.27
583.86	440.02
584.02	423.64
584.18	491.51
584.34	397.89
584.50	472.79
584.66	379.17
584.82	421.30
584.98	430.66
585.14	430.66
585.30	428.32
585.46	393.21
585.62	435.34
585.78	423.64
585.94	440.02
586.10	468.11
586.26	395.55
586.42	479.81
586.58	444.70
586.74	484.49
586.90	388.53
587.06	414.27
587.22	425.98
587.38	409.59
587.54	496.19
587.70	418.96
587.86	447.04
588.02	440.02
588.18	411.93
588.34	421.30
588.49	414.27
588.65	458.74
588.81	395.55
588.97	414.27
589.13	423.64
589.29	430.66
589.45	447.04
589.61	437.68
589.77	475.13
589.93	435.34
590.08	425.98
590.24	458.74
590.40	493.85
590.56	409.59
590.72	454.06
590.88	402.57
591.04	437.68
591.20	425.98
591.35	486.83
591.51	479.81
591.67	425.98
591.83	442.36
591.99	440.02
592.15	491.51
592.31	414.27
592.46	404.91
592.62	458.74
592.78	458.74
592.94	456.40
593.10	383.85
593.26	402.57
593.41	451.72
593.57	425.98
593.73	442.36
593.89	367.46
594.05	442.36
594.20	447.04
594.36	425.98
594.52	404.91
594.68	393.21
594.84	447.04
594.99	475.13
595.15	430.66
595.31	428.32
595.47	414.27
595.62	442.36
595.78	414.27
595.94	376.83
596.10	393.21
596.25	372.15
596.41	330.02
596.57	440.02
596.73	482.15
596.88	344.06
597.04	447.04
597.20	414.27
597.36	421.30
597.51	404.91
597.67	369.80
597.83	430.66
597.99	472.79
598.14	470.45
598.30	421.30
598.46	386.19
598.61	449.38
598.77	376.83
598.93	351.08
599.09	400.23
599.24	428.32
599.40	416.62
599.56	367.46
599.71	404.91
599.87	416.62
600.03	390.87
600.18	409.59
600.34	437.68
600.50	400.23
600.65	322.99
600.81	425.98
600.97	411.93
601.12	468.11
601.28	421.30
601.44	423.64
601.59	355.76
601.75	470.45
601.91	397.89
602.06	440.02
602.22	500.87
602.37	447.04
602.53	421.30
602.69	458.74
602.84	447.04
603.00	411.93
603.16	397.89
603.31	479.81
603.47	393.21
603.62	409.59
603.78	404.91
603.94	397.89
604.09	458.74
604.25	456.40
604.40	440.02
604.56	409.59
604.71	402.57
604.87	449.38
605.03	430.66
605.18	400.23
605.34	418.96
605.49	484.49
605.65	475.13
605.80	433.00
605.96	416.62
606.12	458.74
606.27	479.81
606.43	416.62
606.58	418.96
606.74	463.43
606.89	463.43
607.05	414.27
607.20	390.87
607.36	449.38
607.51	411.93
607.67	397.89
607.82	411.93
607.98	414.27
608.13	442.36
608.29	365.12
608.44	468.11
608.60	397.89
608.75	468.11
608.91	404.91
609.06	449.38
609.22	447.04
609.37	402.57
609.53	425.98
609.68	372.15
609.84	404.91
609.99	372.15
610.15	388.53
