SpectraSuite Data File
++++++++++++++++++++++++++++++++++++
Date: Fri Oct 25 12:10:21 EDT 2013
User: price-jones
Dark Spectrum Present: No
Reference Spectrum Present: No
Number of Sampled Component Spectra: 1
Spectrometers: USB2+H05261
Integration Time (usec): 100000 (USB2+H05261)
Spectra Averaged: 1 (USB2+H05261)
Boxcar Smoothing: 0 (USB2+H05261)
Correct for Electrical Dark: No (USB2+H05261)
Strobe/Lamp Enabled: No (USB2+H05261)
Correct for Detector Non-linearity: No (USB2+H05261)
Correct for Stray Light: No (USB2+H05261)
Number of Pixels in Processed Spectrum: 2048
>>>>>Begin Processed Spectral Data<<<<<
365.73	337.04
365.92	337.04
366.12	337.04
366.32	231.71
366.52	283.20
366.72	348.74
366.91	229.37
367.11	297.25
367.31	208.31
367.51	227.03
367.70	173.20
367.90	189.58
368.10	238.73
368.30	234.05
368.49	283.20
368.69	269.16
368.89	248.10
369.09	280.86
369.28	327.68
369.48	252.78
369.68	313.63
369.87	262.14
370.07	217.67
370.27	325.33
370.47	381.51
370.66	325.33
370.86	297.25
371.06	383.85
371.25	442.36
371.45	395.55
371.65	367.46
371.84	346.40
372.04	362.78
372.24	411.93
372.44	362.78
372.63	440.02
372.83	425.98
373.03	435.34
373.22	411.93
373.42	440.02
373.62	393.21
373.81	400.23
374.01	486.83
374.21	482.15
374.40	402.57
374.60	435.34
374.79	430.66
374.99	414.27
375.19	351.08
375.38	461.09
375.58	407.25
375.78	379.17
375.97	407.25
376.17	433.00
376.37	393.21
376.56	444.70
376.76	374.49
376.95	376.83
377.15	418.96
377.35	365.12
377.54	416.62
377.74	451.72
377.93	376.83
378.13	461.09
378.33	409.59
378.52	337.04
378.72	379.17
378.91	390.87
379.11	327.68
379.31	390.87
379.50	388.53
379.70	381.51
379.89	402.57
380.09	425.98
380.28	365.12
380.48	308.95
380.68	334.70
380.87	358.10
381.07	388.53
381.26	332.36
381.46	400.23
381.65	388.53
381.85	421.30
382.04	358.10
382.24	449.38
382.43	367.46
382.63	407.25
382.83	458.74
383.02	447.04
383.22	418.96
383.41	362.78
383.61	397.89
383.80	421.30
384.00	379.17
384.19	404.91
384.39	409.59
384.58	383.85
384.78	393.21
384.97	369.80
385.17	404.91
385.36	407.25
385.56	390.87
385.75	397.89
385.95	360.44
386.14	463.43
386.34	365.12
386.53	358.10
386.72	433.00
386.92	404.91
387.11	447.04
387.31	437.68
387.50	409.59
387.70	428.32
387.89	407.25
388.09	418.96
388.28	376.83
388.48	395.55
388.67	381.51
388.86	397.89
389.06	365.12
389.25	416.62
389.45	425.98
389.64	393.21
389.84	374.49
390.03	383.85
390.22	482.15
390.42	369.80
390.61	360.44
390.81	388.53
391.00	444.70
391.19	381.51
391.39	463.43
391.58	409.59
391.78	404.91
391.97	379.17
392.16	376.83
392.36	348.74
392.55	447.04
392.75	409.59
392.94	402.57
393.13	442.36
393.33	425.98
393.52	442.36
393.71	468.11
393.91	435.34
394.10	404.91
394.29	395.55
394.49	468.11
394.68	383.85
394.88	428.32
395.07	381.51
395.26	430.66
395.46	440.02
395.65	465.77
395.84	388.53
396.04	465.77
396.23	425.98
396.42	414.27
396.62	393.21
396.81	451.72
397.00	409.59
397.19	425.98
397.39	421.30
397.58	374.49
397.77	379.17
397.97	360.44
398.16	407.25
398.35	465.77
398.55	372.15
398.74	402.57
398.93	381.51
399.12	409.59
399.32	421.30
399.51	475.13
399.70	393.21
399.90	372.15
400.09	369.80
400.28	372.15
400.47	320.65
400.67	475.13
400.86	437.68
401.05	386.19
401.24	416.62
401.44	454.06
401.63	367.46
401.82	376.83
402.01	404.91
402.21	395.55
402.40	428.32
402.59	425.98
402.78	360.44
402.97	344.06
403.17	437.68
403.36	400.23
403.55	402.57
403.74	381.51
403.93	383.85
404.13	428.32
404.32	463.43
404.51	372.15
404.70	416.62
404.89	404.91
405.09	458.74
405.28	416.62
405.47	421.30
405.66	470.45
405.85	423.64
406.05	402.57
406.24	388.53
406.43	437.68
406.62	402.57
406.81	430.66
407.00	463.43
407.20	484.49
407.39	367.46
407.58	451.72
407.77	454.06
407.96	423.64
408.15	400.23
408.34	423.64
408.54	461.09
408.73	374.49
408.92	404.91
409.11	435.34
409.30	374.49
409.49	454.06
409.68	440.02
409.87	430.66
410.07	400.23
410.26	397.89
410.45	386.19
410.64	397.89
410.83	447.04
411.02	470.45
411.21	454.06
411.40	425.98
411.59	365.12
411.78	337.04
411.98	451.72
412.17	421.30
412.36	367.46
412.55	411.93
412.74	381.51
412.93	418.96
413.12	365.12
413.31	486.83
413.50	433.00
413.69	409.59
413.88	360.44
414.07	369.80
414.26	367.46
414.45	362.78
414.64	468.11
414.83	372.15
415.02	334.70
415.22	348.74
415.41	461.09
415.60	482.15
415.79	465.77
415.98	433.00
416.17	395.55
416.36	416.62
416.55	360.44
416.74	418.96
416.93	437.68
417.12	393.21
417.31	444.70
417.50	393.21
417.69	482.15
417.88	393.21
418.07	414.27
418.26	409.59
418.45	407.25
418.64	477.47
418.83	360.44
419.02	437.68
419.21	390.87
419.39	425.98
419.58	447.04
419.77	449.38
419.96	428.32
420.15	423.64
420.34	461.09
420.53	369.80
420.72	440.02
420.91	393.21
421.10	369.80
421.29	395.55
421.48	447.04
421.67	416.62
421.86	409.59
422.05	330.02
422.24	372.15
422.43	440.02
422.61	425.98
422.80	435.34
422.99	454.06
423.18	447.04
423.37	400.23
423.56	430.66
423.75	362.78
423.94	477.47
424.13	414.27
424.32	358.10
424.50	404.91
424.69	402.57
424.88	454.06
425.07	397.89
425.26	451.72
425.45	470.45
425.64	414.27
425.83	397.89
426.01	358.10
426.20	411.93
426.39	423.64
426.58	374.49
426.77	447.04
426.96	435.34
427.15	428.32
427.33	348.74
427.52	397.89
427.71	409.59
427.90	414.27
428.09	367.46
428.28	418.96
428.46	372.15
428.65	421.30
428.84	379.17
429.03	433.00
429.22	465.77
429.40	351.08
429.59	395.55
429.78	393.21
429.97	299.59
430.16	386.19
430.34	463.43
430.53	407.25
430.72	425.98
430.91	421.30
431.10	355.76
431.28	442.36
431.47	458.74
431.66	388.53
431.85	362.78
432.03	442.36
432.22	409.59
432.41	407.25
432.60	472.79
432.79	416.62
432.97	416.62
433.16	374.49
433.35	484.49
433.54	479.81
433.72	470.45
433.91	430.66
434.10	482.15
434.28	444.70
434.47	458.74
434.66	444.70
434.85	451.72
435.03	468.11
435.22	425.98
435.41	407.25
435.59	379.17
435.78	418.96
435.97	411.93
436.16	423.64
436.34	437.68
436.53	416.62
436.72	381.51
436.90	454.06
437.09	454.06
437.28	397.89
437.46	411.93
437.65	360.44
437.84	404.91
438.02	425.98
438.21	386.19
438.40	418.96
438.58	372.15
438.77	414.27
438.96	388.53
439.14	390.87
439.33	423.64
439.52	358.10
439.70	367.46
439.89	393.21
440.08	447.04
440.26	390.87
440.45	442.36
440.63	372.15
440.82	414.27
441.01	437.68
441.19	414.27
441.38	475.13
441.57	372.15
441.75	477.47
441.94	458.74
442.12	400.23
442.31	428.32
442.50	461.09
442.68	404.91
442.87	400.23
443.05	416.62
443.24	510.24
443.43	367.46
443.61	407.25
443.80	400.23
443.98	489.17
444.17	449.38
444.35	468.11
444.54	400.23
444.73	451.72
444.91	449.38
445.10	374.49
445.28	334.70
445.47	463.43
445.65	379.17
445.84	416.62
446.02	423.64
446.21	411.93
446.39	381.51
446.58	477.47
446.77	416.62
446.95	400.23
447.14	454.06
447.32	409.59
447.51	435.34
447.69	360.44
447.88	407.25
448.06	470.45
448.25	447.04
448.43	437.68
448.62	376.83
448.80	379.17
448.99	388.53
449.17	374.49
449.36	388.53
449.54	383.85
449.73	397.89
449.91	461.09
450.10	454.06
450.28	440.02
450.46	397.89
450.65	456.40
450.83	442.36
451.02	447.04
451.20	468.11
451.39	369.80
451.57	376.83
451.76	348.74
451.94	390.87
452.13	475.13
452.31	369.80
452.49	461.09
452.68	402.57
452.86	409.59
453.05	423.64
453.23	386.19
453.42	386.19
453.60	472.79
453.78	465.77
453.97	390.87
454.15	449.38
454.34	367.46
454.52	386.19
454.70	383.85
454.89	451.72
455.07	386.19
455.26	365.12
455.44	423.64
455.62	402.57
455.81	437.68
455.99	393.21
456.17	430.66
456.36	449.38
456.54	451.72
456.73	400.23
456.91	390.87
457.09	393.21
457.28	550.03
457.46	407.25
457.64	461.09
457.83	334.70
458.01	379.17
458.19	404.91
458.38	425.98
458.56	381.51
458.74	451.72
458.93	388.53
459.11	447.04
459.29	381.51
459.48	416.62
459.66	510.24
459.84	435.34
460.03	507.90
460.21	409.59
460.39	358.10
460.57	358.10
460.76	390.87
460.94	444.70
461.12	442.36
461.31	440.02
461.49	381.51
461.67	367.46
461.85	388.53
462.04	365.12
462.22	786.42
462.40	447.04
462.59	428.32
462.77	433.00
462.95	472.79
463.13	400.23
463.32	425.98
463.50	367.46
463.68	414.27
463.86	390.87
464.05	372.15
464.23	358.10
464.41	425.98
464.59	421.30
464.78	456.40
464.96	386.19
465.14	346.40
465.32	374.49
465.50	407.25
465.69	430.66
465.87	444.70
466.05	360.44
466.23	437.68
466.41	400.23
466.60	367.46
466.78	407.25
466.96	397.89
467.14	482.15
467.32	411.93
467.51	425.98
467.69	404.91
467.87	353.42
468.05	397.89
468.23	503.22
468.41	360.44
468.60	486.83
468.78	423.64
468.96	437.68
469.14	425.98
469.32	395.55
469.50	362.78
469.69	393.21
469.87	437.68
470.05	454.06
470.23	454.06
470.41	418.96
470.59	414.27
470.77	451.72
470.95	339.38
471.14	444.70
471.32	416.62
471.50	449.38
471.68	496.19
471.86	477.47
472.04	386.19
472.22	404.91
472.40	337.04
472.58	409.59
472.77	376.83
472.95	404.91
473.13	395.55
473.31	381.51
473.49	423.64
473.67	367.46
473.85	425.98
474.03	472.79
474.21	430.66
474.39	503.22
474.57	472.79
474.75	465.77
474.93	346.40
475.12	355.76
475.30	461.09
475.48	381.51
475.66	486.83
475.84	388.53
476.02	400.23
476.20	425.98
476.38	430.66
476.56	355.76
476.74	454.06
476.92	418.96
477.10	397.89
477.28	339.38
477.46	477.47
477.64	475.13
477.82	418.96
478.00	404.91
478.18	381.51
478.36	367.46
478.54	428.32
478.72	390.87
478.90	383.85
479.08	409.59
479.26	390.87
479.44	388.53
479.62	418.96
479.80	428.32
479.98	390.87
480.16	475.13
480.34	418.96
480.52	404.91
480.70	400.23
480.88	395.55
481.06	458.74
481.24	456.40
481.41	379.17
481.59	376.83
481.77	456.40
481.95	397.89
482.13	411.93
482.31	458.74
482.49	428.32
482.67	383.85
482.85	475.13
483.03	435.34
483.21	435.34
483.39	374.49
483.57	414.27
483.74	444.70
483.92	393.21
484.10	435.34
484.28	358.10
484.46	447.04
484.64	369.80
484.82	339.38
485.00	388.53
485.18	437.68
485.35	416.62
485.53	440.02
485.71	418.96
485.89	395.55
486.07	383.85
486.25	470.45
486.43	402.57
486.61	416.62
486.78	416.62
486.96	430.66
487.14	407.25
487.32	407.25
487.50	442.36
487.68	414.27
487.85	444.70
488.03	416.62
488.21	461.09
488.39	454.06
488.57	416.62
488.75	360.44
488.92	512.58
489.10	416.62
489.28	440.02
489.46	386.19
489.64	404.91
489.81	430.66
489.99	430.66
490.17	404.91
490.35	461.09
490.53	486.83
490.70	433.00
490.88	444.70
491.06	430.66
491.24	444.70
491.41	379.17
491.59	437.68
491.77	418.96
491.95	430.66
492.13	362.78
492.30	451.72
492.48	470.45
492.66	428.32
492.84	440.02
493.01	461.09
493.19	461.09
493.37	435.34
493.54	433.00
493.72	383.85
493.90	433.00
494.08	465.77
494.25	414.27
494.43	421.30
494.61	458.74
494.79	437.68
494.96	454.06
495.14	458.74
495.32	409.59
495.49	435.34
495.67	330.02
495.85	348.74
496.02	437.68
496.20	404.91
496.38	388.53
496.55	383.85
496.73	386.19
496.91	435.34
497.09	437.68
497.26	418.96
497.44	365.12
497.62	402.57
497.79	404.91
497.97	461.09
498.14	411.93
498.32	433.00
498.50	404.91
498.67	393.21
498.85	416.62
499.03	449.38
499.20	390.87
499.38	421.30
499.56	435.34
499.73	465.77
499.91	456.40
500.08	395.55
500.26	465.77
500.44	376.83
500.61	451.72
500.79	388.53
500.97	421.30
501.14	442.36
501.32	503.22
501.49	430.66
501.67	430.66
501.84	376.83
502.02	397.89
502.20	444.70
502.37	355.76
502.55	444.70
502.72	451.72
502.90	411.93
503.07	381.51
503.25	430.66
503.43	414.27
503.60	409.59
503.78	418.96
503.95	482.15
504.13	374.49
504.30	505.56
504.48	395.55
504.65	454.06
504.83	421.30
505.01	362.78
505.18	418.96
505.36	381.51
505.53	482.15
505.71	423.64
505.88	444.70
506.06	374.49
506.23	402.57
506.41	397.89
506.58	358.10
506.76	437.68
506.93	430.66
507.11	461.09
507.28	369.80
507.46	437.68
507.63	400.23
507.81	423.64
507.98	440.02
508.16	351.08
508.33	402.57
508.50	440.02
508.68	388.53
508.85	400.23
509.03	369.80
509.20	397.89
509.38	386.19
509.55	465.77
509.73	484.49
509.90	486.83
510.08	468.11
510.25	430.66
510.42	402.57
510.60	411.93
510.77	393.21
510.95	449.38
511.12	390.87
511.30	451.72
511.47	475.13
511.64	435.34
511.82	440.02
511.99	447.04
512.17	461.09
512.34	458.74
512.51	437.68
512.69	397.89
512.86	404.91
513.04	390.87
513.21	313.63
513.38	454.06
513.56	425.98
513.73	437.68
513.90	397.89
514.08	351.08
514.25	418.96
514.43	379.17
514.60	437.68
514.77	449.38
514.95	404.91
515.12	397.89
515.29	407.25
515.47	369.80
515.64	442.36
515.81	442.36
515.99	468.11
516.16	461.09
516.33	416.62
516.51	416.62
516.68	383.85
516.85	437.68
517.03	458.74
517.20	418.96
517.37	416.62
517.54	397.89
517.72	409.59
517.89	435.34
518.06	414.27
518.24	447.04
518.41	388.53
518.58	451.72
518.75	411.93
518.93	425.98
519.10	428.32
519.27	430.66
519.45	414.27
519.62	411.93
519.79	423.64
519.96	353.42
520.14	444.70
520.31	344.06
520.48	390.87
520.65	435.34
520.83	491.51
521.00	421.30
521.17	395.55
521.34	421.30
521.52	447.04
521.69	355.76
521.86	358.10
522.03	411.93
522.20	428.32
522.38	299.59
522.55	435.34
522.72	400.23
522.89	444.70
523.07	404.91
523.24	388.53
523.41	374.49
523.58	428.32
523.75	468.11
523.92	444.70
524.10	444.70
524.27	393.21
524.44	365.12
524.61	374.49
524.78	414.27
524.96	451.72
525.13	456.40
525.30	423.64
525.47	437.68
525.64	430.66
525.81	451.72
525.98	409.59
526.16	444.70
526.33	400.23
526.50	456.40
526.67	447.04
526.84	362.78
527.01	442.36
527.18	442.36
527.36	376.83
527.53	430.66
527.70	470.45
527.87	465.77
528.04	433.00
528.21	411.93
528.38	447.04
528.55	456.40
528.72	402.57
528.89	454.06
529.07	465.77
529.24	451.72
529.41	447.04
529.58	407.25
529.75	334.70
529.92	369.80
530.09	433.00
530.26	444.70
530.43	397.89
530.60	355.76
530.77	372.15
530.94	365.12
531.11	449.38
531.28	381.51
531.46	411.93
531.63	465.77
531.80	358.10
531.97	407.25
532.14	433.00
532.31	397.89
532.48	362.78
532.65	358.10
532.82	346.40
532.99	362.78
533.16	463.43
533.33	397.89
533.50	456.40
533.67	421.30
533.84	447.04
534.01	395.55
534.18	388.53
534.35	456.40
534.52	435.34
534.69	463.43
534.86	409.59
535.03	388.53
535.20	442.36
535.37	442.36
535.54	386.19
535.71	442.36
535.88	402.57
536.05	451.72
536.22	416.62
536.38	421.30
536.55	470.45
536.72	414.27
536.89	451.72
537.06	407.25
537.23	411.93
537.40	423.64
537.57	388.53
537.74	421.30
537.91	421.30
538.08	421.30
538.25	388.53
538.42	440.02
538.59	442.36
538.75	351.08
538.92	430.66
539.09	444.70
539.26	383.85
539.43	418.96
539.60	437.68
539.77	512.58
539.94	365.12
540.11	442.36
540.28	374.49
540.44	435.34
540.61	430.66
540.78	393.21
540.95	416.62
541.12	388.53
541.29	395.55
541.46	421.30
541.62	475.13
541.79	414.27
541.96	444.70
542.13	421.30
542.30	425.98
542.47	461.09
542.63	416.62
542.80	503.22
542.97	451.72
543.14	447.04
543.31	409.59
543.48	386.19
543.64	430.66
543.81	372.15
543.98	486.83
544.15	409.59
544.32	404.91
544.48	411.93
544.65	393.21
544.82	404.91
544.99	414.27
545.16	416.62
545.32	465.77
545.49	503.22
545.66	437.68
545.83	379.17
546.00	407.25
546.16	404.91
546.33	341.72
546.50	369.80
546.67	470.45
546.83	449.38
547.00	386.19
547.17	440.02
547.34	414.27
547.50	402.57
547.67	428.32
547.84	393.21
548.00	320.65
548.17	482.15
548.34	397.89
548.51	414.27
548.67	482.15
548.84	367.46
549.01	484.49
549.18	435.34
549.34	409.59
549.51	390.87
549.68	421.30
549.84	444.70
550.01	414.27
550.18	486.83
550.34	491.51
550.51	395.55
550.68	454.06
550.84	346.40
551.01	425.98
551.18	379.17
551.34	416.62
551.51	468.11
551.68	440.02
551.84	461.09
552.01	379.17
552.18	496.19
552.34	379.17
552.51	404.91
552.68	458.74
552.84	367.46
553.01	411.93
553.18	430.66
553.34	388.53
553.51	437.68
553.67	491.51
553.84	433.00
554.01	470.45
554.17	454.06
554.34	411.93
554.51	416.62
554.67	479.81
554.84	318.31
555.00	402.57
555.17	358.10
555.33	372.15
555.50	482.15
555.67	409.59
555.83	383.85
556.00	425.98
556.16	557.05
556.33	404.91
556.50	449.38
556.66	437.68
556.83	409.59
556.99	369.80
557.16	447.04
557.32	416.62
557.49	369.80
557.65	383.85
557.82	402.57
557.98	409.59
558.15	440.02
558.32	411.93
558.48	360.44
558.65	449.38
558.81	449.38
558.98	395.55
559.14	418.96
559.31	404.91
559.47	477.47
559.64	433.00
559.80	437.68
559.97	353.42
560.13	369.80
560.30	416.62
560.46	341.72
560.63	411.93
560.79	407.25
560.96	456.40
561.12	425.98
561.29	395.55
561.45	397.89
561.61	423.64
561.78	486.83
561.94	381.51
562.11	411.93
562.27	423.64
562.44	381.51
562.60	409.59
562.77	447.04
562.93	475.13
563.10	404.91
563.26	376.83
563.42	475.13
563.59	379.17
563.75	491.51
563.92	369.80
564.08	402.57
564.24	409.59
564.41	451.72
564.57	416.62
564.74	362.78
564.90	397.89
565.07	470.45
565.23	414.27
565.39	411.93
565.56	411.93
565.72	433.00
565.88	409.59
566.05	409.59
566.21	416.62
566.38	444.70
566.54	369.80
566.70	367.46
566.87	440.02
567.03	404.91
567.19	428.32
567.36	414.27
567.52	404.91
567.68	395.55
567.85	402.57
568.01	449.38
568.17	456.40
568.34	433.00
568.50	447.04
568.66	386.19
568.83	430.66
568.99	362.78
569.15	447.04
569.32	489.17
569.48	451.72
569.64	402.57
569.81	463.43
569.97	365.12
570.13	461.09
570.30	369.80
570.46	437.68
570.62	395.55
570.78	472.79
570.95	393.21
571.11	423.64
571.27	416.62
571.43	423.64
571.60	423.64
571.76	461.09
571.92	430.66
572.09	404.91
572.25	500.87
572.41	468.11
572.57	407.25
572.74	428.32
572.90	367.46
573.06	397.89
573.22	423.64
573.38	458.74
573.55	454.06
573.71	489.17
573.87	454.06
574.03	411.93
574.20	388.53
574.36	433.00
574.52	447.04
574.68	411.93
574.84	388.53
575.01	465.77
575.17	526.62
575.33	409.59
575.49	423.64
575.65	414.27
575.82	444.70
575.98	444.70
576.14	425.98
576.30	468.11
576.46	468.11
576.62	344.06
576.79	400.23
576.95	383.85
577.11	397.89
577.27	404.91
577.43	421.30
577.59	414.27
577.75	402.57
577.92	463.43
578.08	447.04
578.24	418.96
578.40	512.58
578.56	416.62
578.72	543.00
578.88	416.62
579.04	414.27
579.21	505.56
579.37	404.91
579.53	416.62
579.69	456.40
579.85	454.06
580.01	484.49
580.17	416.62
580.33	458.74
580.49	386.19
580.65	390.87
580.82	353.42
580.98	491.51
581.14	381.51
581.30	477.47
581.46	416.62
581.62	449.38
581.78	423.64
581.94	383.85
582.10	454.06
582.26	395.55
582.42	411.93
582.58	386.19
582.74	411.93
582.90	346.40
583.06	414.27
583.22	393.21
583.38	367.46
583.54	388.53
583.70	411.93
583.86	475.13
584.02	498.53
584.18	442.36
584.34	425.98
584.50	418.96
584.66	379.17
584.82	411.93
584.98	447.04
585.14	435.34
585.30	428.32
585.46	451.72
585.62	463.43
585.78	362.78
585.94	376.83
586.10	463.43
586.26	386.19
586.42	435.34
586.58	442.36
586.74	411.93
586.90	435.34
587.06	383.85
587.22	447.04
587.38	367.46
587.54	409.59
587.70	425.98
587.86	449.38
588.02	489.17
588.18	517.26
588.34	477.47
588.49	348.74
588.65	425.98
588.81	386.19
588.97	407.25
589.13	390.87
589.29	414.27
589.45	402.57
589.61	411.93
589.77	386.19
589.93	486.83
590.08	395.55
590.24	383.85
590.40	456.40
590.56	435.34
590.72	379.17
590.88	379.17
591.04	407.25
591.20	404.91
591.35	456.40
591.51	423.64
591.67	388.53
591.83	407.25
591.99	465.77
592.15	407.25
592.31	409.59
592.46	393.21
592.62	386.19
592.78	374.49
592.94	407.25
593.10	386.19
593.26	388.53
593.41	482.15
593.57	411.93
593.73	447.04
593.89	348.74
594.05	456.40
594.20	468.11
594.36	381.51
594.52	379.17
594.68	484.49
594.84	379.17
594.99	449.38
595.15	411.93
595.31	390.87
595.47	444.70
595.62	318.31
595.78	470.45
595.94	346.40
596.10	449.38
596.25	372.15
596.41	388.53
596.57	433.00
596.73	395.55
596.88	402.57
597.04	416.62
597.20	400.23
597.36	423.64
597.51	400.23
597.67	388.53
597.83	414.27
597.99	407.25
598.14	425.98
598.30	407.25
598.46	372.15
598.61	458.74
598.77	414.27
598.93	386.19
599.09	390.87
599.24	393.21
599.40	465.77
599.56	421.30
599.71	411.93
599.87	477.47
600.03	470.45
600.18	425.98
600.34	327.68
600.50	365.12
600.65	505.56
600.81	468.11
600.97	358.10
601.12	451.72
601.28	437.68
601.44	351.08
601.59	393.21
601.75	458.74
601.91	397.89
602.06	444.70
602.22	440.02
602.37	435.34
602.53	360.44
602.69	454.06
602.84	367.46
603.00	470.45
603.16	414.27
603.31	470.45
603.47	423.64
603.62	397.89
603.78	386.19
603.94	409.59
604.09	404.91
604.25	418.96
604.40	397.89
604.56	365.12
604.71	311.29
604.87	472.79
605.03	421.30
605.18	362.78
605.34	421.30
605.49	362.78
605.65	484.49
605.80	360.44
605.96	423.64
606.12	500.87
606.27	498.53
606.43	418.96
606.58	449.38
606.74	442.36
606.89	444.70
607.05	449.38
607.20	440.02
607.36	442.36
607.51	393.21
607.67	423.64
607.82	423.64
607.98	411.93
608.13	411.93
608.29	334.70
608.44	482.15
608.60	521.94
608.75	414.27
608.91	423.64
609.06	423.64
609.22	456.40
609.37	388.53
609.53	397.89
609.68	369.80
609.84	409.59
609.99	404.91
610.15	376.83
