SpectraSuite Data File
++++++++++++++++++++++++++++++++++++
Date: Fri Oct 25 12:11:03 EDT 2013
User: price-jones
Dark Spectrum Present: No
Reference Spectrum Present: No
Number of Sampled Component Spectra: 1
Spectrometers: USB2+H05261
Integration Time (usec): 100000 (USB2+H05261)
Spectra Averaged: 1 (USB2+H05261)
Boxcar Smoothing: 0 (USB2+H05261)
Correct for Electrical Dark: No (USB2+H05261)
Strobe/Lamp Enabled: No (USB2+H05261)
Correct for Detector Non-linearity: No (USB2+H05261)
Correct for Stray Light: No (USB2+H05261)
Number of Pixels in Processed Spectrum: 2048
>>>>>Begin Processed Spectral Data<<<<<
365.73	374.49
365.92	374.49
366.12	374.49
366.32	203.63
366.52	189.58
366.72	248.10
366.91	238.73
367.11	243.42
367.31	318.31
367.51	264.48
367.70	248.10
367.90	250.44
368.10	262.14
368.30	276.18
368.49	271.50
368.69	252.78
368.89	177.88
369.09	266.82
369.28	278.52
369.48	292.57
369.68	217.67
369.87	306.61
370.07	283.20
370.27	334.70
370.47	287.89
370.66	341.72
370.86	353.42
371.06	358.10
371.25	407.25
371.45	358.10
371.65	383.85
371.84	351.08
372.04	402.57
372.24	393.21
372.44	414.27
372.63	414.27
372.83	390.87
373.03	444.70
373.22	362.78
373.42	400.23
373.62	428.32
373.81	334.70
374.01	463.43
374.21	425.98
374.40	421.30
374.60	461.09
374.79	395.55
374.99	407.25
375.19	353.42
375.38	409.59
375.58	360.44
375.78	465.77
375.97	393.21
376.17	444.70
376.37	355.76
376.56	428.32
376.76	395.55
376.95	418.96
377.15	397.89
377.35	435.34
377.54	517.26
377.74	440.02
377.93	425.98
378.13	489.17
378.33	440.02
378.52	449.38
378.72	421.30
378.91	468.11
379.11	425.98
379.31	402.57
379.50	301.93
379.70	524.28
379.89	442.36
380.09	362.78
380.28	369.80
380.48	397.89
380.68	390.87
380.87	383.85
381.07	379.17
381.26	400.23
381.46	402.57
381.65	449.38
381.85	449.38
382.04	416.62
382.24	437.68
382.43	407.25
382.63	435.34
382.83	362.78
383.02	367.46
383.22	351.08
383.41	388.53
383.61	362.78
383.80	400.23
384.00	411.93
384.19	409.59
384.39	477.47
384.58	404.91
384.78	430.66
384.97	404.91
385.17	360.44
385.36	374.49
385.56	449.38
385.75	393.21
385.95	470.45
386.14	433.00
386.34	411.93
386.53	315.97
386.72	386.19
386.92	489.17
387.11	362.78
387.31	308.95
387.50	397.89
387.70	454.06
387.89	447.04
388.09	402.57
388.28	362.78
388.48	381.51
388.67	414.27
388.86	430.66
389.06	404.91
389.25	458.74
389.45	353.42
389.64	383.85
389.84	465.77
390.03	435.34
390.22	400.23
390.42	416.62
390.61	383.85
390.81	381.51
391.00	444.70
391.19	407.25
391.39	365.12
391.58	374.49
391.78	440.02
391.97	428.32
392.16	301.93
392.36	444.70
392.55	465.77
392.75	463.43
392.94	414.27
393.13	386.19
393.33	507.90
393.52	409.59
393.71	395.55
393.91	475.13
394.10	358.10
394.29	428.32
394.49	395.55
394.68	472.79
394.88	461.09
395.07	512.58
395.26	479.81
395.46	433.00
395.65	475.13
395.84	418.96
396.04	531.30
396.23	430.66
396.42	355.76
396.62	442.36
396.81	414.27
397.00	379.17
397.19	442.36
397.39	454.06
397.58	425.98
397.77	402.57
397.97	311.29
398.16	360.44
398.35	393.21
398.55	358.10
398.74	423.64
398.93	365.12
399.12	379.17
399.32	381.51
399.51	386.19
399.70	390.87
399.90	409.59
400.09	409.59
400.28	447.04
400.47	435.34
400.67	428.32
400.86	447.04
401.05	447.04
401.24	407.25
401.44	458.74
401.63	344.06
401.82	430.66
402.01	344.06
402.21	374.49
402.40	465.77
402.59	369.80
402.78	348.74
402.97	320.65
403.17	458.74
403.36	365.12
403.55	374.49
403.74	334.70
403.93	390.87
404.13	430.66
404.32	332.36
404.51	341.72
404.70	390.87
404.89	433.00
405.09	444.70
405.28	404.91
405.47	362.78
405.66	407.25
405.85	395.55
406.05	393.21
406.24	437.68
406.43	351.08
406.62	430.66
406.81	465.77
407.00	421.30
407.20	376.83
407.39	355.76
407.58	379.17
407.77	437.68
407.96	440.02
408.15	367.46
408.34	386.19
408.54	421.30
408.73	400.23
408.92	374.49
409.11	372.15
409.30	421.30
409.49	365.12
409.68	428.32
409.87	479.81
410.07	411.93
410.26	449.38
410.45	433.00
410.64	386.19
410.83	374.49
411.02	393.21
411.21	528.96
411.40	409.59
411.59	409.59
411.78	435.34
411.98	320.65
412.17	358.10
412.36	430.66
412.55	435.34
412.74	411.93
412.93	353.42
413.12	430.66
413.31	402.57
413.50	379.17
413.69	404.91
413.88	440.02
414.07	425.98
414.26	418.96
414.45	383.85
414.64	344.06
414.83	433.00
415.02	414.27
415.22	454.06
415.41	421.30
415.60	376.83
415.79	353.42
415.98	341.72
416.17	458.74
416.36	411.93
416.55	477.47
416.74	409.59
416.93	456.40
417.12	463.43
417.31	376.83
417.50	393.21
417.69	430.66
417.88	365.12
418.07	409.59
418.26	393.21
418.45	414.27
418.64	388.53
418.83	465.77
419.02	416.62
419.21	458.74
419.39	395.55
419.58	383.85
419.77	421.30
419.96	416.62
420.15	414.27
420.34	517.26
420.53	418.96
420.72	407.25
420.91	447.04
421.10	440.02
421.29	376.83
421.48	379.17
421.67	386.19
421.86	376.83
422.05	414.27
422.24	374.49
422.43	428.32
422.61	381.51
422.80	444.70
422.99	458.74
423.18	418.96
423.37	376.83
423.56	428.32
423.75	456.40
423.94	315.97
424.13	372.15
424.32	386.19
424.50	379.17
424.69	498.53
424.88	489.17
425.07	444.70
425.26	475.13
425.45	465.77
425.64	414.27
425.83	444.70
426.01	423.64
426.20	390.87
426.39	390.87
426.58	512.58
426.77	472.79
426.96	486.83
427.15	423.64
427.33	430.66
427.52	404.91
427.71	400.23
427.90	435.34
428.09	369.80
428.28	423.64
428.46	318.31
428.65	468.11
428.84	498.53
429.03	433.00
429.22	411.93
429.40	423.64
429.59	402.57
429.78	407.25
429.97	400.23
430.16	374.49
430.34	435.34
430.53	397.89
430.72	423.64
430.91	374.49
431.10	362.78
431.28	416.62
431.47	423.64
431.66	390.87
431.85	402.57
432.03	447.04
432.22	447.04
432.41	397.89
432.60	402.57
432.79	407.25
432.97	348.74
433.16	367.46
433.35	411.93
433.54	440.02
433.72	372.15
433.91	440.02
434.10	414.27
434.28	435.34
434.47	383.85
434.66	444.70
434.85	414.27
435.03	383.85
435.22	381.51
435.41	418.96
435.59	470.45
435.78	416.62
435.97	437.68
436.16	477.47
436.34	451.72
436.53	414.27
436.72	360.44
436.90	440.02
437.09	341.72
437.28	442.36
437.46	376.83
437.65	463.43
437.84	416.62
438.02	456.40
438.21	386.19
438.40	458.74
438.58	409.59
438.77	421.30
438.96	400.23
439.14	315.97
439.33	407.25
439.52	400.23
439.70	381.51
439.89	425.98
440.08	428.32
440.26	552.37
440.45	421.30
440.63	447.04
440.82	416.62
441.01	351.08
441.19	430.66
441.38	397.89
441.57	388.53
441.75	395.55
441.94	402.57
442.12	454.06
442.31	451.72
442.50	423.64
442.68	388.53
442.87	395.55
443.05	397.89
443.24	379.17
443.43	407.25
443.61	425.98
443.80	414.27
443.98	393.21
444.17	367.46
444.35	409.59
444.54	374.49
444.73	428.32
444.91	421.30
445.10	351.08
445.28	372.15
445.47	393.21
445.65	442.36
445.84	393.21
446.02	358.10
446.21	418.96
446.39	463.43
446.58	400.23
446.77	475.13
446.95	418.96
447.14	449.38
447.32	468.11
447.51	383.85
447.69	414.27
447.88	433.00
448.06	447.04
448.25	416.62
448.43	409.59
448.62	411.93
448.80	397.89
448.99	442.36
449.17	362.78
449.36	376.83
449.54	468.11
449.73	440.02
449.91	402.57
450.10	407.25
450.28	423.64
450.46	440.02
450.65	430.66
450.83	428.32
451.02	423.64
451.20	379.17
451.39	393.21
451.57	421.30
451.76	374.49
451.94	330.02
452.13	454.06
452.31	486.83
452.49	397.89
452.68	414.27
452.86	449.38
453.05	428.32
453.23	409.59
453.42	449.38
453.60	463.43
453.78	458.74
453.97	414.27
454.15	362.78
454.34	465.77
454.52	418.96
454.70	454.06
454.89	409.59
455.07	376.83
455.26	421.30
455.44	461.09
455.62	465.77
455.81	409.59
455.99	428.32
456.17	400.23
456.36	428.32
456.54	313.63
456.73	386.19
456.91	374.49
457.09	433.00
457.28	456.40
457.46	425.98
457.64	395.55
457.83	362.78
458.01	454.06
458.19	397.89
458.38	397.89
458.56	484.49
458.74	360.44
458.93	423.64
459.11	421.30
459.29	390.87
459.48	414.27
459.66	451.72
459.84	376.83
460.03	505.56
460.21	477.47
460.39	388.53
460.57	421.30
460.76	414.27
460.94	489.17
461.12	407.25
461.31	444.70
461.49	463.43
461.67	423.64
461.85	358.10
462.04	475.13
462.22	802.80
462.40	414.27
462.59	533.64
462.77	435.34
462.95	404.91
463.13	463.43
463.32	395.55
463.50	463.43
463.68	388.53
463.86	447.04
464.05	454.06
464.23	449.38
464.41	407.25
464.59	454.06
464.78	440.02
464.96	381.51
465.14	437.68
465.32	440.02
465.50	454.06
465.69	423.64
465.87	330.02
466.05	435.34
466.23	411.93
466.41	402.57
466.60	390.87
466.78	425.98
466.96	475.13
467.14	442.36
467.32	496.19
467.51	451.72
467.69	404.91
467.87	468.11
468.05	444.70
468.23	503.22
468.41	407.25
468.60	463.43
468.78	421.30
468.96	372.15
469.14	444.70
469.32	320.65
469.50	376.83
469.69	489.17
469.87	395.55
470.05	393.21
470.23	465.77
470.41	388.53
470.59	447.04
470.77	407.25
470.95	383.85
471.14	498.53
471.32	386.19
471.50	409.59
471.68	374.49
471.86	411.93
472.04	449.38
472.22	416.62
472.40	379.17
472.58	461.09
472.77	383.85
472.95	430.66
473.13	423.64
473.31	390.87
473.49	369.80
473.67	346.40
473.85	489.17
474.03	390.87
474.21	416.62
474.39	414.27
474.57	482.15
474.75	411.93
474.93	454.06
475.12	400.23
475.30	505.56
475.48	449.38
475.66	358.10
475.84	435.34
476.02	421.30
476.20	440.02
476.38	440.02
476.56	517.26
476.74	433.00
476.92	374.49
477.10	339.38
477.28	376.83
477.46	411.93
477.64	433.00
477.82	397.89
478.00	348.74
478.18	383.85
478.36	395.55
478.54	390.87
478.72	484.49
478.90	383.85
479.08	353.42
479.26	355.76
479.44	472.79
479.62	407.25
479.80	381.51
479.98	451.72
480.16	402.57
480.34	468.11
480.52	390.87
480.70	451.72
480.88	456.40
481.06	379.17
481.24	369.80
481.41	458.74
481.59	351.08
481.77	458.74
481.95	397.89
482.13	428.32
482.31	447.04
482.49	421.30
482.67	390.87
482.85	456.40
483.03	348.74
483.21	444.70
483.39	421.30
483.57	425.98
483.74	433.00
483.92	393.21
484.10	425.98
484.28	423.64
484.46	524.28
484.64	416.62
484.82	496.19
485.00	458.74
485.18	414.27
485.35	493.85
485.53	402.57
485.71	418.96
485.89	341.72
486.07	376.83
486.25	414.27
486.43	400.23
486.61	428.32
486.78	449.38
486.96	425.98
487.14	440.02
487.32	421.30
487.50	315.97
487.68	449.38
487.85	421.30
488.03	341.72
488.21	379.17
488.39	425.98
488.57	428.32
488.75	393.21
488.92	486.83
489.10	379.17
489.28	454.06
489.46	458.74
489.64	440.02
489.81	425.98
489.99	451.72
490.17	379.17
490.35	479.81
490.53	423.64
490.70	423.64
490.88	421.30
491.06	376.83
491.24	400.23
491.41	435.34
491.59	458.74
491.77	428.32
491.95	397.89
492.13	477.47
492.30	484.49
492.48	351.08
492.66	400.23
492.84	393.21
493.01	433.00
493.19	372.15
493.37	407.25
493.54	491.51
493.72	411.93
493.90	362.78
494.08	454.06
494.25	444.70
494.43	416.62
494.61	402.57
494.79	376.83
494.96	416.62
495.14	458.74
495.32	388.53
495.49	458.74
495.67	383.85
495.85	416.62
496.02	451.72
496.20	454.06
496.38	393.21
496.55	475.13
496.73	386.19
496.91	421.30
497.09	374.49
497.26	367.46
497.44	470.45
497.62	346.40
497.79	395.55
497.97	414.27
498.14	440.02
498.32	433.00
498.50	416.62
498.67	409.59
498.85	400.23
499.03	395.55
499.20	341.72
499.38	416.62
499.56	428.32
499.73	421.30
499.91	374.49
500.08	395.55
500.26	390.87
500.44	348.74
500.61	435.34
500.79	379.17
500.97	376.83
501.14	435.34
501.32	421.30
501.49	440.02
501.67	454.06
501.84	428.32
502.02	379.17
502.20	374.49
502.37	423.64
502.55	430.66
502.72	388.53
502.90	407.25
503.07	400.23
503.25	428.32
503.43	463.43
503.60	353.42
503.78	435.34
503.95	418.96
504.13	440.02
504.30	454.06
504.48	374.49
504.65	425.98
504.83	449.38
505.01	393.21
505.18	418.96
505.36	456.40
505.53	337.04
505.71	449.38
505.88	428.32
506.06	433.00
506.23	433.00
506.41	414.27
506.58	517.26
506.76	416.62
506.93	435.34
507.11	484.49
507.28	402.57
507.46	409.59
507.63	447.04
507.81	411.93
507.98	400.23
508.16	386.19
508.33	409.59
508.50	421.30
508.68	407.25
508.85	425.98
509.03	416.62
509.20	341.72
509.38	447.04
509.55	423.64
509.73	454.06
509.90	435.34
510.08	451.72
510.25	444.70
510.42	477.47
510.60	383.85
510.77	454.06
510.95	400.23
511.12	442.36
511.30	416.62
511.47	397.89
511.64	433.00
511.82	416.62
511.99	503.22
512.17	421.30
512.34	407.25
512.51	344.06
512.69	437.68
512.86	411.93
513.04	388.53
513.21	421.30
513.38	442.36
513.56	458.74
513.73	395.55
513.90	388.53
514.08	458.74
514.25	390.87
514.43	423.64
514.60	477.47
514.77	449.38
514.95	428.32
515.12	442.36
515.29	449.38
515.47	330.02
515.64	456.40
515.81	409.59
515.99	409.59
516.16	383.85
516.33	451.72
516.51	400.23
516.68	435.34
516.85	379.17
517.03	423.64
517.20	444.70
517.37	390.87
517.54	440.02
517.72	388.53
517.89	407.25
518.06	400.23
518.24	470.45
518.41	449.38
518.58	430.66
518.75	355.76
518.93	421.30
519.10	475.13
519.27	484.49
519.45	358.10
519.62	402.57
519.79	400.23
519.96	440.02
520.14	444.70
520.31	526.62
520.48	444.70
520.65	400.23
520.83	395.55
521.00	449.38
521.17	430.66
521.34	388.53
521.52	383.85
521.69	472.79
521.86	430.66
522.03	472.79
522.20	456.40
522.38	468.11
522.55	418.96
522.72	362.78
522.89	456.40
523.07	475.13
523.24	404.91
523.41	414.27
523.58	393.21
523.75	416.62
523.92	449.38
524.10	383.85
524.27	402.57
524.44	449.38
524.61	397.89
524.78	374.49
524.96	374.49
525.13	416.62
525.30	374.49
525.47	468.11
525.64	367.46
525.81	388.53
525.98	414.27
526.16	458.74
526.33	414.27
526.50	353.42
526.67	388.53
526.84	381.51
527.01	458.74
527.18	411.93
527.36	435.34
527.53	421.30
527.70	472.79
527.87	461.09
528.04	451.72
528.21	395.55
528.38	369.80
528.55	395.55
528.72	491.51
528.89	404.91
529.07	475.13
529.24	414.27
529.41	416.62
529.58	456.40
529.75	374.49
529.92	379.17
530.09	442.36
530.26	489.17
530.43	451.72
530.60	365.12
530.77	437.68
530.94	369.80
531.11	428.32
531.28	451.72
531.46	348.74
531.63	411.93
531.80	421.30
531.97	440.02
532.14	498.53
532.31	465.77
532.48	367.46
532.65	407.25
532.82	414.27
532.99	411.93
533.16	503.22
533.33	444.70
533.50	440.02
533.67	435.34
533.84	418.96
534.01	454.06
534.18	407.25
534.35	444.70
534.52	395.55
534.69	465.77
534.86	470.45
535.03	437.68
535.20	390.87
535.37	444.70
535.54	477.47
535.71	433.00
535.88	442.36
536.05	444.70
536.22	407.25
536.38	376.83
536.55	369.80
536.72	465.77
536.89	383.85
537.06	423.64
537.23	416.62
537.40	428.32
537.57	400.23
537.74	482.15
537.91	386.19
538.08	379.17
538.25	456.40
538.42	414.27
538.59	400.23
538.75	418.96
538.92	367.46
539.09	390.87
539.26	430.66
539.43	468.11
539.60	479.81
539.77	358.10
539.94	390.87
540.11	416.62
540.28	444.70
540.44	435.34
540.61	418.96
540.78	430.66
540.95	362.78
541.12	491.51
541.29	477.47
541.46	458.74
541.62	463.43
541.79	433.00
541.96	449.38
542.13	362.78
542.30	418.96
542.47	414.27
542.63	433.00
542.80	472.79
542.97	395.55
543.14	411.93
543.31	433.00
543.48	458.74
543.64	496.19
543.81	418.96
543.98	447.04
544.15	414.27
544.32	449.38
544.48	365.12
544.65	404.91
544.82	386.19
544.99	411.93
545.16	454.06
545.32	437.68
545.49	397.89
545.66	376.83
545.83	510.24
546.00	346.40
546.16	411.93
546.33	442.36
546.50	442.36
546.67	475.13
546.83	411.93
547.00	456.40
547.17	451.72
547.34	423.64
547.50	444.70
547.67	409.59
547.84	444.70
548.00	411.93
548.17	430.66
548.34	444.70
548.51	461.09
548.67	512.58
548.84	425.98
549.01	397.89
549.18	458.74
549.34	390.87
549.51	433.00
549.68	456.40
549.84	367.46
550.01	421.30
550.18	465.77
550.34	468.11
550.51	407.25
550.68	545.34
550.84	442.36
551.01	430.66
551.18	458.74
551.34	418.96
551.51	348.74
551.68	486.83
551.84	416.62
552.01	437.68
552.18	428.32
552.34	404.91
552.51	358.10
552.68	409.59
552.84	376.83
553.01	477.47
553.18	402.57
553.34	449.38
553.51	376.83
553.67	430.66
553.84	491.51
554.01	414.27
554.17	400.23
554.34	428.32
554.51	470.45
554.67	369.80
554.84	468.11
555.00	411.93
555.17	411.93
555.33	421.30
555.50	383.85
555.67	433.00
555.83	435.34
556.00	425.98
556.16	533.64
556.33	383.85
556.50	348.74
556.66	449.38
556.83	423.64
556.99	477.47
557.16	402.57
557.32	425.98
557.49	468.11
557.65	409.59
557.82	428.32
557.98	416.62
558.15	381.51
558.32	325.33
558.48	386.19
558.65	411.93
558.81	402.57
558.98	416.62
559.14	416.62
559.31	402.57
559.47	386.19
559.64	470.45
559.80	470.45
559.97	404.91
560.13	414.27
560.30	411.93
560.46	407.25
560.63	440.02
560.79	451.72
560.96	411.93
561.12	456.40
561.29	435.34
561.45	456.40
561.61	454.06
561.78	458.74
561.94	397.89
562.11	425.98
562.27	367.46
562.44	404.91
562.60	400.23
562.77	482.15
562.93	444.70
563.10	433.00
563.26	440.02
563.42	409.59
563.59	461.09
563.75	458.74
563.92	435.34
564.08	402.57
564.24	458.74
564.41	437.68
564.57	390.87
564.74	423.64
564.90	444.70
565.07	381.51
565.23	442.36
565.39	425.98
565.56	395.55
565.72	372.15
565.88	388.53
566.05	337.04
566.21	372.15
566.38	486.83
566.54	458.74
566.70	425.98
566.87	442.36
567.03	346.40
567.19	372.15
567.36	456.40
567.52	461.09
567.68	402.57
567.85	458.74
568.01	411.93
568.17	402.57
568.34	407.25
568.50	414.27
568.66	397.89
568.83	407.25
568.99	514.92
569.15	440.02
569.32	376.83
569.48	367.46
569.64	400.23
569.81	397.89
569.97	418.96
570.13	444.70
570.30	353.42
570.46	404.91
570.62	461.09
570.78	409.59
570.95	362.78
571.11	463.43
571.27	358.10
571.43	397.89
571.60	440.02
571.76	442.36
571.92	362.78
572.09	367.46
572.25	407.25
572.41	442.36
572.57	416.62
572.74	458.74
572.90	418.96
573.06	374.49
573.22	440.02
573.38	437.68
573.55	430.66
573.71	423.64
573.87	348.74
574.03	397.89
574.20	351.08
574.36	409.59
574.52	395.55
574.68	315.97
574.84	358.10
575.01	498.53
575.17	388.53
575.33	444.70
575.49	428.32
575.65	423.64
575.82	470.45
575.98	468.11
576.14	388.53
576.30	402.57
576.46	322.99
576.62	379.17
576.79	390.87
576.95	484.49
577.11	369.80
577.27	482.15
577.43	374.49
577.59	423.64
577.75	428.32
577.92	390.87
578.08	433.00
578.24	372.15
578.40	383.85
578.56	447.04
578.72	472.79
578.88	407.25
579.04	421.30
579.21	409.59
579.37	463.43
579.53	423.64
579.69	454.06
579.85	421.30
580.01	418.96
580.17	400.23
580.33	425.98
580.49	444.70
580.65	351.08
580.82	479.81
580.98	449.38
581.14	479.81
581.30	425.98
581.46	379.17
581.62	348.74
581.78	397.89
581.94	416.62
582.10	425.98
582.26	397.89
582.42	414.27
582.58	449.38
582.74	388.53
582.90	402.57
583.06	428.32
583.22	400.23
583.38	379.17
583.54	383.85
583.70	456.40
583.86	491.51
584.02	301.93
584.18	486.83
584.34	313.63
584.50	461.09
584.66	341.72
584.82	383.85
584.98	475.13
585.14	449.38
585.30	447.04
585.46	430.66
585.62	290.23
585.78	454.06
585.94	341.72
586.10	444.70
586.26	409.59
586.42	390.87
586.58	425.98
586.74	468.11
586.90	465.77
587.06	463.43
587.22	411.93
587.38	374.49
587.54	409.59
587.70	470.45
587.86	414.27
588.02	407.25
588.18	440.02
588.34	479.81
588.49	397.89
588.65	372.15
588.81	397.89
588.97	379.17
589.13	428.32
589.29	463.43
589.45	449.38
589.61	449.38
589.77	477.47
589.93	390.87
590.08	430.66
590.24	437.68
590.40	402.57
590.56	388.53
590.72	440.02
590.88	397.89
591.04	451.72
591.20	470.45
591.35	451.72
591.51	418.96
591.67	447.04
591.83	374.49
591.99	367.46
592.15	442.36
592.31	365.12
592.46	386.19
592.62	447.04
592.78	440.02
592.94	374.49
593.10	411.93
593.26	367.46
593.41	428.32
593.57	393.21
593.73	393.21
593.89	416.62
594.05	465.77
594.20	374.49
594.36	461.09
594.52	430.66
594.68	386.19
594.84	449.38
594.99	451.72
595.15	390.87
595.31	362.78
595.47	463.43
595.62	365.12
595.78	411.93
595.94	376.83
596.10	440.02
596.25	411.93
596.41	407.25
596.57	421.30
596.73	416.62
596.88	461.09
597.04	390.87
597.20	367.46
597.36	414.27
597.51	414.27
597.67	402.57
597.83	381.51
597.99	496.19
598.14	479.81
598.30	468.11
598.46	409.59
598.61	425.98
598.77	372.15
598.93	425.98
599.09	489.17
599.24	367.46
599.40	458.74
599.56	402.57
599.71	374.49
599.87	397.89
600.03	418.96
600.18	404.91
600.34	395.55
600.50	400.23
600.65	383.85
600.81	360.44
600.97	395.55
601.12	376.83
601.28	397.89
601.44	372.15
601.59	397.89
601.75	411.93
601.91	376.83
602.06	393.21
602.22	402.57
602.37	425.98
602.53	472.79
602.69	369.80
602.84	433.00
603.00	428.32
603.16	447.04
603.31	433.00
603.47	421.30
603.62	344.06
603.78	409.59
603.94	395.55
604.09	404.91
604.25	414.27
604.40	458.74
604.56	346.40
604.71	428.32
604.87	414.27
605.03	409.59
605.18	428.32
605.34	451.72
605.49	449.38
605.65	451.72
605.80	407.25
605.96	465.77
606.12	367.46
606.27	418.96
606.43	430.66
606.58	430.66
606.74	421.30
606.89	383.85
607.05	386.19
607.20	444.70
607.36	477.47
607.51	440.02
607.67	416.62
607.82	418.96
607.98	418.96
608.13	367.46
608.29	449.38
608.44	524.28
608.60	416.62
608.75	465.77
608.91	411.93
609.06	454.06
609.22	449.38
609.37	414.27
609.53	458.74
609.68	404.91
609.84	397.89
609.99	409.59
610.15	397.89
