SpectraSuite Data File
++++++++++++++++++++++++++++++++++++
Date: Fri Oct 25 12:10:08 EDT 2013
User: price-jones
Dark Spectrum Present: No
Reference Spectrum Present: No
Number of Sampled Component Spectra: 1
Spectrometers: USB2+H05261
Integration Time (usec): 100000 (USB2+H05261)
Spectra Averaged: 1 (USB2+H05261)
Boxcar Smoothing: 0 (USB2+H05261)
Correct for Electrical Dark: No (USB2+H05261)
Strobe/Lamp Enabled: No (USB2+H05261)
Correct for Detector Non-linearity: No (USB2+H05261)
Correct for Stray Light: No (USB2+H05261)
Number of Pixels in Processed Spectrum: 2048
>>>>>Begin Processed Spectral Data<<<<<
365.73	400.23
365.92	400.23
366.12	400.23
366.32	220.01
366.52	222.35
366.72	224.69
366.91	243.42
367.11	203.63
367.31	311.29
367.51	276.18
367.70	229.37
367.90	255.12
368.10	229.37
368.30	250.44
368.49	292.57
368.69	264.48
368.89	236.39
369.09	236.39
369.28	318.31
369.48	238.73
369.68	229.37
369.87	325.33
370.07	248.10
370.27	311.29
370.47	337.04
370.66	285.55
370.86	372.15
371.06	433.00
371.25	428.32
371.45	414.27
371.65	393.21
371.84	386.19
372.04	322.99
372.24	337.04
372.44	393.21
372.63	440.02
372.83	355.76
373.03	367.46
373.22	402.57
373.42	386.19
373.62	451.72
373.81	507.90
374.01	433.00
374.21	400.23
374.40	365.12
374.60	388.53
374.79	423.64
374.99	395.55
375.19	470.45
375.38	442.36
375.58	369.80
375.78	397.89
375.97	454.06
376.17	407.25
376.37	358.10
376.56	425.98
376.76	500.87
376.95	493.85
377.15	421.30
377.35	369.80
377.54	402.57
377.74	433.00
377.93	414.27
378.13	472.79
378.33	393.21
378.52	379.17
378.72	440.02
378.91	470.45
379.11	330.02
379.31	322.99
379.50	365.12
379.70	428.32
379.89	407.25
380.09	421.30
380.28	360.44
380.48	337.04
380.68	374.49
380.87	444.70
381.07	444.70
381.26	376.83
381.46	442.36
381.65	386.19
381.85	442.36
382.04	407.25
382.24	468.11
382.43	486.83
382.63	437.68
382.83	386.19
383.02	421.30
383.22	444.70
383.41	402.57
383.61	411.93
383.80	475.13
384.00	433.00
384.19	388.53
384.39	411.93
384.58	376.83
384.78	386.19
384.97	435.34
385.17	402.57
385.36	355.76
385.56	440.02
385.75	435.34
385.95	388.53
386.14	407.25
386.34	418.96
386.53	456.40
386.72	365.12
386.92	360.44
387.11	416.62
387.31	383.85
387.50	395.55
387.70	358.10
387.89	381.51
388.09	388.53
388.28	341.72
388.48	444.70
388.67	433.00
388.86	383.85
389.06	365.12
389.25	421.30
389.45	442.36
389.64	454.06
389.84	472.79
390.03	514.92
390.22	444.70
390.42	449.38
390.61	383.85
390.81	348.74
391.00	358.10
391.19	430.66
391.39	388.53
391.58	414.27
391.78	435.34
391.97	418.96
392.16	458.74
392.36	423.64
392.55	367.46
392.75	440.02
392.94	346.40
393.13	486.83
393.33	461.09
393.52	442.36
393.71	407.25
393.91	414.27
394.10	433.00
394.29	344.06
394.49	383.85
394.68	463.43
394.88	442.36
395.07	365.12
395.26	430.66
395.46	444.70
395.65	444.70
395.84	374.49
396.04	479.81
396.23	348.74
396.42	428.32
396.62	383.85
396.81	425.98
397.00	386.19
397.19	390.87
397.39	379.17
397.58	425.98
397.77	374.49
397.97	416.62
398.16	337.04
398.35	418.96
398.55	355.76
398.74	409.59
398.93	430.66
399.12	397.89
399.32	418.96
399.51	402.57
399.70	416.62
399.90	435.34
400.09	493.85
400.28	395.55
400.47	400.23
400.67	393.21
400.86	383.85
401.05	458.74
401.24	423.64
401.44	304.27
401.63	414.27
401.82	372.15
402.01	400.23
402.21	376.83
402.40	416.62
402.59	393.21
402.78	430.66
402.97	376.83
403.17	425.98
403.36	411.93
403.55	365.12
403.74	388.53
403.93	388.53
404.13	411.93
404.32	379.17
404.51	386.19
404.70	330.02
404.89	418.96
405.09	517.26
405.28	454.06
405.47	404.91
405.66	435.34
405.85	418.96
406.05	393.21
406.24	468.11
406.43	353.42
406.62	451.72
406.81	528.96
407.00	528.96
407.20	409.59
407.39	348.74
407.58	470.45
407.77	372.15
407.96	444.70
408.15	433.00
408.34	425.98
408.54	383.85
408.73	423.64
408.92	404.91
409.11	395.55
409.30	442.36
409.49	383.85
409.68	383.85
409.87	435.34
410.07	407.25
410.26	428.32
410.45	376.83
410.64	381.51
410.83	409.59
411.02	369.80
411.21	407.25
411.40	435.34
411.59	421.30
411.78	346.40
411.98	421.30
412.17	449.38
412.36	430.66
412.55	376.83
412.74	407.25
412.93	423.64
413.12	435.34
413.31	435.34
413.50	414.27
413.69	386.19
413.88	428.32
414.07	430.66
414.26	463.43
414.45	421.30
414.64	402.57
414.83	414.27
415.02	386.19
415.22	421.30
415.41	395.55
415.60	404.91
415.79	440.02
415.98	425.98
416.17	442.36
416.36	454.06
416.55	411.93
416.74	430.66
416.93	440.02
417.12	390.87
417.31	395.55
417.50	337.04
417.69	456.40
417.88	416.62
418.07	477.47
418.26	365.12
418.45	421.30
418.64	442.36
418.83	353.42
419.02	383.85
419.21	365.12
419.39	381.51
419.58	465.77
419.77	423.64
419.96	390.87
420.15	524.28
420.34	390.87
420.53	332.36
420.72	442.36
420.91	402.57
421.10	395.55
421.29	379.17
421.48	468.11
421.67	428.32
421.86	372.15
422.05	425.98
422.24	433.00
422.43	463.43
422.61	372.15
422.80	463.43
422.99	451.72
423.18	433.00
423.37	395.55
423.56	425.98
423.75	383.85
423.94	374.49
424.13	442.36
424.32	332.36
424.50	433.00
424.69	421.30
424.88	451.72
425.07	311.29
425.26	390.87
425.45	383.85
425.64	390.87
425.83	341.72
426.01	409.59
426.20	409.59
426.39	409.59
426.58	437.68
426.77	430.66
426.96	423.64
427.15	407.25
427.33	416.62
427.52	379.17
427.71	437.68
427.90	437.68
428.09	435.34
428.28	376.83
428.46	440.02
428.65	411.93
428.84	463.43
429.03	421.30
429.22	397.89
429.40	379.17
429.59	437.68
429.78	423.64
429.97	411.93
430.16	360.44
430.34	465.77
430.53	428.32
430.72	393.21
430.91	428.32
431.10	468.11
431.28	461.09
431.47	402.57
431.66	411.93
431.85	423.64
432.03	402.57
432.22	461.09
432.41	351.08
432.60	442.36
432.79	383.85
432.97	458.74
433.16	383.85
433.35	425.98
433.54	341.72
433.72	500.87
433.91	388.53
434.10	428.32
434.28	407.25
434.47	344.06
434.66	407.25
434.85	423.64
435.03	372.15
435.22	428.32
435.41	390.87
435.59	416.62
435.78	402.57
435.97	423.64
436.16	433.00
436.34	369.80
436.53	390.87
436.72	348.74
436.90	409.59
437.09	418.96
437.28	381.51
437.46	376.83
437.65	411.93
437.84	383.85
438.02	423.64
438.21	372.15
438.40	397.89
438.58	362.78
438.77	437.68
438.96	388.53
439.14	461.09
439.33	386.19
439.52	400.23
439.70	409.59
439.89	402.57
440.08	397.89
440.26	397.89
440.45	407.25
440.63	442.36
440.82	444.70
441.01	407.25
441.19	393.21
441.38	393.21
441.57	390.87
441.75	444.70
441.94	418.96
442.12	383.85
442.31	376.83
442.50	421.30
442.68	376.83
442.87	360.44
443.05	308.95
443.24	386.19
443.43	360.44
443.61	400.23
443.80	458.74
443.98	440.02
444.17	486.83
444.35	451.72
444.54	465.77
444.73	395.55
444.91	454.06
445.10	325.33
445.28	341.72
445.47	390.87
445.65	444.70
445.84	423.64
446.02	442.36
446.21	428.32
446.39	388.53
446.58	388.53
446.77	365.12
446.95	437.68
447.14	421.30
447.32	397.89
447.51	421.30
447.69	409.59
447.88	390.87
448.06	456.40
448.25	470.45
448.43	447.04
448.62	437.68
448.80	362.78
448.99	367.46
449.17	472.79
449.36	414.27
449.54	411.93
449.73	397.89
449.91	367.46
450.10	421.30
450.28	454.06
450.46	418.96
450.65	418.96
450.83	440.02
451.02	437.68
451.20	386.19
451.39	444.70
451.57	442.36
451.76	390.87
451.94	425.98
452.13	390.87
452.31	409.59
452.49	381.51
452.68	435.34
452.86	369.80
453.05	440.02
453.23	388.53
453.42	442.36
453.60	475.13
453.78	437.68
453.97	353.42
454.15	435.34
454.34	430.66
454.52	334.70
454.70	465.77
454.89	484.49
455.07	388.53
455.26	435.34
455.44	449.38
455.62	404.91
455.81	397.89
455.99	393.21
456.17	407.25
456.36	386.19
456.54	390.87
456.73	365.12
456.91	325.33
457.09	449.38
457.28	472.79
457.46	440.02
457.64	456.40
457.83	407.25
458.01	489.17
458.19	351.08
458.38	468.11
458.56	430.66
458.74	421.30
458.93	327.68
459.11	416.62
459.29	402.57
459.48	461.09
459.66	493.85
459.84	425.98
460.03	463.43
460.21	430.66
460.39	409.59
460.57	374.49
460.76	388.53
460.94	421.30
461.12	447.04
461.31	404.91
461.49	414.27
461.67	367.46
461.85	360.44
462.04	407.25
462.22	765.36
462.40	465.77
462.59	456.40
462.77	500.87
462.95	440.02
463.13	437.68
463.32	435.34
463.50	383.85
463.68	416.62
463.86	400.23
464.05	393.21
464.23	407.25
464.41	411.93
464.59	318.31
464.78	374.49
464.96	367.46
465.14	421.30
465.32	369.80
465.50	407.25
465.69	409.59
465.87	486.83
466.05	437.68
466.23	437.68
466.41	433.00
466.60	454.06
466.78	367.46
466.96	386.19
467.14	414.27
467.32	433.00
467.51	388.53
467.69	416.62
467.87	428.32
468.05	381.51
468.23	416.62
468.41	395.55
468.60	390.87
468.78	421.30
468.96	367.46
469.14	435.34
469.32	372.15
469.50	388.53
469.69	386.19
469.87	491.51
470.05	425.98
470.23	407.25
470.41	430.66
470.59	388.53
470.77	404.91
470.95	416.62
471.14	454.06
471.32	409.59
471.50	383.85
471.68	400.23
471.86	451.72
472.04	409.59
472.22	372.15
472.40	395.55
472.58	374.49
472.77	435.34
472.95	449.38
473.13	477.47
473.31	454.06
473.49	468.11
473.67	365.12
473.85	416.62
474.03	346.40
474.21	358.10
474.39	358.10
474.57	456.40
474.75	493.85
474.93	430.66
475.12	346.40
475.30	376.83
475.48	447.04
475.66	442.36
475.84	418.96
476.02	367.46
476.20	470.45
476.38	339.38
476.56	425.98
476.74	468.11
476.92	358.10
477.10	407.25
477.28	409.59
477.46	428.32
477.64	416.62
477.82	451.72
478.00	388.53
478.18	395.55
478.36	400.23
478.54	402.57
478.72	404.91
478.90	423.64
479.08	465.77
479.26	369.80
479.44	430.66
479.62	353.42
479.80	461.09
479.98	447.04
480.16	484.49
480.34	484.49
480.52	442.36
480.70	461.09
480.88	388.53
481.06	372.15
481.24	437.68
481.41	409.59
481.59	402.57
481.77	365.12
481.95	421.30
482.13	489.17
482.31	374.49
482.49	393.21
482.67	411.93
482.85	465.77
483.03	404.91
483.21	360.44
483.39	393.21
483.57	423.64
483.74	444.70
483.92	369.80
484.10	365.12
484.28	447.04
484.46	451.72
484.64	416.62
484.82	493.85
485.00	458.74
485.18	400.23
485.35	435.34
485.53	372.15
485.71	440.02
485.89	337.04
486.07	367.46
486.25	433.00
486.43	418.96
486.61	482.15
486.78	423.64
486.96	383.85
487.14	491.51
487.32	393.21
487.50	334.70
487.68	468.11
487.85	367.46
488.03	400.23
488.21	402.57
488.39	433.00
488.57	442.36
488.75	393.21
488.92	472.79
489.10	423.64
489.28	407.25
489.46	397.89
489.64	461.09
489.81	482.15
489.99	437.68
490.17	430.66
490.35	472.79
490.53	444.70
490.70	390.87
490.88	454.06
491.06	425.98
491.24	428.32
491.41	425.98
491.59	451.72
491.77	442.36
491.95	444.70
492.13	395.55
492.30	388.53
492.48	388.53
492.66	491.51
492.84	418.96
493.01	491.51
493.19	458.74
493.37	435.34
493.54	421.30
493.72	355.76
493.90	449.38
494.08	456.40
494.25	402.57
494.43	468.11
494.61	395.55
494.79	468.11
494.96	390.87
495.14	493.85
495.32	386.19
495.49	414.27
495.67	418.96
495.85	421.30
496.02	418.96
496.20	493.85
496.38	433.00
496.55	463.43
496.73	425.98
496.91	390.87
497.09	400.23
497.26	365.12
497.44	411.93
497.62	390.87
497.79	390.87
497.97	418.96
498.14	437.68
498.32	386.19
498.50	416.62
498.67	346.40
498.85	491.51
499.03	376.83
499.20	409.59
499.38	411.93
499.56	428.32
499.73	500.87
499.91	386.19
500.08	454.06
500.26	421.30
500.44	435.34
500.61	402.57
500.79	437.68
500.97	409.59
501.14	383.85
501.32	404.91
501.49	430.66
501.67	383.85
501.84	351.08
502.02	327.68
502.20	418.96
502.37	428.32
502.55	365.12
502.72	397.89
502.90	489.17
503.07	409.59
503.25	397.89
503.43	456.40
503.60	416.62
503.78	423.64
503.95	425.98
504.13	461.09
504.30	418.96
504.48	482.15
504.65	416.62
504.83	428.32
505.01	433.00
505.18	416.62
505.36	433.00
505.53	388.53
505.71	461.09
505.88	407.25
506.06	423.64
506.23	388.53
506.41	435.34
506.58	458.74
506.76	468.11
506.93	430.66
507.11	374.49
507.28	423.64
507.46	365.12
507.63	430.66
507.81	369.80
507.98	383.85
508.16	339.38
508.33	374.49
508.50	416.62
508.68	418.96
508.85	334.70
509.03	400.23
509.20	386.19
509.38	386.19
509.55	348.74
509.73	404.91
509.90	465.77
510.08	489.17
510.25	407.25
510.42	409.59
510.60	400.23
510.77	428.32
510.95	376.83
511.12	379.17
511.30	407.25
511.47	430.66
511.64	433.00
511.82	374.49
511.99	442.36
512.17	381.51
512.34	456.40
512.51	430.66
512.69	425.98
512.86	332.36
513.04	418.96
513.21	353.42
513.38	379.17
513.56	393.21
513.73	463.43
513.90	369.80
514.08	381.51
514.25	425.98
514.43	425.98
514.60	376.83
514.77	421.30
514.95	367.46
515.12	381.51
515.29	404.91
515.47	330.02
515.64	425.98
515.81	402.57
515.99	376.83
516.16	395.55
516.33	418.96
516.51	463.43
516.68	407.25
516.85	447.04
517.03	351.08
517.20	344.06
517.37	451.72
517.54	409.59
517.72	407.25
517.89	454.06
518.06	393.21
518.24	383.85
518.41	390.87
518.58	442.36
518.75	409.59
518.93	503.22
519.10	416.62
519.27	430.66
519.45	428.32
519.62	423.64
519.79	365.12
519.96	418.96
520.14	440.02
520.31	503.22
520.48	444.70
520.65	477.47
520.83	454.06
521.00	418.96
521.17	393.21
521.34	435.34
521.52	418.96
521.69	362.78
521.86	400.23
522.03	339.38
522.20	407.25
522.38	397.89
522.55	402.57
522.72	447.04
522.89	468.11
523.07	440.02
523.24	425.98
523.41	414.27
523.58	465.77
523.75	435.34
523.92	437.68
524.10	411.93
524.27	404.91
524.44	444.70
524.61	386.19
524.78	414.27
524.96	442.36
525.13	411.93
525.30	400.23
525.47	397.89
525.64	409.59
525.81	376.83
525.98	440.02
526.16	374.49
526.33	449.38
526.50	447.04
526.67	367.46
526.84	400.23
527.01	444.70
527.18	440.02
527.36	440.02
527.53	400.23
527.70	409.59
527.87	454.06
528.04	393.21
528.21	358.10
528.38	503.22
528.55	449.38
528.72	411.93
528.89	479.81
529.07	458.74
529.24	381.51
529.41	451.72
529.58	390.87
529.75	435.34
529.92	430.66
530.09	393.21
530.26	388.53
530.43	489.17
530.60	367.46
530.77	400.23
530.94	393.21
531.11	327.68
531.28	407.25
531.46	458.74
531.63	451.72
531.80	409.59
531.97	411.93
532.14	360.44
532.31	381.51
532.48	393.21
532.65	451.72
532.82	362.78
532.99	482.15
533.16	475.13
533.33	409.59
533.50	402.57
533.67	379.17
533.84	332.36
534.01	376.83
534.18	386.19
534.35	470.45
534.52	470.45
534.69	395.55
534.86	468.11
535.03	327.68
535.20	395.55
535.37	421.30
535.54	393.21
535.71	386.19
535.88	461.09
536.05	395.55
536.22	421.30
536.38	435.34
536.55	395.55
536.72	351.08
536.89	449.38
537.06	397.89
537.23	374.49
537.40	425.98
537.57	444.70
537.74	379.17
537.91	397.89
538.08	407.25
538.25	365.12
538.42	423.64
538.59	407.25
538.75	465.77
538.92	404.91
539.09	442.36
539.26	414.27
539.43	440.02
539.60	421.30
539.77	430.66
539.94	402.57
540.11	367.46
540.28	472.79
540.44	447.04
540.61	442.36
540.78	414.27
540.95	425.98
541.12	521.94
541.29	430.66
541.46	423.64
541.62	407.25
541.79	430.66
541.96	440.02
542.13	388.53
542.30	341.72
542.47	442.36
542.63	468.11
542.80	337.04
542.97	442.36
543.14	355.76
543.31	409.59
543.48	477.47
543.64	362.78
543.81	416.62
543.98	386.19
544.15	435.34
544.32	418.96
544.48	376.83
544.65	470.45
544.82	404.91
544.99	444.70
545.16	376.83
545.32	414.27
545.49	365.12
545.66	372.15
545.83	416.62
546.00	393.21
546.16	383.85
546.33	411.93
546.50	475.13
546.67	430.66
546.83	470.45
547.00	437.68
547.17	372.15
547.34	362.78
547.50	353.42
547.67	404.91
547.84	454.06
548.00	393.21
548.17	465.77
548.34	435.34
548.51	390.87
548.67	395.55
548.84	477.47
549.01	423.64
549.18	318.31
549.34	433.00
549.51	475.13
549.68	461.09
549.84	400.23
550.01	430.66
550.18	421.30
550.34	425.98
550.51	395.55
550.68	458.74
550.84	369.80
551.01	395.55
551.18	451.72
551.34	440.02
551.51	470.45
551.68	430.66
551.84	416.62
552.01	433.00
552.18	447.04
552.34	559.39
552.51	423.64
552.68	442.36
552.84	381.51
553.01	407.25
553.18	416.62
553.34	402.57
553.51	418.96
553.67	472.79
553.84	470.45
554.01	440.02
554.17	477.47
554.34	411.93
554.51	449.38
554.67	421.30
554.84	451.72
555.00	454.06
555.17	433.00
555.33	416.62
555.50	390.87
555.67	416.62
555.83	367.46
556.00	409.59
556.16	557.05
556.33	463.43
556.50	433.00
556.66	416.62
556.83	479.81
556.99	425.98
557.16	447.04
557.32	381.51
557.49	362.78
557.65	411.93
557.82	388.53
557.98	423.64
558.15	433.00
558.32	404.91
558.48	407.25
558.65	425.98
558.81	461.09
558.98	421.30
559.14	461.09
559.31	489.17
559.47	421.30
559.64	407.25
559.80	442.36
559.97	393.21
560.13	416.62
560.30	418.96
560.46	447.04
560.63	425.98
560.79	437.68
560.96	414.27
561.12	362.78
561.29	411.93
561.45	449.38
561.61	428.32
561.78	468.11
561.94	381.51
562.11	418.96
562.27	418.96
562.44	463.43
562.60	472.79
562.77	404.91
562.93	512.58
563.10	468.11
563.26	430.66
563.42	505.56
563.59	414.27
563.75	458.74
563.92	397.89
564.08	433.00
564.24	519.60
564.41	437.68
564.57	388.53
564.74	379.17
564.90	376.83
565.07	402.57
565.23	430.66
565.39	486.83
565.56	470.45
565.72	383.85
565.88	381.51
566.05	430.66
566.21	367.46
566.38	456.40
566.54	465.77
566.70	465.77
566.87	355.76
567.03	425.98
567.19	411.93
567.36	348.74
567.52	365.12
567.68	475.13
567.85	440.02
568.01	456.40
568.17	402.57
568.34	454.06
568.50	479.81
568.66	379.17
568.83	479.81
568.99	414.27
569.15	498.53
569.32	404.91
569.48	414.27
569.64	355.76
569.81	435.34
569.97	479.81
570.13	437.68
570.30	442.36
570.46	414.27
570.62	421.30
570.78	402.57
570.95	418.96
571.11	468.11
571.27	468.11
571.43	407.25
571.60	458.74
571.76	428.32
571.92	400.23
572.09	402.57
572.25	451.72
572.41	411.93
572.57	456.40
572.74	437.68
572.90	451.72
573.06	402.57
573.22	454.06
573.38	418.96
573.55	351.08
573.71	395.55
573.87	470.45
574.03	454.06
574.20	428.32
574.36	479.81
574.52	430.66
574.68	425.98
574.84	390.87
575.01	390.87
575.17	440.02
575.33	393.21
575.49	458.74
575.65	435.34
575.82	435.34
575.98	407.25
576.14	461.09
576.30	447.04
576.46	330.02
576.62	433.00
576.79	386.19
576.95	472.79
577.11	449.38
577.27	386.19
577.43	430.66
577.59	428.32
577.75	454.06
577.92	428.32
578.08	451.72
578.24	388.53
578.40	418.96
578.56	435.34
578.72	463.43
578.88	423.64
579.04	360.44
579.21	418.96
579.37	386.19
579.53	318.31
579.69	461.09
579.85	402.57
580.01	428.32
580.17	381.51
580.33	337.04
580.49	479.81
580.65	449.38
580.82	388.53
580.98	472.79
581.14	414.27
581.30	449.38
581.46	390.87
581.62	458.74
581.78	402.57
581.94	458.74
582.10	449.38
582.26	444.70
582.42	442.36
582.58	421.30
582.74	416.62
582.90	409.59
583.06	472.79
583.22	362.78
583.38	400.23
583.54	369.80
583.70	435.34
583.86	444.70
584.02	351.08
584.18	390.87
584.34	463.43
584.50	411.93
584.66	421.30
584.82	421.30
584.98	397.89
585.14	447.04
585.30	390.87
585.46	372.15
585.62	374.49
585.78	390.87
585.94	458.74
586.10	400.23
586.26	414.27
586.42	514.92
586.58	465.77
586.74	421.30
586.90	435.34
587.06	458.74
587.22	360.44
587.38	428.32
587.54	395.55
587.70	346.40
587.86	447.04
588.02	400.23
588.18	416.62
588.34	430.66
588.49	435.34
588.65	409.59
588.81	428.32
588.97	400.23
589.13	409.59
589.29	325.33
589.45	433.00
589.61	367.46
589.77	465.77
589.93	404.91
590.08	482.15
590.24	397.89
590.40	477.47
590.56	418.96
590.72	393.21
590.88	437.68
591.04	416.62
591.20	461.09
591.35	472.79
591.51	416.62
591.67	470.45
591.83	397.89
591.99	470.45
592.15	454.06
592.31	454.06
592.46	390.87
592.62	442.36
592.78	433.00
592.94	435.34
593.10	430.66
593.26	414.27
593.41	386.19
593.57	430.66
593.73	435.34
593.89	379.17
594.05	393.21
594.20	362.78
594.36	402.57
594.52	390.87
594.68	383.85
594.84	374.49
594.99	421.30
595.15	404.91
595.31	470.45
595.47	409.59
595.62	372.15
595.78	390.87
595.94	388.53
596.10	444.70
596.25	440.02
596.41	451.72
596.57	402.57
596.73	407.25
596.88	367.46
597.04	402.57
597.20	463.43
597.36	458.74
597.51	344.06
597.67	393.21
597.83	430.66
597.99	451.72
598.14	348.74
598.30	388.53
598.46	449.38
598.61	489.17
598.77	418.96
598.93	428.32
599.09	395.55
599.24	477.47
599.40	461.09
599.56	409.59
599.71	418.96
599.87	447.04
600.03	360.44
600.18	430.66
600.34	465.77
600.50	435.34
600.65	404.91
600.81	416.62
600.97	486.83
601.12	402.57
601.28	393.21
601.44	393.21
601.59	381.51
601.75	477.47
601.91	353.42
602.06	402.57
602.22	514.92
602.37	388.53
602.53	433.00
602.69	442.36
602.84	341.72
603.00	416.62
603.16	421.30
603.31	402.57
603.47	449.38
603.62	411.93
603.78	411.93
603.94	425.98
604.09	444.70
604.25	442.36
604.40	425.98
604.56	390.87
604.71	409.59
604.87	411.93
605.03	470.45
605.18	468.11
605.34	463.43
605.49	433.00
605.65	437.68
605.80	395.55
605.96	379.17
606.12	402.57
606.27	468.11
606.43	308.95
606.58	418.96
606.74	379.17
606.89	409.59
607.05	442.36
607.20	351.08
607.36	404.91
607.51	372.15
607.67	421.30
607.82	393.21
607.98	475.13
608.13	374.49
608.29	503.22
608.44	477.47
608.60	360.44
608.75	425.98
608.91	386.19
609.06	411.93
609.22	458.74
609.37	390.87
609.53	442.36
609.68	498.53
609.84	430.66
609.99	444.70
610.15	449.38
