SpectraSuite Data File
++++++++++++++++++++++++++++++++++++
Date: Fri Oct 25 12:11:33 EDT 2013
User: price-jones
Dark Spectrum Present: No
Reference Spectrum Present: No
Number of Sampled Component Spectra: 1
Spectrometers: USB2+H05261
Integration Time (usec): 100000 (USB2+H05261)
Spectra Averaged: 1 (USB2+H05261)
Boxcar Smoothing: 0 (USB2+H05261)
Correct for Electrical Dark: No (USB2+H05261)
Strobe/Lamp Enabled: No (USB2+H05261)
Correct for Detector Non-linearity: No (USB2+H05261)
Correct for Stray Light: No (USB2+H05261)
Number of Pixels in Processed Spectrum: 2048
>>>>>Begin Processed Spectral Data<<<<<
365.73	341.72
365.92	341.72
366.12	341.72
366.32	290.23
366.52	264.48
366.72	245.76
366.91	259.80
367.11	173.20
367.31	234.05
367.51	231.71
367.70	294.91
367.90	243.42
368.10	234.05
368.30	250.44
368.49	236.39
368.69	266.82
368.89	276.18
369.09	189.58
369.28	227.03
369.48	315.97
369.68	285.55
369.87	313.63
370.07	269.16
370.27	322.99
370.47	238.73
370.66	322.99
370.86	374.49
371.06	348.74
371.25	353.42
371.45	383.85
371.65	372.15
371.84	374.49
372.04	358.10
372.24	379.17
372.44	425.98
372.63	381.51
372.83	374.49
373.03	458.74
373.22	407.25
373.42	395.55
373.62	454.06
373.81	463.43
374.01	421.30
374.21	468.11
374.40	465.77
374.60	461.09
374.79	454.06
374.99	386.19
375.19	465.77
375.38	475.13
375.58	381.51
375.78	456.40
375.97	451.72
376.17	456.40
376.37	440.02
376.56	397.89
376.76	449.38
376.95	423.64
377.15	402.57
377.35	418.96
377.54	409.59
377.74	407.25
377.93	344.06
378.13	395.55
378.33	423.64
378.52	383.85
378.72	397.89
378.91	454.06
379.11	416.62
379.31	362.78
379.50	388.53
379.70	463.43
379.89	400.23
380.09	463.43
380.28	388.53
380.48	421.30
380.68	416.62
380.87	510.24
381.07	425.98
381.26	346.40
381.46	418.96
381.65	365.12
381.85	351.08
382.04	376.83
382.24	475.13
382.43	498.53
382.63	435.34
382.83	421.30
383.02	407.25
383.22	456.40
383.41	425.98
383.61	379.17
383.80	409.59
384.00	411.93
384.19	442.36
384.39	421.30
384.58	393.21
384.78	383.85
384.97	461.09
385.17	416.62
385.36	400.23
385.56	395.55
385.75	351.08
385.95	433.00
386.14	425.98
386.34	454.06
386.53	418.96
386.72	386.19
386.92	425.98
387.11	437.68
387.31	381.51
387.50	386.19
387.70	418.96
387.89	400.23
388.09	367.46
388.28	388.53
388.48	395.55
388.67	451.72
388.86	414.27
389.06	435.34
389.25	421.30
389.45	444.70
389.64	440.02
389.84	397.89
390.03	444.70
390.22	414.27
390.42	397.89
390.61	330.02
390.81	425.98
391.00	395.55
391.19	395.55
391.39	397.89
391.58	346.40
391.78	433.00
391.97	440.02
392.16	388.53
392.36	423.64
392.55	472.79
392.75	358.10
392.94	362.78
393.13	451.72
393.33	437.68
393.52	447.04
393.71	475.13
393.91	486.83
394.10	383.85
394.29	367.46
394.49	386.19
394.68	393.21
394.88	421.30
395.07	407.25
395.26	379.17
395.46	353.42
395.65	381.51
395.84	379.17
396.04	444.70
396.23	461.09
396.42	411.93
396.62	400.23
396.81	421.30
397.00	421.30
397.19	423.64
397.39	416.62
397.58	428.32
397.77	454.06
397.97	397.89
398.16	397.89
398.35	395.55
398.55	348.74
398.74	407.25
398.93	435.34
399.12	444.70
399.32	381.51
399.51	418.96
399.70	390.87
399.90	451.72
400.09	468.11
400.28	437.68
400.47	409.59
400.67	486.83
400.86	379.17
401.05	437.68
401.24	383.85
401.44	367.46
401.63	393.21
401.82	486.83
402.01	383.85
402.21	484.49
402.40	369.80
402.59	456.40
402.78	407.25
402.97	416.62
403.17	395.55
403.36	475.13
403.55	463.43
403.74	400.23
403.93	362.78
404.13	435.34
404.32	325.33
404.51	353.42
404.70	397.89
404.89	425.98
405.09	402.57
405.28	390.87
405.47	325.33
405.66	390.87
405.85	463.43
406.05	414.27
406.24	404.91
406.43	402.57
406.62	395.55
406.81	444.70
407.00	475.13
407.20	456.40
407.39	421.30
407.58	402.57
407.77	372.15
407.96	388.53
408.15	379.17
408.34	409.59
408.54	360.44
408.73	421.30
408.92	430.66
409.11	477.47
409.30	447.04
409.49	433.00
409.68	416.62
409.87	414.27
410.07	411.93
410.26	433.00
410.45	449.38
410.64	353.42
410.83	451.72
411.02	395.55
411.21	430.66
411.40	390.87
411.59	416.62
411.78	444.70
411.98	475.13
412.17	348.74
412.36	330.02
412.55	454.06
412.74	461.09
412.93	477.47
413.12	376.83
413.31	386.19
413.50	379.17
413.69	402.57
413.88	463.43
414.07	447.04
414.26	416.62
414.45	447.04
414.64	358.10
414.83	383.85
415.02	461.09
415.22	418.96
415.41	341.72
415.60	444.70
415.79	315.97
415.98	468.11
416.17	409.59
416.36	388.53
416.55	451.72
416.74	425.98
416.93	517.26
417.12	461.09
417.31	421.30
417.50	449.38
417.69	458.74
417.88	341.72
418.07	353.42
418.26	404.91
418.45	397.89
418.64	440.02
418.83	437.68
419.02	372.15
419.21	351.08
419.39	433.00
419.58	365.12
419.77	411.93
419.96	360.44
420.15	496.19
420.34	386.19
420.53	423.64
420.72	470.45
420.91	381.51
421.10	414.27
421.29	428.32
421.48	433.00
421.67	423.64
421.86	376.83
422.05	437.68
422.24	451.72
422.43	414.27
422.61	409.59
422.80	435.34
422.99	461.09
423.18	440.02
423.37	437.68
423.56	402.57
423.75	468.11
423.94	458.74
424.13	409.59
424.32	376.83
424.50	369.80
424.69	435.34
424.88	430.66
425.07	383.85
425.26	383.85
425.45	395.55
425.64	411.93
425.83	458.74
426.01	463.43
426.20	456.40
426.39	397.89
426.58	369.80
426.77	418.96
426.96	465.77
427.15	416.62
427.33	425.98
427.52	458.74
427.71	407.25
427.90	383.85
428.09	386.19
428.28	341.72
428.46	369.80
428.65	440.02
428.84	414.27
429.03	435.34
429.22	435.34
429.40	369.80
429.59	437.68
429.78	372.15
429.97	444.70
430.16	416.62
430.34	430.66
430.53	458.74
430.72	337.04
430.91	416.62
431.10	383.85
431.28	451.72
431.47	374.49
431.66	463.43
431.85	461.09
432.03	430.66
432.22	498.53
432.41	421.30
432.60	498.53
432.79	376.83
432.97	369.80
433.16	454.06
433.35	414.27
433.54	395.55
433.72	449.38
433.91	428.32
434.10	423.64
434.28	397.89
434.47	379.17
434.66	421.30
434.85	355.76
435.03	414.27
435.22	447.04
435.41	430.66
435.59	428.32
435.78	456.40
435.97	416.62
436.16	442.36
436.34	397.89
436.53	411.93
436.72	468.11
436.90	449.38
437.09	400.23
437.28	397.89
437.46	374.49
437.65	379.17
437.84	404.91
438.02	493.85
438.21	442.36
438.40	430.66
438.58	456.40
438.77	372.15
438.96	407.25
439.14	376.83
439.33	423.64
439.52	381.51
439.70	390.87
439.89	425.98
440.08	360.44
440.26	433.00
440.45	411.93
440.63	402.57
440.82	435.34
441.01	425.98
441.19	397.89
441.38	388.53
441.57	472.79
441.75	390.87
441.94	447.04
442.12	400.23
442.31	414.27
442.50	365.12
442.68	374.49
442.87	435.34
443.05	383.85
443.24	390.87
443.43	416.62
443.61	418.96
443.80	468.11
443.98	404.91
444.17	421.30
444.35	400.23
444.54	409.59
444.73	386.19
444.91	393.21
445.10	400.23
445.28	409.59
445.47	407.25
445.65	358.10
445.84	456.40
446.02	388.53
446.21	379.17
446.39	465.77
446.58	435.34
446.77	465.77
446.95	416.62
447.14	402.57
447.32	465.77
447.51	409.59
447.69	404.91
447.88	430.66
448.06	451.72
448.25	379.17
448.43	369.80
448.62	423.64
448.80	400.23
448.99	374.49
449.17	425.98
449.36	372.15
449.54	451.72
449.73	400.23
449.91	444.70
450.10	400.23
450.28	461.09
450.46	493.85
450.65	451.72
450.83	447.04
451.02	393.21
451.20	447.04
451.39	388.53
451.57	402.57
451.76	421.30
451.94	411.93
452.13	484.49
452.31	451.72
452.49	421.30
452.68	428.32
452.86	351.08
453.05	465.77
453.23	418.96
453.42	348.74
453.60	440.02
453.78	433.00
453.97	433.00
454.15	421.30
454.34	353.42
454.52	379.17
454.70	533.64
454.89	428.32
455.07	407.25
455.26	435.34
455.44	437.68
455.62	435.34
455.81	519.60
455.99	430.66
456.17	411.93
456.36	374.49
456.54	402.57
456.73	337.04
456.91	362.78
457.09	421.30
457.28	470.45
457.46	470.45
457.64	388.53
457.83	428.32
458.01	451.72
458.19	454.06
458.38	414.27
458.56	337.04
458.74	388.53
458.93	409.59
459.11	383.85
459.29	425.98
459.48	386.19
459.66	463.43
459.84	397.89
460.03	531.30
460.21	353.42
460.39	393.21
460.57	489.17
460.76	486.83
460.94	430.66
461.12	423.64
461.31	447.04
461.49	386.19
461.67	348.74
461.85	444.70
462.04	355.76
462.22	798.12
462.40	468.11
462.59	486.83
462.77	393.21
462.95	386.19
463.13	369.80
463.32	355.76
463.50	400.23
463.68	421.30
463.86	404.91
464.05	465.77
464.23	386.19
464.41	381.51
464.59	365.12
464.78	348.74
464.96	344.06
465.14	418.96
465.32	397.89
465.50	404.91
465.69	440.02
465.87	395.55
466.05	386.19
466.23	365.12
466.41	376.83
466.60	421.30
466.78	404.91
466.96	465.77
467.14	447.04
467.32	407.25
467.51	416.62
467.69	444.70
467.87	428.32
468.05	372.15
468.23	379.17
468.41	313.63
468.60	414.27
468.78	475.13
468.96	414.27
469.14	454.06
469.32	390.87
469.50	454.06
469.69	437.68
469.87	407.25
470.05	433.00
470.23	458.74
470.41	425.98
470.59	344.06
470.77	451.72
470.95	461.09
471.14	484.49
471.32	437.68
471.50	444.70
471.68	376.83
471.86	383.85
472.04	428.32
472.22	400.23
472.40	388.53
472.58	376.83
472.77	393.21
472.95	386.19
473.13	425.98
473.31	404.91
473.49	386.19
473.67	411.93
473.85	376.83
474.03	435.34
474.21	411.93
474.39	444.70
474.57	458.74
474.75	433.00
474.93	383.85
475.12	418.96
475.30	362.78
475.48	376.83
475.66	456.40
475.84	411.93
476.02	512.58
476.20	498.53
476.38	411.93
476.56	498.53
476.74	451.72
476.92	390.87
477.10	470.45
477.28	468.11
477.46	362.78
477.64	376.83
477.82	388.53
478.00	404.91
478.18	402.57
478.36	416.62
478.54	433.00
478.72	428.32
478.90	407.25
479.08	369.80
479.26	294.91
479.44	491.51
479.62	498.53
479.80	397.89
479.98	404.91
480.16	339.38
480.34	444.70
480.52	379.17
480.70	409.59
480.88	430.66
481.06	353.42
481.24	402.57
481.41	404.91
481.59	461.09
481.77	440.02
481.95	482.15
482.13	468.11
482.31	330.02
482.49	369.80
482.67	414.27
482.85	430.66
483.03	379.17
483.21	416.62
483.39	351.08
483.57	468.11
483.74	369.80
483.92	390.87
484.10	386.19
484.28	379.17
484.46	433.00
484.64	409.59
484.82	465.77
485.00	416.62
485.18	402.57
485.35	505.56
485.53	416.62
485.71	454.06
485.89	463.43
486.07	353.42
486.25	430.66
486.43	437.68
486.61	503.22
486.78	369.80
486.96	407.25
487.14	421.30
487.32	416.62
487.50	437.68
487.68	418.96
487.85	383.85
488.03	437.68
488.21	461.09
488.39	386.19
488.57	442.36
488.75	449.38
488.92	568.75
489.10	463.43
489.28	465.77
489.46	407.25
489.64	418.96
489.81	425.98
489.99	416.62
490.17	500.87
490.35	442.36
490.53	383.85
490.70	334.70
490.88	451.72
491.06	421.30
491.24	440.02
491.41	442.36
491.59	440.02
491.77	461.09
491.95	407.25
492.13	395.55
492.30	365.12
492.48	400.23
492.66	395.55
492.84	383.85
493.01	458.74
493.19	381.51
493.37	463.43
493.54	435.34
493.72	437.68
493.90	430.66
494.08	351.08
494.25	456.40
494.43	388.53
494.61	437.68
494.79	360.44
494.96	430.66
495.14	423.64
495.32	435.34
495.49	386.19
495.67	395.55
495.85	428.32
496.02	484.49
496.20	402.57
496.38	463.43
496.55	463.43
496.73	477.47
496.91	348.74
497.09	400.23
497.26	360.44
497.44	461.09
497.62	404.91
497.79	367.46
497.97	489.17
498.14	351.08
498.32	379.17
498.50	386.19
498.67	341.72
498.85	451.72
499.03	381.51
499.20	472.79
499.38	463.43
499.56	388.53
499.73	454.06
499.91	437.68
500.08	369.80
500.26	318.31
500.44	451.72
500.61	411.93
500.79	383.85
500.97	416.62
501.14	449.38
501.32	372.15
501.49	390.87
501.67	458.74
501.84	402.57
502.02	360.44
502.20	440.02
502.37	409.59
502.55	381.51
502.72	416.62
502.90	421.30
503.07	430.66
503.25	416.62
503.43	339.38
503.60	425.98
503.78	348.74
503.95	404.91
504.13	367.46
504.30	435.34
504.48	421.30
504.65	390.87
504.83	430.66
505.01	400.23
505.18	365.12
505.36	423.64
505.53	428.32
505.71	376.83
505.88	402.57
506.06	400.23
506.23	388.53
506.41	372.15
506.58	456.40
506.76	369.80
506.93	374.49
507.11	479.81
507.28	416.62
507.46	404.91
507.63	386.19
507.81	395.55
507.98	411.93
508.16	428.32
508.33	444.70
508.50	435.34
508.68	395.55
508.85	353.42
509.03	484.49
509.20	376.83
509.38	400.23
509.55	365.12
509.73	390.87
509.90	365.12
510.08	418.96
510.25	451.72
510.42	435.34
510.60	416.62
510.77	425.98
510.95	489.17
511.12	465.77
511.30	393.21
511.47	461.09
511.64	465.77
511.82	397.89
511.99	397.89
512.17	407.25
512.34	442.36
512.51	320.65
512.69	402.57
512.86	433.00
513.04	393.21
513.21	524.28
513.38	381.51
513.56	337.04
513.73	393.21
513.90	400.23
514.08	428.32
514.25	395.55
514.43	430.66
514.60	430.66
514.77	437.68
514.95	447.04
515.12	386.19
515.29	402.57
515.47	418.96
515.64	479.81
515.81	404.91
515.99	477.47
516.16	388.53
516.33	397.89
516.51	430.66
516.68	435.34
516.85	402.57
517.03	402.57
517.20	440.02
517.37	418.96
517.54	421.30
517.72	451.72
517.89	461.09
518.06	428.32
518.24	461.09
518.41	456.40
518.58	397.89
518.75	425.98
518.93	388.53
519.10	463.43
519.27	442.36
519.45	411.93
519.62	468.11
519.79	456.40
519.96	437.68
520.14	425.98
520.31	484.49
520.48	430.66
520.65	433.00
520.83	451.72
521.00	456.40
521.17	358.10
521.34	404.91
521.52	428.32
521.69	411.93
521.86	416.62
522.03	404.91
522.20	449.38
522.38	411.93
522.55	372.15
522.72	351.08
522.89	440.02
523.07	425.98
523.24	379.17
523.41	470.45
523.58	400.23
523.75	411.93
523.92	372.15
524.10	440.02
524.27	458.74
524.44	414.27
524.61	440.02
524.78	447.04
524.96	348.74
525.13	423.64
525.30	421.30
525.47	369.80
525.64	423.64
525.81	404.91
525.98	421.30
526.16	358.10
526.33	407.25
526.50	447.04
526.67	444.70
526.84	386.19
527.01	456.40
527.18	444.70
527.36	379.17
527.53	442.36
527.70	421.30
527.87	489.17
528.04	493.85
528.21	425.98
528.38	407.25
528.55	456.40
528.72	458.74
528.89	425.98
529.07	395.55
529.24	418.96
529.41	454.06
529.58	409.59
529.75	360.44
529.92	418.96
530.09	358.10
530.26	493.85
530.43	447.04
530.60	409.59
530.77	456.40
530.94	423.64
531.11	461.09
531.28	444.70
531.46	297.25
531.63	407.25
531.80	409.59
531.97	454.06
532.14	367.46
532.31	430.66
532.48	411.93
532.65	433.00
532.82	414.27
532.99	404.91
533.16	433.00
533.33	461.09
533.50	416.62
533.67	353.42
533.84	454.06
534.01	437.68
534.18	416.62
534.35	463.43
534.52	383.85
534.69	418.96
534.86	461.09
535.03	444.70
535.20	404.91
535.37	472.79
535.54	468.11
535.71	428.32
535.88	449.38
536.05	409.59
536.22	430.66
536.38	374.49
536.55	430.66
536.72	414.27
536.89	456.40
537.06	390.87
537.23	400.23
537.40	428.32
537.57	411.93
537.74	468.11
537.91	463.43
538.08	451.72
538.25	430.66
538.42	428.32
538.59	486.83
538.75	374.49
538.92	407.25
539.09	444.70
539.26	400.23
539.43	463.43
539.60	484.49
539.77	437.68
539.94	411.93
540.11	404.91
540.28	484.49
540.44	472.79
540.61	388.53
540.78	421.30
540.95	383.85
541.12	479.81
541.29	470.45
541.46	402.57
541.62	379.17
541.79	440.02
541.96	376.83
542.13	407.25
542.30	374.49
542.47	433.00
542.63	362.78
542.80	449.38
542.97	425.98
543.14	407.25
543.31	421.30
543.48	418.96
543.64	465.77
543.81	379.17
543.98	425.98
544.15	381.51
544.32	383.85
544.48	381.51
544.65	468.11
544.82	461.09
544.99	393.21
545.16	454.06
545.32	428.32
545.49	400.23
545.66	437.68
545.83	425.98
546.00	421.30
546.16	386.19
546.33	404.91
546.50	390.87
546.67	449.38
546.83	418.96
547.00	454.06
547.17	449.38
547.34	393.21
547.50	418.96
547.67	397.89
547.84	404.91
548.00	390.87
548.17	393.21
548.34	365.12
548.51	463.43
548.67	367.46
548.84	397.89
549.01	383.85
549.18	475.13
549.34	423.64
549.51	435.34
549.68	463.43
549.84	404.91
550.01	433.00
550.18	440.02
550.34	461.09
550.51	379.17
550.68	477.47
550.84	402.57
551.01	339.38
551.18	411.93
551.34	402.57
551.51	404.91
551.68	517.26
551.84	414.27
552.01	425.98
552.18	416.62
552.34	341.72
552.51	360.44
552.68	543.00
552.84	362.78
553.01	454.06
553.18	493.85
553.34	430.66
553.51	369.80
553.67	393.21
553.84	433.00
554.01	437.68
554.17	442.36
554.34	379.17
554.51	416.62
554.67	514.92
554.84	416.62
555.00	463.43
555.17	379.17
555.33	456.40
555.50	390.87
555.67	393.21
555.83	435.34
556.00	444.70
556.16	503.22
556.33	423.64
556.50	416.62
556.66	449.38
556.83	376.83
556.99	395.55
557.16	430.66
557.32	451.72
557.49	414.27
557.65	440.02
557.82	447.04
557.98	447.04
558.15	353.42
558.32	404.91
558.48	367.46
558.65	393.21
558.81	440.02
558.98	437.68
559.14	411.93
559.31	421.30
559.47	470.45
559.64	421.30
559.80	404.91
559.97	379.17
560.13	346.40
560.30	388.53
560.46	430.66
560.63	409.59
560.79	358.10
560.96	400.23
561.12	348.74
561.29	454.06
561.45	475.13
561.61	418.96
561.78	491.51
561.94	411.93
562.11	503.22
562.27	428.32
562.44	425.98
562.60	369.80
562.77	393.21
562.93	430.66
563.10	404.91
563.26	428.32
563.42	465.77
563.59	428.32
563.75	454.06
563.92	442.36
564.08	409.59
564.24	444.70
564.41	505.56
564.57	397.89
564.74	423.64
564.90	388.53
565.07	402.57
565.23	397.89
565.39	358.10
565.56	425.98
565.72	416.62
565.88	365.12
566.05	358.10
566.21	414.27
566.38	421.30
566.54	447.04
566.70	358.10
566.87	381.51
567.03	381.51
567.19	407.25
567.36	470.45
567.52	322.99
567.68	433.00
567.85	447.04
568.01	489.17
568.17	437.68
568.34	428.32
568.50	430.66
568.66	461.09
568.83	444.70
568.99	374.49
569.15	423.64
569.32	430.66
569.48	430.66
569.64	407.25
569.81	365.12
569.97	414.27
570.13	433.00
570.30	383.85
570.46	477.47
570.62	395.55
570.78	421.30
570.95	416.62
571.11	400.23
571.27	444.70
571.43	334.70
571.60	383.85
571.76	437.68
571.92	341.72
572.09	360.44
572.25	418.96
572.41	376.83
572.57	390.87
572.74	510.24
572.90	402.57
573.06	383.85
573.22	454.06
573.38	458.74
573.55	475.13
573.71	442.36
573.87	418.96
574.03	449.38
574.20	395.55
574.36	425.98
574.52	423.64
574.68	430.66
574.84	493.85
575.01	510.24
575.17	449.38
575.33	463.43
575.49	379.17
575.65	390.87
575.82	451.72
575.98	386.19
576.14	404.91
576.30	355.76
576.46	395.55
576.62	367.46
576.79	337.04
576.95	489.17
577.11	379.17
577.27	374.49
577.43	449.38
577.59	463.43
577.75	463.43
577.92	451.72
578.08	437.68
578.24	425.98
578.40	456.40
578.56	425.98
578.72	444.70
578.88	458.74
579.04	428.32
579.21	423.64
579.37	358.10
579.53	395.55
579.69	423.64
579.85	386.19
580.01	444.70
580.17	355.76
580.33	416.62
580.49	465.77
580.65	456.40
580.82	472.79
580.98	442.36
581.14	454.06
581.30	510.24
581.46	444.70
581.62	458.74
581.78	299.59
581.94	404.91
582.10	430.66
582.26	407.25
582.42	423.64
582.58	369.80
582.74	381.51
582.90	416.62
583.06	430.66
583.22	472.79
583.38	440.02
583.54	395.55
583.70	433.00
583.86	407.25
584.02	437.68
584.18	409.59
584.34	404.91
584.50	411.93
584.66	461.09
584.82	402.57
584.98	367.46
585.14	440.02
585.30	444.70
585.46	477.47
585.62	442.36
585.78	386.19
585.94	454.06
586.10	404.91
586.26	442.36
586.42	477.47
586.58	442.36
586.74	470.45
586.90	381.51
587.06	416.62
587.22	428.32
587.38	404.91
587.54	318.31
587.70	472.79
587.86	482.15
588.02	404.91
588.18	400.23
588.34	456.40
588.49	416.62
588.65	402.57
588.81	428.32
588.97	444.70
589.13	353.42
589.29	428.32
589.45	409.59
589.61	372.15
589.77	409.59
589.93	379.17
590.08	355.76
590.24	449.38
590.40	407.25
590.56	475.13
590.72	461.09
590.88	397.89
591.04	402.57
591.20	433.00
591.35	421.30
591.51	496.19
591.67	393.21
591.83	435.34
591.99	437.68
592.15	449.38
592.31	470.45
592.46	395.55
592.62	437.68
592.78	397.89
592.94	425.98
593.10	269.16
593.26	463.43
593.41	437.68
593.57	428.32
593.73	416.62
593.89	454.06
594.05	414.27
594.20	428.32
594.36	423.64
594.52	372.15
594.68	482.15
594.84	449.38
594.99	409.59
595.15	475.13
595.31	404.91
595.47	437.68
595.62	421.30
595.78	376.83
595.94	388.53
596.10	418.96
596.25	433.00
596.41	468.11
596.57	409.59
596.73	374.49
596.88	407.25
597.04	374.49
597.20	411.93
597.36	433.00
597.51	407.25
597.67	337.04
597.83	463.43
597.99	454.06
598.14	402.57
598.30	510.24
598.46	489.17
598.61	470.45
598.77	430.66
598.93	456.40
599.09	386.19
599.24	381.51
599.40	383.85
599.56	435.34
599.71	451.72
599.87	428.32
600.03	407.25
600.18	337.04
600.34	435.34
600.50	425.98
600.65	418.96
600.81	442.36
600.97	400.23
601.12	442.36
601.28	383.85
601.44	449.38
601.59	369.80
601.75	458.74
601.91	447.04
602.06	489.17
602.22	535.98
602.37	447.04
602.53	423.64
602.69	458.74
602.84	423.64
603.00	330.02
603.16	423.64
603.31	383.85
603.47	425.98
603.62	390.87
603.78	416.62
603.94	482.15
604.09	465.77
604.25	430.66
604.40	423.64
604.56	402.57
604.71	362.78
604.87	372.15
605.03	372.15
605.18	435.34
605.34	423.64
605.49	376.83
605.65	468.11
605.80	428.32
605.96	433.00
606.12	435.34
606.27	416.62
606.43	379.17
606.58	514.92
606.74	442.36
606.89	414.27
607.05	486.83
607.20	416.62
607.36	447.04
607.51	388.53
607.67	393.21
607.82	465.77
607.98	437.68
608.13	360.44
608.29	444.70
608.44	411.93
608.60	447.04
608.75	381.51
608.91	465.77
609.06	425.98
609.22	444.70
609.37	407.25
609.53	393.21
609.68	428.32
609.84	430.66
609.99	388.53
610.15	379.17
