SpectraSuite Data File
++++++++++++++++++++++++++++++++++++
Date: Fri Oct 25 12:10:58 EDT 2013
User: price-jones
Dark Spectrum Present: No
Reference Spectrum Present: No
Number of Sampled Component Spectra: 1
Spectrometers: USB2+H05261
Integration Time (usec): 100000 (USB2+H05261)
Spectra Averaged: 1 (USB2+H05261)
Boxcar Smoothing: 0 (USB2+H05261)
Correct for Electrical Dark: No (USB2+H05261)
Strobe/Lamp Enabled: No (USB2+H05261)
Correct for Detector Non-linearity: No (USB2+H05261)
Correct for Stray Light: No (USB2+H05261)
Number of Pixels in Processed Spectrum: 2048
>>>>>Begin Processed Spectral Data<<<<<
365.73	376.83
365.92	376.83
366.12	376.83
366.32	308.95
366.52	229.37
366.72	231.71
366.91	227.03
367.11	194.26
367.31	191.92
367.51	273.84
367.70	191.92
367.90	224.69
368.10	236.39
368.30	245.76
368.49	201.29
368.69	271.50
368.89	198.95
369.09	262.14
369.28	257.46
369.48	271.50
369.68	280.86
369.87	278.52
370.07	278.52
370.27	325.33
370.47	381.51
370.66	362.78
370.86	318.31
371.06	322.99
371.25	367.46
371.45	346.40
371.65	374.49
371.84	351.08
372.04	379.17
372.24	360.44
372.44	381.51
372.63	428.32
372.83	360.44
373.03	351.08
373.22	383.85
373.42	402.57
373.62	395.55
373.81	407.25
374.01	428.32
374.21	383.85
374.40	395.55
374.60	456.40
374.79	383.85
374.99	381.51
375.19	465.77
375.38	442.36
375.58	472.79
375.78	463.43
375.97	330.02
376.17	472.79
376.37	348.74
376.56	423.64
376.76	423.64
376.95	390.87
377.15	449.38
377.35	477.47
377.54	383.85
377.74	397.89
377.93	393.21
378.13	390.87
378.33	451.72
378.52	454.06
378.72	433.00
378.91	414.27
379.11	425.98
379.31	367.46
379.50	416.62
379.70	409.59
379.89	461.09
380.09	430.66
380.28	374.49
380.48	402.57
380.68	367.46
380.87	315.97
381.07	428.32
381.26	421.30
381.46	388.53
381.65	416.62
381.85	388.53
382.04	358.10
382.24	388.53
382.43	355.76
382.63	376.83
382.83	386.19
383.02	430.66
383.22	425.98
383.41	381.51
383.61	411.93
383.80	395.55
384.00	465.77
384.19	430.66
384.39	386.19
384.58	360.44
384.78	456.40
384.97	423.64
385.17	400.23
385.36	411.93
385.56	416.62
385.75	393.21
385.95	365.12
386.14	365.12
386.34	395.55
386.53	411.93
386.72	435.34
386.92	367.46
387.11	451.72
387.31	498.53
387.50	425.98
387.70	430.66
387.89	409.59
388.09	425.98
388.28	395.55
388.48	351.08
388.67	379.17
388.86	454.06
389.06	369.80
389.25	365.12
389.45	404.91
389.64	423.64
389.84	360.44
390.03	411.93
390.22	376.83
390.42	447.04
390.61	400.23
390.81	360.44
391.00	381.51
391.19	472.79
391.39	372.15
391.58	437.68
391.78	449.38
391.97	374.49
392.16	332.36
392.36	372.15
392.55	437.68
392.75	447.04
392.94	416.62
393.13	341.72
393.33	386.19
393.52	374.49
393.71	397.89
393.91	390.87
394.10	423.64
394.29	397.89
394.49	402.57
394.68	433.00
394.88	402.57
395.07	425.98
395.26	325.33
395.46	418.96
395.65	416.62
395.84	400.23
396.04	435.34
396.23	418.96
396.42	411.93
396.62	428.32
396.81	409.59
397.00	416.62
397.19	423.64
397.39	414.27
397.58	367.46
397.77	423.64
397.97	491.51
398.16	397.89
398.35	433.00
398.55	416.62
398.74	451.72
398.93	390.87
399.12	440.02
399.32	418.96
399.51	397.89
399.70	404.91
399.90	402.57
400.09	454.06
400.28	479.81
400.47	402.57
400.67	416.62
400.86	400.23
401.05	369.80
401.24	472.79
401.44	444.70
401.63	444.70
401.82	442.36
402.01	362.78
402.21	421.30
402.40	418.96
402.59	315.97
402.78	374.49
402.97	360.44
403.17	353.42
403.36	388.53
403.55	433.00
403.74	369.80
403.93	414.27
404.13	449.38
404.32	390.87
404.51	390.87
404.70	437.68
404.89	381.51
405.09	414.27
405.28	440.02
405.47	416.62
405.66	411.93
405.85	376.83
406.05	433.00
406.24	395.55
406.43	437.68
406.62	400.23
406.81	393.21
407.00	440.02
407.20	407.25
407.39	381.51
407.58	418.96
407.77	397.89
407.96	442.36
408.15	414.27
408.34	416.62
408.54	379.17
408.73	461.09
408.92	381.51
409.11	383.85
409.30	454.06
409.49	404.91
409.68	393.21
409.87	451.72
410.07	400.23
410.26	381.51
410.45	393.21
410.64	437.68
410.83	440.02
411.02	428.32
411.21	421.30
411.40	390.87
411.59	444.70
411.78	454.06
411.98	421.30
412.17	337.04
412.36	402.57
412.55	383.85
412.74	421.30
412.93	418.96
413.12	372.15
413.31	411.93
413.50	423.64
413.69	430.66
413.88	435.34
414.07	367.46
414.26	395.55
414.45	369.80
414.64	402.57
414.83	425.98
415.02	386.19
415.22	421.30
415.41	395.55
415.60	379.17
415.79	411.93
415.98	400.23
416.17	402.57
416.36	444.70
416.55	416.62
416.74	447.04
416.93	397.89
417.12	386.19
417.31	461.09
417.50	400.23
417.69	496.19
417.88	421.30
418.07	404.91
418.26	418.96
418.45	444.70
418.64	421.30
418.83	372.15
419.02	435.34
419.21	386.19
419.39	397.89
419.58	379.17
419.77	381.51
419.96	397.89
420.15	449.38
420.34	362.78
420.53	383.85
420.72	411.93
420.91	388.53
421.10	407.25
421.29	395.55
421.48	390.87
421.67	489.17
421.86	437.68
422.05	402.57
422.24	395.55
422.43	376.83
422.61	397.89
422.80	414.27
422.99	416.62
423.18	444.70
423.37	428.32
423.56	465.77
423.75	447.04
423.94	404.91
424.13	388.53
424.32	390.87
424.50	390.87
424.69	351.08
424.88	388.53
425.07	404.91
425.26	484.49
425.45	407.25
425.64	383.85
425.83	430.66
426.01	430.66
426.20	428.32
426.39	444.70
426.58	411.93
426.77	430.66
426.96	409.59
427.15	386.19
427.33	414.27
427.52	402.57
427.71	440.02
427.90	435.34
428.09	468.11
428.28	421.30
428.46	411.93
428.65	351.08
428.84	390.87
429.03	414.27
429.22	332.36
429.40	365.12
429.59	383.85
429.78	411.93
429.97	407.25
430.16	409.59
430.34	423.64
430.53	402.57
430.72	414.27
430.91	465.77
431.10	423.64
431.28	433.00
431.47	355.76
431.66	400.23
431.85	418.96
432.03	458.74
432.22	435.34
432.41	425.98
432.60	442.36
432.79	365.12
432.97	440.02
433.16	428.32
433.35	395.55
433.54	395.55
433.72	386.19
433.91	454.06
434.10	351.08
434.28	447.04
434.47	402.57
434.66	433.00
434.85	372.15
435.03	472.79
435.22	433.00
435.41	404.91
435.59	425.98
435.78	386.19
435.97	367.46
436.16	458.74
436.34	400.23
436.53	416.62
436.72	465.77
436.90	400.23
437.09	390.87
437.28	402.57
437.46	353.42
437.65	400.23
437.84	456.40
438.02	512.58
438.21	475.13
438.40	381.51
438.58	428.32
438.77	433.00
438.96	437.68
439.14	404.91
439.33	449.38
439.52	425.98
439.70	433.00
439.89	423.64
440.08	435.34
440.26	411.93
440.45	423.64
440.63	353.42
440.82	400.23
441.01	414.27
441.19	440.02
441.38	397.89
441.57	451.72
441.75	388.53
441.94	395.55
442.12	463.43
442.31	341.72
442.50	418.96
442.68	393.21
442.87	404.91
443.05	449.38
443.24	411.93
443.43	400.23
443.61	447.04
443.80	430.66
443.98	358.10
444.17	414.27
444.35	383.85
444.54	437.68
444.73	479.81
444.91	390.87
445.10	372.15
445.28	360.44
445.47	416.62
445.65	416.62
445.84	334.70
446.02	458.74
446.21	402.57
446.39	449.38
446.58	416.62
446.77	421.30
446.95	395.55
447.14	430.66
447.32	458.74
447.51	423.64
447.69	395.55
447.88	407.25
448.06	374.49
448.25	451.72
448.43	386.19
448.62	456.40
448.80	400.23
448.99	444.70
449.17	390.87
449.36	374.49
449.54	414.27
449.73	315.97
449.91	440.02
450.10	425.98
450.28	463.43
450.46	435.34
450.65	463.43
450.83	409.59
451.02	418.96
451.20	444.70
451.39	388.53
451.57	416.62
451.76	404.91
451.94	421.30
452.13	477.47
452.31	409.59
452.49	428.32
452.68	386.19
452.86	402.57
453.05	540.66
453.23	461.09
453.42	362.78
453.60	388.53
453.78	454.06
453.97	372.15
454.15	376.83
454.34	376.83
454.52	418.96
454.70	416.62
454.89	496.19
455.07	421.30
455.26	421.30
455.44	449.38
455.62	390.87
455.81	395.55
455.99	437.68
456.17	435.34
456.36	411.93
456.54	341.72
456.73	383.85
456.91	402.57
457.09	433.00
457.28	437.68
457.46	388.53
457.64	393.21
457.83	395.55
458.01	374.49
458.19	390.87
458.38	414.27
458.56	468.11
458.74	449.38
458.93	411.93
459.11	435.34
459.29	318.31
459.48	397.89
459.66	449.38
459.84	369.80
460.03	437.68
460.21	435.34
460.39	395.55
460.57	428.32
460.76	425.98
460.94	407.25
461.12	472.79
461.31	435.34
461.49	418.96
461.67	395.55
461.85	390.87
462.04	433.00
462.22	479.81
462.40	435.34
462.59	433.00
462.77	430.66
462.95	425.98
463.13	369.80
463.32	449.38
463.50	433.00
463.68	456.40
463.86	409.59
464.05	404.91
464.23	433.00
464.41	442.36
464.59	449.38
464.78	425.98
464.96	395.55
465.14	400.23
465.32	383.85
465.50	458.74
465.69	456.40
465.87	355.76
466.05	411.93
466.23	407.25
466.41	390.87
466.60	477.47
466.78	416.62
466.96	376.83
467.14	395.55
467.32	411.93
467.51	358.10
467.69	344.06
467.87	416.62
468.05	402.57
468.23	402.57
468.41	512.58
468.60	372.15
468.78	388.53
468.96	435.34
469.14	367.46
469.32	493.85
469.50	423.64
469.69	388.53
469.87	421.30
470.05	330.02
470.23	339.38
470.41	365.12
470.59	376.83
470.77	372.15
470.95	393.21
471.14	468.11
471.32	456.40
471.50	369.80
471.68	337.04
471.86	362.78
472.04	355.76
472.22	400.23
472.40	421.30
472.58	383.85
472.77	461.09
472.95	381.51
473.13	428.32
473.31	458.74
473.49	330.02
473.67	332.36
473.85	397.89
474.03	510.24
474.21	425.98
474.39	477.47
474.57	477.47
474.75	456.40
474.93	425.98
475.12	409.59
475.30	421.30
475.48	458.74
475.66	376.83
475.84	369.80
476.02	461.09
476.20	383.85
476.38	334.70
476.56	475.13
476.74	437.68
476.92	411.93
477.10	374.49
477.28	435.34
477.46	381.51
477.64	397.89
477.82	346.40
478.00	416.62
478.18	381.51
478.36	411.93
478.54	418.96
478.72	416.62
478.90	409.59
479.08	456.40
479.26	383.85
479.44	358.10
479.62	407.25
479.80	437.68
479.98	379.17
480.16	435.34
480.34	458.74
480.52	425.98
480.70	421.30
480.88	430.66
481.06	367.46
481.24	353.42
481.41	400.23
481.59	409.59
481.77	360.44
481.95	414.27
482.13	423.64
482.31	468.11
482.49	383.85
482.67	388.53
482.85	437.68
483.03	388.53
483.21	372.15
483.39	440.02
483.57	376.83
483.74	503.22
483.92	421.30
484.10	447.04
484.28	437.68
484.46	418.96
484.64	327.68
484.82	348.74
485.00	376.83
485.18	435.34
485.35	362.78
485.53	337.04
485.71	416.62
485.89	379.17
486.07	402.57
486.25	433.00
486.43	402.57
486.61	395.55
486.78	353.42
486.96	386.19
487.14	376.83
487.32	416.62
487.50	444.70
487.68	451.72
487.85	423.64
488.03	423.64
488.21	402.57
488.39	402.57
488.57	479.81
488.75	423.64
488.92	463.43
489.10	430.66
489.28	444.70
489.46	458.74
489.64	388.53
489.81	444.70
489.99	507.90
490.17	393.21
490.35	456.40
490.53	409.59
490.70	374.49
490.88	411.93
491.06	386.19
491.24	477.47
491.41	451.72
491.59	451.72
491.77	416.62
491.95	414.27
492.13	418.96
492.30	451.72
492.48	355.76
492.66	383.85
492.84	442.36
493.01	465.77
493.19	390.87
493.37	493.85
493.54	440.02
493.72	454.06
493.90	465.77
494.08	386.19
494.25	393.21
494.43	461.09
494.61	390.87
494.79	409.59
494.96	435.34
495.14	425.98
495.32	404.91
495.49	414.27
495.67	447.04
495.85	402.57
496.02	402.57
496.20	454.06
496.38	430.66
496.55	390.87
496.73	442.36
496.91	430.66
497.09	440.02
497.26	449.38
497.44	353.42
497.62	407.25
497.79	454.06
497.97	430.66
498.14	440.02
498.32	463.43
498.50	440.02
498.67	346.40
498.85	355.76
499.03	369.80
499.20	383.85
499.38	369.80
499.56	454.06
499.73	437.68
499.91	416.62
500.08	470.45
500.26	409.59
500.44	402.57
500.61	334.70
500.79	451.72
500.97	437.68
501.14	411.93
501.32	402.57
501.49	404.91
501.67	393.21
501.84	496.19
502.02	416.62
502.20	358.10
502.37	433.00
502.55	348.74
502.72	437.68
502.90	423.64
503.07	409.59
503.25	449.38
503.43	414.27
503.60	404.91
503.78	369.80
503.95	365.12
504.13	348.74
504.30	425.98
504.48	379.17
504.65	479.81
504.83	386.19
505.01	449.38
505.18	414.27
505.36	472.79
505.53	435.34
505.71	423.64
505.88	442.36
506.06	402.57
506.23	421.30
506.41	444.70
506.58	449.38
506.76	454.06
506.93	447.04
507.11	421.30
507.28	507.90
507.46	409.59
507.63	433.00
507.81	418.96
507.98	414.27
508.16	379.17
508.33	470.45
508.50	444.70
508.68	376.83
508.85	454.06
509.03	383.85
509.20	437.68
509.38	425.98
509.55	381.51
509.73	400.23
509.90	351.08
510.08	372.15
510.25	451.72
510.42	374.49
510.60	440.02
510.77	470.45
510.95	397.89
511.12	393.21
511.30	372.15
511.47	414.27
511.64	437.68
511.82	402.57
511.99	421.30
512.17	383.85
512.34	433.00
512.51	409.59
512.69	482.15
512.86	514.92
513.04	409.59
513.21	454.06
513.38	407.25
513.56	390.87
513.73	423.64
513.90	433.00
514.08	360.44
514.25	456.40
514.43	362.78
514.60	386.19
514.77	423.64
514.95	451.72
515.12	351.08
515.29	414.27
515.47	414.27
515.64	418.96
515.81	437.68
515.99	456.40
516.16	491.51
516.33	435.34
516.51	409.59
516.68	421.30
516.85	414.27
517.03	383.85
517.20	479.81
517.37	402.57
517.54	465.77
517.72	374.49
517.89	393.21
518.06	444.70
518.24	449.38
518.41	468.11
518.58	421.30
518.75	365.12
518.93	465.77
519.10	442.36
519.27	344.06
519.45	423.64
519.62	360.44
519.79	388.53
519.96	428.32
520.14	430.66
520.31	482.15
520.48	435.34
520.65	358.10
520.83	393.21
521.00	414.27
521.17	409.59
521.34	411.93
521.52	411.93
521.69	376.83
521.86	400.23
522.03	451.72
522.20	383.85
522.38	430.66
522.55	479.81
522.72	409.59
522.89	428.32
523.07	418.96
523.24	451.72
523.41	423.64
523.58	393.21
523.75	400.23
523.92	423.64
524.10	376.83
524.27	414.27
524.44	454.06
524.61	416.62
524.78	395.55
524.96	414.27
525.13	407.25
525.30	437.68
525.47	393.21
525.64	325.33
525.81	461.09
525.98	468.11
526.16	489.17
526.33	393.21
526.50	386.19
526.67	482.15
526.84	440.02
527.01	456.40
527.18	407.25
527.36	390.87
527.53	351.08
527.70	456.40
527.87	409.59
528.04	472.79
528.21	470.45
528.38	465.77
528.55	458.74
528.72	463.43
528.89	442.36
529.07	339.38
529.24	404.91
529.41	379.17
529.58	484.49
529.75	416.62
529.92	463.43
530.09	360.44
530.26	362.78
530.43	430.66
530.60	444.70
530.77	444.70
530.94	425.98
531.11	454.06
531.28	355.76
531.46	435.34
531.63	390.87
531.80	376.83
531.97	507.90
532.14	381.51
532.31	423.64
532.48	486.83
532.65	416.62
532.82	381.51
532.99	421.30
533.16	510.24
533.33	390.87
533.50	416.62
533.67	383.85
533.84	379.17
534.01	395.55
534.18	423.64
534.35	428.32
534.52	414.27
534.69	353.42
534.86	409.59
535.03	358.10
535.20	421.30
535.37	411.93
535.54	395.55
535.71	379.17
535.88	489.17
536.05	486.83
536.22	404.91
536.38	425.98
536.55	444.70
536.72	456.40
536.89	418.96
537.06	395.55
537.23	388.53
537.40	407.25
537.57	454.06
537.74	440.02
537.91	425.98
538.08	390.87
538.25	428.32
538.42	393.21
538.59	372.15
538.75	369.80
538.92	414.27
539.09	470.45
539.26	442.36
539.43	407.25
539.60	440.02
539.77	409.59
539.94	437.68
540.11	435.34
540.28	423.64
540.44	442.36
540.61	395.55
540.78	442.36
540.95	451.72
541.12	430.66
541.29	451.72
541.46	437.68
541.62	414.27
541.79	414.27
541.96	458.74
542.13	428.32
542.30	358.10
542.47	404.91
542.63	486.83
542.80	482.15
542.97	454.06
543.14	447.04
543.31	374.49
543.48	416.62
543.64	423.64
543.81	416.62
543.98	395.55
544.15	430.66
544.32	435.34
544.48	440.02
544.65	458.74
544.82	337.04
544.99	379.17
545.16	447.04
545.32	428.32
545.49	360.44
545.66	428.32
545.83	355.76
546.00	344.06
546.16	341.72
546.33	395.55
546.50	397.89
546.67	425.98
546.83	433.00
547.00	400.23
547.17	411.93
547.34	390.87
547.50	402.57
547.67	449.38
547.84	351.08
548.00	344.06
548.17	390.87
548.34	423.64
548.51	451.72
548.67	409.59
548.84	414.27
549.01	433.00
549.18	433.00
549.34	402.57
549.51	390.87
549.68	423.64
549.84	409.59
550.01	381.51
550.18	498.53
550.34	535.98
550.51	461.09
550.68	390.87
550.84	418.96
551.01	414.27
551.18	411.93
551.34	472.79
551.51	458.74
551.68	393.21
551.84	454.06
552.01	444.70
552.18	423.64
552.34	402.57
552.51	451.72
552.68	437.68
552.84	308.95
553.01	407.25
553.18	425.98
553.34	376.83
553.51	418.96
553.67	383.85
553.84	435.34
554.01	428.32
554.17	449.38
554.34	444.70
554.51	404.91
554.67	456.40
554.84	468.11
555.00	407.25
555.17	395.55
555.33	367.46
555.50	425.98
555.67	433.00
555.83	390.87
556.00	475.13
556.16	514.92
556.33	449.38
556.50	369.80
556.66	430.66
556.83	409.59
556.99	372.15
557.16	348.74
557.32	475.13
557.49	369.80
557.65	404.91
557.82	468.11
557.98	451.72
558.15	435.34
558.32	379.17
558.48	456.40
558.65	418.96
558.81	409.59
558.98	482.15
559.14	461.09
559.31	451.72
559.47	470.45
559.64	346.40
559.80	372.15
559.97	456.40
560.13	461.09
560.30	379.17
560.46	440.02
560.63	468.11
560.79	369.80
560.96	435.34
561.12	444.70
561.29	447.04
561.45	449.38
561.61	425.98
561.78	430.66
561.94	416.62
562.11	444.70
562.27	435.34
562.44	409.59
562.60	374.49
562.77	470.45
562.93	498.53
563.10	461.09
563.26	367.46
563.42	465.77
563.59	425.98
563.75	416.62
563.92	400.23
564.08	430.66
564.24	367.46
564.41	531.30
564.57	411.93
564.74	428.32
564.90	454.06
565.07	456.40
565.23	458.74
565.39	358.10
565.56	489.17
565.72	449.38
565.88	404.91
566.05	374.49
566.21	407.25
566.38	447.04
566.54	423.64
566.70	526.62
566.87	425.98
567.03	409.59
567.19	402.57
567.36	402.57
567.52	388.53
567.68	423.64
567.85	440.02
568.01	402.57
568.17	386.19
568.34	355.76
568.50	433.00
568.66	430.66
568.83	477.47
568.99	404.91
569.15	489.17
569.32	390.87
569.48	409.59
569.64	341.72
569.81	451.72
569.97	390.87
570.13	470.45
570.30	435.34
570.46	381.51
570.62	355.76
570.78	421.30
570.95	437.68
571.11	414.27
571.27	376.83
571.43	355.76
571.60	416.62
571.76	454.06
571.92	376.83
572.09	440.02
572.25	411.93
572.41	383.85
572.57	456.40
572.74	376.83
572.90	374.49
573.06	355.76
573.22	505.56
573.38	442.36
573.55	358.10
573.71	428.32
573.87	397.89
574.03	367.46
574.20	447.04
574.36	407.25
574.52	402.57
574.68	416.62
574.84	477.47
575.01	411.93
575.17	433.00
575.33	421.30
575.49	512.58
575.65	447.04
575.82	482.15
575.98	393.21
576.14	444.70
576.30	393.21
576.46	397.89
576.62	461.09
576.79	409.59
576.95	514.92
577.11	402.57
577.27	423.64
577.43	454.06
577.59	472.79
577.75	386.19
577.92	479.81
578.08	407.25
578.24	430.66
578.40	463.43
578.56	477.47
578.72	376.83
578.88	388.53
579.04	346.40
579.21	444.70
579.37	407.25
579.53	470.45
579.69	463.43
579.85	369.80
580.01	402.57
580.17	400.23
580.33	372.15
580.49	381.51
580.65	430.66
580.82	367.46
580.98	440.02
581.14	475.13
581.30	418.96
581.46	433.00
581.62	418.96
581.78	430.66
581.94	505.56
582.10	344.06
582.26	395.55
582.42	447.04
582.58	381.51
582.74	440.02
582.90	334.70
583.06	472.79
583.22	400.23
583.38	367.46
583.54	444.70
583.70	484.49
583.86	360.44
584.02	376.83
584.18	442.36
584.34	418.96
584.50	414.27
584.66	372.15
584.82	393.21
584.98	435.34
585.14	400.23
585.30	423.64
585.46	458.74
585.62	451.72
585.78	484.49
585.94	470.45
586.10	402.57
586.26	411.93
586.42	477.47
586.58	435.34
586.74	500.87
586.90	388.53
587.06	440.02
587.22	461.09
587.38	411.93
587.54	367.46
587.70	503.22
587.86	465.77
588.02	400.23
588.18	418.96
588.34	463.43
588.49	416.62
588.65	465.77
588.81	449.38
588.97	451.72
589.13	409.59
589.29	402.57
589.45	433.00
589.61	472.79
589.77	428.32
589.93	433.00
590.08	404.91
590.24	395.55
590.40	444.70
590.56	433.00
590.72	400.23
590.88	423.64
591.04	454.06
591.20	341.72
591.35	423.64
591.51	409.59
591.67	355.76
591.83	421.30
591.99	437.68
592.15	449.38
592.31	376.83
592.46	400.23
592.62	423.64
592.78	437.68
592.94	472.79
593.10	428.32
593.26	386.19
593.41	442.36
593.57	414.27
593.73	365.12
593.89	397.89
594.05	393.21
594.20	421.30
594.36	383.85
594.52	421.30
594.68	404.91
594.84	484.49
594.99	423.64
595.15	430.66
595.31	414.27
595.47	393.21
595.62	461.09
595.78	402.57
595.94	430.66
596.10	409.59
596.25	386.19
596.41	411.93
596.57	395.55
596.73	407.25
596.88	430.66
597.04	458.74
597.20	400.23
597.36	400.23
597.51	376.83
597.67	428.32
597.83	381.51
597.99	414.27
598.14	484.49
598.30	472.79
598.46	461.09
598.61	407.25
598.77	456.40
598.93	407.25
599.09	404.91
599.24	353.42
599.40	463.43
599.56	390.87
599.71	454.06
599.87	411.93
600.03	447.04
600.18	330.02
600.34	493.85
600.50	374.49
600.65	414.27
600.81	404.91
600.97	407.25
601.12	390.87
601.28	367.46
601.44	355.76
601.59	411.93
601.75	440.02
601.91	484.49
602.06	402.57
602.22	521.94
602.37	435.34
602.53	369.80
602.69	444.70
602.84	407.25
603.00	444.70
603.16	416.62
603.31	491.51
603.47	437.68
603.62	390.87
603.78	404.91
603.94	381.51
604.09	437.68
604.25	425.98
604.40	374.49
604.56	332.36
604.71	353.42
604.87	379.17
605.03	493.85
605.18	440.02
605.34	379.17
605.49	442.36
605.65	470.45
605.80	428.32
605.96	425.98
606.12	367.46
606.27	486.83
606.43	395.55
606.58	393.21
606.74	400.23
606.89	381.51
607.05	449.38
607.20	411.93
607.36	479.81
607.51	463.43
607.67	430.66
607.82	411.93
607.98	461.09
608.13	451.72
608.29	486.83
608.44	496.19
608.60	344.06
608.75	411.93
608.91	416.62
609.06	390.87
609.22	489.17
609.37	433.00
609.53	440.02
609.68	388.53
609.84	449.38
609.99	435.34
610.15	411.93
