SpectraSuite Data File
++++++++++++++++++++++++++++++++++++
Date: Fri Oct 25 12:11:05 EDT 2013
User: price-jones
Dark Spectrum Present: No
Reference Spectrum Present: No
Number of Sampled Component Spectra: 1
Spectrometers: USB2+H05261
Integration Time (usec): 100000 (USB2+H05261)
Spectra Averaged: 1 (USB2+H05261)
Boxcar Smoothing: 0 (USB2+H05261)
Correct for Electrical Dark: No (USB2+H05261)
Strobe/Lamp Enabled: No (USB2+H05261)
Correct for Detector Non-linearity: No (USB2+H05261)
Correct for Stray Light: No (USB2+H05261)
Number of Pixels in Processed Spectrum: 2048
>>>>>Begin Processed Spectral Data<<<<<
365.73	280.86
365.92	280.86
366.12	280.86
366.32	337.04
366.52	292.57
366.72	245.76
366.91	271.50
367.11	208.31
367.31	241.08
367.51	168.52
367.70	227.03
367.90	266.82
368.10	322.99
368.30	217.67
368.49	182.56
368.69	224.69
368.89	227.03
369.09	243.42
369.28	245.76
369.48	215.33
369.68	395.55
369.87	315.97
370.07	278.52
370.27	376.83
370.47	348.74
370.66	374.49
370.86	383.85
371.06	386.19
371.25	435.34
371.45	341.72
371.65	348.74
371.84	376.83
372.04	376.83
372.24	301.93
372.44	325.33
372.63	433.00
372.83	421.30
373.03	404.91
373.22	318.31
373.42	423.64
373.62	421.30
373.81	440.02
374.01	425.98
374.21	489.17
374.40	468.11
374.60	418.96
374.79	454.06
374.99	463.43
375.19	449.38
375.38	421.30
375.58	454.06
375.78	463.43
375.97	372.15
376.17	393.21
376.37	383.85
376.56	440.02
376.76	348.74
376.95	505.56
377.15	411.93
377.35	383.85
377.54	461.09
377.74	306.61
377.93	341.72
378.13	400.23
378.33	376.83
378.52	362.78
378.72	393.21
378.91	353.42
379.11	395.55
379.31	428.32
379.50	430.66
379.70	458.74
379.89	454.06
380.09	404.91
380.28	346.40
380.48	416.62
380.68	418.96
380.87	456.40
381.07	416.62
381.26	414.27
381.46	395.55
381.65	447.04
381.85	442.36
382.04	425.98
382.24	376.83
382.43	358.10
382.63	322.99
382.83	379.17
383.02	362.78
383.22	444.70
383.41	416.62
383.61	416.62
383.80	395.55
384.00	407.25
384.19	414.27
384.39	360.44
384.58	407.25
384.78	414.27
384.97	374.49
385.17	372.15
385.36	383.85
385.56	425.98
385.75	411.93
385.95	367.46
386.14	479.81
386.34	475.13
386.53	383.85
386.72	395.55
386.92	358.10
387.11	381.51
387.31	358.10
387.50	388.53
387.70	337.04
387.89	458.74
388.09	425.98
388.28	376.83
388.48	386.19
388.67	414.27
388.86	402.57
389.06	369.80
389.25	437.68
389.45	444.70
389.64	451.72
389.84	458.74
390.03	463.43
390.22	418.96
390.42	428.32
390.61	440.02
390.81	414.27
391.00	386.19
391.19	395.55
391.39	397.89
391.58	425.98
391.78	447.04
391.97	458.74
392.16	381.51
392.36	479.81
392.55	491.51
392.75	411.93
392.94	400.23
393.13	458.74
393.33	353.42
393.52	341.72
393.71	376.83
393.91	449.38
394.10	325.33
394.29	355.76
394.49	393.21
394.68	416.62
394.88	397.89
395.07	423.64
395.26	402.57
395.46	461.09
395.65	440.02
395.84	390.87
396.04	440.02
396.23	397.89
396.42	475.13
396.62	435.34
396.81	411.93
397.00	449.38
397.19	360.44
397.39	444.70
397.58	430.66
397.77	397.89
397.97	425.98
398.16	425.98
398.35	435.34
398.55	407.25
398.74	437.68
398.93	374.49
399.12	374.49
399.32	442.36
399.51	418.96
399.70	395.55
399.90	414.27
400.09	428.32
400.28	440.02
400.47	451.72
400.67	390.87
400.86	468.11
401.05	423.64
401.24	449.38
401.44	496.19
401.63	311.29
401.82	390.87
402.01	386.19
402.21	418.96
402.40	433.00
402.59	414.27
402.78	472.79
402.97	369.80
403.17	456.40
403.36	409.59
403.55	348.74
403.74	386.19
403.93	374.49
404.13	435.34
404.32	407.25
404.51	449.38
404.70	397.89
404.89	409.59
405.09	365.12
405.28	423.64
405.47	360.44
405.66	383.85
405.85	454.06
406.05	402.57
406.24	425.98
406.43	421.30
406.62	435.34
406.81	397.89
407.00	433.00
407.20	372.15
407.39	482.15
407.58	348.74
407.77	440.02
407.96	404.91
408.15	461.09
408.34	442.36
408.54	463.43
408.73	365.12
408.92	425.98
409.11	458.74
409.30	463.43
409.49	493.85
409.68	484.49
409.87	479.81
410.07	421.30
410.26	383.85
410.45	416.62
410.64	379.17
410.83	463.43
411.02	337.04
411.21	379.17
411.40	386.19
411.59	355.76
411.78	442.36
411.98	456.40
412.17	402.57
412.36	383.85
412.55	421.30
412.74	376.83
412.93	433.00
413.12	423.64
413.31	344.06
413.50	472.79
413.69	367.46
413.88	393.21
414.07	379.17
414.26	358.10
414.45	442.36
414.64	351.08
414.83	404.91
415.02	381.51
415.22	395.55
415.41	423.64
415.60	442.36
415.79	395.55
415.98	484.49
416.17	404.91
416.36	358.10
416.55	374.49
416.74	358.10
416.93	458.74
417.12	430.66
417.31	353.42
417.50	458.74
417.69	454.06
417.88	404.91
418.07	400.23
418.26	320.65
418.45	360.44
418.64	376.83
418.83	390.87
419.02	358.10
419.21	456.40
419.39	475.13
419.58	388.53
419.77	435.34
419.96	428.32
420.15	447.04
420.34	379.17
420.53	348.74
420.72	414.27
420.91	390.87
421.10	388.53
421.29	369.80
421.48	444.70
421.67	367.46
421.86	386.19
422.05	337.04
422.24	437.68
422.43	374.49
422.61	447.04
422.80	390.87
422.99	463.43
423.18	458.74
423.37	421.30
423.56	423.64
423.75	435.34
423.94	372.15
424.13	365.12
424.32	404.91
424.50	379.17
424.69	395.55
424.88	425.98
425.07	414.27
425.26	414.27
425.45	393.21
425.64	358.10
425.83	388.53
426.01	418.96
426.20	386.19
426.39	463.43
426.58	374.49
426.77	416.62
426.96	376.83
427.15	374.49
427.33	470.45
427.52	425.98
427.71	365.12
427.90	362.78
428.09	418.96
428.28	404.91
428.46	437.68
428.65	376.83
428.84	381.51
429.03	449.38
429.22	400.23
429.40	386.19
429.59	372.15
429.78	400.23
429.97	313.63
430.16	367.46
430.34	447.04
430.53	418.96
430.72	489.17
430.91	433.00
431.10	351.08
431.28	383.85
431.47	425.98
431.66	386.19
431.85	444.70
432.03	386.19
432.22	470.45
432.41	418.96
432.60	409.59
432.79	437.68
432.97	411.93
433.16	311.29
433.35	433.00
433.54	379.17
433.72	433.00
433.91	456.40
434.10	372.15
434.28	409.59
434.47	444.70
434.66	404.91
434.85	400.23
435.03	351.08
435.22	430.66
435.41	451.72
435.59	418.96
435.78	442.36
435.97	418.96
436.16	409.59
436.34	437.68
436.53	430.66
436.72	444.70
436.90	414.27
437.09	383.85
437.28	365.12
437.46	421.30
437.65	440.02
437.84	400.23
438.02	407.25
438.21	449.38
438.40	388.53
438.58	411.93
438.77	418.96
438.96	418.96
439.14	414.27
439.33	435.34
439.52	318.31
439.70	435.34
439.89	449.38
440.08	425.98
440.26	425.98
440.45	423.64
440.63	454.06
440.82	472.79
441.01	472.79
441.19	404.91
441.38	454.06
441.57	423.64
441.75	425.98
441.94	447.04
442.12	456.40
442.31	451.72
442.50	355.76
442.68	386.19
442.87	376.83
443.05	416.62
443.24	437.68
443.43	421.30
443.61	390.87
443.80	423.64
443.98	418.96
444.17	397.89
444.35	386.19
444.54	337.04
444.73	402.57
444.91	341.72
445.10	397.89
445.28	367.46
445.47	425.98
445.65	435.34
445.84	437.68
446.02	505.56
446.21	451.72
446.39	332.36
446.58	351.08
446.77	400.23
446.95	369.80
447.14	388.53
447.32	437.68
447.51	404.91
447.69	449.38
447.88	444.70
448.06	454.06
448.25	486.83
448.43	337.04
448.62	428.32
448.80	428.32
448.99	440.02
449.17	447.04
449.36	470.45
449.54	365.12
449.73	334.70
449.91	444.70
450.10	400.23
450.28	428.32
450.46	379.17
450.65	435.34
450.83	461.09
451.02	388.53
451.20	376.83
451.39	407.25
451.57	416.62
451.76	393.21
451.94	435.34
452.13	456.40
452.31	428.32
452.49	360.44
452.68	468.11
452.86	451.72
453.05	390.87
453.23	381.51
453.42	449.38
453.60	414.27
453.78	465.77
453.97	409.59
454.15	393.21
454.34	414.27
454.52	322.99
454.70	463.43
454.89	437.68
455.07	400.23
455.26	430.66
455.44	416.62
455.62	409.59
455.81	348.74
455.99	372.15
456.17	362.78
456.36	409.59
456.54	407.25
456.73	390.87
456.91	402.57
457.09	407.25
457.28	395.55
457.46	430.66
457.64	482.15
457.83	367.46
458.01	360.44
458.19	393.21
458.38	423.64
458.56	428.32
458.74	404.91
458.93	395.55
459.11	435.34
459.29	360.44
459.48	418.96
459.66	447.04
459.84	475.13
460.03	524.28
460.21	489.17
460.39	411.93
460.57	435.34
460.76	369.80
460.94	400.23
461.12	423.64
461.31	411.93
461.49	428.32
461.67	416.62
461.85	456.40
462.04	425.98
462.22	760.67
462.40	411.93
462.59	449.38
462.77	400.23
462.95	388.53
463.13	418.96
463.32	306.61
463.50	360.44
463.68	376.83
463.86	418.96
464.05	390.87
464.23	428.32
464.41	468.11
464.59	458.74
464.78	479.81
464.96	409.59
465.14	353.42
465.32	444.70
465.50	475.13
465.69	440.02
465.87	444.70
466.05	444.70
466.23	379.17
466.41	435.34
466.60	379.17
466.78	393.21
466.96	421.30
467.14	486.83
467.32	463.43
467.51	458.74
467.69	418.96
467.87	418.96
468.05	418.96
468.23	440.02
468.41	444.70
468.60	400.23
468.78	367.46
468.96	400.23
469.14	393.21
469.32	397.89
469.50	346.40
469.69	402.57
469.87	409.59
470.05	369.80
470.23	491.51
470.41	418.96
470.59	442.36
470.77	330.02
470.95	449.38
471.14	442.36
471.32	390.87
471.50	486.83
471.68	416.62
471.86	430.66
472.04	475.13
472.22	393.21
472.40	402.57
472.58	365.12
472.77	360.44
472.95	367.46
473.13	442.36
473.31	444.70
473.49	418.96
473.67	346.40
473.85	400.23
474.03	421.30
474.21	386.19
474.39	388.53
474.57	465.77
474.75	411.93
474.93	390.87
475.12	425.98
475.30	416.62
475.48	475.13
475.66	430.66
475.84	353.42
476.02	369.80
476.20	416.62
476.38	400.23
476.56	430.66
476.74	397.89
476.92	322.99
477.10	358.10
477.28	365.12
477.46	369.80
477.64	383.85
477.82	402.57
478.00	390.87
478.18	435.34
478.36	407.25
478.54	397.89
478.72	397.89
478.90	353.42
479.08	468.11
479.26	428.32
479.44	440.02
479.62	409.59
479.80	379.17
479.98	423.64
480.16	376.83
480.34	461.09
480.52	369.80
480.70	482.15
480.88	433.00
481.06	409.59
481.24	458.74
481.41	414.27
481.59	386.19
481.77	344.06
481.95	491.51
482.13	463.43
482.31	381.51
482.49	393.21
482.67	383.85
482.85	430.66
483.03	409.59
483.21	360.44
483.39	362.78
483.57	386.19
483.74	468.11
483.92	402.57
484.10	383.85
484.28	456.40
484.46	421.30
484.64	395.55
484.82	461.09
485.00	414.27
485.18	442.36
485.35	416.62
485.53	386.19
485.71	423.64
485.89	472.79
486.07	500.87
486.25	433.00
486.43	397.89
486.61	414.27
486.78	351.08
486.96	435.34
487.14	369.80
487.32	402.57
487.50	395.55
487.68	449.38
487.85	358.10
488.03	428.32
488.21	444.70
488.39	433.00
488.57	510.24
488.75	451.72
488.92	571.09
489.10	402.57
489.28	360.44
489.46	486.83
489.64	454.06
489.81	430.66
489.99	498.53
490.17	463.43
490.35	465.77
490.53	353.42
490.70	402.57
490.88	411.93
491.06	397.89
491.24	341.72
491.41	425.98
491.59	395.55
491.77	327.68
491.95	414.27
492.13	421.30
492.30	383.85
492.48	397.89
492.66	365.12
492.84	416.62
493.01	442.36
493.19	355.76
493.37	395.55
493.54	433.00
493.72	397.89
493.90	411.93
494.08	442.36
494.25	425.98
494.43	395.55
494.61	407.25
494.79	362.78
494.96	421.30
495.14	498.53
495.32	397.89
495.49	407.25
495.67	358.10
495.85	411.93
496.02	447.04
496.20	367.46
496.38	369.80
496.55	414.27
496.73	374.49
496.91	468.11
497.09	447.04
497.26	456.40
497.44	451.72
497.62	472.79
497.79	358.10
497.97	332.36
498.14	402.57
498.32	472.79
498.50	440.02
498.67	379.17
498.85	477.47
499.03	475.13
499.20	407.25
499.38	397.89
499.56	435.34
499.73	472.79
499.91	404.91
500.08	376.83
500.26	447.04
500.44	365.12
500.61	376.83
500.79	348.74
500.97	362.78
501.14	482.15
501.32	470.45
501.49	472.79
501.67	423.64
501.84	358.10
502.02	404.91
502.20	414.27
502.37	458.74
502.55	344.06
502.72	418.96
502.90	456.40
503.07	416.62
503.25	433.00
503.43	435.34
503.60	414.27
503.78	456.40
503.95	458.74
504.13	414.27
504.30	369.80
504.48	402.57
504.65	430.66
504.83	470.45
505.01	451.72
505.18	393.21
505.36	400.23
505.53	402.57
505.71	390.87
505.88	430.66
506.06	402.57
506.23	411.93
506.41	409.59
506.58	407.25
506.76	404.91
506.93	449.38
507.11	409.59
507.28	423.64
507.46	428.32
507.63	414.27
507.81	407.25
507.98	379.17
508.16	407.25
508.33	390.87
508.50	451.72
508.68	386.19
508.85	341.72
509.03	395.55
509.20	379.17
509.38	379.17
509.55	444.70
509.73	463.43
509.90	421.30
510.08	390.87
510.25	458.74
510.42	404.91
510.60	360.44
510.77	423.64
510.95	440.02
511.12	451.72
511.30	423.64
511.47	472.79
511.64	458.74
511.82	444.70
511.99	430.66
512.17	395.55
512.34	468.11
512.51	451.72
512.69	379.17
512.86	411.93
513.04	407.25
513.21	407.25
513.38	362.78
513.56	404.91
513.73	348.74
513.90	367.46
514.08	365.12
514.25	498.53
514.43	444.70
514.60	470.45
514.77	458.74
514.95	374.49
515.12	383.85
515.29	416.62
515.47	381.51
515.64	435.34
515.81	430.66
515.99	365.12
516.16	409.59
516.33	402.57
516.51	421.30
516.68	379.17
516.85	421.30
517.03	428.32
517.20	397.89
517.37	407.25
517.54	465.77
517.72	390.87
517.89	437.68
518.06	489.17
518.24	449.38
518.41	470.45
518.58	418.96
518.75	374.49
518.93	379.17
519.10	381.51
519.27	416.62
519.45	430.66
519.62	447.04
519.79	425.98
519.96	416.62
520.14	404.91
520.31	421.30
520.48	440.02
520.65	400.23
520.83	358.10
521.00	440.02
521.17	451.72
521.34	423.64
521.52	369.80
521.69	423.64
521.86	414.27
522.03	404.91
522.20	379.17
522.38	479.81
522.55	360.44
522.72	355.76
522.89	407.25
523.07	433.00
523.24	351.08
523.41	353.42
523.58	461.09
523.75	442.36
523.92	400.23
524.10	435.34
524.27	404.91
524.44	400.23
524.61	421.30
524.78	425.98
524.96	376.83
525.13	411.93
525.30	510.24
525.47	442.36
525.64	395.55
525.81	449.38
525.98	472.79
526.16	472.79
526.33	418.96
526.50	390.87
526.67	425.98
526.84	437.68
527.01	341.72
527.18	425.98
527.36	372.15
527.53	379.17
527.70	517.26
527.87	442.36
528.04	458.74
528.21	409.59
528.38	416.62
528.55	411.93
528.72	447.04
528.89	425.98
529.07	449.38
529.24	386.19
529.41	407.25
529.58	454.06
529.75	402.57
529.92	325.33
530.09	395.55
530.26	409.59
530.43	444.70
530.60	442.36
530.77	407.25
530.94	383.85
531.11	433.00
531.28	418.96
531.46	351.08
531.63	421.30
531.80	411.93
531.97	470.45
532.14	465.77
532.31	411.93
532.48	388.53
532.65	393.21
532.82	425.98
532.99	418.96
533.16	465.77
533.33	381.51
533.50	306.61
533.67	390.87
533.84	414.27
534.01	358.10
534.18	449.38
534.35	297.25
534.52	447.04
534.69	376.83
534.86	355.76
535.03	407.25
535.20	404.91
535.37	393.21
535.54	442.36
535.71	393.21
535.88	528.96
536.05	402.57
536.22	409.59
536.38	465.77
536.55	362.78
536.72	407.25
536.89	428.32
537.06	418.96
537.23	458.74
537.40	465.77
537.57	421.30
537.74	470.45
537.91	449.38
538.08	383.85
538.25	447.04
538.42	409.59
538.59	407.25
538.75	428.32
538.92	416.62
539.09	416.62
539.26	397.89
539.43	486.83
539.60	383.85
539.77	395.55
539.94	301.93
540.11	430.66
540.28	442.36
540.44	388.53
540.61	475.13
540.78	348.74
540.95	379.17
541.12	386.19
541.29	360.44
541.46	393.21
541.62	458.74
541.79	433.00
541.96	390.87
542.13	409.59
542.30	395.55
542.47	479.81
542.63	430.66
542.80	416.62
542.97	416.62
543.14	379.17
543.31	425.98
543.48	437.68
543.64	430.66
543.81	421.30
543.98	386.19
544.15	402.57
544.32	315.97
544.48	472.79
544.65	411.93
544.82	416.62
544.99	411.93
545.16	430.66
545.32	435.34
545.49	498.53
545.66	433.00
545.83	423.64
546.00	353.42
546.16	433.00
546.33	447.04
546.50	437.68
546.67	449.38
546.83	390.87
547.00	496.19
547.17	411.93
547.34	390.87
547.50	351.08
547.67	409.59
547.84	528.96
548.00	472.79
548.17	353.42
548.34	442.36
548.51	491.51
548.67	470.45
548.84	447.04
549.01	411.93
549.18	440.02
549.34	418.96
549.51	477.47
549.68	411.93
549.84	461.09
550.01	397.89
550.18	498.53
550.34	517.26
550.51	365.12
550.68	447.04
550.84	416.62
551.01	386.19
551.18	386.19
551.34	393.21
551.51	465.77
551.68	264.48
551.84	414.27
552.01	360.44
552.18	374.49
552.34	383.85
552.51	425.98
552.68	360.44
552.84	346.40
553.01	400.23
553.18	465.77
553.34	355.76
553.51	407.25
553.67	411.93
553.84	496.19
554.01	383.85
554.17	449.38
554.34	416.62
554.51	388.53
554.67	416.62
554.84	423.64
555.00	435.34
555.17	355.76
555.33	414.27
555.50	367.46
555.67	407.25
555.83	402.57
556.00	386.19
556.16	533.64
556.33	416.62
556.50	470.45
556.66	409.59
556.83	411.93
556.99	393.21
557.16	440.02
557.32	390.87
557.49	477.47
557.65	451.72
557.82	395.55
557.98	430.66
558.15	430.66
558.32	503.22
558.48	390.87
558.65	393.21
558.81	395.55
558.98	372.15
559.14	463.43
559.31	395.55
559.47	332.36
559.64	447.04
559.80	386.19
559.97	430.66
560.13	334.70
560.30	395.55
560.46	383.85
560.63	411.93
560.79	414.27
560.96	341.72
561.12	409.59
561.29	423.64
561.45	435.34
561.61	414.27
561.78	531.30
561.94	402.57
562.11	411.93
562.27	365.12
562.44	414.27
562.60	458.74
562.77	397.89
562.93	376.83
563.10	435.34
563.26	442.36
563.42	418.96
563.59	400.23
563.75	400.23
563.92	404.91
564.08	425.98
564.24	435.34
564.41	430.66
564.57	306.61
564.74	416.62
564.90	397.89
565.07	414.27
565.23	465.77
565.39	411.93
565.56	376.83
565.72	414.27
565.88	374.49
566.05	449.38
566.21	503.22
566.38	479.81
566.54	411.93
566.70	428.32
566.87	404.91
567.03	334.70
567.19	440.02
567.36	479.81
567.52	334.70
567.68	425.98
567.85	400.23
568.01	365.12
568.17	341.72
568.34	407.25
568.50	451.72
568.66	465.77
568.83	437.68
568.99	456.40
569.15	400.23
569.32	409.59
569.48	388.53
569.64	451.72
569.81	395.55
569.97	416.62
570.13	388.53
570.30	400.23
570.46	451.72
570.62	430.66
570.78	477.47
570.95	362.78
571.11	444.70
571.27	402.57
571.43	416.62
571.60	442.36
571.76	416.62
571.92	430.66
572.09	414.27
572.25	400.23
572.41	386.19
572.57	374.49
572.74	381.51
572.90	461.09
573.06	362.78
573.22	433.00
573.38	449.38
573.55	395.55
573.71	451.72
573.87	444.70
574.03	418.96
574.20	435.34
574.36	390.87
574.52	404.91
574.68	489.17
574.84	407.25
575.01	418.96
575.17	437.68
575.33	418.96
575.49	397.89
575.65	437.68
575.82	479.81
575.98	468.11
576.14	468.11
576.30	425.98
576.46	423.64
576.62	383.85
576.79	402.57
576.95	514.92
577.11	332.36
577.27	411.93
577.43	447.04
577.59	390.87
577.75	456.40
577.92	325.33
578.08	360.44
578.24	428.32
578.40	402.57
578.56	374.49
578.72	468.11
578.88	407.25
579.04	423.64
579.21	458.74
579.37	475.13
579.53	414.27
579.69	463.43
579.85	421.30
580.01	409.59
580.17	330.02
580.33	435.34
580.49	374.49
580.65	390.87
580.82	425.98
580.98	315.97
581.14	376.83
581.30	468.11
581.46	388.53
581.62	470.45
581.78	397.89
581.94	435.34
582.10	409.59
582.26	418.96
582.42	418.96
582.58	379.17
582.74	386.19
582.90	456.40
583.06	416.62
583.22	369.80
583.38	447.04
583.54	416.62
583.70	402.57
583.86	414.27
584.02	470.45
584.18	330.02
584.34	367.46
584.50	444.70
584.66	353.42
584.82	414.27
584.98	411.93
585.14	383.85
585.30	524.28
585.46	437.68
585.62	416.62
585.78	346.40
585.94	468.11
586.10	365.12
586.26	451.72
586.42	531.30
586.58	411.93
586.74	397.89
586.90	381.51
587.06	409.59
587.22	421.30
587.38	423.64
587.54	393.21
587.70	423.64
587.86	461.09
588.02	379.17
588.18	390.87
588.34	400.23
588.49	358.10
588.65	463.43
588.81	400.23
588.97	402.57
589.13	430.66
589.29	383.85
589.45	395.55
589.61	463.43
589.77	531.30
589.93	435.34
590.08	400.23
590.24	367.46
590.40	376.83
590.56	482.15
590.72	423.64
590.88	447.04
591.04	386.19
591.20	374.49
591.35	433.00
591.51	454.06
591.67	451.72
591.83	463.43
591.99	437.68
592.15	430.66
592.31	477.47
592.46	442.36
592.62	442.36
592.78	393.21
592.94	425.98
593.10	386.19
593.26	379.17
593.41	346.40
593.57	437.68
593.73	416.62
593.89	386.19
594.05	353.42
594.20	365.12
594.36	472.79
594.52	442.36
594.68	451.72
594.84	425.98
594.99	507.90
595.15	440.02
595.31	477.47
595.47	449.38
595.62	447.04
595.78	496.19
595.94	393.21
596.10	414.27
596.25	428.32
596.41	421.30
596.57	416.62
596.73	388.53
596.88	447.04
597.04	428.32
597.20	418.96
597.36	409.59
597.51	458.74
597.67	379.17
597.83	374.49
597.99	374.49
598.14	358.10
598.30	381.51
598.46	442.36
598.61	402.57
598.77	374.49
598.93	414.27
599.09	433.00
599.24	379.17
599.40	472.79
599.56	416.62
599.71	404.91
599.87	493.85
600.03	404.91
600.18	376.83
600.34	442.36
600.50	507.90
600.65	374.49
600.81	411.93
600.97	416.62
601.12	430.66
601.28	510.24
601.44	440.02
601.59	409.59
601.75	484.49
601.91	404.91
602.06	437.68
602.22	514.92
602.37	362.78
602.53	461.09
602.69	397.89
602.84	404.91
603.00	379.17
603.16	433.00
603.31	411.93
603.47	428.32
603.62	388.53
603.78	397.89
603.94	360.44
604.09	447.04
604.25	353.42
604.40	437.68
604.56	369.80
604.71	451.72
604.87	397.89
605.03	442.36
605.18	433.00
605.34	395.55
605.49	332.36
605.65	463.43
605.80	386.19
605.96	404.91
606.12	402.57
606.27	458.74
606.43	372.15
606.58	390.87
606.74	374.49
606.89	440.02
607.05	393.21
607.20	390.87
607.36	435.34
607.51	369.80
607.67	367.46
607.82	397.89
607.98	475.13
608.13	472.79
608.29	437.68
608.44	507.90
608.60	365.12
608.75	458.74
608.91	416.62
609.06	463.43
609.22	437.68
609.37	376.83
609.53	407.25
609.68	400.23
609.84	430.66
609.99	372.15
610.15	447.04
