SpectraSuite Data File
++++++++++++++++++++++++++++++++++++
Date: Fri Oct 25 12:10:51 EDT 2013
User: price-jones
Dark Spectrum Present: No
Reference Spectrum Present: No
Number of Sampled Component Spectra: 1
Spectrometers: USB2+H05261
Integration Time (usec): 100000 (USB2+H05261)
Spectra Averaged: 1 (USB2+H05261)
Boxcar Smoothing: 0 (USB2+H05261)
Correct for Electrical Dark: No (USB2+H05261)
Strobe/Lamp Enabled: No (USB2+H05261)
Correct for Detector Non-linearity: No (USB2+H05261)
Correct for Stray Light: No (USB2+H05261)
Number of Pixels in Processed Spectrum: 2048
>>>>>Begin Processed Spectral Data<<<<<
365.73	355.76
365.92	355.76
366.12	355.76
366.32	297.25
366.52	245.76
366.72	238.73
366.91	166.18
367.11	234.05
367.31	168.52
367.51	276.18
367.70	245.76
367.90	283.20
368.10	238.73
368.30	229.37
368.49	280.86
368.69	313.63
368.89	191.92
369.09	325.33
369.28	252.78
369.48	255.12
369.68	245.76
369.87	269.16
370.07	334.70
370.27	353.42
370.47	346.40
370.66	374.49
370.86	297.25
371.06	404.91
371.25	486.83
371.45	407.25
371.65	437.68
371.84	327.68
372.04	369.80
372.24	360.44
372.44	447.04
372.63	337.04
372.83	423.64
373.03	374.49
373.22	386.19
373.42	369.80
373.62	433.00
373.81	428.32
374.01	351.08
374.21	451.72
374.40	454.06
374.60	475.13
374.79	433.00
374.99	409.59
375.19	414.27
375.38	400.23
375.58	435.34
375.78	451.72
375.97	395.55
376.17	397.89
376.37	301.93
376.56	421.30
376.76	421.30
376.95	383.85
377.15	383.85
377.35	386.19
377.54	454.06
377.74	451.72
377.93	400.23
378.13	430.66
378.33	423.64
378.52	337.04
378.72	444.70
378.91	423.64
379.11	393.21
379.31	421.30
379.50	409.59
379.70	465.77
379.89	451.72
380.09	407.25
380.28	311.29
380.48	372.15
380.68	383.85
380.87	362.78
381.07	407.25
381.26	437.68
381.46	402.57
381.65	374.49
381.85	468.11
382.04	409.59
382.24	519.60
382.43	447.04
382.63	379.17
382.83	376.83
383.02	486.83
383.22	404.91
383.41	425.98
383.61	383.85
383.80	341.72
384.00	376.83
384.19	437.68
384.39	416.62
384.58	367.46
384.78	440.02
384.97	315.97
385.17	386.19
385.36	409.59
385.56	390.87
385.75	381.51
385.95	376.83
386.14	332.36
386.34	425.98
386.53	435.34
386.72	454.06
386.92	456.40
387.11	416.62
387.31	451.72
387.50	393.21
387.70	353.42
387.89	447.04
388.09	433.00
388.28	442.36
388.48	409.59
388.67	449.38
388.86	386.19
389.06	400.23
389.25	376.83
389.45	404.91
389.64	400.23
389.84	404.91
390.03	477.47
390.22	465.77
390.42	449.38
390.61	346.40
390.81	444.70
391.00	395.55
391.19	449.38
391.39	416.62
391.58	475.13
391.78	402.57
391.97	397.89
392.16	416.62
392.36	428.32
392.55	433.00
392.75	451.72
392.94	325.33
393.13	404.91
393.33	320.65
393.52	442.36
393.71	383.85
393.91	444.70
394.10	393.21
394.29	351.08
394.49	402.57
394.68	379.17
394.88	465.77
395.07	388.53
395.26	395.55
395.46	447.04
395.65	435.34
395.84	484.49
396.04	465.77
396.23	428.32
396.42	428.32
396.62	414.27
396.81	416.62
397.00	430.66
397.19	395.55
397.39	381.51
397.58	449.38
397.77	379.17
397.97	416.62
398.16	435.34
398.35	423.64
398.55	423.64
398.74	418.96
398.93	472.79
399.12	395.55
399.32	381.51
399.51	367.46
399.70	437.68
399.90	367.46
400.09	383.85
400.28	456.40
400.47	435.34
400.67	374.49
400.86	428.32
401.05	428.32
401.24	421.30
401.44	395.55
401.63	440.02
401.82	400.23
402.01	407.25
402.21	425.98
402.40	465.77
402.59	437.68
402.78	393.21
402.97	372.15
403.17	433.00
403.36	437.68
403.55	437.68
403.74	379.17
403.93	374.49
404.13	430.66
404.32	414.27
404.51	409.59
404.70	437.68
404.89	428.32
405.09	379.17
405.28	346.40
405.47	351.08
405.66	418.96
405.85	383.85
406.05	430.66
406.24	423.64
406.43	395.55
406.62	397.89
406.81	437.68
407.00	458.74
407.20	400.23
407.39	400.23
407.58	381.51
407.77	423.64
407.96	383.85
408.15	374.49
408.34	376.83
408.54	402.57
408.73	407.25
408.92	425.98
409.11	418.96
409.30	498.53
409.49	409.59
409.68	433.00
409.87	409.59
410.07	383.85
410.26	379.17
410.45	381.51
410.64	367.46
410.83	454.06
411.02	381.51
411.21	402.57
411.40	367.46
411.59	409.59
411.78	358.10
411.98	404.91
412.17	386.19
412.36	447.04
412.55	435.34
412.74	367.46
412.93	482.15
413.12	332.36
413.31	402.57
413.50	365.12
413.69	381.51
413.88	521.94
414.07	369.80
414.26	409.59
414.45	397.89
414.64	393.21
414.83	444.70
415.02	423.64
415.22	454.06
415.41	470.45
415.60	369.80
415.79	395.55
415.98	435.34
416.17	379.17
416.36	409.59
416.55	372.15
416.74	407.25
416.93	332.36
417.12	397.89
417.31	479.81
417.50	470.45
417.69	433.00
417.88	421.30
418.07	395.55
418.26	376.83
418.45	411.93
418.64	468.11
418.83	430.66
419.02	407.25
419.21	433.00
419.39	334.70
419.58	440.02
419.77	409.59
419.96	449.38
420.15	411.93
420.34	425.98
420.53	423.64
420.72	433.00
420.91	414.27
421.10	463.43
421.29	418.96
421.48	390.87
421.67	433.00
421.86	444.70
422.05	379.17
422.24	395.55
422.43	334.70
422.61	437.68
422.80	390.87
422.99	388.53
423.18	367.46
423.37	461.09
423.56	414.27
423.75	393.21
423.94	411.93
424.13	393.21
424.32	388.53
424.50	425.98
424.69	402.57
424.88	458.74
425.07	428.32
425.26	423.64
425.45	421.30
425.64	346.40
425.83	381.51
426.01	395.55
426.20	393.21
426.39	411.93
426.58	386.19
426.77	400.23
426.96	507.90
427.15	440.02
427.33	418.96
427.52	454.06
427.71	416.62
427.90	435.34
428.09	355.76
428.28	414.27
428.46	423.64
428.65	421.30
428.84	278.52
429.03	482.15
429.22	402.57
429.40	418.96
429.59	383.85
429.78	409.59
429.97	388.53
430.16	437.68
430.34	390.87
430.53	386.19
430.72	411.93
430.91	444.70
431.10	407.25
431.28	442.36
431.47	395.55
431.66	393.21
431.85	402.57
432.03	362.78
432.22	400.23
432.41	430.66
432.60	465.77
432.79	376.83
432.97	325.33
433.16	374.49
433.35	409.59
433.54	433.00
433.72	400.23
433.91	418.96
434.10	433.00
434.28	423.64
434.47	388.53
434.66	395.55
434.85	383.85
435.03	421.30
435.22	440.02
435.41	433.00
435.59	449.38
435.78	421.30
435.97	414.27
436.16	423.64
436.34	407.25
436.53	372.15
436.72	435.34
436.90	407.25
437.09	491.51
437.28	470.45
437.46	411.93
437.65	414.27
437.84	372.15
438.02	418.96
438.21	414.27
438.40	388.53
438.58	393.21
438.77	447.04
438.96	425.98
439.14	365.12
439.33	472.79
439.52	379.17
439.70	433.00
439.89	479.81
440.08	360.44
440.26	442.36
440.45	477.47
440.63	437.68
440.82	395.55
441.01	383.85
441.19	428.32
441.38	383.85
441.57	442.36
441.75	449.38
441.94	484.49
442.12	430.66
442.31	409.59
442.50	418.96
442.68	461.09
442.87	411.93
443.05	414.27
443.24	451.72
443.43	484.49
443.61	374.49
443.80	411.93
443.98	400.23
444.17	430.66
444.35	440.02
444.54	430.66
444.73	458.74
444.91	463.43
445.10	444.70
445.28	479.81
445.47	358.10
445.65	397.89
445.84	430.66
446.02	414.27
446.21	425.98
446.39	423.64
446.58	351.08
446.77	355.76
446.95	372.15
447.14	461.09
447.32	477.47
447.51	332.36
447.69	393.21
447.88	456.40
448.06	489.17
448.25	423.64
448.43	353.42
448.62	433.00
448.80	411.93
448.99	430.66
449.17	404.91
449.36	479.81
449.54	395.55
449.73	400.23
449.91	414.27
450.10	433.00
450.28	456.40
450.46	423.64
450.65	374.49
450.83	369.80
451.02	404.91
451.20	379.17
451.39	397.89
451.57	414.27
451.76	283.20
451.94	374.49
452.13	423.64
452.31	528.96
452.49	395.55
452.68	313.63
452.86	400.23
453.05	437.68
453.23	381.51
453.42	360.44
453.60	400.23
453.78	360.44
453.97	376.83
454.15	376.83
454.34	414.27
454.52	346.40
454.70	493.85
454.89	428.32
455.07	402.57
455.26	411.93
455.44	437.68
455.62	409.59
455.81	449.38
455.99	414.27
456.17	442.36
456.36	409.59
456.54	388.53
456.73	402.57
456.91	479.81
457.09	425.98
457.28	400.23
457.46	397.89
457.64	416.62
457.83	418.96
458.01	400.23
458.19	423.64
458.38	388.53
458.56	379.17
458.74	372.15
458.93	442.36
459.11	461.09
459.29	496.19
459.48	472.79
459.66	454.06
459.84	458.74
460.03	428.32
460.21	423.64
460.39	402.57
460.57	454.06
460.76	479.81
460.94	397.89
461.12	461.09
461.31	369.80
461.49	407.25
461.67	348.74
461.85	383.85
462.04	402.57
462.22	697.48
462.40	437.68
462.59	374.49
462.77	344.06
462.95	360.44
463.13	372.15
463.32	411.93
463.50	425.98
463.68	458.74
463.86	444.70
464.05	428.32
464.23	447.04
464.41	454.06
464.59	388.53
464.78	404.91
464.96	376.83
465.14	393.21
465.32	386.19
465.50	461.09
465.69	498.53
465.87	411.93
466.05	489.17
466.23	390.87
466.41	440.02
466.60	397.89
466.78	400.23
466.96	521.94
467.14	442.36
467.32	465.77
467.51	360.44
467.69	433.00
467.87	372.15
468.05	418.96
468.23	493.85
468.41	498.53
468.60	402.57
468.78	379.17
468.96	449.38
469.14	388.53
469.32	362.78
469.50	383.85
469.69	360.44
469.87	435.34
470.05	386.19
470.23	386.19
470.41	355.76
470.59	400.23
470.77	395.55
470.95	379.17
471.14	414.27
471.32	416.62
471.50	351.08
471.68	503.22
471.86	461.09
472.04	425.98
472.22	337.04
472.40	404.91
472.58	416.62
472.77	390.87
472.95	433.00
473.13	458.74
473.31	416.62
473.49	360.44
473.67	365.12
473.85	390.87
474.03	472.79
474.21	433.00
474.39	376.83
474.57	397.89
474.75	435.34
474.93	348.74
475.12	416.62
475.30	449.38
475.48	416.62
475.66	362.78
475.84	477.47
476.02	381.51
476.20	440.02
476.38	444.70
476.56	479.81
476.74	414.27
476.92	388.53
477.10	360.44
477.28	454.06
477.46	458.74
477.64	475.13
477.82	475.13
478.00	465.77
478.18	454.06
478.36	482.15
478.54	388.53
478.72	418.96
478.90	418.96
479.08	430.66
479.26	416.62
479.44	360.44
479.62	423.64
479.80	379.17
479.98	430.66
480.16	351.08
480.34	395.55
480.52	465.77
480.70	418.96
480.88	407.25
481.06	451.72
481.24	397.89
481.41	341.72
481.59	421.30
481.77	395.55
481.95	428.32
482.13	393.21
482.31	395.55
482.49	376.83
482.67	437.68
482.85	400.23
483.03	465.77
483.21	346.40
483.39	400.23
483.57	404.91
483.74	425.98
483.92	416.62
484.10	489.17
484.28	416.62
484.46	414.27
484.64	451.72
484.82	409.59
485.00	390.87
485.18	351.08
485.35	442.36
485.53	411.93
485.71	433.00
485.89	372.15
486.07	365.12
486.25	456.40
486.43	423.64
486.61	374.49
486.78	393.21
486.96	437.68
487.14	428.32
487.32	360.44
487.50	449.38
487.68	418.96
487.85	381.51
488.03	425.98
488.21	437.68
488.39	472.79
488.57	397.89
488.75	395.55
488.92	545.34
489.10	397.89
489.28	425.98
489.46	386.19
489.64	463.43
489.81	425.98
489.99	367.46
490.17	442.36
490.35	512.58
490.53	456.40
490.70	388.53
490.88	442.36
491.06	367.46
491.24	369.80
491.41	421.30
491.59	423.64
491.77	418.96
491.95	430.66
492.13	393.21
492.30	440.02
492.48	407.25
492.66	400.23
492.84	411.93
493.01	433.00
493.19	411.93
493.37	463.43
493.54	334.70
493.72	351.08
493.90	367.46
494.08	374.49
494.25	395.55
494.43	369.80
494.61	414.27
494.79	437.68
494.96	386.19
495.14	461.09
495.32	423.64
495.49	421.30
495.67	397.89
495.85	409.59
496.02	346.40
496.20	390.87
496.38	351.08
496.55	425.98
496.73	435.34
496.91	402.57
497.09	421.30
497.26	388.53
497.44	409.59
497.62	444.70
497.79	418.96
497.97	423.64
498.14	433.00
498.32	409.59
498.50	428.32
498.67	313.63
498.85	411.93
499.03	416.62
499.20	463.43
499.38	393.21
499.56	407.25
499.73	397.89
499.91	496.19
500.08	447.04
500.26	475.13
500.44	407.25
500.61	414.27
500.79	395.55
500.97	362.78
501.14	470.45
501.32	397.89
501.49	402.57
501.67	416.62
501.84	355.76
502.02	409.59
502.20	496.19
502.37	442.36
502.55	440.02
502.72	468.11
502.90	440.02
503.07	454.06
503.25	411.93
503.43	449.38
503.60	409.59
503.78	351.08
503.95	451.72
504.13	358.10
504.30	447.04
504.48	521.94
504.65	365.12
504.83	421.30
505.01	395.55
505.18	393.21
505.36	428.32
505.53	421.30
505.71	395.55
505.88	461.09
506.06	330.02
506.23	372.15
506.41	395.55
506.58	458.74
506.76	409.59
506.93	341.72
507.11	456.40
507.28	440.02
507.46	369.80
507.63	475.13
507.81	458.74
507.98	376.83
508.16	425.98
508.33	388.53
508.50	456.40
508.68	367.46
508.85	388.53
509.03	428.32
509.20	376.83
509.38	425.98
509.55	430.66
509.73	477.47
509.90	365.12
510.08	402.57
510.25	458.74
510.42	355.76
510.60	355.76
510.77	407.25
510.95	423.64
511.12	437.68
511.30	400.23
511.47	369.80
511.64	470.45
511.82	444.70
511.99	393.21
512.17	383.85
512.34	414.27
512.51	388.53
512.69	327.68
512.86	355.76
513.04	440.02
513.21	416.62
513.38	393.21
513.56	360.44
513.73	353.42
513.90	402.57
514.08	365.12
514.25	418.96
514.43	395.55
514.60	444.70
514.77	400.23
514.95	409.59
515.12	351.08
515.29	423.64
515.47	355.76
515.64	411.93
515.81	411.93
515.99	447.04
516.16	430.66
516.33	454.06
516.51	449.38
516.68	442.36
516.85	386.19
517.03	411.93
517.20	397.89
517.37	416.62
517.54	411.93
517.72	402.57
517.89	402.57
518.06	383.85
518.24	514.92
518.41	404.91
518.58	437.68
518.75	465.77
518.93	402.57
519.10	411.93
519.27	425.98
519.45	433.00
519.62	472.79
519.79	463.43
519.96	353.42
520.14	421.30
520.31	416.62
520.48	383.85
520.65	433.00
520.83	423.64
521.00	416.62
521.17	447.04
521.34	341.72
521.52	383.85
521.69	404.91
521.86	447.04
522.03	498.53
522.20	489.17
522.38	463.43
522.55	365.12
522.72	440.02
522.89	404.91
523.07	374.49
523.24	468.11
523.41	365.12
523.58	414.27
523.75	355.76
523.92	395.55
524.10	402.57
524.27	393.21
524.44	414.27
524.61	379.17
524.78	428.32
524.96	383.85
525.13	404.91
525.30	423.64
525.47	418.96
525.64	470.45
525.81	428.32
525.98	369.80
526.16	430.66
526.33	372.15
526.50	322.99
526.67	344.06
526.84	395.55
527.01	418.96
527.18	514.92
527.36	423.64
527.53	444.70
527.70	454.06
527.87	433.00
528.04	496.19
528.21	433.00
528.38	451.72
528.55	369.80
528.72	414.27
528.89	416.62
529.07	407.25
529.24	428.32
529.41	444.70
529.58	465.77
529.75	433.00
529.92	430.66
530.09	411.93
530.26	407.25
530.43	404.91
530.60	454.06
530.77	390.87
530.94	369.80
531.11	414.27
531.28	425.98
531.46	421.30
531.63	397.89
531.80	444.70
531.97	353.42
532.14	454.06
532.31	456.40
532.48	402.57
532.65	409.59
532.82	435.34
532.99	421.30
533.16	341.72
533.33	416.62
533.50	414.27
533.67	411.93
533.84	425.98
534.01	418.96
534.18	451.72
534.35	397.89
534.52	397.89
534.69	367.46
534.86	454.06
535.03	388.53
535.20	409.59
535.37	461.09
535.54	341.72
535.71	341.72
535.88	425.98
536.05	447.04
536.22	496.19
536.38	461.09
536.55	423.64
536.72	400.23
536.89	414.27
537.06	381.51
537.23	351.08
537.40	416.62
537.57	444.70
537.74	449.38
537.91	500.87
538.08	437.68
538.25	414.27
538.42	428.32
538.59	456.40
538.75	390.87
538.92	458.74
539.09	442.36
539.26	411.93
539.43	531.30
539.60	416.62
539.77	414.27
539.94	414.27
540.11	411.93
540.28	430.66
540.44	402.57
540.61	416.62
540.78	404.91
540.95	444.70
541.12	407.25
541.29	425.98
541.46	397.89
541.62	444.70
541.79	458.74
541.96	421.30
542.13	454.06
542.30	421.30
542.47	411.93
542.63	470.45
542.80	458.74
542.97	454.06
543.14	456.40
543.31	369.80
543.48	425.98
543.64	411.93
543.81	376.83
543.98	409.59
544.15	428.32
544.32	395.55
544.48	369.80
544.65	355.76
544.82	332.36
544.99	411.93
545.16	369.80
545.32	437.68
545.49	465.77
545.66	407.25
545.83	444.70
546.00	367.46
546.16	362.78
546.33	390.87
546.50	433.00
546.67	421.30
546.83	376.83
547.00	411.93
547.17	440.02
547.34	430.66
547.50	507.90
547.67	358.10
547.84	327.68
548.00	491.51
548.17	454.06
548.34	463.43
548.51	484.49
548.67	400.23
548.84	456.40
549.01	411.93
549.18	360.44
549.34	390.87
549.51	470.45
549.68	430.66
549.84	418.96
550.01	411.93
550.18	482.15
550.34	425.98
550.51	496.19
550.68	444.70
550.84	449.38
551.01	311.29
551.18	463.43
551.34	416.62
551.51	435.34
551.68	358.10
551.84	449.38
552.01	423.64
552.18	313.63
552.34	423.64
552.51	397.89
552.68	468.11
552.84	386.19
553.01	421.30
553.18	423.64
553.34	383.85
553.51	390.87
553.67	437.68
553.84	449.38
554.01	416.62
554.17	337.04
554.34	465.77
554.51	379.17
554.67	430.66
554.84	440.02
555.00	470.45
555.17	498.53
555.33	468.11
555.50	407.25
555.67	433.00
555.83	444.70
556.00	320.65
556.16	592.16
556.33	510.24
556.50	397.89
556.66	507.90
556.83	433.00
556.99	451.72
557.16	454.06
557.32	430.66
557.49	528.96
557.65	376.83
557.82	416.62
557.98	346.40
558.15	346.40
558.32	454.06
558.48	456.40
558.65	383.85
558.81	390.87
558.98	449.38
559.14	465.77
559.31	498.53
559.47	468.11
559.64	411.93
559.80	400.23
559.97	351.08
560.13	341.72
560.30	449.38
560.46	407.25
560.63	423.64
560.79	458.74
560.96	388.53
561.12	393.21
561.29	486.83
561.45	442.36
561.61	425.98
561.78	433.00
561.94	423.64
562.11	465.77
562.27	442.36
562.44	353.42
562.60	414.27
562.77	423.64
562.93	468.11
563.10	463.43
563.26	390.87
563.42	442.36
563.59	390.87
563.75	341.72
563.92	416.62
564.08	440.02
564.24	433.00
564.41	486.83
564.57	456.40
564.74	339.38
564.90	468.11
565.07	428.32
565.23	358.10
565.39	376.83
565.56	425.98
565.72	461.09
565.88	407.25
566.05	388.53
566.21	451.72
566.38	444.70
566.54	433.00
566.70	463.43
566.87	369.80
567.03	334.70
567.19	437.68
567.36	416.62
567.52	395.55
567.68	496.19
567.85	388.53
568.01	404.91
568.17	418.96
568.34	454.06
568.50	500.87
568.66	444.70
568.83	433.00
568.99	367.46
569.15	423.64
569.32	409.59
569.48	428.32
569.64	449.38
569.81	482.15
569.97	407.25
570.13	400.23
570.30	418.96
570.46	416.62
570.62	395.55
570.78	402.57
570.95	402.57
571.11	414.27
571.27	444.70
571.43	489.17
571.60	440.02
571.76	407.25
571.92	395.55
572.09	379.17
572.25	435.34
572.41	407.25
572.57	379.17
572.74	423.64
572.90	425.98
573.06	395.55
573.22	367.46
573.38	475.13
573.55	465.77
573.71	461.09
573.87	388.53
574.03	407.25
574.20	465.77
574.36	393.21
574.52	421.30
574.68	383.85
574.84	454.06
575.01	435.34
575.17	456.40
575.33	397.89
575.49	383.85
575.65	444.70
575.82	435.34
575.98	531.30
576.14	461.09
576.30	397.89
576.46	355.76
576.62	362.78
576.79	425.98
576.95	465.77
577.11	395.55
577.27	341.72
577.43	433.00
577.59	461.09
577.75	440.02
577.92	411.93
578.08	437.68
578.24	428.32
578.40	470.45
578.56	440.02
578.72	500.87
578.88	428.32
579.04	409.59
579.21	397.89
579.37	409.59
579.53	351.08
579.69	421.30
579.85	416.62
580.01	407.25
580.17	360.44
580.33	458.74
580.49	447.04
580.65	414.27
580.82	369.80
580.98	381.51
581.14	409.59
581.30	440.02
581.46	451.72
581.62	500.87
581.78	404.91
581.94	388.53
582.10	379.17
582.26	421.30
582.42	409.59
582.58	379.17
582.74	386.19
582.90	421.30
583.06	379.17
583.22	358.10
583.38	404.91
583.54	409.59
583.70	402.57
583.86	386.19
584.02	447.04
584.18	388.53
584.34	423.64
584.50	383.85
584.66	423.64
584.82	425.98
584.98	493.85
585.14	395.55
585.30	461.09
585.46	456.40
585.62	444.70
585.78	463.43
585.94	444.70
586.10	440.02
586.26	500.87
586.42	428.32
586.58	461.09
586.74	390.87
586.90	386.19
587.06	374.49
587.22	365.12
587.38	379.17
587.54	322.99
587.70	479.81
587.86	442.36
588.02	421.30
588.18	400.23
588.34	440.02
588.49	458.74
588.65	407.25
588.81	428.32
588.97	421.30
589.13	374.49
589.29	388.53
589.45	374.49
589.61	393.21
589.77	407.25
589.93	365.12
590.08	414.27
590.24	451.72
590.40	409.59
590.56	447.04
590.72	400.23
590.88	449.38
591.04	402.57
591.20	400.23
591.35	372.15
591.51	463.43
591.67	428.32
591.83	414.27
591.99	498.53
592.15	484.49
592.31	353.42
592.46	458.74
592.62	486.83
592.78	423.64
592.94	383.85
593.10	435.34
593.26	482.15
593.41	425.98
593.57	404.91
593.73	353.42
593.89	428.32
594.05	472.79
594.20	440.02
594.36	428.32
594.52	430.66
594.68	390.87
594.84	479.81
594.99	491.51
595.15	458.74
595.31	421.30
595.47	440.02
595.62	458.74
595.78	400.23
595.94	397.89
596.10	503.22
596.25	428.32
596.41	353.42
596.57	362.78
596.73	461.09
596.88	479.81
597.04	428.32
597.20	430.66
597.36	514.92
597.51	358.10
597.67	458.74
597.83	390.87
597.99	468.11
598.14	425.98
598.30	444.70
598.46	430.66
598.61	409.59
598.77	402.57
598.93	402.57
599.09	411.93
599.24	376.83
599.40	430.66
599.56	414.27
599.71	383.85
599.87	486.83
600.03	425.98
600.18	435.34
600.34	414.27
600.50	360.44
600.65	435.34
600.81	381.51
600.97	411.93
601.12	409.59
601.28	449.38
601.44	351.08
601.59	411.93
601.75	383.85
601.91	447.04
602.06	360.44
602.22	463.43
602.37	332.36
602.53	430.66
602.69	475.13
602.84	430.66
603.00	409.59
603.16	397.89
603.31	433.00
603.47	475.13
603.62	404.91
603.78	463.43
603.94	454.06
604.09	407.25
604.25	433.00
604.40	407.25
604.56	395.55
604.71	337.04
604.87	395.55
605.03	421.30
605.18	414.27
605.34	444.70
605.49	395.55
605.65	458.74
605.80	362.78
605.96	430.66
606.12	442.36
606.27	477.47
606.43	418.96
606.58	402.57
606.74	404.91
606.89	461.09
607.05	425.98
607.20	411.93
607.36	362.78
607.51	369.80
607.67	407.25
607.82	479.81
607.98	472.79
608.13	475.13
608.29	386.19
608.44	360.44
608.60	437.68
608.75	430.66
608.91	442.36
609.06	346.40
609.22	461.09
609.37	388.53
609.53	388.53
609.68	337.04
609.84	381.51
609.99	386.19
610.15	470.45
