SpectraSuite Data File
++++++++++++++++++++++++++++++++++++
Date: Fri Oct 25 12:10:35 EDT 2013
User: price-jones
Dark Spectrum Present: No
Reference Spectrum Present: No
Number of Sampled Component Spectra: 1
Spectrometers: USB2+H05261
Integration Time (usec): 100000 (USB2+H05261)
Spectra Averaged: 1 (USB2+H05261)
Boxcar Smoothing: 0 (USB2+H05261)
Correct for Electrical Dark: No (USB2+H05261)
Strobe/Lamp Enabled: No (USB2+H05261)
Correct for Detector Non-linearity: No (USB2+H05261)
Correct for Stray Light: No (USB2+H05261)
Number of Pixels in Processed Spectrum: 2048
>>>>>Begin Processed Spectral Data<<<<<
365.73	358.10
365.92	358.10
366.12	358.10
366.32	264.48
366.52	243.42
366.72	280.86
366.91	229.37
367.11	238.73
367.31	170.86
367.51	194.26
367.70	205.97
367.90	166.18
368.10	229.37
368.30	266.82
368.49	170.86
368.69	285.55
368.89	255.12
369.09	187.24
369.28	250.44
369.48	313.63
369.68	229.37
369.87	290.23
370.07	322.99
370.27	301.93
370.47	304.27
370.66	255.12
370.86	365.12
371.06	355.76
371.25	411.93
371.45	334.70
371.65	397.89
371.84	388.53
372.04	358.10
372.24	355.76
372.44	390.87
372.63	428.32
372.83	409.59
373.03	358.10
373.22	404.91
373.42	425.98
373.62	367.46
373.81	505.56
374.01	444.70
374.21	409.59
374.40	444.70
374.60	383.85
374.79	414.27
374.99	395.55
375.19	430.66
375.38	444.70
375.58	379.17
375.78	404.91
375.97	465.77
376.17	430.66
376.37	341.72
376.56	367.46
376.76	397.89
376.95	447.04
377.15	332.36
377.35	440.02
377.54	381.51
377.74	386.19
377.93	374.49
378.13	402.57
378.33	465.77
378.52	447.04
378.72	449.38
378.91	423.64
379.11	444.70
379.31	355.76
379.50	334.70
379.70	430.66
379.89	330.02
380.09	402.57
380.28	428.32
380.48	416.62
380.68	418.96
380.87	414.27
381.07	365.12
381.26	416.62
381.46	348.74
381.65	486.83
381.85	379.17
382.04	362.78
382.24	472.79
382.43	454.06
382.63	360.44
382.83	367.46
383.02	351.08
383.22	423.64
383.41	395.55
383.61	372.15
383.80	390.87
384.00	388.53
384.19	372.15
384.39	400.23
384.58	388.53
384.78	409.59
384.97	404.91
385.17	376.83
385.36	444.70
385.56	440.02
385.75	348.74
385.95	454.06
386.14	444.70
386.34	346.40
386.53	400.23
386.72	472.79
386.92	461.09
387.11	425.98
387.31	409.59
387.50	358.10
387.70	383.85
387.89	381.51
388.09	365.12
388.28	388.53
388.48	418.96
388.67	360.44
388.86	360.44
389.06	369.80
389.25	337.04
389.45	390.87
389.64	379.17
389.84	435.34
390.03	404.91
390.22	421.30
390.42	395.55
390.61	397.89
390.81	355.76
391.00	411.93
391.19	353.42
391.39	430.66
391.58	390.87
391.78	414.27
391.97	421.30
392.16	386.19
392.36	463.43
392.55	440.02
392.75	395.55
392.94	372.15
393.13	437.68
393.33	409.59
393.52	390.87
393.71	404.91
393.91	423.64
394.10	510.24
394.29	409.59
394.49	390.87
394.68	451.72
394.88	472.79
395.07	365.12
395.26	400.23
395.46	386.19
395.65	407.25
395.84	318.31
396.04	503.22
396.23	414.27
396.42	423.64
396.62	402.57
396.81	411.93
397.00	402.57
397.19	411.93
397.39	444.70
397.58	442.36
397.77	383.85
397.97	428.32
398.16	386.19
398.35	421.30
398.55	433.00
398.74	430.66
398.93	379.17
399.12	379.17
399.32	383.85
399.51	395.55
399.70	379.17
399.90	383.85
400.09	404.91
400.28	418.96
400.47	397.89
400.67	423.64
400.86	388.53
401.05	376.83
401.24	409.59
401.44	414.27
401.63	465.77
401.82	470.45
402.01	386.19
402.21	341.72
402.40	437.68
402.59	322.99
402.78	318.31
402.97	493.85
403.17	433.00
403.36	400.23
403.55	379.17
403.74	388.53
403.93	486.83
404.13	430.66
404.32	344.06
404.51	421.30
404.70	444.70
404.89	344.06
405.09	409.59
405.28	418.96
405.47	414.27
405.66	437.68
405.85	369.80
406.05	451.72
406.24	454.06
406.43	353.42
406.62	435.34
406.81	475.13
407.00	482.15
407.20	430.66
407.39	409.59
407.58	472.79
407.77	435.34
407.96	404.91
408.15	418.96
408.34	360.44
408.54	404.91
408.73	304.27
408.92	386.19
409.11	381.51
409.30	407.25
409.49	475.13
409.68	397.89
409.87	423.64
410.07	440.02
410.26	433.00
410.45	372.15
410.64	334.70
410.83	482.15
411.02	435.34
411.21	381.51
411.40	407.25
411.59	437.68
411.78	421.30
411.98	397.89
412.17	383.85
412.36	423.64
412.55	472.79
412.74	360.44
412.93	416.62
413.12	388.53
413.31	472.79
413.50	414.27
413.69	411.93
413.88	447.04
414.07	393.21
414.26	411.93
414.45	409.59
414.64	437.68
414.83	442.36
415.02	423.64
415.22	500.87
415.41	493.85
415.60	416.62
415.79	358.10
415.98	402.57
416.17	411.93
416.36	423.64
416.55	379.17
416.74	402.57
416.93	479.81
417.12	386.19
417.31	433.00
417.50	407.25
417.69	463.43
417.88	348.74
418.07	383.85
418.26	379.17
418.45	400.23
418.64	421.30
418.83	449.38
419.02	435.34
419.21	435.34
419.39	447.04
419.58	397.89
419.77	404.91
419.96	358.10
420.15	444.70
420.34	451.72
420.53	456.40
420.72	430.66
420.91	428.32
421.10	402.57
421.29	376.83
421.48	376.83
421.67	458.74
421.86	538.32
422.05	400.23
422.24	433.00
422.43	428.32
422.61	402.57
422.80	447.04
422.99	379.17
423.18	383.85
423.37	397.89
423.56	449.38
423.75	395.55
423.94	409.59
424.13	393.21
424.32	379.17
424.50	404.91
424.69	421.30
424.88	402.57
425.07	397.89
425.26	395.55
425.45	402.57
425.64	400.23
425.83	388.53
426.01	423.64
426.20	393.21
426.39	414.27
426.58	402.57
426.77	367.46
426.96	451.72
427.15	388.53
427.33	402.57
427.52	449.38
427.71	404.91
427.90	409.59
428.09	369.80
428.28	414.27
428.46	393.21
428.65	397.89
428.84	362.78
429.03	423.64
429.22	388.53
429.40	451.72
429.59	344.06
429.78	430.66
429.97	468.11
430.16	386.19
430.34	365.12
430.53	362.78
430.72	395.55
430.91	479.81
431.10	421.30
431.28	372.15
431.47	388.53
431.66	449.38
431.85	407.25
432.03	390.87
432.22	465.77
432.41	362.78
432.60	381.51
432.79	369.80
432.97	440.02
433.16	390.87
433.35	433.00
433.54	376.83
433.72	421.30
433.91	454.06
434.10	423.64
434.28	416.62
434.47	451.72
434.66	444.70
434.85	489.17
435.03	421.30
435.22	442.36
435.41	465.77
435.59	447.04
435.78	402.57
435.97	395.55
436.16	395.55
436.34	362.78
436.53	416.62
436.72	374.49
436.90	435.34
437.09	451.72
437.28	493.85
437.46	390.87
437.65	388.53
437.84	482.15
438.02	428.32
438.21	486.83
438.40	416.62
438.58	454.06
438.77	402.57
438.96	315.97
439.14	360.44
439.33	454.06
439.52	416.62
439.70	402.57
439.89	386.19
440.08	327.68
440.26	440.02
440.45	433.00
440.63	367.46
440.82	505.56
441.01	414.27
441.19	407.25
441.38	418.96
441.57	407.25
441.75	435.34
441.94	425.98
442.12	430.66
442.31	430.66
442.50	388.53
442.68	379.17
442.87	425.98
443.05	381.51
443.24	397.89
443.43	437.68
443.61	449.38
443.80	409.59
443.98	404.91
444.17	423.64
444.35	425.98
444.54	421.30
444.73	400.23
444.91	433.00
445.10	372.15
445.28	418.96
445.47	414.27
445.65	416.62
445.84	376.83
446.02	421.30
446.21	360.44
446.39	402.57
446.58	374.49
446.77	388.53
446.95	348.74
447.14	400.23
447.32	418.96
447.51	397.89
447.69	463.43
447.88	337.04
448.06	430.66
448.25	372.15
448.43	423.64
448.62	362.78
448.80	510.24
448.99	416.62
449.17	430.66
449.36	402.57
449.54	451.72
449.73	374.49
449.91	468.11
450.10	463.43
450.28	440.02
450.46	486.83
450.65	433.00
450.83	451.72
451.02	416.62
451.20	423.64
451.39	407.25
451.57	449.38
451.76	414.27
451.94	386.19
452.13	442.36
452.31	397.89
452.49	355.76
452.68	402.57
452.86	409.59
453.05	444.70
453.23	365.12
453.42	374.49
453.60	379.17
453.78	486.83
453.97	348.74
454.15	386.19
454.34	372.15
454.52	411.93
454.70	449.38
454.89	402.57
455.07	409.59
455.26	390.87
455.44	376.83
455.62	444.70
455.81	423.64
455.99	341.72
456.17	465.77
456.36	402.57
456.54	444.70
456.73	355.76
456.91	440.02
457.09	376.83
457.28	418.96
457.46	430.66
457.64	421.30
457.83	421.30
458.01	428.32
458.19	344.06
458.38	428.32
458.56	400.23
458.74	402.57
458.93	395.55
459.11	388.53
459.29	416.62
459.48	409.59
459.66	465.77
459.84	433.00
460.03	437.68
460.21	463.43
460.39	374.49
460.57	449.38
460.76	418.96
460.94	416.62
461.12	451.72
461.31	493.85
461.49	369.80
461.67	451.72
461.85	449.38
462.04	393.21
462.22	821.53
462.40	416.62
462.59	440.02
462.77	409.59
462.95	418.96
463.13	409.59
463.32	397.89
463.50	433.00
463.68	395.55
463.86	409.59
464.05	465.77
464.23	486.83
464.41	418.96
464.59	472.79
464.78	397.89
464.96	465.77
465.14	435.34
465.32	390.87
465.50	362.78
465.69	400.23
465.87	400.23
466.05	388.53
466.23	433.00
466.41	442.36
466.60	430.66
466.78	428.32
466.96	395.55
467.14	397.89
467.32	433.00
467.51	411.93
467.69	411.93
467.87	430.66
468.05	458.74
468.23	475.13
468.41	421.30
468.60	423.64
468.78	404.91
468.96	416.62
469.14	456.40
469.32	351.08
469.50	433.00
469.69	348.74
469.87	362.78
470.05	393.21
470.23	376.83
470.41	353.42
470.59	414.27
470.77	409.59
470.95	449.38
471.14	395.55
471.32	339.38
471.50	400.23
471.68	379.17
471.86	435.34
472.04	348.74
472.22	421.30
472.40	458.74
472.58	379.17
472.77	449.38
472.95	456.40
473.13	414.27
473.31	479.81
473.49	465.77
473.67	437.68
473.85	400.23
474.03	465.77
474.21	454.06
474.39	465.77
474.57	451.72
474.75	402.57
474.93	341.72
475.12	299.59
475.30	383.85
475.48	304.27
475.66	418.96
475.84	397.89
476.02	400.23
476.20	418.96
476.38	463.43
476.56	468.11
476.74	407.25
476.92	503.22
477.10	458.74
477.28	444.70
477.46	397.89
477.64	411.93
477.82	374.49
478.00	442.36
478.18	437.68
478.36	386.19
478.54	388.53
478.72	374.49
478.90	397.89
479.08	470.45
479.26	395.55
479.44	449.38
479.62	372.15
479.80	440.02
479.98	423.64
480.16	341.72
480.34	416.62
480.52	409.59
480.70	386.19
480.88	341.72
481.06	393.21
481.24	379.17
481.41	451.72
481.59	472.79
481.77	440.02
481.95	348.74
482.13	500.87
482.31	376.83
482.49	360.44
482.67	425.98
482.85	435.34
483.03	430.66
483.21	442.36
483.39	416.62
483.57	397.89
483.74	463.43
483.92	425.98
484.10	344.06
484.28	440.02
484.46	517.26
484.64	472.79
484.82	421.30
485.00	440.02
485.18	374.49
485.35	411.93
485.53	376.83
485.71	447.04
485.89	430.66
486.07	461.09
486.25	433.00
486.43	421.30
486.61	428.32
486.78	379.17
486.96	411.93
487.14	407.25
487.32	449.38
487.50	393.21
487.68	472.79
487.85	407.25
488.03	433.00
488.21	451.72
488.39	360.44
488.57	411.93
488.75	404.91
488.92	507.90
489.10	430.66
489.28	433.00
489.46	514.92
489.64	414.27
489.81	461.09
489.99	491.51
490.17	418.96
490.35	444.70
490.53	458.74
490.70	397.89
490.88	461.09
491.06	458.74
491.24	479.81
491.41	411.93
491.59	435.34
491.77	397.89
491.95	367.46
492.13	433.00
492.30	444.70
492.48	367.46
492.66	517.26
492.84	397.89
493.01	390.87
493.19	428.32
493.37	418.96
493.54	372.15
493.72	477.47
493.90	435.34
494.08	397.89
494.25	386.19
494.43	456.40
494.61	344.06
494.79	386.19
494.96	339.38
495.14	430.66
495.32	421.30
495.49	465.77
495.67	379.17
495.85	337.04
496.02	344.06
496.20	442.36
496.38	461.09
496.55	421.30
496.73	468.11
496.91	425.98
497.09	407.25
497.26	369.80
497.44	360.44
497.62	465.77
497.79	402.57
497.97	477.47
498.14	484.49
498.32	397.89
498.50	379.17
498.67	372.15
498.85	402.57
499.03	337.04
499.20	407.25
499.38	379.17
499.56	454.06
499.73	458.74
499.91	421.30
500.08	414.27
500.26	395.55
500.44	390.87
500.61	362.78
500.79	372.15
500.97	437.68
501.14	407.25
501.32	517.26
501.49	472.79
501.67	461.09
501.84	428.32
502.02	344.06
502.20	449.38
502.37	400.23
502.55	409.59
502.72	493.85
502.90	444.70
503.07	390.87
503.25	449.38
503.43	365.12
503.60	411.93
503.78	388.53
503.95	430.66
504.13	404.91
504.30	458.74
504.48	430.66
504.65	390.87
504.83	360.44
505.01	458.74
505.18	430.66
505.36	372.15
505.53	421.30
505.71	402.57
505.88	442.36
506.06	437.68
506.23	353.42
506.41	393.21
506.58	390.87
506.76	472.79
506.93	435.34
507.11	475.13
507.28	383.85
507.46	374.49
507.63	512.58
507.81	444.70
507.98	437.68
508.16	411.93
508.33	351.08
508.50	451.72
508.68	440.02
508.85	379.17
509.03	404.91
509.20	435.34
509.38	524.28
509.55	407.25
509.73	447.04
509.90	362.78
510.08	388.53
510.25	421.30
510.42	465.77
510.60	362.78
510.77	447.04
510.95	383.85
511.12	425.98
511.30	376.83
511.47	456.40
511.64	367.46
511.82	458.74
511.99	383.85
512.17	425.98
512.34	372.15
512.51	330.02
512.69	414.27
512.86	390.87
513.04	449.38
513.21	442.36
513.38	341.72
513.56	482.15
513.73	430.66
513.90	386.19
514.08	365.12
514.25	482.15
514.43	390.87
514.60	465.77
514.77	393.21
514.95	400.23
515.12	348.74
515.29	418.96
515.47	411.93
515.64	411.93
515.81	414.27
515.99	388.53
516.16	358.10
516.33	430.66
516.51	367.46
516.68	409.59
516.85	477.47
517.03	475.13
517.20	411.93
517.37	425.98
517.54	414.27
517.72	479.81
517.89	369.80
518.06	400.23
518.24	425.98
518.41	418.96
518.58	498.53
518.75	397.89
518.93	444.70
519.10	435.34
519.27	430.66
519.45	421.30
519.62	468.11
519.79	449.38
519.96	402.57
520.14	393.21
520.31	435.34
520.48	416.62
520.65	351.08
520.83	463.43
521.00	414.27
521.17	444.70
521.34	496.19
521.52	411.93
521.69	390.87
521.86	411.93
522.03	374.49
522.20	379.17
522.38	397.89
522.55	428.32
522.72	421.30
522.89	463.43
523.07	421.30
523.24	369.80
523.41	404.91
523.58	388.53
523.75	421.30
523.92	454.06
524.10	362.78
524.27	388.53
524.44	414.27
524.61	430.66
524.78	458.74
524.96	404.91
525.13	404.91
525.30	411.93
525.47	440.02
525.64	421.30
525.81	386.19
525.98	444.70
526.16	451.72
526.33	440.02
526.50	414.27
526.67	430.66
526.84	416.62
527.01	411.93
527.18	365.12
527.36	418.96
527.53	322.99
527.70	383.85
527.87	470.45
528.04	465.77
528.21	456.40
528.38	318.31
528.55	400.23
528.72	379.17
528.89	414.27
529.07	454.06
529.24	407.25
529.41	376.83
529.58	493.85
529.75	416.62
529.92	421.30
530.09	437.68
530.26	472.79
530.43	461.09
530.60	409.59
530.77	477.47
530.94	390.87
531.11	404.91
531.28	407.25
531.46	402.57
531.63	395.55
531.80	390.87
531.97	451.72
532.14	407.25
532.31	393.21
532.48	372.15
532.65	484.49
532.82	404.91
532.99	418.96
533.16	411.93
533.33	421.30
533.50	418.96
533.67	421.30
533.84	414.27
534.01	435.34
534.18	449.38
534.35	440.02
534.52	411.93
534.69	388.53
534.86	425.98
535.03	360.44
535.20	411.93
535.37	418.96
535.54	402.57
535.71	456.40
535.88	447.04
536.05	414.27
536.22	423.64
536.38	442.36
536.55	414.27
536.72	477.47
536.89	409.59
537.06	440.02
537.23	386.19
537.40	390.87
537.57	409.59
537.74	500.87
537.91	461.09
538.08	451.72
538.25	418.96
538.42	421.30
538.59	454.06
538.75	428.32
538.92	425.98
539.09	479.81
539.26	425.98
539.43	440.02
539.60	416.62
539.77	458.74
539.94	400.23
540.11	435.34
540.28	461.09
540.44	491.51
540.61	458.74
540.78	276.18
540.95	414.27
541.12	435.34
541.29	433.00
541.46	479.81
541.62	435.34
541.79	414.27
541.96	388.53
542.13	339.38
542.30	418.96
542.47	374.49
542.63	449.38
542.80	468.11
542.97	472.79
543.14	379.17
543.31	437.68
543.48	435.34
543.64	433.00
543.81	423.64
543.98	451.72
544.15	430.66
544.32	421.30
544.48	411.93
544.65	369.80
544.82	376.83
544.99	395.55
545.16	444.70
545.32	440.02
545.49	425.98
545.66	416.62
545.83	404.91
546.00	353.42
546.16	423.64
546.33	423.64
546.50	388.53
546.67	416.62
546.83	465.77
547.00	411.93
547.17	339.38
547.34	390.87
547.50	440.02
547.67	477.47
547.84	409.59
548.00	421.30
548.17	301.93
548.34	454.06
548.51	449.38
548.67	416.62
548.84	404.91
549.01	484.49
549.18	402.57
549.34	425.98
549.51	444.70
549.68	416.62
549.84	360.44
550.01	437.68
550.18	475.13
550.34	550.03
550.51	437.68
550.68	421.30
550.84	447.04
551.01	388.53
551.18	472.79
551.34	468.11
551.51	416.62
551.68	369.80
551.84	447.04
552.01	463.43
552.18	362.78
552.34	456.40
552.51	468.11
552.68	463.43
552.84	374.49
553.01	379.17
553.18	465.77
553.34	355.76
553.51	397.89
553.67	409.59
553.84	470.45
554.01	416.62
554.17	447.04
554.34	344.06
554.51	465.77
554.67	423.64
554.84	435.34
555.00	372.15
555.17	442.36
555.33	393.21
555.50	411.93
555.67	409.59
555.83	409.59
556.00	491.51
556.16	491.51
556.33	477.47
556.50	341.72
556.66	402.57
556.83	454.06
556.99	400.23
557.16	421.30
557.32	428.32
557.49	376.83
557.65	411.93
557.82	409.59
557.98	414.27
558.15	461.09
558.32	407.25
558.48	365.12
558.65	428.32
558.81	447.04
558.98	376.83
559.14	489.17
559.31	416.62
559.47	437.68
559.64	421.30
559.80	484.49
559.97	468.11
560.13	451.72
560.30	383.85
560.46	409.59
560.63	416.62
560.79	423.64
560.96	430.66
561.12	468.11
561.29	423.64
561.45	376.83
561.61	440.02
561.78	543.00
561.94	468.11
562.11	390.87
562.27	416.62
562.44	330.02
562.60	397.89
562.77	437.68
562.93	447.04
563.10	437.68
563.26	404.91
563.42	416.62
563.59	447.04
563.75	407.25
563.92	440.02
564.08	444.70
564.24	428.32
564.41	491.51
564.57	341.72
564.74	376.83
564.90	442.36
565.07	444.70
565.23	386.19
565.39	339.38
565.56	404.91
565.72	395.55
565.88	395.55
566.05	409.59
566.21	381.51
566.38	442.36
566.54	440.02
566.70	390.87
566.87	447.04
567.03	500.87
567.19	444.70
567.36	437.68
567.52	428.32
567.68	421.30
567.85	496.19
568.01	440.02
568.17	411.93
568.34	388.53
568.50	425.98
568.66	351.08
568.83	416.62
568.99	402.57
569.15	491.51
569.32	440.02
569.48	425.98
569.64	437.68
569.81	400.23
569.97	425.98
570.13	407.25
570.30	351.08
570.46	332.36
570.62	395.55
570.78	411.93
570.95	411.93
571.11	416.62
571.27	407.25
571.43	402.57
571.60	468.11
571.76	411.93
571.92	437.68
572.09	470.45
572.25	376.83
572.41	395.55
572.57	400.23
572.74	442.36
572.90	470.45
573.06	414.27
573.22	461.09
573.38	437.68
573.55	400.23
573.71	437.68
573.87	437.68
574.03	372.15
574.20	447.04
574.36	458.74
574.52	449.38
574.68	477.47
574.84	428.32
575.01	449.38
575.17	397.89
575.33	400.23
575.49	430.66
575.65	435.34
575.82	507.90
575.98	465.77
576.14	411.93
576.30	414.27
576.46	458.74
576.62	407.25
576.79	470.45
576.95	414.27
577.11	447.04
577.27	428.32
577.43	381.51
577.59	388.53
577.75	407.25
577.92	437.68
578.08	397.89
578.24	411.93
578.40	449.38
578.56	458.74
578.72	472.79
578.88	496.19
579.04	379.17
579.21	365.12
579.37	477.47
579.53	404.91
579.69	397.89
579.85	470.45
580.01	463.43
580.17	383.85
580.33	416.62
580.49	444.70
580.65	409.59
580.82	470.45
580.98	407.25
581.14	423.64
581.30	411.93
581.46	461.09
581.62	428.32
581.78	386.19
581.94	461.09
582.10	440.02
582.26	404.91
582.42	393.21
582.58	449.38
582.74	393.21
582.90	374.49
583.06	447.04
583.22	416.62
583.38	395.55
583.54	472.79
583.70	451.72
583.86	447.04
584.02	390.87
584.18	468.11
584.34	491.51
584.50	402.57
584.66	381.51
584.82	402.57
584.98	374.49
585.14	372.15
585.30	559.39
585.46	444.70
585.62	388.53
585.78	421.30
585.94	451.72
586.10	400.23
586.26	381.51
586.42	482.15
586.58	428.32
586.74	348.74
586.90	404.91
587.06	402.57
587.22	433.00
587.38	402.57
587.54	404.91
587.70	418.96
587.86	437.68
588.02	440.02
588.18	369.80
588.34	461.09
588.49	381.51
588.65	465.77
588.81	430.66
588.97	440.02
589.13	376.83
589.29	465.77
589.45	524.28
589.61	447.04
589.77	451.72
589.93	458.74
590.08	409.59
590.24	355.76
590.40	409.59
590.56	482.15
590.72	433.00
590.88	421.30
591.04	437.68
591.20	388.53
591.35	465.77
591.51	360.44
591.67	456.40
591.83	418.96
591.99	472.79
592.15	442.36
592.31	362.78
592.46	388.53
592.62	346.40
592.78	475.13
592.94	386.19
593.10	433.00
593.26	386.19
593.41	468.11
593.57	407.25
593.73	421.30
593.89	437.68
594.05	454.06
594.20	428.32
594.36	390.87
594.52	362.78
594.68	416.62
594.84	397.89
594.99	454.06
595.15	468.11
595.31	421.30
595.47	472.79
595.62	395.55
595.78	369.80
595.94	374.49
596.10	418.96
596.25	456.40
596.41	367.46
596.57	395.55
596.73	428.32
596.88	404.91
597.04	430.66
597.20	444.70
597.36	475.13
597.51	393.21
597.67	365.12
597.83	425.98
597.99	465.77
598.14	404.91
598.30	433.00
598.46	507.90
598.61	428.32
598.77	425.98
598.93	444.70
599.09	344.06
599.24	409.59
599.40	425.98
599.56	390.87
599.71	449.38
599.87	397.89
600.03	414.27
600.18	430.66
600.34	402.57
600.50	428.32
600.65	346.40
600.81	449.38
600.97	421.30
601.12	470.45
601.28	465.77
601.44	418.96
601.59	489.17
601.75	493.85
601.91	475.13
602.06	414.27
602.22	461.09
602.37	428.32
602.53	437.68
602.69	451.72
602.84	491.51
603.00	437.68
603.16	416.62
603.31	456.40
603.47	367.46
603.62	435.34
603.78	416.62
603.94	390.87
604.09	395.55
604.25	423.64
604.40	433.00
604.56	472.79
604.71	372.15
604.87	388.53
605.03	416.62
605.18	435.34
605.34	437.68
605.49	414.27
605.65	418.96
605.80	465.77
605.96	393.21
606.12	402.57
606.27	409.59
606.43	425.98
606.58	409.59
606.74	449.38
606.89	435.34
607.05	414.27
607.20	493.85
607.36	355.76
607.51	369.80
607.67	421.30
607.82	428.32
607.98	500.87
608.13	407.25
608.29	407.25
608.44	437.68
608.60	456.40
608.75	547.69
608.91	435.34
609.06	510.24
609.22	442.36
609.37	346.40
609.53	367.46
609.68	402.57
609.84	374.49
609.99	390.87
610.15	388.53
