SpectraSuite Data File
++++++++++++++++++++++++++++++++++++
Date: Fri Oct 25 12:11:23 EDT 2013
User: price-jones
Dark Spectrum Present: No
Reference Spectrum Present: No
Number of Sampled Component Spectra: 1
Spectrometers: USB2+H05261
Integration Time (usec): 100000 (USB2+H05261)
Spectra Averaged: 1 (USB2+H05261)
Boxcar Smoothing: 0 (USB2+H05261)
Correct for Electrical Dark: No (USB2+H05261)
Strobe/Lamp Enabled: No (USB2+H05261)
Correct for Detector Non-linearity: No (USB2+H05261)
Correct for Stray Light: No (USB2+H05261)
Number of Pixels in Processed Spectrum: 2048
>>>>>Begin Processed Spectral Data<<<<<
365.73	297.25
365.92	297.25
366.12	297.25
366.32	299.59
366.52	224.69
366.72	306.61
366.91	224.69
367.11	259.80
367.31	220.01
367.51	212.99
367.70	271.50
367.90	231.71
368.10	250.44
368.30	276.18
368.49	163.84
368.69	224.69
368.89	269.16
369.09	210.65
369.28	229.37
369.48	248.10
369.68	301.93
369.87	276.18
370.07	297.25
370.27	334.70
370.47	304.27
370.66	294.91
370.86	369.80
371.06	451.72
371.25	430.66
371.45	433.00
371.65	418.96
371.84	447.04
372.04	358.10
372.24	362.78
372.44	311.29
372.63	433.00
372.83	337.04
373.03	477.47
373.22	454.06
373.42	416.62
373.62	437.68
373.81	327.68
374.01	428.32
374.21	461.09
374.40	465.77
374.60	472.79
374.79	425.98
374.99	456.40
375.19	461.09
375.38	440.02
375.58	376.83
375.78	479.81
375.97	430.66
376.17	442.36
376.37	358.10
376.56	346.40
376.76	388.53
376.95	327.68
377.15	437.68
377.35	367.46
377.54	423.64
377.74	411.93
377.93	421.30
378.13	360.44
378.33	416.62
378.52	447.04
378.72	390.87
378.91	379.17
379.11	393.21
379.31	379.17
379.50	411.93
379.70	388.53
379.89	353.42
380.09	454.06
380.28	400.23
380.48	381.51
380.68	383.85
380.87	386.19
381.07	376.83
381.26	367.46
381.46	376.83
381.65	475.13
381.85	425.98
382.04	341.72
382.24	395.55
382.43	372.15
382.63	428.32
382.83	414.27
383.02	470.45
383.22	402.57
383.41	437.68
383.61	313.63
383.80	381.51
384.00	430.66
384.19	339.38
384.39	433.00
384.58	418.96
384.78	372.15
384.97	461.09
385.17	365.12
385.36	444.70
385.56	451.72
385.75	393.21
385.95	404.91
386.14	416.62
386.34	425.98
386.53	418.96
386.72	444.70
386.92	444.70
387.11	388.53
387.31	437.68
387.50	411.93
387.70	437.68
387.89	409.59
388.09	383.85
388.28	367.46
388.48	472.79
388.67	435.34
388.86	416.62
389.06	395.55
389.25	491.51
389.45	407.25
389.64	362.78
389.84	421.30
390.03	334.70
390.22	402.57
390.42	421.30
390.61	416.62
390.81	400.23
391.00	430.66
391.19	372.15
391.39	430.66
391.58	449.38
391.78	430.66
391.97	400.23
392.16	430.66
392.36	428.32
392.55	423.64
392.75	423.64
392.94	372.15
393.13	416.62
393.33	451.72
393.52	433.00
393.71	416.62
393.91	442.36
394.10	442.36
394.29	454.06
394.49	430.66
394.68	397.89
394.88	444.70
395.07	463.43
395.26	320.65
395.46	428.32
395.65	418.96
395.84	400.23
396.04	402.57
396.23	425.98
396.42	360.44
396.62	341.72
396.81	449.38
397.00	414.27
397.19	388.53
397.39	416.62
397.58	367.46
397.77	372.15
397.97	479.81
398.16	442.36
398.35	395.55
398.55	423.64
398.74	386.19
398.93	402.57
399.12	433.00
399.32	482.15
399.51	430.66
399.70	402.57
399.90	407.25
400.09	416.62
400.28	449.38
400.47	339.38
400.67	369.80
400.86	402.57
401.05	437.68
401.24	444.70
401.44	369.80
401.63	374.49
401.82	472.79
402.01	360.44
402.21	437.68
402.40	397.89
402.59	435.34
402.78	365.12
402.97	369.80
403.17	456.40
403.36	404.91
403.55	414.27
403.74	404.91
403.93	498.53
404.13	428.32
404.32	369.80
404.51	376.83
404.70	390.87
404.89	372.15
405.09	376.83
405.28	407.25
405.47	442.36
405.66	395.55
405.85	416.62
406.05	355.76
406.24	362.78
406.43	468.11
406.62	482.15
406.81	433.00
407.00	416.62
407.20	397.89
407.39	334.70
407.58	376.83
407.77	482.15
407.96	430.66
408.15	491.51
408.34	437.68
408.54	423.64
408.73	479.81
408.92	360.44
409.11	386.19
409.30	421.30
409.49	440.02
409.68	458.74
409.87	421.30
410.07	430.66
410.26	365.12
410.45	400.23
410.64	365.12
410.83	383.85
411.02	355.76
411.21	348.74
411.40	369.80
411.59	388.53
411.78	379.17
411.98	437.68
412.17	454.06
412.36	353.42
412.55	440.02
412.74	447.04
412.93	400.23
413.12	374.49
413.31	440.02
413.50	400.23
413.69	416.62
413.88	517.26
414.07	465.77
414.26	379.17
414.45	360.44
414.64	416.62
414.83	337.04
415.02	449.38
415.22	414.27
415.41	451.72
415.60	404.91
415.79	395.55
415.98	386.19
416.17	444.70
416.36	440.02
416.55	353.42
416.74	407.25
416.93	486.83
417.12	421.30
417.31	421.30
417.50	379.17
417.69	461.09
417.88	409.59
418.07	397.89
418.26	449.38
418.45	379.17
418.64	512.58
418.83	444.70
419.02	435.34
419.21	409.59
419.39	454.06
419.58	400.23
419.77	341.72
419.96	367.46
420.15	423.64
420.34	358.10
420.53	440.02
420.72	442.36
420.91	411.93
421.10	414.27
421.29	423.64
421.48	454.06
421.67	461.09
421.86	451.72
422.05	440.02
422.24	400.23
422.43	374.49
422.61	383.85
422.80	496.19
422.99	463.43
423.18	372.15
423.37	409.59
423.56	318.31
423.75	395.55
423.94	388.53
424.13	418.96
424.32	416.62
424.50	390.87
424.69	400.23
424.88	418.96
425.07	381.51
425.26	437.68
425.45	421.30
425.64	388.53
425.83	346.40
426.01	440.02
426.20	435.34
426.39	428.32
426.58	484.49
426.77	463.43
426.96	423.64
427.15	484.49
427.33	421.30
427.52	425.98
427.71	369.80
427.90	402.57
428.09	358.10
428.28	397.89
428.46	416.62
428.65	388.53
428.84	376.83
429.03	404.91
429.22	334.70
429.40	407.25
429.59	416.62
429.78	456.40
429.97	367.46
430.16	451.72
430.34	477.47
430.53	362.78
430.72	449.38
430.91	390.87
431.10	468.11
431.28	416.62
431.47	454.06
431.66	411.93
431.85	397.89
432.03	411.93
432.22	414.27
432.41	418.96
432.60	447.04
432.79	379.17
432.97	400.23
433.16	430.66
433.35	411.93
433.54	395.55
433.72	402.57
433.91	437.68
434.10	409.59
434.28	465.77
434.47	388.53
434.66	369.80
434.85	346.40
435.03	425.98
435.22	458.74
435.41	531.30
435.59	421.30
435.78	374.49
435.97	437.68
436.16	400.23
436.34	449.38
436.53	390.87
436.72	456.40
436.90	442.36
437.09	365.12
437.28	433.00
437.46	500.87
437.65	433.00
437.84	433.00
438.02	402.57
438.21	376.83
438.40	379.17
438.58	437.68
438.77	423.64
438.96	428.32
439.14	402.57
439.33	418.96
439.52	472.79
439.70	435.34
439.89	440.02
440.08	470.45
440.26	449.38
440.45	433.00
440.63	383.85
440.82	442.36
441.01	397.89
441.19	418.96
441.38	418.96
441.57	362.78
441.75	437.68
441.94	430.66
442.12	372.15
442.31	386.19
442.50	402.57
442.68	395.55
442.87	423.64
443.05	465.77
443.24	430.66
443.43	414.27
443.61	390.87
443.80	463.43
443.98	365.12
444.17	346.40
444.35	430.66
444.54	407.25
444.73	381.51
444.91	383.85
445.10	414.27
445.28	383.85
445.47	437.68
445.65	395.55
445.84	456.40
446.02	423.64
446.21	409.59
446.39	442.36
446.58	390.87
446.77	374.49
446.95	421.30
447.14	463.43
447.32	475.13
447.51	390.87
447.69	416.62
447.88	477.47
448.06	456.40
448.25	421.30
448.43	437.68
448.62	346.40
448.80	330.02
448.99	475.13
449.17	430.66
449.36	353.42
449.54	423.64
449.73	430.66
449.91	491.51
450.10	428.32
450.28	388.53
450.46	472.79
450.65	421.30
450.83	404.91
451.02	367.46
451.20	414.27
451.39	407.25
451.57	383.85
451.76	397.89
451.94	423.64
452.13	447.04
452.31	414.27
452.49	416.62
452.68	344.06
452.86	322.99
453.05	477.47
453.23	472.79
453.42	365.12
453.60	423.64
453.78	388.53
453.97	395.55
454.15	402.57
454.34	500.87
454.52	428.32
454.70	465.77
454.89	423.64
455.07	440.02
455.26	376.83
455.44	435.34
455.62	395.55
455.81	409.59
455.99	423.64
456.17	475.13
456.36	418.96
456.54	365.12
456.73	365.12
456.91	437.68
457.09	423.64
457.28	449.38
457.46	470.45
457.64	482.15
457.83	421.30
458.01	437.68
458.19	393.21
458.38	362.78
458.56	351.08
458.74	355.76
458.93	341.72
459.11	381.51
459.29	416.62
459.48	397.89
459.66	381.51
459.84	395.55
460.03	521.94
460.21	425.98
460.39	425.98
460.57	400.23
460.76	388.53
460.94	404.91
461.12	482.15
461.31	451.72
461.49	386.19
461.67	383.85
461.85	360.44
462.04	444.70
462.22	798.12
462.40	409.59
462.59	430.66
462.77	402.57
462.95	409.59
463.13	437.68
463.32	479.81
463.50	477.47
463.68	409.59
463.86	468.11
464.05	414.27
464.23	407.25
464.41	416.62
464.59	437.68
464.78	411.93
464.96	411.93
465.14	465.77
465.32	418.96
465.50	430.66
465.69	444.70
465.87	390.87
466.05	416.62
466.23	409.59
466.41	456.40
466.60	416.62
466.78	416.62
466.96	383.85
467.14	442.36
467.32	388.53
467.51	383.85
467.69	451.72
467.87	409.59
468.05	386.19
468.23	454.06
468.41	458.74
468.60	362.78
468.78	447.04
468.96	470.45
469.14	411.93
469.32	397.89
469.50	437.68
469.69	437.68
469.87	435.34
470.05	425.98
470.23	409.59
470.41	404.91
470.59	402.57
470.77	454.06
470.95	418.96
471.14	470.45
471.32	428.32
471.50	416.62
471.68	400.23
471.86	351.08
472.04	416.62
472.22	390.87
472.40	334.70
472.58	304.27
472.77	348.74
472.95	388.53
473.13	493.85
473.31	372.15
473.49	437.68
473.67	444.70
473.85	411.93
474.03	416.62
474.21	425.98
474.39	470.45
474.57	383.85
474.75	435.34
474.93	428.32
475.12	367.46
475.30	374.49
475.48	407.25
475.66	449.38
475.84	423.64
476.02	369.80
476.20	402.57
476.38	463.43
476.56	456.40
476.74	505.56
476.92	411.93
477.10	458.74
477.28	395.55
477.46	465.77
477.64	411.93
477.82	451.72
478.00	447.04
478.18	421.30
478.36	367.46
478.54	435.34
478.72	395.55
478.90	409.59
479.08	402.57
479.26	346.40
479.44	395.55
479.62	374.49
479.80	400.23
479.98	383.85
480.16	425.98
480.34	376.83
480.52	414.27
480.70	505.56
480.88	414.27
481.06	383.85
481.24	418.96
481.41	409.59
481.59	400.23
481.77	358.10
481.95	369.80
482.13	470.45
482.31	444.70
482.49	374.49
482.67	418.96
482.85	409.59
483.03	397.89
483.21	423.64
483.39	369.80
483.57	468.11
483.74	388.53
483.92	404.91
484.10	442.36
484.28	451.72
484.46	444.70
484.64	416.62
484.82	390.87
485.00	390.87
485.18	425.98
485.35	388.53
485.53	442.36
485.71	552.37
485.89	461.09
486.07	397.89
486.25	409.59
486.43	353.42
486.61	463.43
486.78	475.13
486.96	395.55
487.14	404.91
487.32	355.76
487.50	479.81
487.68	458.74
487.85	442.36
488.03	425.98
488.21	458.74
488.39	421.30
488.57	393.21
488.75	463.43
488.92	477.47
489.10	374.49
489.28	435.34
489.46	395.55
489.64	365.12
489.81	430.66
489.99	461.09
490.17	353.42
490.35	421.30
490.53	379.17
490.70	421.30
490.88	388.53
491.06	386.19
491.24	395.55
491.41	397.89
491.59	365.12
491.77	379.17
491.95	402.57
492.13	402.57
492.30	425.98
492.48	365.12
492.66	437.68
492.84	444.70
493.01	428.32
493.19	393.21
493.37	456.40
493.54	421.30
493.72	449.38
493.90	402.57
494.08	425.98
494.25	423.64
494.43	416.62
494.61	400.23
494.79	379.17
494.96	407.25
495.14	383.85
495.32	337.04
495.49	435.34
495.67	493.85
495.85	470.45
496.02	397.89
496.20	390.87
496.38	414.27
496.55	344.06
496.73	461.09
496.91	386.19
497.09	383.85
497.26	411.93
497.44	465.77
497.62	393.21
497.79	486.83
497.97	404.91
498.14	421.30
498.32	372.15
498.50	505.56
498.67	442.36
498.85	440.02
499.03	428.32
499.20	407.25
499.38	425.98
499.56	423.64
499.73	486.83
499.91	430.66
500.08	463.43
500.26	379.17
500.44	414.27
500.61	409.59
500.79	421.30
500.97	484.49
501.14	386.19
501.32	379.17
501.49	461.09
501.67	416.62
501.84	435.34
502.02	409.59
502.20	351.08
502.37	451.72
502.55	428.32
502.72	386.19
502.90	447.04
503.07	430.66
503.25	365.12
503.43	358.10
503.60	442.36
503.78	395.55
503.95	435.34
504.13	505.56
504.30	376.83
504.48	433.00
504.65	447.04
504.83	400.23
505.01	484.49
505.18	433.00
505.36	449.38
505.53	451.72
505.71	360.44
505.88	440.02
506.06	409.59
506.23	421.30
506.41	409.59
506.58	470.45
506.76	447.04
506.93	411.93
507.11	409.59
507.28	386.19
507.46	428.32
507.63	330.02
507.81	437.68
507.98	435.34
508.16	447.04
508.33	411.93
508.50	451.72
508.68	411.93
508.85	351.08
509.03	330.02
509.20	397.89
509.38	393.21
509.55	388.53
509.73	421.30
509.90	397.89
510.08	404.91
510.25	421.30
510.42	428.32
510.60	376.83
510.77	463.43
510.95	355.76
511.12	374.49
511.30	475.13
511.47	468.11
511.64	444.70
511.82	418.96
511.99	409.59
512.17	451.72
512.34	423.64
512.51	381.51
512.69	428.32
512.86	374.49
513.04	414.27
513.21	388.53
513.38	407.25
513.56	470.45
513.73	407.25
513.90	444.70
514.08	334.70
514.25	461.09
514.43	421.30
514.60	351.08
514.77	374.49
514.95	414.27
515.12	367.46
515.29	393.21
515.47	390.87
515.64	402.57
515.81	404.91
515.99	440.02
516.16	449.38
516.33	421.30
516.51	388.53
516.68	379.17
516.85	454.06
517.03	435.34
517.20	407.25
517.37	404.91
517.54	374.49
517.72	402.57
517.89	414.27
518.06	397.89
518.24	491.51
518.41	435.34
518.58	425.98
518.75	440.02
518.93	400.23
519.10	484.49
519.27	421.30
519.45	421.30
519.62	524.28
519.79	390.87
519.96	470.45
520.14	351.08
520.31	421.30
520.48	362.78
520.65	388.53
520.83	390.87
521.00	428.32
521.17	472.79
521.34	344.06
521.52	449.38
521.69	376.83
521.86	437.68
522.03	409.59
522.20	458.74
522.38	390.87
522.55	451.72
522.72	458.74
522.89	390.87
523.07	465.77
523.24	407.25
523.41	360.44
523.58	397.89
523.75	440.02
523.92	423.64
524.10	486.83
524.27	416.62
524.44	451.72
524.61	491.51
524.78	451.72
524.96	465.77
525.13	395.55
525.30	435.34
525.47	468.11
525.64	475.13
525.81	451.72
525.98	444.70
526.16	379.17
526.33	386.19
526.50	341.72
526.67	372.15
526.84	449.38
527.01	386.19
527.18	428.32
527.36	437.68
527.53	433.00
527.70	400.23
527.87	367.46
528.04	454.06
528.21	482.15
528.38	418.96
528.55	468.11
528.72	374.49
528.89	463.43
529.07	442.36
529.24	418.96
529.41	468.11
529.58	475.13
529.75	430.66
529.92	491.51
530.09	306.61
530.26	493.85
530.43	383.85
530.60	411.93
530.77	423.64
530.94	435.34
531.11	454.06
531.28	402.57
531.46	383.85
531.63	407.25
531.80	461.09
531.97	458.74
532.14	388.53
532.31	411.93
532.48	461.09
532.65	425.98
532.82	423.64
532.99	463.43
533.16	458.74
533.33	444.70
533.50	425.98
533.67	369.80
533.84	383.85
534.01	449.38
534.18	465.77
534.35	458.74
534.52	365.12
534.69	433.00
534.86	407.25
535.03	351.08
535.20	374.49
535.37	454.06
535.54	404.91
535.71	369.80
535.88	451.72
536.05	440.02
536.22	409.59
536.38	444.70
536.55	444.70
536.72	461.09
536.89	414.27
537.06	409.59
537.23	397.89
537.40	379.17
537.57	400.23
537.74	472.79
537.91	425.98
538.08	367.46
538.25	444.70
538.42	510.24
538.59	414.27
538.75	416.62
538.92	440.02
539.09	503.22
539.26	428.32
539.43	416.62
539.60	491.51
539.77	456.40
539.94	451.72
540.11	433.00
540.28	428.32
540.44	444.70
540.61	358.10
540.78	339.38
540.95	414.27
541.12	451.72
541.29	447.04
541.46	451.72
541.62	367.46
541.79	365.12
541.96	404.91
542.13	447.04
542.30	402.57
542.47	416.62
542.63	423.64
542.80	376.83
542.97	437.68
543.14	395.55
543.31	409.59
543.48	404.91
543.64	437.68
543.81	477.47
543.98	421.30
544.15	454.06
544.32	470.45
544.48	397.89
544.65	397.89
544.82	386.19
544.99	397.89
545.16	355.76
545.32	444.70
545.49	369.80
545.66	395.55
545.83	461.09
546.00	433.00
546.16	367.46
546.33	423.64
546.50	423.64
546.67	421.30
546.83	365.12
547.00	407.25
547.17	369.80
547.34	414.27
547.50	376.83
547.67	449.38
547.84	374.49
548.00	383.85
548.17	372.15
548.34	383.85
548.51	381.51
548.67	470.45
548.84	409.59
549.01	454.06
549.18	388.53
549.34	454.06
549.51	461.09
549.68	423.64
549.84	414.27
550.01	435.34
550.18	498.53
550.34	477.47
550.51	430.66
550.68	442.36
550.84	404.91
551.01	472.79
551.18	514.92
551.34	451.72
551.51	433.00
551.68	341.72
551.84	428.32
552.01	456.40
552.18	421.30
552.34	423.64
552.51	332.36
552.68	400.23
552.84	475.13
553.01	484.49
553.18	428.32
553.34	440.02
553.51	433.00
553.67	475.13
553.84	414.27
554.01	458.74
554.17	425.98
554.34	374.49
554.51	442.36
554.67	440.02
554.84	484.49
555.00	416.62
555.17	358.10
555.33	440.02
555.50	407.25
555.67	498.53
555.83	414.27
556.00	442.36
556.16	535.98
556.33	482.15
556.50	341.72
556.66	372.15
556.83	369.80
556.99	381.51
557.16	442.36
557.32	404.91
557.49	440.02
557.65	402.57
557.82	458.74
557.98	388.53
558.15	393.21
558.32	428.32
558.48	444.70
558.65	468.11
558.81	440.02
558.98	418.96
559.14	374.49
559.31	395.55
559.47	454.06
559.64	414.27
559.80	449.38
559.97	430.66
560.13	411.93
560.30	355.76
560.46	414.27
560.63	430.66
560.79	433.00
560.96	463.43
561.12	395.55
561.29	472.79
561.45	416.62
561.61	365.12
561.78	456.40
561.94	374.49
562.11	454.06
562.27	402.57
562.44	418.96
562.60	447.04
562.77	425.98
562.93	475.13
563.10	416.62
563.26	411.93
563.42	421.30
563.59	414.27
563.75	425.98
563.92	425.98
564.08	440.02
564.24	468.11
564.41	468.11
564.57	428.32
564.74	425.98
564.90	416.62
565.07	407.25
565.23	428.32
565.39	374.49
565.56	365.12
565.72	428.32
565.88	428.32
566.05	447.04
566.21	353.42
566.38	414.27
566.54	386.19
566.70	430.66
566.87	416.62
567.03	402.57
567.19	414.27
567.36	421.30
567.52	411.93
567.68	444.70
567.85	397.89
568.01	475.13
568.17	390.87
568.34	449.38
568.50	360.44
568.66	447.04
568.83	491.51
568.99	367.46
569.15	404.91
569.32	402.57
569.48	383.85
569.64	421.30
569.81	428.32
569.97	444.70
570.13	414.27
570.30	416.62
570.46	421.30
570.62	393.21
570.78	416.62
570.95	360.44
571.11	468.11
571.27	421.30
571.43	358.10
571.60	418.96
571.76	362.78
571.92	400.23
572.09	388.53
572.25	381.51
572.41	425.98
572.57	430.66
572.74	404.91
572.90	425.98
573.06	388.53
573.22	437.68
573.38	496.19
573.55	402.57
573.71	440.02
573.87	416.62
574.03	348.74
574.20	376.83
574.36	388.53
574.52	428.32
574.68	444.70
574.84	442.36
575.01	440.02
575.17	451.72
575.33	383.85
575.49	409.59
575.65	517.26
575.82	404.91
575.98	449.38
576.14	411.93
576.30	393.21
576.46	435.34
576.62	456.40
576.79	423.64
576.95	486.83
577.11	327.68
577.27	393.21
577.43	372.15
577.59	451.72
577.75	393.21
577.92	395.55
578.08	468.11
578.24	425.98
578.40	484.49
578.56	493.85
578.72	479.81
578.88	435.34
579.04	393.21
579.21	402.57
579.37	411.93
579.53	437.68
579.69	514.92
579.85	404.91
580.01	421.30
580.17	416.62
580.33	353.42
580.49	447.04
580.65	404.91
580.82	379.17
580.98	440.02
581.14	416.62
581.30	489.17
581.46	470.45
581.62	472.79
581.78	428.32
581.94	397.89
582.10	390.87
582.26	395.55
582.42	376.83
582.58	442.36
582.74	428.32
582.90	418.96
583.06	393.21
583.22	407.25
583.38	404.91
583.54	386.19
583.70	435.34
583.86	498.53
584.02	337.04
584.18	461.09
584.34	400.23
584.50	430.66
584.66	386.19
584.82	437.68
584.98	477.47
585.14	400.23
585.30	514.92
585.46	400.23
585.62	400.23
585.78	411.93
585.94	442.36
586.10	379.17
586.26	388.53
586.42	440.02
586.58	440.02
586.74	442.36
586.90	428.32
587.06	470.45
587.22	388.53
587.38	428.32
587.54	411.93
587.70	400.23
587.86	451.72
588.02	358.10
588.18	451.72
588.34	423.64
588.49	365.12
588.65	390.87
588.81	435.34
588.97	404.91
589.13	421.30
589.29	425.98
589.45	395.55
589.61	407.25
589.77	400.23
589.93	402.57
590.08	367.46
590.24	362.78
590.40	435.34
590.56	440.02
590.72	374.49
590.88	379.17
591.04	430.66
591.20	379.17
591.35	477.47
591.51	465.77
591.67	433.00
591.83	353.42
591.99	435.34
592.15	475.13
592.31	404.91
592.46	421.30
592.62	437.68
592.78	332.36
592.94	397.89
593.10	306.61
593.26	470.45
593.41	425.98
593.57	390.87
593.73	390.87
593.89	360.44
594.05	423.64
594.20	430.66
594.36	482.15
594.52	414.27
594.68	425.98
594.84	421.30
594.99	484.49
595.15	491.51
595.31	395.55
595.47	468.11
595.62	372.15
595.78	379.17
595.94	472.79
596.10	395.55
596.25	383.85
596.41	421.30
596.57	482.15
596.73	409.59
596.88	411.93
597.04	463.43
597.20	454.06
597.36	407.25
597.51	454.06
597.67	463.43
597.83	374.49
597.99	425.98
598.14	362.78
598.30	479.81
598.46	388.53
598.61	484.49
598.77	353.42
598.93	355.76
599.09	395.55
599.24	498.53
599.40	475.13
599.56	409.59
599.71	425.98
599.87	447.04
600.03	409.59
600.18	400.23
600.34	411.93
600.50	444.70
600.65	468.11
600.81	372.15
600.97	418.96
601.12	465.77
601.28	437.68
601.44	444.70
601.59	414.27
601.75	418.96
601.91	418.96
602.06	390.87
602.22	505.56
602.37	414.27
602.53	463.43
602.69	444.70
602.84	418.96
603.00	493.85
603.16	416.62
603.31	461.09
603.47	454.06
603.62	313.63
603.78	390.87
603.94	510.24
604.09	346.40
604.25	395.55
604.40	472.79
604.56	463.43
604.71	447.04
604.87	362.78
605.03	355.76
605.18	444.70
605.34	468.11
605.49	418.96
605.65	423.64
605.80	404.91
605.96	435.34
606.12	418.96
606.27	458.74
606.43	393.21
606.58	395.55
606.74	416.62
606.89	404.91
607.05	395.55
607.20	388.53
607.36	397.89
607.51	374.49
607.67	463.43
607.82	386.19
607.98	444.70
608.13	440.02
608.29	447.04
608.44	367.46
608.60	365.12
608.75	425.98
608.91	369.80
609.06	397.89
609.22	421.30
609.37	393.21
609.53	409.59
609.68	458.74
609.84	437.68
609.99	369.80
610.15	362.78
