SpectraSuite Data File
++++++++++++++++++++++++++++++++++++
Date: Fri Oct 25 12:11:22 EDT 2013
User: price-jones
Dark Spectrum Present: No
Reference Spectrum Present: No
Number of Sampled Component Spectra: 1
Spectrometers: USB2+H05261
Integration Time (usec): 100000 (USB2+H05261)
Spectra Averaged: 1 (USB2+H05261)
Boxcar Smoothing: 0 (USB2+H05261)
Correct for Electrical Dark: No (USB2+H05261)
Strobe/Lamp Enabled: No (USB2+H05261)
Correct for Detector Non-linearity: No (USB2+H05261)
Correct for Stray Light: No (USB2+H05261)
Number of Pixels in Processed Spectrum: 2048
>>>>>Begin Processed Spectral Data<<<<<
365.73	390.87
365.92	390.87
366.12	390.87
366.32	262.14
366.52	290.23
366.72	257.46
366.91	236.39
367.11	215.33
367.31	227.03
367.51	227.03
367.70	215.33
367.90	257.46
368.10	236.39
368.30	243.42
368.49	304.27
368.69	189.58
368.89	304.27
369.09	294.91
369.28	262.14
369.48	234.05
369.68	341.72
369.87	376.83
370.07	245.76
370.27	362.78
370.47	311.29
370.66	341.72
370.86	383.85
371.06	344.06
371.25	423.64
371.45	355.76
371.65	374.49
371.84	430.66
372.04	369.80
372.24	376.83
372.44	393.21
372.63	393.21
372.83	400.23
373.03	482.15
373.22	456.40
373.42	411.93
373.62	411.93
373.81	372.15
374.01	461.09
374.21	388.53
374.40	393.21
374.60	421.30
374.79	423.64
374.99	416.62
375.19	423.64
375.38	475.13
375.58	465.77
375.78	458.74
375.97	484.49
376.17	404.91
376.37	423.64
376.56	365.12
376.76	414.27
376.95	430.66
377.15	454.06
377.35	402.57
377.54	379.17
377.74	353.42
377.93	383.85
378.13	379.17
378.33	383.85
378.52	496.19
378.72	411.93
378.91	435.34
379.11	395.55
379.31	414.27
379.50	407.25
379.70	332.36
379.89	418.96
380.09	386.19
380.28	372.15
380.48	402.57
380.68	435.34
380.87	393.21
381.07	447.04
381.26	414.27
381.46	332.36
381.65	514.92
381.85	435.34
382.04	402.57
382.24	425.98
382.43	461.09
382.63	442.36
382.83	386.19
383.02	465.77
383.22	437.68
383.41	416.62
383.61	360.44
383.80	397.89
384.00	388.53
384.19	327.68
384.39	423.64
384.58	388.53
384.78	444.70
384.97	374.49
385.17	383.85
385.36	386.19
385.56	428.32
385.75	369.80
385.95	411.93
386.14	379.17
386.34	372.15
386.53	337.04
386.72	463.43
386.92	404.91
387.11	397.89
387.31	367.46
387.50	372.15
387.70	393.21
387.89	400.23
388.09	407.25
388.28	395.55
388.48	402.57
388.67	456.40
388.86	400.23
389.06	388.53
389.25	442.36
389.45	414.27
389.64	435.34
389.84	418.96
390.03	437.68
390.22	351.08
390.42	383.85
390.61	425.98
390.81	407.25
391.00	400.23
391.19	475.13
391.39	372.15
391.58	400.23
391.78	447.04
391.97	414.27
392.16	440.02
392.36	341.72
392.55	409.59
392.75	425.98
392.94	337.04
393.13	402.57
393.33	402.57
393.52	376.83
393.71	437.68
393.91	374.49
394.10	463.43
394.29	407.25
394.49	418.96
394.68	365.12
394.88	519.60
395.07	468.11
395.26	428.32
395.46	404.91
395.65	458.74
395.84	428.32
396.04	479.81
396.23	416.62
396.42	353.42
396.62	442.36
396.81	376.83
397.00	428.32
397.19	421.30
397.39	454.06
397.58	416.62
397.77	383.85
397.97	402.57
398.16	400.23
398.35	428.32
398.55	383.85
398.74	468.11
398.93	472.79
399.12	428.32
399.32	428.32
399.51	376.83
399.70	379.17
399.90	409.59
400.09	388.53
400.28	372.15
400.47	400.23
400.67	395.55
400.86	376.83
401.05	416.62
401.24	353.42
401.44	337.04
401.63	407.25
401.82	416.62
402.01	365.12
402.21	372.15
402.40	400.23
402.59	423.64
402.78	444.70
402.97	383.85
403.17	407.25
403.36	402.57
403.55	428.32
403.74	383.85
403.93	393.21
404.13	451.72
404.32	421.30
404.51	332.36
404.70	411.93
404.89	449.38
405.09	416.62
405.28	416.62
405.47	451.72
405.66	444.70
405.85	440.02
406.05	374.49
406.24	407.25
406.43	421.30
406.62	348.74
406.81	468.11
407.00	475.13
407.20	475.13
407.39	407.25
407.58	372.15
407.77	425.98
407.96	395.55
408.15	472.79
408.34	351.08
408.54	458.74
408.73	451.72
408.92	395.55
409.11	407.25
409.30	484.49
409.49	442.36
409.68	447.04
409.87	423.64
410.07	383.85
410.26	332.36
410.45	390.87
410.64	362.78
410.83	435.34
411.02	395.55
411.21	367.46
411.40	386.19
411.59	404.91
411.78	397.89
411.98	376.83
412.17	369.80
412.36	369.80
412.55	418.96
412.74	402.57
412.93	447.04
413.12	341.72
413.31	414.27
413.50	430.66
413.69	393.21
413.88	454.06
414.07	362.78
414.26	386.19
414.45	414.27
414.64	390.87
414.83	433.00
415.02	416.62
415.22	367.46
415.41	374.49
415.60	402.57
415.79	379.17
415.98	411.93
416.17	362.78
416.36	402.57
416.55	367.46
416.74	411.93
416.93	425.98
417.12	369.80
417.31	463.43
417.50	376.83
417.69	482.15
417.88	409.59
418.07	433.00
418.26	454.06
418.45	386.19
418.64	400.23
418.83	339.38
419.02	416.62
419.21	390.87
419.39	365.12
419.58	484.49
419.77	435.34
419.96	468.11
420.15	479.81
420.34	376.83
420.53	393.21
420.72	390.87
420.91	381.51
421.10	409.59
421.29	425.98
421.48	449.38
421.67	454.06
421.86	372.15
422.05	428.32
422.24	358.10
422.43	444.70
422.61	407.25
422.80	437.68
422.99	449.38
423.18	454.06
423.37	362.78
423.56	397.89
423.75	355.76
423.94	297.25
424.13	393.21
424.32	402.57
424.50	465.77
424.69	477.47
424.88	484.49
425.07	402.57
425.26	407.25
425.45	400.23
425.64	325.33
425.83	390.87
426.01	383.85
426.20	346.40
426.39	428.32
426.58	430.66
426.77	414.27
426.96	451.72
427.15	414.27
427.33	379.17
427.52	414.27
427.71	454.06
427.90	435.34
428.09	447.04
428.28	425.98
428.46	411.93
428.65	374.49
428.84	360.44
429.03	447.04
429.22	425.98
429.40	372.15
429.59	414.27
429.78	390.87
429.97	423.64
430.16	411.93
430.34	395.55
430.53	425.98
430.72	409.59
430.91	337.04
431.10	470.45
431.28	447.04
431.47	477.47
431.66	498.53
431.85	407.25
432.03	435.34
432.22	425.98
432.41	388.53
432.60	449.38
432.79	505.56
432.97	430.66
433.16	416.62
433.35	376.83
433.54	374.49
433.72	444.70
433.91	437.68
434.10	411.93
434.28	472.79
434.47	404.91
434.66	407.25
434.85	381.51
435.03	468.11
435.22	428.32
435.41	451.72
435.59	442.36
435.78	433.00
435.97	404.91
436.16	428.32
436.34	407.25
436.53	383.85
436.72	423.64
436.90	379.17
437.09	404.91
437.28	404.91
437.46	416.62
437.65	416.62
437.84	374.49
438.02	376.83
438.21	395.55
438.40	332.36
438.58	390.87
438.77	458.74
438.96	393.21
439.14	369.80
439.33	423.64
439.52	479.81
439.70	440.02
439.89	421.30
440.08	437.68
440.26	414.27
440.45	409.59
440.63	449.38
440.82	411.93
441.01	374.49
441.19	437.68
441.38	440.02
441.57	381.51
441.75	451.72
441.94	442.36
442.12	444.70
442.31	414.27
442.50	400.23
442.68	393.21
442.87	409.59
443.05	348.74
443.24	425.98
443.43	397.89
443.61	489.17
443.80	348.74
443.98	437.68
444.17	468.11
444.35	409.59
444.54	411.93
444.73	400.23
444.91	404.91
445.10	393.21
445.28	334.70
445.47	425.98
445.65	409.59
445.84	428.32
446.02	440.02
446.21	367.46
446.39	425.98
446.58	407.25
446.77	404.91
446.95	374.49
447.14	390.87
447.32	451.72
447.51	388.53
447.69	433.00
447.88	470.45
448.06	454.06
448.25	470.45
448.43	416.62
448.62	397.89
448.80	386.19
448.99	447.04
449.17	454.06
449.36	360.44
449.54	454.06
449.73	425.98
449.91	416.62
450.10	379.17
450.28	486.83
450.46	507.90
450.65	393.21
450.83	428.32
451.02	416.62
451.20	400.23
451.39	390.87
451.57	440.02
451.76	416.62
451.94	411.93
452.13	479.81
452.31	456.40
452.49	397.89
452.68	374.49
452.86	416.62
453.05	433.00
453.23	388.53
453.42	433.00
453.60	386.19
453.78	451.72
453.97	414.27
454.15	397.89
454.34	334.70
454.52	388.53
454.70	454.06
454.89	489.17
455.07	353.42
455.26	449.38
455.44	407.25
455.62	437.68
455.81	423.64
455.99	411.93
456.17	402.57
456.36	400.23
456.54	430.66
456.73	451.72
456.91	397.89
457.09	421.30
457.28	425.98
457.46	393.21
457.64	355.76
457.83	381.51
458.01	449.38
458.19	416.62
458.38	402.57
458.56	465.77
458.74	355.76
458.93	409.59
459.11	393.21
459.29	374.49
459.48	428.32
459.66	393.21
459.84	475.13
460.03	498.53
460.21	423.64
460.39	428.32
460.57	402.57
460.76	421.30
460.94	418.96
461.12	498.53
461.31	465.77
461.49	358.10
461.67	477.47
461.85	433.00
462.04	395.55
462.22	795.78
462.40	454.06
462.59	388.53
462.77	404.91
462.95	425.98
463.13	390.87
463.32	463.43
463.50	498.53
463.68	463.43
463.86	442.36
464.05	470.45
464.23	465.77
464.41	381.51
464.59	367.46
464.78	447.04
464.96	416.62
465.14	433.00
465.32	379.17
465.50	454.06
465.69	409.59
465.87	351.08
466.05	409.59
466.23	339.38
466.41	423.64
466.60	397.89
466.78	437.68
466.96	407.25
467.14	442.36
467.32	437.68
467.51	320.65
467.69	475.13
467.87	449.38
468.05	440.02
468.23	428.32
468.41	491.51
468.60	381.51
468.78	447.04
468.96	440.02
469.14	404.91
469.32	425.98
469.50	407.25
469.69	451.72
469.87	458.74
470.05	433.00
470.23	437.68
470.41	351.08
470.59	397.89
470.77	404.91
470.95	383.85
471.14	411.93
471.32	425.98
471.50	468.11
471.68	444.70
471.86	425.98
472.04	346.40
472.22	407.25
472.40	341.72
472.58	411.93
472.77	386.19
472.95	355.76
473.13	411.93
473.31	489.17
473.49	416.62
473.67	444.70
473.85	433.00
474.03	409.59
474.21	442.36
474.39	425.98
474.57	430.66
474.75	454.06
474.93	451.72
475.12	322.99
475.30	400.23
475.48	360.44
475.66	444.70
475.84	444.70
476.02	428.32
476.20	486.83
476.38	437.68
476.56	463.43
476.74	442.36
476.92	374.49
477.10	369.80
477.28	440.02
477.46	404.91
477.64	451.72
477.82	465.77
478.00	376.83
478.18	428.32
478.36	442.36
478.54	411.93
478.72	360.44
478.90	465.77
479.08	393.21
479.26	491.51
479.44	493.85
479.62	475.13
479.80	447.04
479.98	425.98
480.16	353.42
480.34	416.62
480.52	360.44
480.70	404.91
480.88	442.36
481.06	360.44
481.24	407.25
481.41	428.32
481.59	421.30
481.77	454.06
481.95	388.53
482.13	444.70
482.31	435.34
482.49	374.49
482.67	379.17
482.85	411.93
483.03	402.57
483.21	421.30
483.39	461.09
483.57	475.13
483.74	423.64
483.92	372.15
484.10	397.89
484.28	482.15
484.46	463.43
484.64	423.64
484.82	423.64
485.00	386.19
485.18	379.17
485.35	369.80
485.53	400.23
485.71	451.72
485.89	425.98
486.07	386.19
486.25	449.38
486.43	440.02
486.61	423.64
486.78	411.93
486.96	404.91
487.14	440.02
487.32	404.91
487.50	379.17
487.68	390.87
487.85	414.27
488.03	411.93
488.21	414.27
488.39	421.30
488.57	421.30
488.75	472.79
488.92	458.74
489.10	358.10
489.28	454.06
489.46	390.87
489.64	484.49
489.81	367.46
489.99	433.00
490.17	407.25
490.35	383.85
490.53	435.34
490.70	465.77
490.88	437.68
491.06	358.10
491.24	425.98
491.41	402.57
491.59	430.66
491.77	388.53
491.95	458.74
492.13	421.30
492.30	402.57
492.48	374.49
492.66	402.57
492.84	425.98
493.01	454.06
493.19	449.38
493.37	514.92
493.54	423.64
493.72	395.55
493.90	442.36
494.08	458.74
494.25	451.72
494.43	447.04
494.61	388.53
494.79	423.64
494.96	390.87
495.14	423.64
495.32	365.12
495.49	381.51
495.67	402.57
495.85	390.87
496.02	376.83
496.20	383.85
496.38	374.49
496.55	447.04
496.73	430.66
496.91	353.42
497.09	521.94
497.26	468.11
497.44	416.62
497.62	421.30
497.79	416.62
497.97	465.77
498.14	442.36
498.32	430.66
498.50	414.27
498.67	498.53
498.85	456.40
499.03	416.62
499.20	402.57
499.38	337.04
499.56	416.62
499.73	475.13
499.91	477.47
500.08	507.90
500.26	423.64
500.44	416.62
500.61	477.47
500.79	395.55
500.97	430.66
501.14	465.77
501.32	428.32
501.49	519.60
501.67	470.45
501.84	386.19
502.02	472.79
502.20	493.85
502.37	416.62
502.55	440.02
502.72	458.74
502.90	440.02
503.07	423.64
503.25	447.04
503.43	428.32
503.60	418.96
503.78	428.32
503.95	358.10
504.13	414.27
504.30	430.66
504.48	475.13
504.65	435.34
504.83	341.72
505.01	428.32
505.18	362.78
505.36	423.64
505.53	416.62
505.71	365.12
505.88	458.74
506.06	414.27
506.23	358.10
506.41	400.23
506.58	447.04
506.76	503.22
506.93	388.53
507.11	454.06
507.28	358.10
507.46	402.57
507.63	421.30
507.81	374.49
507.98	430.66
508.16	395.55
508.33	383.85
508.50	390.87
508.68	463.43
508.85	397.89
509.03	402.57
509.20	425.98
509.38	444.70
509.55	470.45
509.73	423.64
509.90	442.36
510.08	369.80
510.25	444.70
510.42	409.59
510.60	381.51
510.77	414.27
510.95	400.23
511.12	437.68
511.30	475.13
511.47	454.06
511.64	414.27
511.82	454.06
511.99	458.74
512.17	461.09
512.34	416.62
512.51	421.30
512.69	498.53
512.86	463.43
513.04	332.36
513.21	421.30
513.38	447.04
513.56	397.89
513.73	369.80
513.90	421.30
514.08	423.64
514.25	402.57
514.43	470.45
514.60	376.83
514.77	395.55
514.95	423.64
515.12	437.68
515.29	379.17
515.47	423.64
515.64	442.36
515.81	440.02
515.99	458.74
516.16	435.34
516.33	468.11
516.51	421.30
516.68	411.93
516.85	379.17
517.03	393.21
517.20	477.47
517.37	433.00
517.54	421.30
517.72	423.64
517.89	397.89
518.06	353.42
518.24	454.06
518.41	468.11
518.58	423.64
518.75	381.51
518.93	379.17
519.10	416.62
519.27	416.62
519.45	433.00
519.62	411.93
519.79	423.64
519.96	416.62
520.14	433.00
520.31	411.93
520.48	351.08
520.65	355.76
520.83	430.66
521.00	360.44
521.17	444.70
521.34	407.25
521.52	407.25
521.69	444.70
521.86	402.57
522.03	397.89
522.20	461.09
522.38	418.96
522.55	390.87
522.72	444.70
522.89	442.36
523.07	477.47
523.24	409.59
523.41	496.19
523.58	433.00
523.75	407.25
523.92	327.68
524.10	486.83
524.27	461.09
524.44	393.21
524.61	444.70
524.78	421.30
524.96	479.81
525.13	458.74
525.30	367.46
525.47	435.34
525.64	416.62
525.81	395.55
525.98	425.98
526.16	409.59
526.33	386.19
526.50	418.96
526.67	454.06
526.84	423.64
527.01	402.57
527.18	393.21
527.36	437.68
527.53	444.70
527.70	470.45
527.87	430.66
528.04	435.34
528.21	353.42
528.38	404.91
528.55	470.45
528.72	472.79
528.89	404.91
529.07	402.57
529.24	498.53
529.41	433.00
529.58	390.87
529.75	444.70
529.92	468.11
530.09	433.00
530.26	353.42
530.43	383.85
530.60	421.30
530.77	390.87
530.94	374.49
531.11	395.55
531.28	454.06
531.46	379.17
531.63	388.53
531.80	395.55
531.97	418.96
532.14	414.27
532.31	400.23
532.48	416.62
532.65	416.62
532.82	421.30
532.99	468.11
533.16	388.53
533.33	430.66
533.50	458.74
533.67	433.00
533.84	484.49
534.01	367.46
534.18	358.10
534.35	409.59
534.52	407.25
534.69	465.77
534.86	409.59
535.03	390.87
535.20	379.17
535.37	451.72
535.54	421.30
535.71	409.59
535.88	383.85
536.05	458.74
536.22	421.30
536.38	407.25
536.55	484.49
536.72	444.70
536.89	379.17
537.06	407.25
537.23	397.89
537.40	444.70
537.57	437.68
537.74	449.38
537.91	425.98
538.08	470.45
538.25	433.00
538.42	416.62
538.59	425.98
538.75	421.30
538.92	461.09
539.09	482.15
539.26	425.98
539.43	428.32
539.60	454.06
539.77	440.02
539.94	330.02
540.11	433.00
540.28	430.66
540.44	390.87
540.61	365.12
540.78	372.15
540.95	390.87
541.12	472.79
541.29	381.51
541.46	362.78
541.62	425.98
541.79	472.79
541.96	437.68
542.13	437.68
542.30	421.30
542.47	409.59
542.63	449.38
542.80	360.44
542.97	463.43
543.14	397.89
543.31	444.70
543.48	376.83
543.64	425.98
543.81	395.55
543.98	411.93
544.15	334.70
544.32	388.53
544.48	416.62
544.65	428.32
544.82	470.45
544.99	428.32
545.16	437.68
545.32	358.10
545.49	383.85
545.66	430.66
545.83	409.59
546.00	423.64
546.16	418.96
546.33	411.93
546.50	416.62
546.67	507.90
546.83	393.21
547.00	404.91
547.17	409.59
547.34	437.68
547.50	425.98
547.67	433.00
547.84	397.89
548.00	423.64
548.17	411.93
548.34	395.55
548.51	421.30
548.67	428.32
548.84	503.22
549.01	402.57
549.18	421.30
549.34	451.72
549.51	402.57
549.68	379.17
549.84	416.62
550.01	407.25
550.18	493.85
550.34	430.66
550.51	411.93
550.68	411.93
550.84	390.87
551.01	418.96
551.18	512.58
551.34	397.89
551.51	362.78
551.68	344.06
551.84	435.34
552.01	397.89
552.18	395.55
552.34	409.59
552.51	418.96
552.68	346.40
552.84	407.25
553.01	430.66
553.18	397.89
553.34	423.64
553.51	365.12
553.67	428.32
553.84	468.11
554.01	505.56
554.17	458.74
554.34	458.74
554.51	402.57
554.67	451.72
554.84	421.30
555.00	388.53
555.17	437.68
555.33	491.51
555.50	470.45
555.67	388.53
555.83	451.72
556.00	400.23
556.16	540.66
556.33	418.96
556.50	397.89
556.66	428.32
556.83	327.68
556.99	379.17
557.16	369.80
557.32	397.89
557.49	421.30
557.65	421.30
557.82	337.04
557.98	442.36
558.15	358.10
558.32	500.87
558.48	397.89
558.65	418.96
558.81	451.72
558.98	386.19
559.14	486.83
559.31	496.19
559.47	393.21
559.64	346.40
559.80	461.09
559.97	369.80
560.13	430.66
560.30	435.34
560.46	454.06
560.63	442.36
560.79	435.34
560.96	407.25
561.12	423.64
561.29	397.89
561.45	379.17
561.61	421.30
561.78	505.56
561.94	444.70
562.11	381.51
562.27	447.04
562.44	454.06
562.60	512.58
562.77	358.10
562.93	517.26
563.10	423.64
563.26	351.08
563.42	470.45
563.59	442.36
563.75	400.23
563.92	423.64
564.08	437.68
564.24	416.62
564.41	454.06
564.57	454.06
564.74	433.00
564.90	456.40
565.07	433.00
565.23	407.25
565.39	463.43
565.56	433.00
565.72	397.89
565.88	395.55
566.05	400.23
566.21	465.77
566.38	421.30
566.54	407.25
566.70	477.47
566.87	414.27
567.03	409.59
567.19	470.45
567.36	454.06
567.52	510.24
567.68	313.63
567.85	383.85
568.01	381.51
568.17	409.59
568.34	395.55
568.50	440.02
568.66	400.23
568.83	440.02
568.99	423.64
569.15	451.72
569.32	425.98
569.48	444.70
569.64	397.89
569.81	435.34
569.97	418.96
570.13	442.36
570.30	404.91
570.46	440.02
570.62	402.57
570.78	388.53
570.95	440.02
571.11	491.51
571.27	472.79
571.43	348.74
571.60	362.78
571.76	362.78
571.92	383.85
572.09	390.87
572.25	402.57
572.41	362.78
572.57	430.66
572.74	472.79
572.90	475.13
573.06	463.43
573.22	486.83
573.38	409.59
573.55	468.11
573.71	411.93
573.87	421.30
574.03	381.51
574.20	423.64
574.36	411.93
574.52	407.25
574.68	369.80
574.84	433.00
575.01	423.64
575.17	397.89
575.33	383.85
575.49	463.43
575.65	456.40
575.82	437.68
575.98	428.32
576.14	411.93
576.30	423.64
576.46	393.21
576.62	463.43
576.79	416.62
576.95	444.70
577.11	433.00
577.27	423.64
577.43	409.59
577.59	428.32
577.75	404.91
577.92	390.87
578.08	379.17
578.24	393.21
578.40	468.11
578.56	411.93
578.72	500.87
578.88	442.36
579.04	386.19
579.21	458.74
579.37	407.25
579.53	437.68
579.69	512.58
579.85	433.00
580.01	381.51
580.17	362.78
580.33	407.25
580.49	358.10
580.65	411.93
580.82	447.04
580.98	428.32
581.14	404.91
581.30	393.21
581.46	479.81
581.62	402.57
581.78	435.34
581.94	461.09
582.10	430.66
582.26	428.32
582.42	458.74
582.58	374.49
582.74	418.96
582.90	477.47
583.06	411.93
583.22	447.04
583.38	397.89
583.54	360.44
583.70	458.74
583.86	430.66
584.02	465.77
584.18	454.06
584.34	346.40
584.50	320.65
584.66	430.66
584.82	383.85
584.98	395.55
585.14	437.68
585.30	390.87
585.46	430.66
585.62	430.66
585.78	381.51
585.94	447.04
586.10	449.38
586.26	355.76
586.42	505.56
586.58	493.85
586.74	442.36
586.90	477.47
587.06	435.34
587.22	465.77
587.38	411.93
587.54	388.53
587.70	454.06
587.86	484.49
588.02	372.15
588.18	477.47
588.34	402.57
588.49	348.74
588.65	423.64
588.81	414.27
588.97	381.51
589.13	454.06
589.29	463.43
589.45	484.49
589.61	409.59
589.77	442.36
589.93	442.36
590.08	346.40
590.24	372.15
590.40	444.70
590.56	435.34
590.72	423.64
590.88	376.83
591.04	381.51
591.20	379.17
591.35	411.93
591.51	444.70
591.67	393.21
591.83	383.85
591.99	414.27
592.15	484.49
592.31	433.00
592.46	395.55
592.62	430.66
592.78	407.25
592.94	440.02
593.10	425.98
593.26	353.42
593.41	425.98
593.57	390.87
593.73	397.89
593.89	374.49
594.05	383.85
594.20	425.98
594.36	421.30
594.52	435.34
594.68	390.87
594.84	503.22
594.99	470.45
595.15	461.09
595.31	491.51
595.47	433.00
595.62	447.04
595.78	397.89
595.94	458.74
596.10	449.38
596.25	444.70
596.41	477.47
596.57	444.70
596.73	416.62
596.88	433.00
597.04	444.70
597.20	407.25
597.36	430.66
597.51	374.49
597.67	332.36
597.83	383.85
597.99	390.87
598.14	414.27
598.30	414.27
598.46	376.83
598.61	411.93
598.77	451.72
598.93	351.08
599.09	444.70
599.24	447.04
599.40	400.23
599.56	409.59
599.71	470.45
599.87	395.55
600.03	451.72
600.18	465.77
600.34	416.62
600.50	383.85
600.65	388.53
600.81	465.77
600.97	435.34
601.12	400.23
601.28	423.64
601.44	444.70
601.59	374.49
601.75	444.70
601.91	383.85
602.06	425.98
602.22	514.92
602.37	411.93
602.53	418.96
602.69	449.38
602.84	416.62
603.00	444.70
603.16	444.70
603.31	395.55
603.47	428.32
603.62	337.04
603.78	381.51
603.94	433.00
604.09	386.19
604.25	437.68
604.40	435.34
604.56	416.62
604.71	442.36
604.87	416.62
605.03	437.68
605.18	430.66
605.34	414.27
605.49	390.87
605.65	376.83
605.80	383.85
605.96	407.25
606.12	414.27
606.27	425.98
606.43	407.25
606.58	409.59
606.74	346.40
606.89	369.80
607.05	444.70
607.20	444.70
607.36	421.30
607.51	400.23
607.67	414.27
607.82	475.13
607.98	341.72
608.13	393.21
608.29	479.81
608.44	463.43
608.60	447.04
608.75	468.11
608.91	386.19
609.06	433.00
609.22	423.64
609.37	437.68
609.53	348.74
609.68	402.57
609.84	365.12
609.99	444.70
610.15	456.40
