SpectraSuite Data File
++++++++++++++++++++++++++++++++++++
Date: Fri Oct 25 12:10:12 EDT 2013
User: price-jones
Dark Spectrum Present: No
Reference Spectrum Present: No
Number of Sampled Component Spectra: 1
Spectrometers: USB2+H05261
Integration Time (usec): 100000 (USB2+H05261)
Spectra Averaged: 1 (USB2+H05261)
Boxcar Smoothing: 0 (USB2+H05261)
Correct for Electrical Dark: No (USB2+H05261)
Strobe/Lamp Enabled: No (USB2+H05261)
Correct for Detector Non-linearity: No (USB2+H05261)
Correct for Stray Light: No (USB2+H05261)
Number of Pixels in Processed Spectrum: 2048
>>>>>Begin Processed Spectral Data<<<<<
365.73	299.59
365.92	299.59
366.12	299.59
366.32	248.10
366.52	252.78
366.72	313.63
366.91	297.25
367.11	236.39
367.31	154.48
367.51	245.76
367.70	236.39
367.90	292.57
368.10	173.20
368.30	238.73
368.49	243.42
368.69	189.58
368.89	203.63
369.09	325.33
369.28	252.78
369.48	241.08
369.68	285.55
369.87	299.59
370.07	283.20
370.27	337.04
370.47	397.89
370.66	346.40
370.86	330.02
371.06	346.40
371.25	437.68
371.45	341.72
371.65	390.87
371.84	416.62
372.04	404.91
372.24	465.77
372.44	428.32
372.63	320.65
372.83	486.83
373.03	358.10
373.22	372.15
373.42	372.15
373.62	458.74
373.81	456.40
374.01	416.62
374.21	435.34
374.40	423.64
374.60	383.85
374.79	376.83
374.99	418.96
375.19	421.30
375.38	477.47
375.58	435.34
375.78	372.15
375.97	376.83
376.17	437.68
376.37	414.27
376.56	388.53
376.76	397.89
376.95	383.85
377.15	468.11
377.35	411.93
377.54	374.49
377.74	416.62
377.93	381.51
378.13	447.04
378.33	468.11
378.52	407.25
378.72	404.91
378.91	425.98
379.11	395.55
379.31	418.96
379.50	433.00
379.70	416.62
379.89	386.19
380.09	404.91
380.28	325.33
380.48	388.53
380.68	339.38
380.87	369.80
381.07	418.96
381.26	425.98
381.46	365.12
381.65	409.59
381.85	430.66
382.04	390.87
382.24	479.81
382.43	397.89
382.63	404.91
382.83	367.46
383.02	444.70
383.22	451.72
383.41	351.08
383.61	418.96
383.80	430.66
384.00	388.53
384.19	409.59
384.39	369.80
384.58	381.51
384.78	433.00
384.97	372.15
385.17	414.27
385.36	351.08
385.56	369.80
385.75	407.25
385.95	376.83
386.14	390.87
386.34	381.51
386.53	374.49
386.72	390.87
386.92	421.30
387.11	360.44
387.31	411.93
387.50	428.32
387.70	400.23
387.89	468.11
388.09	322.99
388.28	456.40
388.48	449.38
388.67	402.57
388.86	397.89
389.06	414.27
389.25	463.43
389.45	461.09
389.64	442.36
389.84	449.38
390.03	423.64
390.22	390.87
390.42	444.70
390.61	409.59
390.81	388.53
391.00	433.00
391.19	376.83
391.39	456.40
391.58	414.27
391.78	411.93
391.97	395.55
392.16	421.30
392.36	355.76
392.55	550.03
392.75	337.04
392.94	376.83
393.13	372.15
393.33	386.19
393.52	416.62
393.71	414.27
393.91	437.68
394.10	414.27
394.29	367.46
394.49	430.66
394.68	383.85
394.88	430.66
395.07	421.30
395.26	411.93
395.46	418.96
395.65	372.15
395.84	367.46
396.04	482.15
396.23	411.93
396.42	416.62
396.62	458.74
396.81	461.09
397.00	393.21
397.19	416.62
397.39	386.19
397.58	491.51
397.77	313.63
397.97	341.72
398.16	287.89
398.35	369.80
398.55	390.87
398.74	421.30
398.93	465.77
399.12	383.85
399.32	407.25
399.51	402.57
399.70	409.59
399.90	402.57
400.09	400.23
400.28	458.74
400.47	395.55
400.67	376.83
400.86	428.32
401.05	458.74
401.24	416.62
401.44	447.04
401.63	374.49
401.82	461.09
402.01	369.80
402.21	383.85
402.40	395.55
402.59	306.61
402.78	360.44
402.97	397.89
403.17	383.85
403.36	449.38
403.55	376.83
403.74	353.42
403.93	428.32
404.13	447.04
404.32	379.17
404.51	411.93
404.70	400.23
404.89	330.02
405.09	393.21
405.28	341.72
405.47	397.89
405.66	379.17
405.85	463.43
406.05	463.43
406.24	479.81
406.43	367.46
406.62	374.49
406.81	451.72
407.00	376.83
407.20	435.34
407.39	397.89
407.58	444.70
407.77	425.98
407.96	379.17
408.15	423.64
408.34	400.23
408.54	381.51
408.73	393.21
408.92	407.25
409.11	451.72
409.30	440.02
409.49	411.93
409.68	386.19
409.87	358.10
410.07	404.91
410.26	411.93
410.45	397.89
410.64	376.83
410.83	383.85
411.02	433.00
411.21	437.68
411.40	404.91
411.59	430.66
411.78	322.99
411.98	395.55
412.17	332.36
412.36	353.42
412.55	376.83
412.74	365.12
412.93	435.34
413.12	397.89
413.31	489.17
413.50	568.75
413.69	416.62
413.88	407.25
414.07	400.23
414.26	379.17
414.45	393.21
414.64	479.81
414.83	430.66
415.02	447.04
415.22	400.23
415.41	477.47
415.60	397.89
415.79	386.19
415.98	477.47
416.17	447.04
416.36	376.83
416.55	393.21
416.74	400.23
416.93	383.85
417.12	430.66
417.31	383.85
417.50	451.72
417.69	475.13
417.88	383.85
418.07	395.55
418.26	414.27
418.45	397.89
418.64	433.00
418.83	433.00
419.02	430.66
419.21	386.19
419.39	423.64
419.58	353.42
419.77	397.89
419.96	416.62
420.15	404.91
420.34	383.85
420.53	346.40
420.72	428.32
420.91	320.65
421.10	386.19
421.29	383.85
421.48	397.89
421.67	397.89
421.86	425.98
422.05	409.59
422.24	440.02
422.43	456.40
422.61	388.53
422.80	440.02
422.99	327.68
423.18	407.25
423.37	404.91
423.56	383.85
423.75	456.40
423.94	430.66
424.13	395.55
424.32	421.30
424.50	440.02
424.69	440.02
424.88	421.30
425.07	372.15
425.26	425.98
425.45	386.19
425.64	374.49
425.83	353.42
426.01	416.62
426.20	458.74
426.39	411.93
426.58	348.74
426.77	428.32
426.96	390.87
427.15	411.93
427.33	395.55
427.52	397.89
427.71	421.30
427.90	400.23
428.09	376.83
428.28	402.57
428.46	400.23
428.65	388.53
428.84	435.34
429.03	409.59
429.22	411.93
429.40	400.23
429.59	355.76
429.78	425.98
429.97	390.87
430.16	404.91
430.34	444.70
430.53	400.23
430.72	423.64
430.91	383.85
431.10	383.85
431.28	367.46
431.47	433.00
431.66	440.02
431.85	346.40
432.03	395.55
432.22	447.04
432.41	437.68
432.60	416.62
432.79	374.49
432.97	414.27
433.16	379.17
433.35	430.66
433.54	341.72
433.72	404.91
433.91	433.00
434.10	440.02
434.28	435.34
434.47	458.74
434.66	393.21
434.85	437.68
435.03	386.19
435.22	486.83
435.41	477.47
435.59	433.00
435.78	435.34
435.97	449.38
436.16	369.80
436.34	437.68
436.53	433.00
436.72	339.38
436.90	397.89
437.09	379.17
437.28	421.30
437.46	348.74
437.65	493.85
437.84	433.00
438.02	418.96
438.21	454.06
438.40	451.72
438.58	353.42
438.77	372.15
438.96	365.12
439.14	435.34
439.33	444.70
439.52	451.72
439.70	376.83
439.89	458.74
440.08	409.59
440.26	407.25
440.45	456.40
440.63	372.15
440.82	449.38
441.01	418.96
441.19	404.91
441.38	463.43
441.57	374.49
441.75	437.68
441.94	465.77
442.12	411.93
442.31	449.38
442.50	409.59
442.68	407.25
442.87	362.78
443.05	470.45
443.24	433.00
443.43	444.70
443.61	463.43
443.80	355.76
443.98	423.64
444.17	456.40
444.35	465.77
444.54	388.53
444.73	425.98
444.91	362.78
445.10	360.44
445.28	477.47
445.47	358.10
445.65	421.30
445.84	428.32
446.02	390.87
446.21	355.76
446.39	344.06
446.58	393.21
446.77	425.98
446.95	395.55
447.14	440.02
447.32	468.11
447.51	423.64
447.69	437.68
447.88	428.32
448.06	418.96
448.25	444.70
448.43	418.96
448.62	393.21
448.80	397.89
448.99	456.40
449.17	440.02
449.36	411.93
449.54	444.70
449.73	433.00
449.91	360.44
450.10	400.23
450.28	433.00
450.46	484.49
450.65	461.09
450.83	425.98
451.02	400.23
451.20	416.62
451.39	388.53
451.57	360.44
451.76	449.38
451.94	447.04
452.13	456.40
452.31	433.00
452.49	425.98
452.68	381.51
452.86	435.34
453.05	503.22
453.23	472.79
453.42	376.83
453.60	442.36
453.78	386.19
453.97	337.04
454.15	463.43
454.34	346.40
454.52	433.00
454.70	430.66
454.89	386.19
455.07	390.87
455.26	416.62
455.44	451.72
455.62	367.46
455.81	444.70
455.99	360.44
456.17	444.70
456.36	369.80
456.54	414.27
456.73	444.70
456.91	437.68
457.09	437.68
457.28	414.27
457.46	388.53
457.64	437.68
457.83	437.68
458.01	346.40
458.19	383.85
458.38	400.23
458.56	365.12
458.74	390.87
458.93	407.25
459.11	444.70
459.29	430.66
459.48	344.06
459.66	498.53
459.84	430.66
460.03	498.53
460.21	475.13
460.39	386.19
460.57	395.55
460.76	365.12
460.94	315.97
461.12	372.15
461.31	430.66
461.49	404.91
461.67	395.55
461.85	379.17
462.04	454.06
462.22	753.65
462.40	475.13
462.59	367.46
462.77	374.49
462.95	433.00
463.13	390.87
463.32	440.02
463.50	468.11
463.68	414.27
463.86	472.79
464.05	311.29
464.23	463.43
464.41	404.91
464.59	372.15
464.78	409.59
464.96	451.72
465.14	416.62
465.32	463.43
465.50	472.79
465.69	409.59
465.87	444.70
466.05	393.21
466.23	423.64
466.41	484.49
466.60	397.89
466.78	409.59
466.96	390.87
467.14	475.13
467.32	315.97
467.51	379.17
467.69	440.02
467.87	437.68
468.05	381.51
468.23	437.68
468.41	416.62
468.60	362.78
468.78	411.93
468.96	374.49
469.14	421.30
469.32	395.55
469.50	418.96
469.69	435.34
469.87	376.83
470.05	325.33
470.23	456.40
470.41	418.96
470.59	332.36
470.77	374.49
470.95	400.23
471.14	400.23
471.32	400.23
471.50	400.23
471.68	402.57
471.86	376.83
472.04	374.49
472.22	456.40
472.40	482.15
472.58	440.02
472.77	381.51
472.95	362.78
473.13	411.93
473.31	402.57
473.49	402.57
473.67	390.87
473.85	404.91
474.03	444.70
474.21	437.68
474.39	470.45
474.57	451.72
474.75	367.46
474.93	409.59
475.12	346.40
475.30	388.53
475.48	430.66
475.66	411.93
475.84	440.02
476.02	456.40
476.20	360.44
476.38	454.06
476.56	505.56
476.74	414.27
476.92	423.64
477.10	393.21
477.28	414.27
477.46	374.49
477.64	454.06
477.82	423.64
478.00	383.85
478.18	330.02
478.36	421.30
478.54	400.23
478.72	381.51
478.90	369.80
479.08	379.17
479.26	430.66
479.44	416.62
479.62	402.57
479.80	444.70
479.98	365.12
480.16	395.55
480.34	390.87
480.52	437.68
480.70	379.17
480.88	386.19
481.06	395.55
481.24	407.25
481.41	395.55
481.59	454.06
481.77	454.06
481.95	414.27
482.13	454.06
482.31	416.62
482.49	433.00
482.67	395.55
482.85	390.87
483.03	411.93
483.21	449.38
483.39	365.12
483.57	416.62
483.74	435.34
483.92	414.27
484.10	362.78
484.28	463.43
484.46	404.91
484.64	397.89
484.82	423.64
485.00	362.78
485.18	379.17
485.35	454.06
485.53	402.57
485.71	353.42
485.89	407.25
486.07	395.55
486.25	472.79
486.43	433.00
486.61	423.64
486.78	454.06
486.96	421.30
487.14	414.27
487.32	425.98
487.50	400.23
487.68	425.98
487.85	489.17
488.03	411.93
488.21	440.02
488.39	411.93
488.57	390.87
488.75	409.59
488.92	442.36
489.10	400.23
489.28	472.79
489.46	395.55
489.64	393.21
489.81	458.74
489.99	409.59
490.17	465.77
490.35	479.81
490.53	367.46
490.70	442.36
490.88	379.17
491.06	365.12
491.24	430.66
491.41	454.06
491.59	404.91
491.77	409.59
491.95	393.21
492.13	407.25
492.30	376.83
492.48	402.57
492.66	435.34
492.84	444.70
493.01	423.64
493.19	416.62
493.37	475.13
493.54	409.59
493.72	344.06
493.90	416.62
494.08	402.57
494.25	498.53
494.43	400.23
494.61	463.43
494.79	447.04
494.96	355.76
495.14	458.74
495.32	463.43
495.49	465.77
495.67	409.59
495.85	442.36
496.02	388.53
496.20	346.40
496.38	447.04
496.55	491.51
496.73	463.43
496.91	353.42
497.09	437.68
497.26	416.62
497.44	442.36
497.62	440.02
497.79	362.78
497.97	404.91
498.14	348.74
498.32	360.44
498.50	411.93
498.67	472.79
498.85	409.59
499.03	514.92
499.20	463.43
499.38	440.02
499.56	353.42
499.73	411.93
499.91	437.68
500.08	461.09
500.26	425.98
500.44	402.57
500.61	437.68
500.79	402.57
500.97	379.17
501.14	458.74
501.32	376.83
501.49	428.32
501.67	428.32
501.84	376.83
502.02	409.59
502.20	404.91
502.37	376.83
502.55	449.38
502.72	400.23
502.90	414.27
503.07	484.49
503.25	472.79
503.43	386.19
503.60	402.57
503.78	442.36
503.95	372.15
504.13	390.87
504.30	435.34
504.48	435.34
504.65	437.68
504.83	435.34
505.01	428.32
505.18	433.00
505.36	442.36
505.53	430.66
505.71	486.83
505.88	507.90
506.06	465.77
506.23	428.32
506.41	379.17
506.58	400.23
506.76	341.72
506.93	388.53
507.11	372.15
507.28	367.46
507.46	395.55
507.63	421.30
507.81	393.21
507.98	404.91
508.16	404.91
508.33	440.02
508.50	388.53
508.68	414.27
508.85	463.43
509.03	404.91
509.20	400.23
509.38	409.59
509.55	507.90
509.73	437.68
509.90	458.74
510.08	397.89
510.25	437.68
510.42	400.23
510.60	344.06
510.77	507.90
510.95	435.34
511.12	442.36
511.30	437.68
511.47	416.62
511.64	458.74
511.82	402.57
511.99	451.72
512.17	425.98
512.34	397.89
512.51	449.38
512.69	369.80
512.86	472.79
513.04	395.55
513.21	477.47
513.38	414.27
513.56	383.85
513.73	463.43
513.90	400.23
514.08	435.34
514.25	414.27
514.43	449.38
514.60	430.66
514.77	444.70
514.95	381.51
515.12	411.93
515.29	430.66
515.47	393.21
515.64	418.96
515.81	442.36
515.99	433.00
516.16	395.55
516.33	390.87
516.51	437.68
516.68	355.76
516.85	379.17
517.03	461.09
517.20	421.30
517.37	407.25
517.54	425.98
517.72	498.53
517.89	358.10
518.06	407.25
518.24	433.00
518.41	468.11
518.58	393.21
518.75	461.09
518.93	369.80
519.10	433.00
519.27	428.32
519.45	381.51
519.62	404.91
519.79	425.98
519.96	454.06
520.14	470.45
520.31	451.72
520.48	390.87
520.65	456.40
520.83	493.85
521.00	433.00
521.17	430.66
521.34	409.59
521.52	402.57
521.69	465.77
521.86	409.59
522.03	390.87
522.20	482.15
522.38	430.66
522.55	463.43
522.72	423.64
522.89	451.72
523.07	472.79
523.24	472.79
523.41	390.87
523.58	463.43
523.75	433.00
523.92	386.19
524.10	381.51
524.27	423.64
524.44	423.64
524.61	482.15
524.78	393.21
524.96	433.00
525.13	383.85
525.30	442.36
525.47	400.23
525.64	430.66
525.81	402.57
525.98	395.55
526.16	332.36
526.33	430.66
526.50	423.64
526.67	346.40
526.84	423.64
527.01	397.89
527.18	496.19
527.36	433.00
527.53	388.53
527.70	397.89
527.87	383.85
528.04	444.70
528.21	461.09
528.38	327.68
528.55	498.53
528.72	489.17
528.89	491.51
529.07	437.68
529.24	409.59
529.41	442.36
529.58	489.17
529.75	402.57
529.92	421.30
530.09	423.64
530.26	425.98
530.43	428.32
530.60	421.30
530.77	458.74
530.94	360.44
531.11	461.09
531.28	423.64
531.46	425.98
531.63	472.79
531.80	486.83
531.97	463.43
532.14	433.00
532.31	461.09
532.48	430.66
532.65	337.04
532.82	423.64
532.99	332.36
533.16	337.04
533.33	390.87
533.50	449.38
533.67	383.85
533.84	407.25
534.01	505.56
534.18	414.27
534.35	383.85
534.52	425.98
534.69	447.04
534.86	425.98
535.03	456.40
535.20	411.93
535.37	451.72
535.54	465.77
535.71	416.62
535.88	404.91
536.05	421.30
536.22	463.43
536.38	383.85
536.55	390.87
536.72	444.70
536.89	372.15
537.06	454.06
537.23	423.64
537.40	456.40
537.57	423.64
537.74	442.36
537.91	332.36
538.08	341.72
538.25	416.62
538.42	414.27
538.59	442.36
538.75	355.76
538.92	442.36
539.09	374.49
539.26	383.85
539.43	421.30
539.60	390.87
539.77	433.00
539.94	365.12
540.11	390.87
540.28	456.40
540.44	454.06
540.61	428.32
540.78	418.96
540.95	348.74
541.12	425.98
541.29	411.93
541.46	472.79
541.62	442.36
541.79	351.08
541.96	414.27
542.13	461.09
542.30	341.72
542.47	358.10
542.63	477.47
542.80	390.87
542.97	444.70
543.14	449.38
543.31	423.64
543.48	437.68
543.64	423.64
543.81	388.53
543.98	393.21
544.15	381.51
544.32	393.21
544.48	393.21
544.65	407.25
544.82	386.19
544.99	376.83
545.16	433.00
545.32	414.27
545.49	407.25
545.66	423.64
545.83	400.23
546.00	388.53
546.16	367.46
546.33	423.64
546.50	411.93
546.67	440.02
546.83	430.66
547.00	411.93
547.17	414.27
547.34	449.38
547.50	374.49
547.67	442.36
547.84	430.66
548.00	489.17
548.17	421.30
548.34	381.51
548.51	458.74
548.67	430.66
548.84	428.32
549.01	458.74
549.18	507.90
549.34	409.59
549.51	402.57
549.68	421.30
549.84	395.55
550.01	327.68
550.18	437.68
550.34	411.93
550.51	400.23
550.68	409.59
550.84	423.64
551.01	496.19
551.18	463.43
551.34	418.96
551.51	411.93
551.68	376.83
551.84	409.59
552.01	435.34
552.18	451.72
552.34	402.57
552.51	395.55
552.68	395.55
552.84	425.98
553.01	433.00
553.18	449.38
553.34	421.30
553.51	425.98
553.67	355.76
553.84	498.53
554.01	447.04
554.17	440.02
554.34	411.93
554.51	369.80
554.67	463.43
554.84	482.15
555.00	437.68
555.17	414.27
555.33	400.23
555.50	416.62
555.67	376.83
555.83	458.74
556.00	400.23
556.16	503.22
556.33	418.96
556.50	341.72
556.66	423.64
556.83	418.96
556.99	491.51
557.16	423.64
557.32	348.74
557.49	484.49
557.65	456.40
557.82	346.40
557.98	390.87
558.15	395.55
558.32	454.06
558.48	423.64
558.65	376.83
558.81	447.04
558.98	402.57
559.14	440.02
559.31	355.76
559.47	456.40
559.64	404.91
559.80	402.57
559.97	407.25
560.13	468.11
560.30	454.06
560.46	376.83
560.63	390.87
560.79	449.38
560.96	433.00
561.12	421.30
561.29	393.21
561.45	402.57
561.61	449.38
561.78	512.58
561.94	454.06
562.11	409.59
562.27	449.38
562.44	397.89
562.60	425.98
562.77	447.04
562.93	507.90
563.10	395.55
563.26	447.04
563.42	360.44
563.59	404.91
563.75	447.04
563.92	397.89
564.08	463.43
564.24	430.66
564.41	451.72
564.57	470.45
564.74	362.78
564.90	491.51
565.07	414.27
565.23	348.74
565.39	386.19
565.56	444.70
565.72	437.68
565.88	451.72
566.05	463.43
566.21	346.40
566.38	433.00
566.54	400.23
566.70	407.25
566.87	318.31
567.03	444.70
567.19	402.57
567.36	425.98
567.52	416.62
567.68	362.78
567.85	386.19
568.01	365.12
568.17	397.89
568.34	393.21
568.50	418.96
568.66	451.72
568.83	479.81
568.99	360.44
569.15	383.85
569.32	433.00
569.48	407.25
569.64	421.30
569.81	428.32
569.97	402.57
570.13	456.40
570.30	451.72
570.46	369.80
570.62	381.51
570.78	346.40
570.95	411.93
571.11	430.66
571.27	423.64
571.43	388.53
571.60	440.02
571.76	428.32
571.92	418.96
572.09	362.78
572.25	348.74
572.41	423.64
572.57	404.91
572.74	383.85
572.90	484.49
573.06	470.45
573.22	414.27
573.38	458.74
573.55	491.51
573.71	475.13
573.87	376.83
574.03	400.23
574.20	435.34
574.36	456.40
574.52	423.64
574.68	451.72
574.84	451.72
575.01	430.66
575.17	421.30
575.33	397.89
575.49	402.57
575.65	440.02
575.82	411.93
575.98	369.80
576.14	430.66
576.30	344.06
576.46	428.32
576.62	447.04
576.79	395.55
576.95	477.47
577.11	489.17
577.27	381.51
577.43	425.98
577.59	484.49
577.75	433.00
577.92	402.57
578.08	393.21
578.24	390.87
578.40	416.62
578.56	435.34
578.72	456.40
578.88	447.04
579.04	442.36
579.21	493.85
579.37	454.06
579.53	362.78
579.69	404.91
579.85	374.49
580.01	372.15
580.17	435.34
580.33	367.46
580.49	409.59
580.65	353.42
580.82	425.98
580.98	339.38
581.14	416.62
581.30	440.02
581.46	381.51
581.62	454.06
581.78	400.23
581.94	456.40
582.10	416.62
582.26	407.25
582.42	440.02
582.58	360.44
582.74	423.64
582.90	418.96
583.06	440.02
583.22	421.30
583.38	362.78
583.54	376.83
583.70	454.06
583.86	414.27
584.02	383.85
584.18	418.96
584.34	367.46
584.50	416.62
584.66	409.59
584.82	348.74
584.98	404.91
585.14	437.68
585.30	433.00
585.46	376.83
585.62	423.64
585.78	454.06
585.94	440.02
586.10	407.25
586.26	444.70
586.42	447.04
586.58	404.91
586.74	428.32
586.90	444.70
587.06	456.40
587.22	428.32
587.38	327.68
587.54	428.32
587.70	463.43
587.86	470.45
588.02	416.62
588.18	400.23
588.34	409.59
588.49	409.59
588.65	395.55
588.81	395.55
588.97	393.21
589.13	414.27
589.29	376.83
589.45	393.21
589.61	456.40
589.77	444.70
589.93	442.36
590.08	407.25
590.24	360.44
590.40	407.25
590.56	430.66
590.72	409.59
590.88	444.70
591.04	386.19
591.20	409.59
591.35	397.89
591.51	435.34
591.67	400.23
591.83	423.64
591.99	416.62
592.15	437.68
592.31	407.25
592.46	416.62
592.62	423.64
592.78	514.92
592.94	369.80
593.10	395.55
593.26	341.72
593.41	334.70
593.57	400.23
593.73	386.19
593.89	491.51
594.05	365.12
594.20	433.00
594.36	447.04
594.52	418.96
594.68	449.38
594.84	507.90
594.99	400.23
595.15	407.25
595.31	449.38
595.47	440.02
595.62	449.38
595.78	411.93
595.94	346.40
596.10	395.55
596.25	421.30
596.41	430.66
596.57	416.62
596.73	461.09
596.88	416.62
597.04	440.02
597.20	402.57
597.36	425.98
597.51	393.21
597.67	367.46
597.83	397.89
597.99	409.59
598.14	437.68
598.30	388.53
598.46	414.27
598.61	465.77
598.77	491.51
598.93	447.04
599.09	456.40
599.24	423.64
599.40	477.47
599.56	416.62
599.71	447.04
599.87	400.23
600.03	430.66
600.18	376.83
600.34	461.09
600.50	444.70
600.65	397.89
600.81	456.40
600.97	360.44
601.12	402.57
601.28	421.30
601.44	440.02
601.59	409.59
601.75	461.09
601.91	402.57
602.06	386.19
602.22	440.02
602.37	418.96
602.53	402.57
602.69	402.57
602.84	372.15
603.00	505.56
603.16	444.70
603.31	470.45
603.47	449.38
603.62	369.80
603.78	472.79
603.94	440.02
604.09	383.85
604.25	386.19
604.40	451.72
604.56	402.57
604.71	416.62
604.87	355.76
605.03	433.00
605.18	414.27
605.34	454.06
605.49	393.21
605.65	425.98
605.80	344.06
605.96	409.59
606.12	369.80
606.27	475.13
606.43	355.76
606.58	425.98
606.74	440.02
606.89	390.87
607.05	454.06
607.20	386.19
607.36	407.25
607.51	376.83
607.67	334.70
607.82	386.19
607.98	451.72
608.13	409.59
608.29	360.44
608.44	451.72
608.60	440.02
608.75	409.59
608.91	423.64
609.06	411.93
609.22	388.53
609.37	332.36
609.53	351.08
609.68	442.36
609.84	430.66
609.99	402.57
610.15	428.32
