SpectraSuite Data File
++++++++++++++++++++++++++++++++++++
Date: Fri Oct 25 12:11:44 EDT 2013
User: price-jones
Dark Spectrum Present: No
Reference Spectrum Present: No
Number of Sampled Component Spectra: 1
Spectrometers: USB2+H05261
Integration Time (usec): 100000 (USB2+H05261)
Spectra Averaged: 1 (USB2+H05261)
Boxcar Smoothing: 0 (USB2+H05261)
Correct for Electrical Dark: No (USB2+H05261)
Strobe/Lamp Enabled: No (USB2+H05261)
Correct for Detector Non-linearity: No (USB2+H05261)
Correct for Stray Light: No (USB2+H05261)
Number of Pixels in Processed Spectrum: 2048
>>>>>Begin Processed Spectral Data<<<<<
365.73	334.70
365.92	334.70
366.12	334.70
366.32	248.10
366.52	278.52
366.72	278.52
366.91	163.84
367.11	280.86
367.31	250.44
367.51	259.80
367.70	220.01
367.90	259.80
368.10	191.92
368.30	201.29
368.49	271.50
368.69	301.93
368.89	241.08
369.09	255.12
369.28	294.91
369.48	306.61
369.68	290.23
369.87	304.27
370.07	299.59
370.27	351.08
370.47	248.10
370.66	318.31
370.86	273.84
371.06	402.57
371.25	454.06
371.45	390.87
371.65	376.83
371.84	358.10
372.04	334.70
372.24	381.51
372.44	360.44
372.63	409.59
372.83	414.27
373.03	416.62
373.22	346.40
373.42	451.72
373.62	458.74
373.81	447.04
374.01	451.72
374.21	400.23
374.40	402.57
374.60	435.34
374.79	435.34
374.99	510.24
375.19	465.77
375.38	381.51
375.58	440.02
375.78	479.81
375.97	435.34
376.17	484.49
376.37	435.34
376.56	416.62
376.76	409.59
376.95	409.59
377.15	416.62
377.35	411.93
377.54	421.30
377.74	402.57
377.93	437.68
378.13	414.27
378.33	433.00
378.52	388.53
378.72	395.55
378.91	423.64
379.11	390.87
379.31	397.89
379.50	479.81
379.70	400.23
379.89	404.91
380.09	381.51
380.28	428.32
380.48	334.70
380.68	365.12
380.87	369.80
381.07	351.08
381.26	433.00
381.46	402.57
381.65	477.47
381.85	369.80
382.04	397.89
382.24	440.02
382.43	395.55
382.63	418.96
382.83	395.55
383.02	402.57
383.22	447.04
383.41	451.72
383.61	407.25
383.80	430.66
384.00	447.04
384.19	433.00
384.39	433.00
384.58	437.68
384.78	465.77
384.97	397.89
385.17	430.66
385.36	388.53
385.56	416.62
385.75	376.83
385.95	418.96
386.14	486.83
386.34	388.53
386.53	433.00
386.72	332.36
386.92	435.34
387.11	458.74
387.31	367.46
387.50	400.23
387.70	456.40
387.89	414.27
388.09	369.80
388.28	386.19
388.48	442.36
388.67	428.32
388.86	444.70
389.06	454.06
389.25	449.38
389.45	414.27
389.64	358.10
389.84	388.53
390.03	451.72
390.22	404.91
390.42	402.57
390.61	400.23
390.81	395.55
391.00	353.42
391.19	421.30
391.39	425.98
391.58	418.96
391.78	402.57
391.97	409.59
392.16	390.87
392.36	400.23
392.55	507.90
392.75	376.83
392.94	341.72
393.13	428.32
393.33	395.55
393.52	423.64
393.71	447.04
393.91	498.53
394.10	337.04
394.29	423.64
394.49	369.80
394.68	414.27
394.88	409.59
395.07	351.08
395.26	416.62
395.46	428.32
395.65	402.57
395.84	463.43
396.04	433.00
396.23	428.32
396.42	395.55
396.62	393.21
396.81	334.70
397.00	428.32
397.19	416.62
397.39	430.66
397.58	454.06
397.77	390.87
397.97	372.15
398.16	397.89
398.35	358.10
398.55	388.53
398.74	475.13
398.93	437.68
399.12	425.98
399.32	411.93
399.51	386.19
399.70	346.40
399.90	404.91
400.09	386.19
400.28	475.13
400.47	423.64
400.67	437.68
400.86	397.89
401.05	475.13
401.24	458.74
401.44	400.23
401.63	374.49
401.82	421.30
402.01	414.27
402.21	346.40
402.40	404.91
402.59	428.32
402.78	435.34
402.97	437.68
403.17	388.53
403.36	416.62
403.55	390.87
403.74	451.72
403.93	353.42
404.13	327.68
404.32	470.45
404.51	444.70
404.70	425.98
404.89	374.49
405.09	388.53
405.28	386.19
405.47	409.59
405.66	444.70
405.85	500.87
406.05	425.98
406.24	418.96
406.43	397.89
406.62	442.36
406.81	451.72
407.00	444.70
407.20	400.23
407.39	393.21
407.58	386.19
407.77	458.74
407.96	421.30
408.15	451.72
408.34	468.11
408.54	409.59
408.73	526.62
408.92	390.87
409.11	376.83
409.30	379.17
409.49	411.93
409.68	435.34
409.87	393.21
410.07	414.27
410.26	390.87
410.45	407.25
410.64	451.72
410.83	353.42
411.02	381.51
411.21	423.64
411.40	367.46
411.59	456.40
411.78	374.49
411.98	510.24
412.17	397.89
412.36	449.38
412.55	390.87
412.74	376.83
412.93	409.59
413.12	360.44
413.31	416.62
413.50	416.62
413.69	482.15
413.88	395.55
414.07	482.15
414.26	386.19
414.45	379.17
414.64	440.02
414.83	381.51
415.02	404.91
415.22	425.98
415.41	449.38
415.60	369.80
415.79	404.91
415.98	407.25
416.17	437.68
416.36	358.10
416.55	330.02
416.74	416.62
416.93	437.68
417.12	362.78
417.31	383.85
417.50	404.91
417.69	433.00
417.88	376.83
418.07	428.32
418.26	493.85
418.45	369.80
418.64	374.49
418.83	388.53
419.02	456.40
419.21	337.04
419.39	414.27
419.58	381.51
419.77	393.21
419.96	442.36
420.15	430.66
420.34	404.91
420.53	397.89
420.72	372.15
420.91	440.02
421.10	400.23
421.29	414.27
421.48	381.51
421.67	475.13
421.86	409.59
422.05	414.27
422.24	376.83
422.43	437.68
422.61	444.70
422.80	388.53
422.99	353.42
423.18	449.38
423.37	383.85
423.56	437.68
423.75	449.38
423.94	360.44
424.13	437.68
424.32	435.34
424.50	395.55
424.69	402.57
424.88	397.89
425.07	397.89
425.26	411.93
425.45	414.27
425.64	367.46
425.83	404.91
426.01	379.17
426.20	409.59
426.39	393.21
426.58	341.72
426.77	409.59
426.96	430.66
427.15	400.23
427.33	341.72
427.52	367.46
427.71	411.93
427.90	400.23
428.09	400.23
428.28	388.53
428.46	477.47
428.65	437.68
428.84	360.44
429.03	358.10
429.22	393.21
429.40	411.93
429.59	449.38
429.78	449.38
429.97	386.19
430.16	458.74
430.34	423.64
430.53	390.87
430.72	353.42
430.91	397.89
431.10	383.85
431.28	388.53
431.47	444.70
431.66	395.55
431.85	374.49
432.03	369.80
432.22	425.98
432.41	458.74
432.60	388.53
432.79	430.66
432.97	458.74
433.16	409.59
433.35	404.91
433.54	433.00
433.72	449.38
433.91	461.09
434.10	475.13
434.28	430.66
434.47	355.76
434.66	397.89
434.85	430.66
435.03	397.89
435.22	491.51
435.41	409.59
435.59	423.64
435.78	407.25
435.97	454.06
436.16	456.40
436.34	376.83
436.53	402.57
436.72	388.53
436.90	458.74
437.09	461.09
437.28	444.70
437.46	381.51
437.65	507.90
437.84	456.40
438.02	367.46
438.21	440.02
438.40	390.87
438.58	372.15
438.77	407.25
438.96	435.34
439.14	440.02
439.33	374.49
439.52	379.17
439.70	444.70
439.89	400.23
440.08	435.34
440.26	423.64
440.45	489.17
440.63	418.96
440.82	463.43
441.01	369.80
441.19	397.89
441.38	435.34
441.57	491.51
441.75	411.93
441.94	367.46
442.12	407.25
442.31	362.78
442.50	416.62
442.68	437.68
442.87	409.59
443.05	449.38
443.24	430.66
443.43	463.43
443.61	402.57
443.80	482.15
443.98	425.98
444.17	376.83
444.35	447.04
444.54	414.27
444.73	386.19
444.91	430.66
445.10	423.64
445.28	367.46
445.47	461.09
445.65	404.91
445.84	414.27
446.02	456.40
446.21	428.32
446.39	369.80
446.58	470.45
446.77	395.55
446.95	351.08
447.14	428.32
447.32	498.53
447.51	400.23
447.69	353.42
447.88	418.96
448.06	458.74
448.25	479.81
448.43	416.62
448.62	360.44
448.80	447.04
448.99	402.57
449.17	430.66
449.36	433.00
449.54	451.72
449.73	341.72
449.91	442.36
450.10	414.27
450.28	479.81
450.46	458.74
450.65	454.06
450.83	369.80
451.02	440.02
451.20	437.68
451.39	425.98
451.57	437.68
451.76	421.30
451.94	393.21
452.13	416.62
452.31	430.66
452.49	388.53
452.68	468.11
452.86	418.96
453.05	425.98
453.23	334.70
453.42	388.53
453.60	376.83
453.78	468.11
453.97	425.98
454.15	372.15
454.34	383.85
454.52	390.87
454.70	472.79
454.89	491.51
455.07	397.89
455.26	400.23
455.44	353.42
455.62	454.06
455.81	425.98
455.99	425.98
456.17	442.36
456.36	414.27
456.54	386.19
456.73	381.51
456.91	416.62
457.09	456.40
457.28	465.77
457.46	444.70
457.64	461.09
457.83	440.02
458.01	423.64
458.19	395.55
458.38	395.55
458.56	388.53
458.74	416.62
458.93	449.38
459.11	458.74
459.29	367.46
459.48	390.87
459.66	397.89
459.84	428.32
460.03	550.03
460.21	414.27
460.39	390.87
460.57	463.43
460.76	472.79
460.94	376.83
461.12	470.45
461.31	425.98
461.49	428.32
461.67	393.21
461.85	400.23
462.04	444.70
462.22	828.55
462.40	404.91
462.59	383.85
462.77	414.27
462.95	402.57
463.13	348.74
463.32	414.27
463.50	496.19
463.68	454.06
463.86	395.55
464.05	369.80
464.23	414.27
464.41	468.11
464.59	440.02
464.78	395.55
464.96	355.76
465.14	421.30
465.32	334.70
465.50	395.55
465.69	461.09
465.87	435.34
466.05	418.96
466.23	388.53
466.41	435.34
466.60	437.68
466.78	430.66
466.96	482.15
467.14	404.91
467.32	362.78
467.51	482.15
467.69	383.85
467.87	393.21
468.05	400.23
468.23	454.06
468.41	423.64
468.60	404.91
468.78	390.87
468.96	386.19
469.14	374.49
469.32	393.21
469.50	367.46
469.69	465.77
469.87	456.40
470.05	414.27
470.23	475.13
470.41	411.93
470.59	383.85
470.77	393.21
470.95	358.10
471.14	447.04
471.32	435.34
471.50	360.44
471.68	461.09
471.86	496.19
472.04	442.36
472.22	400.23
472.40	381.51
472.58	482.15
472.77	395.55
472.95	409.59
473.13	482.15
473.31	437.68
473.49	414.27
473.67	472.79
473.85	414.27
474.03	390.87
474.21	386.19
474.39	472.79
474.57	414.27
474.75	444.70
474.93	395.55
475.12	421.30
475.30	402.57
475.48	440.02
475.66	449.38
475.84	395.55
476.02	353.42
476.20	404.91
476.38	430.66
476.56	442.36
476.74	425.98
476.92	442.36
477.10	447.04
477.28	458.74
477.46	444.70
477.64	454.06
477.82	416.62
478.00	388.53
478.18	442.36
478.36	400.23
478.54	409.59
478.72	425.98
478.90	411.93
479.08	435.34
479.26	423.64
479.44	454.06
479.62	360.44
479.80	388.53
479.98	365.12
480.16	456.40
480.34	463.43
480.52	435.34
480.70	456.40
480.88	402.57
481.06	411.93
481.24	397.89
481.41	482.15
481.59	454.06
481.77	435.34
481.95	449.38
482.13	421.30
482.31	428.32
482.49	423.64
482.67	341.72
482.85	416.62
483.03	404.91
483.21	386.19
483.39	381.51
483.57	409.59
483.74	428.32
483.92	393.21
484.10	411.93
484.28	437.68
484.46	454.06
484.64	421.30
484.82	425.98
485.00	386.19
485.18	379.17
485.35	414.27
485.53	395.55
485.71	376.83
485.89	376.83
486.07	411.93
486.25	435.34
486.43	444.70
486.61	409.59
486.78	463.43
486.96	388.53
487.14	440.02
487.32	402.57
487.50	475.13
487.68	472.79
487.85	395.55
488.03	395.55
488.21	465.77
488.39	440.02
488.57	369.80
488.75	388.53
488.92	580.45
489.10	379.17
489.28	461.09
489.46	388.53
489.64	386.19
489.81	435.34
489.99	362.78
490.17	437.68
490.35	451.72
490.53	358.10
490.70	374.49
490.88	374.49
491.06	353.42
491.24	425.98
491.41	386.19
491.59	430.66
491.77	470.45
491.95	358.10
492.13	351.08
492.30	367.46
492.48	454.06
492.66	468.11
492.84	470.45
493.01	404.91
493.19	409.59
493.37	505.56
493.54	465.77
493.72	447.04
493.90	383.85
494.08	404.91
494.25	449.38
494.43	458.74
494.61	489.17
494.79	414.27
494.96	376.83
495.14	416.62
495.32	376.83
495.49	428.32
495.67	360.44
495.85	390.87
496.02	393.21
496.20	402.57
496.38	458.74
496.55	437.68
496.73	383.85
496.91	425.98
497.09	346.40
497.26	400.23
497.44	353.42
497.62	428.32
497.79	395.55
497.97	414.27
498.14	383.85
498.32	395.55
498.50	498.53
498.67	425.98
498.85	433.00
499.03	402.57
499.20	440.02
499.38	489.17
499.56	369.80
499.73	395.55
499.91	472.79
500.08	383.85
500.26	327.68
500.44	393.21
500.61	430.66
500.79	411.93
500.97	477.47
501.14	451.72
501.32	498.53
501.49	437.68
501.67	454.06
501.84	440.02
502.02	447.04
502.20	447.04
502.37	449.38
502.55	374.49
502.72	442.36
502.90	458.74
503.07	402.57
503.25	421.30
503.43	348.74
503.60	397.89
503.78	454.06
503.95	418.96
504.13	437.68
504.30	458.74
504.48	425.98
504.65	461.09
504.83	425.98
505.01	390.87
505.18	407.25
505.36	433.00
505.53	454.06
505.71	423.64
505.88	442.36
506.06	355.76
506.23	437.68
506.41	353.42
506.58	447.04
506.76	458.74
506.93	416.62
507.11	482.15
507.28	416.62
507.46	360.44
507.63	470.45
507.81	486.83
507.98	325.33
508.16	461.09
508.33	411.93
508.50	390.87
508.68	517.26
508.85	498.53
509.03	447.04
509.20	383.85
509.38	351.08
509.55	470.45
509.73	430.66
509.90	386.19
510.08	369.80
510.25	400.23
510.42	456.40
510.60	447.04
510.77	421.30
510.95	465.77
511.12	440.02
511.30	449.38
511.47	440.02
511.64	461.09
511.82	379.17
511.99	447.04
512.17	475.13
512.34	435.34
512.51	409.59
512.69	379.17
512.86	369.80
513.04	430.66
513.21	379.17
513.38	362.78
513.56	397.89
513.73	414.27
513.90	365.12
514.08	430.66
514.25	414.27
514.43	433.00
514.60	386.19
514.77	379.17
514.95	404.91
515.12	374.49
515.29	388.53
515.47	301.93
515.64	337.04
515.81	381.51
515.99	468.11
516.16	458.74
516.33	451.72
516.51	430.66
516.68	379.17
516.85	435.34
517.03	407.25
517.20	404.91
517.37	456.40
517.54	416.62
517.72	451.72
517.89	435.34
518.06	400.23
518.24	482.15
518.41	407.25
518.58	425.98
518.75	400.23
518.93	407.25
519.10	442.36
519.27	416.62
519.45	374.49
519.62	397.89
519.79	451.72
519.96	362.78
520.14	409.59
520.31	348.74
520.48	376.83
520.65	435.34
520.83	390.87
521.00	390.87
521.17	435.34
521.34	402.57
521.52	388.53
521.69	395.55
521.86	390.87
522.03	358.10
522.20	440.02
522.38	341.72
522.55	430.66
522.72	376.83
522.89	444.70
523.07	372.15
523.24	379.17
523.41	423.64
523.58	414.27
523.75	442.36
523.92	388.53
524.10	451.72
524.27	409.59
524.44	416.62
524.61	468.11
524.78	425.98
524.96	444.70
525.13	400.23
525.30	425.98
525.47	435.34
525.64	437.68
525.81	383.85
525.98	418.96
526.16	411.93
526.33	411.93
526.50	409.59
526.67	395.55
526.84	383.85
527.01	397.89
527.18	430.66
527.36	409.59
527.53	440.02
527.70	409.59
527.87	444.70
528.04	383.85
528.21	404.91
528.38	400.23
528.55	451.72
528.72	428.32
528.89	416.62
529.07	416.62
529.24	447.04
529.41	341.72
529.58	395.55
529.75	470.45
529.92	465.77
530.09	458.74
530.26	470.45
530.43	409.59
530.60	386.19
530.77	486.83
530.94	416.62
531.11	344.06
531.28	379.17
531.46	418.96
531.63	454.06
531.80	444.70
531.97	386.19
532.14	425.98
532.31	449.38
532.48	437.68
532.65	470.45
532.82	456.40
532.99	395.55
533.16	409.59
533.33	402.57
533.50	423.64
533.67	376.83
533.84	437.68
534.01	423.64
534.18	454.06
534.35	397.89
534.52	404.91
534.69	447.04
534.86	353.42
535.03	404.91
535.20	428.32
535.37	465.77
535.54	479.81
535.71	332.36
535.88	477.47
536.05	395.55
536.22	362.78
536.38	468.11
536.55	456.40
536.72	442.36
536.89	416.62
537.06	418.96
537.23	409.59
537.40	423.64
537.57	395.55
537.74	461.09
537.91	402.57
538.08	381.51
538.25	407.25
538.42	418.96
538.59	411.93
538.75	449.38
538.92	456.40
539.09	428.32
539.26	491.51
539.43	376.83
539.60	402.57
539.77	407.25
539.94	400.23
540.11	381.51
540.28	411.93
540.44	416.62
540.61	423.64
540.78	362.78
540.95	397.89
541.12	456.40
541.29	428.32
541.46	437.68
541.62	388.53
541.79	409.59
541.96	386.19
542.13	444.70
542.30	367.46
542.47	442.36
542.63	451.72
542.80	397.89
542.97	395.55
543.14	404.91
543.31	397.89
543.48	458.74
543.64	416.62
543.81	416.62
543.98	353.42
544.15	393.21
544.32	425.98
544.48	444.70
544.65	404.91
544.82	372.15
544.99	463.43
545.16	489.17
545.32	454.06
545.49	430.66
545.66	416.62
545.83	437.68
546.00	444.70
546.16	395.55
546.33	372.15
546.50	404.91
546.67	428.32
546.83	498.53
547.00	451.72
547.17	388.53
547.34	449.38
547.50	404.91
547.67	451.72
547.84	425.98
548.00	418.96
548.17	402.57
548.34	344.06
548.51	491.51
548.67	374.49
548.84	409.59
549.01	393.21
549.18	482.15
549.34	409.59
549.51	423.64
549.68	458.74
549.84	397.89
550.01	463.43
550.18	414.27
550.34	472.79
550.51	388.53
550.68	367.46
550.84	397.89
551.01	437.68
551.18	407.25
551.34	367.46
551.51	463.43
551.68	437.68
551.84	470.45
552.01	383.85
552.18	337.04
552.34	409.59
552.51	414.27
552.68	423.64
552.84	367.46
553.01	393.21
553.18	435.34
553.34	465.77
553.51	360.44
553.67	386.19
553.84	454.06
554.01	442.36
554.17	397.89
554.34	407.25
554.51	512.58
554.67	451.72
554.84	407.25
555.00	437.68
555.17	442.36
555.33	437.68
555.50	360.44
555.67	400.23
555.83	362.78
556.00	332.36
556.16	582.79
556.33	454.06
556.50	409.59
556.66	451.72
556.83	362.78
556.99	400.23
557.16	386.19
557.32	374.49
557.49	428.32
557.65	390.87
557.82	390.87
557.98	407.25
558.15	409.59
558.32	458.74
558.48	362.78
558.65	468.11
558.81	416.62
558.98	407.25
559.14	411.93
559.31	372.15
559.47	444.70
559.64	444.70
559.80	416.62
559.97	500.87
560.13	423.64
560.30	414.27
560.46	418.96
560.63	411.93
560.79	470.45
560.96	418.96
561.12	465.77
561.29	451.72
561.45	433.00
561.61	456.40
561.78	512.58
561.94	409.59
562.11	444.70
562.27	416.62
562.44	428.32
562.60	397.89
562.77	395.55
562.93	463.43
563.10	379.17
563.26	486.83
563.42	437.68
563.59	428.32
563.75	339.38
563.92	421.30
564.08	472.79
564.24	472.79
564.41	505.56
564.57	416.62
564.74	388.53
564.90	489.17
565.07	411.93
565.23	444.70
565.39	423.64
565.56	423.64
565.72	418.96
565.88	465.77
566.05	360.44
566.21	507.90
566.38	440.02
566.54	404.91
566.70	489.17
566.87	428.32
567.03	421.30
567.19	451.72
567.36	456.40
567.52	369.80
567.68	430.66
567.85	374.49
568.01	341.72
568.17	409.59
568.34	409.59
568.50	374.49
568.66	437.68
568.83	440.02
568.99	386.19
569.15	428.32
569.32	430.66
569.48	496.19
569.64	369.80
569.81	444.70
569.97	390.87
570.13	430.66
570.30	461.09
570.46	407.25
570.62	402.57
570.78	353.42
570.95	395.55
571.11	365.12
571.27	498.53
571.43	463.43
571.60	395.55
571.76	407.25
571.92	334.70
572.09	369.80
572.25	374.49
572.41	390.87
572.57	428.32
572.74	346.40
572.90	496.19
573.06	344.06
573.22	449.38
573.38	482.15
573.55	404.91
573.71	470.45
573.87	400.23
574.03	381.51
574.20	505.56
574.36	505.56
574.52	454.06
574.68	395.55
574.84	334.70
575.01	414.27
575.17	416.62
575.33	447.04
575.49	435.34
575.65	355.76
575.82	416.62
575.98	486.83
576.14	486.83
576.30	416.62
576.46	390.87
576.62	416.62
576.79	393.21
576.95	393.21
577.11	402.57
577.27	437.68
577.43	461.09
577.59	491.51
577.75	421.30
577.92	355.76
578.08	414.27
578.24	327.68
578.40	425.98
578.56	482.15
578.72	489.17
578.88	489.17
579.04	411.93
579.21	344.06
579.37	486.83
579.53	447.04
579.69	496.19
579.85	500.87
580.01	397.89
580.17	421.30
580.33	374.49
580.49	390.87
580.65	449.38
580.82	486.83
580.98	407.25
581.14	388.53
581.30	461.09
581.46	379.17
581.62	407.25
581.78	451.72
581.94	425.98
582.10	418.96
582.26	433.00
582.42	407.25
582.58	442.36
582.74	507.90
582.90	409.59
583.06	470.45
583.22	351.08
583.38	437.68
583.54	440.02
583.70	421.30
583.86	451.72
584.02	409.59
584.18	463.43
584.34	383.85
584.50	367.46
584.66	437.68
584.82	444.70
584.98	402.57
585.14	514.92
585.30	437.68
585.46	376.83
585.62	400.23
585.78	418.96
585.94	369.80
586.10	386.19
586.26	449.38
586.42	409.59
586.58	397.89
586.74	442.36
586.90	449.38
587.06	407.25
587.22	465.77
587.38	444.70
587.54	451.72
587.70	454.06
587.86	397.89
588.02	407.25
588.18	447.04
588.34	414.27
588.49	374.49
588.65	390.87
588.81	493.85
588.97	430.66
589.13	390.87
589.29	402.57
589.45	421.30
589.61	465.77
589.77	442.36
589.93	369.80
590.08	362.78
590.24	425.98
590.40	409.59
590.56	381.51
590.72	383.85
590.88	442.36
591.04	379.17
591.20	442.36
591.35	470.45
591.51	308.95
591.67	407.25
591.83	442.36
591.99	451.72
592.15	472.79
592.31	465.77
592.46	339.38
592.62	416.62
592.78	440.02
592.94	482.15
593.10	437.68
593.26	402.57
593.41	447.04
593.57	433.00
593.73	449.38
593.89	444.70
594.05	461.09
594.20	475.13
594.36	379.17
594.52	411.93
594.68	402.57
594.84	444.70
594.99	507.90
595.15	456.40
595.31	430.66
595.47	407.25
595.62	414.27
595.78	355.76
595.94	404.91
596.10	390.87
596.25	355.76
596.41	388.53
596.57	409.59
596.73	369.80
596.88	402.57
597.04	449.38
597.20	428.32
597.36	484.49
597.51	395.55
597.67	463.43
597.83	468.11
597.99	454.06
598.14	416.62
598.30	421.30
598.46	372.15
598.61	458.74
598.77	493.85
598.93	465.77
599.09	400.23
599.24	395.55
599.40	479.81
599.56	433.00
599.71	411.93
599.87	449.38
600.03	411.93
600.18	465.77
600.34	454.06
600.50	393.21
600.65	479.81
600.81	440.02
600.97	337.04
601.12	440.02
601.28	433.00
601.44	411.93
601.59	425.98
601.75	367.46
601.91	456.40
602.06	393.21
602.22	491.51
602.37	451.72
602.53	372.15
602.69	358.10
602.84	430.66
603.00	362.78
603.16	423.64
603.31	390.87
603.47	475.13
603.62	369.80
603.78	346.40
603.94	477.47
604.09	400.23
604.25	407.25
604.40	402.57
604.56	428.32
604.71	400.23
604.87	425.98
605.03	442.36
605.18	409.59
605.34	421.30
605.49	332.36
605.65	395.55
605.80	353.42
605.96	400.23
606.12	381.51
606.27	468.11
606.43	437.68
606.58	334.70
606.74	456.40
606.89	430.66
607.05	395.55
607.20	346.40
607.36	409.59
607.51	411.93
607.67	400.23
607.82	461.09
607.98	468.11
608.13	395.55
608.29	454.06
608.44	451.72
608.60	376.83
608.75	475.13
608.91	435.34
609.06	416.62
609.22	449.38
609.37	330.02
609.53	414.27
609.68	376.83
609.84	346.40
609.99	421.30
610.15	451.72
