SpectraSuite Data File
++++++++++++++++++++++++++++++++++++
Date: Fri Oct 25 12:10:20 EDT 2013
User: price-jones
Dark Spectrum Present: No
Reference Spectrum Present: No
Number of Sampled Component Spectra: 1
Spectrometers: USB2+H05261
Integration Time (usec): 100000 (USB2+H05261)
Spectra Averaged: 1 (USB2+H05261)
Boxcar Smoothing: 0 (USB2+H05261)
Correct for Electrical Dark: No (USB2+H05261)
Strobe/Lamp Enabled: No (USB2+H05261)
Correct for Detector Non-linearity: No (USB2+H05261)
Correct for Stray Light: No (USB2+H05261)
Number of Pixels in Processed Spectrum: 2048
>>>>>Begin Processed Spectral Data<<<<<
365.73	386.19
365.92	386.19
366.12	386.19
366.32	208.31
366.52	290.23
366.72	311.29
366.91	154.48
367.11	241.08
367.31	243.42
367.51	231.71
367.70	231.71
367.90	271.50
368.10	180.22
368.30	215.33
368.49	224.69
368.69	217.67
368.89	280.86
369.09	269.16
369.28	315.97
369.48	250.44
369.68	308.95
369.87	238.73
370.07	306.61
370.27	290.23
370.47	283.20
370.66	358.10
370.86	353.42
371.06	360.44
371.25	395.55
371.45	285.55
371.65	383.85
371.84	383.85
372.04	404.91
372.24	463.43
372.44	393.21
372.63	458.74
372.83	374.49
373.03	395.55
373.22	435.34
373.42	404.91
373.62	454.06
373.81	407.25
374.01	423.64
374.21	402.57
374.40	395.55
374.60	409.59
374.79	447.04
374.99	400.23
375.19	440.02
375.38	416.62
375.58	428.32
375.78	458.74
375.97	440.02
376.17	447.04
376.37	365.12
376.56	444.70
376.76	379.17
376.95	376.83
377.15	416.62
377.35	397.89
377.54	425.98
377.74	425.98
377.93	449.38
378.13	353.42
378.33	400.23
378.52	367.46
378.72	409.59
378.91	482.15
379.11	440.02
379.31	358.10
379.50	353.42
379.70	386.19
379.89	454.06
380.09	390.87
380.28	430.66
380.48	421.30
380.68	395.55
380.87	372.15
381.07	395.55
381.26	360.44
381.46	362.78
381.65	458.74
381.85	404.91
382.04	381.51
382.24	433.00
382.43	393.21
382.63	372.15
382.83	465.77
383.02	409.59
383.22	404.91
383.41	358.10
383.61	400.23
383.80	400.23
384.00	351.08
384.19	423.64
384.39	360.44
384.58	353.42
384.78	425.98
384.97	404.91
385.17	327.68
385.36	360.44
385.56	416.62
385.75	379.17
385.95	423.64
386.14	435.34
386.34	332.36
386.53	414.27
386.72	334.70
386.92	409.59
387.11	409.59
387.31	353.42
387.50	447.04
387.70	341.72
387.89	442.36
388.09	416.62
388.28	395.55
388.48	372.15
388.67	482.15
388.86	437.68
389.06	372.15
389.25	435.34
389.45	404.91
389.64	449.38
389.84	477.47
390.03	409.59
390.22	393.21
390.42	451.72
390.61	437.68
390.81	402.57
391.00	404.91
391.19	397.89
391.39	369.80
391.58	444.70
391.78	383.85
391.97	381.51
392.16	423.64
392.36	416.62
392.55	344.06
392.75	447.04
392.94	468.11
393.13	360.44
393.33	341.72
393.52	390.87
393.71	376.83
393.91	395.55
394.10	418.96
394.29	388.53
394.49	397.89
394.68	465.77
394.88	451.72
395.07	402.57
395.26	383.85
395.46	390.87
395.65	379.17
395.84	414.27
396.04	388.53
396.23	423.64
396.42	442.36
396.62	411.93
396.81	386.19
397.00	381.51
397.19	383.85
397.39	418.96
397.58	470.45
397.77	402.57
397.97	409.59
398.16	425.98
398.35	404.91
398.55	379.17
398.74	418.96
398.93	423.64
399.12	360.44
399.32	360.44
399.51	437.68
399.70	414.27
399.90	433.00
400.09	425.98
400.28	416.62
400.47	433.00
400.67	423.64
400.86	402.57
401.05	454.06
401.24	404.91
401.44	444.70
401.63	386.19
401.82	393.21
402.01	327.68
402.21	402.57
402.40	395.55
402.59	390.87
402.78	388.53
402.97	444.70
403.17	395.55
403.36	395.55
403.55	383.85
403.74	402.57
403.93	449.38
404.13	465.77
404.32	440.02
404.51	411.93
404.70	440.02
404.89	433.00
405.09	362.78
405.28	447.04
405.47	418.96
405.66	491.51
405.85	449.38
406.05	407.25
406.24	468.11
406.43	423.64
406.62	423.64
406.81	440.02
407.00	388.53
407.20	395.55
407.39	500.87
407.58	397.89
407.77	369.80
407.96	395.55
408.15	447.04
408.34	435.34
408.54	407.25
408.73	425.98
408.92	435.34
409.11	379.17
409.30	404.91
409.49	346.40
409.68	395.55
409.87	400.23
410.07	360.44
410.26	390.87
410.45	435.34
410.64	386.19
410.83	423.64
411.02	332.36
411.21	440.02
411.40	447.04
411.59	362.78
411.78	334.70
411.98	397.89
412.17	435.34
412.36	355.76
412.55	428.32
412.74	454.06
412.93	407.25
413.12	379.17
413.31	379.17
413.50	416.62
413.69	379.17
413.88	411.93
414.07	418.96
414.26	330.02
414.45	447.04
414.64	397.89
414.83	402.57
415.02	395.55
415.22	409.59
415.41	456.40
415.60	421.30
415.79	395.55
415.98	379.17
416.17	479.81
416.36	409.59
416.55	397.89
416.74	341.72
416.93	404.91
417.12	451.72
417.31	367.46
417.50	304.27
417.69	390.87
417.88	407.25
418.07	437.68
418.26	421.30
418.45	337.04
418.64	416.62
418.83	428.32
419.02	411.93
419.21	475.13
419.39	500.87
419.58	442.36
419.77	397.89
419.96	447.04
420.15	388.53
420.34	346.40
420.53	440.02
420.72	484.49
420.91	390.87
421.10	397.89
421.29	379.17
421.48	472.79
421.67	435.34
421.86	388.53
422.05	409.59
422.24	393.21
422.43	362.78
422.61	475.13
422.80	433.00
422.99	395.55
423.18	372.15
423.37	409.59
423.56	416.62
423.75	404.91
423.94	351.08
424.13	367.46
424.32	428.32
424.50	440.02
424.69	358.10
424.88	337.04
425.07	360.44
425.26	395.55
425.45	393.21
425.64	379.17
425.83	376.83
426.01	404.91
426.20	433.00
426.39	454.06
426.58	374.49
426.77	369.80
426.96	404.91
427.15	418.96
427.33	395.55
427.52	458.74
427.71	421.30
427.90	348.74
428.09	433.00
428.28	381.51
428.46	402.57
428.65	449.38
428.84	409.59
429.03	433.00
429.22	418.96
429.40	421.30
429.59	369.80
429.78	512.58
429.97	430.66
430.16	400.23
430.34	379.17
430.53	383.85
430.72	386.19
430.91	344.06
431.10	388.53
431.28	435.34
431.47	472.79
431.66	418.96
431.85	383.85
432.03	416.62
432.22	475.13
432.41	449.38
432.60	435.34
432.79	447.04
432.97	472.79
433.16	465.77
433.35	425.98
433.54	360.44
433.72	402.57
433.91	430.66
434.10	348.74
434.28	409.59
434.47	414.27
434.66	461.09
434.85	402.57
435.03	402.57
435.22	456.40
435.41	390.87
435.59	510.24
435.78	435.34
435.97	482.15
436.16	423.64
436.34	411.93
436.53	383.85
436.72	482.15
436.90	379.17
437.09	421.30
437.28	388.53
437.46	409.59
437.65	451.72
437.84	416.62
438.02	393.21
438.21	477.47
438.40	383.85
438.58	461.09
438.77	407.25
438.96	430.66
439.14	414.27
439.33	423.64
439.52	437.68
439.70	440.02
439.89	416.62
440.08	435.34
440.26	458.74
440.45	416.62
440.63	461.09
440.82	372.15
441.01	416.62
441.19	493.85
441.38	440.02
441.57	409.59
441.75	484.49
441.94	407.25
442.12	496.19
442.31	388.53
442.50	374.49
442.68	482.15
442.87	407.25
443.05	404.91
443.24	461.09
443.43	418.96
443.61	461.09
443.80	421.30
443.98	376.83
444.17	402.57
444.35	362.78
444.54	362.78
444.73	425.98
444.91	421.30
445.10	376.83
445.28	353.42
445.47	404.91
445.65	402.57
445.84	461.09
446.02	416.62
446.21	484.49
446.39	428.32
446.58	418.96
446.77	388.53
446.95	379.17
447.14	447.04
447.32	383.85
447.51	407.25
447.69	437.68
447.88	376.83
448.06	482.15
448.25	407.25
448.43	402.57
448.62	374.49
448.80	496.19
448.99	465.77
449.17	435.34
449.36	376.83
449.54	376.83
449.73	428.32
449.91	418.96
450.10	386.19
450.28	458.74
450.46	435.34
450.65	402.57
450.83	339.38
451.02	442.36
451.20	416.62
451.39	400.23
451.57	404.91
451.76	355.76
451.94	489.17
452.13	365.12
452.31	465.77
452.49	390.87
452.68	388.53
452.86	318.31
453.05	472.79
453.23	428.32
453.42	365.12
453.60	451.72
453.78	418.96
453.97	348.74
454.15	440.02
454.34	397.89
454.52	437.68
454.70	442.36
454.89	341.72
455.07	379.17
455.26	472.79
455.44	451.72
455.62	421.30
455.81	388.53
455.99	430.66
456.17	376.83
456.36	458.74
456.54	369.80
456.73	456.40
456.91	496.19
457.09	400.23
457.28	418.96
457.46	348.74
457.64	423.64
457.83	379.17
458.01	433.00
458.19	402.57
458.38	468.11
458.56	472.79
458.74	437.68
458.93	449.38
459.11	397.89
459.29	449.38
459.48	442.36
459.66	491.51
459.84	379.17
460.03	484.49
460.21	458.74
460.39	414.27
460.57	374.49
460.76	397.89
460.94	372.15
461.12	447.04
461.31	421.30
461.49	372.15
461.67	402.57
461.85	369.80
462.04	397.89
462.22	739.61
462.40	418.96
462.59	404.91
462.77	433.00
462.95	397.89
463.13	423.64
463.32	418.96
463.50	365.12
463.68	395.55
463.86	395.55
464.05	493.85
464.23	442.36
464.41	437.68
464.59	470.45
464.78	442.36
464.96	353.42
465.14	388.53
465.32	330.02
465.50	433.00
465.69	430.66
465.87	414.27
466.05	379.17
466.23	397.89
466.41	388.53
466.60	428.32
466.78	491.51
466.96	447.04
467.14	390.87
467.32	454.06
467.51	461.09
467.69	447.04
467.87	416.62
468.05	468.11
468.23	477.47
468.41	444.70
468.60	416.62
468.78	374.49
468.96	451.72
469.14	421.30
469.32	416.62
469.50	414.27
469.69	407.25
469.87	402.57
470.05	416.62
470.23	421.30
470.41	358.10
470.59	402.57
470.77	393.21
470.95	458.74
471.14	456.40
471.32	339.38
471.50	400.23
471.68	374.49
471.86	447.04
472.04	386.19
472.22	428.32
472.40	390.87
472.58	437.68
472.77	367.46
472.95	390.87
473.13	479.81
473.31	449.38
473.49	428.32
473.67	397.89
473.85	449.38
474.03	454.06
474.21	332.36
474.39	421.30
474.57	496.19
474.75	463.43
474.93	360.44
475.12	393.21
475.30	418.96
475.48	409.59
475.66	421.30
475.84	381.51
476.02	395.55
476.20	444.70
476.38	402.57
476.56	456.40
476.74	468.11
476.92	444.70
477.10	435.34
477.28	454.06
477.46	416.62
477.64	447.04
477.82	482.15
478.00	444.70
478.18	386.19
478.36	468.11
478.54	423.64
478.72	397.89
478.90	390.87
479.08	400.23
479.26	503.22
479.44	449.38
479.62	388.53
479.80	409.59
479.98	400.23
480.16	285.55
480.34	423.64
480.52	390.87
480.70	388.53
480.88	348.74
481.06	411.93
481.24	418.96
481.41	388.53
481.59	493.85
481.77	442.36
481.95	346.40
482.13	418.96
482.31	407.25
482.49	411.93
482.67	400.23
482.85	402.57
483.03	358.10
483.21	369.80
483.39	360.44
483.57	444.70
483.74	454.06
483.92	416.62
484.10	365.12
484.28	486.83
484.46	437.68
484.64	353.42
484.82	362.78
485.00	404.91
485.18	451.72
485.35	318.31
485.53	414.27
485.71	414.27
485.89	362.78
486.07	465.77
486.25	454.06
486.43	414.27
486.61	402.57
486.78	320.65
486.96	416.62
487.14	379.17
487.32	383.85
487.50	360.44
487.68	362.78
487.85	374.49
488.03	367.46
488.21	500.87
488.39	482.15
488.57	451.72
488.75	486.83
488.92	456.40
489.10	444.70
489.28	442.36
489.46	400.23
489.64	372.15
489.81	477.47
489.99	461.09
490.17	404.91
490.35	472.79
490.53	442.36
490.70	351.08
490.88	423.64
491.06	428.32
491.24	407.25
491.41	458.74
491.59	423.64
491.77	397.89
491.95	383.85
492.13	383.85
492.30	400.23
492.48	351.08
492.66	400.23
492.84	369.80
493.01	386.19
493.19	428.32
493.37	475.13
493.54	449.38
493.72	470.45
493.90	409.59
494.08	360.44
494.25	447.04
494.43	470.45
494.61	468.11
494.79	411.93
494.96	402.57
495.14	505.56
495.32	360.44
495.49	463.43
495.67	376.83
495.85	402.57
496.02	423.64
496.20	344.06
496.38	440.02
496.55	393.21
496.73	372.15
496.91	374.49
497.09	407.25
497.26	414.27
497.44	372.15
497.62	372.15
497.79	454.06
497.97	423.64
498.14	477.47
498.32	397.89
498.50	400.23
498.67	407.25
498.85	421.30
499.03	369.80
499.20	442.36
499.38	339.38
499.56	407.25
499.73	470.45
499.91	407.25
500.08	437.68
500.26	351.08
500.44	362.78
500.61	437.68
500.79	433.00
500.97	409.59
501.14	500.87
501.32	437.68
501.49	437.68
501.67	362.78
501.84	433.00
502.02	379.17
502.20	451.72
502.37	386.19
502.55	386.19
502.72	489.17
502.90	465.77
503.07	346.40
503.25	451.72
503.43	404.91
503.60	428.32
503.78	313.63
503.95	383.85
504.13	381.51
504.30	454.06
504.48	430.66
504.65	425.98
504.83	435.34
505.01	400.23
505.18	362.78
505.36	313.63
505.53	418.96
505.71	411.93
505.88	444.70
506.06	430.66
506.23	393.21
506.41	465.77
506.58	430.66
506.76	456.40
506.93	449.38
507.11	442.36
507.28	400.23
507.46	404.91
507.63	386.19
507.81	416.62
507.98	479.81
508.16	479.81
508.33	367.46
508.50	475.13
508.68	372.15
508.85	421.30
509.03	397.89
509.20	390.87
509.38	425.98
509.55	447.04
509.73	393.21
509.90	425.98
510.08	355.76
510.25	409.59
510.42	491.51
510.60	390.87
510.77	416.62
510.95	425.98
511.12	388.53
511.30	360.44
511.47	421.30
511.64	440.02
511.82	397.89
511.99	388.53
512.17	437.68
512.34	383.85
512.51	362.78
512.69	421.30
512.86	395.55
513.04	442.36
513.21	379.17
513.38	442.36
513.56	402.57
513.73	404.91
513.90	341.72
514.08	461.09
514.25	322.99
514.43	454.06
514.60	421.30
514.77	407.25
514.95	404.91
515.12	367.46
515.29	423.64
515.47	475.13
515.64	442.36
515.81	465.77
515.99	425.98
516.16	388.53
516.33	442.36
516.51	447.04
516.68	358.10
516.85	418.96
517.03	407.25
517.20	362.78
517.37	503.22
517.54	395.55
517.72	444.70
517.89	397.89
518.06	383.85
518.24	433.00
518.41	404.91
518.58	451.72
518.75	514.92
518.93	423.64
519.10	512.58
519.27	402.57
519.45	411.93
519.62	344.06
519.79	442.36
519.96	346.40
520.14	463.43
520.31	313.63
520.48	400.23
520.65	440.02
520.83	435.34
521.00	423.64
521.17	421.30
521.34	425.98
521.52	407.25
521.69	447.04
521.86	423.64
522.03	475.13
522.20	440.02
522.38	421.30
522.55	421.30
522.72	458.74
522.89	369.80
523.07	421.30
523.24	463.43
523.41	430.66
523.58	461.09
523.75	447.04
523.92	395.55
524.10	341.72
524.27	414.27
524.44	393.21
524.61	386.19
524.78	365.12
524.96	423.64
525.13	454.06
525.30	404.91
525.47	411.93
525.64	425.98
525.81	402.57
525.98	386.19
526.16	423.64
526.33	393.21
526.50	433.00
526.67	430.66
526.84	400.23
527.01	402.57
527.18	390.87
527.36	397.89
527.53	414.27
527.70	454.06
527.87	395.55
528.04	454.06
528.21	425.98
528.38	381.51
528.55	425.98
528.72	449.38
528.89	465.77
529.07	428.32
529.24	428.32
529.41	414.27
529.58	383.85
529.75	393.21
529.92	484.49
530.09	386.19
530.26	440.02
530.43	454.06
530.60	402.57
530.77	383.85
530.94	411.93
531.11	458.74
531.28	409.59
531.46	451.72
531.63	430.66
531.80	456.40
531.97	449.38
532.14	482.15
532.31	447.04
532.48	435.34
532.65	475.13
532.82	414.27
532.99	362.78
533.16	414.27
533.33	397.89
533.50	404.91
533.67	414.27
533.84	517.26
534.01	393.21
534.18	423.64
534.35	470.45
534.52	423.64
534.69	402.57
534.86	351.08
535.03	447.04
535.20	407.25
535.37	437.68
535.54	404.91
535.71	376.83
535.88	463.43
536.05	423.64
536.22	355.76
536.38	348.74
536.55	402.57
536.72	496.19
536.89	346.40
537.06	437.68
537.23	416.62
537.40	369.80
537.57	409.59
537.74	411.93
537.91	418.96
538.08	444.70
538.25	451.72
538.42	409.59
538.59	367.46
538.75	437.68
538.92	421.30
539.09	442.36
539.26	449.38
539.43	433.00
539.60	489.17
539.77	379.17
539.94	301.93
540.11	409.59
540.28	470.45
540.44	475.13
540.61	388.53
540.78	425.98
540.95	374.49
541.12	454.06
541.29	390.87
541.46	447.04
541.62	397.89
541.79	402.57
541.96	407.25
542.13	433.00
542.30	414.27
542.47	383.85
542.63	402.57
542.80	496.19
542.97	440.02
543.14	435.34
543.31	416.62
543.48	440.02
543.64	390.87
543.81	341.72
543.98	381.51
544.15	428.32
544.32	451.72
544.48	355.76
544.65	458.74
544.82	402.57
544.99	442.36
545.16	479.81
545.32	461.09
545.49	351.08
545.66	372.15
545.83	423.64
546.00	447.04
546.16	341.72
546.33	472.79
546.50	451.72
546.67	444.70
546.83	409.59
547.00	458.74
547.17	479.81
547.34	379.17
547.50	454.06
547.67	332.36
547.84	383.85
548.00	468.11
548.17	454.06
548.34	447.04
548.51	388.53
548.67	433.00
548.84	386.19
549.01	430.66
549.18	416.62
549.34	458.74
549.51	409.59
549.68	440.02
549.84	465.77
550.01	411.93
550.18	472.79
550.34	470.45
550.51	447.04
550.68	365.12
550.84	355.76
551.01	409.59
551.18	463.43
551.34	425.98
551.51	393.21
551.68	491.51
551.84	397.89
552.01	388.53
552.18	409.59
552.34	411.93
552.51	491.51
552.68	383.85
552.84	362.78
553.01	390.87
553.18	444.70
553.34	348.74
553.51	334.70
553.67	463.43
553.84	416.62
554.01	423.64
554.17	421.30
554.34	397.89
554.51	535.98
554.67	365.12
554.84	468.11
555.00	421.30
555.17	437.68
555.33	465.77
555.50	479.81
555.67	428.32
555.83	388.53
556.00	402.57
556.16	503.22
556.33	447.04
556.50	456.40
556.66	444.70
556.83	369.80
556.99	428.32
557.16	414.27
557.32	425.98
557.49	386.19
557.65	465.77
557.82	383.85
557.98	388.53
558.15	383.85
558.32	425.98
558.48	393.21
558.65	425.98
558.81	374.49
558.98	351.08
559.14	397.89
559.31	416.62
559.47	470.45
559.64	402.57
559.80	468.11
559.97	486.83
560.13	416.62
560.30	423.64
560.46	451.72
560.63	475.13
560.79	365.12
560.96	393.21
561.12	433.00
561.29	435.34
561.45	472.79
561.61	425.98
561.78	475.13
561.94	360.44
562.11	440.02
562.27	421.30
562.44	425.98
562.60	425.98
562.77	421.30
562.93	440.02
563.10	369.80
563.26	362.78
563.42	437.68
563.59	461.09
563.75	507.90
563.92	479.81
564.08	440.02
564.24	390.87
564.41	428.32
564.57	423.64
564.74	397.89
564.90	428.32
565.07	451.72
565.23	456.40
565.39	430.66
565.56	482.15
565.72	414.27
565.88	414.27
566.05	411.93
566.21	402.57
566.38	468.11
566.54	423.64
566.70	379.17
566.87	400.23
567.03	411.93
567.19	435.34
567.36	351.08
567.52	435.34
567.68	367.46
567.85	414.27
568.01	409.59
568.17	390.87
568.34	395.55
568.50	404.91
568.66	407.25
568.83	531.30
568.99	400.23
569.15	507.90
569.32	477.47
569.48	414.27
569.64	430.66
569.81	411.93
569.97	423.64
570.13	498.53
570.30	449.38
570.46	360.44
570.62	367.46
570.78	414.27
570.95	428.32
571.11	395.55
571.27	409.59
571.43	402.57
571.60	470.45
571.76	400.23
571.92	428.32
572.09	416.62
572.25	449.38
572.41	348.74
572.57	428.32
572.74	486.83
572.90	489.17
573.06	477.47
573.22	437.68
573.38	442.36
573.55	418.96
573.71	486.83
573.87	416.62
574.03	437.68
574.20	390.87
574.36	449.38
574.52	376.83
574.68	383.85
574.84	430.66
575.01	372.15
575.17	435.34
575.33	463.43
575.49	486.83
575.65	428.32
575.82	416.62
575.98	423.64
576.14	355.76
576.30	397.89
576.46	344.06
576.62	379.17
576.79	435.34
576.95	411.93
577.11	442.36
577.27	393.21
577.43	430.66
577.59	479.81
577.75	442.36
577.92	390.87
578.08	395.55
578.24	393.21
578.40	414.27
578.56	409.59
578.72	484.49
578.88	423.64
579.04	320.65
579.21	447.04
579.37	402.57
579.53	374.49
579.69	456.40
579.85	428.32
580.01	435.34
580.17	381.51
580.33	376.83
580.49	337.04
580.65	482.15
580.82	472.79
580.98	435.34
581.14	395.55
581.30	421.30
581.46	442.36
581.62	416.62
581.78	435.34
581.94	414.27
582.10	411.93
582.26	433.00
582.42	393.21
582.58	433.00
582.74	372.15
582.90	421.30
583.06	404.91
583.22	383.85
583.38	428.32
583.54	365.12
583.70	395.55
583.86	449.38
584.02	423.64
584.18	440.02
584.34	355.76
584.50	425.98
584.66	421.30
584.82	449.38
584.98	416.62
585.14	409.59
585.30	444.70
585.46	372.15
585.62	339.38
585.78	449.38
585.94	397.89
586.10	447.04
586.26	409.59
586.42	430.66
586.58	507.90
586.74	402.57
586.90	486.83
587.06	465.77
587.22	423.64
587.38	423.64
587.54	418.96
587.70	470.45
587.86	400.23
588.02	362.78
588.18	388.53
588.34	360.44
588.49	367.46
588.65	304.27
588.81	351.08
588.97	388.53
589.13	411.93
589.29	444.70
589.45	449.38
589.61	472.79
589.77	372.15
589.93	402.57
590.08	440.02
590.24	430.66
590.40	458.74
590.56	447.04
590.72	463.43
590.88	451.72
591.04	440.02
591.20	383.85
591.35	425.98
591.51	381.51
591.67	346.40
591.83	404.91
591.99	442.36
592.15	479.81
592.31	428.32
592.46	433.00
592.62	423.64
592.78	451.72
592.94	400.23
593.10	421.30
593.26	386.19
593.41	454.06
593.57	470.45
593.73	416.62
593.89	479.81
594.05	484.49
594.20	402.57
594.36	451.72
594.52	472.79
594.68	423.64
594.84	400.23
594.99	402.57
595.15	379.17
595.31	416.62
595.47	477.47
595.62	369.80
595.78	327.68
595.94	395.55
596.10	393.21
596.25	409.59
596.41	315.97
596.57	449.38
596.73	444.70
596.88	477.47
597.04	416.62
597.20	358.10
597.36	484.49
597.51	500.87
597.67	388.53
597.83	411.93
597.99	449.38
598.14	468.11
598.30	411.93
598.46	447.04
598.61	400.23
598.77	468.11
598.93	430.66
599.09	393.21
599.24	402.57
599.40	416.62
599.56	461.09
599.71	496.19
599.87	482.15
600.03	482.15
600.18	365.12
600.34	414.27
600.50	440.02
600.65	428.32
600.81	416.62
600.97	407.25
601.12	411.93
601.28	451.72
601.44	362.78
601.59	374.49
601.75	440.02
601.91	454.06
602.06	400.23
602.22	566.41
602.37	414.27
602.53	435.34
602.69	409.59
602.84	360.44
603.00	386.19
603.16	383.85
603.31	418.96
603.47	404.91
603.62	442.36
603.78	414.27
603.94	440.02
604.09	372.15
604.25	334.70
604.40	447.04
604.56	409.59
604.71	442.36
604.87	376.83
605.03	344.06
605.18	381.51
605.34	409.59
605.49	449.38
605.65	435.34
605.80	447.04
605.96	418.96
606.12	451.72
606.27	444.70
606.43	437.68
606.58	437.68
606.74	440.02
606.89	395.55
607.05	397.89
607.20	379.17
607.36	461.09
607.51	402.57
607.67	463.43
607.82	421.30
607.98	442.36
608.13	458.74
608.29	437.68
608.44	458.74
608.60	416.62
608.75	451.72
608.91	433.00
609.06	433.00
609.22	411.93
609.37	407.25
609.53	327.68
609.68	402.57
609.84	362.78
609.99	381.51
610.15	423.64
