SpectraSuite Data File
++++++++++++++++++++++++++++++++++++
Date: Fri Oct 25 12:11:34 EDT 2013
User: price-jones
Dark Spectrum Present: No
Reference Spectrum Present: No
Number of Sampled Component Spectra: 1
Spectrometers: USB2+H05261
Integration Time (usec): 100000 (USB2+H05261)
Spectra Averaged: 1 (USB2+H05261)
Boxcar Smoothing: 0 (USB2+H05261)
Correct for Electrical Dark: No (USB2+H05261)
Strobe/Lamp Enabled: No (USB2+H05261)
Correct for Detector Non-linearity: No (USB2+H05261)
Correct for Stray Light: No (USB2+H05261)
Number of Pixels in Processed Spectrum: 2048
>>>>>Begin Processed Spectral Data<<<<<
365.73	374.49
365.92	374.49
366.12	374.49
366.32	318.31
366.52	222.35
366.72	304.27
366.91	241.08
367.11	234.05
367.31	203.63
367.51	234.05
367.70	259.80
367.90	280.86
368.10	234.05
368.30	203.63
368.49	280.86
368.69	285.55
368.89	198.95
369.09	217.67
369.28	276.18
369.48	271.50
369.68	259.80
369.87	297.25
370.07	308.95
370.27	334.70
370.47	315.97
370.66	332.36
370.86	411.93
371.06	390.87
371.25	360.44
371.45	292.57
371.65	379.17
371.84	379.17
372.04	372.15
372.24	388.53
372.44	393.21
372.63	409.59
372.83	346.40
373.03	360.44
373.22	472.79
373.42	425.98
373.62	472.79
373.81	369.80
374.01	332.36
374.21	449.38
374.40	397.89
374.60	430.66
374.79	468.11
374.99	479.81
375.19	404.91
375.38	411.93
375.58	461.09
375.78	468.11
375.97	472.79
376.17	414.27
376.37	409.59
376.56	454.06
376.76	475.13
376.95	465.77
377.15	400.23
377.35	430.66
377.54	355.76
377.74	397.89
377.93	348.74
378.13	404.91
378.33	376.83
378.52	358.10
378.72	407.25
378.91	407.25
379.11	498.53
379.31	388.53
379.50	383.85
379.70	411.93
379.89	395.55
380.09	386.19
380.28	374.49
380.48	381.51
380.68	344.06
380.87	386.19
381.07	416.62
381.26	374.49
381.46	442.36
381.65	470.45
381.85	428.32
382.04	383.85
382.24	383.85
382.43	402.57
382.63	411.93
382.83	365.12
383.02	395.55
383.22	430.66
383.41	402.57
383.61	454.06
383.80	402.57
384.00	379.17
384.19	451.72
384.39	388.53
384.58	425.98
384.78	425.98
384.97	390.87
385.17	367.46
385.36	418.96
385.56	433.00
385.75	430.66
385.95	402.57
386.14	409.59
386.34	407.25
386.53	428.32
386.72	421.30
386.92	475.13
387.11	416.62
387.31	468.11
387.50	458.74
387.70	285.55
387.89	433.00
388.09	425.98
388.28	407.25
388.48	425.98
388.67	458.74
388.86	414.27
389.06	407.25
389.25	407.25
389.45	383.85
389.64	390.87
389.84	425.98
390.03	486.83
390.22	395.55
390.42	416.62
390.61	421.30
390.81	404.91
391.00	379.17
391.19	512.58
391.39	372.15
391.58	379.17
391.78	386.19
391.97	395.55
392.16	390.87
392.36	444.70
392.55	428.32
392.75	461.09
392.94	388.53
393.13	404.91
393.33	397.89
393.52	353.42
393.71	397.89
393.91	421.30
394.10	491.51
394.29	393.21
394.49	381.51
394.68	423.64
394.88	369.80
395.07	428.32
395.26	442.36
395.46	367.46
395.65	440.02
395.84	428.32
396.04	440.02
396.23	351.08
396.42	430.66
396.62	440.02
396.81	409.59
397.00	414.27
397.19	407.25
397.39	423.64
397.58	430.66
397.77	393.21
397.97	444.70
398.16	355.76
398.35	425.98
398.55	421.30
398.74	440.02
398.93	379.17
399.12	437.68
399.32	395.55
399.51	393.21
399.70	362.78
399.90	435.34
400.09	411.93
400.28	346.40
400.47	395.55
400.67	397.89
400.86	449.38
401.05	369.80
401.24	440.02
401.44	383.85
401.63	428.32
401.82	400.23
402.01	407.25
402.21	395.55
402.40	447.04
402.59	381.51
402.78	400.23
402.97	360.44
403.17	416.62
403.36	376.83
403.55	435.34
403.74	407.25
403.93	430.66
404.13	449.38
404.32	444.70
404.51	440.02
404.70	395.55
404.89	465.77
405.09	465.77
405.28	395.55
405.47	376.83
405.66	425.98
405.85	517.26
406.05	493.85
406.24	367.46
406.43	351.08
406.62	369.80
406.81	465.77
407.00	367.46
407.20	362.78
407.39	337.04
407.58	421.30
407.77	404.91
407.96	425.98
408.15	404.91
408.34	409.59
408.54	414.27
408.73	367.46
408.92	402.57
409.11	362.78
409.30	440.02
409.49	437.68
409.68	454.06
409.87	411.93
410.07	367.46
410.26	400.23
410.45	376.83
410.64	360.44
410.83	407.25
411.02	372.15
411.21	423.64
411.40	353.42
411.59	388.53
411.78	358.10
411.98	428.32
412.17	397.89
412.36	367.46
412.55	458.74
412.74	428.32
412.93	451.72
413.12	383.85
413.31	409.59
413.50	404.91
413.69	411.93
413.88	383.85
414.07	353.42
414.26	435.34
414.45	435.34
414.64	411.93
414.83	411.93
415.02	451.72
415.22	411.93
415.41	442.36
415.60	414.27
415.79	470.45
415.98	353.42
416.17	411.93
416.36	418.96
416.55	423.64
416.74	353.42
416.93	442.36
417.12	461.09
417.31	416.62
417.50	437.68
417.69	463.43
417.88	407.25
418.07	365.12
418.26	491.51
418.45	409.59
418.64	444.70
418.83	416.62
419.02	400.23
419.21	386.19
419.39	456.40
419.58	346.40
419.77	428.32
419.96	482.15
420.15	435.34
420.34	500.87
420.53	444.70
420.72	348.74
420.91	362.78
421.10	428.32
421.29	472.79
421.48	409.59
421.67	404.91
421.86	369.80
422.05	428.32
422.24	360.44
422.43	416.62
422.61	358.10
422.80	383.85
422.99	435.34
423.18	379.17
423.37	456.40
423.56	472.79
423.75	409.59
423.94	425.98
424.13	409.59
424.32	372.15
424.50	416.62
424.69	360.44
424.88	449.38
425.07	360.44
425.26	491.51
425.45	482.15
425.64	411.93
425.83	430.66
426.01	418.96
426.20	390.87
426.39	411.93
426.58	369.80
426.77	428.32
426.96	400.23
427.15	383.85
427.33	451.72
427.52	381.51
427.71	372.15
427.90	421.30
428.09	397.89
428.28	433.00
428.46	397.89
428.65	433.00
428.84	470.45
429.03	496.19
429.22	423.64
429.40	414.27
429.59	397.89
429.78	395.55
429.97	421.30
430.16	414.27
430.34	390.87
430.53	407.25
430.72	444.70
430.91	388.53
431.10	341.72
431.28	416.62
431.47	440.02
431.66	337.04
431.85	376.83
432.03	337.04
432.22	477.47
432.41	311.29
432.60	379.17
432.79	418.96
432.97	409.59
433.16	374.49
433.35	449.38
433.54	435.34
433.72	327.68
433.91	489.17
434.10	451.72
434.28	477.47
434.47	435.34
434.66	444.70
434.85	421.30
435.03	458.74
435.22	437.68
435.41	409.59
435.59	402.57
435.78	365.12
435.97	386.19
436.16	433.00
436.34	491.51
436.53	383.85
436.72	437.68
436.90	435.34
437.09	334.70
437.28	355.76
437.46	442.36
437.65	416.62
437.84	444.70
438.02	416.62
438.21	468.11
438.40	416.62
438.58	374.49
438.77	421.30
438.96	402.57
439.14	430.66
439.33	381.51
439.52	425.98
439.70	479.81
439.89	388.53
440.08	496.19
440.26	372.15
440.45	458.74
440.63	393.21
440.82	407.25
441.01	400.23
441.19	365.12
441.38	449.38
441.57	409.59
441.75	416.62
441.94	468.11
442.12	362.78
442.31	395.55
442.50	437.68
442.68	425.98
442.87	409.59
443.05	416.62
443.24	475.13
443.43	386.19
443.61	458.74
443.80	510.24
443.98	454.06
444.17	362.78
444.35	514.92
444.54	393.21
444.73	409.59
444.91	491.51
445.10	360.44
445.28	315.97
445.47	411.93
445.65	395.55
445.84	447.04
446.02	435.34
446.21	470.45
446.39	442.36
446.58	475.13
446.77	414.27
446.95	454.06
447.14	351.08
447.32	456.40
447.51	339.38
447.69	395.55
447.88	461.09
448.06	425.98
448.25	374.49
448.43	393.21
448.62	367.46
448.80	381.51
448.99	402.57
449.17	388.53
449.36	409.59
449.54	435.34
449.73	397.89
449.91	423.64
450.10	454.06
450.28	503.22
450.46	454.06
450.65	477.47
450.83	456.40
451.02	407.25
451.20	390.87
451.39	404.91
451.57	468.11
451.76	423.64
451.94	435.34
452.13	477.47
452.31	337.04
452.49	414.27
452.68	461.09
452.86	449.38
453.05	449.38
453.23	402.57
453.42	390.87
453.60	484.49
453.78	442.36
453.97	430.66
454.15	444.70
454.34	388.53
454.52	437.68
454.70	470.45
454.89	425.98
455.07	409.59
455.26	479.81
455.44	425.98
455.62	390.87
455.81	297.25
455.99	430.66
456.17	428.32
456.36	355.76
456.54	322.99
456.73	362.78
456.91	421.30
457.09	428.32
457.28	491.51
457.46	418.96
457.64	407.25
457.83	505.56
458.01	381.51
458.19	465.77
458.38	414.27
458.56	428.32
458.74	418.96
458.93	421.30
459.11	472.79
459.29	409.59
459.48	447.04
459.66	444.70
459.84	468.11
460.03	521.94
460.21	475.13
460.39	449.38
460.57	447.04
460.76	449.38
460.94	411.93
461.12	418.96
461.31	447.04
461.49	444.70
461.67	468.11
461.85	395.55
462.04	447.04
462.22	716.20
462.40	470.45
462.59	390.87
462.77	339.38
462.95	379.17
463.13	435.34
463.32	416.62
463.50	393.21
463.68	421.30
463.86	430.66
464.05	393.21
464.23	400.23
464.41	484.49
464.59	428.32
464.78	393.21
464.96	409.59
465.14	400.23
465.32	477.47
465.50	444.70
465.69	386.19
465.87	376.83
466.05	449.38
466.23	351.08
466.41	339.38
466.60	435.34
466.78	414.27
466.96	421.30
467.14	458.74
467.32	362.78
467.51	404.91
467.69	451.72
467.87	411.93
468.05	351.08
468.23	440.02
468.41	456.40
468.60	390.87
468.78	449.38
468.96	414.27
469.14	458.74
469.32	407.25
469.50	341.72
469.69	390.87
469.87	425.98
470.05	430.66
470.23	456.40
470.41	421.30
470.59	397.89
470.77	433.00
470.95	428.32
471.14	433.00
471.32	425.98
471.50	472.79
471.68	435.34
471.86	425.98
472.04	393.21
472.22	400.23
472.40	330.02
472.58	397.89
472.77	397.89
472.95	458.74
473.13	451.72
473.31	430.66
473.49	381.51
473.67	418.96
473.85	433.00
474.03	383.85
474.21	454.06
474.39	538.32
474.57	456.40
474.75	440.02
474.93	451.72
475.12	365.12
475.30	440.02
475.48	372.15
475.66	447.04
475.84	433.00
476.02	402.57
476.20	400.23
476.38	486.83
476.56	463.43
476.74	428.32
476.92	416.62
477.10	372.15
477.28	465.77
477.46	400.23
477.64	395.55
477.82	435.34
478.00	425.98
478.18	383.85
478.36	346.40
478.54	472.79
478.72	440.02
478.90	454.06
479.08	470.45
479.26	444.70
479.44	397.89
479.62	388.53
479.80	383.85
479.98	416.62
480.16	402.57
480.34	444.70
480.52	428.32
480.70	418.96
480.88	430.66
481.06	409.59
481.24	425.98
481.41	386.19
481.59	376.83
481.77	456.40
481.95	402.57
482.13	472.79
482.31	465.77
482.49	341.72
482.67	411.93
482.85	444.70
483.03	407.25
483.21	475.13
483.39	395.55
483.57	414.27
483.74	468.11
483.92	407.25
484.10	449.38
484.28	449.38
484.46	512.58
484.64	414.27
484.82	461.09
485.00	414.27
485.18	491.51
485.35	381.51
485.53	376.83
485.71	435.34
485.89	383.85
486.07	390.87
486.25	472.79
486.43	430.66
486.61	440.02
486.78	472.79
486.96	416.62
487.14	360.44
487.32	437.68
487.50	383.85
487.68	421.30
487.85	468.11
488.03	425.98
488.21	353.42
488.39	351.08
488.57	393.21
488.75	360.44
488.92	496.19
489.10	423.64
489.28	463.43
489.46	346.40
489.64	433.00
489.81	383.85
489.99	505.56
490.17	418.96
490.35	423.64
490.53	397.89
490.70	390.87
490.88	535.98
491.06	386.19
491.24	428.32
491.41	456.40
491.59	442.36
491.77	341.72
491.95	430.66
492.13	360.44
492.30	355.76
492.48	463.43
492.66	442.36
492.84	365.12
493.01	407.25
493.19	475.13
493.37	421.30
493.54	491.51
493.72	454.06
493.90	435.34
494.08	470.45
494.25	383.85
494.43	348.74
494.61	428.32
494.79	407.25
494.96	330.02
495.14	393.21
495.32	379.17
495.49	404.91
495.67	369.80
495.85	374.49
496.02	409.59
496.20	416.62
496.38	447.04
496.55	421.30
496.73	404.91
496.91	362.78
497.09	383.85
497.26	454.06
497.44	456.40
497.62	449.38
497.79	425.98
497.97	430.66
498.14	442.36
498.32	475.13
498.50	447.04
498.67	444.70
498.85	458.74
499.03	418.96
499.20	388.53
499.38	393.21
499.56	414.27
499.73	451.72
499.91	395.55
500.08	395.55
500.26	451.72
500.44	346.40
500.61	369.80
500.79	418.96
500.97	416.62
501.14	421.30
501.32	346.40
501.49	411.93
501.67	376.83
501.84	383.85
502.02	463.43
502.20	463.43
502.37	414.27
502.55	425.98
502.72	414.27
502.90	484.49
503.07	458.74
503.25	475.13
503.43	400.23
503.60	407.25
503.78	395.55
503.95	423.64
504.13	437.68
504.30	433.00
504.48	407.25
504.65	444.70
504.83	358.10
505.01	372.15
505.18	437.68
505.36	402.57
505.53	376.83
505.71	393.21
505.88	475.13
506.06	428.32
506.23	430.66
506.41	447.04
506.58	447.04
506.76	437.68
506.93	344.06
507.11	437.68
507.28	421.30
507.46	388.53
507.63	400.23
507.81	411.93
507.98	440.02
508.16	437.68
508.33	353.42
508.50	365.12
508.68	447.04
508.85	367.46
509.03	423.64
509.20	379.17
509.38	341.72
509.55	423.64
509.73	390.87
509.90	451.72
510.08	397.89
510.25	360.44
510.42	404.91
510.60	367.46
510.77	404.91
510.95	393.21
511.12	379.17
511.30	376.83
511.47	409.59
511.64	386.19
511.82	423.64
511.99	425.98
512.17	489.17
512.34	365.12
512.51	465.77
512.69	348.74
512.86	465.77
513.04	374.49
513.21	430.66
513.38	318.31
513.56	421.30
513.73	409.59
513.90	435.34
514.08	447.04
514.25	414.27
514.43	388.53
514.60	407.25
514.77	423.64
514.95	489.17
515.12	411.93
515.29	430.66
515.47	409.59
515.64	400.23
515.81	337.04
515.99	372.15
516.16	421.30
516.33	376.83
516.51	447.04
516.68	414.27
516.85	327.68
517.03	351.08
517.20	407.25
517.37	376.83
517.54	402.57
517.72	430.66
517.89	397.89
518.06	423.64
518.24	442.36
518.41	498.53
518.58	386.19
518.75	393.21
518.93	388.53
519.10	421.30
519.27	444.70
519.45	486.83
519.62	458.74
519.79	428.32
519.96	444.70
520.14	442.36
520.31	430.66
520.48	435.34
520.65	428.32
520.83	386.19
521.00	395.55
521.17	416.62
521.34	395.55
521.52	454.06
521.69	430.66
521.86	390.87
522.03	447.04
522.20	425.98
522.38	428.32
522.55	386.19
522.72	376.83
522.89	461.09
523.07	463.43
523.24	468.11
523.41	407.25
523.58	362.78
523.75	421.30
523.92	484.49
524.10	440.02
524.27	421.30
524.44	479.81
524.61	435.34
524.78	407.25
524.96	425.98
525.13	454.06
525.30	470.45
525.47	416.62
525.64	395.55
525.81	447.04
525.98	353.42
526.16	418.96
526.33	430.66
526.50	372.15
526.67	369.80
526.84	383.85
527.01	369.80
527.18	400.23
527.36	402.57
527.53	386.19
527.70	400.23
527.87	393.21
528.04	447.04
528.21	402.57
528.38	369.80
528.55	430.66
528.72	442.36
528.89	475.13
529.07	362.78
529.24	369.80
529.41	440.02
529.58	449.38
529.75	477.47
529.92	456.40
530.09	388.53
530.26	437.68
530.43	416.62
530.60	475.13
530.77	421.30
530.94	444.70
531.11	393.21
531.28	388.53
531.46	407.25
531.63	507.90
531.80	418.96
531.97	416.62
532.14	388.53
532.31	355.76
532.48	358.10
532.65	479.81
532.82	390.87
532.99	376.83
533.16	386.19
533.33	425.98
533.50	402.57
533.67	330.02
533.84	456.40
534.01	454.06
534.18	376.83
534.35	362.78
534.52	475.13
534.69	404.91
534.86	444.70
535.03	397.89
535.20	400.23
535.37	461.09
535.54	414.27
535.71	372.15
535.88	402.57
536.05	425.98
536.22	461.09
536.38	395.55
536.55	437.68
536.72	414.27
536.89	379.17
537.06	465.77
537.23	430.66
537.40	339.38
537.57	458.74
537.74	498.53
537.91	475.13
538.08	421.30
538.25	444.70
538.42	409.59
538.59	482.15
538.75	440.02
538.92	351.08
539.09	440.02
539.26	372.15
539.43	425.98
539.60	339.38
539.77	430.66
539.94	440.02
540.11	397.89
540.28	472.79
540.44	489.17
540.61	374.49
540.78	456.40
540.95	437.68
541.12	456.40
541.29	409.59
541.46	463.43
541.62	409.59
541.79	404.91
541.96	461.09
542.13	442.36
542.30	465.77
542.47	451.72
542.63	409.59
542.80	456.40
542.97	379.17
543.14	381.51
543.31	449.38
543.48	404.91
543.64	444.70
543.81	411.93
543.98	435.34
544.15	475.13
544.32	414.27
544.48	416.62
544.65	388.53
544.82	418.96
544.99	381.51
545.16	421.30
545.32	428.32
545.49	444.70
545.66	414.27
545.83	451.72
546.00	348.74
546.16	358.10
546.33	442.36
546.50	400.23
546.67	428.32
546.83	414.27
547.00	388.53
547.17	390.87
547.34	437.68
547.50	313.63
547.67	435.34
547.84	421.30
548.00	407.25
548.17	468.11
548.34	404.91
548.51	440.02
548.67	416.62
548.84	430.66
549.01	367.46
549.18	400.23
549.34	404.91
549.51	341.72
549.68	409.59
549.84	402.57
550.01	444.70
550.18	447.04
550.34	472.79
550.51	383.85
550.68	510.24
550.84	386.19
551.01	433.00
551.18	400.23
551.34	393.21
551.51	404.91
551.68	346.40
551.84	386.19
552.01	390.87
552.18	383.85
552.34	407.25
552.51	367.46
552.68	358.10
552.84	433.00
553.01	407.25
553.18	421.30
553.34	390.87
553.51	397.89
553.67	390.87
553.84	425.98
554.01	355.76
554.17	451.72
554.34	447.04
554.51	367.46
554.67	411.93
554.84	472.79
555.00	430.66
555.17	437.68
555.33	400.23
555.50	435.34
555.67	440.02
555.83	379.17
556.00	418.96
556.16	514.92
556.33	395.55
556.50	421.30
556.66	461.09
556.83	411.93
556.99	428.32
557.16	458.74
557.32	411.93
557.49	437.68
557.65	428.32
557.82	407.25
557.98	362.78
558.15	386.19
558.32	491.51
558.48	404.91
558.65	463.43
558.81	421.30
558.98	472.79
559.14	418.96
559.31	423.64
559.47	514.92
559.64	456.40
559.80	372.15
559.97	397.89
560.13	341.72
560.30	421.30
560.46	421.30
560.63	428.32
560.79	456.40
560.96	409.59
561.12	400.23
561.29	390.87
561.45	374.49
561.61	425.98
561.78	479.81
561.94	468.11
562.11	395.55
562.27	416.62
562.44	421.30
562.60	456.40
562.77	404.91
562.93	402.57
563.10	433.00
563.26	428.32
563.42	475.13
563.59	437.68
563.75	341.72
563.92	418.96
564.08	388.53
564.24	465.77
564.41	503.22
564.57	365.12
564.74	435.34
564.90	407.25
565.07	418.96
565.23	437.68
565.39	379.17
565.56	416.62
565.72	383.85
565.88	454.06
566.05	365.12
566.21	475.13
566.38	465.77
566.54	449.38
566.70	458.74
566.87	430.66
567.03	451.72
567.19	388.53
567.36	430.66
567.52	383.85
567.68	425.98
567.85	418.96
568.01	433.00
568.17	475.13
568.34	397.89
568.50	458.74
568.66	325.33
568.83	435.34
568.99	423.64
569.15	463.43
569.32	372.15
569.48	402.57
569.64	327.68
569.81	468.11
569.97	421.30
570.13	372.15
570.30	496.19
570.46	461.09
570.62	374.49
570.78	397.89
570.95	440.02
571.11	463.43
571.27	430.66
571.43	374.49
571.60	407.25
571.76	381.51
571.92	430.66
572.09	383.85
572.25	376.83
572.41	512.58
572.57	451.72
572.74	477.47
572.90	428.32
573.06	374.49
573.22	442.36
573.38	503.22
573.55	519.60
573.71	407.25
573.87	449.38
574.03	472.79
574.20	395.55
574.36	435.34
574.52	409.59
574.68	416.62
574.84	470.45
575.01	423.64
575.17	472.79
575.33	390.87
575.49	425.98
575.65	425.98
575.82	318.31
575.98	442.36
576.14	407.25
576.30	461.09
576.46	395.55
576.62	379.17
576.79	442.36
576.95	409.59
577.11	433.00
577.27	428.32
577.43	519.60
577.59	479.81
577.75	379.17
577.92	369.80
578.08	418.96
578.24	402.57
578.40	475.13
578.56	491.51
578.72	421.30
578.88	425.98
579.04	409.59
579.21	465.77
579.37	397.89
579.53	397.89
579.69	395.55
579.85	416.62
580.01	362.78
580.17	463.43
580.33	470.45
580.49	374.49
580.65	447.04
580.82	409.59
580.98	416.62
581.14	409.59
581.30	367.46
581.46	437.68
581.62	428.32
581.78	386.19
581.94	451.72
582.10	418.96
582.26	400.23
582.42	369.80
582.58	425.98
582.74	425.98
582.90	437.68
583.06	463.43
583.22	402.57
583.38	456.40
583.54	409.59
583.70	489.17
583.86	425.98
584.02	428.32
584.18	461.09
584.34	458.74
584.50	451.72
584.66	379.17
584.82	369.80
584.98	372.15
585.14	332.36
585.30	514.92
585.46	365.12
585.62	383.85
585.78	402.57
585.94	421.30
586.10	386.19
586.26	428.32
586.42	414.27
586.58	454.06
586.74	437.68
586.90	411.93
587.06	325.33
587.22	451.72
587.38	376.83
587.54	386.19
587.70	433.00
587.86	376.83
588.02	449.38
588.18	397.89
588.34	449.38
588.49	407.25
588.65	456.40
588.81	383.85
588.97	393.21
589.13	449.38
589.29	463.43
589.45	477.47
589.61	486.83
589.77	475.13
589.93	465.77
590.08	390.87
590.24	414.27
590.40	454.06
590.56	379.17
590.72	388.53
590.88	379.17
591.04	461.09
591.20	409.59
591.35	390.87
591.51	383.85
591.67	411.93
591.83	425.98
591.99	465.77
592.15	449.38
592.31	404.91
592.46	386.19
592.62	507.90
592.78	421.30
592.94	411.93
593.10	458.74
593.26	402.57
593.41	362.78
593.57	489.17
593.73	381.51
593.89	430.66
594.05	418.96
594.20	376.83
594.36	404.91
594.52	346.40
594.68	402.57
594.84	418.96
594.99	475.13
595.15	444.70
595.31	503.22
595.47	407.25
595.62	381.51
595.78	395.55
595.94	428.32
596.10	416.62
596.25	475.13
596.41	444.70
596.57	449.38
596.73	348.74
596.88	390.87
597.04	461.09
597.20	414.27
597.36	409.59
597.51	456.40
597.67	433.00
597.83	491.51
597.99	461.09
598.14	390.87
598.30	444.70
598.46	414.27
598.61	397.89
598.77	414.27
598.93	397.89
599.09	355.76
599.24	400.23
599.40	416.62
599.56	374.49
599.71	376.83
599.87	407.25
600.03	433.00
600.18	430.66
600.34	372.15
600.50	479.81
600.65	379.17
600.81	440.02
600.97	346.40
601.12	402.57
601.28	433.00
601.44	451.72
601.59	458.74
601.75	374.49
601.91	376.83
602.06	475.13
602.22	489.17
602.37	491.51
602.53	414.27
602.69	416.62
602.84	482.15
603.00	390.87
603.16	444.70
603.31	376.83
603.47	381.51
603.62	442.36
603.78	351.08
603.94	369.80
604.09	423.64
604.25	458.74
604.40	407.25
604.56	461.09
604.71	454.06
604.87	442.36
605.03	482.15
605.18	463.43
605.34	386.19
605.49	444.70
605.65	348.74
605.80	369.80
605.96	458.74
606.12	421.30
606.27	463.43
606.43	440.02
606.58	433.00
606.74	376.83
606.89	395.55
607.05	472.79
607.20	360.44
607.36	327.68
607.51	454.06
607.67	421.30
607.82	468.11
607.98	465.77
608.13	358.10
608.29	388.53
608.44	404.91
608.60	437.68
608.75	489.17
608.91	444.70
609.06	454.06
609.22	437.68
609.37	437.68
609.53	489.17
609.68	428.32
609.84	465.77
609.99	461.09
610.15	414.27
