SpectraSuite Data File
++++++++++++++++++++++++++++++++++++
Date: Fri Oct 25 12:11:30 EDT 2013
User: price-jones
Dark Spectrum Present: No
Reference Spectrum Present: No
Number of Sampled Component Spectra: 1
Spectrometers: USB2+H05261
Integration Time (usec): 100000 (USB2+H05261)
Spectra Averaged: 1 (USB2+H05261)
Boxcar Smoothing: 0 (USB2+H05261)
Correct for Electrical Dark: No (USB2+H05261)
Strobe/Lamp Enabled: No (USB2+H05261)
Correct for Detector Non-linearity: No (USB2+H05261)
Correct for Stray Light: No (USB2+H05261)
Number of Pixels in Processed Spectrum: 2048
>>>>>Begin Processed Spectral Data<<<<<
365.73	320.65
365.92	320.65
366.12	320.65
366.32	241.08
366.52	234.05
366.72	248.10
366.91	220.01
367.11	224.69
367.31	278.52
367.51	205.97
367.70	224.69
367.90	266.82
368.10	152.13
368.30	248.10
368.49	250.44
368.69	262.14
368.89	234.05
369.09	313.63
369.28	304.27
369.48	299.59
369.68	264.48
369.87	301.93
370.07	241.08
370.27	297.25
370.47	341.72
370.66	360.44
370.86	341.72
371.06	496.19
371.25	351.08
371.45	440.02
371.65	402.57
371.84	360.44
372.04	339.38
372.24	379.17
372.44	407.25
372.63	430.66
372.83	447.04
373.03	416.62
373.22	388.53
373.42	428.32
373.62	381.51
373.81	374.49
374.01	381.51
374.21	421.30
374.40	418.96
374.60	444.70
374.79	433.00
374.99	456.40
375.19	447.04
375.38	444.70
375.58	416.62
375.78	451.72
375.97	418.96
376.17	519.60
376.37	407.25
376.56	400.23
376.76	367.46
376.95	416.62
377.15	376.83
377.35	402.57
377.54	376.83
377.74	496.19
377.93	428.32
378.13	400.23
378.33	461.09
378.52	397.89
378.72	435.34
378.91	423.64
379.11	395.55
379.31	379.17
379.50	402.57
379.70	372.15
379.89	414.27
380.09	477.47
380.28	381.51
380.48	433.00
380.68	388.53
380.87	409.59
381.07	482.15
381.26	449.38
381.46	435.34
381.65	383.85
381.85	376.83
382.04	409.59
382.24	440.02
382.43	379.17
382.63	400.23
382.83	437.68
383.02	442.36
383.22	437.68
383.41	440.02
383.61	425.98
383.80	383.85
384.00	463.43
384.19	402.57
384.39	334.70
384.58	449.38
384.78	386.19
384.97	362.78
385.17	400.23
385.36	486.83
385.56	407.25
385.75	348.74
385.95	461.09
386.14	407.25
386.34	353.42
386.53	470.45
386.72	468.11
386.92	430.66
387.11	437.68
387.31	402.57
387.50	418.96
387.70	369.80
387.89	400.23
388.09	454.06
388.28	344.06
388.48	355.76
388.67	409.59
388.86	386.19
389.06	463.43
389.25	344.06
389.45	458.74
389.64	414.27
389.84	435.34
390.03	332.36
390.22	362.78
390.42	388.53
390.61	332.36
390.81	374.49
391.00	325.33
391.19	395.55
391.39	397.89
391.58	404.91
391.78	278.52
391.97	362.78
392.16	362.78
392.36	393.21
392.55	442.36
392.75	332.36
392.94	425.98
393.13	402.57
393.33	388.53
393.52	444.70
393.71	444.70
393.91	463.43
394.10	433.00
394.29	404.91
394.49	358.10
394.68	430.66
394.88	444.70
395.07	428.32
395.26	425.98
395.46	486.83
395.65	430.66
395.84	447.04
396.04	447.04
396.23	367.46
396.42	449.38
396.62	468.11
396.81	393.21
397.00	421.30
397.19	383.85
397.39	414.27
397.58	416.62
397.77	411.93
397.97	418.96
398.16	440.02
398.35	369.80
398.55	332.36
398.74	428.32
398.93	456.40
399.12	386.19
399.32	423.64
399.51	393.21
399.70	404.91
399.90	449.38
400.09	421.30
400.28	376.83
400.47	341.72
400.67	395.55
400.86	414.27
401.05	322.99
401.24	433.00
401.44	428.32
401.63	402.57
401.82	407.25
402.01	400.23
402.21	372.15
402.40	386.19
402.59	411.93
402.78	407.25
402.97	421.30
403.17	374.49
403.36	353.42
403.55	407.25
403.74	372.15
403.93	416.62
404.13	496.19
404.32	395.55
404.51	386.19
404.70	484.49
404.89	353.42
405.09	444.70
405.28	409.59
405.47	425.98
405.66	425.98
405.85	386.19
406.05	411.93
406.24	402.57
406.43	447.04
406.62	393.21
406.81	404.91
407.00	458.74
407.20	402.57
407.39	402.57
407.58	388.53
407.77	381.51
407.96	411.93
408.15	425.98
408.34	451.72
408.54	397.89
408.73	423.64
408.92	388.53
409.11	379.17
409.30	360.44
409.49	351.08
409.68	362.78
409.87	437.68
410.07	383.85
410.26	376.83
410.45	407.25
410.64	500.87
410.83	433.00
411.02	425.98
411.21	435.34
411.40	449.38
411.59	393.21
411.78	390.87
411.98	353.42
412.17	383.85
412.36	411.93
412.55	447.04
412.74	404.91
412.93	470.45
413.12	461.09
413.31	493.85
413.50	383.85
413.69	435.34
413.88	465.77
414.07	461.09
414.26	421.30
414.45	409.59
414.64	435.34
414.83	437.68
415.02	435.34
415.22	360.44
415.41	435.34
415.60	390.87
415.79	400.23
415.98	414.27
416.17	386.19
416.36	428.32
416.55	367.46
416.74	456.40
416.93	444.70
417.12	444.70
417.31	397.89
417.50	341.72
417.69	470.45
417.88	512.58
418.07	400.23
418.26	337.04
418.45	425.98
418.64	454.06
418.83	425.98
419.02	355.76
419.21	365.12
419.39	475.13
419.58	407.25
419.77	332.36
419.96	374.49
420.15	440.02
420.34	372.15
420.53	400.23
420.72	486.83
420.91	374.49
421.10	367.46
421.29	402.57
421.48	423.64
421.67	418.96
421.86	341.72
422.05	404.91
422.24	365.12
422.43	411.93
422.61	437.68
422.80	418.96
422.99	346.40
423.18	376.83
423.37	381.51
423.56	456.40
423.75	486.83
423.94	454.06
424.13	386.19
424.32	418.96
424.50	400.23
424.69	386.19
424.88	461.09
425.07	393.21
425.26	435.34
425.45	430.66
425.64	402.57
425.83	435.34
426.01	491.51
426.20	447.04
426.39	435.34
426.58	482.15
426.77	411.93
426.96	388.53
427.15	409.59
427.33	374.49
427.52	411.93
427.71	428.32
427.90	362.78
428.09	393.21
428.28	362.78
428.46	442.36
428.65	346.40
428.84	397.89
429.03	444.70
429.22	400.23
429.40	449.38
429.59	491.51
429.78	447.04
429.97	444.70
430.16	428.32
430.34	411.93
430.53	402.57
430.72	404.91
430.91	468.11
431.10	414.27
431.28	404.91
431.47	416.62
431.66	346.40
431.85	414.27
432.03	451.72
432.22	421.30
432.41	416.62
432.60	404.91
432.79	390.87
432.97	414.27
433.16	435.34
433.35	437.68
433.54	404.91
433.72	444.70
433.91	491.51
434.10	416.62
434.28	383.85
434.47	451.72
434.66	484.49
434.85	400.23
435.03	395.55
435.22	320.65
435.41	482.15
435.59	348.74
435.78	393.21
435.97	360.44
436.16	411.93
436.34	418.96
436.53	351.08
436.72	440.02
436.90	451.72
437.09	379.17
437.28	447.04
437.46	444.70
437.65	498.53
437.84	388.53
438.02	425.98
438.21	500.87
438.40	421.30
438.58	411.93
438.77	418.96
438.96	379.17
439.14	454.06
439.33	409.59
439.52	454.06
439.70	468.11
439.89	393.21
440.08	421.30
440.26	379.17
440.45	390.87
440.63	444.70
440.82	395.55
441.01	482.15
441.19	369.80
441.38	468.11
441.57	421.30
441.75	496.19
441.94	390.87
442.12	425.98
442.31	440.02
442.50	395.55
442.68	388.53
442.87	421.30
443.05	430.66
443.24	416.62
443.43	442.36
443.61	407.25
443.80	393.21
443.98	407.25
444.17	341.72
444.35	379.17
444.54	355.76
444.73	390.87
444.91	451.72
445.10	383.85
445.28	442.36
445.47	463.43
445.65	388.53
445.84	451.72
446.02	468.11
446.21	456.40
446.39	510.24
446.58	404.91
446.77	367.46
446.95	381.51
447.14	411.93
447.32	454.06
447.51	411.93
447.69	461.09
447.88	351.08
448.06	449.38
448.25	442.36
448.43	423.64
448.62	325.33
448.80	411.93
448.99	360.44
449.17	423.64
449.36	409.59
449.54	421.30
449.73	435.34
449.91	440.02
450.10	428.32
450.28	379.17
450.46	400.23
450.65	390.87
450.83	411.93
451.02	372.15
451.20	393.21
451.39	482.15
451.57	374.49
451.76	447.04
451.94	358.10
452.13	470.45
452.31	463.43
452.49	402.57
452.68	388.53
452.86	416.62
453.05	444.70
453.23	454.06
453.42	334.70
453.60	411.93
453.78	416.62
453.97	395.55
454.15	454.06
454.34	475.13
454.52	454.06
454.70	430.66
454.89	470.45
455.07	395.55
455.26	423.64
455.44	418.96
455.62	376.83
455.81	395.55
455.99	365.12
456.17	372.15
456.36	416.62
456.54	421.30
456.73	463.43
456.91	383.85
457.09	414.27
457.28	404.91
457.46	444.70
457.64	404.91
457.83	379.17
458.01	411.93
458.19	430.66
458.38	400.23
458.56	362.78
458.74	397.89
458.93	388.53
459.11	430.66
459.29	376.83
459.48	423.64
459.66	458.74
459.84	442.36
460.03	440.02
460.21	482.15
460.39	451.72
460.57	444.70
460.76	447.04
460.94	381.51
461.12	416.62
461.31	465.77
461.49	461.09
461.67	475.13
461.85	411.93
462.04	444.70
462.22	753.65
462.40	447.04
462.59	421.30
462.77	409.59
462.95	486.83
463.13	407.25
463.32	423.64
463.50	409.59
463.68	407.25
463.86	468.11
464.05	397.89
464.23	418.96
464.41	454.06
464.59	435.34
464.78	390.87
464.96	456.40
465.14	390.87
465.32	444.70
465.50	425.98
465.69	409.59
465.87	379.17
466.05	374.49
466.23	425.98
466.41	416.62
466.60	390.87
466.78	339.38
466.96	440.02
467.14	372.15
467.32	470.45
467.51	360.44
467.69	456.40
467.87	456.40
468.05	489.17
468.23	531.30
468.41	454.06
468.60	435.34
468.78	393.21
468.96	500.87
469.14	489.17
469.32	472.79
469.50	493.85
469.69	470.45
469.87	372.15
470.05	470.45
470.23	367.46
470.41	383.85
470.59	407.25
470.77	404.91
470.95	395.55
471.14	372.15
471.32	337.04
471.50	404.91
471.68	388.53
471.86	404.91
472.04	351.08
472.22	414.27
472.40	423.64
472.58	344.06
472.77	437.68
472.95	440.02
473.13	416.62
473.31	423.64
473.49	416.62
473.67	358.10
473.85	435.34
474.03	442.36
474.21	400.23
474.39	475.13
474.57	456.40
474.75	472.79
474.93	402.57
475.12	411.93
475.30	414.27
475.48	407.25
475.66	456.40
475.84	379.17
476.02	430.66
476.20	437.68
476.38	444.70
476.56	526.62
476.74	433.00
476.92	407.25
477.10	423.64
477.28	477.47
477.46	376.83
477.64	435.34
477.82	423.64
478.00	411.93
478.18	447.04
478.36	407.25
478.54	423.64
478.72	372.15
478.90	435.34
479.08	402.57
479.26	454.06
479.44	372.15
479.62	409.59
479.80	421.30
479.98	442.36
480.16	428.32
480.34	456.40
480.52	376.83
480.70	367.46
480.88	346.40
481.06	411.93
481.24	388.53
481.41	442.36
481.59	421.30
481.77	428.32
481.95	479.81
482.13	444.70
482.31	454.06
482.49	411.93
482.67	442.36
482.85	472.79
483.03	411.93
483.21	444.70
483.39	360.44
483.57	400.23
483.74	514.92
483.92	397.89
484.10	477.47
484.28	358.10
484.46	400.23
484.64	404.91
484.82	402.57
485.00	449.38
485.18	386.19
485.35	461.09
485.53	449.38
485.71	442.36
485.89	458.74
486.07	475.13
486.25	411.93
486.43	376.83
486.61	442.36
486.78	409.59
486.96	425.98
487.14	374.49
487.32	372.15
487.50	447.04
487.68	393.21
487.85	400.23
488.03	456.40
488.21	463.43
488.39	437.68
488.57	388.53
488.75	433.00
488.92	486.83
489.10	425.98
489.28	402.57
489.46	433.00
489.64	425.98
489.81	397.89
489.99	369.80
490.17	379.17
490.35	374.49
490.53	416.62
490.70	416.62
490.88	493.85
491.06	407.25
491.24	461.09
491.41	435.34
491.59	484.49
491.77	383.85
491.95	407.25
492.13	360.44
492.30	372.15
492.48	472.79
492.66	369.80
492.84	393.21
493.01	433.00
493.19	454.06
493.37	449.38
493.54	463.43
493.72	479.81
493.90	383.85
494.08	475.13
494.25	465.77
494.43	423.64
494.61	376.83
494.79	421.30
494.96	416.62
495.14	507.90
495.32	367.46
495.49	451.72
495.67	440.02
495.85	416.62
496.02	393.21
496.20	425.98
496.38	416.62
496.55	421.30
496.73	407.25
496.91	386.19
497.09	435.34
497.26	461.09
497.44	416.62
497.62	479.81
497.79	418.96
497.97	416.62
498.14	454.06
498.32	437.68
498.50	433.00
498.67	482.15
498.85	482.15
499.03	461.09
499.20	449.38
499.38	418.96
499.56	404.91
499.73	486.83
499.91	395.55
500.08	440.02
500.26	416.62
500.44	374.49
500.61	404.91
500.79	440.02
500.97	440.02
501.14	407.25
501.32	493.85
501.49	456.40
501.67	472.79
501.84	421.30
502.02	418.96
502.20	491.51
502.37	470.45
502.55	383.85
502.72	468.11
502.90	421.30
503.07	372.15
503.25	383.85
503.43	418.96
503.60	463.43
503.78	421.30
503.95	454.06
504.13	416.62
504.30	447.04
504.48	411.93
504.65	437.68
504.83	449.38
505.01	376.83
505.18	400.23
505.36	458.74
505.53	437.68
505.71	482.15
505.88	449.38
506.06	411.93
506.23	435.34
506.41	470.45
506.58	390.87
506.76	409.59
506.93	414.27
507.11	430.66
507.28	465.77
507.46	379.17
507.63	411.93
507.81	400.23
507.98	463.43
508.16	374.49
508.33	435.34
508.50	449.38
508.68	461.09
508.85	428.32
509.03	400.23
509.20	351.08
509.38	449.38
509.55	421.30
509.73	543.00
509.90	444.70
510.08	376.83
510.25	425.98
510.42	395.55
510.60	437.68
510.77	456.40
510.95	407.25
511.12	409.59
511.30	440.02
511.47	411.93
511.64	521.94
511.82	365.12
511.99	386.19
512.17	400.23
512.34	358.10
512.51	369.80
512.69	421.30
512.86	475.13
513.04	348.74
513.21	397.89
513.38	479.81
513.56	493.85
513.73	407.25
513.90	362.78
514.08	428.32
514.25	421.30
514.43	425.98
514.60	430.66
514.77	400.23
514.95	456.40
515.12	395.55
515.29	409.59
515.47	369.80
515.64	404.91
515.81	337.04
515.99	421.30
516.16	449.38
516.33	437.68
516.51	503.22
516.68	341.72
516.85	353.42
517.03	376.83
517.20	416.62
517.37	463.43
517.54	437.68
517.72	402.57
517.89	404.91
518.06	362.78
518.24	369.80
518.41	454.06
518.58	465.77
518.75	395.55
518.93	362.78
519.10	440.02
519.27	463.43
519.45	390.87
519.62	468.11
519.79	383.85
519.96	400.23
520.14	409.59
520.31	458.74
520.48	451.72
520.65	376.83
520.83	440.02
521.00	341.72
521.17	428.32
521.34	425.98
521.52	472.79
521.69	447.04
521.86	418.96
522.03	440.02
522.20	475.13
522.38	386.19
522.55	435.34
522.72	416.62
522.89	447.04
523.07	472.79
523.24	386.19
523.41	472.79
523.58	393.21
523.75	447.04
523.92	418.96
524.10	411.93
524.27	346.40
524.44	442.36
524.61	411.93
524.78	484.49
524.96	456.40
525.13	383.85
525.30	404.91
525.47	418.96
525.64	425.98
525.81	414.27
525.98	433.00
526.16	386.19
526.33	404.91
526.50	414.27
526.67	428.32
526.84	358.10
527.01	397.89
527.18	381.51
527.36	477.47
527.53	397.89
527.70	390.87
527.87	472.79
528.04	493.85
528.21	379.17
528.38	454.06
528.55	381.51
528.72	430.66
528.89	409.59
529.07	454.06
529.24	386.19
529.41	463.43
529.58	484.49
529.75	367.46
529.92	367.46
530.09	447.04
530.26	369.80
530.43	367.46
530.60	449.38
530.77	444.70
530.94	470.45
531.11	463.43
531.28	451.72
531.46	393.21
531.63	421.30
531.80	489.17
531.97	421.30
532.14	430.66
532.31	449.38
532.48	468.11
532.65	477.47
532.82	365.12
532.99	409.59
533.16	381.51
533.33	362.78
533.50	383.85
533.67	444.70
533.84	423.64
534.01	498.53
534.18	482.15
534.35	447.04
534.52	395.55
534.69	440.02
534.86	379.17
535.03	498.53
535.20	425.98
535.37	407.25
535.54	440.02
535.71	463.43
535.88	423.64
536.05	418.96
536.22	404.91
536.38	390.87
536.55	418.96
536.72	503.22
536.89	407.25
537.06	404.91
537.23	402.57
537.40	362.78
537.57	423.64
537.74	470.45
537.91	365.12
538.08	362.78
538.25	521.94
538.42	433.00
538.59	423.64
538.75	449.38
538.92	440.02
539.09	475.13
539.26	402.57
539.43	454.06
539.60	425.98
539.77	454.06
539.94	451.72
540.11	411.93
540.28	463.43
540.44	489.17
540.61	325.33
540.78	456.40
540.95	393.21
541.12	381.51
541.29	402.57
541.46	503.22
541.62	447.04
541.79	383.85
541.96	430.66
542.13	437.68
542.30	472.79
542.47	411.93
542.63	418.96
542.80	437.68
542.97	475.13
543.14	425.98
543.31	435.34
543.48	400.23
543.64	454.06
543.81	416.62
543.98	409.59
544.15	358.10
544.32	425.98
544.48	425.98
544.65	379.17
544.82	383.85
544.99	383.85
545.16	444.70
545.32	425.98
545.49	409.59
545.66	327.68
545.83	430.66
546.00	430.66
546.16	393.21
546.33	425.98
546.50	365.12
546.67	479.81
546.83	407.25
547.00	503.22
547.17	388.53
547.34	454.06
547.50	451.72
547.67	367.46
547.84	358.10
548.00	407.25
548.17	383.85
548.34	489.17
548.51	404.91
548.67	411.93
548.84	397.89
549.01	411.93
549.18	395.55
549.34	428.32
549.51	458.74
549.68	437.68
549.84	418.96
550.01	402.57
550.18	479.81
550.34	454.06
550.51	458.74
550.68	416.62
550.84	372.15
551.01	411.93
551.18	437.68
551.34	374.49
551.51	430.66
551.68	430.66
551.84	404.91
552.01	449.38
552.18	454.06
552.34	433.00
552.51	395.55
552.68	486.83
552.84	372.15
553.01	423.64
553.18	407.25
553.34	341.72
553.51	390.87
553.67	393.21
553.84	486.83
554.01	538.32
554.17	383.85
554.34	381.51
554.51	477.47
554.67	404.91
554.84	472.79
555.00	444.70
555.17	458.74
555.33	409.59
555.50	404.91
555.67	346.40
555.83	470.45
556.00	381.51
556.16	564.07
556.33	414.27
556.50	409.59
556.66	360.44
556.83	444.70
556.99	440.02
557.16	381.51
557.32	514.92
557.49	376.83
557.65	479.81
557.82	447.04
557.98	437.68
558.15	451.72
558.32	507.90
558.48	388.53
558.65	498.53
558.81	449.38
558.98	444.70
559.14	498.53
559.31	386.19
559.47	367.46
559.64	411.93
559.80	393.21
559.97	463.43
560.13	402.57
560.30	454.06
560.46	423.64
560.63	447.04
560.79	386.19
560.96	360.44
561.12	444.70
561.29	423.64
561.45	437.68
561.61	444.70
561.78	461.09
561.94	414.27
562.11	472.79
562.27	423.64
562.44	404.91
562.60	444.70
562.77	421.30
562.93	451.72
563.10	435.34
563.26	437.68
563.42	447.04
563.59	461.09
563.75	376.83
563.92	482.15
564.08	372.15
564.24	435.34
564.41	435.34
564.57	407.25
564.74	397.89
564.90	442.36
565.07	545.34
565.23	421.30
565.39	425.98
565.56	512.58
565.72	454.06
565.88	477.47
566.05	444.70
566.21	418.96
566.38	404.91
566.54	418.96
566.70	451.72
566.87	393.21
567.03	390.87
567.19	447.04
567.36	437.68
567.52	451.72
567.68	355.76
567.85	465.77
568.01	461.09
568.17	423.64
568.34	365.12
568.50	395.55
568.66	327.68
568.83	498.53
568.99	463.43
569.15	491.51
569.32	440.02
569.48	435.34
569.64	470.45
569.81	421.30
569.97	339.38
570.13	409.59
570.30	418.96
570.46	372.15
570.62	421.30
570.78	421.30
570.95	409.59
571.11	470.45
571.27	479.81
571.43	416.62
571.60	491.51
571.76	489.17
571.92	421.30
572.09	388.53
572.25	475.13
572.41	489.17
572.57	416.62
572.74	496.19
572.90	402.57
573.06	397.89
573.22	411.93
573.38	423.64
573.55	449.38
573.71	411.93
573.87	444.70
574.03	479.81
574.20	482.15
574.36	477.47
574.52	489.17
574.68	404.91
574.84	369.80
575.01	418.96
575.17	411.93
575.33	379.17
575.49	458.74
575.65	369.80
575.82	397.89
575.98	416.62
576.14	390.87
576.30	430.66
576.46	428.32
576.62	470.45
576.79	491.51
576.95	388.53
577.11	407.25
577.27	351.08
577.43	425.98
577.59	463.43
577.75	454.06
577.92	458.74
578.08	468.11
578.24	437.68
578.40	440.02
578.56	475.13
578.72	416.62
578.88	379.17
579.04	437.68
579.21	468.11
579.37	416.62
579.53	409.59
579.69	521.94
579.85	461.09
580.01	451.72
580.17	402.57
580.33	393.21
580.49	395.55
580.65	421.30
580.82	388.53
580.98	397.89
581.14	425.98
581.30	442.36
581.46	444.70
581.62	433.00
581.78	353.42
581.94	449.38
582.10	388.53
582.26	411.93
582.42	365.12
582.58	393.21
582.74	388.53
582.90	418.96
583.06	461.09
583.22	468.11
583.38	379.17
583.54	477.47
583.70	433.00
583.86	477.47
584.02	379.17
584.18	393.21
584.34	400.23
584.50	447.04
584.66	418.96
584.82	397.89
584.98	423.64
585.14	360.44
585.30	402.57
585.46	414.27
585.62	358.10
585.78	369.80
585.94	440.02
586.10	397.89
586.26	379.17
586.42	461.09
586.58	414.27
586.74	376.83
586.90	386.19
587.06	411.93
587.22	442.36
587.38	475.13
587.54	447.04
587.70	393.21
587.86	416.62
588.02	440.02
588.18	402.57
588.34	416.62
588.49	444.70
588.65	411.93
588.81	402.57
588.97	470.45
589.13	402.57
589.29	365.12
589.45	510.24
589.61	407.25
589.77	388.53
589.93	411.93
590.08	440.02
590.24	346.40
590.40	334.70
590.56	341.72
590.72	365.12
590.88	393.21
591.04	416.62
591.20	444.70
591.35	442.36
591.51	409.59
591.67	346.40
591.83	458.74
591.99	418.96
592.15	491.51
592.31	454.06
592.46	465.77
592.62	500.87
592.78	414.27
592.94	465.77
593.10	400.23
593.26	407.25
593.41	442.36
593.57	430.66
593.73	390.87
593.89	390.87
594.05	456.40
594.20	423.64
594.36	451.72
594.52	454.06
594.68	433.00
594.84	433.00
594.99	451.72
595.15	418.96
595.31	390.87
595.47	386.19
595.62	404.91
595.78	388.53
595.94	470.45
596.10	463.43
596.25	444.70
596.41	348.74
596.57	369.80
596.73	482.15
596.88	351.08
597.04	383.85
597.20	414.27
597.36	425.98
597.51	383.85
597.67	407.25
597.83	425.98
597.99	402.57
598.14	416.62
598.30	449.38
598.46	463.43
598.61	435.34
598.77	374.49
598.93	449.38
599.09	409.59
599.24	482.15
599.40	365.12
599.56	376.83
599.71	430.66
599.87	449.38
600.03	409.59
600.18	414.27
600.34	414.27
600.50	404.91
600.65	416.62
600.81	428.32
600.97	407.25
601.12	402.57
601.28	505.56
601.44	360.44
601.59	402.57
601.75	393.21
601.91	428.32
602.06	428.32
602.22	449.38
602.37	484.49
602.53	416.62
602.69	484.49
602.84	407.25
603.00	484.49
603.16	374.49
603.31	433.00
603.47	496.19
603.62	416.62
603.78	388.53
603.94	447.04
604.09	433.00
604.25	414.27
604.40	484.49
604.56	482.15
604.71	491.51
604.87	407.25
605.03	465.77
605.18	430.66
605.34	411.93
605.49	421.30
605.65	374.49
605.80	433.00
605.96	400.23
606.12	430.66
606.27	496.19
606.43	425.98
606.58	421.30
606.74	414.27
606.89	404.91
607.05	416.62
607.20	425.98
607.36	458.74
607.51	421.30
607.67	397.89
607.82	358.10
607.98	440.02
608.13	381.51
608.29	353.42
608.44	355.76
608.60	456.40
608.75	456.40
608.91	407.25
609.06	461.09
609.22	468.11
609.37	400.23
609.53	390.87
609.68	435.34
609.84	409.59
609.99	404.91
610.15	449.38
