SpectraSuite Data File
++++++++++++++++++++++++++++++++++++
Date: Fri Oct 25 12:11:25 EDT 2013
User: price-jones
Dark Spectrum Present: No
Reference Spectrum Present: No
Number of Sampled Component Spectra: 1
Spectrometers: USB2+H05261
Integration Time (usec): 100000 (USB2+H05261)
Spectra Averaged: 1 (USB2+H05261)
Boxcar Smoothing: 0 (USB2+H05261)
Correct for Electrical Dark: No (USB2+H05261)
Strobe/Lamp Enabled: No (USB2+H05261)
Correct for Detector Non-linearity: No (USB2+H05261)
Correct for Stray Light: No (USB2+H05261)
Number of Pixels in Processed Spectrum: 2048
>>>>>Begin Processed Spectral Data<<<<<
365.73	365.12
365.92	365.12
366.12	365.12
366.32	255.12
366.52	243.42
366.72	231.71
366.91	189.58
367.11	210.65
367.31	248.10
367.51	245.76
367.70	142.77
367.90	262.14
368.10	182.56
368.30	215.33
368.49	222.35
368.69	271.50
368.89	262.14
369.09	252.78
369.28	238.73
369.48	306.61
369.68	276.18
369.87	257.46
370.07	308.95
370.27	301.93
370.47	404.91
370.66	393.21
370.86	322.99
371.06	400.23
371.25	327.68
371.45	402.57
371.65	348.74
371.84	376.83
372.04	339.38
372.24	444.70
372.44	306.61
372.63	444.70
372.83	421.30
373.03	489.17
373.22	414.27
373.42	383.85
373.62	414.27
373.81	390.87
374.01	442.36
374.21	411.93
374.40	498.53
374.60	409.59
374.79	517.26
374.99	402.57
375.19	430.66
375.38	503.22
375.58	397.89
375.78	517.26
375.97	440.02
376.17	447.04
376.37	400.23
376.56	479.81
376.76	444.70
376.95	388.53
377.15	393.21
377.35	374.49
377.54	411.93
377.74	430.66
377.93	435.34
378.13	435.34
378.33	442.36
378.52	416.62
378.72	428.32
378.91	383.85
379.11	379.17
379.31	393.21
379.50	367.46
379.70	458.74
379.89	440.02
380.09	411.93
380.28	362.78
380.48	374.49
380.68	465.77
380.87	416.62
381.07	332.36
381.26	395.55
381.46	484.49
381.65	414.27
381.85	416.62
382.04	306.61
382.24	386.19
382.43	411.93
382.63	416.62
382.83	400.23
383.02	423.64
383.22	472.79
383.41	451.72
383.61	376.83
383.80	463.43
384.00	447.04
384.19	367.46
384.39	451.72
384.58	458.74
384.78	430.66
384.97	381.51
385.17	404.91
385.36	397.89
385.56	369.80
385.75	423.64
385.95	390.87
386.14	383.85
386.34	383.85
386.53	435.34
386.72	428.32
386.92	423.64
387.11	386.19
387.31	435.34
387.50	442.36
387.70	332.36
387.89	388.53
388.09	440.02
388.28	435.34
388.48	444.70
388.67	449.38
388.86	449.38
389.06	444.70
389.25	423.64
389.45	435.34
389.64	414.27
389.84	500.87
390.03	416.62
390.22	421.30
390.42	386.19
390.61	435.34
390.81	404.91
391.00	423.64
391.19	404.91
391.39	435.34
391.58	397.89
391.78	414.27
391.97	425.98
392.16	355.76
392.36	395.55
392.55	475.13
392.75	386.19
392.94	386.19
393.13	414.27
393.33	409.59
393.52	390.87
393.71	372.15
393.91	386.19
394.10	449.38
394.29	362.78
394.49	362.78
394.68	468.11
394.88	369.80
395.07	367.46
395.26	407.25
395.46	383.85
395.65	341.72
395.84	402.57
396.04	514.92
396.23	449.38
396.42	404.91
396.62	341.72
396.81	374.49
397.00	372.15
397.19	428.32
397.39	346.40
397.58	430.66
397.77	433.00
397.97	435.34
398.16	386.19
398.35	390.87
398.55	358.10
398.74	479.81
398.93	404.91
399.12	395.55
399.32	388.53
399.51	369.80
399.70	418.96
399.90	393.21
400.09	411.93
400.28	409.59
400.47	458.74
400.67	393.21
400.86	395.55
401.05	383.85
401.24	468.11
401.44	491.51
401.63	433.00
401.82	379.17
402.01	442.36
402.21	421.30
402.40	379.17
402.59	369.80
402.78	388.53
402.97	386.19
403.17	367.46
403.36	395.55
403.55	374.49
403.74	393.21
403.93	362.78
404.13	390.87
404.32	414.27
404.51	423.64
404.70	376.83
404.89	454.06
405.09	402.57
405.28	362.78
405.47	285.55
405.66	320.65
405.85	425.98
406.05	362.78
406.24	428.32
406.43	437.68
406.62	498.53
406.81	454.06
407.00	383.85
407.20	390.87
407.39	428.32
407.58	416.62
407.77	470.45
407.96	411.93
408.15	395.55
408.34	435.34
408.54	383.85
408.73	409.59
408.92	388.53
409.11	451.72
409.30	428.32
409.49	416.62
409.68	418.96
409.87	358.10
410.07	418.96
410.26	421.30
410.45	416.62
410.64	444.70
410.83	479.81
411.02	442.36
411.21	397.89
411.40	444.70
411.59	454.06
411.78	421.30
411.98	402.57
412.17	390.87
412.36	500.87
412.55	341.72
412.74	386.19
412.93	421.30
413.12	458.74
413.31	440.02
413.50	416.62
413.69	414.27
413.88	411.93
414.07	407.25
414.26	390.87
414.45	435.34
414.64	393.21
414.83	351.08
415.02	449.38
415.22	477.47
415.41	390.87
415.60	388.53
415.79	397.89
415.98	493.85
416.17	407.25
416.36	388.53
416.55	395.55
416.74	365.12
416.93	414.27
417.12	421.30
417.31	386.19
417.50	383.85
417.69	454.06
417.88	430.66
418.07	397.89
418.26	409.59
418.45	407.25
418.64	374.49
418.83	386.19
419.02	442.36
419.21	463.43
419.39	444.70
419.58	435.34
419.77	430.66
419.96	482.15
420.15	376.83
420.34	397.89
420.53	379.17
420.72	440.02
420.91	433.00
421.10	425.98
421.29	447.04
421.48	461.09
421.67	514.92
421.86	435.34
422.05	477.47
422.24	418.96
422.43	416.62
422.61	468.11
422.80	383.85
422.99	404.91
423.18	386.19
423.37	451.72
423.56	444.70
423.75	383.85
423.94	365.12
424.13	367.46
424.32	351.08
424.50	447.04
424.69	425.98
424.88	430.66
425.07	386.19
425.26	388.53
425.45	456.40
425.64	341.72
425.83	411.93
426.01	491.51
426.20	454.06
426.39	428.32
426.58	444.70
426.77	454.06
426.96	386.19
427.15	444.70
427.33	376.83
427.52	402.57
427.71	414.27
427.90	479.81
428.09	463.43
428.28	395.55
428.46	393.21
428.65	435.34
428.84	395.55
429.03	386.19
429.22	404.91
429.40	386.19
429.59	367.46
429.78	404.91
429.97	402.57
430.16	287.89
430.34	388.53
430.53	442.36
430.72	437.68
430.91	390.87
431.10	393.21
431.28	306.61
431.47	519.60
431.66	388.53
431.85	440.02
432.03	433.00
432.22	472.79
432.41	393.21
432.60	449.38
432.79	372.15
432.97	458.74
433.16	433.00
433.35	435.34
433.54	430.66
433.72	510.24
433.91	376.83
434.10	486.83
434.28	465.77
434.47	447.04
434.66	411.93
434.85	409.59
435.03	444.70
435.22	465.77
435.41	449.38
435.59	416.62
435.78	407.25
435.97	461.09
436.16	355.76
436.34	421.30
436.53	411.93
436.72	409.59
436.90	447.04
437.09	407.25
437.28	461.09
437.46	409.59
437.65	505.56
437.84	390.87
438.02	358.10
438.21	444.70
438.40	428.32
438.58	447.04
438.77	435.34
438.96	505.56
439.14	402.57
439.33	386.19
439.52	409.59
439.70	425.98
439.89	341.72
440.08	393.21
440.26	411.93
440.45	402.57
440.63	322.99
440.82	348.74
441.01	395.55
441.19	430.66
441.38	482.15
441.57	355.76
441.75	484.49
441.94	393.21
442.12	411.93
442.31	346.40
442.50	383.85
442.68	468.11
442.87	414.27
443.05	372.15
443.24	461.09
443.43	435.34
443.61	388.53
443.80	355.76
443.98	418.96
444.17	440.02
444.35	404.91
444.54	332.36
444.73	423.64
444.91	433.00
445.10	418.96
445.28	407.25
445.47	470.45
445.65	477.47
445.84	418.96
446.02	435.34
446.21	409.59
446.39	348.74
446.58	409.59
446.77	411.93
446.95	402.57
447.14	421.30
447.32	402.57
447.51	493.85
447.69	390.87
447.88	423.64
448.06	423.64
448.25	454.06
448.43	386.19
448.62	339.38
448.80	388.53
448.99	430.66
449.17	444.70
449.36	461.09
449.54	418.96
449.73	362.78
449.91	407.25
450.10	372.15
450.28	470.45
450.46	475.13
450.65	514.92
450.83	397.89
451.02	425.98
451.20	458.74
451.39	456.40
451.57	388.53
451.76	313.63
451.94	458.74
452.13	440.02
452.31	425.98
452.49	435.34
452.68	362.78
452.86	503.22
453.05	435.34
453.23	470.45
453.42	367.46
453.60	402.57
453.78	416.62
453.97	475.13
454.15	390.87
454.34	395.55
454.52	430.66
454.70	444.70
454.89	369.80
455.07	449.38
455.26	423.64
455.44	447.04
455.62	379.17
455.81	344.06
455.99	376.83
456.17	386.19
456.36	400.23
456.54	477.47
456.73	428.32
456.91	435.34
457.09	411.93
457.28	475.13
457.46	365.12
457.64	430.66
457.83	437.68
458.01	444.70
458.19	339.38
458.38	458.74
458.56	435.34
458.74	454.06
458.93	393.21
459.11	376.83
459.29	416.62
459.48	458.74
459.66	428.32
459.84	388.53
460.03	470.45
460.21	428.32
460.39	430.66
460.57	484.49
460.76	386.19
460.94	430.66
461.12	475.13
461.31	507.90
461.49	454.06
461.67	444.70
461.85	402.57
462.04	374.49
462.22	772.38
462.40	449.38
462.59	418.96
462.77	414.27
462.95	388.53
463.13	430.66
463.32	468.11
463.50	414.27
463.68	442.36
463.86	435.34
464.05	383.85
464.23	433.00
464.41	425.98
464.59	367.46
464.78	346.40
464.96	435.34
465.14	379.17
465.32	472.79
465.50	444.70
465.69	390.87
465.87	402.57
466.05	411.93
466.23	402.57
466.41	325.33
466.60	404.91
466.78	337.04
466.96	395.55
467.14	430.66
467.32	407.25
467.51	435.34
467.69	451.72
467.87	500.87
468.05	418.96
468.23	505.56
468.41	489.17
468.60	416.62
468.78	440.02
468.96	416.62
469.14	440.02
469.32	358.10
469.50	397.89
469.69	404.91
469.87	381.51
470.05	409.59
470.23	442.36
470.41	374.49
470.59	395.55
470.77	330.02
470.95	402.57
471.14	418.96
471.32	339.38
471.50	423.64
471.68	512.58
471.86	400.23
472.04	416.62
472.22	498.53
472.40	428.32
472.58	418.96
472.77	381.51
472.95	386.19
473.13	491.51
473.31	510.24
473.49	390.87
473.67	393.21
473.85	409.59
474.03	360.44
474.21	374.49
474.39	498.53
474.57	456.40
474.75	449.38
474.93	365.12
475.12	404.91
475.30	379.17
475.48	365.12
475.66	482.15
475.84	482.15
476.02	402.57
476.20	411.93
476.38	414.27
476.56	430.66
476.74	444.70
476.92	479.81
477.10	449.38
477.28	423.64
477.46	411.93
477.64	423.64
477.82	374.49
478.00	430.66
478.18	386.19
478.36	397.89
478.54	418.96
478.72	381.51
478.90	418.96
479.08	430.66
479.26	374.49
479.44	407.25
479.62	367.46
479.80	463.43
479.98	440.02
480.16	442.36
480.34	449.38
480.52	416.62
480.70	465.77
480.88	421.30
481.06	388.53
481.24	442.36
481.41	414.27
481.59	376.83
481.77	402.57
481.95	425.98
482.13	440.02
482.31	454.06
482.49	409.59
482.67	423.64
482.85	472.79
483.03	430.66
483.21	409.59
483.39	386.19
483.57	395.55
483.74	433.00
483.92	393.21
484.10	430.66
484.28	395.55
484.46	428.32
484.64	393.21
484.82	379.17
485.00	395.55
485.18	386.19
485.35	402.57
485.53	468.11
485.71	418.96
485.89	416.62
486.07	374.49
486.25	468.11
486.43	442.36
486.61	369.80
486.78	407.25
486.96	374.49
487.14	449.38
487.32	381.51
487.50	437.68
487.68	444.70
487.85	339.38
488.03	433.00
488.21	428.32
488.39	409.59
488.57	421.30
488.75	362.78
488.92	472.79
489.10	451.72
489.28	489.17
489.46	386.19
489.64	374.49
489.81	428.32
489.99	411.93
490.17	444.70
490.35	411.93
490.53	390.87
490.70	449.38
490.88	374.49
491.06	383.85
491.24	388.53
491.41	498.53
491.59	472.79
491.77	351.08
491.95	428.32
492.13	348.74
492.30	411.93
492.48	423.64
492.66	451.72
492.84	435.34
493.01	440.02
493.19	374.49
493.37	440.02
493.54	472.79
493.72	442.36
493.90	395.55
494.08	437.68
494.25	521.94
494.43	407.25
494.61	437.68
494.79	489.17
494.96	397.89
495.14	449.38
495.32	411.93
495.49	435.34
495.67	433.00
495.85	411.93
496.02	374.49
496.20	360.44
496.38	355.76
496.55	428.32
496.73	447.04
496.91	395.55
497.09	447.04
497.26	440.02
497.44	442.36
497.62	407.25
497.79	437.68
497.97	351.08
498.14	493.85
498.32	433.00
498.50	456.40
498.67	402.57
498.85	456.40
499.03	477.47
499.20	386.19
499.38	404.91
499.56	393.21
499.73	421.30
499.91	411.93
500.08	442.36
500.26	416.62
500.44	379.17
500.61	451.72
500.79	416.62
500.97	430.66
501.14	496.19
501.32	463.43
501.49	470.45
501.67	433.00
501.84	418.96
502.02	301.93
502.20	430.66
502.37	379.17
502.55	379.17
502.72	430.66
502.90	463.43
503.07	479.81
503.25	461.09
503.43	327.68
503.60	344.06
503.78	475.13
503.95	489.17
504.13	423.64
504.30	402.57
504.48	400.23
504.65	440.02
504.83	411.93
505.01	503.22
505.18	486.83
505.36	393.21
505.53	320.65
505.71	418.96
505.88	505.56
506.06	376.83
506.23	435.34
506.41	409.59
506.58	407.25
506.76	402.57
506.93	407.25
507.11	372.15
507.28	409.59
507.46	428.32
507.63	442.36
507.81	409.59
507.98	346.40
508.16	418.96
508.33	386.19
508.50	454.06
508.68	383.85
508.85	451.72
509.03	442.36
509.20	409.59
509.38	400.23
509.55	369.80
509.73	390.87
509.90	435.34
510.08	395.55
510.25	351.08
510.42	358.10
510.60	418.96
510.77	470.45
510.95	468.11
511.12	442.36
511.30	444.70
511.47	416.62
511.64	421.30
511.82	402.57
511.99	341.72
512.17	404.91
512.34	449.38
512.51	470.45
512.69	451.72
512.86	423.64
513.04	447.04
513.21	404.91
513.38	411.93
513.56	437.68
513.73	395.55
513.90	383.85
514.08	351.08
514.25	447.04
514.43	418.96
514.60	418.96
514.77	362.78
514.95	491.51
515.12	444.70
515.29	404.91
515.47	440.02
515.64	430.66
515.81	421.30
515.99	440.02
516.16	465.77
516.33	458.74
516.51	440.02
516.68	299.59
516.85	407.25
517.03	421.30
517.20	442.36
517.37	435.34
517.54	421.30
517.72	383.85
517.89	411.93
518.06	346.40
518.24	390.87
518.41	468.11
518.58	430.66
518.75	454.06
518.93	388.53
519.10	411.93
519.27	414.27
519.45	386.19
519.62	334.70
519.79	397.89
519.96	351.08
520.14	421.30
520.31	386.19
520.48	393.21
520.65	461.09
520.83	400.23
521.00	449.38
521.17	369.80
521.34	409.59
521.52	458.74
521.69	407.25
521.86	421.30
522.03	400.23
522.20	404.91
522.38	454.06
522.55	440.02
522.72	407.25
522.89	444.70
523.07	456.40
523.24	454.06
523.41	381.51
523.58	435.34
523.75	351.08
523.92	435.34
524.10	423.64
524.27	440.02
524.44	404.91
524.61	479.81
524.78	472.79
524.96	397.89
525.13	437.68
525.30	428.32
525.47	376.83
525.64	390.87
525.81	409.59
525.98	454.06
526.16	428.32
526.33	472.79
526.50	421.30
526.67	397.89
526.84	458.74
527.01	383.85
527.18	411.93
527.36	379.17
527.53	355.76
527.70	512.58
527.87	397.89
528.04	479.81
528.21	332.36
528.38	421.30
528.55	407.25
528.72	454.06
528.89	418.96
529.07	449.38
529.24	440.02
529.41	449.38
529.58	423.64
529.75	409.59
529.92	475.13
530.09	332.36
530.26	418.96
530.43	353.42
530.60	428.32
530.77	440.02
530.94	447.04
531.11	369.80
531.28	465.77
531.46	414.27
531.63	379.17
531.80	442.36
531.97	393.21
532.14	416.62
532.31	393.21
532.48	437.68
532.65	414.27
532.82	355.76
532.99	425.98
533.16	482.15
533.33	416.62
533.50	465.77
533.67	444.70
533.84	397.89
534.01	351.08
534.18	449.38
534.35	475.13
534.52	486.83
534.69	411.93
534.86	454.06
535.03	400.23
535.20	386.19
535.37	397.89
535.54	451.72
535.71	428.32
535.88	440.02
536.05	465.77
536.22	463.43
536.38	365.12
536.55	369.80
536.72	475.13
536.89	435.34
537.06	451.72
537.23	437.68
537.40	409.59
537.57	418.96
537.74	393.21
537.91	430.66
538.08	360.44
538.25	404.91
538.42	437.68
538.59	463.43
538.75	383.85
538.92	414.27
539.09	425.98
539.26	402.57
539.43	423.64
539.60	381.51
539.77	397.89
539.94	395.55
540.11	402.57
540.28	433.00
540.44	428.32
540.61	437.68
540.78	479.81
540.95	437.68
541.12	468.11
541.29	379.17
541.46	496.19
541.62	425.98
541.79	477.47
541.96	428.32
542.13	400.23
542.30	472.79
542.47	442.36
542.63	430.66
542.80	430.66
542.97	416.62
543.14	479.81
543.31	458.74
543.48	416.62
543.64	475.13
543.81	447.04
543.98	411.93
544.15	435.34
544.32	376.83
544.48	486.83
544.65	437.68
544.82	451.72
544.99	425.98
545.16	407.25
545.32	397.89
545.49	402.57
545.66	409.59
545.83	346.40
546.00	440.02
546.16	376.83
546.33	433.00
546.50	451.72
546.67	430.66
546.83	444.70
547.00	440.02
547.17	330.02
547.34	416.62
547.50	444.70
547.67	402.57
547.84	442.36
548.00	393.21
548.17	444.70
548.34	358.10
548.51	437.68
548.67	519.60
548.84	433.00
549.01	397.89
549.18	411.93
549.34	393.21
549.51	435.34
549.68	397.89
549.84	358.10
550.01	456.40
550.18	435.34
550.34	484.49
550.51	346.40
550.68	477.47
550.84	425.98
551.01	433.00
551.18	400.23
551.34	360.44
551.51	402.57
551.68	393.21
551.84	393.21
552.01	358.10
552.18	449.38
552.34	447.04
552.51	444.70
552.68	423.64
552.84	411.93
553.01	449.38
553.18	470.45
553.34	428.32
553.51	402.57
553.67	421.30
553.84	454.06
554.01	428.32
554.17	447.04
554.34	433.00
554.51	447.04
554.67	402.57
554.84	379.17
555.00	458.74
555.17	402.57
555.33	491.51
555.50	376.83
555.67	447.04
555.83	386.19
556.00	479.81
556.16	491.51
556.33	404.91
556.50	369.80
556.66	421.30
556.83	409.59
556.99	365.12
557.16	341.72
557.32	376.83
557.49	437.68
557.65	355.76
557.82	435.34
557.98	416.62
558.15	341.72
558.32	444.70
558.48	458.74
558.65	372.15
558.81	407.25
558.98	433.00
559.14	416.62
559.31	374.49
559.47	440.02
559.64	414.27
559.80	416.62
559.97	437.68
560.13	395.55
560.30	418.96
560.46	416.62
560.63	468.11
560.79	381.51
560.96	374.49
561.12	433.00
561.29	444.70
561.45	400.23
561.61	503.22
561.78	442.36
561.94	468.11
562.11	393.21
562.27	414.27
562.44	346.40
562.60	416.62
562.77	444.70
562.93	437.68
563.10	393.21
563.26	428.32
563.42	421.30
563.59	379.17
563.75	395.55
563.92	482.15
564.08	414.27
564.24	517.26
564.41	437.68
564.57	407.25
564.74	407.25
564.90	470.45
565.07	440.02
565.23	491.51
565.39	409.59
565.56	381.51
565.72	395.55
565.88	397.89
566.05	327.68
566.21	409.59
566.38	528.96
566.54	383.85
566.70	397.89
566.87	383.85
567.03	372.15
567.19	318.31
567.36	372.15
567.52	367.46
567.68	451.72
567.85	423.64
568.01	470.45
568.17	348.74
568.34	477.47
568.50	397.89
568.66	475.13
568.83	428.32
568.99	400.23
569.15	458.74
569.32	369.80
569.48	418.96
569.64	428.32
569.81	423.64
569.97	411.93
570.13	428.32
570.30	362.78
570.46	397.89
570.62	433.00
570.78	414.27
570.95	409.59
571.11	475.13
571.27	519.60
571.43	362.78
571.60	451.72
571.76	465.77
571.92	454.06
572.09	360.44
572.25	454.06
572.41	407.25
572.57	416.62
572.74	472.79
572.90	449.38
573.06	449.38
573.22	407.25
573.38	425.98
573.55	475.13
573.71	418.96
573.87	449.38
574.03	383.85
574.20	379.17
574.36	397.89
574.52	435.34
574.68	409.59
574.84	330.02
575.01	486.83
575.17	454.06
575.33	456.40
575.49	470.45
575.65	386.19
575.82	379.17
575.98	482.15
576.14	416.62
576.30	397.89
576.46	400.23
576.62	374.49
576.79	376.83
576.95	430.66
577.11	404.91
577.27	428.32
577.43	437.68
577.59	496.19
577.75	402.57
577.92	397.89
578.08	409.59
578.24	435.34
578.40	397.89
578.56	400.23
578.72	463.43
578.88	404.91
579.04	411.93
579.21	397.89
579.37	414.27
579.53	402.57
579.69	442.36
579.85	381.51
580.01	491.51
580.17	435.34
580.33	430.66
580.49	369.80
580.65	421.30
580.82	407.25
580.98	411.93
581.14	463.43
581.30	482.15
581.46	414.27
581.62	407.25
581.78	393.21
581.94	407.25
582.10	393.21
582.26	475.13
582.42	425.98
582.58	472.79
582.74	355.76
582.90	414.27
583.06	479.81
583.22	402.57
583.38	379.17
583.54	388.53
583.70	468.11
583.86	404.91
584.02	433.00
584.18	418.96
584.34	416.62
584.50	407.25
584.66	430.66
584.82	351.08
584.98	358.10
585.14	421.30
585.30	472.79
585.46	416.62
585.62	421.30
585.78	409.59
585.94	440.02
586.10	407.25
586.26	526.62
586.42	447.04
586.58	414.27
586.74	433.00
586.90	339.38
587.06	465.77
587.22	395.55
587.38	351.08
587.54	390.87
587.70	449.38
587.86	496.19
588.02	390.87
588.18	397.89
588.34	381.51
588.49	482.15
588.65	449.38
588.81	393.21
588.97	353.42
589.13	327.68
589.29	447.04
589.45	409.59
589.61	428.32
589.77	418.96
589.93	440.02
590.08	437.68
590.24	360.44
590.40	395.55
590.56	428.32
590.72	308.95
590.88	428.32
591.04	461.09
591.20	360.44
591.35	425.98
591.51	376.83
591.67	486.83
591.83	414.27
591.99	428.32
592.15	397.89
592.31	503.22
592.46	442.36
592.62	477.47
592.78	404.91
592.94	463.43
593.10	381.51
593.26	454.06
593.41	379.17
593.57	463.43
593.73	425.98
593.89	423.64
594.05	428.32
594.20	404.91
594.36	425.98
594.52	416.62
594.68	421.30
594.84	449.38
594.99	479.81
595.15	404.91
595.31	449.38
595.47	428.32
595.62	489.17
595.78	416.62
595.94	407.25
596.10	475.13
596.25	456.40
596.41	442.36
596.57	367.46
596.73	468.11
596.88	433.00
597.04	386.19
597.20	437.68
597.36	393.21
597.51	449.38
597.67	416.62
597.83	421.30
597.99	475.13
598.14	435.34
598.30	472.79
598.46	390.87
598.61	409.59
598.77	402.57
598.93	374.49
599.09	409.59
599.24	372.15
599.40	454.06
599.56	447.04
599.71	425.98
599.87	404.91
600.03	409.59
600.18	437.68
600.34	404.91
600.50	456.40
600.65	369.80
600.81	470.45
600.97	470.45
601.12	435.34
601.28	435.34
601.44	346.40
601.59	463.43
601.75	456.40
601.91	430.66
602.06	449.38
602.22	440.02
602.37	484.49
602.53	390.87
602.69	482.15
602.84	386.19
603.00	393.21
603.16	367.46
603.31	486.83
603.47	440.02
603.62	451.72
603.78	353.42
603.94	416.62
604.09	425.98
604.25	442.36
604.40	428.32
604.56	418.96
604.71	390.87
604.87	414.27
605.03	393.21
605.18	411.93
605.34	496.19
605.49	463.43
605.65	416.62
605.80	493.85
605.96	372.15
606.12	440.02
606.27	500.87
606.43	414.27
606.58	505.56
606.74	430.66
606.89	465.77
607.05	400.23
607.20	390.87
607.36	390.87
607.51	402.57
607.67	388.53
607.82	383.85
607.98	444.70
608.13	383.85
608.29	416.62
608.44	397.89
608.60	437.68
608.75	447.04
608.91	454.06
609.06	435.34
609.22	414.27
609.37	334.70
609.53	423.64
609.68	418.96
609.84	400.23
609.99	440.02
610.15	489.17
