SpectraSuite Data File
++++++++++++++++++++++++++++++++++++
Date: Fri Oct 25 12:11:05 EDT 2013
User: price-jones
Dark Spectrum Present: No
Reference Spectrum Present: No
Number of Sampled Component Spectra: 1
Spectrometers: USB2+H05261
Integration Time (usec): 100000 (USB2+H05261)
Spectra Averaged: 1 (USB2+H05261)
Boxcar Smoothing: 0 (USB2+H05261)
Correct for Electrical Dark: No (USB2+H05261)
Strobe/Lamp Enabled: No (USB2+H05261)
Correct for Detector Non-linearity: No (USB2+H05261)
Correct for Stray Light: No (USB2+H05261)
Number of Pixels in Processed Spectrum: 2048
>>>>>Begin Processed Spectral Data<<<<<
365.73	304.27
365.92	304.27
366.12	304.27
366.32	294.91
366.52	266.82
366.72	201.29
366.91	236.39
367.11	294.91
367.31	198.95
367.51	198.95
367.70	241.08
367.90	203.63
368.10	220.01
368.30	236.39
368.49	212.99
368.69	304.27
368.89	255.12
369.09	227.03
369.28	278.52
369.48	271.50
369.68	276.18
369.87	388.53
370.07	250.44
370.27	334.70
370.47	285.55
370.66	306.61
370.86	348.74
371.06	337.04
371.25	393.21
371.45	322.99
371.65	332.36
371.84	327.68
372.04	353.42
372.24	376.83
372.44	369.80
372.63	404.91
372.83	418.96
373.03	407.25
373.22	451.72
373.42	390.87
373.62	421.30
373.81	433.00
374.01	397.89
374.21	486.83
374.40	430.66
374.60	475.13
374.79	327.68
374.99	360.44
375.19	381.51
375.38	402.57
375.58	416.62
375.78	444.70
375.97	397.89
376.17	442.36
376.37	449.38
376.56	411.93
376.76	404.91
376.95	397.89
377.15	425.98
377.35	346.40
377.54	320.65
377.74	423.64
377.93	374.49
378.13	369.80
378.33	367.46
378.52	400.23
378.72	416.62
378.91	411.93
379.11	435.34
379.31	355.76
379.50	367.46
379.70	430.66
379.89	468.11
380.09	367.46
380.28	369.80
380.48	463.43
380.68	414.27
380.87	362.78
381.07	381.51
381.26	409.59
381.46	355.76
381.65	390.87
381.85	397.89
382.04	388.53
382.24	425.98
382.43	393.21
382.63	344.06
382.83	397.89
383.02	456.40
383.22	430.66
383.41	348.74
383.61	388.53
383.80	395.55
384.00	418.96
384.19	451.72
384.39	447.04
384.58	383.85
384.78	409.59
384.97	369.80
385.17	390.87
385.36	440.02
385.56	397.89
385.75	411.93
385.95	440.02
386.14	369.80
386.34	388.53
386.53	440.02
386.72	407.25
386.92	442.36
387.11	351.08
387.31	416.62
387.50	386.19
387.70	379.17
387.89	451.72
388.09	355.76
388.28	442.36
388.48	395.55
388.67	386.19
388.86	365.12
389.06	414.27
389.25	444.70
389.45	407.25
389.64	372.15
389.84	395.55
390.03	353.42
390.22	463.43
390.42	463.43
390.61	365.12
390.81	351.08
391.00	341.72
391.19	411.93
391.39	411.93
391.58	416.62
391.78	505.56
391.97	390.87
392.16	404.91
392.36	454.06
392.55	465.77
392.75	388.53
392.94	449.38
393.13	463.43
393.33	454.06
393.52	430.66
393.71	484.49
393.91	404.91
394.10	402.57
394.29	397.89
394.49	339.38
394.68	400.23
394.88	393.21
395.07	397.89
395.26	404.91
395.46	421.30
395.65	358.10
395.84	437.68
396.04	449.38
396.23	491.51
396.42	444.70
396.62	491.51
396.81	414.27
397.00	451.72
397.19	414.27
397.39	437.68
397.58	414.27
397.77	414.27
397.97	425.98
398.16	376.83
398.35	447.04
398.55	353.42
398.74	444.70
398.93	421.30
399.12	388.53
399.32	421.30
399.51	409.59
399.70	374.49
399.90	449.38
400.09	351.08
400.28	369.80
400.47	313.63
400.67	367.46
400.86	433.00
401.05	404.91
401.24	355.76
401.44	372.15
401.63	468.11
401.82	433.00
402.01	315.97
402.21	390.87
402.40	425.98
402.59	381.51
402.78	430.66
402.97	416.62
403.17	346.40
403.36	332.36
403.55	425.98
403.74	400.23
403.93	435.34
404.13	425.98
404.32	444.70
404.51	341.72
404.70	395.55
404.89	400.23
405.09	437.68
405.28	358.10
405.47	423.64
405.66	383.85
405.85	430.66
406.05	404.91
406.24	463.43
406.43	393.21
406.62	365.12
406.81	489.17
407.00	404.91
407.20	409.59
407.39	381.51
407.58	421.30
407.77	416.62
407.96	456.40
408.15	414.27
408.34	472.79
408.54	409.59
408.73	428.32
408.92	383.85
409.11	444.70
409.30	395.55
409.49	461.09
409.68	440.02
409.87	430.66
410.07	416.62
410.26	428.32
410.45	433.00
410.64	414.27
410.83	393.21
411.02	404.91
411.21	376.83
411.40	444.70
411.59	322.99
411.78	421.30
411.98	437.68
412.17	369.80
412.36	421.30
412.55	355.76
412.74	407.25
412.93	421.30
413.12	428.32
413.31	400.23
413.50	325.33
413.69	360.44
413.88	414.27
414.07	440.02
414.26	447.04
414.45	393.21
414.64	386.19
414.83	435.34
415.02	337.04
415.22	437.68
415.41	440.02
415.60	383.85
415.79	381.51
415.98	489.17
416.17	428.32
416.36	425.98
416.55	386.19
416.74	369.80
416.93	428.32
417.12	463.43
417.31	407.25
417.50	397.89
417.69	442.36
417.88	393.21
418.07	425.98
418.26	390.87
418.45	381.51
418.64	376.83
418.83	315.97
419.02	428.32
419.21	440.02
419.39	416.62
419.58	442.36
419.77	367.46
419.96	383.85
420.15	416.62
420.34	397.89
420.53	393.21
420.72	386.19
420.91	507.90
421.10	397.89
421.29	423.64
421.48	437.68
421.67	383.85
421.86	433.00
422.05	381.51
422.24	344.06
422.43	517.26
422.61	437.68
422.80	404.91
422.99	348.74
423.18	348.74
423.37	418.96
423.56	404.91
423.75	447.04
423.94	425.98
424.13	454.06
424.32	365.12
424.50	402.57
424.69	437.68
424.88	461.09
425.07	461.09
425.26	458.74
425.45	383.85
425.64	416.62
425.83	411.93
426.01	491.51
426.20	430.66
426.39	374.49
426.58	435.34
426.77	451.72
426.96	407.25
427.15	428.32
427.33	404.91
427.52	358.10
427.71	397.89
427.90	390.87
428.09	454.06
428.28	397.89
428.46	463.43
428.65	397.89
428.84	411.93
429.03	423.64
429.22	360.44
429.40	454.06
429.59	299.59
429.78	486.83
429.97	423.64
430.16	409.59
430.34	414.27
430.53	407.25
430.72	374.49
430.91	491.51
431.10	369.80
431.28	395.55
431.47	416.62
431.66	365.12
431.85	383.85
432.03	379.17
432.22	395.55
432.41	353.42
432.60	489.17
432.79	458.74
432.97	313.63
433.16	425.98
433.35	365.12
433.54	458.74
433.72	374.49
433.91	425.98
434.10	386.19
434.28	397.89
434.47	449.38
434.66	402.57
434.85	409.59
435.03	381.51
435.22	472.79
435.41	407.25
435.59	433.00
435.78	393.21
435.97	407.25
436.16	353.42
436.34	440.02
436.53	505.56
436.72	454.06
436.90	433.00
437.09	369.80
437.28	367.46
437.46	386.19
437.65	472.79
437.84	440.02
438.02	461.09
438.21	376.83
438.40	414.27
438.58	435.34
438.77	475.13
438.96	358.10
439.14	369.80
439.33	444.70
439.52	416.62
439.70	407.25
439.89	454.06
440.08	402.57
440.26	348.74
440.45	397.89
440.63	407.25
440.82	402.57
441.01	444.70
441.19	451.72
441.38	395.55
441.57	376.83
441.75	437.68
441.94	414.27
442.12	447.04
442.31	400.23
442.50	362.78
442.68	369.80
442.87	381.51
443.05	367.46
443.24	386.19
443.43	404.91
443.61	454.06
443.80	397.89
443.98	358.10
444.17	393.21
444.35	395.55
444.54	367.46
444.73	379.17
444.91	395.55
445.10	407.25
445.28	388.53
445.47	400.23
445.65	449.38
445.84	386.19
446.02	397.89
446.21	447.04
446.39	437.68
446.58	404.91
446.77	367.46
446.95	489.17
447.14	461.09
447.32	463.43
447.51	447.04
447.69	397.89
447.88	456.40
448.06	493.85
448.25	334.70
448.43	379.17
448.62	409.59
448.80	442.36
448.99	461.09
449.17	416.62
449.36	372.15
449.54	442.36
449.73	367.46
449.91	367.46
450.10	369.80
450.28	416.62
450.46	470.45
450.65	503.22
450.83	470.45
451.02	362.78
451.20	437.68
451.39	348.74
451.57	479.81
451.76	451.72
451.94	390.87
452.13	397.89
452.31	428.32
452.49	449.38
452.68	381.51
452.86	451.72
453.05	442.36
453.23	414.27
453.42	341.72
453.60	437.68
453.78	470.45
453.97	416.62
454.15	325.33
454.34	421.30
454.52	430.66
454.70	475.13
454.89	486.83
455.07	444.70
455.26	463.43
455.44	416.62
455.62	393.21
455.81	379.17
455.99	404.91
456.17	423.64
456.36	379.17
456.54	386.19
456.73	440.02
456.91	458.74
457.09	374.49
457.28	407.25
457.46	416.62
457.64	430.66
457.83	407.25
458.01	400.23
458.19	411.93
458.38	383.85
458.56	386.19
458.74	402.57
458.93	442.36
459.11	435.34
459.29	362.78
459.48	472.79
459.66	428.32
459.84	421.30
460.03	528.96
460.21	388.53
460.39	437.68
460.57	433.00
460.76	456.40
460.94	416.62
461.12	498.53
461.31	461.09
461.49	433.00
461.67	421.30
461.85	414.27
462.04	397.89
462.22	746.63
462.40	468.11
462.59	383.85
462.77	491.51
462.95	442.36
463.13	381.51
463.32	411.93
463.50	414.27
463.68	444.70
463.86	449.38
464.05	404.91
464.23	400.23
464.41	493.85
464.59	430.66
464.78	430.66
464.96	423.64
465.14	468.11
465.32	430.66
465.50	461.09
465.69	444.70
465.87	428.32
466.05	397.89
466.23	372.15
466.41	358.10
466.60	397.89
466.78	435.34
466.96	437.68
467.14	468.11
467.32	379.17
467.51	393.21
467.69	442.36
467.87	451.72
468.05	348.74
468.23	393.21
468.41	458.74
468.60	416.62
468.78	372.15
468.96	402.57
469.14	351.08
469.32	379.17
469.50	325.33
469.69	510.24
469.87	437.68
470.05	397.89
470.23	465.77
470.41	400.23
470.59	379.17
470.77	461.09
470.95	421.30
471.14	397.89
471.32	348.74
471.50	409.59
471.68	404.91
471.86	491.51
472.04	388.53
472.22	411.93
472.40	421.30
472.58	381.51
472.77	505.56
472.95	461.09
473.13	355.76
473.31	430.66
473.49	456.40
473.67	397.89
473.85	397.89
474.03	433.00
474.21	404.91
474.39	461.09
474.57	411.93
474.75	418.96
474.93	362.78
475.12	414.27
475.30	407.25
475.48	451.72
475.66	486.83
475.84	383.85
476.02	416.62
476.20	461.09
476.38	388.53
476.56	458.74
476.74	404.91
476.92	411.93
477.10	388.53
477.28	390.87
477.46	404.91
477.64	437.68
477.82	386.19
478.00	395.55
478.18	409.59
478.36	383.85
478.54	491.51
478.72	355.76
478.90	418.96
479.08	514.92
479.26	355.76
479.44	442.36
479.62	395.55
479.80	395.55
479.98	360.44
480.16	358.10
480.34	395.55
480.52	414.27
480.70	425.98
480.88	416.62
481.06	414.27
481.24	381.51
481.41	390.87
481.59	386.19
481.77	386.19
481.95	367.46
482.13	454.06
482.31	386.19
482.49	397.89
482.67	425.98
482.85	433.00
483.03	449.38
483.21	451.72
483.39	451.72
483.57	430.66
483.74	479.81
483.92	397.89
484.10	411.93
484.28	360.44
484.46	533.64
484.64	400.23
484.82	416.62
485.00	423.64
485.18	421.30
485.35	390.87
485.53	397.89
485.71	451.72
485.89	393.21
486.07	381.51
486.25	456.40
486.43	468.11
486.61	475.13
486.78	510.24
486.96	362.78
487.14	400.23
487.32	407.25
487.50	395.55
487.68	421.30
487.85	402.57
488.03	454.06
488.21	440.02
488.39	360.44
488.57	500.87
488.75	374.49
488.92	430.66
489.10	388.53
489.28	437.68
489.46	397.89
489.64	395.55
489.81	393.21
489.99	428.32
490.17	407.25
490.35	416.62
490.53	428.32
490.70	358.10
490.88	465.77
491.06	425.98
491.24	374.49
491.41	484.49
491.59	451.72
491.77	381.51
491.95	437.68
492.13	362.78
492.30	428.32
492.48	404.91
492.66	383.85
492.84	386.19
493.01	463.43
493.19	463.43
493.37	407.25
493.54	409.59
493.72	390.87
493.90	437.68
494.08	421.30
494.25	404.91
494.43	418.96
494.61	421.30
494.79	407.25
494.96	414.27
495.14	416.62
495.32	407.25
495.49	425.98
495.67	383.85
495.85	404.91
496.02	397.89
496.20	409.59
496.38	454.06
496.55	358.10
496.73	479.81
496.91	393.21
497.09	418.96
497.26	454.06
497.44	407.25
497.62	374.49
497.79	404.91
497.97	451.72
498.14	409.59
498.32	442.36
498.50	369.80
498.67	280.86
498.85	421.30
499.03	458.74
499.20	372.15
499.38	423.64
499.56	402.57
499.73	505.56
499.91	433.00
500.08	358.10
500.26	393.21
500.44	437.68
500.61	430.66
500.79	383.85
500.97	447.04
501.14	437.68
501.32	353.42
501.49	414.27
501.67	374.49
501.84	386.19
502.02	390.87
502.20	425.98
502.37	451.72
502.55	404.91
502.72	433.00
502.90	461.09
503.07	367.46
503.25	414.27
503.43	435.34
503.60	404.91
503.78	414.27
503.95	358.10
504.13	418.96
504.30	442.36
504.48	374.49
504.65	409.59
504.83	456.40
505.01	451.72
505.18	411.93
505.36	437.68
505.53	442.36
505.71	430.66
505.88	428.32
506.06	456.40
506.23	397.89
506.41	360.44
506.58	428.32
506.76	470.45
506.93	351.08
507.11	465.77
507.28	414.27
507.46	397.89
507.63	374.49
507.81	379.17
507.98	379.17
508.16	440.02
508.33	437.68
508.50	365.12
508.68	386.19
508.85	414.27
509.03	362.78
509.20	374.49
509.38	388.53
509.55	423.64
509.73	421.30
509.90	418.96
510.08	400.23
510.25	433.00
510.42	379.17
510.60	388.53
510.77	428.32
510.95	404.91
511.12	374.49
511.30	376.83
511.47	442.36
511.64	493.85
511.82	348.74
511.99	463.43
512.17	404.91
512.34	414.27
512.51	372.15
512.69	374.49
512.86	400.23
513.04	416.62
513.21	414.27
513.38	447.04
513.56	451.72
513.73	498.53
513.90	402.57
514.08	440.02
514.25	425.98
514.43	402.57
514.60	437.68
514.77	351.08
514.95	416.62
515.12	442.36
515.29	507.90
515.47	440.02
515.64	416.62
515.81	421.30
515.99	423.64
516.16	353.42
516.33	454.06
516.51	416.62
516.68	416.62
516.85	400.23
517.03	500.87
517.20	418.96
517.37	402.57
517.54	451.72
517.72	390.87
517.89	397.89
518.06	365.12
518.24	440.02
518.41	517.26
518.58	372.15
518.75	407.25
518.93	386.19
519.10	458.74
519.27	337.04
519.45	444.70
519.62	414.27
519.79	411.93
519.96	341.72
520.14	440.02
520.31	430.66
520.48	418.96
520.65	404.91
520.83	346.40
521.00	423.64
521.17	395.55
521.34	402.57
521.52	423.64
521.69	425.98
521.86	449.38
522.03	381.51
522.20	402.57
522.38	402.57
522.55	379.17
522.72	393.21
522.89	404.91
523.07	475.13
523.24	411.93
523.41	362.78
523.58	379.17
523.75	423.64
523.92	442.36
524.10	400.23
524.27	390.87
524.44	393.21
524.61	421.30
524.78	383.85
524.96	454.06
525.13	395.55
525.30	430.66
525.47	418.96
525.64	447.04
525.81	393.21
525.98	315.97
526.16	358.10
526.33	468.11
526.50	407.25
526.67	390.87
526.84	440.02
527.01	458.74
527.18	451.72
527.36	447.04
527.53	440.02
527.70	428.32
527.87	383.85
528.04	484.49
528.21	393.21
528.38	458.74
528.55	491.51
528.72	468.11
528.89	479.81
529.07	423.64
529.24	374.49
529.41	444.70
529.58	433.00
529.75	397.89
529.92	374.49
530.09	435.34
530.26	430.66
530.43	416.62
530.60	442.36
530.77	428.32
530.94	479.81
531.11	421.30
531.28	411.93
531.46	404.91
531.63	437.68
531.80	409.59
531.97	451.72
532.14	404.91
532.31	404.91
532.48	409.59
532.65	430.66
532.82	433.00
532.99	355.76
533.16	367.46
533.33	421.30
533.50	397.89
533.67	414.27
533.84	505.56
534.01	411.93
534.18	339.38
534.35	351.08
534.52	355.76
534.69	351.08
534.86	341.72
535.03	404.91
535.20	395.55
535.37	421.30
535.54	402.57
535.71	409.59
535.88	465.77
536.05	449.38
536.22	376.83
536.38	400.23
536.55	454.06
536.72	461.09
536.89	496.19
537.06	400.23
537.23	383.85
537.40	393.21
537.57	379.17
537.74	428.32
537.91	404.91
538.08	402.57
538.25	449.38
538.42	423.64
538.59	428.32
538.75	416.62
538.92	442.36
539.09	454.06
539.26	386.19
539.43	428.32
539.60	400.23
539.77	428.32
539.94	409.59
540.11	367.46
540.28	430.66
540.44	484.49
540.61	362.78
540.78	390.87
540.95	393.21
541.12	447.04
541.29	425.98
541.46	402.57
541.62	430.66
541.79	433.00
541.96	416.62
542.13	418.96
542.30	472.79
542.47	367.46
542.63	437.68
542.80	400.23
542.97	440.02
543.14	407.25
543.31	423.64
543.48	447.04
543.64	416.62
543.81	437.68
543.98	437.68
544.15	386.19
544.32	365.12
544.48	409.59
544.65	400.23
544.82	339.38
544.99	475.13
545.16	430.66
545.32	498.53
545.49	435.34
545.66	447.04
545.83	388.53
546.00	381.51
546.16	447.04
546.33	472.79
546.50	379.17
546.67	482.15
546.83	463.43
547.00	442.36
547.17	430.66
547.34	428.32
547.50	451.72
547.67	374.49
547.84	388.53
548.00	475.13
548.17	395.55
548.34	414.27
548.51	440.02
548.67	388.53
548.84	369.80
549.01	369.80
549.18	388.53
549.34	348.74
549.51	442.36
549.68	411.93
549.84	423.64
550.01	341.72
550.18	470.45
550.34	435.34
550.51	423.64
550.68	486.83
550.84	395.55
551.01	416.62
551.18	416.62
551.34	404.91
551.51	376.83
551.68	346.40
551.84	449.38
552.01	313.63
552.18	402.57
552.34	430.66
552.51	360.44
552.68	435.34
552.84	407.25
553.01	414.27
553.18	486.83
553.34	393.21
553.51	430.66
553.67	472.79
553.84	491.51
554.01	456.40
554.17	397.89
554.34	344.06
554.51	416.62
554.67	386.19
554.84	407.25
555.00	383.85
555.17	411.93
555.33	421.30
555.50	418.96
555.67	433.00
555.83	393.21
556.00	435.34
556.16	564.07
556.33	444.70
556.50	475.13
556.66	442.36
556.83	416.62
556.99	428.32
557.16	386.19
557.32	369.80
557.49	411.93
557.65	425.98
557.82	383.85
557.98	346.40
558.15	449.38
558.32	372.15
558.48	433.00
558.65	393.21
558.81	411.93
558.98	372.15
559.14	454.06
559.31	393.21
559.47	470.45
559.64	454.06
559.80	451.72
559.97	360.44
560.13	437.68
560.30	433.00
560.46	418.96
560.63	411.93
560.79	390.87
560.96	435.34
561.12	416.62
561.29	484.49
561.45	482.15
561.61	416.62
561.78	514.92
561.94	362.78
562.11	409.59
562.27	386.19
562.44	404.91
562.60	400.23
562.77	461.09
562.93	442.36
563.10	362.78
563.26	383.85
563.42	454.06
563.59	421.30
563.75	379.17
563.92	409.59
564.08	475.13
564.24	465.77
564.41	416.62
564.57	407.25
564.74	390.87
564.90	435.34
565.07	411.93
565.23	414.27
565.39	411.93
565.56	458.74
565.72	362.78
565.88	383.85
566.05	390.87
566.21	421.30
566.38	390.87
566.54	400.23
566.70	423.64
566.87	390.87
567.03	395.55
567.19	472.79
567.36	362.78
567.52	404.91
567.68	397.89
567.85	414.27
568.01	395.55
568.17	402.57
568.34	404.91
568.50	433.00
568.66	360.44
568.83	423.64
568.99	404.91
569.15	423.64
569.32	423.64
569.48	444.70
569.64	355.76
569.81	390.87
569.97	425.98
570.13	376.83
570.30	423.64
570.46	362.78
570.62	367.46
570.78	423.64
570.95	372.15
571.11	451.72
571.27	468.11
571.43	390.87
571.60	383.85
571.76	402.57
571.92	458.74
572.09	442.36
572.25	482.15
572.41	355.76
572.57	458.74
572.74	421.30
572.90	428.32
573.06	374.49
573.22	470.45
573.38	470.45
573.55	421.30
573.71	486.83
573.87	386.19
574.03	414.27
574.20	344.06
574.36	388.53
574.52	348.74
574.68	339.38
574.84	414.27
575.01	456.40
575.17	447.04
575.33	402.57
575.49	425.98
575.65	367.46
575.82	451.72
575.98	423.64
576.14	400.23
576.30	360.44
576.46	308.95
576.62	423.64
576.79	390.87
576.95	535.98
577.11	358.10
577.27	313.63
577.43	395.55
577.59	409.59
577.75	482.15
577.92	421.30
578.08	430.66
578.24	386.19
578.40	362.78
578.56	423.64
578.72	433.00
578.88	425.98
579.04	470.45
579.21	421.30
579.37	372.15
579.53	435.34
579.69	454.06
579.85	381.51
580.01	482.15
580.17	435.34
580.33	449.38
580.49	472.79
580.65	433.00
580.82	390.87
580.98	395.55
581.14	386.19
581.30	416.62
581.46	379.17
581.62	437.68
581.78	369.80
581.94	437.68
582.10	409.59
582.26	472.79
582.42	409.59
582.58	407.25
582.74	402.57
582.90	388.53
583.06	386.19
583.22	402.57
583.38	393.21
583.54	400.23
583.70	454.06
583.86	437.68
584.02	388.53
584.18	484.49
584.34	470.45
584.50	472.79
584.66	465.77
584.82	414.27
584.98	430.66
585.14	437.68
585.30	423.64
585.46	418.96
585.62	414.27
585.78	440.02
585.94	386.19
586.10	433.00
586.26	393.21
586.42	430.66
586.58	397.89
586.74	395.55
586.90	423.64
587.06	416.62
587.22	454.06
587.38	461.09
587.54	402.57
587.70	463.43
587.86	374.49
588.02	386.19
588.18	411.93
588.34	479.81
588.49	414.27
588.65	402.57
588.81	395.55
588.97	482.15
589.13	468.11
589.29	493.85
589.45	428.32
589.61	437.68
589.77	425.98
589.93	451.72
590.08	493.85
590.24	456.40
590.40	451.72
590.56	388.53
590.72	430.66
590.88	365.12
591.04	308.95
591.20	402.57
591.35	423.64
591.51	374.49
591.67	379.17
591.83	425.98
591.99	416.62
592.15	463.43
592.31	423.64
592.46	355.76
592.62	416.62
592.78	407.25
592.94	411.93
593.10	388.53
593.26	376.83
593.41	386.19
593.57	393.21
593.73	428.32
593.89	353.42
594.05	379.17
594.20	376.83
594.36	421.30
594.52	425.98
594.68	418.96
594.84	374.49
594.99	400.23
595.15	395.55
595.31	414.27
595.47	428.32
595.62	423.64
595.78	458.74
595.94	407.25
596.10	454.06
596.25	404.91
596.41	470.45
596.57	376.83
596.73	440.02
596.88	454.06
597.04	400.23
597.20	425.98
597.36	447.04
597.51	435.34
597.67	437.68
597.83	465.77
597.99	423.64
598.14	428.32
598.30	486.83
598.46	404.91
598.61	454.06
598.77	486.83
598.93	407.25
599.09	402.57
599.24	479.81
599.40	475.13
599.56	437.68
599.71	433.00
599.87	465.77
600.03	421.30
600.18	447.04
600.34	456.40
600.50	465.77
600.65	433.00
600.81	430.66
600.97	388.53
601.12	442.36
601.28	447.04
601.44	353.42
601.59	400.23
601.75	447.04
601.91	400.23
602.06	360.44
602.22	451.72
602.37	454.06
602.53	454.06
602.69	409.59
602.84	360.44
603.00	430.66
603.16	484.49
603.31	458.74
603.47	458.74
603.62	433.00
603.78	482.15
603.94	447.04
604.09	404.91
604.25	421.30
604.40	433.00
604.56	444.70
604.71	353.42
604.87	325.33
605.03	395.55
605.18	440.02
605.34	454.06
605.49	369.80
605.65	507.90
605.80	318.31
605.96	440.02
606.12	454.06
606.27	484.49
606.43	430.66
606.58	430.66
606.74	425.98
606.89	435.34
607.05	433.00
607.20	372.15
607.36	458.74
607.51	421.30
607.67	477.47
607.82	440.02
607.98	484.49
608.13	397.89
608.29	379.17
608.44	421.30
608.60	430.66
608.75	458.74
608.91	479.81
609.06	461.09
609.22	507.90
609.37	376.83
609.53	428.32
609.68	411.93
609.84	407.25
609.99	411.93
610.15	418.96
