SpectraSuite Data File
++++++++++++++++++++++++++++++++++++
Date: Fri Oct 25 12:10:20 EDT 2013
User: price-jones
Dark Spectrum Present: No
Reference Spectrum Present: No
Number of Sampled Component Spectra: 1
Spectrometers: USB2+H05261
Integration Time (usec): 100000 (USB2+H05261)
Spectra Averaged: 1 (USB2+H05261)
Boxcar Smoothing: 0 (USB2+H05261)
Correct for Electrical Dark: No (USB2+H05261)
Strobe/Lamp Enabled: No (USB2+H05261)
Correct for Detector Non-linearity: No (USB2+H05261)
Correct for Stray Light: No (USB2+H05261)
Number of Pixels in Processed Spectrum: 2048
>>>>>Begin Processed Spectral Data<<<<<
365.73	327.68
365.92	327.68
366.12	327.68
366.32	271.50
366.52	259.80
366.72	297.25
366.91	175.54
367.11	231.71
367.31	236.39
367.51	210.65
367.70	252.78
367.90	196.60
368.10	217.67
368.30	245.76
368.49	177.88
368.69	252.78
368.89	257.46
369.09	299.59
369.28	271.50
369.48	259.80
369.68	353.42
369.87	264.48
370.07	259.80
370.27	243.42
370.47	238.73
370.66	348.74
370.86	332.36
371.06	418.96
371.25	416.62
371.45	374.49
371.65	397.89
371.84	297.25
372.04	372.15
372.24	383.85
372.44	463.43
372.63	423.64
372.83	402.57
373.03	397.89
373.22	397.89
373.42	362.78
373.62	313.63
373.81	451.72
374.01	409.59
374.21	442.36
374.40	428.32
374.60	435.34
374.79	362.78
374.99	458.74
375.19	341.72
375.38	388.53
375.58	498.53
375.78	442.36
375.97	379.17
376.17	458.74
376.37	437.68
376.56	388.53
376.76	367.46
376.95	339.38
377.15	435.34
377.35	402.57
377.54	418.96
377.74	418.96
377.93	404.91
378.13	475.13
378.33	416.62
378.52	416.62
378.72	421.30
378.91	437.68
379.11	351.08
379.31	320.65
379.50	402.57
379.70	433.00
379.89	381.51
380.09	463.43
380.28	374.49
380.48	299.59
380.68	421.30
380.87	404.91
381.07	353.42
381.26	411.93
381.46	327.68
381.65	435.34
381.85	416.62
382.04	411.93
382.24	337.04
382.43	395.55
382.63	365.12
382.83	402.57
383.02	456.40
383.22	416.62
383.41	390.87
383.61	404.91
383.80	418.96
384.00	397.89
384.19	383.85
384.39	390.87
384.58	393.21
384.78	449.38
384.97	367.46
385.17	379.17
385.36	362.78
385.56	374.49
385.75	442.36
385.95	381.51
386.14	374.49
386.34	372.15
386.53	351.08
386.72	344.06
386.92	461.09
387.11	437.68
387.31	444.70
387.50	381.51
387.70	381.51
387.89	418.96
388.09	409.59
388.28	372.15
388.48	421.30
388.67	400.23
388.86	418.96
389.06	440.02
389.25	498.53
389.45	395.55
389.64	423.64
389.84	465.77
390.03	407.25
390.22	322.99
390.42	418.96
390.61	428.32
390.81	470.45
391.00	411.93
391.19	404.91
391.39	381.51
391.58	418.96
391.78	346.40
391.97	409.59
392.16	475.13
392.36	348.74
392.55	400.23
392.75	402.57
392.94	390.87
393.13	390.87
393.33	346.40
393.52	397.89
393.71	430.66
393.91	400.23
394.10	393.21
394.29	395.55
394.49	360.44
394.68	386.19
394.88	388.53
395.07	360.44
395.26	353.42
395.46	390.87
395.65	421.30
395.84	407.25
396.04	475.13
396.23	386.19
396.42	365.12
396.62	383.85
396.81	416.62
397.00	376.83
397.19	430.66
397.39	454.06
397.58	428.32
397.77	423.64
397.97	421.30
398.16	390.87
398.35	407.25
398.55	418.96
398.74	383.85
398.93	386.19
399.12	425.98
399.32	397.89
399.51	353.42
399.70	402.57
399.90	451.72
400.09	400.23
400.28	397.89
400.47	444.70
400.67	451.72
400.86	414.27
401.05	486.83
401.24	353.42
401.44	414.27
401.63	440.02
401.82	442.36
402.01	372.15
402.21	372.15
402.40	428.32
402.59	418.96
402.78	454.06
402.97	358.10
403.17	376.83
403.36	404.91
403.55	449.38
403.74	456.40
403.93	360.44
404.13	409.59
404.32	346.40
404.51	421.30
404.70	461.09
404.89	374.49
405.09	414.27
405.28	341.72
405.47	449.38
405.66	395.55
405.85	376.83
406.05	395.55
406.24	379.17
406.43	418.96
406.62	444.70
406.81	465.77
407.00	493.85
407.20	428.32
407.39	390.87
407.58	400.23
407.77	411.93
407.96	402.57
408.15	402.57
408.34	425.98
408.54	442.36
408.73	440.02
408.92	390.87
409.11	482.15
409.30	414.27
409.49	402.57
409.68	461.09
409.87	454.06
410.07	425.98
410.26	383.85
410.45	379.17
410.64	463.43
410.83	500.87
411.02	404.91
411.21	435.34
411.40	421.30
411.59	376.83
411.78	407.25
411.98	386.19
412.17	315.97
412.36	376.83
412.55	393.21
412.74	383.85
412.93	416.62
413.12	440.02
413.31	381.51
413.50	442.36
413.69	428.32
413.88	416.62
414.07	425.98
414.26	290.23
414.45	383.85
414.64	402.57
414.83	360.44
415.02	411.93
415.22	376.83
415.41	470.45
415.60	390.87
415.79	461.09
415.98	425.98
416.17	451.72
416.36	430.66
416.55	344.06
416.74	351.08
416.93	437.68
417.12	428.32
417.31	407.25
417.50	435.34
417.69	447.04
417.88	393.21
418.07	409.59
418.26	425.98
418.45	402.57
418.64	442.36
418.83	449.38
419.02	395.55
419.21	388.53
419.39	348.74
419.58	397.89
419.77	423.64
419.96	461.09
420.15	433.00
420.34	395.55
420.53	491.51
420.72	414.27
420.91	407.25
421.10	393.21
421.29	393.21
421.48	376.83
421.67	440.02
421.86	428.32
422.05	465.77
422.24	430.66
422.43	341.72
422.61	365.12
422.80	458.74
422.99	372.15
423.18	393.21
423.37	463.43
423.56	479.81
423.75	430.66
423.94	337.04
424.13	500.87
424.32	372.15
424.50	402.57
424.69	421.30
424.88	428.32
425.07	397.89
425.26	444.70
425.45	339.38
425.64	348.74
425.83	369.80
426.01	498.53
426.20	437.68
426.39	348.74
426.58	372.15
426.77	353.42
426.96	386.19
427.15	374.49
427.33	346.40
427.52	447.04
427.71	390.87
427.90	435.34
428.09	306.61
428.28	425.98
428.46	437.68
428.65	383.85
428.84	451.72
429.03	416.62
429.22	379.17
429.40	341.72
429.59	355.76
429.78	430.66
429.97	383.85
430.16	365.12
430.34	428.32
430.53	339.38
430.72	341.72
430.91	472.79
431.10	372.15
431.28	388.53
431.47	407.25
431.66	390.87
431.85	393.21
432.03	430.66
432.22	440.02
432.41	430.66
432.60	458.74
432.79	367.46
432.97	444.70
433.16	381.51
433.35	344.06
433.54	381.51
433.72	409.59
433.91	498.53
434.10	393.21
434.28	444.70
434.47	383.85
434.66	369.80
434.85	318.31
435.03	437.68
435.22	486.83
435.41	397.89
435.59	414.27
435.78	425.98
435.97	379.17
436.16	454.06
436.34	362.78
436.53	498.53
436.72	435.34
436.90	418.96
437.09	369.80
437.28	440.02
437.46	414.27
437.65	409.59
437.84	416.62
438.02	425.98
438.21	456.40
438.40	425.98
438.58	418.96
438.77	411.93
438.96	461.09
439.14	409.59
439.33	393.21
439.52	444.70
439.70	397.89
439.89	430.66
440.08	411.93
440.26	376.83
440.45	334.70
440.63	411.93
440.82	393.21
441.01	500.87
441.19	395.55
441.38	414.27
441.57	407.25
441.75	409.59
441.94	489.17
442.12	447.04
442.31	395.55
442.50	337.04
442.68	486.83
442.87	393.21
443.05	400.23
443.24	404.91
443.43	468.11
443.61	451.72
443.80	447.04
443.98	456.40
444.17	367.46
444.35	468.11
444.54	388.53
444.73	421.30
444.91	393.21
445.10	358.10
445.28	348.74
445.47	383.85
445.65	409.59
445.84	341.72
446.02	372.15
446.21	355.76
446.39	433.00
446.58	411.93
446.77	409.59
446.95	362.78
447.14	388.53
447.32	400.23
447.51	353.42
447.69	428.32
447.88	383.85
448.06	503.22
448.25	418.96
448.43	397.89
448.62	355.76
448.80	416.62
448.99	430.66
449.17	388.53
449.36	411.93
449.54	440.02
449.73	402.57
449.91	409.59
450.10	472.79
450.28	397.89
450.46	430.66
450.65	479.81
450.83	416.62
451.02	423.64
451.20	465.77
451.39	409.59
451.57	404.91
451.76	402.57
451.94	390.87
452.13	456.40
452.31	372.15
452.49	440.02
452.68	353.42
452.86	442.36
453.05	477.47
453.23	442.36
453.42	299.59
453.60	425.98
453.78	397.89
453.97	428.32
454.15	444.70
454.34	376.83
454.52	395.55
454.70	430.66
454.89	402.57
455.07	428.32
455.26	404.91
455.44	395.55
455.62	337.04
455.81	372.15
455.99	433.00
456.17	425.98
456.36	416.62
456.54	369.80
456.73	416.62
456.91	428.32
457.09	496.19
457.28	447.04
457.46	428.32
457.64	470.45
457.83	407.25
458.01	447.04
458.19	435.34
458.38	437.68
458.56	421.30
458.74	416.62
458.93	442.36
459.11	369.80
459.29	383.85
459.48	521.94
459.66	456.40
459.84	451.72
460.03	486.83
460.21	433.00
460.39	468.11
460.57	418.96
460.76	433.00
460.94	381.51
461.12	418.96
461.31	388.53
461.49	440.02
461.67	395.55
461.85	414.27
462.04	409.59
462.22	737.27
462.40	393.21
462.59	383.85
462.77	381.51
462.95	421.30
463.13	362.78
463.32	458.74
463.50	386.19
463.68	379.17
463.86	442.36
464.05	372.15
464.23	503.22
464.41	383.85
464.59	393.21
464.78	418.96
464.96	414.27
465.14	463.43
465.32	381.51
465.50	470.45
465.69	393.21
465.87	393.21
466.05	374.49
466.23	430.66
466.41	454.06
466.60	388.53
466.78	358.10
466.96	400.23
467.14	433.00
467.32	402.57
467.51	402.57
467.69	348.74
467.87	456.40
468.05	435.34
468.23	411.93
468.41	472.79
468.60	407.25
468.78	425.98
468.96	407.25
469.14	414.27
469.32	414.27
469.50	351.08
469.69	393.21
469.87	418.96
470.05	421.30
470.23	313.63
470.41	447.04
470.59	395.55
470.77	400.23
470.95	395.55
471.14	449.38
471.32	428.32
471.50	430.66
471.68	493.85
471.86	440.02
472.04	416.62
472.22	383.85
472.40	416.62
472.58	397.89
472.77	358.10
472.95	456.40
473.13	421.30
473.31	388.53
473.49	425.98
473.67	362.78
473.85	383.85
474.03	423.64
474.21	381.51
474.39	505.56
474.57	435.34
474.75	425.98
474.93	383.85
475.12	383.85
475.30	386.19
475.48	388.53
475.66	428.32
475.84	339.38
476.02	397.89
476.20	498.53
476.38	383.85
476.56	454.06
476.74	358.10
476.92	425.98
477.10	379.17
477.28	346.40
477.46	421.30
477.64	374.49
477.82	393.21
478.00	423.64
478.18	430.66
478.36	411.93
478.54	447.04
478.72	421.30
478.90	414.27
479.08	447.04
479.26	367.46
479.44	355.76
479.62	362.78
479.80	383.85
479.98	383.85
480.16	465.77
480.34	395.55
480.52	444.70
480.70	404.91
480.88	435.34
481.06	397.89
481.24	430.66
481.41	381.51
481.59	440.02
481.77	397.89
481.95	318.31
482.13	400.23
482.31	423.64
482.49	400.23
482.67	505.56
482.85	330.02
483.03	435.34
483.21	400.23
483.39	337.04
483.57	395.55
483.74	390.87
483.92	400.23
484.10	414.27
484.28	404.91
484.46	376.83
484.64	397.89
484.82	449.38
485.00	383.85
485.18	390.87
485.35	393.21
485.53	442.36
485.71	477.47
485.89	435.34
486.07	472.79
486.25	519.60
486.43	454.06
486.61	395.55
486.78	465.77
486.96	362.78
487.14	397.89
487.32	407.25
487.50	355.76
487.68	374.49
487.85	374.49
488.03	407.25
488.21	418.96
488.39	414.27
488.57	442.36
488.75	463.43
488.92	489.17
489.10	400.23
489.28	433.00
489.46	447.04
489.64	407.25
489.81	484.49
489.99	477.47
490.17	395.55
490.35	414.27
490.53	388.53
490.70	402.57
490.88	435.34
491.06	470.45
491.24	400.23
491.41	489.17
491.59	491.51
491.77	332.36
491.95	369.80
492.13	421.30
492.30	409.59
492.48	433.00
492.66	449.38
492.84	423.64
493.01	381.51
493.19	451.72
493.37	472.79
493.54	388.53
493.72	407.25
493.90	388.53
494.08	402.57
494.25	411.93
494.43	369.80
494.61	411.93
494.79	409.59
494.96	409.59
495.14	400.23
495.32	435.34
495.49	376.83
495.67	430.66
495.85	407.25
496.02	430.66
496.20	423.64
496.38	449.38
496.55	383.85
496.73	416.62
496.91	411.93
497.09	442.36
497.26	421.30
497.44	390.87
497.62	367.46
497.79	461.09
497.97	421.30
498.14	383.85
498.32	395.55
498.50	383.85
498.67	449.38
498.85	421.30
499.03	428.32
499.20	388.53
499.38	470.45
499.56	418.96
499.73	477.47
499.91	407.25
500.08	416.62
500.26	318.31
500.44	390.87
500.61	390.87
500.79	458.74
500.97	404.91
501.14	447.04
501.32	437.68
501.49	414.27
501.67	402.57
501.84	416.62
502.02	367.46
502.20	463.43
502.37	421.30
502.55	379.17
502.72	379.17
502.90	451.72
503.07	397.89
503.25	416.62
503.43	489.17
503.60	454.06
503.78	421.30
503.95	402.57
504.13	407.25
504.30	355.76
504.48	341.72
504.65	440.02
504.83	454.06
505.01	381.51
505.18	390.87
505.36	454.06
505.53	397.89
505.71	367.46
505.88	440.02
506.06	421.30
506.23	447.04
506.41	430.66
506.58	369.80
506.76	421.30
506.93	409.59
507.11	411.93
507.28	440.02
507.46	358.10
507.63	397.89
507.81	367.46
507.98	376.83
508.16	433.00
508.33	451.72
508.50	447.04
508.68	425.98
508.85	447.04
509.03	451.72
509.20	388.53
509.38	428.32
509.55	458.74
509.73	423.64
509.90	435.34
510.08	404.91
510.25	390.87
510.42	397.89
510.60	421.30
510.77	379.17
510.95	404.91
511.12	425.98
511.30	421.30
511.47	404.91
511.64	428.32
511.82	500.87
511.99	421.30
512.17	362.78
512.34	386.19
512.51	395.55
512.69	376.83
512.86	414.27
513.04	381.51
513.21	383.85
513.38	362.78
513.56	447.04
513.73	470.45
513.90	325.33
514.08	407.25
514.25	402.57
514.43	411.93
514.60	437.68
514.77	372.15
514.95	400.23
515.12	402.57
515.29	433.00
515.47	421.30
515.64	402.57
515.81	425.98
515.99	337.04
516.16	468.11
516.33	463.43
516.51	344.06
516.68	346.40
516.85	442.36
517.03	411.93
517.20	468.11
517.37	416.62
517.54	425.98
517.72	421.30
517.89	390.87
518.06	374.49
518.24	484.49
518.41	367.46
518.58	433.00
518.75	442.36
518.93	435.34
519.10	423.64
519.27	390.87
519.45	318.31
519.62	423.64
519.79	510.24
519.96	449.38
520.14	407.25
520.31	451.72
520.48	346.40
520.65	416.62
520.83	458.74
521.00	442.36
521.17	435.34
521.34	435.34
521.52	402.57
521.69	461.09
521.86	461.09
522.03	390.87
522.20	435.34
522.38	454.06
522.55	348.74
522.72	360.44
522.89	395.55
523.07	451.72
523.24	433.00
523.41	425.98
523.58	475.13
523.75	463.43
523.92	351.08
524.10	400.23
524.27	425.98
524.44	414.27
524.61	393.21
524.78	372.15
524.96	418.96
525.13	414.27
525.30	430.66
525.47	414.27
525.64	428.32
525.81	404.91
525.98	470.45
526.16	444.70
526.33	395.55
526.50	355.76
526.67	355.76
526.84	414.27
527.01	428.32
527.18	388.53
527.36	437.68
527.53	395.55
527.70	463.43
527.87	423.64
528.04	489.17
528.21	407.25
528.38	395.55
528.55	461.09
528.72	411.93
528.89	470.45
529.07	397.89
529.24	421.30
529.41	491.51
529.58	423.64
529.75	421.30
529.92	444.70
530.09	360.44
530.26	454.06
530.43	393.21
530.60	489.17
530.77	416.62
530.94	451.72
531.11	423.64
531.28	409.59
531.46	348.74
531.63	458.74
531.80	386.19
531.97	428.32
532.14	440.02
532.31	468.11
532.48	383.85
532.65	404.91
532.82	409.59
532.99	411.93
533.16	447.04
533.33	365.12
533.50	379.17
533.67	423.64
533.84	458.74
534.01	374.49
534.18	386.19
534.35	456.40
534.52	440.02
534.69	435.34
534.86	428.32
535.03	404.91
535.20	437.68
535.37	386.19
535.54	451.72
535.71	409.59
535.88	475.13
536.05	414.27
536.22	435.34
536.38	409.59
536.55	388.53
536.72	458.74
536.89	402.57
537.06	416.62
537.23	409.59
537.40	390.87
537.57	433.00
537.74	470.45
537.91	416.62
538.08	404.91
538.25	461.09
538.42	409.59
538.59	423.64
538.75	440.02
538.92	374.49
539.09	465.77
539.26	465.77
539.43	397.89
539.60	416.62
539.77	454.06
539.94	348.74
540.11	414.27
540.28	463.43
540.44	447.04
540.61	458.74
540.78	393.21
540.95	400.23
541.12	407.25
541.29	388.53
541.46	468.11
541.62	414.27
541.79	416.62
541.96	383.85
542.13	381.51
542.30	414.27
542.47	437.68
542.63	369.80
542.80	470.45
542.97	463.43
543.14	400.23
543.31	400.23
543.48	409.59
543.64	435.34
543.81	388.53
543.98	390.87
544.15	402.57
544.32	430.66
544.48	428.32
544.65	353.42
544.82	381.51
544.99	418.96
545.16	458.74
545.32	334.70
545.49	409.59
545.66	411.93
545.83	390.87
546.00	355.76
546.16	442.36
546.33	477.47
546.50	433.00
546.67	435.34
546.83	348.74
547.00	440.02
547.17	465.77
547.34	372.15
547.50	454.06
547.67	390.87
547.84	437.68
548.00	414.27
548.17	376.83
548.34	339.38
548.51	461.09
548.67	388.53
548.84	376.83
549.01	393.21
549.18	402.57
549.34	430.66
549.51	383.85
549.68	423.64
549.84	475.13
550.01	421.30
550.18	444.70
550.34	444.70
550.51	456.40
550.68	454.06
550.84	451.72
551.01	397.89
551.18	421.30
551.34	409.59
551.51	454.06
551.68	395.55
551.84	484.49
552.01	430.66
552.18	416.62
552.34	402.57
552.51	470.45
552.68	320.65
552.84	369.80
553.01	369.80
553.18	386.19
553.34	400.23
553.51	397.89
553.67	489.17
553.84	449.38
554.01	454.06
554.17	400.23
554.34	386.19
554.51	395.55
554.67	404.91
554.84	482.15
555.00	456.40
555.17	475.13
555.33	334.70
555.50	395.55
555.67	376.83
555.83	358.10
556.00	353.42
556.16	479.81
556.33	461.09
556.50	372.15
556.66	477.47
556.83	449.38
556.99	421.30
557.16	442.36
557.32	402.57
557.49	390.87
557.65	421.30
557.82	407.25
557.98	458.74
558.15	395.55
558.32	409.59
558.48	372.15
558.65	435.34
558.81	444.70
558.98	447.04
559.14	430.66
559.31	447.04
559.47	390.87
559.64	409.59
559.80	479.81
559.97	355.76
560.13	447.04
560.30	416.62
560.46	437.68
560.63	444.70
560.79	421.30
560.96	503.22
561.12	444.70
561.29	482.15
561.45	461.09
561.61	437.68
561.78	491.51
561.94	447.04
562.11	376.83
562.27	379.17
562.44	332.36
562.60	367.46
562.77	397.89
562.93	444.70
563.10	358.10
563.26	477.47
563.42	425.98
563.59	407.25
563.75	425.98
563.92	355.76
564.08	402.57
564.24	404.91
564.41	393.21
564.57	428.32
564.74	435.34
564.90	449.38
565.07	477.47
565.23	400.23
565.39	437.68
565.56	400.23
565.72	416.62
565.88	421.30
566.05	435.34
566.21	388.53
566.38	332.36
566.54	414.27
566.70	428.32
566.87	430.66
567.03	388.53
567.19	400.23
567.36	458.74
567.52	367.46
567.68	442.36
567.85	337.04
568.01	428.32
568.17	416.62
568.34	409.59
568.50	423.64
568.66	428.32
568.83	465.77
568.99	414.27
569.15	449.38
569.32	489.17
569.48	437.68
569.64	444.70
569.81	388.53
569.97	447.04
570.13	444.70
570.30	463.43
570.46	393.21
570.62	440.02
570.78	416.62
570.95	449.38
571.11	423.64
571.27	461.09
571.43	395.55
571.60	472.79
571.76	341.72
571.92	430.66
572.09	374.49
572.25	416.62
572.41	390.87
572.57	365.12
572.74	468.11
572.90	411.93
573.06	404.91
573.22	367.46
573.38	470.45
573.55	463.43
573.71	325.33
573.87	416.62
574.03	395.55
574.20	381.51
574.36	339.38
574.52	447.04
574.68	390.87
574.84	416.62
575.01	437.68
575.17	458.74
575.33	423.64
575.49	461.09
575.65	440.02
575.82	379.17
575.98	454.06
576.14	472.79
576.30	444.70
576.46	479.81
576.62	423.64
576.79	425.98
576.95	416.62
577.11	489.17
577.27	444.70
577.43	416.62
577.59	409.59
577.75	463.43
577.92	423.64
578.08	491.51
578.24	376.83
578.40	475.13
578.56	395.55
578.72	444.70
578.88	411.93
579.04	390.87
579.21	465.77
579.37	379.17
579.53	362.78
579.69	379.17
579.85	409.59
580.01	358.10
580.17	386.19
580.33	348.74
580.49	397.89
580.65	456.40
580.82	472.79
580.98	475.13
581.14	409.59
581.30	411.93
581.46	517.26
581.62	451.72
581.78	332.36
581.94	451.72
582.10	367.46
582.26	395.55
582.42	449.38
582.58	414.27
582.74	339.38
582.90	388.53
583.06	437.68
583.22	423.64
583.38	407.25
583.54	444.70
583.70	461.09
583.86	395.55
584.02	468.11
584.18	458.74
584.34	454.06
584.50	369.80
584.66	365.12
584.82	470.45
584.98	421.30
585.14	458.74
585.30	411.93
585.46	388.53
585.62	365.12
585.78	383.85
585.94	411.93
586.10	433.00
586.26	407.25
586.42	477.47
586.58	425.98
586.74	512.58
586.90	461.09
587.06	465.77
587.22	425.98
587.38	437.68
587.54	449.38
587.70	451.72
587.86	404.91
588.02	470.45
588.18	416.62
588.34	491.51
588.49	409.59
588.65	447.04
588.81	461.09
588.97	355.76
589.13	447.04
589.29	367.46
589.45	414.27
589.61	376.83
589.77	395.55
589.93	337.04
590.08	374.49
590.24	418.96
590.40	381.51
590.56	416.62
590.72	407.25
590.88	386.19
591.04	414.27
591.20	365.12
591.35	484.49
591.51	355.76
591.67	421.30
591.83	442.36
591.99	449.38
592.15	433.00
592.31	409.59
592.46	454.06
592.62	449.38
592.78	409.59
592.94	379.17
593.10	470.45
593.26	433.00
593.41	407.25
593.57	442.36
593.73	468.11
593.89	332.36
594.05	400.23
594.20	444.70
594.36	472.79
594.52	393.21
594.68	383.85
594.84	489.17
594.99	447.04
595.15	400.23
595.31	437.68
595.47	458.74
595.62	402.57
595.78	395.55
595.94	402.57
596.10	479.81
596.25	372.15
596.41	444.70
596.57	440.02
596.73	393.21
596.88	493.85
597.04	409.59
597.20	369.80
597.36	470.45
597.51	475.13
597.67	381.51
597.83	388.53
597.99	423.64
598.14	346.40
598.30	449.38
598.46	409.59
598.61	447.04
598.77	421.30
598.93	358.10
599.09	411.93
599.24	456.40
599.40	428.32
599.56	479.81
599.71	465.77
599.87	440.02
600.03	402.57
600.18	423.64
600.34	500.87
600.50	386.19
600.65	395.55
600.81	421.30
600.97	421.30
601.12	458.74
601.28	500.87
601.44	379.17
601.59	379.17
601.75	433.00
601.91	444.70
602.06	397.89
602.22	456.40
602.37	348.74
602.53	369.80
602.69	416.62
602.84	369.80
603.00	393.21
603.16	404.91
603.31	454.06
603.47	395.55
603.62	433.00
603.78	444.70
603.94	407.25
604.09	440.02
604.25	404.91
604.40	416.62
604.56	372.15
604.71	435.34
604.87	428.32
605.03	447.04
605.18	465.77
605.34	386.19
605.49	393.21
605.65	442.36
605.80	433.00
605.96	337.04
606.12	468.11
606.27	397.89
606.43	402.57
606.58	353.42
606.74	386.19
606.89	463.43
607.05	421.30
607.20	423.64
607.36	393.21
607.51	346.40
607.67	346.40
607.82	454.06
607.98	402.57
608.13	341.72
608.29	465.77
608.44	477.47
608.60	374.49
608.75	430.66
608.91	440.02
609.06	449.38
609.22	458.74
609.37	346.40
609.53	449.38
609.68	402.57
609.84	418.96
609.99	379.17
610.15	372.15
