SpectraSuite Data File
++++++++++++++++++++++++++++++++++++
Date: Fri Oct 25 12:10:44 EDT 2013
User: price-jones
Dark Spectrum Present: No
Reference Spectrum Present: No
Number of Sampled Component Spectra: 1
Spectrometers: USB2+H05261
Integration Time (usec): 100000 (USB2+H05261)
Spectra Averaged: 1 (USB2+H05261)
Boxcar Smoothing: 0 (USB2+H05261)
Correct for Electrical Dark: No (USB2+H05261)
Strobe/Lamp Enabled: No (USB2+H05261)
Correct for Detector Non-linearity: No (USB2+H05261)
Correct for Stray Light: No (USB2+H05261)
Number of Pixels in Processed Spectrum: 2048
>>>>>Begin Processed Spectral Data<<<<<
365.73	292.57
365.92	292.57
366.12	292.57
366.32	283.20
366.52	241.08
366.72	341.72
366.91	248.10
367.11	257.46
367.31	187.24
367.51	201.29
367.70	231.71
367.90	234.05
368.10	187.24
368.30	229.37
368.49	161.50
368.69	308.95
368.89	222.35
369.09	243.42
369.28	292.57
369.48	273.84
369.68	255.12
369.87	299.59
370.07	313.63
370.27	358.10
370.47	386.19
370.66	372.15
370.86	383.85
371.06	308.95
371.25	353.42
371.45	365.12
371.65	383.85
371.84	407.25
372.04	337.04
372.24	440.02
372.44	381.51
372.63	418.96
372.83	472.79
373.03	418.96
373.22	425.98
373.42	348.74
373.62	390.87
373.81	433.00
374.01	440.02
374.21	411.93
374.40	458.74
374.60	400.23
374.79	416.62
374.99	379.17
375.19	407.25
375.38	475.13
375.58	400.23
375.78	430.66
375.97	458.74
376.17	451.72
376.37	447.04
376.56	397.89
376.76	381.51
376.95	374.49
377.15	407.25
377.35	435.34
377.54	451.72
377.74	330.02
377.93	388.53
378.13	418.96
378.33	409.59
378.52	372.15
378.72	390.87
378.91	463.43
379.11	376.83
379.31	393.21
379.50	367.46
379.70	477.47
379.89	435.34
380.09	435.34
380.28	376.83
380.48	339.38
380.68	423.64
380.87	407.25
381.07	430.66
381.26	489.17
381.46	353.42
381.65	379.17
381.85	416.62
382.04	362.78
382.24	388.53
382.43	416.62
382.63	351.08
382.83	376.83
383.02	442.36
383.22	386.19
383.41	351.08
383.61	435.34
383.80	332.36
384.00	404.91
384.19	393.21
384.39	404.91
384.58	402.57
384.78	421.30
384.97	416.62
385.17	484.49
385.36	411.93
385.56	397.89
385.75	451.72
385.95	334.70
386.14	416.62
386.34	379.17
386.53	395.55
386.72	344.06
386.92	407.25
387.11	386.19
387.31	397.89
387.50	430.66
387.70	360.44
387.89	423.64
388.09	346.40
388.28	411.93
388.48	409.59
388.67	383.85
388.86	381.51
389.06	435.34
389.25	334.70
389.45	400.23
389.64	435.34
389.84	369.80
390.03	430.66
390.22	433.00
390.42	322.99
390.61	351.08
390.81	334.70
391.00	402.57
391.19	395.55
391.39	414.27
391.58	379.17
391.78	367.46
391.97	369.80
392.16	339.38
392.36	465.77
392.55	411.93
392.75	393.21
392.94	395.55
393.13	421.30
393.33	447.04
393.52	381.51
393.71	444.70
393.91	463.43
394.10	395.55
394.29	344.06
394.49	365.12
394.68	430.66
394.88	416.62
395.07	383.85
395.26	423.64
395.46	390.87
395.65	409.59
395.84	421.30
396.04	470.45
396.23	386.19
396.42	365.12
396.62	388.53
396.81	407.25
397.00	355.76
397.19	397.89
397.39	376.83
397.58	435.34
397.77	358.10
397.97	381.51
398.16	374.49
398.35	388.53
398.55	360.44
398.74	393.21
398.93	437.68
399.12	358.10
399.32	451.72
399.51	416.62
399.70	421.30
399.90	437.68
400.09	444.70
400.28	337.04
400.47	421.30
400.67	411.93
400.86	440.02
401.05	367.46
401.24	397.89
401.44	437.68
401.63	425.98
401.82	404.91
402.01	411.93
402.21	395.55
402.40	353.42
402.59	386.19
402.78	463.43
402.97	468.11
403.17	393.21
403.36	395.55
403.55	400.23
403.74	416.62
403.93	397.89
404.13	444.70
404.32	386.19
404.51	440.02
404.70	388.53
404.89	372.15
405.09	435.34
405.28	395.55
405.47	381.51
405.66	435.34
405.85	379.17
406.05	407.25
406.24	428.32
406.43	472.79
406.62	414.27
406.81	528.96
407.00	411.93
407.20	425.98
407.39	367.46
407.58	437.68
407.77	369.80
407.96	435.34
408.15	409.59
408.34	425.98
408.54	353.42
408.73	379.17
408.92	421.30
409.11	421.30
409.30	355.76
409.49	365.12
409.68	465.77
409.87	411.93
410.07	444.70
410.26	421.30
410.45	458.74
410.64	437.68
410.83	374.49
411.02	358.10
411.21	454.06
411.40	362.78
411.59	463.43
411.78	465.77
411.98	400.23
412.17	425.98
412.36	465.77
412.55	447.04
412.74	411.93
412.93	430.66
413.12	400.23
413.31	372.15
413.50	430.66
413.69	423.64
413.88	437.68
414.07	379.17
414.26	386.19
414.45	322.99
414.64	379.17
414.83	397.89
415.02	407.25
415.22	374.49
415.41	482.15
415.60	428.32
415.79	425.98
415.98	379.17
416.17	414.27
416.36	421.30
416.55	334.70
416.74	404.91
416.93	393.21
417.12	402.57
417.31	416.62
417.50	393.21
417.69	444.70
417.88	437.68
418.07	407.25
418.26	374.49
418.45	386.19
418.64	451.72
418.83	386.19
419.02	404.91
419.21	435.34
419.39	442.36
419.58	390.87
419.77	430.66
419.96	397.89
420.15	372.15
420.34	397.89
420.53	416.62
420.72	411.93
420.91	435.34
421.10	393.21
421.29	351.08
421.48	461.09
421.67	425.98
421.86	360.44
422.05	374.49
422.24	393.21
422.43	388.53
422.61	458.74
422.80	383.85
422.99	505.56
423.18	390.87
423.37	456.40
423.56	393.21
423.75	418.96
423.94	390.87
424.13	388.53
424.32	437.68
424.50	386.19
424.69	372.15
424.88	381.51
425.07	388.53
425.26	409.59
425.45	374.49
425.64	379.17
425.83	416.62
426.01	402.57
426.20	386.19
426.39	365.12
426.58	409.59
426.77	369.80
426.96	409.59
427.15	433.00
427.33	390.87
427.52	425.98
427.71	428.32
427.90	435.34
428.09	404.91
428.28	351.08
428.46	395.55
428.65	381.51
428.84	430.66
429.03	423.64
429.22	418.96
429.40	376.83
429.59	393.21
429.78	388.53
429.97	421.30
430.16	477.47
430.34	395.55
430.53	348.74
430.72	423.64
430.91	463.43
431.10	407.25
431.28	428.32
431.47	437.68
431.66	449.38
431.85	414.27
432.03	402.57
432.22	440.02
432.41	376.83
432.60	416.62
432.79	416.62
432.97	440.02
433.16	393.21
433.35	388.53
433.54	367.46
433.72	376.83
433.91	390.87
434.10	435.34
434.28	477.47
434.47	348.74
434.66	348.74
434.85	374.49
435.03	484.49
435.22	482.15
435.41	461.09
435.59	395.55
435.78	407.25
435.97	437.68
436.16	465.77
436.34	341.72
436.53	379.17
436.72	416.62
436.90	461.09
437.09	381.51
437.28	376.83
437.46	390.87
437.65	423.64
437.84	416.62
438.02	409.59
438.21	414.27
438.40	456.40
438.58	379.17
438.77	440.02
438.96	421.30
439.14	386.19
439.33	423.64
439.52	421.30
439.70	367.46
439.89	390.87
440.08	411.93
440.26	451.72
440.45	402.57
440.63	449.38
440.82	416.62
441.01	360.44
441.19	390.87
441.38	435.34
441.57	402.57
441.75	458.74
441.94	458.74
442.12	430.66
442.31	334.70
442.50	400.23
442.68	402.57
442.87	440.02
443.05	409.59
443.24	353.42
443.43	376.83
443.61	411.93
443.80	393.21
443.98	339.38
444.17	400.23
444.35	425.98
444.54	475.13
444.73	440.02
444.91	437.68
445.10	393.21
445.28	400.23
445.47	447.04
445.65	411.93
445.84	404.91
446.02	379.17
446.21	395.55
446.39	383.85
446.58	472.79
446.77	355.76
446.95	411.93
447.14	383.85
447.32	383.85
447.51	423.64
447.69	414.27
447.88	367.46
448.06	465.77
448.25	400.23
448.43	407.25
448.62	346.40
448.80	430.66
448.99	409.59
449.17	447.04
449.36	440.02
449.54	348.74
449.73	433.00
449.91	456.40
450.10	423.64
450.28	472.79
450.46	407.25
450.65	472.79
450.83	440.02
451.02	423.64
451.20	425.98
451.39	379.17
451.57	409.59
451.76	369.80
451.94	397.89
452.13	418.96
452.31	440.02
452.49	428.32
452.68	374.49
452.86	435.34
453.05	418.96
453.23	376.83
453.42	353.42
453.60	435.34
453.78	454.06
453.97	383.85
454.15	425.98
454.34	414.27
454.52	388.53
454.70	425.98
454.89	381.51
455.07	414.27
455.26	407.25
455.44	428.32
455.62	395.55
455.81	397.89
455.99	449.38
456.17	411.93
456.36	414.27
456.54	353.42
456.73	372.15
456.91	386.19
457.09	447.04
457.28	475.13
457.46	444.70
457.64	418.96
457.83	414.27
458.01	454.06
458.19	358.10
458.38	423.64
458.56	409.59
458.74	409.59
458.93	482.15
459.11	470.45
459.29	318.31
459.48	383.85
459.66	430.66
459.84	409.59
460.03	425.98
460.21	437.68
460.39	383.85
460.57	440.02
460.76	411.93
460.94	404.91
461.12	388.53
461.31	486.83
461.49	468.11
461.67	397.89
461.85	444.70
462.04	409.59
462.22	734.93
462.40	418.96
462.59	428.32
462.77	407.25
462.95	468.11
463.13	416.62
463.32	362.78
463.50	379.17
463.68	362.78
463.86	381.51
464.05	477.47
464.23	435.34
464.41	411.93
464.59	423.64
464.78	442.36
464.96	372.15
465.14	416.62
465.32	404.91
465.50	409.59
465.69	442.36
465.87	383.85
466.05	447.04
466.23	362.78
466.41	390.87
466.60	428.32
466.78	421.30
466.96	416.62
467.14	442.36
467.32	395.55
467.51	456.40
467.69	411.93
467.87	409.59
468.05	402.57
468.23	486.83
468.41	444.70
468.60	451.72
468.78	397.89
468.96	435.34
469.14	449.38
469.32	407.25
469.50	393.21
469.69	449.38
469.87	397.89
470.05	451.72
470.23	404.91
470.41	367.46
470.59	376.83
470.77	428.32
470.95	414.27
471.14	400.23
471.32	393.21
471.50	428.32
471.68	418.96
471.86	390.87
472.04	425.98
472.22	379.17
472.40	393.21
472.58	395.55
472.77	411.93
472.95	379.17
473.13	475.13
473.31	444.70
473.49	418.96
473.67	440.02
473.85	428.32
474.03	348.74
474.21	383.85
474.39	437.68
474.57	416.62
474.75	402.57
474.93	327.68
475.12	416.62
475.30	430.66
475.48	456.40
475.66	390.87
475.84	341.72
476.02	381.51
476.20	409.59
476.38	433.00
476.56	449.38
476.74	411.93
476.92	376.83
477.10	409.59
477.28	482.15
477.46	388.53
477.64	351.08
477.82	465.77
478.00	386.19
478.18	383.85
478.36	395.55
478.54	433.00
478.72	383.85
478.90	374.49
479.08	400.23
479.26	358.10
479.44	397.89
479.62	416.62
479.80	355.76
479.98	409.59
480.16	430.66
480.34	440.02
480.52	393.21
480.70	397.89
480.88	346.40
481.06	402.57
481.24	397.89
481.41	395.55
481.59	486.83
481.77	416.62
481.95	416.62
482.13	442.36
482.31	409.59
482.49	374.49
482.67	362.78
482.85	390.87
483.03	451.72
483.21	407.25
483.39	386.19
483.57	461.09
483.74	421.30
483.92	388.53
484.10	454.06
484.28	418.96
484.46	484.49
484.64	449.38
484.82	472.79
485.00	397.89
485.18	416.62
485.35	418.96
485.53	428.32
485.71	421.30
485.89	407.25
486.07	458.74
486.25	444.70
486.43	425.98
486.61	367.46
486.78	353.42
486.96	444.70
487.14	437.68
487.32	414.27
487.50	435.34
487.68	425.98
487.85	421.30
488.03	451.72
488.21	430.66
488.39	430.66
488.57	407.25
488.75	468.11
488.92	465.77
489.10	395.55
489.28	416.62
489.46	397.89
489.64	451.72
489.81	404.91
489.99	367.46
490.17	451.72
490.35	468.11
490.53	433.00
490.70	369.80
490.88	383.85
491.06	318.31
491.24	379.17
491.41	442.36
491.59	362.78
491.77	397.89
491.95	332.36
492.13	451.72
492.30	390.87
492.48	390.87
492.66	355.76
492.84	496.19
493.01	440.02
493.19	395.55
493.37	456.40
493.54	411.93
493.72	433.00
493.90	433.00
494.08	425.98
494.25	411.93
494.43	360.44
494.61	421.30
494.79	411.93
494.96	400.23
495.14	435.34
495.32	383.85
495.49	416.62
495.67	400.23
495.85	440.02
496.02	395.55
496.20	470.45
496.38	400.23
496.55	365.12
496.73	477.47
496.91	376.83
497.09	433.00
497.26	433.00
497.44	421.30
497.62	421.30
497.79	372.15
497.97	458.74
498.14	367.46
498.32	465.77
498.50	444.70
498.67	381.51
498.85	367.46
499.03	440.02
499.20	376.83
499.38	512.58
499.56	440.02
499.73	468.11
499.91	428.32
500.08	404.91
500.26	365.12
500.44	360.44
500.61	489.17
500.79	423.64
500.97	386.19
501.14	435.34
501.32	404.91
501.49	442.36
501.67	372.15
501.84	414.27
502.02	390.87
502.20	416.62
502.37	435.34
502.55	435.34
502.72	365.12
502.90	367.46
503.07	423.64
503.25	372.15
503.43	397.89
503.60	409.59
503.78	465.77
503.95	433.00
504.13	442.36
504.30	428.32
504.48	404.91
504.65	433.00
504.83	409.59
505.01	449.38
505.18	433.00
505.36	489.17
505.53	416.62
505.71	367.46
505.88	449.38
506.06	386.19
506.23	386.19
506.41	315.97
506.58	433.00
506.76	475.13
506.93	416.62
507.11	416.62
507.28	416.62
507.46	395.55
507.63	383.85
507.81	447.04
507.98	425.98
508.16	428.32
508.33	381.51
508.50	442.36
508.68	451.72
508.85	402.57
509.03	416.62
509.20	409.59
509.38	430.66
509.55	463.43
509.73	472.79
509.90	407.25
510.08	425.98
510.25	440.02
510.42	379.17
510.60	442.36
510.77	409.59
510.95	367.46
511.12	304.27
511.30	379.17
511.47	465.77
511.64	407.25
511.82	444.70
511.99	409.59
512.17	416.62
512.34	400.23
512.51	313.63
512.69	355.76
512.86	437.68
513.04	381.51
513.21	416.62
513.38	348.74
513.56	425.98
513.73	407.25
513.90	369.80
514.08	416.62
514.25	372.15
514.43	440.02
514.60	409.59
514.77	386.19
514.95	437.68
515.12	407.25
515.29	390.87
515.47	449.38
515.64	346.40
515.81	418.96
515.99	463.43
516.16	463.43
516.33	353.42
516.51	379.17
516.68	388.53
516.85	440.02
517.03	365.12
517.20	365.12
517.37	369.80
517.54	442.36
517.72	353.42
517.89	376.83
518.06	381.51
518.24	433.00
518.41	395.55
518.58	444.70
518.75	381.51
518.93	381.51
519.10	381.51
519.27	463.43
519.45	400.23
519.62	461.09
519.79	449.38
519.96	351.08
520.14	395.55
520.31	496.19
520.48	486.83
520.65	362.78
520.83	346.40
521.00	414.27
521.17	390.87
521.34	444.70
521.52	409.59
521.69	421.30
521.86	381.51
522.03	454.06
522.20	379.17
522.38	416.62
522.55	409.59
522.72	351.08
522.89	433.00
523.07	479.81
523.24	449.38
523.41	397.89
523.58	381.51
523.75	425.98
523.92	433.00
524.10	482.15
524.27	470.45
524.44	437.68
524.61	444.70
524.78	409.59
524.96	477.47
525.13	444.70
525.30	465.77
525.47	423.64
525.64	407.25
525.81	447.04
525.98	409.59
526.16	379.17
526.33	440.02
526.50	381.51
526.67	465.77
526.84	414.27
527.01	397.89
527.18	425.98
527.36	458.74
527.53	433.00
527.70	437.68
527.87	372.15
528.04	479.81
528.21	444.70
528.38	409.59
528.55	400.23
528.72	386.19
528.89	421.30
529.07	472.79
529.24	400.23
529.41	332.36
529.58	442.36
529.75	365.12
529.92	465.77
530.09	386.19
530.26	339.38
530.43	386.19
530.60	376.83
530.77	428.32
530.94	451.72
531.11	437.68
531.28	461.09
531.46	409.59
531.63	465.77
531.80	313.63
531.97	437.68
532.14	397.89
532.31	433.00
532.48	440.02
532.65	416.62
532.82	421.30
532.99	393.21
533.16	330.02
533.33	358.10
533.50	411.93
533.67	421.30
533.84	360.44
534.01	404.91
534.18	456.40
534.35	421.30
534.52	376.83
534.69	449.38
534.86	461.09
535.03	407.25
535.20	369.80
535.37	442.36
535.54	440.02
535.71	437.68
535.88	393.21
536.05	376.83
536.22	423.64
536.38	400.23
536.55	383.85
536.72	456.40
536.89	409.59
537.06	475.13
537.23	381.51
537.40	435.34
537.57	454.06
537.74	493.85
537.91	442.36
538.08	355.76
538.25	451.72
538.42	390.87
538.59	407.25
538.75	437.68
538.92	395.55
539.09	435.34
539.26	409.59
539.43	458.74
539.60	407.25
539.77	458.74
539.94	404.91
540.11	407.25
540.28	470.45
540.44	374.49
540.61	414.27
540.78	414.27
540.95	379.17
541.12	451.72
541.29	433.00
541.46	454.06
541.62	447.04
541.79	411.93
541.96	374.49
542.13	390.87
542.30	430.66
542.47	433.00
542.63	365.12
542.80	421.30
542.97	458.74
543.14	418.96
543.31	393.21
543.48	435.34
543.64	395.55
543.81	402.57
543.98	369.80
544.15	449.38
544.32	440.02
544.48	440.02
544.65	463.43
544.82	404.91
544.99	346.40
545.16	430.66
545.32	353.42
545.49	454.06
545.66	379.17
545.83	381.51
546.00	360.44
546.16	400.23
546.33	442.36
546.50	430.66
546.67	414.27
546.83	376.83
547.00	418.96
547.17	355.76
547.34	381.51
547.50	351.08
547.67	381.51
547.84	437.68
548.00	458.74
548.17	332.36
548.34	451.72
548.51	411.93
548.67	442.36
548.84	386.19
549.01	330.02
549.18	346.40
549.34	428.32
549.51	388.53
549.68	486.83
549.84	437.68
550.01	374.49
550.18	454.06
550.34	486.83
550.51	372.15
550.68	386.19
550.84	433.00
551.01	407.25
551.18	376.83
551.34	351.08
551.51	362.78
551.68	447.04
551.84	468.11
552.01	425.98
552.18	386.19
552.34	379.17
552.51	397.89
552.68	374.49
552.84	395.55
553.01	491.51
553.18	475.13
553.34	425.98
553.51	414.27
553.67	421.30
553.84	414.27
554.01	369.80
554.17	433.00
554.34	449.38
554.51	369.80
554.67	463.43
554.84	421.30
555.00	425.98
555.17	418.96
555.33	442.36
555.50	416.62
555.67	470.45
555.83	374.49
556.00	369.80
556.16	425.98
556.33	449.38
556.50	402.57
556.66	390.87
556.83	362.78
556.99	362.78
557.16	421.30
557.32	454.06
557.49	360.44
557.65	386.19
557.82	374.49
557.98	330.02
558.15	444.70
558.32	397.89
558.48	376.83
558.65	416.62
558.81	463.43
558.98	372.15
559.14	477.47
559.31	416.62
559.47	421.30
559.64	423.64
559.80	484.49
559.97	468.11
560.13	416.62
560.30	402.57
560.46	433.00
560.63	393.21
560.79	461.09
560.96	404.91
561.12	433.00
561.29	456.40
561.45	435.34
561.61	397.89
561.78	477.47
561.94	444.70
562.11	437.68
562.27	418.96
562.44	348.74
562.60	423.64
562.77	386.19
562.93	423.64
563.10	397.89
563.26	390.87
563.42	379.17
563.59	402.57
563.75	430.66
563.92	379.17
564.08	486.83
564.24	402.57
564.41	512.58
564.57	484.49
564.74	383.85
564.90	423.64
565.07	379.17
565.23	390.87
565.39	388.53
565.56	404.91
565.72	390.87
565.88	444.70
566.05	461.09
566.21	402.57
566.38	404.91
566.54	376.83
566.70	425.98
566.87	407.25
567.03	440.02
567.19	470.45
567.36	500.87
567.52	421.30
567.68	416.62
567.85	393.21
568.01	390.87
568.17	355.76
568.34	430.66
568.50	400.23
568.66	365.12
568.83	444.70
568.99	360.44
569.15	430.66
569.32	428.32
569.48	423.64
569.64	451.72
569.81	374.49
569.97	397.89
570.13	358.10
570.30	409.59
570.46	381.51
570.62	341.72
570.78	454.06
570.95	458.74
571.11	503.22
571.27	379.17
571.43	400.23
571.60	475.13
571.76	472.79
571.92	414.27
572.09	423.64
572.25	421.30
572.41	470.45
572.57	463.43
572.74	449.38
572.90	449.38
573.06	404.91
573.22	461.09
573.38	498.53
573.55	407.25
573.71	376.83
573.87	440.02
574.03	437.68
574.20	409.59
574.36	433.00
574.52	379.17
574.68	425.98
574.84	414.27
575.01	484.49
575.17	465.77
575.33	407.25
575.49	428.32
575.65	360.44
575.82	461.09
575.98	482.15
576.14	407.25
576.30	428.32
576.46	315.97
576.62	447.04
576.79	468.11
576.95	421.30
577.11	437.68
577.27	425.98
577.43	444.70
577.59	444.70
577.75	376.83
577.92	418.96
578.08	402.57
578.24	423.64
578.40	416.62
578.56	379.17
578.72	423.64
578.88	484.49
579.04	421.30
579.21	470.45
579.37	404.91
579.53	418.96
579.69	414.27
579.85	430.66
580.01	428.32
580.17	372.15
580.33	355.76
580.49	477.47
580.65	388.53
580.82	433.00
580.98	416.62
581.14	416.62
581.30	425.98
581.46	341.72
581.62	437.68
581.78	346.40
581.94	393.21
582.10	421.30
582.26	447.04
582.42	418.96
582.58	409.59
582.74	379.17
582.90	435.34
583.06	442.36
583.22	418.96
583.38	407.25
583.54	379.17
583.70	442.36
583.86	433.00
584.02	393.21
584.18	397.89
584.34	423.64
584.50	402.57
584.66	379.17
584.82	418.96
584.98	351.08
585.14	411.93
585.30	425.98
585.46	386.19
585.62	458.74
585.78	421.30
585.94	435.34
586.10	409.59
586.26	386.19
586.42	407.25
586.58	409.59
586.74	383.85
586.90	353.42
587.06	374.49
587.22	383.85
587.38	355.76
587.54	447.04
587.70	414.27
587.86	472.79
588.02	416.62
588.18	411.93
588.34	400.23
588.49	395.55
588.65	454.06
588.81	461.09
588.97	383.85
589.13	379.17
589.29	341.72
589.45	416.62
589.61	411.93
589.77	381.51
589.93	421.30
590.08	351.08
590.24	388.53
590.40	435.34
590.56	358.10
590.72	425.98
590.88	355.76
591.04	418.96
591.20	461.09
591.35	442.36
591.51	362.78
591.67	442.36
591.83	367.46
591.99	440.02
592.15	458.74
592.31	442.36
592.46	362.78
592.62	393.21
592.78	472.79
592.94	425.98
593.10	402.57
593.26	381.51
593.41	404.91
593.57	423.64
593.73	365.12
593.89	369.80
594.05	407.25
594.20	393.21
594.36	416.62
594.52	411.93
594.68	383.85
594.84	505.56
594.99	486.83
595.15	461.09
595.31	379.17
595.47	463.43
595.62	318.31
595.78	428.32
595.94	472.79
596.10	442.36
596.25	430.66
596.41	458.74
596.57	477.47
596.73	430.66
596.88	423.64
597.04	409.59
597.20	416.62
597.36	440.02
597.51	421.30
597.67	395.55
597.83	435.34
597.99	442.36
598.14	498.53
598.30	416.62
598.46	414.27
598.61	484.49
598.77	461.09
598.93	456.40
599.09	395.55
599.24	414.27
599.40	461.09
599.56	447.04
599.71	423.64
599.87	414.27
600.03	388.53
600.18	449.38
600.34	428.32
600.50	388.53
600.65	355.76
600.81	407.25
600.97	358.10
601.12	390.87
601.28	430.66
601.44	386.19
601.59	386.19
601.75	358.10
601.91	435.34
602.06	381.51
602.22	440.02
602.37	444.70
602.53	386.19
602.69	465.77
602.84	386.19
603.00	421.30
603.16	442.36
603.31	355.76
603.47	362.78
603.62	388.53
603.78	444.70
603.94	538.32
604.09	468.11
604.25	493.85
604.40	472.79
604.56	393.21
604.71	454.06
604.87	435.34
605.03	461.09
605.18	451.72
605.34	339.38
605.49	402.57
605.65	430.66
605.80	353.42
605.96	461.09
606.12	454.06
606.27	435.34
606.43	489.17
606.58	425.98
606.74	369.80
606.89	430.66
607.05	425.98
607.20	362.78
607.36	353.42
607.51	447.04
607.67	454.06
607.82	454.06
607.98	411.93
608.13	428.32
608.29	379.17
608.44	421.30
608.60	475.13
608.75	451.72
608.91	444.70
609.06	416.62
609.22	444.70
609.37	411.93
609.53	482.15
609.68	416.62
609.84	425.98
609.99	437.68
610.15	416.62
