SpectraSuite Data File
++++++++++++++++++++++++++++++++++++
Date: Fri Oct 25 12:10:13 EDT 2013
User: price-jones
Dark Spectrum Present: No
Reference Spectrum Present: No
Number of Sampled Component Spectra: 1
Spectrometers: USB2+H05261
Integration Time (usec): 100000 (USB2+H05261)
Spectra Averaged: 1 (USB2+H05261)
Boxcar Smoothing: 0 (USB2+H05261)
Correct for Electrical Dark: No (USB2+H05261)
Strobe/Lamp Enabled: No (USB2+H05261)
Correct for Detector Non-linearity: No (USB2+H05261)
Correct for Stray Light: No (USB2+H05261)
Number of Pixels in Processed Spectrum: 2048
>>>>>Begin Processed Spectral Data<<<<<
365.73	330.02
365.92	330.02
366.12	330.02
366.32	205.97
366.52	220.01
366.72	236.39
366.91	227.03
367.11	238.73
367.31	297.25
367.51	248.10
367.70	210.65
367.90	245.76
368.10	180.22
368.30	215.33
368.49	212.99
368.69	203.63
368.89	243.42
369.09	236.39
369.28	236.39
369.48	266.82
369.68	299.59
369.87	330.02
370.07	337.04
370.27	365.12
370.47	315.97
370.66	330.02
370.86	337.04
371.06	311.29
371.25	362.78
371.45	313.63
371.65	425.98
371.84	407.25
372.04	337.04
372.24	418.96
372.44	433.00
372.63	416.62
372.83	386.19
373.03	337.04
373.22	327.68
373.42	400.23
373.62	444.70
373.81	425.98
374.01	454.06
374.21	404.91
374.40	433.00
374.60	409.59
374.79	381.51
374.99	402.57
375.19	395.55
375.38	449.38
375.58	407.25
375.78	393.21
375.97	430.66
376.17	470.45
376.37	428.32
376.56	416.62
376.76	393.21
376.95	512.58
377.15	341.72
377.35	383.85
377.54	365.12
377.74	425.98
377.93	449.38
378.13	390.87
378.33	402.57
378.52	393.21
378.72	395.55
378.91	397.89
379.11	334.70
379.31	381.51
379.50	365.12
379.70	383.85
379.89	332.36
380.09	479.81
380.28	360.44
380.48	407.25
380.68	346.40
380.87	388.53
381.07	500.87
381.26	440.02
381.46	395.55
381.65	388.53
381.85	383.85
382.04	365.12
382.24	344.06
382.43	365.12
382.63	400.23
382.83	372.15
383.02	447.04
383.22	444.70
383.41	369.80
383.61	451.72
383.80	418.96
384.00	425.98
384.19	447.04
384.39	440.02
384.58	440.02
384.78	374.49
384.97	440.02
385.17	379.17
385.36	437.68
385.56	433.00
385.75	353.42
385.95	374.49
386.14	358.10
386.34	393.21
386.53	358.10
386.72	423.64
386.92	437.68
387.11	409.59
387.31	400.23
387.50	344.06
387.70	397.89
387.89	372.15
388.09	414.27
388.28	454.06
388.48	393.21
388.67	367.46
388.86	360.44
389.06	414.27
389.25	421.30
389.45	390.87
389.64	430.66
389.84	386.19
390.03	379.17
390.22	386.19
390.42	437.68
390.61	386.19
390.81	374.49
391.00	362.78
391.19	411.93
391.39	379.17
391.58	379.17
391.78	346.40
391.97	397.89
392.16	402.57
392.36	306.61
392.55	400.23
392.75	332.36
392.94	381.51
393.13	425.98
393.33	402.57
393.52	463.43
393.71	421.30
393.91	395.55
394.10	332.36
394.29	374.49
394.49	383.85
394.68	360.44
394.88	355.76
395.07	369.80
395.26	449.38
395.46	456.40
395.65	409.59
395.84	430.66
396.04	407.25
396.23	402.57
396.42	341.72
396.62	386.19
396.81	355.76
397.00	374.49
397.19	451.72
397.39	393.21
397.58	428.32
397.77	381.51
397.97	421.30
398.16	374.49
398.35	458.74
398.55	369.80
398.74	475.13
398.93	456.40
399.12	437.68
399.32	423.64
399.51	449.38
399.70	437.68
399.90	451.72
400.09	414.27
400.28	409.59
400.47	416.62
400.67	442.36
400.86	437.68
401.05	341.72
401.24	444.70
401.44	379.17
401.63	353.42
401.82	407.25
402.01	484.49
402.21	348.74
402.40	404.91
402.59	397.89
402.78	428.32
402.97	458.74
403.17	409.59
403.36	395.55
403.55	369.80
403.74	379.17
403.93	379.17
404.13	440.02
404.32	416.62
404.51	388.53
404.70	435.34
404.89	395.55
405.09	491.51
405.28	372.15
405.47	374.49
405.66	374.49
405.85	451.72
406.05	461.09
406.24	355.76
406.43	416.62
406.62	348.74
406.81	491.51
407.00	423.64
407.20	390.87
407.39	425.98
407.58	388.53
407.77	428.32
407.96	463.43
408.15	407.25
408.34	376.83
408.54	418.96
408.73	433.00
408.92	430.66
409.11	383.85
409.30	397.89
409.49	418.96
409.68	388.53
409.87	465.77
410.07	404.91
410.26	365.12
410.45	383.85
410.64	397.89
410.83	381.51
411.02	404.91
411.21	449.38
411.40	484.49
411.59	353.42
411.78	351.08
411.98	353.42
412.17	425.98
412.36	383.85
412.55	383.85
412.74	395.55
412.93	482.15
413.12	358.10
413.31	470.45
413.50	407.25
413.69	393.21
413.88	407.25
414.07	404.91
414.26	339.38
414.45	390.87
414.64	437.68
414.83	414.27
415.02	454.06
415.22	409.59
415.41	428.32
415.60	430.66
415.79	374.49
415.98	383.85
416.17	416.62
416.36	414.27
416.55	381.51
416.74	397.89
416.93	407.25
417.12	393.21
417.31	372.15
417.50	407.25
417.69	374.49
417.88	465.77
418.07	397.89
418.26	428.32
418.45	393.21
418.64	421.30
418.83	395.55
419.02	414.27
419.21	367.46
419.39	421.30
419.58	465.77
419.77	355.76
419.96	355.76
420.15	423.64
420.34	425.98
420.53	423.64
420.72	360.44
420.91	407.25
421.10	440.02
421.29	430.66
421.48	444.70
421.67	369.80
421.86	411.93
422.05	404.91
422.24	395.55
422.43	376.83
422.61	409.59
422.80	428.32
422.99	393.21
423.18	456.40
423.37	465.77
423.56	393.21
423.75	404.91
423.94	351.08
424.13	393.21
424.32	397.89
424.50	411.93
424.69	388.53
424.88	418.96
425.07	374.49
425.26	346.40
425.45	444.70
425.64	444.70
425.83	477.47
426.01	404.91
426.20	447.04
426.39	341.72
426.58	372.15
426.77	465.77
426.96	369.80
427.15	379.17
427.33	353.42
427.52	444.70
427.71	442.36
427.90	428.32
428.09	451.72
428.28	355.76
428.46	348.74
428.65	423.64
428.84	400.23
429.03	482.15
429.22	407.25
429.40	411.93
429.59	388.53
429.78	458.74
429.97	449.38
430.16	362.78
430.34	400.23
430.53	498.53
430.72	456.40
430.91	447.04
431.10	390.87
431.28	456.40
431.47	400.23
431.66	475.13
431.85	421.30
432.03	468.11
432.22	402.57
432.41	395.55
432.60	447.04
432.79	404.91
432.97	521.94
433.16	440.02
433.35	437.68
433.54	400.23
433.72	470.45
433.91	444.70
434.10	442.36
434.28	461.09
434.47	372.15
434.66	383.85
434.85	390.87
435.03	444.70
435.22	383.85
435.41	458.74
435.59	430.66
435.78	376.83
435.97	444.70
436.16	416.62
436.34	451.72
436.53	414.27
436.72	407.25
436.90	381.51
437.09	489.17
437.28	425.98
437.46	425.98
437.65	428.32
437.84	470.45
438.02	407.25
438.21	454.06
438.40	451.72
438.58	409.59
438.77	477.47
438.96	397.89
439.14	390.87
439.33	442.36
439.52	435.34
439.70	430.66
439.89	418.96
440.08	390.87
440.26	402.57
440.45	393.21
440.63	402.57
440.82	360.44
441.01	442.36
441.19	440.02
441.38	381.51
441.57	447.04
441.75	414.27
441.94	440.02
442.12	353.42
442.31	402.57
442.50	430.66
442.68	447.04
442.87	447.04
443.05	409.59
443.24	395.55
443.43	449.38
443.61	418.96
443.80	449.38
443.98	351.08
444.17	433.00
444.35	393.21
444.54	409.59
444.73	414.27
444.91	472.79
445.10	444.70
445.28	456.40
445.47	390.87
445.65	400.23
445.84	383.85
446.02	395.55
446.21	344.06
446.39	430.66
446.58	451.72
446.77	346.40
446.95	465.77
447.14	435.34
447.32	430.66
447.51	433.00
447.69	353.42
447.88	362.78
448.06	433.00
448.25	437.68
448.43	418.96
448.62	393.21
448.80	437.68
448.99	428.32
449.17	315.97
449.36	390.87
449.54	407.25
449.73	374.49
449.91	449.38
450.10	423.64
450.28	397.89
450.46	423.64
450.65	404.91
450.83	381.51
451.02	362.78
451.20	421.30
451.39	414.27
451.57	433.00
451.76	404.91
451.94	449.38
452.13	414.27
452.31	472.79
452.49	409.59
452.68	461.09
452.86	449.38
453.05	430.66
453.23	393.21
453.42	440.02
453.60	416.62
453.78	425.98
453.97	397.89
454.15	379.17
454.34	402.57
454.52	388.53
454.70	409.59
454.89	423.64
455.07	395.55
455.26	433.00
455.44	456.40
455.62	425.98
455.81	411.93
455.99	425.98
456.17	390.87
456.36	344.06
456.54	374.49
456.73	411.93
456.91	433.00
457.09	447.04
457.28	437.68
457.46	395.55
457.64	423.64
457.83	358.10
458.01	360.44
458.19	404.91
458.38	404.91
458.56	461.09
458.74	339.38
458.93	411.93
459.11	423.64
459.29	351.08
459.48	402.57
459.66	465.77
459.84	353.42
460.03	442.36
460.21	437.68
460.39	435.34
460.57	372.15
460.76	421.30
460.94	442.36
461.12	390.87
461.31	430.66
461.49	416.62
461.67	362.78
461.85	379.17
462.04	435.34
462.22	744.29
462.40	475.13
462.59	393.21
462.77	423.64
462.95	463.43
463.13	400.23
463.32	437.68
463.50	353.42
463.68	404.91
463.86	346.40
464.05	402.57
464.23	393.21
464.41	416.62
464.59	447.04
464.78	451.72
464.96	454.06
465.14	430.66
465.32	369.80
465.50	451.72
465.69	444.70
465.87	374.49
466.05	425.98
466.23	444.70
466.41	423.64
466.60	332.36
466.78	407.25
466.96	430.66
467.14	416.62
467.32	463.43
467.51	472.79
467.69	472.79
467.87	376.83
468.05	402.57
468.23	369.80
468.41	397.89
468.60	416.62
468.78	428.32
468.96	458.74
469.14	358.10
469.32	386.19
469.50	444.70
469.69	433.00
469.87	381.51
470.05	411.93
470.23	440.02
470.41	358.10
470.59	353.42
470.77	362.78
470.95	388.53
471.14	425.98
471.32	451.72
471.50	491.51
471.68	444.70
471.86	411.93
472.04	411.93
472.22	381.51
472.40	369.80
472.58	433.00
472.77	402.57
472.95	435.34
473.13	365.12
473.31	454.06
473.49	433.00
473.67	407.25
473.85	507.90
474.03	395.55
474.21	454.06
474.39	456.40
474.57	397.89
474.75	472.79
474.93	379.17
475.12	418.96
475.30	393.21
475.48	416.62
475.66	353.42
475.84	449.38
476.02	397.89
476.20	477.47
476.38	404.91
476.56	416.62
476.74	456.40
476.92	388.53
477.10	505.56
477.28	449.38
477.46	355.76
477.64	493.85
477.82	390.87
478.00	423.64
478.18	510.24
478.36	435.34
478.54	376.83
478.72	386.19
478.90	353.42
479.08	400.23
479.26	423.64
479.44	449.38
479.62	411.93
479.80	423.64
479.98	423.64
480.16	458.74
480.34	409.59
480.52	353.42
480.70	437.68
480.88	477.47
481.06	395.55
481.24	414.27
481.41	433.00
481.59	435.34
481.77	404.91
481.95	400.23
482.13	451.72
482.31	444.70
482.49	440.02
482.67	416.62
482.85	372.15
483.03	383.85
483.21	386.19
483.39	360.44
483.57	355.76
483.74	381.51
483.92	383.85
484.10	369.80
484.28	435.34
484.46	472.79
484.64	395.55
484.82	421.30
485.00	416.62
485.18	428.32
485.35	414.27
485.53	416.62
485.71	503.22
485.89	367.46
486.07	397.89
486.25	430.66
486.43	423.64
486.61	449.38
486.78	468.11
486.96	379.17
487.14	379.17
487.32	386.19
487.50	411.93
487.68	444.70
487.85	395.55
488.03	397.89
488.21	444.70
488.39	411.93
488.57	514.92
488.75	421.30
488.92	475.13
489.10	390.87
489.28	414.27
489.46	477.47
489.64	465.77
489.81	395.55
489.99	451.72
490.17	400.23
490.35	404.91
490.53	393.21
490.70	449.38
490.88	447.04
491.06	395.55
491.24	388.53
491.41	379.17
491.59	458.74
491.77	428.32
491.95	376.83
492.13	437.68
492.30	421.30
492.48	400.23
492.66	402.57
492.84	388.53
493.01	418.96
493.19	390.87
493.37	454.06
493.54	358.10
493.72	468.11
493.90	362.78
494.08	376.83
494.25	428.32
494.43	414.27
494.61	404.91
494.79	407.25
494.96	393.21
495.14	437.68
495.32	334.70
495.49	435.34
495.67	498.53
495.85	440.02
496.02	395.55
496.20	383.85
496.38	353.42
496.55	397.89
496.73	390.87
496.91	386.19
497.09	383.85
497.26	404.91
497.44	386.19
497.62	383.85
497.79	367.46
497.97	454.06
498.14	402.57
498.32	397.89
498.50	411.93
498.67	390.87
498.85	383.85
499.03	454.06
499.20	367.46
499.38	414.27
499.56	388.53
499.73	418.96
499.91	440.02
500.08	442.36
500.26	376.83
500.44	353.42
500.61	372.15
500.79	381.51
500.97	442.36
501.14	414.27
501.32	435.34
501.49	444.70
501.67	374.49
501.84	461.09
502.02	425.98
502.20	402.57
502.37	395.55
502.55	416.62
502.72	425.98
502.90	425.98
503.07	435.34
503.25	430.66
503.43	383.85
503.60	433.00
503.78	449.38
503.95	418.96
504.13	397.89
504.30	451.72
504.48	388.53
504.65	397.89
504.83	414.27
505.01	411.93
505.18	322.99
505.36	353.42
505.53	477.47
505.71	423.64
505.88	454.06
506.06	402.57
506.23	381.51
506.41	418.96
506.58	397.89
506.76	376.83
506.93	407.25
507.11	395.55
507.28	365.12
507.46	444.70
507.63	386.19
507.81	418.96
507.98	416.62
508.16	444.70
508.33	447.04
508.50	444.70
508.68	402.57
508.85	411.93
509.03	468.11
509.20	430.66
509.38	454.06
509.55	447.04
509.73	402.57
509.90	416.62
510.08	456.40
510.25	372.15
510.42	374.49
510.60	358.10
510.77	397.89
510.95	341.72
511.12	388.53
511.30	447.04
511.47	461.09
511.64	451.72
511.82	386.19
511.99	388.53
512.17	402.57
512.34	409.59
512.51	423.64
512.69	386.19
512.86	461.09
513.04	388.53
513.21	397.89
513.38	454.06
513.56	433.00
513.73	428.32
513.90	383.85
514.08	411.93
514.25	447.04
514.43	400.23
514.60	397.89
514.77	433.00
514.95	393.21
515.12	367.46
515.29	482.15
515.47	444.70
515.64	383.85
515.81	414.27
515.99	435.34
516.16	402.57
516.33	437.68
516.51	395.55
516.68	395.55
516.85	428.32
517.03	428.32
517.20	519.60
517.37	451.72
517.54	423.64
517.72	393.21
517.89	428.32
518.06	397.89
518.24	479.81
518.41	402.57
518.58	374.49
518.75	383.85
518.93	475.13
519.10	425.98
519.27	463.43
519.45	402.57
519.62	428.32
519.79	423.64
519.96	425.98
520.14	395.55
520.31	475.13
520.48	465.77
520.65	393.21
520.83	465.77
521.00	491.51
521.17	409.59
521.34	477.47
521.52	372.15
521.69	376.83
521.86	423.64
522.03	376.83
522.20	402.57
522.38	444.70
522.55	402.57
522.72	437.68
522.89	468.11
523.07	395.55
523.24	341.72
523.41	395.55
523.58	414.27
523.75	362.78
523.92	411.93
524.10	433.00
524.27	468.11
524.44	362.78
524.61	458.74
524.78	397.89
524.96	449.38
525.13	447.04
525.30	437.68
525.47	411.93
525.64	430.66
525.81	407.25
525.98	442.36
526.16	491.51
526.33	313.63
526.50	379.17
526.67	388.53
526.84	411.93
527.01	444.70
527.18	386.19
527.36	430.66
527.53	404.91
527.70	454.06
527.87	404.91
528.04	423.64
528.21	458.74
528.38	444.70
528.55	458.74
528.72	472.79
528.89	440.02
529.07	411.93
529.24	449.38
529.41	463.43
529.58	397.89
529.75	390.87
529.92	435.34
530.09	430.66
530.26	496.19
530.43	327.68
530.60	430.66
530.77	463.43
530.94	383.85
531.11	423.64
531.28	421.30
531.46	404.91
531.63	397.89
531.80	423.64
531.97	456.40
532.14	393.21
532.31	409.59
532.48	416.62
532.65	407.25
532.82	437.68
532.99	458.74
533.16	425.98
533.33	416.62
533.50	479.81
533.67	393.21
533.84	400.23
534.01	414.27
534.18	404.91
534.35	397.89
534.52	477.47
534.69	430.66
534.86	470.45
535.03	374.49
535.20	402.57
535.37	407.25
535.54	388.53
535.71	386.19
535.88	404.91
536.05	372.15
536.22	379.17
536.38	388.53
536.55	407.25
536.72	461.09
536.89	416.62
537.06	458.74
537.23	414.27
537.40	447.04
537.57	341.72
537.74	477.47
537.91	428.32
538.08	479.81
538.25	456.40
538.42	386.19
538.59	486.83
538.75	381.51
538.92	430.66
539.09	416.62
539.26	468.11
539.43	447.04
539.60	374.49
539.77	456.40
539.94	423.64
540.11	379.17
540.28	475.13
540.44	526.62
540.61	374.49
540.78	458.74
540.95	472.79
541.12	437.68
541.29	496.19
541.46	418.96
541.62	383.85
541.79	369.80
541.96	402.57
542.13	468.11
542.30	376.83
542.47	468.11
542.63	418.96
542.80	451.72
542.97	435.34
543.14	435.34
543.31	313.63
543.48	470.45
543.64	503.22
543.81	444.70
543.98	440.02
544.15	437.68
544.32	423.64
544.48	397.89
544.65	430.66
544.82	418.96
544.99	365.12
545.16	393.21
545.32	369.80
545.49	425.98
545.66	421.30
545.83	393.21
546.00	421.30
546.16	353.42
546.33	355.76
546.50	390.87
546.67	421.30
546.83	425.98
547.00	416.62
547.17	449.38
547.34	414.27
547.50	381.51
547.67	374.49
547.84	390.87
548.00	360.44
548.17	360.44
548.34	465.77
548.51	379.17
548.67	435.34
548.84	360.44
549.01	411.93
549.18	395.55
549.34	374.49
549.51	442.36
549.68	367.46
549.84	435.34
550.01	454.06
550.18	407.25
550.34	411.93
550.51	423.64
550.68	437.68
550.84	325.33
551.01	416.62
551.18	496.19
551.34	414.27
551.51	440.02
551.68	381.51
551.84	411.93
552.01	397.89
552.18	393.21
552.34	374.49
552.51	376.83
552.68	442.36
552.84	414.27
553.01	393.21
553.18	402.57
553.34	421.30
553.51	482.15
553.67	390.87
553.84	395.55
554.01	376.83
554.17	400.23
554.34	400.23
554.51	372.15
554.67	552.37
554.84	447.04
555.00	411.93
555.17	421.30
555.33	388.53
555.50	423.64
555.67	444.70
555.83	379.17
556.00	407.25
556.16	470.45
556.33	479.81
556.50	362.78
556.66	505.56
556.83	390.87
556.99	418.96
557.16	409.59
557.32	388.53
557.49	442.36
557.65	318.31
557.82	358.10
557.98	463.43
558.15	416.62
558.32	451.72
558.48	376.83
558.65	409.59
558.81	372.15
558.98	379.17
559.14	437.68
559.31	381.51
559.47	433.00
559.64	395.55
559.80	353.42
559.97	400.23
560.13	418.96
560.30	402.57
560.46	411.93
560.63	395.55
560.79	447.04
560.96	465.77
561.12	416.62
561.29	390.87
561.45	425.98
561.61	461.09
561.78	519.60
561.94	353.42
562.11	339.38
562.27	425.98
562.44	315.97
562.60	472.79
562.77	430.66
562.93	425.98
563.10	393.21
563.26	475.13
563.42	461.09
563.59	435.34
563.75	430.66
563.92	425.98
564.08	381.51
564.24	416.62
564.41	442.36
564.57	461.09
564.74	433.00
564.90	400.23
565.07	435.34
565.23	430.66
565.39	458.74
565.56	444.70
565.72	437.68
565.88	395.55
566.05	393.21
566.21	430.66
566.38	407.25
566.54	397.89
566.70	322.99
566.87	404.91
567.03	458.74
567.19	376.83
567.36	425.98
567.52	416.62
567.68	437.68
567.85	318.31
568.01	358.10
568.17	372.15
568.34	376.83
568.50	402.57
568.66	388.53
568.83	435.34
568.99	388.53
569.15	365.12
569.32	433.00
569.48	442.36
569.64	440.02
569.81	358.10
569.97	379.17
570.13	451.72
570.30	484.49
570.46	416.62
570.62	442.36
570.78	402.57
570.95	437.68
571.11	456.40
571.27	482.15
571.43	409.59
571.60	430.66
571.76	365.12
571.92	458.74
572.09	395.55
572.25	397.89
572.41	472.79
572.57	362.78
572.74	461.09
572.90	437.68
573.06	402.57
573.22	393.21
573.38	430.66
573.55	479.81
573.71	463.43
573.87	430.66
574.03	442.36
574.20	339.38
574.36	484.49
574.52	461.09
574.68	484.49
574.84	475.13
575.01	367.46
575.17	433.00
575.33	404.91
575.49	393.21
575.65	428.32
575.82	463.43
575.98	346.40
576.14	393.21
576.30	418.96
576.46	435.34
576.62	475.13
576.79	479.81
576.95	468.11
577.11	430.66
577.27	360.44
577.43	449.38
577.59	461.09
577.75	409.59
577.92	440.02
578.08	435.34
578.24	344.06
578.40	435.34
578.56	313.63
578.72	479.81
578.88	400.23
579.04	397.89
579.21	425.98
579.37	470.45
579.53	379.17
579.69	423.64
579.85	425.98
580.01	440.02
580.17	421.30
580.33	369.80
580.49	337.04
580.65	447.04
580.82	418.96
580.98	355.76
581.14	351.08
581.30	433.00
581.46	346.40
581.62	461.09
581.78	395.55
581.94	435.34
582.10	435.34
582.26	409.59
582.42	435.34
582.58	376.83
582.74	414.27
582.90	414.27
583.06	416.62
583.22	411.93
583.38	383.85
583.54	383.85
583.70	390.87
583.86	418.96
584.02	395.55
584.18	442.36
584.34	358.10
584.50	362.78
584.66	411.93
584.82	411.93
584.98	334.70
585.14	397.89
585.30	447.04
585.46	423.64
585.62	430.66
585.78	500.87
585.94	440.02
586.10	423.64
586.26	440.02
586.42	500.87
586.58	388.53
586.74	353.42
586.90	458.74
587.06	390.87
587.22	409.59
587.38	374.49
587.54	386.19
587.70	437.68
587.86	477.47
588.02	411.93
588.18	379.17
588.34	393.21
588.49	376.83
588.65	442.36
588.81	421.30
588.97	416.62
589.13	493.85
589.29	395.55
589.45	451.72
589.61	416.62
589.77	463.43
589.93	407.25
590.08	393.21
590.24	447.04
590.40	400.23
590.56	421.30
590.72	390.87
590.88	430.66
591.04	461.09
591.20	393.21
591.35	442.36
591.51	433.00
591.67	414.27
591.83	454.06
591.99	440.02
592.15	423.64
592.31	437.68
592.46	416.62
592.62	538.32
592.78	409.59
592.94	418.96
593.10	447.04
593.26	407.25
593.41	407.25
593.57	372.15
593.73	379.17
593.89	465.77
594.05	444.70
594.20	470.45
594.36	421.30
594.52	386.19
594.68	433.00
594.84	437.68
594.99	428.32
595.15	442.36
595.31	416.62
595.47	461.09
595.62	421.30
595.78	444.70
595.94	430.66
596.10	447.04
596.25	458.74
596.41	400.23
596.57	388.53
596.73	376.83
596.88	430.66
597.04	381.51
597.20	451.72
597.36	430.66
597.51	386.19
597.67	355.76
597.83	470.45
597.99	369.80
598.14	374.49
598.30	428.32
598.46	423.64
598.61	433.00
598.77	348.74
598.93	365.12
599.09	463.43
599.24	449.38
599.40	386.19
599.56	416.62
599.71	416.62
599.87	447.04
600.03	365.12
600.18	353.42
600.34	360.44
600.50	423.64
600.65	351.08
600.81	362.78
600.97	451.72
601.12	386.19
601.28	470.45
601.44	486.83
601.59	433.00
601.75	423.64
601.91	433.00
602.06	360.44
602.22	498.53
602.37	400.23
602.53	409.59
602.69	435.34
602.84	414.27
603.00	369.80
603.16	430.66
603.31	407.25
603.47	369.80
603.62	386.19
603.78	465.77
603.94	500.87
604.09	423.64
604.25	484.49
604.40	395.55
604.56	339.38
604.71	353.42
604.87	449.38
605.03	390.87
605.18	444.70
605.34	449.38
605.49	440.02
605.65	379.17
605.80	489.17
605.96	421.30
606.12	496.19
606.27	442.36
606.43	479.81
606.58	423.64
606.74	435.34
606.89	440.02
607.05	367.46
607.20	425.98
607.36	486.83
607.51	414.27
607.67	447.04
607.82	353.42
607.98	463.43
608.13	402.57
608.29	383.85
608.44	421.30
608.60	433.00
608.75	442.36
608.91	376.83
609.06	393.21
609.22	454.06
609.37	383.85
609.53	365.12
609.68	337.04
609.84	360.44
609.99	360.44
610.15	376.83
