SpectraSuite Data File
++++++++++++++++++++++++++++++++++++
Date: Fri Oct 25 12:10:58 EDT 2013
User: price-jones
Dark Spectrum Present: No
Reference Spectrum Present: No
Number of Sampled Component Spectra: 1
Spectrometers: USB2+H05261
Integration Time (usec): 100000 (USB2+H05261)
Spectra Averaged: 1 (USB2+H05261)
Boxcar Smoothing: 0 (USB2+H05261)
Correct for Electrical Dark: No (USB2+H05261)
Strobe/Lamp Enabled: No (USB2+H05261)
Correct for Detector Non-linearity: No (USB2+H05261)
Correct for Stray Light: No (USB2+H05261)
Number of Pixels in Processed Spectrum: 2048
>>>>>Begin Processed Spectral Data<<<<<
365.73	320.65
365.92	320.65
366.12	320.65
366.32	266.82
366.52	250.44
366.72	330.02
366.91	243.42
367.11	217.67
367.31	290.23
367.51	198.95
367.70	266.82
367.90	187.24
368.10	217.67
368.30	198.95
368.49	271.50
368.69	220.01
368.89	283.20
369.09	264.48
369.28	285.55
369.48	229.37
369.68	273.84
369.87	346.40
370.07	313.63
370.27	362.78
370.47	306.61
370.66	355.76
370.86	360.44
371.06	313.63
371.25	365.12
371.45	395.55
371.65	390.87
371.84	344.06
372.04	344.06
372.24	346.40
372.44	287.89
372.63	397.89
372.83	353.42
373.03	468.11
373.22	416.62
373.42	437.68
373.62	348.74
373.81	470.45
374.01	430.66
374.21	372.15
374.40	465.77
374.60	510.24
374.79	395.55
374.99	428.32
375.19	409.59
375.38	334.70
375.58	383.85
375.78	454.06
375.97	451.72
376.17	449.38
376.37	407.25
376.56	407.25
376.76	454.06
376.95	355.76
377.15	404.91
377.35	444.70
377.54	486.83
377.74	414.27
377.93	437.68
378.13	538.32
378.33	414.27
378.52	435.34
378.72	411.93
378.91	402.57
379.11	397.89
379.31	360.44
379.50	379.17
379.70	407.25
379.89	418.96
380.09	388.53
380.28	379.17
380.48	407.25
380.68	388.53
380.87	383.85
381.07	400.23
381.26	444.70
381.46	360.44
381.65	402.57
381.85	330.02
382.04	421.30
382.24	428.32
382.43	393.21
382.63	376.83
382.83	411.93
383.02	433.00
383.22	519.60
383.41	414.27
383.61	372.15
383.80	430.66
384.00	400.23
384.19	409.59
384.39	444.70
384.58	390.87
384.78	404.91
384.97	433.00
385.17	297.25
385.36	433.00
385.56	334.70
385.75	402.57
385.95	423.64
386.14	414.27
386.34	393.21
386.53	475.13
386.72	351.08
386.92	423.64
387.11	440.02
387.31	411.93
387.50	418.96
387.70	374.49
387.89	400.23
388.09	390.87
388.28	388.53
388.48	383.85
388.67	444.70
388.86	479.81
389.06	433.00
389.25	407.25
389.45	386.19
389.64	414.27
389.84	386.19
390.03	510.24
390.22	423.64
390.42	407.25
390.61	411.93
390.81	409.59
391.00	418.96
391.19	393.21
391.39	461.09
391.58	454.06
391.78	372.15
391.97	440.02
392.16	404.91
392.36	479.81
392.55	484.49
392.75	430.66
392.94	407.25
393.13	379.17
393.33	430.66
393.52	437.68
393.71	461.09
393.91	402.57
394.10	397.89
394.29	358.10
394.49	407.25
394.68	407.25
394.88	433.00
395.07	458.74
395.26	418.96
395.46	407.25
395.65	428.32
395.84	425.98
396.04	491.51
396.23	374.49
396.42	400.23
396.62	449.38
396.81	381.51
397.00	451.72
397.19	425.98
397.39	404.91
397.58	372.15
397.77	414.27
397.97	400.23
398.16	407.25
398.35	407.25
398.55	341.72
398.74	433.00
398.93	402.57
399.12	383.85
399.32	470.45
399.51	407.25
399.70	440.02
399.90	491.51
400.09	397.89
400.28	369.80
400.47	365.12
400.67	447.04
400.86	327.68
401.05	482.15
401.24	386.19
401.44	479.81
401.63	397.89
401.82	390.87
402.01	360.44
402.21	365.12
402.40	330.02
402.59	449.38
402.78	465.77
402.97	390.87
403.17	353.42
403.36	430.66
403.55	362.78
403.74	365.12
403.93	447.04
404.13	454.06
404.32	397.89
404.51	355.76
404.70	461.09
404.89	400.23
405.09	498.53
405.28	479.81
405.47	454.06
405.66	433.00
405.85	421.30
406.05	416.62
406.24	435.34
406.43	355.76
406.62	397.89
406.81	440.02
407.00	423.64
407.20	442.36
407.39	334.70
407.58	372.15
407.77	444.70
407.96	472.79
408.15	395.55
408.34	365.12
408.54	456.40
408.73	430.66
408.92	386.19
409.11	353.42
409.30	393.21
409.49	397.89
409.68	430.66
409.87	402.57
410.07	475.13
410.26	468.11
410.45	433.00
410.64	421.30
410.83	493.85
411.02	393.21
411.21	411.93
411.40	447.04
411.59	418.96
411.78	362.78
411.98	372.15
412.17	390.87
412.36	376.83
412.55	411.93
412.74	372.15
412.93	418.96
413.12	395.55
413.31	414.27
413.50	341.72
413.69	418.96
413.88	456.40
414.07	358.10
414.26	435.34
414.45	418.96
414.64	454.06
414.83	447.04
415.02	421.30
415.22	454.06
415.41	409.59
415.60	491.51
415.79	400.23
415.98	437.68
416.17	397.89
416.36	421.30
416.55	414.27
416.74	360.44
416.93	376.83
417.12	414.27
417.31	386.19
417.50	440.02
417.69	411.93
417.88	358.10
418.07	425.98
418.26	402.57
418.45	369.80
418.64	433.00
418.83	409.59
419.02	416.62
419.21	437.68
419.39	346.40
419.58	360.44
419.77	404.91
419.96	463.43
420.15	386.19
420.34	407.25
420.53	393.21
420.72	442.36
420.91	437.68
421.10	423.64
421.29	411.93
421.48	386.19
421.67	477.47
421.86	376.83
422.05	372.15
422.24	351.08
422.43	425.98
422.61	397.89
422.80	411.93
422.99	369.80
423.18	376.83
423.37	416.62
423.56	423.64
423.75	411.93
423.94	449.38
424.13	454.06
424.32	341.72
424.50	489.17
424.69	430.66
424.88	489.17
425.07	404.91
425.26	365.12
425.45	376.83
425.64	437.68
425.83	322.99
426.01	395.55
426.20	451.72
426.39	407.25
426.58	395.55
426.77	386.19
426.96	449.38
427.15	454.06
427.33	454.06
427.52	402.57
427.71	430.66
427.90	339.38
428.09	376.83
428.28	365.12
428.46	423.64
428.65	430.66
428.84	346.40
429.03	355.76
429.22	376.83
429.40	365.12
429.59	416.62
429.78	379.17
429.97	332.36
430.16	374.49
430.34	327.68
430.53	416.62
430.72	379.17
430.91	521.94
431.10	353.42
431.28	458.74
431.47	451.72
431.66	463.43
431.85	404.91
432.03	491.51
432.22	557.05
432.41	414.27
432.60	491.51
432.79	449.38
432.97	346.40
433.16	334.70
433.35	395.55
433.54	395.55
433.72	414.27
433.91	400.23
434.10	362.78
434.28	367.46
434.47	456.40
434.66	437.68
434.85	395.55
435.03	393.21
435.22	414.27
435.41	400.23
435.59	528.96
435.78	372.15
435.97	425.98
436.16	444.70
436.34	451.72
436.53	388.53
436.72	442.36
436.90	423.64
437.09	381.51
437.28	355.76
437.46	400.23
437.65	435.34
437.84	372.15
438.02	404.91
438.21	393.21
438.40	400.23
438.58	367.46
438.77	437.68
438.96	374.49
439.14	400.23
439.33	409.59
439.52	463.43
439.70	393.21
439.89	411.93
440.08	404.91
440.26	472.79
440.45	428.32
440.63	421.30
440.82	411.93
441.01	421.30
441.19	421.30
441.38	435.34
441.57	449.38
441.75	484.49
441.94	442.36
442.12	407.25
442.31	454.06
442.50	425.98
442.68	421.30
442.87	353.42
443.05	437.68
443.24	402.57
443.43	463.43
443.61	433.00
443.80	430.66
443.98	395.55
444.17	428.32
444.35	461.09
444.54	386.19
444.73	383.85
444.91	388.53
445.10	393.21
445.28	442.36
445.47	477.47
445.65	458.74
445.84	400.23
446.02	425.98
446.21	388.53
446.39	372.15
446.58	447.04
446.77	402.57
446.95	449.38
447.14	484.49
447.32	437.68
447.51	400.23
447.69	411.93
447.88	418.96
448.06	463.43
448.25	454.06
448.43	496.19
448.62	425.98
448.80	435.34
448.99	423.64
449.17	411.93
449.36	381.51
449.54	475.13
449.73	395.55
449.91	465.77
450.10	407.25
450.28	514.92
450.46	433.00
450.65	418.96
450.83	418.96
451.02	440.02
451.20	381.51
451.39	411.93
451.57	444.70
451.76	442.36
451.94	444.70
452.13	400.23
452.31	348.74
452.49	440.02
452.68	437.68
452.86	388.53
453.05	397.89
453.23	435.34
453.42	327.68
453.60	437.68
453.78	430.66
453.97	353.42
454.15	430.66
454.34	449.38
454.52	451.72
454.70	411.93
454.89	463.43
455.07	454.06
455.26	440.02
455.44	444.70
455.62	458.74
455.81	376.83
455.99	435.34
456.17	386.19
456.36	423.64
456.54	418.96
456.73	372.15
456.91	407.25
457.09	402.57
457.28	440.02
457.46	440.02
457.64	454.06
457.83	411.93
458.01	388.53
458.19	402.57
458.38	435.34
458.56	437.68
458.74	372.15
458.93	451.72
459.11	440.02
459.29	393.21
459.48	458.74
459.66	425.98
459.84	360.44
460.03	409.59
460.21	402.57
460.39	440.02
460.57	414.27
460.76	470.45
460.94	407.25
461.12	428.32
461.31	491.51
461.49	456.40
461.67	348.74
461.85	404.91
462.04	447.04
462.22	528.96
462.40	465.77
462.59	454.06
462.77	472.79
462.95	442.36
463.13	369.80
463.32	369.80
463.50	489.17
463.68	411.93
463.86	461.09
464.05	355.76
464.23	437.68
464.41	470.45
464.59	358.10
464.78	447.04
464.96	367.46
465.14	470.45
465.32	400.23
465.50	425.98
465.69	458.74
465.87	435.34
466.05	503.22
466.23	418.96
466.41	407.25
466.60	449.38
466.78	407.25
466.96	472.79
467.14	388.53
467.32	400.23
467.51	362.78
467.69	404.91
467.87	400.23
468.05	430.66
468.23	456.40
468.41	470.45
468.60	372.15
468.78	449.38
468.96	402.57
469.14	390.87
469.32	470.45
469.50	437.68
469.69	369.80
469.87	421.30
470.05	411.93
470.23	414.27
470.41	435.34
470.59	411.93
470.77	388.53
470.95	374.49
471.14	437.68
471.32	395.55
471.50	404.91
471.68	416.62
471.86	404.91
472.04	468.11
472.22	416.62
472.40	479.81
472.58	369.80
472.77	411.93
472.95	395.55
473.13	477.47
473.31	472.79
473.49	425.98
473.67	428.32
473.85	465.77
474.03	428.32
474.21	374.49
474.39	477.47
474.57	454.06
474.75	447.04
474.93	407.25
475.12	411.93
475.30	444.70
475.48	411.93
475.66	355.76
475.84	486.83
476.02	404.91
476.20	367.46
476.38	407.25
476.56	383.85
476.74	442.36
476.92	416.62
477.10	440.02
477.28	440.02
477.46	414.27
477.64	442.36
477.82	430.66
478.00	372.15
478.18	421.30
478.36	411.93
478.54	402.57
478.72	444.70
478.90	461.09
479.08	433.00
479.26	388.53
479.44	390.87
479.62	404.91
479.80	454.06
479.98	465.77
480.16	374.49
480.34	411.93
480.52	390.87
480.70	409.59
480.88	421.30
481.06	416.62
481.24	423.64
481.41	397.89
481.59	477.47
481.77	404.91
481.95	416.62
482.13	430.66
482.31	346.40
482.49	379.17
482.67	447.04
482.85	381.51
483.03	479.81
483.21	456.40
483.39	372.15
483.57	337.04
483.74	451.72
483.92	337.04
484.10	358.10
484.28	425.98
484.46	463.43
484.64	447.04
484.82	470.45
485.00	428.32
485.18	400.23
485.35	416.62
485.53	348.74
485.71	425.98
485.89	381.51
486.07	433.00
486.25	482.15
486.43	397.89
486.61	423.64
486.78	458.74
486.96	418.96
487.14	411.93
487.32	369.80
487.50	407.25
487.68	423.64
487.85	353.42
488.03	414.27
488.21	409.59
488.39	353.42
488.57	505.56
488.75	388.53
488.92	491.51
489.10	386.19
489.28	425.98
489.46	404.91
489.64	454.06
489.81	386.19
489.99	449.38
490.17	435.34
490.35	479.81
490.53	451.72
490.70	362.78
490.88	414.27
491.06	383.85
491.24	442.36
491.41	489.17
491.59	465.77
491.77	358.10
491.95	376.83
492.13	355.76
492.30	341.72
492.48	444.70
492.66	383.85
492.84	433.00
493.01	451.72
493.19	386.19
493.37	418.96
493.54	444.70
493.72	407.25
493.90	407.25
494.08	472.79
494.25	400.23
494.43	341.72
494.61	423.64
494.79	390.87
494.96	409.59
495.14	472.79
495.32	404.91
495.49	451.72
495.67	444.70
495.85	414.27
496.02	407.25
496.20	444.70
496.38	395.55
496.55	388.53
496.73	472.79
496.91	388.53
497.09	337.04
497.26	451.72
497.44	374.49
497.62	416.62
497.79	437.68
497.97	447.04
498.14	433.00
498.32	353.42
498.50	400.23
498.67	458.74
498.85	365.12
499.03	362.78
499.20	400.23
499.38	468.11
499.56	456.40
499.73	458.74
499.91	491.51
500.08	430.66
500.26	407.25
500.44	362.78
500.61	411.93
500.79	374.49
500.97	482.15
501.14	423.64
501.32	470.45
501.49	393.21
501.67	461.09
501.84	404.91
502.02	400.23
502.20	414.27
502.37	407.25
502.55	400.23
502.72	351.08
502.90	435.34
503.07	451.72
503.25	470.45
503.43	421.30
503.60	470.45
503.78	388.53
503.95	388.53
504.13	421.30
504.30	430.66
504.48	369.80
504.65	411.93
504.83	381.51
505.01	493.85
505.18	414.27
505.36	353.42
505.53	369.80
505.71	379.17
505.88	498.53
506.06	400.23
506.23	381.51
506.41	381.51
506.58	386.19
506.76	383.85
506.93	369.80
507.11	386.19
507.28	372.15
507.46	390.87
507.63	470.45
507.81	411.93
507.98	461.09
508.16	440.02
508.33	402.57
508.50	437.68
508.68	397.89
508.85	454.06
509.03	360.44
509.20	402.57
509.38	421.30
509.55	425.98
509.73	402.57
509.90	498.53
510.08	444.70
510.25	395.55
510.42	437.68
510.60	379.17
510.77	442.36
510.95	423.64
511.12	358.10
511.30	449.38
511.47	360.44
511.64	440.02
511.82	465.77
511.99	451.72
512.17	435.34
512.34	421.30
512.51	465.77
512.69	397.89
512.86	421.30
513.04	379.17
513.21	421.30
513.38	358.10
513.56	442.36
513.73	390.87
513.90	395.55
514.08	468.11
514.25	372.15
514.43	414.27
514.60	451.72
514.77	449.38
514.95	486.83
515.12	365.12
515.29	454.06
515.47	435.34
515.64	411.93
515.81	423.64
515.99	383.85
516.16	468.11
516.33	407.25
516.51	374.49
516.68	344.06
516.85	416.62
517.03	437.68
517.20	454.06
517.37	440.02
517.54	456.40
517.72	416.62
517.89	463.43
518.06	437.68
518.24	397.89
518.41	416.62
518.58	465.77
518.75	358.10
518.93	423.64
519.10	421.30
519.27	400.23
519.45	423.64
519.62	475.13
519.79	430.66
519.96	355.76
520.14	388.53
520.31	374.49
520.48	379.17
520.65	458.74
520.83	489.17
521.00	414.27
521.17	365.12
521.34	353.42
521.52	407.25
521.69	451.72
521.86	421.30
522.03	381.51
522.20	468.11
522.38	423.64
522.55	435.34
522.72	449.38
522.89	437.68
523.07	512.58
523.24	418.96
523.41	512.58
523.58	418.96
523.75	421.30
523.92	465.77
524.10	456.40
524.27	388.53
524.44	433.00
524.61	447.04
524.78	442.36
524.96	435.34
525.13	383.85
525.30	383.85
525.47	397.89
525.64	388.53
525.81	444.70
525.98	397.89
526.16	411.93
526.33	421.30
526.50	454.06
526.67	428.32
526.84	468.11
527.01	430.66
527.18	425.98
527.36	348.74
527.53	395.55
527.70	498.53
527.87	402.57
528.04	484.49
528.21	535.98
528.38	535.98
528.55	428.32
528.72	367.46
528.89	411.93
529.07	430.66
529.24	400.23
529.41	414.27
529.58	442.36
529.75	433.00
529.92	416.62
530.09	414.27
530.26	465.77
530.43	449.38
530.60	475.13
530.77	376.83
530.94	386.19
531.11	386.19
531.28	503.22
531.46	390.87
531.63	353.42
531.80	393.21
531.97	458.74
532.14	334.70
532.31	355.76
532.48	367.46
532.65	468.11
532.82	369.80
532.99	437.68
533.16	465.77
533.33	451.72
533.50	447.04
533.67	442.36
533.84	404.91
534.01	383.85
534.18	390.87
534.35	390.87
534.52	383.85
534.69	416.62
534.86	470.45
535.03	400.23
535.20	437.68
535.37	465.77
535.54	435.34
535.71	402.57
535.88	388.53
536.05	411.93
536.22	482.15
536.38	379.17
536.55	365.12
536.72	435.34
536.89	402.57
537.06	463.43
537.23	374.49
537.40	451.72
537.57	402.57
537.74	416.62
537.91	390.87
538.08	421.30
538.25	435.34
538.42	435.34
538.59	479.81
538.75	437.68
538.92	545.34
539.09	465.77
539.26	435.34
539.43	330.02
539.60	458.74
539.77	433.00
539.94	395.55
540.11	423.64
540.28	463.43
540.44	430.66
540.61	407.25
540.78	379.17
540.95	402.57
541.12	449.38
541.29	491.51
541.46	397.89
541.62	397.89
541.79	433.00
541.96	423.64
542.13	344.06
542.30	339.38
542.47	390.87
542.63	400.23
542.80	486.83
542.97	444.70
543.14	393.21
543.31	381.51
543.48	479.81
543.64	468.11
543.81	339.38
543.98	334.70
544.15	444.70
544.32	365.12
544.48	433.00
544.65	449.38
544.82	379.17
544.99	407.25
545.16	430.66
545.32	425.98
545.49	421.30
545.66	362.78
545.83	402.57
546.00	425.98
546.16	468.11
546.33	435.34
546.50	454.06
546.67	414.27
546.83	468.11
547.00	411.93
547.17	430.66
547.34	458.74
547.50	365.12
547.67	381.51
547.84	449.38
548.00	444.70
548.17	381.51
548.34	437.68
548.51	503.22
548.67	337.04
548.84	423.64
549.01	458.74
549.18	440.02
549.34	472.79
549.51	456.40
549.68	435.34
549.84	447.04
550.01	379.17
550.18	463.43
550.34	528.96
550.51	454.06
550.68	463.43
550.84	449.38
551.01	383.85
551.18	470.45
551.34	414.27
551.51	397.89
551.68	400.23
551.84	428.32
552.01	372.15
552.18	484.49
552.34	425.98
552.51	503.22
552.68	461.09
552.84	381.51
553.01	397.89
553.18	416.62
553.34	397.89
553.51	500.87
553.67	400.23
553.84	496.19
554.01	451.72
554.17	507.90
554.34	379.17
554.51	435.34
554.67	461.09
554.84	414.27
555.00	409.59
555.17	397.89
555.33	442.36
555.50	390.87
555.67	433.00
555.83	416.62
556.00	447.04
556.16	559.39
556.33	498.53
556.50	390.87
556.66	418.96
556.83	369.80
556.99	430.66
557.16	463.43
557.32	444.70
557.49	493.85
557.65	379.17
557.82	456.40
557.98	423.64
558.15	447.04
558.32	475.13
558.48	367.46
558.65	404.91
558.81	393.21
558.98	393.21
559.14	388.53
559.31	435.34
559.47	414.27
559.64	383.85
559.80	423.64
559.97	411.93
560.13	458.74
560.30	435.34
560.46	414.27
560.63	397.89
560.79	454.06
560.96	433.00
561.12	379.17
561.29	451.72
561.45	454.06
561.61	362.78
561.78	510.24
561.94	472.79
562.11	421.30
562.27	416.62
562.44	320.65
562.60	374.49
562.77	428.32
562.93	475.13
563.10	447.04
563.26	411.93
563.42	456.40
563.59	372.15
563.75	386.19
563.92	423.64
564.08	376.83
564.24	425.98
564.41	451.72
564.57	330.02
564.74	433.00
564.90	376.83
565.07	416.62
565.23	454.06
565.39	430.66
565.56	400.23
565.72	402.57
565.88	444.70
566.05	379.17
566.21	447.04
566.38	381.51
566.54	423.64
566.70	428.32
566.87	479.81
567.03	440.02
567.19	458.74
567.36	437.68
567.52	404.91
567.68	454.06
567.85	517.26
568.01	430.66
568.17	397.89
568.34	435.34
568.50	383.85
568.66	402.57
568.83	475.13
568.99	416.62
569.15	463.43
569.32	390.87
569.48	337.04
569.64	332.36
569.81	465.77
569.97	411.93
570.13	358.10
570.30	409.59
570.46	379.17
570.62	428.32
570.78	498.53
570.95	425.98
571.11	433.00
571.27	418.96
571.43	444.70
571.60	407.25
571.76	430.66
571.92	465.77
572.09	374.49
572.25	325.33
572.41	416.62
572.57	400.23
572.74	386.19
572.90	404.91
573.06	433.00
573.22	468.11
573.38	430.66
573.55	470.45
573.71	428.32
573.87	430.66
574.03	351.08
574.20	433.00
574.36	463.43
574.52	341.72
574.68	430.66
574.84	447.04
575.01	418.96
575.17	404.91
575.33	390.87
575.49	407.25
575.65	425.98
575.82	440.02
575.98	440.02
576.14	468.11
576.30	381.51
576.46	430.66
576.62	409.59
576.79	437.68
576.95	404.91
577.11	341.72
577.27	372.15
577.43	428.32
577.59	421.30
577.75	477.47
577.92	402.57
578.08	454.06
578.24	500.87
578.40	383.85
578.56	496.19
578.72	461.09
578.88	507.90
579.04	402.57
579.21	365.12
579.37	418.96
579.53	374.49
579.69	402.57
579.85	430.66
580.01	468.11
580.17	454.06
580.33	407.25
580.49	369.80
580.65	512.58
580.82	395.55
580.98	407.25
581.14	423.64
581.30	418.96
581.46	395.55
581.62	414.27
581.78	449.38
581.94	414.27
582.10	332.36
582.26	404.91
582.42	400.23
582.58	470.45
582.74	404.91
582.90	430.66
583.06	449.38
583.22	510.24
583.38	418.96
583.54	360.44
583.70	458.74
583.86	456.40
584.02	447.04
584.18	496.19
584.34	428.32
584.50	512.58
584.66	409.59
584.82	372.15
584.98	402.57
585.14	442.36
585.30	496.19
585.46	388.53
585.62	414.27
585.78	435.34
585.94	505.56
586.10	456.40
586.26	414.27
586.42	423.64
586.58	409.59
586.74	440.02
586.90	430.66
587.06	388.53
587.22	395.55
587.38	400.23
587.54	397.89
587.70	437.68
587.86	437.68
588.02	400.23
588.18	433.00
588.34	442.36
588.49	416.62
588.65	372.15
588.81	433.00
588.97	428.32
589.13	388.53
589.29	425.98
589.45	437.68
589.61	362.78
589.77	442.36
589.93	397.89
590.08	468.11
590.24	400.23
590.40	411.93
590.56	409.59
590.72	428.32
590.88	376.83
591.04	468.11
591.20	360.44
591.35	437.68
591.51	433.00
591.67	418.96
591.83	372.15
591.99	365.12
592.15	519.60
592.31	449.38
592.46	416.62
592.62	433.00
592.78	482.15
592.94	393.21
593.10	437.68
593.26	463.43
593.41	362.78
593.57	425.98
593.73	437.68
593.89	418.96
594.05	397.89
594.20	388.53
594.36	395.55
594.52	245.76
594.68	381.51
594.84	433.00
594.99	411.93
595.15	409.59
595.31	416.62
595.47	433.00
595.62	374.49
595.78	402.57
595.94	470.45
596.10	442.36
596.25	463.43
596.41	376.83
596.57	461.09
596.73	402.57
596.88	372.15
597.04	416.62
597.20	411.93
597.36	428.32
597.51	397.89
597.67	332.36
597.83	416.62
597.99	421.30
598.14	433.00
598.30	475.13
598.46	425.98
598.61	491.51
598.77	449.38
598.93	330.02
599.09	404.91
599.24	404.91
599.40	421.30
599.56	407.25
599.71	418.96
599.87	451.72
600.03	437.68
600.18	365.12
600.34	411.93
600.50	435.34
600.65	416.62
600.81	402.57
600.97	489.17
601.12	414.27
601.28	423.64
601.44	400.23
601.59	383.85
601.75	383.85
601.91	421.30
602.06	381.51
602.22	510.24
602.37	409.59
602.53	440.02
602.69	409.59
602.84	400.23
603.00	484.49
603.16	400.23
603.31	388.53
603.47	400.23
603.62	346.40
603.78	463.43
603.94	421.30
604.09	444.70
604.25	402.57
604.40	379.17
604.56	362.78
604.71	407.25
604.87	374.49
605.03	421.30
605.18	404.91
605.34	397.89
605.49	423.64
605.65	428.32
605.80	477.47
605.96	393.21
606.12	442.36
606.27	493.85
606.43	416.62
606.58	393.21
606.74	351.08
606.89	440.02
607.05	451.72
607.20	421.30
607.36	444.70
607.51	388.53
607.67	472.79
607.82	416.62
607.98	451.72
608.13	411.93
608.29	423.64
608.44	430.66
608.60	409.59
608.75	451.72
608.91	416.62
609.06	458.74
609.22	409.59
609.37	367.46
609.53	411.93
609.68	358.10
609.84	454.06
609.99	411.93
610.15	449.38
