SpectraSuite Data File
++++++++++++++++++++++++++++++++++++
Date: Fri Oct 25 12:11:13 EDT 2013
User: price-jones
Dark Spectrum Present: No
Reference Spectrum Present: No
Number of Sampled Component Spectra: 1
Spectrometers: USB2+H05261
Integration Time (usec): 100000 (USB2+H05261)
Spectra Averaged: 1 (USB2+H05261)
Boxcar Smoothing: 0 (USB2+H05261)
Correct for Electrical Dark: No (USB2+H05261)
Strobe/Lamp Enabled: No (USB2+H05261)
Correct for Detector Non-linearity: No (USB2+H05261)
Correct for Stray Light: No (USB2+H05261)
Number of Pixels in Processed Spectrum: 2048
>>>>>Begin Processed Spectral Data<<<<<
365.73	365.12
365.92	365.12
366.12	365.12
366.32	308.95
366.52	259.80
366.72	203.63
366.91	304.27
367.11	280.86
367.31	208.31
367.51	271.50
367.70	220.01
367.90	187.24
368.10	234.05
368.30	191.92
368.49	271.50
368.69	252.78
368.89	280.86
369.09	231.71
369.28	308.95
369.48	210.65
369.68	262.14
369.87	318.31
370.07	276.18
370.27	379.17
370.47	315.97
370.66	360.44
370.86	386.19
371.06	308.95
371.25	409.59
371.45	330.02
371.65	449.38
371.84	395.55
372.04	386.19
372.24	442.36
372.44	416.62
372.63	444.70
372.83	437.68
373.03	435.34
373.22	395.55
373.42	407.25
373.62	425.98
373.81	486.83
374.01	463.43
374.21	425.98
374.40	496.19
374.60	442.36
374.79	390.87
374.99	386.19
375.19	390.87
375.38	447.04
375.58	430.66
375.78	430.66
375.97	411.93
376.17	519.60
376.37	409.59
376.56	421.30
376.76	454.06
376.95	414.27
377.15	454.06
377.35	430.66
377.54	383.85
377.74	437.68
377.93	414.27
378.13	407.25
378.33	407.25
378.52	365.12
378.72	381.51
378.91	372.15
379.11	423.64
379.31	435.34
379.50	346.40
379.70	416.62
379.89	348.74
380.09	404.91
380.28	353.42
380.48	397.89
380.68	353.42
380.87	407.25
381.07	397.89
381.26	498.53
381.46	369.80
381.65	437.68
381.85	355.76
382.04	407.25
382.24	458.74
382.43	388.53
382.63	400.23
382.83	379.17
383.02	440.02
383.22	411.93
383.41	418.96
383.61	425.98
383.80	425.98
384.00	418.96
384.19	451.72
384.39	411.93
384.58	440.02
384.78	454.06
384.97	454.06
385.17	348.74
385.36	400.23
385.56	418.96
385.75	365.12
385.95	407.25
386.14	414.27
386.34	409.59
386.53	421.30
386.72	411.93
386.92	404.91
387.11	425.98
387.31	367.46
387.50	421.30
387.70	339.38
387.89	404.91
388.09	430.66
388.28	383.85
388.48	409.59
388.67	404.91
388.86	320.65
389.06	393.21
389.25	400.23
389.45	402.57
389.64	416.62
389.84	430.66
390.03	404.91
390.22	444.70
390.42	463.43
390.61	383.85
390.81	365.12
391.00	367.46
391.19	425.98
391.39	381.51
391.58	475.13
391.78	461.09
391.97	383.85
392.16	402.57
392.36	442.36
392.55	351.08
392.75	393.21
392.94	477.47
393.13	397.89
393.33	430.66
393.52	409.59
393.71	411.93
393.91	449.38
394.10	388.53
394.29	374.49
394.49	369.80
394.68	376.83
394.88	374.49
395.07	386.19
395.26	423.64
395.46	421.30
395.65	421.30
395.84	437.68
396.04	423.64
396.23	355.76
396.42	435.34
396.62	418.96
396.81	472.79
397.00	379.17
397.19	433.00
397.39	461.09
397.58	425.98
397.77	344.06
397.97	313.63
398.16	416.62
398.35	414.27
398.55	444.70
398.74	353.42
398.93	395.55
399.12	484.49
399.32	421.30
399.51	411.93
399.70	386.19
399.90	435.34
400.09	444.70
400.28	425.98
400.47	383.85
400.67	360.44
400.86	411.93
401.05	374.49
401.24	407.25
401.44	414.27
401.63	442.36
401.82	468.11
402.01	418.96
402.21	372.15
402.40	414.27
402.59	416.62
402.78	428.32
402.97	330.02
403.17	425.98
403.36	482.15
403.55	381.51
403.74	327.68
403.93	447.04
404.13	451.72
404.32	461.09
404.51	442.36
404.70	418.96
404.89	397.89
405.09	381.51
405.28	381.51
405.47	386.19
405.66	435.34
405.85	449.38
406.05	411.93
406.24	440.02
406.43	440.02
406.62	402.57
406.81	409.59
407.00	421.30
407.20	404.91
407.39	423.64
407.58	461.09
407.77	374.49
407.96	388.53
408.15	496.19
408.34	456.40
408.54	407.25
408.73	468.11
408.92	390.87
409.11	425.98
409.30	388.53
409.49	388.53
409.68	409.59
409.87	456.40
410.07	346.40
410.26	442.36
410.45	442.36
410.64	421.30
410.83	376.83
411.02	437.68
411.21	386.19
411.40	402.57
411.59	444.70
411.78	428.32
411.98	402.57
412.17	322.99
412.36	395.55
412.55	390.87
412.74	337.04
412.93	425.98
413.12	430.66
413.31	411.93
413.50	409.59
413.69	395.55
413.88	423.64
414.07	393.21
414.26	416.62
414.45	393.21
414.64	463.43
414.83	404.91
415.02	416.62
415.22	425.98
415.41	360.44
415.60	402.57
415.79	301.93
415.98	414.27
416.17	519.60
416.36	407.25
416.55	404.91
416.74	411.93
416.93	423.64
417.12	430.66
417.31	402.57
417.50	355.76
417.69	418.96
417.88	381.51
418.07	416.62
418.26	393.21
418.45	393.21
418.64	472.79
418.83	461.09
419.02	461.09
419.21	456.40
419.39	423.64
419.58	404.91
419.77	416.62
419.96	393.21
420.15	449.38
420.34	395.55
420.53	369.80
420.72	428.32
420.91	421.30
421.10	416.62
421.29	479.81
421.48	383.85
421.67	440.02
421.86	395.55
422.05	367.46
422.24	383.85
422.43	297.25
422.61	383.85
422.80	339.38
422.99	414.27
423.18	421.30
423.37	407.25
423.56	395.55
423.75	444.70
423.94	362.78
424.13	388.53
424.32	421.30
424.50	423.64
424.69	414.27
424.88	379.17
425.07	402.57
425.26	430.66
425.45	353.42
425.64	365.12
425.83	430.66
426.01	400.23
426.20	454.06
426.39	362.78
426.58	381.51
426.77	442.36
426.96	479.81
427.15	477.47
427.33	421.30
427.52	433.00
427.71	409.59
427.90	407.25
428.09	395.55
428.28	414.27
428.46	430.66
428.65	400.23
428.84	442.36
429.03	489.17
429.22	402.57
429.40	423.64
429.59	458.74
429.78	390.87
429.97	484.49
430.16	444.70
430.34	418.96
430.53	386.19
430.72	423.64
430.91	423.64
431.10	353.42
431.28	402.57
431.47	383.85
431.66	360.44
431.85	411.93
432.03	400.23
432.22	451.72
432.41	418.96
432.60	442.36
432.79	390.87
432.97	463.43
433.16	461.09
433.35	418.96
433.54	425.98
433.72	437.68
433.91	421.30
434.10	404.91
434.28	407.25
434.47	407.25
434.66	374.49
434.85	435.34
435.03	435.34
435.22	386.19
435.41	510.24
435.59	528.96
435.78	486.83
435.97	461.09
436.16	437.68
436.34	290.23
436.53	393.21
436.72	418.96
436.90	503.22
437.09	404.91
437.28	416.62
437.46	435.34
437.65	395.55
437.84	407.25
438.02	440.02
438.21	430.66
438.40	435.34
438.58	400.23
438.77	367.46
438.96	411.93
439.14	393.21
439.33	414.27
439.52	383.85
439.70	383.85
439.89	397.89
440.08	433.00
440.26	404.91
440.45	379.17
440.63	468.11
440.82	414.27
441.01	414.27
441.19	400.23
441.38	414.27
441.57	369.80
441.75	421.30
441.94	428.32
442.12	442.36
442.31	425.98
442.50	435.34
442.68	430.66
442.87	451.72
443.05	414.27
443.24	416.62
443.43	430.66
443.61	447.04
443.80	407.25
443.98	365.12
444.17	409.59
444.35	416.62
444.54	351.08
444.73	395.55
444.91	430.66
445.10	418.96
445.28	376.83
445.47	449.38
445.65	430.66
445.84	437.68
446.02	376.83
446.21	433.00
446.39	414.27
446.58	451.72
446.77	315.97
446.95	351.08
447.14	454.06
447.32	442.36
447.51	428.32
447.69	437.68
447.88	402.57
448.06	360.44
448.25	407.25
448.43	395.55
448.62	423.64
448.80	390.87
448.99	447.04
449.17	360.44
449.36	458.74
449.54	355.76
449.73	381.51
449.91	402.57
450.10	383.85
450.28	395.55
450.46	414.27
450.65	444.70
450.83	390.87
451.02	409.59
451.20	393.21
451.39	402.57
451.57	353.42
451.76	442.36
451.94	332.36
452.13	433.00
452.31	449.38
452.49	421.30
452.68	353.42
452.86	428.32
453.05	463.43
453.23	365.12
453.42	458.74
453.60	437.68
453.78	362.78
453.97	334.70
454.15	454.06
454.34	393.21
454.52	372.15
454.70	423.64
454.89	402.57
455.07	449.38
455.26	402.57
455.44	465.77
455.62	451.72
455.81	482.15
455.99	414.27
456.17	449.38
456.36	465.77
456.54	372.15
456.73	393.21
456.91	421.30
457.09	348.74
457.28	444.70
457.46	461.09
457.64	486.83
457.83	421.30
458.01	395.55
458.19	423.64
458.38	437.68
458.56	437.68
458.74	411.93
458.93	418.96
459.11	409.59
459.29	402.57
459.48	414.27
459.66	444.70
459.84	454.06
460.03	512.58
460.21	449.38
460.39	402.57
460.57	444.70
460.76	458.74
460.94	430.66
461.12	416.62
461.31	444.70
461.49	418.96
461.67	428.32
461.85	449.38
462.04	393.21
462.22	779.40
462.40	418.96
462.59	479.81
462.77	365.12
462.95	376.83
463.13	379.17
463.32	423.64
463.50	386.19
463.68	425.98
463.86	421.30
464.05	402.57
464.23	465.77
464.41	454.06
464.59	414.27
464.78	463.43
464.96	409.59
465.14	383.85
465.32	393.21
465.50	386.19
465.69	465.77
465.87	360.44
466.05	404.91
466.23	367.46
466.41	454.06
466.60	409.59
466.78	383.85
466.96	428.32
467.14	416.62
467.32	477.47
467.51	379.17
467.69	407.25
467.87	486.83
468.05	355.76
468.23	482.15
468.41	409.59
468.60	376.83
468.78	388.53
468.96	444.70
469.14	362.78
469.32	397.89
469.50	360.44
469.69	379.17
469.87	409.59
470.05	456.40
470.23	409.59
470.41	423.64
470.59	421.30
470.77	421.30
470.95	400.23
471.14	433.00
471.32	475.13
471.50	444.70
471.68	465.77
471.86	393.21
472.04	456.40
472.22	444.70
472.40	388.53
472.58	351.08
472.77	327.68
472.95	411.93
473.13	433.00
473.31	444.70
473.49	442.36
473.67	397.89
473.85	418.96
474.03	360.44
474.21	372.15
474.39	479.81
474.57	425.98
474.75	393.21
474.93	411.93
475.12	449.38
475.30	299.59
475.48	362.78
475.66	428.32
475.84	386.19
476.02	430.66
476.20	416.62
476.38	374.49
476.56	463.43
476.74	442.36
476.92	442.36
477.10	437.68
477.28	418.96
477.46	421.30
477.64	404.91
477.82	360.44
478.00	421.30
478.18	402.57
478.36	435.34
478.54	313.63
478.72	425.98
478.90	404.91
479.08	416.62
479.26	435.34
479.44	407.25
479.62	334.70
479.80	407.25
479.98	430.66
480.16	355.76
480.34	479.81
480.52	475.13
480.70	428.32
480.88	470.45
481.06	299.59
481.24	458.74
481.41	362.78
481.59	435.34
481.77	402.57
481.95	449.38
482.13	376.83
482.31	315.97
482.49	369.80
482.67	449.38
482.85	444.70
483.03	409.59
483.21	461.09
483.39	407.25
483.57	332.36
483.74	451.72
483.92	428.32
484.10	409.59
484.28	416.62
484.46	442.36
484.64	414.27
484.82	421.30
485.00	418.96
485.18	411.93
485.35	425.98
485.53	369.80
485.71	388.53
485.89	365.12
486.07	414.27
486.25	491.51
486.43	397.89
486.61	411.93
486.78	491.51
486.96	404.91
487.14	440.02
487.32	386.19
487.50	423.64
487.68	428.32
487.85	369.80
488.03	360.44
488.21	409.59
488.39	325.33
488.57	404.91
488.75	390.87
488.92	528.96
489.10	386.19
489.28	458.74
489.46	376.83
489.64	437.68
489.81	465.77
489.99	430.66
490.17	449.38
490.35	489.17
490.53	388.53
490.70	374.49
490.88	435.34
491.06	409.59
491.24	447.04
491.41	435.34
491.59	409.59
491.77	491.51
491.95	367.46
492.13	381.51
492.30	430.66
492.48	372.15
492.66	381.51
492.84	411.93
493.01	440.02
493.19	463.43
493.37	472.79
493.54	379.17
493.72	374.49
493.90	386.19
494.08	407.25
494.25	423.64
494.43	390.87
494.61	425.98
494.79	388.53
494.96	418.96
495.14	433.00
495.32	442.36
495.49	383.85
495.67	381.51
495.85	414.27
496.02	402.57
496.20	437.68
496.38	433.00
496.55	433.00
496.73	421.30
496.91	339.38
497.09	397.89
497.26	409.59
497.44	358.10
497.62	348.74
497.79	397.89
497.97	383.85
498.14	468.11
498.32	372.15
498.50	369.80
498.67	358.10
498.85	402.57
499.03	374.49
499.20	395.55
499.38	395.55
499.56	435.34
499.73	486.83
499.91	421.30
500.08	458.74
500.26	400.23
500.44	411.93
500.61	397.89
500.79	423.64
500.97	461.09
501.14	507.90
501.32	505.56
501.49	444.70
501.67	416.62
501.84	430.66
502.02	423.64
502.20	437.68
502.37	433.00
502.55	365.12
502.72	421.30
502.90	433.00
503.07	411.93
503.25	379.17
503.43	374.49
503.60	425.98
503.78	402.57
503.95	407.25
504.13	428.32
504.30	421.30
504.48	484.49
504.65	454.06
504.83	351.08
505.01	386.19
505.18	390.87
505.36	461.09
505.53	402.57
505.71	435.34
505.88	437.68
506.06	367.46
506.23	407.25
506.41	388.53
506.58	423.64
506.76	491.51
506.93	407.25
507.11	407.25
507.28	334.70
507.46	369.80
507.63	358.10
507.81	360.44
507.98	461.09
508.16	425.98
508.33	416.62
508.50	404.91
508.68	444.70
508.85	416.62
509.03	402.57
509.20	360.44
509.38	475.13
509.55	484.49
509.73	440.02
509.90	397.89
510.08	348.74
510.25	411.93
510.42	503.22
510.60	400.23
510.77	374.49
510.95	423.64
511.12	381.51
511.30	388.53
511.47	404.91
511.64	484.49
511.82	395.55
511.99	379.17
512.17	428.32
512.34	400.23
512.51	381.51
512.69	414.27
512.86	430.66
513.04	381.51
513.21	393.21
513.38	386.19
513.56	435.34
513.73	411.93
513.90	440.02
514.08	376.83
514.25	390.87
514.43	386.19
514.60	404.91
514.77	470.45
514.95	430.66
515.12	402.57
515.29	386.19
515.47	397.89
515.64	416.62
515.81	337.04
515.99	402.57
516.16	423.64
516.33	369.80
516.51	400.23
516.68	456.40
516.85	470.45
517.03	395.55
517.20	440.02
517.37	386.19
517.54	430.66
517.72	470.45
517.89	425.98
518.06	369.80
518.24	444.70
518.41	489.17
518.58	400.23
518.75	414.27
518.93	409.59
519.10	440.02
519.27	458.74
519.45	409.59
519.62	383.85
519.79	482.15
519.96	353.42
520.14	379.17
520.31	447.04
520.48	379.17
520.65	421.30
520.83	423.64
521.00	468.11
521.17	388.53
521.34	341.72
521.52	500.87
521.69	407.25
521.86	430.66
522.03	440.02
522.20	388.53
522.38	456.40
522.55	393.21
522.72	451.72
522.89	421.30
523.07	468.11
523.24	414.27
523.41	365.12
523.58	472.79
523.75	416.62
523.92	454.06
524.10	463.43
524.27	416.62
524.44	407.25
524.61	477.47
524.78	411.93
524.96	442.36
525.13	442.36
525.30	362.78
525.47	475.13
525.64	416.62
525.81	409.59
525.98	468.11
526.16	369.80
526.33	409.59
526.50	437.68
526.67	390.87
526.84	360.44
527.01	348.74
527.18	442.36
527.36	346.40
527.53	393.21
527.70	428.32
527.87	428.32
528.04	395.55
528.21	416.62
528.38	461.09
528.55	393.21
528.72	489.17
528.89	430.66
529.07	423.64
529.24	376.83
529.41	454.06
529.58	461.09
529.75	475.13
529.92	451.72
530.09	449.38
530.26	416.62
530.43	489.17
530.60	433.00
530.77	451.72
530.94	416.62
531.11	479.81
531.28	330.02
531.46	397.89
531.63	421.30
531.80	416.62
531.97	393.21
532.14	353.42
532.31	407.25
532.48	465.77
532.65	414.27
532.82	393.21
532.99	463.43
533.16	425.98
533.33	470.45
533.50	386.19
533.67	423.64
533.84	435.34
534.01	442.36
534.18	341.72
534.35	402.57
534.52	447.04
534.69	362.78
534.86	444.70
535.03	416.62
535.20	430.66
535.37	449.38
535.54	456.40
535.71	388.53
535.88	482.15
536.05	430.66
536.22	463.43
536.38	400.23
536.55	411.93
536.72	442.36
536.89	430.66
537.06	440.02
537.23	365.12
537.40	456.40
537.57	346.40
537.74	472.79
537.91	425.98
538.08	440.02
538.25	435.34
538.42	498.53
538.59	393.21
538.75	463.43
538.92	411.93
539.09	388.53
539.26	470.45
539.43	489.17
539.60	358.10
539.77	468.11
539.94	444.70
540.11	402.57
540.28	472.79
540.44	465.77
540.61	411.93
540.78	454.06
540.95	449.38
541.12	430.66
541.29	440.02
541.46	470.45
541.62	454.06
541.79	388.53
541.96	409.59
542.13	430.66
542.30	428.32
542.47	416.62
542.63	381.51
542.80	400.23
542.97	503.22
543.14	447.04
543.31	416.62
543.48	339.38
543.64	414.27
543.81	407.25
543.98	388.53
544.15	411.93
544.32	388.53
544.48	355.76
544.65	440.02
544.82	425.98
544.99	402.57
545.16	376.83
545.32	390.87
545.49	493.85
545.66	400.23
545.83	425.98
546.00	425.98
546.16	411.93
546.33	418.96
546.50	365.12
546.67	418.96
546.83	433.00
547.00	414.27
547.17	390.87
547.34	414.27
547.50	404.91
547.67	404.91
547.84	358.10
548.00	458.74
548.17	458.74
548.34	383.85
548.51	407.25
548.67	372.15
548.84	390.87
549.01	428.32
549.18	374.49
549.34	444.70
549.51	374.49
549.68	465.77
549.84	383.85
550.01	362.78
550.18	402.57
550.34	444.70
550.51	435.34
550.68	379.17
550.84	376.83
551.01	437.68
551.18	451.72
551.34	381.51
551.51	425.98
551.68	447.04
551.84	458.74
552.01	447.04
552.18	395.55
552.34	404.91
552.51	433.00
552.68	449.38
552.84	407.25
553.01	383.85
553.18	411.93
553.34	416.62
553.51	379.17
553.67	425.98
553.84	528.96
554.01	411.93
554.17	358.10
554.34	386.19
554.51	430.66
554.67	425.98
554.84	461.09
555.00	407.25
555.17	418.96
555.33	386.19
555.50	447.04
555.67	402.57
555.83	402.57
556.00	402.57
556.16	507.90
556.33	496.19
556.50	393.21
556.66	402.57
556.83	407.25
556.99	393.21
557.16	411.93
557.32	388.53
557.49	435.34
557.65	379.17
557.82	397.89
557.98	449.38
558.15	416.62
558.32	341.72
558.48	444.70
558.65	423.64
558.81	449.38
558.98	447.04
559.14	440.02
559.31	362.78
559.47	465.77
559.64	442.36
559.80	440.02
559.97	397.89
560.13	425.98
560.30	358.10
560.46	411.93
560.63	393.21
560.79	372.15
560.96	456.40
561.12	404.91
561.29	496.19
561.45	367.46
561.61	351.08
561.78	470.45
561.94	414.27
562.11	433.00
562.27	440.02
562.44	454.06
562.60	365.12
562.77	418.96
562.93	477.47
563.10	433.00
563.26	440.02
563.42	435.34
563.59	416.62
563.75	381.51
563.92	365.12
564.08	381.51
564.24	409.59
564.41	411.93
564.57	379.17
564.74	369.80
564.90	418.96
565.07	416.62
565.23	475.13
565.39	491.51
565.56	425.98
565.72	489.17
565.88	404.91
566.05	416.62
566.21	472.79
566.38	437.68
566.54	435.34
566.70	428.32
566.87	423.64
567.03	404.91
567.19	386.19
567.36	372.15
567.52	346.40
567.68	416.62
567.85	456.40
568.01	400.23
568.17	444.70
568.34	381.51
568.50	470.45
568.66	442.36
568.83	442.36
568.99	353.42
569.15	486.83
569.32	454.06
569.48	468.11
569.64	381.51
569.81	414.27
569.97	442.36
570.13	376.83
570.30	458.74
570.46	369.80
570.62	440.02
570.78	435.34
570.95	456.40
571.11	484.49
571.27	479.81
571.43	362.78
571.60	468.11
571.76	390.87
571.92	454.06
572.09	461.09
572.25	430.66
572.41	428.32
572.57	428.32
572.74	447.04
572.90	430.66
573.06	437.68
573.22	440.02
573.38	395.55
573.55	470.45
573.71	440.02
573.87	393.21
574.03	418.96
574.20	430.66
574.36	418.96
574.52	407.25
574.68	367.46
574.84	482.15
575.01	463.43
575.17	397.89
575.33	456.40
575.49	451.72
575.65	418.96
575.82	374.49
575.98	346.40
576.14	440.02
576.30	493.85
576.46	491.51
576.62	395.55
576.79	409.59
576.95	454.06
577.11	402.57
577.27	346.40
577.43	498.53
577.59	444.70
577.75	397.89
577.92	404.91
578.08	402.57
578.24	339.38
578.40	421.30
578.56	444.70
578.72	477.47
578.88	411.93
579.04	454.06
579.21	388.53
579.37	369.80
579.53	454.06
579.69	456.40
579.85	465.77
580.01	416.62
580.17	407.25
580.33	369.80
580.49	369.80
580.65	433.00
580.82	451.72
580.98	444.70
581.14	369.80
581.30	440.02
581.46	468.11
581.62	383.85
581.78	451.72
581.94	430.66
582.10	428.32
582.26	351.08
582.42	428.32
582.58	411.93
582.74	458.74
582.90	458.74
583.06	407.25
583.22	369.80
583.38	374.49
583.54	435.34
583.70	447.04
583.86	458.74
584.02	416.62
584.18	482.15
584.34	365.12
584.50	468.11
584.66	479.81
584.82	416.62
584.98	404.91
585.14	416.62
585.30	409.59
585.46	444.70
585.62	411.93
585.78	430.66
585.94	386.19
586.10	400.23
586.26	400.23
586.42	407.25
586.58	386.19
586.74	409.59
586.90	390.87
587.06	496.19
587.22	447.04
587.38	440.02
587.54	425.98
587.70	449.38
587.86	416.62
588.02	409.59
588.18	414.27
588.34	475.13
588.49	433.00
588.65	404.91
588.81	423.64
588.97	379.17
589.13	425.98
589.29	442.36
589.45	500.87
589.61	461.09
589.77	482.15
589.93	451.72
590.08	416.62
590.24	421.30
590.40	444.70
590.56	402.57
590.72	456.40
590.88	411.93
591.04	407.25
591.20	421.30
591.35	475.13
591.51	435.34
591.67	386.19
591.83	463.43
591.99	358.10
592.15	493.85
592.31	447.04
592.46	423.64
592.62	437.68
592.78	397.89
592.94	381.51
593.10	447.04
593.26	486.83
593.41	423.64
593.57	435.34
593.73	402.57
593.89	440.02
594.05	463.43
594.20	416.62
594.36	437.68
594.52	379.17
594.68	365.12
594.84	468.11
594.99	393.21
595.15	423.64
595.31	458.74
595.47	416.62
595.62	358.10
595.78	414.27
595.94	465.77
596.10	430.66
596.25	433.00
596.41	433.00
596.57	435.34
596.73	355.76
596.88	379.17
597.04	416.62
597.20	418.96
597.36	374.49
597.51	386.19
597.67	360.44
597.83	348.74
597.99	414.27
598.14	496.19
598.30	468.11
598.46	421.30
598.61	458.74
598.77	409.59
598.93	423.64
599.09	365.12
599.24	402.57
599.40	374.49
599.56	519.60
599.71	430.66
599.87	416.62
600.03	449.38
600.18	367.46
600.34	414.27
600.50	444.70
600.65	414.27
600.81	449.38
600.97	372.15
601.12	435.34
601.28	465.77
601.44	423.64
601.59	402.57
601.75	442.36
601.91	383.85
602.06	444.70
602.22	498.53
602.37	372.15
602.53	397.89
602.69	440.02
602.84	393.21
603.00	407.25
603.16	430.66
603.31	489.17
603.47	423.64
603.62	400.23
603.78	341.72
603.94	435.34
604.09	414.27
604.25	407.25
604.40	390.87
604.56	440.02
604.71	430.66
604.87	442.36
605.03	425.98
605.18	442.36
605.34	414.27
605.49	465.77
605.65	442.36
605.80	386.19
605.96	447.04
606.12	421.30
606.27	404.91
606.43	423.64
606.58	437.68
606.74	430.66
606.89	416.62
607.05	416.62
607.20	430.66
607.36	404.91
607.51	451.72
607.67	411.93
607.82	388.53
607.98	451.72
608.13	435.34
608.29	463.43
608.44	472.79
608.60	416.62
608.75	442.36
608.91	475.13
609.06	414.27
609.22	449.38
609.37	409.59
609.53	381.51
609.68	437.68
609.84	376.83
609.99	402.57
610.15	411.93
