SpectraSuite Data File
++++++++++++++++++++++++++++++++++++
Date: Fri Oct 25 12:10:57 EDT 2013
User: price-jones
Dark Spectrum Present: No
Reference Spectrum Present: No
Number of Sampled Component Spectra: 1
Spectrometers: USB2+H05261
Integration Time (usec): 100000 (USB2+H05261)
Spectra Averaged: 1 (USB2+H05261)
Boxcar Smoothing: 0 (USB2+H05261)
Correct for Electrical Dark: No (USB2+H05261)
Strobe/Lamp Enabled: No (USB2+H05261)
Correct for Detector Non-linearity: No (USB2+H05261)
Correct for Stray Light: No (USB2+H05261)
Number of Pixels in Processed Spectrum: 2048
>>>>>Begin Processed Spectral Data<<<<<
365.73	355.76
365.92	355.76
366.12	355.76
366.32	152.13
366.52	290.23
366.72	264.48
366.91	248.10
367.11	191.92
367.31	189.58
367.51	259.80
367.70	236.39
367.90	229.37
368.10	276.18
368.30	287.89
368.49	201.29
368.69	234.05
368.89	208.31
369.09	315.97
369.28	325.33
369.48	273.84
369.68	252.78
369.87	266.82
370.07	245.76
370.27	332.36
370.47	318.31
370.66	297.25
370.86	400.23
371.06	383.85
371.25	468.11
371.45	372.15
371.65	346.40
371.84	276.18
372.04	308.95
372.24	386.19
372.44	425.98
372.63	395.55
372.83	409.59
373.03	435.34
373.22	451.72
373.42	397.89
373.62	402.57
373.81	381.51
374.01	390.87
374.21	416.62
374.40	465.77
374.60	461.09
374.79	379.17
374.99	418.96
375.19	411.93
375.38	430.66
375.58	414.27
375.78	414.27
375.97	372.15
376.17	404.91
376.37	393.21
376.56	428.32
376.76	409.59
376.95	416.62
377.15	482.15
377.35	425.98
377.54	386.19
377.74	435.34
377.93	421.30
378.13	360.44
378.33	407.25
378.52	437.68
378.72	433.00
378.91	414.27
379.11	414.27
379.31	337.04
379.50	376.83
379.70	374.49
379.89	404.91
380.09	362.78
380.28	390.87
380.48	376.83
380.68	418.96
380.87	404.91
381.07	379.17
381.26	421.30
381.46	379.17
381.65	411.93
381.85	365.12
382.04	330.02
382.24	381.51
382.43	416.62
382.63	421.30
382.83	381.51
383.02	425.98
383.22	472.79
383.41	334.70
383.61	456.40
383.80	402.57
384.00	402.57
384.19	379.17
384.39	315.97
384.58	379.17
384.78	421.30
384.97	393.21
385.17	428.32
385.36	435.34
385.56	393.21
385.75	407.25
385.95	374.49
386.14	472.79
386.34	393.21
386.53	402.57
386.72	411.93
386.92	402.57
387.11	365.12
387.31	463.43
387.50	386.19
387.70	395.55
387.89	416.62
388.09	400.23
388.28	411.93
388.48	451.72
388.67	402.57
388.86	383.85
389.06	346.40
389.25	411.93
389.45	395.55
389.64	390.87
389.84	418.96
390.03	390.87
390.22	362.78
390.42	428.32
390.61	397.89
390.81	435.34
391.00	390.87
391.19	388.53
391.39	458.74
391.58	437.68
391.78	433.00
391.97	379.17
392.16	362.78
392.36	374.49
392.55	402.57
392.75	449.38
392.94	444.70
393.13	475.13
393.33	428.32
393.52	421.30
393.71	397.89
393.91	404.91
394.10	372.15
394.29	402.57
394.49	369.80
394.68	404.91
394.88	344.06
395.07	402.57
395.26	437.68
395.46	360.44
395.65	433.00
395.84	400.23
396.04	383.85
396.23	400.23
396.42	400.23
396.62	533.64
396.81	404.91
397.00	470.45
397.19	409.59
397.39	440.02
397.58	482.15
397.77	425.98
397.97	367.46
398.16	374.49
398.35	360.44
398.55	404.91
398.74	418.96
398.93	489.17
399.12	472.79
399.32	479.81
399.51	461.09
399.70	411.93
399.90	376.83
400.09	397.89
400.28	386.19
400.47	383.85
400.67	442.36
400.86	416.62
401.05	404.91
401.24	416.62
401.44	376.83
401.63	442.36
401.82	461.09
402.01	395.55
402.21	383.85
402.40	386.19
402.59	440.02
402.78	461.09
402.97	454.06
403.17	369.80
403.36	414.27
403.55	395.55
403.74	393.21
403.93	395.55
404.13	468.11
404.32	407.25
404.51	353.42
404.70	402.57
404.89	407.25
405.09	458.74
405.28	449.38
405.47	386.19
405.66	388.53
405.85	423.64
406.05	449.38
406.24	397.89
406.43	341.72
406.62	482.15
406.81	435.34
407.00	442.36
407.20	397.89
407.39	386.19
407.58	428.32
407.77	404.91
407.96	369.80
408.15	437.68
408.34	360.44
408.54	421.30
408.73	404.91
408.92	388.53
409.11	414.27
409.30	414.27
409.49	416.62
409.68	390.87
409.87	390.87
410.07	400.23
410.26	442.36
410.45	418.96
410.64	376.83
410.83	332.36
411.02	346.40
411.21	416.62
411.40	290.23
411.59	360.44
411.78	313.63
411.98	369.80
412.17	353.42
412.36	437.68
412.55	334.70
412.74	409.59
412.93	409.59
413.12	409.59
413.31	402.57
413.50	362.78
413.69	437.68
413.88	538.32
414.07	451.72
414.26	407.25
414.45	409.59
414.64	482.15
414.83	465.77
415.02	402.57
415.22	411.93
415.41	428.32
415.60	463.43
415.79	428.32
415.98	447.04
416.17	458.74
416.36	383.85
416.55	365.12
416.74	407.25
416.93	486.83
417.12	374.49
417.31	369.80
417.50	414.27
417.69	475.13
417.88	402.57
418.07	449.38
418.26	414.27
418.45	428.32
418.64	409.59
418.83	402.57
419.02	428.32
419.21	339.38
419.39	442.36
419.58	433.00
419.77	372.15
419.96	470.45
420.15	423.64
420.34	386.19
420.53	447.04
420.72	365.12
420.91	386.19
421.10	479.81
421.29	465.77
421.48	379.17
421.67	456.40
421.86	381.51
422.05	414.27
422.24	435.34
422.43	393.21
422.61	402.57
422.80	447.04
422.99	372.15
423.18	383.85
423.37	444.70
423.56	411.93
423.75	383.85
423.94	440.02
424.13	383.85
424.32	409.59
424.50	447.04
424.69	409.59
424.88	386.19
425.07	337.04
425.26	433.00
425.45	351.08
425.64	341.72
425.83	393.21
426.01	496.19
426.20	437.68
426.39	444.70
426.58	381.51
426.77	472.79
426.96	428.32
427.15	332.36
427.33	374.49
427.52	393.21
427.71	409.59
427.90	402.57
428.09	454.06
428.28	414.27
428.46	414.27
428.65	442.36
428.84	435.34
429.03	416.62
429.22	407.25
429.40	437.68
429.59	400.23
429.78	414.27
429.97	437.68
430.16	465.77
430.34	388.53
430.53	414.27
430.72	425.98
430.91	456.40
431.10	456.40
431.28	393.21
431.47	358.10
431.66	416.62
431.85	393.21
432.03	402.57
432.22	430.66
432.41	411.93
432.60	376.83
432.79	395.55
432.97	334.70
433.16	393.21
433.35	447.04
433.54	402.57
433.72	337.04
433.91	428.32
434.10	416.62
434.28	416.62
434.47	433.00
434.66	407.25
434.85	433.00
435.03	383.85
435.22	418.96
435.41	402.57
435.59	376.83
435.78	404.91
435.97	489.17
436.16	379.17
436.34	458.74
436.53	402.57
436.72	416.62
436.90	447.04
437.09	470.45
437.28	433.00
437.46	390.87
437.65	379.17
437.84	386.19
438.02	468.11
438.21	386.19
438.40	355.76
438.58	390.87
438.77	390.87
438.96	423.64
439.14	461.09
439.33	430.66
439.52	390.87
439.70	411.93
439.89	379.17
440.08	468.11
440.26	404.91
440.45	358.10
440.63	449.38
440.82	421.30
441.01	435.34
441.19	428.32
441.38	440.02
441.57	367.46
441.75	367.46
441.94	456.40
442.12	447.04
442.31	334.70
442.50	402.57
442.68	461.09
442.87	344.06
443.05	465.77
443.24	388.53
443.43	416.62
443.61	339.38
443.80	376.83
443.98	395.55
444.17	451.72
444.35	397.89
444.54	454.06
444.73	435.34
444.91	372.15
445.10	404.91
445.28	437.68
445.47	407.25
445.65	388.53
445.84	355.76
446.02	397.89
446.21	423.64
446.39	353.42
446.58	402.57
446.77	435.34
446.95	397.89
447.14	330.02
447.32	437.68
447.51	311.29
447.69	374.49
447.88	367.46
448.06	444.70
448.25	435.34
448.43	416.62
448.62	411.93
448.80	397.89
448.99	428.32
449.17	433.00
449.36	407.25
449.54	367.46
449.73	411.93
449.91	484.49
450.10	461.09
450.28	409.59
450.46	407.25
450.65	423.64
450.83	409.59
451.02	383.85
451.20	379.17
451.39	470.45
451.57	376.83
451.76	447.04
451.94	369.80
452.13	475.13
452.31	369.80
452.49	449.38
452.68	451.72
452.86	404.91
453.05	411.93
453.23	414.27
453.42	468.11
453.60	386.19
453.78	449.38
453.97	437.68
454.15	365.12
454.34	388.53
454.52	381.51
454.70	491.51
454.89	437.68
455.07	437.68
455.26	414.27
455.44	475.13
455.62	337.04
455.81	418.96
455.99	421.30
456.17	404.91
456.36	456.40
456.54	409.59
456.73	346.40
456.91	411.93
457.09	404.91
457.28	397.89
457.46	360.44
457.64	397.89
457.83	428.32
458.01	379.17
458.19	388.53
458.38	402.57
458.56	461.09
458.74	435.34
458.93	388.53
459.11	411.93
459.29	444.70
459.48	414.27
459.66	472.79
459.84	381.51
460.03	433.00
460.21	423.64
460.39	388.53
460.57	425.98
460.76	409.59
460.94	386.19
461.12	451.72
461.31	421.30
461.49	503.22
461.67	404.91
461.85	332.36
462.04	475.13
462.22	777.06
462.40	416.62
462.59	433.00
462.77	393.21
462.95	407.25
463.13	430.66
463.32	428.32
463.50	442.36
463.68	414.27
463.86	430.66
464.05	383.85
464.23	433.00
464.41	400.23
464.59	425.98
464.78	435.34
464.96	423.64
465.14	433.00
465.32	411.93
465.50	449.38
465.69	491.51
465.87	433.00
466.05	404.91
466.23	458.74
466.41	409.59
466.60	330.02
466.78	397.89
466.96	486.83
467.14	463.43
467.32	468.11
467.51	407.25
467.69	421.30
467.87	447.04
468.05	374.49
468.23	512.58
468.41	442.36
468.60	339.38
468.78	428.32
468.96	416.62
469.14	461.09
469.32	409.59
469.50	428.32
469.69	425.98
469.87	479.81
470.05	390.87
470.23	407.25
470.41	425.98
470.59	334.70
470.77	383.85
470.95	379.17
471.14	425.98
471.32	376.83
471.50	454.06
471.68	430.66
471.86	360.44
472.04	407.25
472.22	390.87
472.40	407.25
472.58	416.62
472.77	404.91
472.95	393.21
473.13	475.13
473.31	435.34
473.49	437.68
473.67	461.09
473.85	390.87
474.03	393.21
474.21	444.70
474.39	447.04
474.57	428.32
474.75	381.51
474.93	409.59
475.12	407.25
475.30	362.78
475.48	428.32
475.66	428.32
475.84	355.76
476.02	425.98
476.20	444.70
476.38	433.00
476.56	498.53
476.74	447.04
476.92	393.21
477.10	421.30
477.28	456.40
477.46	449.38
477.64	386.19
477.82	428.32
478.00	379.17
478.18	390.87
478.36	461.09
478.54	362.78
478.72	351.08
478.90	489.17
479.08	414.27
479.26	400.23
479.44	411.93
479.62	458.74
479.80	397.89
479.98	456.40
480.16	339.38
480.34	454.06
480.52	454.06
480.70	493.85
480.88	339.38
481.06	414.27
481.24	379.17
481.41	393.21
481.59	428.32
481.77	421.30
481.95	451.72
482.13	360.44
482.31	334.70
482.49	376.83
482.67	393.21
482.85	447.04
483.03	437.68
483.21	428.32
483.39	449.38
483.57	332.36
483.74	423.64
483.92	416.62
484.10	341.72
484.28	348.74
484.46	365.12
484.64	407.25
484.82	425.98
485.00	400.23
485.18	447.04
485.35	433.00
485.53	388.53
485.71	437.68
485.89	409.59
486.07	407.25
486.25	423.64
486.43	327.68
486.61	435.34
486.78	435.34
486.96	397.89
487.14	407.25
487.32	383.85
487.50	390.87
487.68	374.49
487.85	407.25
488.03	458.74
488.21	425.98
488.39	379.17
488.57	477.47
488.75	454.06
488.92	440.02
489.10	332.36
489.28	418.96
489.46	388.53
489.64	425.98
489.81	416.62
489.99	383.85
490.17	404.91
490.35	428.32
490.53	463.43
490.70	458.74
490.88	369.80
491.06	390.87
491.24	437.68
491.41	458.74
491.59	444.70
491.77	395.55
491.95	332.36
492.13	479.81
492.30	393.21
492.48	404.91
492.66	458.74
492.84	465.77
493.01	461.09
493.19	388.53
493.37	454.06
493.54	390.87
493.72	400.23
493.90	365.12
494.08	390.87
494.25	383.85
494.43	414.27
494.61	383.85
494.79	390.87
494.96	393.21
495.14	397.89
495.32	407.25
495.49	447.04
495.67	416.62
495.85	400.23
496.02	407.25
496.20	456.40
496.38	463.43
496.55	435.34
496.73	381.51
496.91	435.34
497.09	458.74
497.26	390.87
497.44	344.06
497.62	407.25
497.79	440.02
497.97	404.91
498.14	454.06
498.32	444.70
498.50	433.00
498.67	430.66
498.85	407.25
499.03	437.68
499.20	400.23
499.38	416.62
499.56	425.98
499.73	433.00
499.91	454.06
500.08	454.06
500.26	393.21
500.44	456.40
500.61	428.32
500.79	465.77
500.97	358.10
501.14	465.77
501.32	421.30
501.49	393.21
501.67	475.13
501.84	479.81
502.02	409.59
502.20	463.43
502.37	325.33
502.55	367.46
502.72	372.15
502.90	440.02
503.07	355.76
503.25	418.96
503.43	430.66
503.60	414.27
503.78	472.79
503.95	374.49
504.13	421.30
504.30	447.04
504.48	458.74
504.65	507.90
504.83	369.80
505.01	369.80
505.18	433.00
505.36	444.70
505.53	341.72
505.71	402.57
505.88	379.17
506.06	423.64
506.23	351.08
506.41	447.04
506.58	430.66
506.76	447.04
506.93	433.00
507.11	482.15
507.28	444.70
507.46	393.21
507.63	449.38
507.81	388.53
507.98	442.36
508.16	404.91
508.33	383.85
508.50	425.98
508.68	395.55
508.85	416.62
509.03	475.13
509.20	411.93
509.38	442.36
509.55	376.83
509.73	442.36
509.90	514.92
510.08	400.23
510.25	442.36
510.42	376.83
510.60	383.85
510.77	376.83
510.95	437.68
511.12	433.00
511.30	418.96
511.47	430.66
511.64	416.62
511.82	423.64
511.99	491.51
512.17	433.00
512.34	428.32
512.51	418.96
512.69	315.97
512.86	414.27
513.04	404.91
513.21	458.74
513.38	425.98
513.56	395.55
513.73	327.68
513.90	407.25
514.08	330.02
514.25	425.98
514.43	367.46
514.60	435.34
514.77	395.55
514.95	440.02
515.12	393.21
515.29	395.55
515.47	404.91
515.64	404.91
515.81	339.38
515.99	442.36
516.16	472.79
516.33	440.02
516.51	465.77
516.68	402.57
516.85	404.91
517.03	395.55
517.20	409.59
517.37	449.38
517.54	428.32
517.72	409.59
517.89	425.98
518.06	383.85
518.24	505.56
518.41	430.66
518.58	402.57
518.75	341.72
518.93	404.91
519.10	442.36
519.27	433.00
519.45	367.46
519.62	500.87
519.79	472.79
519.96	351.08
520.14	418.96
520.31	454.06
520.48	318.31
520.65	372.15
520.83	421.30
521.00	411.93
521.17	404.91
521.34	433.00
521.52	383.85
521.69	437.68
521.86	468.11
522.03	428.32
522.20	400.23
522.38	365.12
522.55	454.06
522.72	388.53
522.89	383.85
523.07	496.19
523.24	390.87
523.41	454.06
523.58	411.93
523.75	374.49
523.92	341.72
524.10	402.57
524.27	395.55
524.44	395.55
524.61	376.83
524.78	444.70
524.96	447.04
525.13	400.23
525.30	379.17
525.47	435.34
525.64	369.80
525.81	383.85
525.98	430.66
526.16	376.83
526.33	388.53
526.50	325.33
526.67	421.30
526.84	411.93
527.01	423.64
527.18	454.06
527.36	433.00
527.53	365.12
527.70	400.23
527.87	451.72
528.04	484.49
528.21	369.80
528.38	447.04
528.55	428.32
528.72	500.87
528.89	423.64
529.07	388.53
529.24	397.89
529.41	388.53
529.58	451.72
529.75	442.36
529.92	400.23
530.09	458.74
530.26	421.30
530.43	365.12
530.60	379.17
530.77	372.15
530.94	482.15
531.11	484.49
531.28	383.85
531.46	372.15
531.63	444.70
531.80	393.21
531.97	418.96
532.14	425.98
532.31	393.21
532.48	362.78
532.65	425.98
532.82	447.04
532.99	430.66
533.16	376.83
533.33	365.12
533.50	379.17
533.67	449.38
533.84	355.76
534.01	489.17
534.18	334.70
534.35	486.83
534.52	407.25
534.69	416.62
534.86	388.53
535.03	404.91
535.20	428.32
535.37	418.96
535.54	409.59
535.71	374.49
535.88	512.58
536.05	428.32
536.22	440.02
536.38	486.83
536.55	433.00
536.72	367.46
536.89	407.25
537.06	416.62
537.23	449.38
537.40	402.57
537.57	423.64
537.74	444.70
537.91	456.40
538.08	397.89
538.25	423.64
538.42	486.83
538.59	435.34
538.75	442.36
538.92	456.40
539.09	454.06
539.26	339.38
539.43	477.47
539.60	421.30
539.77	430.66
539.94	395.55
540.11	360.44
540.28	465.77
540.44	430.66
540.61	381.51
540.78	402.57
540.95	437.68
541.12	456.40
541.29	463.43
541.46	484.49
541.62	479.81
541.79	425.98
541.96	372.15
542.13	383.85
542.30	444.70
542.47	451.72
542.63	430.66
542.80	395.55
542.97	433.00
543.14	444.70
543.31	461.09
543.48	463.43
543.64	430.66
543.81	472.79
543.98	437.68
544.15	374.49
544.32	369.80
544.48	430.66
544.65	374.49
544.82	337.04
544.99	379.17
545.16	456.40
545.32	301.93
545.49	435.34
545.66	365.12
545.83	472.79
546.00	386.19
546.16	402.57
546.33	451.72
546.50	379.17
546.67	374.49
546.83	440.02
547.00	458.74
547.17	454.06
547.34	407.25
547.50	465.77
547.67	440.02
547.84	386.19
548.00	407.25
548.17	369.80
548.34	444.70
548.51	528.96
548.67	376.83
548.84	500.87
549.01	400.23
549.18	407.25
549.34	458.74
549.51	404.91
549.68	437.68
549.84	400.23
550.01	388.53
550.18	535.98
550.34	442.36
550.51	437.68
550.68	418.96
550.84	409.59
551.01	414.27
551.18	383.85
551.34	400.23
551.51	383.85
551.68	386.19
551.84	489.17
552.01	421.30
552.18	451.72
552.34	379.17
552.51	404.91
552.68	475.13
552.84	423.64
553.01	416.62
553.18	404.91
553.34	423.64
553.51	369.80
553.67	437.68
553.84	430.66
554.01	437.68
554.17	430.66
554.34	451.72
554.51	423.64
554.67	376.83
554.84	463.43
555.00	440.02
555.17	411.93
555.33	456.40
555.50	416.62
555.67	390.87
555.83	456.40
556.00	449.38
556.16	489.17
556.33	402.57
556.50	397.89
556.66	461.09
556.83	404.91
556.99	390.87
557.16	444.70
557.32	397.89
557.49	465.77
557.65	472.79
557.82	425.98
557.98	407.25
558.15	402.57
558.32	444.70
558.48	428.32
558.65	390.87
558.81	411.93
558.98	451.72
559.14	447.04
559.31	437.68
559.47	407.25
559.64	418.96
559.80	397.89
559.97	433.00
560.13	423.64
560.30	383.85
560.46	416.62
560.63	425.98
560.79	393.21
560.96	376.83
561.12	418.96
561.29	400.23
561.45	386.19
561.61	433.00
561.78	472.79
561.94	430.66
562.11	435.34
562.27	362.78
562.44	451.72
562.60	383.85
562.77	400.23
562.93	465.77
563.10	442.36
563.26	397.89
563.42	449.38
563.59	430.66
563.75	397.89
563.92	369.80
564.08	444.70
564.24	444.70
564.41	479.81
564.57	468.11
564.74	390.87
564.90	362.78
565.07	472.79
565.23	472.79
565.39	411.93
565.56	386.19
565.72	365.12
565.88	397.89
566.05	440.02
566.21	386.19
566.38	472.79
566.54	451.72
566.70	381.51
566.87	383.85
567.03	362.78
567.19	411.93
567.36	411.93
567.52	451.72
567.68	411.93
567.85	379.17
568.01	421.30
568.17	397.89
568.34	372.15
568.50	404.91
568.66	416.62
568.83	468.11
568.99	353.42
569.15	482.15
569.32	395.55
569.48	358.10
569.64	454.06
569.81	512.58
569.97	407.25
570.13	433.00
570.30	456.40
570.46	463.43
570.62	437.68
570.78	365.12
570.95	400.23
571.11	430.66
571.27	510.24
571.43	407.25
571.60	444.70
571.76	442.36
571.92	379.17
572.09	386.19
572.25	461.09
572.41	409.59
572.57	458.74
572.74	407.25
572.90	395.55
573.06	400.23
573.22	468.11
573.38	433.00
573.55	442.36
573.71	414.27
573.87	404.91
574.03	468.11
574.20	416.62
574.36	390.87
574.52	451.72
574.68	402.57
574.84	428.32
575.01	379.17
575.17	411.93
575.33	388.53
575.49	404.91
575.65	435.34
575.82	388.53
575.98	440.02
576.14	407.25
576.30	388.53
576.46	369.80
576.62	388.53
576.79	428.32
576.95	463.43
577.11	376.83
577.27	381.51
577.43	379.17
577.59	414.27
577.75	465.77
577.92	430.66
578.08	374.49
578.24	472.79
578.40	456.40
578.56	386.19
578.72	395.55
578.88	367.46
579.04	404.91
579.21	430.66
579.37	482.15
579.53	365.12
579.69	435.34
579.85	440.02
580.01	409.59
580.17	461.09
580.33	418.96
580.49	461.09
580.65	468.11
580.82	425.98
580.98	367.46
581.14	484.49
581.30	437.68
581.46	491.51
581.62	451.72
581.78	423.64
581.94	418.96
582.10	358.10
582.26	458.74
582.42	416.62
582.58	449.38
582.74	386.19
582.90	470.45
583.06	418.96
583.22	348.74
583.38	468.11
583.54	430.66
583.70	440.02
583.86	442.36
584.02	465.77
584.18	491.51
584.34	416.62
584.50	400.23
584.66	411.93
584.82	470.45
584.98	416.62
585.14	367.46
585.30	402.57
585.46	369.80
585.62	376.83
585.78	393.21
585.94	409.59
586.10	400.23
586.26	428.32
586.42	444.70
586.58	458.74
586.74	463.43
586.90	402.57
587.06	381.51
587.22	383.85
587.38	402.57
587.54	360.44
587.70	386.19
587.86	393.21
588.02	404.91
588.18	433.00
588.34	484.49
588.49	421.30
588.65	369.80
588.81	411.93
588.97	421.30
589.13	337.04
589.29	456.40
589.45	451.72
589.61	402.57
589.77	435.34
589.93	402.57
590.08	461.09
590.24	442.36
590.40	411.93
590.56	383.85
590.72	430.66
590.88	456.40
591.04	418.96
591.20	376.83
591.35	468.11
591.51	430.66
591.67	367.46
591.83	339.38
591.99	477.47
592.15	404.91
592.31	409.59
592.46	386.19
592.62	423.64
592.78	388.53
592.94	400.23
593.10	421.30
593.26	369.80
593.41	393.21
593.57	456.40
593.73	386.19
593.89	440.02
594.05	435.34
594.20	360.44
594.36	423.64
594.52	437.68
594.68	397.89
594.84	388.53
594.99	451.72
595.15	433.00
595.31	437.68
595.47	482.15
595.62	421.30
595.78	369.80
595.94	393.21
596.10	362.78
596.25	472.79
596.41	423.64
596.57	358.10
596.73	397.89
596.88	470.45
597.04	407.25
597.20	423.64
597.36	421.30
597.51	367.46
597.67	447.04
597.83	381.51
597.99	463.43
598.14	470.45
598.30	433.00
598.46	351.08
598.61	468.11
598.77	393.21
598.93	423.64
599.09	489.17
599.24	461.09
599.40	407.25
599.56	388.53
599.71	402.57
599.87	404.91
600.03	416.62
600.18	428.32
600.34	510.24
600.50	400.23
600.65	463.43
600.81	484.49
600.97	411.93
601.12	383.85
601.28	465.77
601.44	397.89
601.59	416.62
601.75	433.00
601.91	409.59
602.06	390.87
602.22	528.96
602.37	379.17
602.53	440.02
602.69	409.59
602.84	369.80
603.00	437.68
603.16	437.68
603.31	451.72
603.47	421.30
603.62	395.55
603.78	393.21
603.94	386.19
604.09	475.13
604.25	411.93
604.40	425.98
604.56	374.49
604.71	372.15
604.87	351.08
605.03	369.80
605.18	435.34
605.34	456.40
605.49	444.70
605.65	435.34
605.80	404.91
605.96	435.34
606.12	421.30
606.27	477.47
606.43	428.32
606.58	367.46
606.74	395.55
606.89	388.53
607.05	461.09
607.20	400.23
607.36	489.17
607.51	463.43
607.67	386.19
607.82	351.08
607.98	402.57
608.13	411.93
608.29	451.72
608.44	447.04
608.60	430.66
608.75	440.02
608.91	456.40
609.06	491.51
609.22	458.74
609.37	440.02
609.53	395.55
609.68	381.51
609.84	404.91
609.99	365.12
610.15	365.12
