SpectraSuite Data File
++++++++++++++++++++++++++++++++++++
Date: Fri Oct 25 12:11:41 EDT 2013
User: price-jones
Dark Spectrum Present: No
Reference Spectrum Present: No
Number of Sampled Component Spectra: 1
Spectrometers: USB2+H05261
Integration Time (usec): 100000 (USB2+H05261)
Spectra Averaged: 1 (USB2+H05261)
Boxcar Smoothing: 0 (USB2+H05261)
Correct for Electrical Dark: No (USB2+H05261)
Strobe/Lamp Enabled: No (USB2+H05261)
Correct for Detector Non-linearity: No (USB2+H05261)
Correct for Stray Light: No (USB2+H05261)
Number of Pixels in Processed Spectrum: 2048
>>>>>Begin Processed Spectral Data<<<<<
365.73	358.10
365.92	358.10
366.12	358.10
366.32	264.48
366.52	259.80
366.72	224.69
366.91	259.80
367.11	252.78
367.31	292.57
367.51	201.29
367.70	210.65
367.90	177.88
368.10	238.73
368.30	257.46
368.49	248.10
368.69	252.78
368.89	292.57
369.09	257.46
369.28	311.29
369.48	250.44
369.68	278.52
369.87	269.16
370.07	344.06
370.27	334.70
370.47	351.08
370.66	306.61
370.86	402.57
371.06	407.25
371.25	390.87
371.45	353.42
371.65	433.00
371.84	360.44
372.04	346.40
372.24	402.57
372.44	409.59
372.63	383.85
372.83	355.76
373.03	425.98
373.22	428.32
373.42	428.32
373.62	425.98
373.81	423.64
374.01	383.85
374.21	407.25
374.40	444.70
374.60	500.87
374.79	416.62
374.99	414.27
375.19	381.51
375.38	397.89
375.58	421.30
375.78	477.47
375.97	416.62
376.17	489.17
376.37	416.62
376.56	458.74
376.76	374.49
376.95	440.02
377.15	400.23
377.35	451.72
377.54	407.25
377.74	416.62
377.93	430.66
378.13	400.23
378.33	468.11
378.52	423.64
378.72	444.70
378.91	407.25
379.11	433.00
379.31	407.25
379.50	388.53
379.70	365.12
379.89	423.64
380.09	428.32
380.28	388.53
380.48	372.15
380.68	369.80
380.87	365.12
381.07	409.59
381.26	409.59
381.46	397.89
381.65	435.34
381.85	393.21
382.04	334.70
382.24	404.91
382.43	386.19
382.63	379.17
382.83	395.55
383.02	416.62
383.22	463.43
383.41	400.23
383.61	442.36
383.80	365.12
384.00	407.25
384.19	322.99
384.39	402.57
384.58	376.83
384.78	444.70
384.97	416.62
385.17	416.62
385.36	362.78
385.56	383.85
385.75	421.30
385.95	402.57
386.14	344.06
386.34	348.74
386.53	358.10
386.72	430.66
386.92	416.62
387.11	449.38
387.31	337.04
387.50	416.62
387.70	379.17
387.89	411.93
388.09	430.66
388.28	423.64
388.48	442.36
388.67	414.27
388.86	468.11
389.06	388.53
389.25	440.02
389.45	409.59
389.64	383.85
389.84	407.25
390.03	402.57
390.22	414.27
390.42	402.57
390.61	425.98
390.81	411.93
391.00	348.74
391.19	393.21
391.39	355.76
391.58	447.04
391.78	414.27
391.97	428.32
392.16	397.89
392.36	388.53
392.55	425.98
392.75	447.04
392.94	409.59
393.13	451.72
393.33	402.57
393.52	339.38
393.71	358.10
393.91	514.92
394.10	411.93
394.29	433.00
394.49	414.27
394.68	475.13
394.88	437.68
395.07	458.74
395.26	468.11
395.46	447.04
395.65	411.93
395.84	397.89
396.04	498.53
396.23	442.36
396.42	386.19
396.62	458.74
396.81	393.21
397.00	372.15
397.19	306.61
397.39	433.00
397.58	454.06
397.77	414.27
397.97	470.45
398.16	428.32
398.35	435.34
398.55	423.64
398.74	428.32
398.93	461.09
399.12	372.15
399.32	435.34
399.51	386.19
399.70	409.59
399.90	472.79
400.09	433.00
400.28	416.62
400.47	372.15
400.67	409.59
400.86	421.30
401.05	414.27
401.24	475.13
401.44	390.87
401.63	407.25
401.82	425.98
402.01	416.62
402.21	407.25
402.40	442.36
402.59	418.96
402.78	369.80
402.97	425.98
403.17	390.87
403.36	397.89
403.55	428.32
403.74	369.80
403.93	456.40
404.13	421.30
404.32	400.23
404.51	374.49
404.70	409.59
404.89	440.02
405.09	512.58
405.28	430.66
405.47	428.32
405.66	482.15
405.85	454.06
406.05	365.12
406.24	397.89
406.43	477.47
406.62	428.32
406.81	449.38
407.00	444.70
407.20	428.32
407.39	423.64
407.58	409.59
407.77	437.68
407.96	470.45
408.15	411.93
408.34	390.87
408.54	395.55
408.73	435.34
408.92	374.49
409.11	435.34
409.30	379.17
409.49	458.74
409.68	414.27
409.87	444.70
410.07	421.30
410.26	430.66
410.45	428.32
410.64	416.62
410.83	339.38
411.02	409.59
411.21	433.00
411.40	475.13
411.59	395.55
411.78	440.02
411.98	409.59
412.17	367.46
412.36	430.66
412.55	468.11
412.74	435.34
412.93	395.55
413.12	362.78
413.31	428.32
413.50	376.83
413.69	390.87
413.88	437.68
414.07	440.02
414.26	360.44
414.45	421.30
414.64	454.06
414.83	374.49
415.02	409.59
415.22	430.66
415.41	404.91
415.60	369.80
415.79	348.74
415.98	388.53
416.17	440.02
416.36	461.09
416.55	383.85
416.74	388.53
416.93	451.72
417.12	416.62
417.31	383.85
417.50	430.66
417.69	465.77
417.88	423.64
418.07	397.89
418.26	418.96
418.45	414.27
418.64	475.13
418.83	428.32
419.02	372.15
419.21	393.21
419.39	395.55
419.58	379.17
419.77	381.51
419.96	397.89
420.15	416.62
420.34	344.06
420.53	374.49
420.72	395.55
420.91	428.32
421.10	418.96
421.29	423.64
421.48	425.98
421.67	411.93
421.86	355.76
422.05	404.91
422.24	433.00
422.43	479.81
422.61	393.21
422.80	374.49
422.99	421.30
423.18	437.68
423.37	402.57
423.56	414.27
423.75	456.40
423.94	313.63
424.13	341.72
424.32	402.57
424.50	374.49
424.69	423.64
424.88	465.77
425.07	395.55
425.26	379.17
425.45	465.77
425.64	428.32
425.83	330.02
426.01	376.83
426.20	358.10
426.39	360.44
426.58	447.04
426.77	390.87
426.96	425.98
427.15	334.70
427.33	428.32
427.52	400.23
427.71	381.51
427.90	376.83
428.09	397.89
428.28	409.59
428.46	407.25
428.65	409.59
428.84	418.96
429.03	402.57
429.22	425.98
429.40	388.53
429.59	327.68
429.78	374.49
429.97	379.17
430.16	388.53
430.34	458.74
430.53	414.27
430.72	411.93
430.91	376.83
431.10	374.49
431.28	423.64
431.47	407.25
431.66	489.17
431.85	320.65
432.03	353.42
432.22	454.06
432.41	423.64
432.60	444.70
432.79	355.76
432.97	468.11
433.16	463.43
433.35	421.30
433.54	418.96
433.72	458.74
433.91	416.62
434.10	348.74
434.28	409.59
434.47	402.57
434.66	379.17
434.85	423.64
435.03	433.00
435.22	430.66
435.41	440.02
435.59	400.23
435.78	400.23
435.97	393.21
436.16	416.62
436.34	409.59
436.53	458.74
436.72	507.90
436.90	458.74
437.09	433.00
437.28	383.85
437.46	381.51
437.65	433.00
437.84	435.34
438.02	421.30
438.21	435.34
438.40	440.02
438.58	418.96
438.77	395.55
438.96	383.85
439.14	393.21
439.33	447.04
439.52	454.06
439.70	414.27
439.89	435.34
440.08	404.91
440.26	400.23
440.45	400.23
440.63	425.98
440.82	430.66
441.01	416.62
441.19	421.30
441.38	379.17
441.57	442.36
441.75	346.40
441.94	369.80
442.12	404.91
442.31	395.55
442.50	376.83
442.68	430.66
442.87	437.68
443.05	365.12
443.24	440.02
443.43	465.77
443.61	451.72
443.80	421.30
443.98	390.87
444.17	444.70
444.35	435.34
444.54	332.36
444.73	435.34
444.91	486.83
445.10	428.32
445.28	360.44
445.47	442.36
445.65	416.62
445.84	390.87
446.02	425.98
446.21	456.40
446.39	404.91
446.58	456.40
446.77	348.74
446.95	402.57
447.14	447.04
447.32	514.92
447.51	430.66
447.69	447.04
447.88	421.30
448.06	461.09
448.25	418.96
448.43	409.59
448.62	486.83
448.80	451.72
448.99	468.11
449.17	428.32
449.36	402.57
449.54	404.91
449.73	376.83
449.91	390.87
450.10	360.44
450.28	423.64
450.46	421.30
450.65	428.32
450.83	437.68
451.02	440.02
451.20	470.45
451.39	395.55
451.57	430.66
451.76	430.66
451.94	409.59
452.13	421.30
452.31	465.77
452.49	463.43
452.68	428.32
452.86	404.91
453.05	482.15
453.23	524.28
453.42	468.11
453.60	402.57
453.78	428.32
453.97	430.66
454.15	318.31
454.34	411.93
454.52	402.57
454.70	437.68
454.89	418.96
455.07	414.27
455.26	468.11
455.44	458.74
455.62	409.59
455.81	433.00
455.99	423.64
456.17	423.64
456.36	437.68
456.54	458.74
456.73	400.23
456.91	440.02
457.09	376.83
457.28	447.04
457.46	407.25
457.64	402.57
457.83	383.85
458.01	425.98
458.19	348.74
458.38	425.98
458.56	433.00
458.74	454.06
458.93	355.76
459.11	472.79
459.29	447.04
459.48	486.83
459.66	369.80
459.84	428.32
460.03	517.26
460.21	463.43
460.39	423.64
460.57	458.74
460.76	440.02
460.94	458.74
461.12	510.24
461.31	421.30
461.49	456.40
461.67	351.08
461.85	444.70
462.04	477.47
462.22	816.85
462.40	407.25
462.59	418.96
462.77	397.89
462.95	383.85
463.13	379.17
463.32	414.27
463.50	381.51
463.68	397.89
463.86	428.32
464.05	374.49
464.23	407.25
464.41	430.66
464.59	463.43
464.78	430.66
464.96	362.78
465.14	376.83
465.32	365.12
465.50	308.95
465.69	489.17
465.87	402.57
466.05	348.74
466.23	381.51
466.41	418.96
466.60	376.83
466.78	397.89
466.96	435.34
467.14	440.02
467.32	456.40
467.51	463.43
467.69	400.23
467.87	402.57
468.05	440.02
468.23	404.91
468.41	388.53
468.60	435.34
468.78	442.36
468.96	482.15
469.14	428.32
469.32	346.40
469.50	383.85
469.69	372.15
469.87	407.25
470.05	440.02
470.23	346.40
470.41	397.89
470.59	423.64
470.77	381.51
470.95	456.40
471.14	362.78
471.32	390.87
471.50	447.04
471.68	386.19
471.86	397.89
472.04	428.32
472.22	341.72
472.40	383.85
472.58	411.93
472.77	458.74
472.95	411.93
473.13	444.70
473.31	430.66
473.49	440.02
473.67	376.83
473.85	421.30
474.03	433.00
474.21	444.70
474.39	435.34
474.57	447.04
474.75	430.66
474.93	435.34
475.12	425.98
475.30	379.17
475.48	407.25
475.66	411.93
475.84	421.30
476.02	397.89
476.20	468.11
476.38	444.70
476.56	582.79
476.74	379.17
476.92	393.21
477.10	379.17
477.28	491.51
477.46	409.59
477.64	482.15
477.82	463.43
478.00	372.15
478.18	421.30
478.36	423.64
478.54	376.83
478.72	397.89
478.90	404.91
479.08	435.34
479.26	425.98
479.44	416.62
479.62	402.57
479.80	498.53
479.98	425.98
480.16	393.21
480.34	468.11
480.52	365.12
480.70	379.17
480.88	449.38
481.06	418.96
481.24	472.79
481.41	397.89
481.59	447.04
481.77	447.04
481.95	414.27
482.13	433.00
482.31	409.59
482.49	423.64
482.67	407.25
482.85	390.87
483.03	372.15
483.21	491.51
483.39	456.40
483.57	421.30
483.74	463.43
483.92	381.51
484.10	404.91
484.28	472.79
484.46	430.66
484.64	449.38
484.82	383.85
485.00	416.62
485.18	465.77
485.35	372.15
485.53	400.23
485.71	451.72
485.89	386.19
486.07	386.19
486.25	433.00
486.43	411.93
486.61	395.55
486.78	498.53
486.96	433.00
487.14	477.47
487.32	381.51
487.50	358.10
487.68	468.11
487.85	447.04
488.03	449.38
488.21	430.66
488.39	353.42
488.57	447.04
488.75	393.21
488.92	519.60
489.10	444.70
489.28	484.49
489.46	411.93
489.64	374.49
489.81	456.40
489.99	451.72
490.17	381.51
490.35	463.43
490.53	400.23
490.70	428.32
490.88	397.89
491.06	393.21
491.24	402.57
491.41	414.27
491.59	425.98
491.77	442.36
491.95	456.40
492.13	433.00
492.30	379.17
492.48	376.83
492.66	367.46
492.84	416.62
493.01	461.09
493.19	397.89
493.37	407.25
493.54	514.92
493.72	339.38
493.90	416.62
494.08	414.27
494.25	400.23
494.43	428.32
494.61	421.30
494.79	421.30
494.96	400.23
495.14	402.57
495.32	355.76
495.49	395.55
495.67	454.06
495.85	374.49
496.02	383.85
496.20	433.00
496.38	423.64
496.55	376.83
496.73	376.83
496.91	451.72
497.09	421.30
497.26	416.62
497.44	416.62
497.62	411.93
497.79	425.98
497.97	458.74
498.14	369.80
498.32	360.44
498.50	386.19
498.67	421.30
498.85	367.46
499.03	400.23
499.20	388.53
499.38	397.89
499.56	435.34
499.73	472.79
499.91	447.04
500.08	433.00
500.26	435.34
500.44	416.62
500.61	416.62
500.79	397.89
500.97	395.55
501.14	435.34
501.32	430.66
501.49	430.66
501.67	411.93
501.84	425.98
502.02	402.57
502.20	440.02
502.37	423.64
502.55	414.27
502.72	400.23
502.90	461.09
503.07	526.62
503.25	442.36
503.43	390.87
503.60	428.32
503.78	472.79
503.95	454.06
504.13	402.57
504.30	393.21
504.48	444.70
504.65	414.27
504.83	411.93
505.01	423.64
505.18	358.10
505.36	414.27
505.53	477.47
505.71	369.80
505.88	437.68
506.06	435.34
506.23	381.51
506.41	433.00
506.58	435.34
506.76	374.49
506.93	379.17
507.11	433.00
507.28	425.98
507.46	458.74
507.63	404.91
507.81	381.51
507.98	421.30
508.16	433.00
508.33	461.09
508.50	442.36
508.68	430.66
508.85	367.46
509.03	423.64
509.20	491.51
509.38	395.55
509.55	482.15
509.73	435.34
509.90	421.30
510.08	479.81
510.25	433.00
510.42	383.85
510.60	475.13
510.77	372.15
510.95	416.62
511.12	381.51
511.30	440.02
511.47	418.96
511.64	475.13
511.82	409.59
511.99	379.17
512.17	411.93
512.34	353.42
512.51	449.38
512.69	454.06
512.86	517.26
513.04	365.12
513.21	440.02
513.38	372.15
513.56	360.44
513.73	381.51
513.90	428.32
514.08	400.23
514.25	397.89
514.43	353.42
514.60	461.09
514.77	454.06
514.95	411.93
515.12	280.86
515.29	358.10
515.47	437.68
515.64	367.46
515.81	449.38
515.99	416.62
516.16	435.34
516.33	470.45
516.51	425.98
516.68	402.57
516.85	304.27
517.03	404.91
517.20	365.12
517.37	444.70
517.54	425.98
517.72	433.00
517.89	456.40
518.06	390.87
518.24	418.96
518.41	428.32
518.58	411.93
518.75	470.45
518.93	475.13
519.10	449.38
519.27	435.34
519.45	393.21
519.62	416.62
519.79	376.83
519.96	402.57
520.14	421.30
520.31	404.91
520.48	437.68
520.65	423.64
520.83	402.57
521.00	409.59
521.17	423.64
521.34	400.23
521.52	414.27
521.69	437.68
521.86	421.30
522.03	390.87
522.20	482.15
522.38	393.21
522.55	400.23
522.72	456.40
522.89	411.93
523.07	430.66
523.24	355.76
523.41	486.83
523.58	461.09
523.75	388.53
523.92	365.12
524.10	430.66
524.27	311.29
524.44	404.91
524.61	470.45
524.78	348.74
524.96	379.17
525.13	435.34
525.30	468.11
525.47	498.53
525.64	418.96
525.81	400.23
525.98	423.64
526.16	383.85
526.33	435.34
526.50	390.87
526.67	409.59
526.84	404.91
527.01	416.62
527.18	411.93
527.36	376.83
527.53	451.72
527.70	402.57
527.87	425.98
528.04	360.44
528.21	358.10
528.38	433.00
528.55	440.02
528.72	430.66
528.89	458.74
529.07	435.34
529.24	418.96
529.41	475.13
529.58	484.49
529.75	437.68
529.92	454.06
530.09	433.00
530.26	430.66
530.43	475.13
530.60	433.00
530.77	437.68
530.94	538.32
531.11	470.45
531.28	449.38
531.46	367.46
531.63	390.87
531.80	440.02
531.97	463.43
532.14	372.15
532.31	496.19
532.48	390.87
532.65	409.59
532.82	407.25
532.99	411.93
533.16	442.36
533.33	374.49
533.50	433.00
533.67	428.32
533.84	374.49
534.01	440.02
534.18	416.62
534.35	477.47
534.52	362.78
534.69	428.32
534.86	416.62
535.03	425.98
535.20	416.62
535.37	447.04
535.54	423.64
535.71	468.11
535.88	447.04
536.05	416.62
536.22	416.62
536.38	440.02
536.55	433.00
536.72	437.68
536.89	414.27
537.06	393.21
537.23	447.04
537.40	383.85
537.57	409.59
537.74	435.34
537.91	388.53
538.08	447.04
538.25	482.15
538.42	379.17
538.59	393.21
538.75	409.59
538.92	437.68
539.09	449.38
539.26	379.17
539.43	456.40
539.60	430.66
539.77	393.21
539.94	402.57
540.11	470.45
540.28	407.25
540.44	421.30
540.61	500.87
540.78	430.66
540.95	383.85
541.12	400.23
541.29	437.68
541.46	397.89
541.62	425.98
541.79	500.87
541.96	428.32
542.13	379.17
542.30	428.32
542.47	528.96
542.63	435.34
542.80	430.66
542.97	491.51
543.14	407.25
543.31	393.21
543.48	437.68
543.64	390.87
543.81	383.85
543.98	440.02
544.15	428.32
544.32	416.62
544.48	463.43
544.65	437.68
544.82	465.77
544.99	433.00
545.16	533.64
545.32	365.12
545.49	463.43
545.66	402.57
545.83	386.19
546.00	486.83
546.16	461.09
546.33	402.57
546.50	376.83
546.67	428.32
546.83	491.51
547.00	435.34
547.17	379.17
547.34	393.21
547.50	416.62
547.67	454.06
547.84	425.98
548.00	414.27
548.17	369.80
548.34	477.47
548.51	416.62
548.67	421.30
548.84	372.15
549.01	407.25
549.18	472.79
549.34	351.08
549.51	372.15
549.68	435.34
549.84	355.76
550.01	447.04
550.18	615.56
550.34	449.38
550.51	496.19
550.68	500.87
550.84	433.00
551.01	425.98
551.18	433.00
551.34	423.64
551.51	418.96
551.68	433.00
551.84	461.09
552.01	479.81
552.18	442.36
552.34	402.57
552.51	407.25
552.68	454.06
552.84	395.55
553.01	416.62
553.18	395.55
553.34	400.23
553.51	456.40
553.67	437.68
553.84	484.49
554.01	400.23
554.17	416.62
554.34	456.40
554.51	454.06
554.67	430.66
554.84	463.43
555.00	449.38
555.17	468.11
555.33	458.74
555.50	423.64
555.67	404.91
555.83	404.91
556.00	423.64
556.16	512.58
556.33	435.34
556.50	388.53
556.66	411.93
556.83	379.17
556.99	402.57
557.16	362.78
557.32	456.40
557.49	458.74
557.65	519.60
557.82	489.17
557.98	379.17
558.15	458.74
558.32	423.64
558.48	411.93
558.65	416.62
558.81	465.77
558.98	451.72
559.14	428.32
559.31	381.51
559.47	461.09
559.64	379.17
559.80	430.66
559.97	442.36
560.13	433.00
560.30	421.30
560.46	503.22
560.63	411.93
560.79	400.23
560.96	374.49
561.12	367.46
561.29	433.00
561.45	486.83
561.61	379.17
561.78	475.13
561.94	369.80
562.11	402.57
562.27	383.85
562.44	400.23
562.60	468.11
562.77	489.17
562.93	486.83
563.10	400.23
563.26	440.02
563.42	433.00
563.59	449.38
563.75	393.21
563.92	381.51
564.08	447.04
564.24	444.70
564.41	519.60
564.57	379.17
564.74	393.21
564.90	458.74
565.07	435.34
565.23	479.81
565.39	468.11
565.56	421.30
565.72	496.19
565.88	409.59
566.05	379.17
566.21	416.62
566.38	414.27
566.54	383.85
566.70	381.51
566.87	395.55
567.03	393.21
567.19	430.66
567.36	447.04
567.52	428.32
567.68	447.04
567.85	376.83
568.01	458.74
568.17	381.51
568.34	454.06
568.50	411.93
568.66	435.34
568.83	468.11
568.99	409.59
569.15	351.08
569.32	362.78
569.48	374.49
569.64	390.87
569.81	393.21
569.97	388.53
570.13	409.59
570.30	428.32
570.46	416.62
570.62	428.32
570.78	404.91
570.95	416.62
571.11	468.11
571.27	418.96
571.43	386.19
571.60	477.47
571.76	372.15
571.92	491.51
572.09	451.72
572.25	402.57
572.41	430.66
572.57	414.27
572.74	451.72
572.90	465.77
573.06	365.12
573.22	418.96
573.38	425.98
573.55	440.02
573.71	510.24
573.87	425.98
574.03	442.36
574.20	379.17
574.36	444.70
574.52	374.49
574.68	355.76
574.84	393.21
575.01	395.55
575.17	451.72
575.33	433.00
575.49	440.02
575.65	386.19
575.82	414.27
575.98	449.38
576.14	468.11
576.30	437.68
576.46	447.04
576.62	369.80
576.79	423.64
576.95	472.79
577.11	390.87
577.27	456.40
577.43	397.89
577.59	411.93
577.75	416.62
577.92	369.80
578.08	442.36
578.24	465.77
578.40	475.13
578.56	414.27
578.72	425.98
578.88	400.23
579.04	374.49
579.21	440.02
579.37	381.51
579.53	390.87
579.69	489.17
579.85	416.62
580.01	395.55
580.17	428.32
580.33	451.72
580.49	390.87
580.65	435.34
580.82	376.83
580.98	369.80
581.14	507.90
581.30	447.04
581.46	454.06
581.62	463.43
581.78	367.46
581.94	374.49
582.10	397.89
582.26	454.06
582.42	395.55
582.58	407.25
582.74	358.10
582.90	376.83
583.06	423.64
583.22	451.72
583.38	470.45
583.54	425.98
583.70	397.89
583.86	400.23
584.02	418.96
584.18	521.94
584.34	472.79
584.50	451.72
584.66	428.32
584.82	447.04
584.98	372.15
585.14	430.66
585.30	484.49
585.46	423.64
585.62	423.64
585.78	411.93
585.94	435.34
586.10	390.87
586.26	353.42
586.42	449.38
586.58	402.57
586.74	407.25
586.90	425.98
587.06	411.93
587.22	414.27
587.38	470.45
587.54	390.87
587.70	397.89
587.86	437.68
588.02	465.77
588.18	449.38
588.34	442.36
588.49	411.93
588.65	433.00
588.81	435.34
588.97	367.46
589.13	458.74
589.29	388.53
589.45	475.13
589.61	449.38
589.77	444.70
589.93	430.66
590.08	372.15
590.24	430.66
590.40	395.55
590.56	381.51
590.72	393.21
590.88	416.62
591.04	423.64
591.20	358.10
591.35	404.91
591.51	491.51
591.67	374.49
591.83	341.72
591.99	489.17
592.15	505.56
592.31	423.64
592.46	430.66
592.62	404.91
592.78	379.17
592.94	442.36
593.10	395.55
593.26	395.55
593.41	428.32
593.57	379.17
593.73	433.00
593.89	425.98
594.05	393.21
594.20	381.51
594.36	465.77
594.52	386.19
594.68	458.74
594.84	468.11
594.99	498.53
595.15	442.36
595.31	435.34
595.47	437.68
595.62	458.74
595.78	390.87
595.94	475.13
596.10	397.89
596.25	425.98
596.41	451.72
596.57	374.49
596.73	435.34
596.88	341.72
597.04	372.15
597.20	383.85
597.36	458.74
597.51	407.25
597.67	402.57
597.83	440.02
597.99	416.62
598.14	428.32
598.30	472.79
598.46	362.78
598.61	444.70
598.77	379.17
598.93	428.32
599.09	484.49
599.24	414.27
599.40	346.40
599.56	374.49
599.71	437.68
599.87	521.94
600.03	397.89
600.18	395.55
600.34	430.66
600.50	414.27
600.65	402.57
600.81	418.96
600.97	416.62
601.12	355.76
601.28	505.56
601.44	367.46
601.59	374.49
601.75	414.27
601.91	400.23
602.06	479.81
602.22	470.45
602.37	456.40
602.53	458.74
602.69	388.53
602.84	390.87
603.00	447.04
603.16	449.38
603.31	400.23
603.47	437.68
603.62	411.93
603.78	472.79
603.94	468.11
604.09	383.85
604.25	430.66
604.40	444.70
604.56	402.57
604.71	372.15
604.87	362.78
605.03	423.64
605.18	433.00
605.34	477.47
605.49	440.02
605.65	383.85
605.80	470.45
605.96	393.21
606.12	393.21
606.27	428.32
606.43	437.68
606.58	458.74
606.74	440.02
606.89	447.04
607.05	388.53
607.20	402.57
607.36	449.38
607.51	407.25
607.67	411.93
607.82	444.70
607.98	505.56
608.13	461.09
608.29	451.72
608.44	435.34
608.60	383.85
608.75	418.96
608.91	477.47
609.06	425.98
609.22	472.79
609.37	388.53
609.53	440.02
609.68	390.87
609.84	421.30
609.99	430.66
610.15	447.04
