SpectraSuite Data File
++++++++++++++++++++++++++++++++++++
Date: Fri Oct 25 12:10:26 EDT 2013
User: price-jones
Dark Spectrum Present: No
Reference Spectrum Present: No
Number of Sampled Component Spectra: 1
Spectrometers: USB2+H05261
Integration Time (usec): 100000 (USB2+H05261)
Spectra Averaged: 1 (USB2+H05261)
Boxcar Smoothing: 0 (USB2+H05261)
Correct for Electrical Dark: No (USB2+H05261)
Strobe/Lamp Enabled: No (USB2+H05261)
Correct for Detector Non-linearity: No (USB2+H05261)
Correct for Stray Light: No (USB2+H05261)
Number of Pixels in Processed Spectrum: 2048
>>>>>Begin Processed Spectral Data<<<<<
365.73	362.78
365.92	362.78
366.12	362.78
366.32	215.33
366.52	238.73
366.72	229.37
366.91	145.11
367.11	198.95
367.31	201.29
367.51	278.52
367.70	250.44
367.90	278.52
368.10	208.31
368.30	201.29
368.49	248.10
368.69	280.86
368.89	290.23
369.09	208.31
369.28	215.33
369.48	346.40
369.68	250.44
369.87	278.52
370.07	341.72
370.27	346.40
370.47	390.87
370.66	325.33
370.86	322.99
371.06	418.96
371.25	393.21
371.45	402.57
371.65	374.49
371.84	327.68
372.04	360.44
372.24	358.10
372.44	386.19
372.63	402.57
372.83	416.62
373.03	386.19
373.22	440.02
373.42	407.25
373.62	421.30
373.81	430.66
374.01	430.66
374.21	430.66
374.40	433.00
374.60	428.32
374.79	440.02
374.99	496.19
375.19	402.57
375.38	390.87
375.58	440.02
375.78	411.93
375.97	322.99
376.17	379.17
376.37	411.93
376.56	425.98
376.76	437.68
376.95	411.93
377.15	402.57
377.35	395.55
377.54	421.30
377.74	379.17
377.93	437.68
378.13	442.36
378.33	444.70
378.52	400.23
378.72	388.53
378.91	425.98
379.11	400.23
379.31	449.38
379.50	393.21
379.70	393.21
379.89	454.06
380.09	393.21
380.28	423.64
380.48	414.27
380.68	381.51
380.87	418.96
381.07	348.74
381.26	461.09
381.46	442.36
381.65	440.02
381.85	454.06
382.04	425.98
382.24	465.77
382.43	400.23
382.63	374.49
382.83	348.74
383.02	379.17
383.22	393.21
383.41	402.57
383.61	440.02
383.80	468.11
384.00	369.80
384.19	425.98
384.39	362.78
384.58	428.32
384.78	409.59
384.97	395.55
385.17	395.55
385.36	437.68
385.56	393.21
385.75	330.02
385.95	383.85
386.14	383.85
386.34	367.46
386.53	348.74
386.72	458.74
386.92	449.38
387.11	407.25
387.31	425.98
387.50	388.53
387.70	379.17
387.89	376.83
388.09	334.70
388.28	381.51
388.48	376.83
388.67	407.25
388.86	411.93
389.06	374.49
389.25	381.51
389.45	390.87
389.64	346.40
389.84	437.68
390.03	360.44
390.22	402.57
390.42	320.65
390.61	376.83
390.81	400.23
391.00	369.80
391.19	348.74
391.39	318.31
391.58	449.38
391.78	369.80
391.97	444.70
392.16	374.49
392.36	463.43
392.55	461.09
392.75	503.22
392.94	468.11
393.13	379.17
393.33	404.91
393.52	454.06
393.71	409.59
393.91	407.25
394.10	449.38
394.29	425.98
394.49	407.25
394.68	362.78
394.88	482.15
395.07	451.72
395.26	369.80
395.46	337.04
395.65	372.15
395.84	442.36
396.04	442.36
396.23	369.80
396.42	362.78
396.62	372.15
396.81	355.76
397.00	395.55
397.19	414.27
397.39	409.59
397.58	416.62
397.77	397.89
397.97	383.85
398.16	442.36
398.35	435.34
398.55	425.98
398.74	418.96
398.93	437.68
399.12	425.98
399.32	393.21
399.51	395.55
399.70	421.30
399.90	449.38
400.09	463.43
400.28	409.59
400.47	458.74
400.67	374.49
400.86	404.91
401.05	409.59
401.24	463.43
401.44	435.34
401.63	449.38
401.82	393.21
402.01	390.87
402.21	416.62
402.40	344.06
402.59	393.21
402.78	449.38
402.97	416.62
403.17	421.30
403.36	400.23
403.55	411.93
403.74	409.59
403.93	461.09
404.13	367.46
404.32	421.30
404.51	442.36
404.70	484.49
404.89	351.08
405.09	423.64
405.28	409.59
405.47	456.40
405.66	458.74
405.85	416.62
406.05	334.70
406.24	444.70
406.43	344.06
406.62	477.47
406.81	407.25
407.00	421.30
407.20	397.89
407.39	376.83
407.58	393.21
407.77	496.19
407.96	444.70
408.15	440.02
408.34	423.64
408.54	386.19
408.73	397.89
408.92	393.21
409.11	444.70
409.30	456.40
409.49	395.55
409.68	416.62
409.87	454.06
410.07	442.36
410.26	447.04
410.45	433.00
410.64	341.72
410.83	402.57
411.02	418.96
411.21	390.87
411.40	414.27
411.59	404.91
411.78	451.72
411.98	407.25
412.17	390.87
412.36	451.72
412.55	428.32
412.74	393.21
412.93	423.64
413.12	390.87
413.31	423.64
413.50	444.70
413.69	454.06
413.88	465.77
414.07	435.34
414.26	428.32
414.45	355.76
414.64	390.87
414.83	461.09
415.02	393.21
415.22	477.47
415.41	395.55
415.60	362.78
415.79	393.21
415.98	461.09
416.17	454.06
416.36	381.51
416.55	404.91
416.74	472.79
416.93	362.78
417.12	489.17
417.31	456.40
417.50	411.93
417.69	465.77
417.88	404.91
418.07	402.57
418.26	353.42
418.45	397.89
418.64	430.66
418.83	428.32
419.02	390.87
419.21	428.32
419.39	411.93
419.58	365.12
419.77	358.10
419.96	423.64
420.15	425.98
420.34	411.93
420.53	418.96
420.72	531.30
420.91	435.34
421.10	411.93
421.29	355.76
421.48	327.68
421.67	372.15
421.86	440.02
422.05	407.25
422.24	365.12
422.43	461.09
422.61	425.98
422.80	407.25
422.99	437.68
423.18	341.72
423.37	418.96
423.56	397.89
423.75	418.96
423.94	358.10
424.13	407.25
424.32	388.53
424.50	379.17
424.69	404.91
424.88	379.17
425.07	416.62
425.26	486.83
425.45	411.93
425.64	423.64
425.83	409.59
426.01	479.81
426.20	505.56
426.39	414.27
426.58	433.00
426.77	372.15
426.96	304.27
427.15	404.91
427.33	327.68
427.52	442.36
427.71	369.80
427.90	395.55
428.09	428.32
428.28	470.45
428.46	472.79
428.65	430.66
428.84	402.57
429.03	451.72
429.22	423.64
429.40	397.89
429.59	372.15
429.78	491.51
429.97	449.38
430.16	440.02
430.34	388.53
430.53	402.57
430.72	423.64
430.91	463.43
431.10	388.53
431.28	383.85
431.47	442.36
431.66	346.40
431.85	381.51
432.03	440.02
432.22	456.40
432.41	397.89
432.60	407.25
432.79	386.19
432.97	444.70
433.16	421.30
433.35	423.64
433.54	433.00
433.72	365.12
433.91	402.57
434.10	409.59
434.28	400.23
434.47	348.74
434.66	428.32
434.85	407.25
435.03	465.77
435.22	437.68
435.41	463.43
435.59	484.49
435.78	360.44
435.97	435.34
436.16	428.32
436.34	407.25
436.53	379.17
436.72	404.91
436.90	421.30
437.09	334.70
437.28	423.64
437.46	383.85
437.65	390.87
437.84	472.79
438.02	365.12
438.21	400.23
438.40	369.80
438.58	358.10
438.77	442.36
438.96	482.15
439.14	468.11
439.33	461.09
439.52	472.79
439.70	454.06
439.89	423.64
440.08	444.70
440.26	358.10
440.45	409.59
440.63	395.55
440.82	397.89
441.01	437.68
441.19	376.83
441.38	418.96
441.57	437.68
441.75	430.66
441.94	472.79
442.12	407.25
442.31	400.23
442.50	416.62
442.68	435.34
442.87	374.49
443.05	425.98
443.24	449.38
443.43	393.21
443.61	486.83
443.80	402.57
443.98	390.87
444.17	344.06
444.35	472.79
444.54	414.27
444.73	367.46
444.91	482.15
445.10	376.83
445.28	411.93
445.47	428.32
445.65	435.34
445.84	440.02
446.02	451.72
446.21	390.87
446.39	416.62
446.58	437.68
446.77	393.21
446.95	486.83
447.14	397.89
447.32	409.59
447.51	430.66
447.69	444.70
447.88	423.64
448.06	376.83
448.25	447.04
448.43	388.53
448.62	449.38
448.80	414.27
448.99	433.00
449.17	411.93
449.36	421.30
449.54	411.93
449.73	332.36
449.91	444.70
450.10	496.19
450.28	475.13
450.46	498.53
450.65	421.30
450.83	451.72
451.02	346.40
451.20	423.64
451.39	458.74
451.57	416.62
451.76	449.38
451.94	447.04
452.13	435.34
452.31	465.77
452.49	407.25
452.68	463.43
452.86	409.59
453.05	414.27
453.23	433.00
453.42	491.51
453.60	458.74
453.78	493.85
453.97	388.53
454.15	376.83
454.34	353.42
454.52	397.89
454.70	449.38
454.89	393.21
455.07	369.80
455.26	407.25
455.44	393.21
455.62	341.72
455.81	421.30
455.99	414.27
456.17	451.72
456.36	428.32
456.54	404.91
456.73	458.74
456.91	381.51
457.09	428.32
457.28	393.21
457.46	404.91
457.64	362.78
457.83	374.49
458.01	402.57
458.19	470.45
458.38	374.49
458.56	409.59
458.74	400.23
458.93	451.72
459.11	369.80
459.29	360.44
459.48	461.09
459.66	404.91
459.84	437.68
460.03	484.49
460.21	484.49
460.39	411.93
460.57	468.11
460.76	369.80
460.94	423.64
461.12	374.49
461.31	430.66
461.49	421.30
461.67	383.85
461.85	376.83
462.04	421.30
462.22	779.40
462.40	430.66
462.59	507.90
462.77	418.96
462.95	367.46
463.13	409.59
463.32	383.85
463.50	444.70
463.68	418.96
463.86	444.70
464.05	386.19
464.23	442.36
464.41	360.44
464.59	458.74
464.78	374.49
464.96	355.76
465.14	400.23
465.32	425.98
465.50	379.17
465.69	388.53
465.87	414.27
466.05	423.64
466.23	360.44
466.41	407.25
466.60	400.23
466.78	449.38
466.96	416.62
467.14	423.64
467.32	430.66
467.51	433.00
467.69	477.47
467.87	444.70
468.05	458.74
468.23	498.53
468.41	397.89
468.60	395.55
468.78	442.36
468.96	435.34
469.14	440.02
469.32	374.49
469.50	440.02
469.69	386.19
469.87	440.02
470.05	416.62
470.23	381.51
470.41	318.31
470.59	423.64
470.77	458.74
470.95	423.64
471.14	409.59
471.32	337.04
471.50	416.62
471.68	402.57
471.86	486.83
472.04	451.72
472.22	428.32
472.40	440.02
472.58	418.96
472.77	400.23
472.95	454.06
473.13	372.15
473.31	449.38
473.49	407.25
473.67	402.57
473.85	440.02
474.03	449.38
474.21	390.87
474.39	339.38
474.57	423.64
474.75	379.17
474.93	341.72
475.12	383.85
475.30	416.62
475.48	491.51
475.66	386.19
475.84	430.66
476.02	442.36
476.20	379.17
476.38	416.62
476.56	484.49
476.74	358.10
476.92	433.00
477.10	454.06
477.28	430.66
477.46	365.12
477.64	451.72
477.82	461.09
478.00	414.27
478.18	433.00
478.36	339.38
478.54	320.65
478.72	428.32
478.90	440.02
479.08	407.25
479.26	369.80
479.44	442.36
479.62	493.85
479.80	365.12
479.98	395.55
480.16	351.08
480.34	500.87
480.52	411.93
480.70	440.02
480.88	358.10
481.06	395.55
481.24	395.55
481.41	482.15
481.59	421.30
481.77	418.96
481.95	458.74
482.13	489.17
482.31	421.30
482.49	423.64
482.67	458.74
482.85	433.00
483.03	400.23
483.21	482.15
483.39	369.80
483.57	407.25
483.74	461.09
483.92	376.83
484.10	386.19
484.28	404.91
484.46	423.64
484.64	360.44
484.82	337.04
485.00	414.27
485.18	400.23
485.35	379.17
485.53	442.36
485.71	437.68
485.89	425.98
486.07	458.74
486.25	470.45
486.43	430.66
486.61	414.27
486.78	472.79
486.96	372.15
487.14	339.38
487.32	421.30
487.50	454.06
487.68	369.80
487.85	430.66
488.03	416.62
488.21	458.74
488.39	449.38
488.57	407.25
488.75	421.30
488.92	545.34
489.10	397.89
489.28	397.89
489.46	358.10
489.64	360.44
489.81	435.34
489.99	411.93
490.17	351.08
490.35	435.34
490.53	381.51
490.70	475.13
490.88	430.66
491.06	386.19
491.24	442.36
491.41	496.19
491.59	390.87
491.77	402.57
491.95	372.15
492.13	418.96
492.30	409.59
492.48	440.02
492.66	435.34
492.84	353.42
493.01	376.83
493.19	404.91
493.37	383.85
493.54	496.19
493.72	372.15
493.90	407.25
494.08	327.68
494.25	423.64
494.43	428.32
494.61	465.77
494.79	430.66
494.96	449.38
495.14	454.06
495.32	428.32
495.49	386.19
495.67	425.98
495.85	322.99
496.02	411.93
496.20	421.30
496.38	360.44
496.55	397.89
496.73	369.80
496.91	379.17
497.09	440.02
497.26	397.89
497.44	456.40
497.62	416.62
497.79	355.76
497.97	416.62
498.14	433.00
498.32	465.77
498.50	435.34
498.67	449.38
498.85	428.32
499.03	388.53
499.20	337.04
499.38	428.32
499.56	447.04
499.73	475.13
499.91	351.08
500.08	390.87
500.26	374.49
500.44	379.17
500.61	362.78
500.79	376.83
500.97	374.49
501.14	440.02
501.32	437.68
501.49	465.77
501.67	444.70
501.84	383.85
502.02	374.49
502.20	411.93
502.37	451.72
502.55	433.00
502.72	325.33
502.90	365.12
503.07	386.19
503.25	442.36
503.43	409.59
503.60	358.10
503.78	379.17
503.95	411.93
504.13	444.70
504.30	404.91
504.48	461.09
504.65	414.27
504.83	472.79
505.01	351.08
505.18	493.85
505.36	468.11
505.53	404.91
505.71	397.89
505.88	510.24
506.06	414.27
506.23	444.70
506.41	418.96
506.58	461.09
506.76	395.55
506.93	440.02
507.11	404.91
507.28	402.57
507.46	447.04
507.63	475.13
507.81	407.25
507.98	414.27
508.16	386.19
508.33	416.62
508.50	449.38
508.68	416.62
508.85	482.15
509.03	367.46
509.20	390.87
509.38	395.55
509.55	404.91
509.73	519.60
509.90	503.22
510.08	351.08
510.25	381.51
510.42	404.91
510.60	393.21
510.77	369.80
510.95	472.79
511.12	379.17
511.30	505.56
511.47	411.93
511.64	400.23
511.82	395.55
511.99	393.21
512.17	428.32
512.34	454.06
512.51	418.96
512.69	414.27
512.86	435.34
513.04	372.15
513.21	463.43
513.38	395.55
513.56	491.51
513.73	376.83
513.90	402.57
514.08	355.76
514.25	421.30
514.43	472.79
514.60	374.49
514.77	353.42
514.95	327.68
515.12	376.83
515.29	449.38
515.47	402.57
515.64	411.93
515.81	379.17
515.99	440.02
516.16	430.66
516.33	482.15
516.51	395.55
516.68	454.06
516.85	383.85
517.03	386.19
517.20	402.57
517.37	423.64
517.54	418.96
517.72	383.85
517.89	437.68
518.06	397.89
518.24	393.21
518.41	428.32
518.58	437.68
518.75	409.59
518.93	449.38
519.10	451.72
519.27	416.62
519.45	451.72
519.62	367.46
519.79	379.17
519.96	374.49
520.14	444.70
520.31	423.64
520.48	351.08
520.65	369.80
520.83	308.95
521.00	416.62
521.17	498.53
521.34	524.28
521.52	435.34
521.69	376.83
521.86	421.30
522.03	425.98
522.20	444.70
522.38	470.45
522.55	393.21
522.72	454.06
522.89	447.04
523.07	475.13
523.24	454.06
523.41	470.45
523.58	369.80
523.75	447.04
523.92	421.30
524.10	447.04
524.27	374.49
524.44	379.17
524.61	433.00
524.78	430.66
524.96	388.53
525.13	437.68
525.30	381.51
525.47	337.04
525.64	430.66
525.81	351.08
525.98	428.32
526.16	437.68
526.33	365.12
526.50	435.34
526.67	416.62
526.84	337.04
527.01	372.15
527.18	383.85
527.36	355.76
527.53	339.38
527.70	440.02
527.87	355.76
528.04	437.68
528.21	367.46
528.38	374.49
528.55	367.46
528.72	437.68
528.89	407.25
529.07	374.49
529.24	414.27
529.41	444.70
529.58	421.30
529.75	409.59
529.92	454.06
530.09	411.93
530.26	482.15
530.43	449.38
530.60	479.81
530.77	421.30
530.94	454.06
531.11	468.11
531.28	463.43
531.46	470.45
531.63	402.57
531.80	451.72
531.97	416.62
532.14	376.83
532.31	498.53
532.48	416.62
532.65	433.00
532.82	470.45
532.99	388.53
533.16	376.83
533.33	463.43
533.50	428.32
533.67	442.36
533.84	449.38
534.01	395.55
534.18	416.62
534.35	362.78
534.52	341.72
534.69	397.89
534.86	484.49
535.03	423.64
535.20	360.44
535.37	374.49
535.54	447.04
535.71	400.23
535.88	397.89
536.05	456.40
536.22	442.36
536.38	423.64
536.55	416.62
536.72	425.98
536.89	414.27
537.06	425.98
537.23	433.00
537.40	400.23
537.57	383.85
537.74	465.77
537.91	526.62
538.08	428.32
538.25	440.02
538.42	400.23
538.59	463.43
538.75	381.51
538.92	435.34
539.09	491.51
539.26	407.25
539.43	437.68
539.60	425.98
539.77	472.79
539.94	433.00
540.11	463.43
540.28	400.23
540.44	414.27
540.61	442.36
540.78	351.08
540.95	430.66
541.12	407.25
541.29	348.74
541.46	449.38
541.62	407.25
541.79	409.59
541.96	348.74
542.13	379.17
542.30	463.43
542.47	440.02
542.63	407.25
542.80	433.00
542.97	440.02
543.14	414.27
543.31	407.25
543.48	404.91
543.64	430.66
543.81	407.25
543.98	454.06
544.15	365.12
544.32	407.25
544.48	402.57
544.65	381.51
544.82	390.87
544.99	407.25
545.16	451.72
545.32	449.38
545.49	372.15
545.66	358.10
545.83	379.17
546.00	395.55
546.16	491.51
546.33	388.53
546.50	449.38
546.67	482.15
546.83	409.59
547.00	367.46
547.17	376.83
547.34	402.57
547.50	400.23
547.67	374.49
547.84	463.43
548.00	400.23
548.17	440.02
548.34	388.53
548.51	500.87
548.67	421.30
548.84	437.68
549.01	475.13
549.18	517.26
549.34	456.40
549.51	435.34
549.68	400.23
549.84	463.43
550.01	360.44
550.18	421.30
550.34	433.00
550.51	484.49
550.68	477.47
550.84	388.53
551.01	463.43
551.18	425.98
551.34	390.87
551.51	379.17
551.68	411.93
551.84	479.81
552.01	416.62
552.18	451.72
552.34	416.62
552.51	365.12
552.68	430.66
552.84	421.30
553.01	440.02
553.18	418.96
553.34	379.17
553.51	407.25
553.67	383.85
553.84	479.81
554.01	498.53
554.17	470.45
554.34	376.83
554.51	451.72
554.67	421.30
554.84	376.83
555.00	355.76
555.17	376.83
555.33	470.45
555.50	386.19
555.67	491.51
555.83	458.74
556.00	416.62
556.16	533.64
556.33	440.02
556.50	386.19
556.66	423.64
556.83	404.91
556.99	449.38
557.16	449.38
557.32	376.83
557.49	430.66
557.65	456.40
557.82	411.93
557.98	372.15
558.15	362.78
558.32	489.17
558.48	381.51
558.65	458.74
558.81	486.83
558.98	383.85
559.14	421.30
559.31	409.59
559.47	409.59
559.64	468.11
559.80	407.25
559.97	430.66
560.13	374.49
560.30	348.74
560.46	458.74
560.63	418.96
560.79	400.23
560.96	400.23
561.12	409.59
561.29	386.19
561.45	423.64
561.61	449.38
561.78	414.27
561.94	404.91
562.11	397.89
562.27	407.25
562.44	411.93
562.60	386.19
562.77	442.36
562.93	486.83
563.10	440.02
563.26	404.91
563.42	512.58
563.59	437.68
563.75	447.04
563.92	407.25
564.08	383.85
564.24	402.57
564.41	430.66
564.57	493.85
564.74	369.80
564.90	444.70
565.07	388.53
565.23	346.40
565.39	301.93
565.56	358.10
565.72	355.76
565.88	456.40
566.05	393.21
566.21	397.89
566.38	444.70
566.54	414.27
566.70	418.96
566.87	416.62
567.03	320.65
567.19	430.66
567.36	325.33
567.52	461.09
567.68	407.25
567.85	437.68
568.01	479.81
568.17	355.76
568.34	393.21
568.50	451.72
568.66	451.72
568.83	414.27
568.99	348.74
569.15	449.38
569.32	421.30
569.48	369.80
569.64	393.21
569.81	369.80
569.97	454.06
570.13	386.19
570.30	348.74
570.46	381.51
570.62	482.15
570.78	411.93
570.95	465.77
571.11	447.04
571.27	390.87
571.43	435.34
571.60	498.53
571.76	435.34
571.92	440.02
572.09	447.04
572.25	367.46
572.41	416.62
572.57	411.93
572.74	477.47
572.90	465.77
573.06	489.17
573.22	465.77
573.38	428.32
573.55	430.66
573.71	442.36
573.87	491.51
574.03	388.53
574.20	332.36
574.36	468.11
574.52	451.72
574.68	425.98
574.84	470.45
575.01	421.30
575.17	461.09
575.33	449.38
575.49	435.34
575.65	442.36
575.82	428.32
575.98	470.45
576.14	404.91
576.30	435.34
576.46	409.59
576.62	379.17
576.79	393.21
576.95	489.17
577.11	397.89
577.27	400.23
577.43	477.47
577.59	456.40
577.75	351.08
577.92	421.30
578.08	407.25
578.24	367.46
578.40	479.81
578.56	362.78
578.72	444.70
578.88	449.38
579.04	372.15
579.21	395.55
579.37	418.96
579.53	390.87
579.69	437.68
579.85	484.49
580.01	465.77
580.17	421.30
580.33	355.76
580.49	388.53
580.65	463.43
580.82	416.62
580.98	386.19
581.14	482.15
581.30	435.34
581.46	421.30
581.62	454.06
581.78	437.68
581.94	362.78
582.10	416.62
582.26	400.23
582.42	376.83
582.58	435.34
582.74	435.34
582.90	411.93
583.06	397.89
583.22	379.17
583.38	397.89
583.54	360.44
583.70	442.36
583.86	376.83
584.02	442.36
584.18	461.09
584.34	418.96
584.50	383.85
584.66	442.36
584.82	423.64
584.98	433.00
585.14	444.70
585.30	430.66
585.46	388.53
585.62	397.89
585.78	458.74
585.94	461.09
586.10	351.08
586.26	461.09
586.42	491.51
586.58	430.66
586.74	510.24
586.90	404.91
587.06	472.79
587.22	470.45
587.38	430.66
587.54	355.76
587.70	404.91
587.86	383.85
588.02	425.98
588.18	451.72
588.34	454.06
588.49	395.55
588.65	428.32
588.81	444.70
588.97	402.57
589.13	463.43
589.29	472.79
589.45	456.40
589.61	407.25
589.77	461.09
589.93	425.98
590.08	418.96
590.24	430.66
590.40	395.55
590.56	486.83
590.72	425.98
590.88	369.80
591.04	402.57
591.20	372.15
591.35	493.85
591.51	416.62
591.67	388.53
591.83	451.72
591.99	449.38
592.15	442.36
592.31	334.70
592.46	374.49
592.62	421.30
592.78	447.04
592.94	468.11
593.10	390.87
593.26	482.15
593.41	351.08
593.57	493.85
593.73	404.91
593.89	435.34
594.05	407.25
594.20	374.49
594.36	416.62
594.52	440.02
594.68	486.83
594.84	496.19
594.99	472.79
595.15	407.25
595.31	386.19
595.47	440.02
595.62	367.46
595.78	379.17
595.94	409.59
596.10	437.68
596.25	486.83
596.41	428.32
596.57	411.93
596.73	400.23
596.88	468.11
597.04	393.21
597.20	365.12
597.36	411.93
597.51	428.32
597.67	386.19
597.83	402.57
597.99	449.38
598.14	475.13
598.30	395.55
598.46	477.47
598.61	433.00
598.77	395.55
598.93	428.32
599.09	435.34
599.24	430.66
599.40	428.32
599.56	475.13
599.71	430.66
599.87	362.78
600.03	397.89
600.18	376.83
600.34	491.51
600.50	421.30
600.65	358.10
600.81	383.85
600.97	425.98
601.12	355.76
601.28	374.49
601.44	475.13
601.59	440.02
601.75	386.19
601.91	374.49
602.06	397.89
602.22	500.87
602.37	454.06
602.53	388.53
602.69	421.30
602.84	418.96
603.00	393.21
603.16	463.43
603.31	470.45
603.47	400.23
603.62	402.57
603.78	369.80
603.94	395.55
604.09	365.12
604.25	437.68
604.40	388.53
604.56	440.02
604.71	409.59
604.87	425.98
605.03	411.93
605.18	404.91
605.34	430.66
605.49	407.25
605.65	397.89
605.80	407.25
605.96	430.66
606.12	444.70
606.27	411.93
606.43	433.00
606.58	451.72
606.74	402.57
606.89	395.55
607.05	456.40
607.20	449.38
607.36	447.04
607.51	409.59
607.67	372.15
607.82	390.87
607.98	475.13
608.13	402.57
608.29	477.47
608.44	472.79
608.60	482.15
608.75	442.36
608.91	444.70
609.06	428.32
609.22	433.00
609.37	339.38
609.53	397.89
609.68	402.57
609.84	390.87
609.99	390.87
610.15	383.85
