SpectraSuite Data File
++++++++++++++++++++++++++++++++++++
Date: Fri Oct 25 12:10:07 EDT 2013
User: price-jones
Dark Spectrum Present: No
Reference Spectrum Present: No
Number of Sampled Component Spectra: 1
Spectrometers: USB2+H05261
Integration Time (usec): 100000 (USB2+H05261)
Spectra Averaged: 1 (USB2+H05261)
Boxcar Smoothing: 0 (USB2+H05261)
Correct for Electrical Dark: No (USB2+H05261)
Strobe/Lamp Enabled: No (USB2+H05261)
Correct for Detector Non-linearity: No (USB2+H05261)
Correct for Stray Light: No (USB2+H05261)
Number of Pixels in Processed Spectrum: 2048
>>>>>Begin Processed Spectral Data<<<<<
365.73	325.33
365.92	325.33
366.12	325.33
366.32	273.84
366.52	252.78
366.72	301.93
366.91	236.39
367.11	248.10
367.31	227.03
367.51	173.20
367.70	234.05
367.90	301.93
368.10	252.78
368.30	222.35
368.49	243.42
368.69	238.73
368.89	276.18
369.09	245.76
369.28	287.89
369.48	294.91
369.68	241.08
369.87	360.44
370.07	344.06
370.27	318.31
370.47	325.33
370.66	292.57
370.86	428.32
371.06	278.52
371.25	358.10
371.45	320.65
371.65	411.93
371.84	374.49
372.04	390.87
372.24	341.72
372.44	416.62
372.63	454.06
372.83	484.49
373.03	386.19
373.22	468.11
373.42	470.45
373.62	353.42
373.81	430.66
374.01	388.53
374.21	430.66
374.40	418.96
374.60	552.37
374.79	418.96
374.99	500.87
375.19	456.40
375.38	435.34
375.58	367.46
375.78	313.63
375.97	390.87
376.17	353.42
376.37	433.00
376.56	458.74
376.76	393.21
376.95	381.51
377.15	425.98
377.35	362.78
377.54	449.38
377.74	390.87
377.93	383.85
378.13	337.04
378.33	418.96
378.52	484.49
378.72	374.49
378.91	416.62
379.11	353.42
379.31	402.57
379.50	393.21
379.70	376.83
379.89	428.32
380.09	433.00
380.28	402.57
380.48	433.00
380.68	372.15
380.87	383.85
381.07	390.87
381.26	416.62
381.46	372.15
381.65	388.53
381.85	358.10
382.04	327.68
382.24	318.31
382.43	416.62
382.63	372.15
382.83	386.19
383.02	423.64
383.22	433.00
383.41	400.23
383.61	402.57
383.80	411.93
384.00	390.87
384.19	421.30
384.39	447.04
384.58	393.21
384.78	421.30
384.97	397.89
385.17	447.04
385.36	365.12
385.56	454.06
385.75	411.93
385.95	379.17
386.14	397.89
386.34	344.06
386.53	379.17
386.72	344.06
386.92	433.00
387.11	435.34
387.31	414.27
387.50	416.62
387.70	418.96
387.89	393.21
388.09	360.44
388.28	388.53
388.48	437.68
388.67	477.47
388.86	390.87
389.06	367.46
389.25	428.32
389.45	418.96
389.64	407.25
389.84	444.70
390.03	386.19
390.22	390.87
390.42	428.32
390.61	400.23
390.81	346.40
391.00	449.38
391.19	358.10
391.39	404.91
391.58	404.91
391.78	379.17
391.97	390.87
392.16	355.76
392.36	458.74
392.55	425.98
392.75	400.23
392.94	407.25
393.13	414.27
393.33	461.09
393.52	407.25
393.71	376.83
393.91	334.70
394.10	414.27
394.29	355.76
394.49	320.65
394.68	383.85
394.88	442.36
395.07	475.13
395.26	397.89
395.46	411.93
395.65	404.91
395.84	353.42
396.04	472.79
396.23	404.91
396.42	383.85
396.62	430.66
396.81	344.06
397.00	465.77
397.19	447.04
397.39	435.34
397.58	454.06
397.77	390.87
397.97	425.98
398.16	397.89
398.35	409.59
398.55	435.34
398.74	416.62
398.93	404.91
399.12	496.19
399.32	416.62
399.51	379.17
399.70	414.27
399.90	358.10
400.09	388.53
400.28	479.81
400.47	383.85
400.67	397.89
400.86	400.23
401.05	444.70
401.24	430.66
401.44	339.38
401.63	414.27
401.82	381.51
402.01	447.04
402.21	430.66
402.40	416.62
402.59	360.44
402.78	421.30
402.97	414.27
403.17	449.38
403.36	416.62
403.55	381.51
403.74	423.64
403.93	433.00
404.13	435.34
404.32	447.04
404.51	465.77
404.70	334.70
404.89	322.99
405.09	400.23
405.28	475.13
405.47	400.23
405.66	477.47
405.85	407.25
406.05	411.93
406.24	400.23
406.43	372.15
406.62	395.55
406.81	517.26
407.00	503.22
407.20	451.72
407.39	430.66
407.58	386.19
407.77	332.36
407.96	374.49
408.15	360.44
408.34	435.34
408.54	428.32
408.73	393.21
408.92	437.68
409.11	376.83
409.30	367.46
409.49	386.19
409.68	435.34
409.87	409.59
410.07	395.55
410.26	402.57
410.45	365.12
410.64	369.80
410.83	498.53
411.02	425.98
411.21	397.89
411.40	390.87
411.59	402.57
411.78	402.57
411.98	353.42
412.17	416.62
412.36	435.34
412.55	477.47
412.74	388.53
412.93	437.68
413.12	393.21
413.31	484.49
413.50	376.83
413.69	444.70
413.88	409.59
414.07	388.53
414.26	407.25
414.45	409.59
414.64	386.19
414.83	369.80
415.02	379.17
415.22	430.66
415.41	381.51
415.60	372.15
415.79	451.72
415.98	428.32
416.17	367.46
416.36	465.77
416.55	402.57
416.74	369.80
416.93	395.55
417.12	447.04
417.31	386.19
417.50	374.49
417.69	414.27
417.88	320.65
418.07	407.25
418.26	376.83
418.45	491.51
418.64	444.70
418.83	369.80
419.02	411.93
419.21	404.91
419.39	440.02
419.58	381.51
419.77	360.44
419.96	402.57
420.15	433.00
420.34	437.68
420.53	395.55
420.72	451.72
420.91	428.32
421.10	416.62
421.29	390.87
421.48	409.59
421.67	409.59
421.86	376.83
422.05	383.85
422.24	425.98
422.43	430.66
422.61	433.00
422.80	362.78
422.99	444.70
423.18	409.59
423.37	437.68
423.56	454.06
423.75	465.77
423.94	372.15
424.13	322.99
424.32	395.55
424.50	358.10
424.69	409.59
424.88	449.38
425.07	372.15
425.26	327.68
425.45	428.32
425.64	390.87
425.83	381.51
426.01	437.68
426.20	428.32
426.39	444.70
426.58	416.62
426.77	463.43
426.96	421.30
427.15	383.85
427.33	297.25
427.52	397.89
427.71	381.51
427.90	440.02
428.09	374.49
428.28	411.93
428.46	400.23
428.65	440.02
428.84	358.10
429.03	418.96
429.22	437.68
429.40	411.93
429.59	376.83
429.78	423.64
429.97	475.13
430.16	381.51
430.34	381.51
430.53	346.40
430.72	465.77
430.91	383.85
431.10	451.72
431.28	430.66
431.47	428.32
431.66	475.13
431.85	365.12
432.03	451.72
432.22	472.79
432.41	381.51
432.60	393.21
432.79	388.53
432.97	425.98
433.16	337.04
433.35	409.59
433.54	372.15
433.72	374.49
433.91	489.17
434.10	416.62
434.28	421.30
434.47	463.43
434.66	435.34
434.85	428.32
435.03	395.55
435.22	376.83
435.41	421.30
435.59	390.87
435.78	411.93
435.97	409.59
436.16	381.51
436.34	411.93
436.53	463.43
436.72	372.15
436.90	388.53
437.09	390.87
437.28	442.36
437.46	372.15
437.65	407.25
437.84	404.91
438.02	454.06
438.21	472.79
438.40	369.80
438.58	454.06
438.77	475.13
438.96	484.49
439.14	409.59
439.33	423.64
439.52	388.53
439.70	458.74
439.89	482.15
440.08	430.66
440.26	402.57
440.45	393.21
440.63	440.02
440.82	322.99
441.01	346.40
441.19	360.44
441.38	444.70
441.57	409.59
441.75	500.87
441.94	503.22
442.12	416.62
442.31	423.64
442.50	404.91
442.68	411.93
442.87	308.95
443.05	472.79
443.24	388.53
443.43	397.89
443.61	388.53
443.80	390.87
443.98	390.87
444.17	400.23
444.35	425.98
444.54	435.34
444.73	489.17
444.91	479.81
445.10	479.81
445.28	395.55
445.47	386.19
445.65	383.85
445.84	475.13
446.02	411.93
446.21	409.59
446.39	402.57
446.58	362.78
446.77	409.59
446.95	428.32
447.14	372.15
447.32	456.40
447.51	421.30
447.69	360.44
447.88	402.57
448.06	435.34
448.25	451.72
448.43	416.62
448.62	390.87
448.80	400.23
448.99	411.93
449.17	369.80
449.36	435.34
449.54	355.76
449.73	463.43
449.91	425.98
450.10	353.42
450.28	425.98
450.46	425.98
450.65	433.00
450.83	454.06
451.02	337.04
451.20	409.59
451.39	397.89
451.57	423.64
451.76	355.76
451.94	379.17
452.13	414.27
452.31	374.49
452.49	390.87
452.68	409.59
452.86	454.06
453.05	404.91
453.23	404.91
453.42	334.70
453.60	409.59
453.78	484.49
453.97	454.06
454.15	379.17
454.34	472.79
454.52	449.38
454.70	463.43
454.89	489.17
455.07	372.15
455.26	379.17
455.44	421.30
455.62	425.98
455.81	425.98
455.99	440.02
456.17	369.80
456.36	388.53
456.54	411.93
456.73	407.25
456.91	491.51
457.09	414.27
457.28	451.72
457.46	472.79
457.64	374.49
457.83	512.58
458.01	444.70
458.19	423.64
458.38	451.72
458.56	472.79
458.74	479.81
458.93	390.87
459.11	433.00
459.29	472.79
459.48	449.38
459.66	517.26
459.84	355.76
460.03	493.85
460.21	418.96
460.39	393.21
460.57	428.32
460.76	428.32
460.94	397.89
461.12	477.47
461.31	454.06
461.49	402.57
461.67	393.21
461.85	470.45
462.04	435.34
462.22	690.46
462.40	463.43
462.59	430.66
462.77	444.70
462.95	337.04
463.13	381.51
463.32	414.27
463.50	404.91
463.68	421.30
463.86	461.09
464.05	388.53
464.23	409.59
464.41	430.66
464.59	421.30
464.78	428.32
464.96	449.38
465.14	411.93
465.32	437.68
465.50	411.93
465.69	435.34
465.87	379.17
466.05	456.40
466.23	395.55
466.41	411.93
466.60	381.51
466.78	339.38
466.96	407.25
467.14	386.19
467.32	433.00
467.51	411.93
467.69	444.70
467.87	358.10
468.05	475.13
468.23	425.98
468.41	447.04
468.60	437.68
468.78	475.13
468.96	418.96
469.14	383.85
469.32	454.06
469.50	386.19
469.69	416.62
469.87	390.87
470.05	411.93
470.23	397.89
470.41	430.66
470.59	435.34
470.77	470.45
470.95	404.91
471.14	444.70
471.32	402.57
471.50	411.93
471.68	414.27
471.86	416.62
472.04	397.89
472.22	397.89
472.40	411.93
472.58	400.23
472.77	425.98
472.95	404.91
473.13	428.32
473.31	451.72
473.49	362.78
473.67	362.78
473.85	470.45
474.03	416.62
474.21	409.59
474.39	425.98
474.57	423.64
474.75	423.64
474.93	416.62
475.12	320.65
475.30	376.83
475.48	447.04
475.66	372.15
475.84	451.72
476.02	369.80
476.20	421.30
476.38	393.21
476.56	472.79
476.74	421.30
476.92	423.64
477.10	479.81
477.28	388.53
477.46	369.80
477.64	400.23
477.82	348.74
478.00	407.25
478.18	444.70
478.36	358.10
478.54	454.06
478.72	393.21
478.90	353.42
479.08	449.38
479.26	442.36
479.44	374.49
479.62	404.91
479.80	397.89
479.98	379.17
480.16	447.04
480.34	451.72
480.52	386.19
480.70	449.38
480.88	418.96
481.06	486.83
481.24	423.64
481.41	433.00
481.59	498.53
481.77	404.91
481.95	358.10
482.13	444.70
482.31	390.87
482.49	411.93
482.67	409.59
482.85	416.62
483.03	430.66
483.21	414.27
483.39	362.78
483.57	360.44
483.74	409.59
483.92	447.04
484.10	411.93
484.28	383.85
484.46	409.59
484.64	383.85
484.82	397.89
485.00	414.27
485.18	491.51
485.35	388.53
485.53	461.09
485.71	400.23
485.89	475.13
486.07	327.68
486.25	442.36
486.43	440.02
486.61	355.76
486.78	379.17
486.96	365.12
487.14	407.25
487.32	418.96
487.50	416.62
487.68	458.74
487.85	430.66
488.03	456.40
488.21	458.74
488.39	395.55
488.57	430.66
488.75	444.70
488.92	514.92
489.10	390.87
489.28	409.59
489.46	374.49
489.64	367.46
489.81	447.04
489.99	430.66
490.17	390.87
490.35	442.36
490.53	428.32
490.70	344.06
490.88	409.59
491.06	383.85
491.24	416.62
491.41	414.27
491.59	416.62
491.77	339.38
491.95	379.17
492.13	442.36
492.30	369.80
492.48	440.02
492.66	381.51
492.84	404.91
493.01	402.57
493.19	404.91
493.37	409.59
493.54	437.68
493.72	411.93
493.90	433.00
494.08	437.68
494.25	400.23
494.43	418.96
494.61	454.06
494.79	407.25
494.96	393.21
495.14	430.66
495.32	365.12
495.49	409.59
495.67	421.30
495.85	411.93
496.02	430.66
496.20	423.64
496.38	418.96
496.55	390.87
496.73	381.51
496.91	381.51
497.09	477.47
497.26	318.31
497.44	479.81
497.62	414.27
497.79	425.98
497.97	440.02
498.14	461.09
498.32	451.72
498.50	510.24
498.67	454.06
498.85	346.40
499.03	425.98
499.20	423.64
499.38	414.27
499.56	409.59
499.73	379.17
499.91	404.91
500.08	486.83
500.26	383.85
500.44	386.19
500.61	449.38
500.79	444.70
500.97	402.57
501.14	386.19
501.32	383.85
501.49	409.59
501.67	465.77
501.84	360.44
502.02	421.30
502.20	381.51
502.37	411.93
502.55	339.38
502.72	353.42
502.90	402.57
503.07	437.68
503.25	416.62
503.43	395.55
503.60	479.81
503.78	458.74
503.95	465.77
504.13	404.91
504.30	435.34
504.48	456.40
504.65	353.42
504.83	386.19
505.01	461.09
505.18	463.43
505.36	489.17
505.53	395.55
505.71	402.57
505.88	383.85
506.06	362.78
506.23	353.42
506.41	407.25
506.58	409.59
506.76	358.10
506.93	353.42
507.11	393.21
507.28	402.57
507.46	381.51
507.63	421.30
507.81	411.93
507.98	402.57
508.16	444.70
508.33	456.40
508.50	461.09
508.68	440.02
508.85	425.98
509.03	428.32
509.20	376.83
509.38	411.93
509.55	346.40
509.73	351.08
509.90	500.87
510.08	425.98
510.25	463.43
510.42	367.46
510.60	461.09
510.77	425.98
510.95	416.62
511.12	393.21
511.30	423.64
511.47	465.77
511.64	451.72
511.82	404.91
511.99	404.91
512.17	409.59
512.34	411.93
512.51	400.23
512.69	390.87
512.86	402.57
513.04	411.93
513.21	440.02
513.38	393.21
513.56	423.64
513.73	386.19
513.90	407.25
514.08	418.96
514.25	411.93
514.43	465.77
514.60	320.65
514.77	360.44
514.95	379.17
515.12	416.62
515.29	442.36
515.47	416.62
515.64	428.32
515.81	386.19
515.99	421.30
516.16	447.04
516.33	351.08
516.51	381.51
516.68	395.55
516.85	440.02
517.03	458.74
517.20	435.34
517.37	414.27
517.54	444.70
517.72	411.93
517.89	332.36
518.06	428.32
518.24	411.93
518.41	411.93
518.58	365.12
518.75	390.87
518.93	397.89
519.10	397.89
519.27	395.55
519.45	416.62
519.62	402.57
519.79	409.59
519.96	407.25
520.14	440.02
520.31	381.51
520.48	428.32
520.65	402.57
520.83	433.00
521.00	407.25
521.17	470.45
521.34	414.27
521.52	442.36
521.69	444.70
521.86	393.21
522.03	395.55
522.20	498.53
522.38	433.00
522.55	430.66
522.72	322.99
522.89	449.38
523.07	491.51
523.24	454.06
523.41	348.74
523.58	390.87
523.75	428.32
523.92	468.11
524.10	388.53
524.27	510.24
524.44	447.04
524.61	428.32
524.78	435.34
524.96	454.06
525.13	369.80
525.30	421.30
525.47	468.11
525.64	458.74
525.81	454.06
525.98	418.96
526.16	435.34
526.33	388.53
526.50	447.04
526.67	381.51
526.84	407.25
527.01	411.93
527.18	397.89
527.36	390.87
527.53	409.59
527.70	451.72
527.87	411.93
528.04	475.13
528.21	379.17
528.38	503.22
528.55	458.74
528.72	456.40
528.89	475.13
529.07	397.89
529.24	372.15
529.41	456.40
529.58	388.53
529.75	360.44
529.92	423.64
530.09	369.80
530.26	447.04
530.43	393.21
530.60	442.36
530.77	383.85
530.94	456.40
531.11	470.45
531.28	381.51
531.46	386.19
531.63	325.33
531.80	402.57
531.97	458.74
532.14	400.23
532.31	449.38
532.48	428.32
532.65	465.77
532.82	346.40
532.99	346.40
533.16	482.15
533.33	430.66
533.50	435.34
533.67	404.91
533.84	397.89
534.01	339.38
534.18	444.70
534.35	374.49
534.52	407.25
534.69	409.59
534.86	449.38
535.03	358.10
535.20	332.36
535.37	484.49
535.54	447.04
535.71	418.96
535.88	416.62
536.05	379.17
536.22	423.64
536.38	425.98
536.55	411.93
536.72	369.80
536.89	472.79
537.06	479.81
537.23	428.32
537.40	425.98
537.57	433.00
537.74	421.30
537.91	447.04
538.08	414.27
538.25	344.06
538.42	386.19
538.59	379.17
538.75	344.06
538.92	381.51
539.09	362.78
539.26	404.91
539.43	442.36
539.60	383.85
539.77	379.17
539.94	411.93
540.11	402.57
540.28	444.70
540.44	458.74
540.61	444.70
540.78	346.40
540.95	425.98
541.12	397.89
541.29	353.42
541.46	411.93
541.62	411.93
541.79	435.34
541.96	351.08
542.13	395.55
542.30	369.80
542.47	423.64
542.63	390.87
542.80	423.64
542.97	442.36
543.14	395.55
543.31	454.06
543.48	351.08
543.64	475.13
543.81	458.74
543.98	367.46
544.15	402.57
544.32	421.30
544.48	379.17
544.65	458.74
544.82	461.09
544.99	435.34
545.16	475.13
545.32	362.78
545.49	362.78
545.66	418.96
545.83	456.40
546.00	346.40
546.16	381.51
546.33	341.72
546.50	465.77
546.67	456.40
546.83	421.30
547.00	470.45
547.17	404.91
547.34	442.36
547.50	376.83
547.67	379.17
547.84	400.23
548.00	388.53
548.17	496.19
548.34	411.93
548.51	451.72
548.67	435.34
548.84	421.30
549.01	442.36
549.18	348.74
549.34	428.32
549.51	428.32
549.68	388.53
549.84	400.23
550.01	430.66
550.18	510.24
550.34	428.32
550.51	411.93
550.68	465.77
550.84	456.40
551.01	418.96
551.18	472.79
551.34	437.68
551.51	376.83
551.68	395.55
551.84	510.24
552.01	449.38
552.18	400.23
552.34	430.66
552.51	360.44
552.68	423.64
552.84	423.64
553.01	440.02
553.18	383.85
553.34	407.25
553.51	386.19
553.67	421.30
553.84	491.51
554.01	418.96
554.17	454.06
554.34	411.93
554.51	430.66
554.67	414.27
554.84	479.81
555.00	334.70
555.17	404.91
555.33	425.98
555.50	404.91
555.67	400.23
555.83	449.38
556.00	430.66
556.16	517.26
556.33	454.06
556.50	411.93
556.66	416.62
556.83	369.80
556.99	404.91
557.16	465.77
557.32	440.02
557.49	383.85
557.65	353.42
557.82	423.64
557.98	393.21
558.15	423.64
558.32	400.23
558.48	374.49
558.65	390.87
558.81	397.89
558.98	416.62
559.14	437.68
559.31	388.53
559.47	430.66
559.64	400.23
559.80	376.83
559.97	360.44
560.13	327.68
560.30	362.78
560.46	337.04
560.63	418.96
560.79	486.83
560.96	477.47
561.12	407.25
561.29	362.78
561.45	442.36
561.61	451.72
561.78	463.43
561.94	386.19
562.11	458.74
562.27	498.53
562.44	409.59
562.60	395.55
562.77	393.21
562.93	470.45
563.10	447.04
563.26	386.19
563.42	402.57
563.59	449.38
563.75	423.64
563.92	440.02
564.08	414.27
564.24	423.64
564.41	458.74
564.57	435.34
564.74	386.19
564.90	428.32
565.07	442.36
565.23	447.04
565.39	425.98
565.56	442.36
565.72	348.74
565.88	414.27
566.05	395.55
566.21	355.76
566.38	421.30
566.54	404.91
566.70	470.45
566.87	409.59
567.03	414.27
567.19	465.77
567.36	454.06
567.52	421.30
567.68	430.66
567.85	397.89
568.01	414.27
568.17	390.87
568.34	348.74
568.50	465.77
568.66	325.33
568.83	440.02
568.99	454.06
569.15	369.80
569.32	489.17
569.48	458.74
569.64	414.27
569.81	433.00
569.97	456.40
570.13	348.74
570.30	407.25
570.46	433.00
570.62	442.36
570.78	451.72
570.95	395.55
571.11	479.81
571.27	496.19
571.43	451.72
571.60	416.62
571.76	416.62
571.92	376.83
572.09	416.62
572.25	425.98
572.41	447.04
572.57	358.10
572.74	416.62
572.90	433.00
573.06	344.06
573.22	390.87
573.38	477.47
573.55	416.62
573.71	416.62
573.87	510.24
574.03	435.34
574.20	397.89
574.36	451.72
574.52	400.23
574.68	461.09
574.84	423.64
575.01	437.68
575.17	447.04
575.33	365.12
575.49	407.25
575.65	423.64
575.82	484.49
575.98	444.70
576.14	374.49
576.30	397.89
576.46	407.25
576.62	456.40
576.79	402.57
576.95	468.11
577.11	372.15
577.27	416.62
577.43	423.64
577.59	407.25
577.75	421.30
577.92	421.30
578.08	421.30
578.24	416.62
578.40	407.25
578.56	500.87
578.72	512.58
578.88	369.80
579.04	435.34
579.21	325.33
579.37	395.55
579.53	386.19
579.69	444.70
579.85	372.15
580.01	402.57
580.17	386.19
580.33	503.22
580.49	461.09
580.65	465.77
580.82	388.53
580.98	355.76
581.14	381.51
581.30	425.98
581.46	421.30
581.62	477.47
581.78	404.91
581.94	402.57
582.10	425.98
582.26	381.51
582.42	451.72
582.58	402.57
582.74	411.93
582.90	430.66
583.06	418.96
583.22	411.93
583.38	393.21
583.54	379.17
583.70	390.87
583.86	369.80
584.02	386.19
584.18	393.21
584.34	409.59
584.50	411.93
584.66	421.30
584.82	383.85
584.98	449.38
585.14	477.47
585.30	423.64
585.46	472.79
585.62	344.06
585.78	381.51
585.94	463.43
586.10	360.44
586.26	376.83
586.42	479.81
586.58	400.23
586.74	425.98
586.90	418.96
587.06	463.43
587.22	451.72
587.38	390.87
587.54	437.68
587.70	388.53
587.86	365.12
588.02	374.49
588.18	423.64
588.34	414.27
588.49	374.49
588.65	379.17
588.81	390.87
588.97	318.31
589.13	449.38
589.29	381.51
589.45	404.91
589.61	447.04
589.77	414.27
589.93	407.25
590.08	411.93
590.24	386.19
590.40	451.72
590.56	433.00
590.72	397.89
590.88	444.70
591.04	423.64
591.20	411.93
591.35	428.32
591.51	409.59
591.67	423.64
591.83	451.72
591.99	351.08
592.15	428.32
592.31	472.79
592.46	430.66
592.62	475.13
592.78	332.36
592.94	383.85
593.10	362.78
593.26	353.42
593.41	447.04
593.57	397.89
593.73	369.80
593.89	416.62
594.05	383.85
594.20	372.15
594.36	496.19
594.52	381.51
594.68	358.10
594.84	475.13
594.99	496.19
595.15	395.55
595.31	437.68
595.47	491.51
595.62	437.68
595.78	454.06
595.94	486.83
596.10	472.79
596.25	397.89
596.41	339.38
596.57	433.00
596.73	404.91
596.88	468.11
597.04	381.51
597.20	414.27
597.36	465.77
597.51	407.25
597.67	447.04
597.83	393.21
597.99	449.38
598.14	437.68
598.30	493.85
598.46	416.62
598.61	430.66
598.77	395.55
598.93	442.36
599.09	449.38
599.24	418.96
599.40	444.70
599.56	341.72
599.71	395.55
599.87	376.83
600.03	358.10
600.18	428.32
600.34	451.72
600.50	423.64
600.65	414.27
600.81	383.85
600.97	407.25
601.12	456.40
601.28	442.36
601.44	447.04
601.59	430.66
601.75	390.87
601.91	390.87
602.06	330.02
602.22	451.72
602.37	463.43
602.53	397.89
602.69	465.77
602.84	393.21
603.00	496.19
603.16	411.93
603.31	402.57
603.47	472.79
603.62	447.04
603.78	381.51
603.94	472.79
604.09	367.46
604.25	397.89
604.40	477.47
604.56	479.81
604.71	390.87
604.87	383.85
605.03	421.30
605.18	400.23
605.34	454.06
605.49	414.27
605.65	388.53
605.80	430.66
605.96	393.21
606.12	418.96
606.27	337.04
606.43	472.79
606.58	425.98
606.74	414.27
606.89	411.93
607.05	414.27
607.20	461.09
607.36	418.96
607.51	496.19
607.67	407.25
607.82	414.27
607.98	423.64
608.13	451.72
608.29	444.70
608.44	449.38
608.60	344.06
608.75	442.36
608.91	468.11
609.06	388.53
609.22	463.43
609.37	423.64
609.53	395.55
609.68	472.79
609.84	430.66
609.99	400.23
610.15	393.21
