SpectraSuite Data File
++++++++++++++++++++++++++++++++++++
Date: Fri Oct 25 12:10:47 EDT 2013
User: price-jones
Dark Spectrum Present: No
Reference Spectrum Present: No
Number of Sampled Component Spectra: 1
Spectrometers: USB2+H05261
Integration Time (usec): 100000 (USB2+H05261)
Spectra Averaged: 1 (USB2+H05261)
Boxcar Smoothing: 0 (USB2+H05261)
Correct for Electrical Dark: No (USB2+H05261)
Strobe/Lamp Enabled: No (USB2+H05261)
Correct for Detector Non-linearity: No (USB2+H05261)
Correct for Stray Light: No (USB2+H05261)
Number of Pixels in Processed Spectrum: 2048
>>>>>Begin Processed Spectral Data<<<<<
365.73	322.99
365.92	322.99
366.12	322.99
366.32	283.20
366.52	339.38
366.72	292.57
366.91	210.65
367.11	259.80
367.31	304.27
367.51	224.69
367.70	220.01
367.90	292.57
368.10	152.13
368.30	194.26
368.49	220.01
368.69	236.39
368.89	257.46
369.09	262.14
369.28	257.46
369.48	252.78
369.68	287.89
369.87	299.59
370.07	383.85
370.27	381.51
370.47	315.97
370.66	379.17
370.86	393.21
371.06	313.63
371.25	372.15
371.45	369.80
371.65	374.49
371.84	393.21
372.04	348.74
372.24	348.74
372.44	402.57
372.63	388.53
372.83	327.68
373.03	416.62
373.22	393.21
373.42	411.93
373.62	381.51
373.81	376.83
374.01	409.59
374.21	437.68
374.40	397.89
374.60	425.98
374.79	433.00
374.99	383.85
375.19	379.17
375.38	418.96
375.58	451.72
375.78	390.87
375.97	482.15
376.17	409.59
376.37	393.21
376.56	421.30
376.76	358.10
376.95	416.62
377.15	395.55
377.35	477.47
377.54	400.23
377.74	425.98
377.93	397.89
378.13	376.83
378.33	451.72
378.52	369.80
378.72	386.19
378.91	393.21
379.11	407.25
379.31	411.93
379.50	400.23
379.70	447.04
379.89	376.83
380.09	418.96
380.28	400.23
380.48	425.98
380.68	411.93
380.87	360.44
381.07	379.17
381.26	472.79
381.46	351.08
381.65	430.66
381.85	400.23
382.04	390.87
382.24	409.59
382.43	395.55
382.63	362.78
382.83	348.74
383.02	425.98
383.22	430.66
383.41	395.55
383.61	463.43
383.80	416.62
384.00	346.40
384.19	360.44
384.39	486.83
384.58	500.87
384.78	386.19
384.97	315.97
385.17	397.89
385.36	379.17
385.56	400.23
385.75	351.08
385.95	482.15
386.14	430.66
386.34	437.68
386.53	332.36
386.72	346.40
386.92	402.57
387.11	367.46
387.31	475.13
387.50	353.42
387.70	383.85
387.89	400.23
388.09	400.23
388.28	346.40
388.48	442.36
388.67	423.64
388.86	414.27
389.06	390.87
389.25	390.87
389.45	379.17
389.64	337.04
389.84	489.17
390.03	397.89
390.22	348.74
390.42	437.68
390.61	379.17
390.81	428.32
391.00	447.04
391.19	393.21
391.39	390.87
391.58	454.06
391.78	372.15
391.97	390.87
392.16	355.76
392.36	444.70
392.55	437.68
392.75	390.87
392.94	411.93
393.13	458.74
393.33	365.12
393.52	454.06
393.71	400.23
393.91	409.59
394.10	360.44
394.29	346.40
394.49	376.83
394.68	404.91
394.88	397.89
395.07	421.30
395.26	318.31
395.46	456.40
395.65	482.15
395.84	397.89
396.04	390.87
396.23	365.12
396.42	372.15
396.62	395.55
396.81	346.40
397.00	463.43
397.19	334.70
397.39	372.15
397.58	372.15
397.77	325.33
397.97	365.12
398.16	339.38
398.35	461.09
398.55	388.53
398.74	465.77
398.93	416.62
399.12	428.32
399.32	374.49
399.51	369.80
399.70	376.83
399.90	465.77
400.09	386.19
400.28	341.72
400.47	393.21
400.67	381.51
400.86	411.93
401.05	414.27
401.24	383.85
401.44	390.87
401.63	369.80
401.82	353.42
402.01	369.80
402.21	416.62
402.40	383.85
402.59	390.87
402.78	318.31
402.97	440.02
403.17	423.64
403.36	416.62
403.55	388.53
403.74	395.55
403.93	397.89
404.13	400.23
404.32	435.34
404.51	449.38
404.70	381.51
404.89	402.57
405.09	458.74
405.28	416.62
405.47	411.93
405.66	325.33
405.85	411.93
406.05	400.23
406.24	400.23
406.43	395.55
406.62	437.68
406.81	423.64
407.00	451.72
407.20	451.72
407.39	327.68
407.58	358.10
407.77	437.68
407.96	353.42
408.15	369.80
408.34	414.27
408.54	421.30
408.73	451.72
408.92	397.89
409.11	407.25
409.30	489.17
409.49	423.64
409.68	437.68
409.87	449.38
410.07	425.98
410.26	409.59
410.45	435.34
410.64	421.30
410.83	376.83
411.02	372.15
411.21	386.19
411.40	465.77
411.59	341.72
411.78	425.98
411.98	381.51
412.17	449.38
412.36	379.17
412.55	374.49
412.74	416.62
412.93	470.45
413.12	395.55
413.31	433.00
413.50	383.85
413.69	334.70
413.88	376.83
414.07	423.64
414.26	351.08
414.45	437.68
414.64	388.53
414.83	440.02
415.02	430.66
415.22	383.85
415.41	379.17
415.60	442.36
415.79	421.30
415.98	465.77
416.17	386.19
416.36	397.89
416.55	367.46
416.74	425.98
416.93	402.57
417.12	369.80
417.31	374.49
417.50	451.72
417.69	404.91
417.88	379.17
418.07	477.47
418.26	367.46
418.45	400.23
418.64	470.45
418.83	376.83
419.02	503.22
419.21	407.25
419.39	414.27
419.58	381.51
419.77	454.06
419.96	402.57
420.15	386.19
420.34	390.87
420.53	404.91
420.72	404.91
420.91	407.25
421.10	390.87
421.29	440.02
421.48	409.59
421.67	440.02
421.86	315.97
422.05	437.68
422.24	339.38
422.43	374.49
422.61	362.78
422.80	386.19
422.99	484.49
423.18	428.32
423.37	407.25
423.56	444.70
423.75	477.47
423.94	311.29
424.13	376.83
424.32	376.83
424.50	367.46
424.69	393.21
424.88	365.12
425.07	358.10
425.26	416.62
425.45	353.42
425.64	409.59
425.83	388.53
426.01	470.45
426.20	430.66
426.39	353.42
426.58	430.66
426.77	465.77
426.96	418.96
427.15	390.87
427.33	388.53
427.52	456.40
427.71	425.98
427.90	411.93
428.09	437.68
428.28	433.00
428.46	435.34
428.65	493.85
428.84	355.76
429.03	458.74
429.22	423.64
429.40	395.55
429.59	411.93
429.78	383.85
429.97	411.93
430.16	447.04
430.34	435.34
430.53	395.55
430.72	442.36
430.91	430.66
431.10	393.21
431.28	430.66
431.47	409.59
431.66	320.65
431.85	393.21
432.03	407.25
432.22	402.57
432.41	374.49
432.60	475.13
432.79	353.42
432.97	390.87
433.16	423.64
433.35	372.15
433.54	330.02
433.72	430.66
433.91	458.74
434.10	322.99
434.28	454.06
434.47	411.93
434.66	411.93
434.85	395.55
435.03	449.38
435.22	477.47
435.41	451.72
435.59	411.93
435.78	433.00
435.97	456.40
436.16	390.87
436.34	423.64
436.53	475.13
436.72	493.85
436.90	484.49
437.09	500.87
437.28	470.45
437.46	491.51
437.65	409.59
437.84	425.98
438.02	407.25
438.21	461.09
438.40	388.53
438.58	433.00
438.77	411.93
438.96	418.96
439.14	428.32
439.33	470.45
439.52	428.32
439.70	341.72
439.89	393.21
440.08	346.40
440.26	440.02
440.45	421.30
440.63	393.21
440.82	423.64
441.01	390.87
441.19	411.93
441.38	416.62
441.57	379.17
441.75	425.98
441.94	463.43
442.12	440.02
442.31	379.17
442.50	376.83
442.68	458.74
442.87	327.68
443.05	409.59
443.24	456.40
443.43	470.45
443.61	437.68
443.80	360.44
443.98	414.27
444.17	351.08
444.35	409.59
444.54	353.42
444.73	313.63
444.91	365.12
445.10	463.43
445.28	425.98
445.47	381.51
445.65	416.62
445.84	348.74
446.02	409.59
446.21	404.91
446.39	402.57
446.58	418.96
446.77	386.19
446.95	430.66
447.14	451.72
447.32	458.74
447.51	411.93
447.69	404.91
447.88	454.06
448.06	418.96
448.25	360.44
448.43	390.87
448.62	381.51
448.80	374.49
448.99	444.70
449.17	365.12
449.36	395.55
449.54	390.87
449.73	479.81
449.91	313.63
450.10	421.30
450.28	444.70
450.46	407.25
450.65	409.59
450.83	491.51
451.02	360.44
451.20	374.49
451.39	344.06
451.57	437.68
451.76	367.46
451.94	351.08
452.13	430.66
452.31	407.25
452.49	348.74
452.68	393.21
452.86	330.02
453.05	510.24
453.23	442.36
453.42	358.10
453.60	360.44
453.78	418.96
453.97	369.80
454.15	435.34
454.34	395.55
454.52	395.55
454.70	418.96
454.89	454.06
455.07	383.85
455.26	437.68
455.44	421.30
455.62	374.49
455.81	383.85
455.99	348.74
456.17	454.06
456.36	451.72
456.54	395.55
456.73	376.83
456.91	355.76
457.09	367.46
457.28	348.74
457.46	461.09
457.64	358.10
457.83	402.57
458.01	463.43
458.19	435.34
458.38	428.32
458.56	400.23
458.74	416.62
458.93	507.90
459.11	409.59
459.29	442.36
459.48	437.68
459.66	500.87
459.84	449.38
460.03	496.19
460.21	456.40
460.39	395.55
460.57	418.96
460.76	423.64
460.94	435.34
461.12	449.38
461.31	390.87
461.49	414.27
461.67	388.53
461.85	404.91
462.04	327.68
462.22	706.84
462.40	379.17
462.59	512.58
462.77	430.66
462.95	409.59
463.13	428.32
463.32	435.34
463.50	421.30
463.68	400.23
463.86	360.44
464.05	390.87
464.23	456.40
464.41	423.64
464.59	407.25
464.78	400.23
464.96	379.17
465.14	444.70
465.32	381.51
465.50	437.68
465.69	465.77
465.87	416.62
466.05	423.64
466.23	369.80
466.41	435.34
466.60	416.62
466.78	383.85
466.96	433.00
467.14	409.59
467.32	421.30
467.51	484.49
467.69	411.93
467.87	468.11
468.05	344.06
468.23	416.62
468.41	449.38
468.60	435.34
468.78	454.06
468.96	421.30
469.14	440.02
469.32	407.25
469.50	390.87
469.69	493.85
469.87	425.98
470.05	414.27
470.23	381.51
470.41	376.83
470.59	458.74
470.77	437.68
470.95	451.72
471.14	465.77
471.32	379.17
471.50	470.45
471.68	409.59
471.86	376.83
472.04	383.85
472.22	465.77
472.40	442.36
472.58	325.33
472.77	440.02
472.95	388.53
473.13	461.09
473.31	463.43
473.49	362.78
473.67	409.59
473.85	428.32
474.03	411.93
474.21	409.59
474.39	400.23
474.57	397.89
474.75	367.46
474.93	447.04
475.12	381.51
475.30	411.93
475.48	362.78
475.66	386.19
475.84	402.57
476.02	402.57
476.20	458.74
476.38	444.70
476.56	414.27
476.74	447.04
476.92	407.25
477.10	451.72
477.28	402.57
477.46	461.09
477.64	414.27
477.82	402.57
478.00	411.93
478.18	397.89
478.36	428.32
478.54	400.23
478.72	435.34
478.90	386.19
479.08	442.36
479.26	477.47
479.44	402.57
479.62	320.65
479.80	411.93
479.98	454.06
480.16	409.59
480.34	393.21
480.52	386.19
480.70	395.55
480.88	409.59
481.06	414.27
481.24	369.80
481.41	414.27
481.59	393.21
481.77	440.02
481.95	372.15
482.13	451.72
482.31	400.23
482.49	330.02
482.67	425.98
482.85	428.32
483.03	376.83
483.21	437.68
483.39	425.98
483.57	444.70
483.74	397.89
483.92	447.04
484.10	397.89
484.28	444.70
484.46	458.74
484.64	468.11
484.82	409.59
485.00	425.98
485.18	444.70
485.35	421.30
485.53	444.70
485.71	475.13
485.89	388.53
486.07	353.42
486.25	444.70
486.43	353.42
486.61	393.21
486.78	428.32
486.96	440.02
487.14	376.83
487.32	379.17
487.50	458.74
487.68	402.57
487.85	409.59
488.03	372.15
488.21	463.43
488.39	365.12
488.57	397.89
488.75	383.85
488.92	404.91
489.10	451.72
489.28	482.15
489.46	409.59
489.64	383.85
489.81	397.89
489.99	421.30
490.17	435.34
490.35	444.70
490.53	402.57
490.70	367.46
490.88	510.24
491.06	299.59
491.24	376.83
491.41	463.43
491.59	451.72
491.77	341.72
491.95	451.72
492.13	362.78
492.30	428.32
492.48	437.68
492.66	369.80
492.84	400.23
493.01	414.27
493.19	418.96
493.37	409.59
493.54	444.70
493.72	393.21
493.90	444.70
494.08	372.15
494.25	390.87
494.43	437.68
494.61	393.21
494.79	344.06
494.96	470.45
495.14	479.81
495.32	404.91
495.49	397.89
495.67	447.04
495.85	435.34
496.02	407.25
496.20	444.70
496.38	435.34
496.55	365.12
496.73	362.78
496.91	386.19
497.09	430.66
497.26	451.72
497.44	369.80
497.62	414.27
497.79	442.36
497.97	454.06
498.14	437.68
498.32	470.45
498.50	425.98
498.67	372.15
498.85	400.23
499.03	409.59
499.20	442.36
499.38	437.68
499.56	388.53
499.73	395.55
499.91	411.93
500.08	290.23
500.26	461.09
500.44	423.64
500.61	400.23
500.79	383.85
500.97	447.04
501.14	437.68
501.32	454.06
501.49	411.93
501.67	383.85
501.84	440.02
502.02	463.43
502.20	451.72
502.37	435.34
502.55	400.23
502.72	334.70
502.90	402.57
503.07	369.80
503.25	425.98
503.43	407.25
503.60	437.68
503.78	428.32
503.95	407.25
504.13	404.91
504.30	496.19
504.48	447.04
504.65	430.66
504.83	472.79
505.01	353.42
505.18	421.30
505.36	447.04
505.53	407.25
505.71	414.27
505.88	505.56
506.06	353.42
506.23	362.78
506.41	440.02
506.58	348.74
506.76	397.89
506.93	346.40
507.11	428.32
507.28	400.23
507.46	372.15
507.63	430.66
507.81	425.98
507.98	367.46
508.16	421.30
508.33	381.51
508.50	407.25
508.68	351.08
508.85	388.53
509.03	404.91
509.20	477.47
509.38	423.64
509.55	430.66
509.73	418.96
509.90	421.30
510.08	390.87
510.25	435.34
510.42	330.02
510.60	437.68
510.77	407.25
510.95	416.62
511.12	402.57
511.30	423.64
511.47	433.00
511.64	461.09
511.82	425.98
511.99	388.53
512.17	437.68
512.34	388.53
512.51	404.91
512.69	395.55
512.86	519.60
513.04	409.59
513.21	393.21
513.38	416.62
513.56	444.70
513.73	447.04
513.90	444.70
514.08	390.87
514.25	428.32
514.43	482.15
514.60	433.00
514.77	418.96
514.95	379.17
515.12	409.59
515.29	456.40
515.47	461.09
515.64	374.49
515.81	461.09
515.99	447.04
516.16	470.45
516.33	437.68
516.51	421.30
516.68	337.04
516.85	444.70
517.03	390.87
517.20	428.32
517.37	470.45
517.54	468.11
517.72	416.62
517.89	393.21
518.06	482.15
518.24	395.55
518.41	383.85
518.58	383.85
518.75	395.55
518.93	404.91
519.10	381.51
519.27	414.27
519.45	440.02
519.62	409.59
519.79	383.85
519.96	411.93
520.14	430.66
520.31	475.13
520.48	388.53
520.65	440.02
520.83	423.64
521.00	374.49
521.17	447.04
521.34	444.70
521.52	433.00
521.69	430.66
521.86	402.57
522.03	472.79
522.20	430.66
522.38	440.02
522.55	456.40
522.72	407.25
522.89	475.13
523.07	493.85
523.24	421.30
523.41	407.25
523.58	404.91
523.75	407.25
523.92	367.46
524.10	458.74
524.27	423.64
524.44	421.30
524.61	500.87
524.78	414.27
524.96	383.85
525.13	425.98
525.30	458.74
525.47	461.09
525.64	430.66
525.81	348.74
525.98	425.98
526.16	404.91
526.33	437.68
526.50	358.10
526.67	337.04
526.84	388.53
527.01	360.44
527.18	514.92
527.36	524.28
527.53	334.70
527.70	437.68
527.87	411.93
528.04	521.94
528.21	402.57
528.38	381.51
528.55	449.38
528.72	421.30
528.89	477.47
529.07	416.62
529.24	388.53
529.41	407.25
529.58	470.45
529.75	470.45
529.92	397.89
530.09	425.98
530.26	379.17
530.43	388.53
530.60	423.64
530.77	435.34
530.94	482.15
531.11	376.83
531.28	423.64
531.46	402.57
531.63	421.30
531.80	482.15
531.97	414.27
532.14	458.74
532.31	400.23
532.48	444.70
532.65	372.15
532.82	360.44
532.99	449.38
533.16	409.59
533.33	437.68
533.50	355.76
533.67	411.93
533.84	423.64
534.01	411.93
534.18	416.62
534.35	376.83
534.52	421.30
534.69	397.89
534.86	416.62
535.03	358.10
535.20	390.87
535.37	435.34
535.54	383.85
535.71	447.04
535.88	461.09
536.05	376.83
536.22	388.53
536.38	409.59
536.55	407.25
536.72	463.43
536.89	376.83
537.06	374.49
537.23	369.80
537.40	400.23
537.57	393.21
537.74	423.64
537.91	435.34
538.08	465.77
538.25	411.93
538.42	437.68
538.59	388.53
538.75	404.91
538.92	402.57
539.09	498.53
539.26	421.30
539.43	407.25
539.60	372.15
539.77	437.68
539.94	425.98
540.11	374.49
540.28	451.72
540.44	400.23
540.61	465.77
540.78	421.30
540.95	423.64
541.12	414.27
541.29	395.55
541.46	416.62
541.62	383.85
541.79	409.59
541.96	409.59
542.13	414.27
542.30	400.23
542.47	395.55
542.63	386.19
542.80	386.19
542.97	423.64
543.14	425.98
543.31	491.51
543.48	409.59
543.64	437.68
543.81	437.68
543.98	463.43
544.15	433.00
544.32	447.04
544.48	414.27
544.65	411.93
544.82	416.62
544.99	409.59
545.16	491.51
545.32	437.68
545.49	374.49
545.66	425.98
545.83	430.66
546.00	449.38
546.16	369.80
546.33	472.79
546.50	423.64
546.67	425.98
546.83	442.36
547.00	402.57
547.17	395.55
547.34	353.42
547.50	379.17
547.67	414.27
547.84	425.98
548.00	386.19
548.17	411.93
548.34	402.57
548.51	468.11
548.67	402.57
548.84	416.62
549.01	360.44
549.18	409.59
549.34	411.93
549.51	367.46
549.68	376.83
549.84	491.51
550.01	428.32
550.18	425.98
550.34	538.32
550.51	400.23
550.68	479.81
550.84	395.55
551.01	500.87
551.18	470.45
551.34	461.09
551.51	341.72
551.68	498.53
551.84	463.43
552.01	461.09
552.18	421.30
552.34	402.57
552.51	372.15
552.68	407.25
552.84	400.23
553.01	440.02
553.18	489.17
553.34	430.66
553.51	400.23
553.67	390.87
553.84	507.90
554.01	437.68
554.17	397.89
554.34	440.02
554.51	386.19
554.67	423.64
554.84	362.78
555.00	475.13
555.17	451.72
555.33	472.79
555.50	458.74
555.67	449.38
555.83	390.87
556.00	411.93
556.16	470.45
556.33	451.72
556.50	407.25
556.66	362.78
556.83	458.74
556.99	463.43
557.16	447.04
557.32	402.57
557.49	423.64
557.65	390.87
557.82	367.46
557.98	423.64
558.15	428.32
558.32	411.93
558.48	423.64
558.65	489.17
558.81	383.85
558.98	372.15
559.14	477.47
559.31	386.19
559.47	454.06
559.64	383.85
559.80	407.25
559.97	334.70
560.13	479.81
560.30	423.64
560.46	416.62
560.63	416.62
560.79	404.91
560.96	414.27
561.12	397.89
561.29	386.19
561.45	383.85
561.61	409.59
561.78	449.38
561.94	433.00
562.11	484.49
562.27	451.72
562.44	402.57
562.60	442.36
562.77	322.99
562.93	414.27
563.10	390.87
563.26	428.32
563.42	442.36
563.59	379.17
563.75	442.36
563.92	475.13
564.08	433.00
564.24	442.36
564.41	475.13
564.57	456.40
564.74	472.79
564.90	383.85
565.07	451.72
565.23	365.12
565.39	510.24
565.56	416.62
565.72	428.32
565.88	454.06
566.05	491.51
566.21	369.80
566.38	458.74
566.54	367.46
566.70	386.19
566.87	421.30
567.03	463.43
567.19	404.91
567.36	449.38
567.52	437.68
567.68	416.62
567.85	451.72
568.01	433.00
568.17	362.78
568.34	447.04
568.50	423.64
568.66	416.62
568.83	484.49
568.99	379.17
569.15	390.87
569.32	360.44
569.48	470.45
569.64	472.79
569.81	388.53
569.97	465.77
570.13	458.74
570.30	437.68
570.46	411.93
570.62	435.34
570.78	400.23
570.95	369.80
571.11	475.13
571.27	447.04
571.43	397.89
571.60	468.11
571.76	411.93
571.92	395.55
572.09	430.66
572.25	451.72
572.41	484.49
572.57	433.00
572.74	430.66
572.90	425.98
573.06	397.89
573.22	489.17
573.38	463.43
573.55	437.68
573.71	454.06
573.87	409.59
574.03	402.57
574.20	463.43
574.36	507.90
574.52	433.00
574.68	428.32
574.84	425.98
575.01	442.36
575.17	442.36
575.33	388.53
575.49	402.57
575.65	416.62
575.82	395.55
575.98	381.51
576.14	477.47
576.30	402.57
576.46	351.08
576.62	383.85
576.79	421.30
576.95	430.66
577.11	505.56
577.27	369.80
577.43	475.13
577.59	437.68
577.75	421.30
577.92	355.76
578.08	383.85
578.24	386.19
578.40	493.85
578.56	409.59
578.72	454.06
578.88	414.27
579.04	421.30
579.21	465.77
579.37	346.40
579.53	400.23
579.69	409.59
579.85	362.78
580.01	454.06
580.17	404.91
580.33	428.32
580.49	514.92
580.65	449.38
580.82	498.53
580.98	395.55
581.14	390.87
581.30	458.74
581.46	465.77
581.62	402.57
581.78	428.32
581.94	451.72
582.10	454.06
582.26	416.62
582.42	442.36
582.58	484.49
582.74	365.12
582.90	362.78
583.06	430.66
583.22	402.57
583.38	465.77
583.54	381.51
583.70	451.72
583.86	376.83
584.02	416.62
584.18	456.40
584.34	374.49
584.50	381.51
584.66	456.40
584.82	454.06
584.98	367.46
585.14	416.62
585.30	313.63
585.46	470.45
585.62	442.36
585.78	388.53
585.94	425.98
586.10	456.40
586.26	437.68
586.42	383.85
586.58	475.13
586.74	425.98
586.90	428.32
587.06	451.72
587.22	404.91
587.38	402.57
587.54	402.57
587.70	486.83
587.86	383.85
588.02	353.42
588.18	400.23
588.34	367.46
588.49	348.74
588.65	379.17
588.81	367.46
588.97	400.23
589.13	465.77
589.29	404.91
589.45	489.17
589.61	416.62
589.77	440.02
589.93	400.23
590.08	458.74
590.24	360.44
590.40	400.23
590.56	472.79
590.72	421.30
590.88	372.15
591.04	461.09
591.20	379.17
591.35	472.79
591.51	428.32
591.67	423.64
591.83	463.43
591.99	465.77
592.15	470.45
592.31	358.10
592.46	383.85
592.62	428.32
592.78	393.21
592.94	428.32
593.10	360.44
593.26	386.19
593.41	414.27
593.57	393.21
593.73	395.55
593.89	423.64
594.05	397.89
594.20	369.80
594.36	393.21
594.52	390.87
594.68	395.55
594.84	383.85
594.99	433.00
595.15	416.62
595.31	451.72
595.47	416.62
595.62	369.80
595.78	374.49
595.94	449.38
596.10	454.06
596.25	437.68
596.41	425.98
596.57	407.25
596.73	374.49
596.88	449.38
597.04	440.02
597.20	411.93
597.36	400.23
597.51	400.23
597.67	386.19
597.83	458.74
597.99	409.59
598.14	437.68
598.30	449.38
598.46	407.25
598.61	409.59
598.77	386.19
598.93	376.83
599.09	400.23
599.24	470.45
599.40	407.25
599.56	491.51
599.71	428.32
599.87	449.38
600.03	491.51
600.18	414.27
600.34	407.25
600.50	458.74
600.65	456.40
600.81	400.23
600.97	414.27
601.12	442.36
601.28	449.38
601.44	423.64
601.59	442.36
601.75	414.27
601.91	397.89
602.06	447.04
602.22	507.90
602.37	416.62
602.53	344.06
602.69	381.51
602.84	362.78
603.00	421.30
603.16	470.45
603.31	437.68
603.47	428.32
603.62	360.44
603.78	362.78
603.94	397.89
604.09	365.12
604.25	447.04
604.40	440.02
604.56	444.70
604.71	451.72
604.87	442.36
605.03	435.34
605.18	381.51
605.34	440.02
605.49	409.59
605.65	461.09
605.80	416.62
605.96	390.87
606.12	465.77
606.27	428.32
606.43	435.34
606.58	348.74
606.74	367.46
606.89	428.32
607.05	400.23
607.20	493.85
607.36	482.15
607.51	397.89
607.67	435.34
607.82	461.09
607.98	456.40
608.13	437.68
608.29	383.85
608.44	491.51
608.60	440.02
608.75	484.49
608.91	440.02
609.06	367.46
609.22	376.83
609.37	411.93
609.53	458.74
609.68	447.04
609.84	362.78
609.99	430.66
610.15	395.55
