SpectraSuite Data File
++++++++++++++++++++++++++++++++++++
Date: Fri Oct 25 12:10:20 EDT 2013
User: price-jones
Dark Spectrum Present: No
Reference Spectrum Present: No
Number of Sampled Component Spectra: 1
Spectrometers: USB2+H05261
Integration Time (usec): 100000 (USB2+H05261)
Spectra Averaged: 1 (USB2+H05261)
Boxcar Smoothing: 0 (USB2+H05261)
Correct for Electrical Dark: No (USB2+H05261)
Strobe/Lamp Enabled: No (USB2+H05261)
Correct for Detector Non-linearity: No (USB2+H05261)
Correct for Stray Light: No (USB2+H05261)
Number of Pixels in Processed Spectrum: 2048
>>>>>Begin Processed Spectral Data<<<<<
365.73	388.53
365.92	388.53
366.12	388.53
366.32	266.82
366.52	269.16
366.72	236.39
366.91	217.67
367.11	245.76
367.31	222.35
367.51	210.65
367.70	241.08
367.90	222.35
368.10	170.86
368.30	248.10
368.49	227.03
368.69	264.48
368.89	224.69
369.09	306.61
369.28	259.80
369.48	294.91
369.68	257.46
369.87	318.31
370.07	374.49
370.27	234.05
370.47	322.99
370.66	283.20
370.86	290.23
371.06	372.15
371.25	416.62
371.45	437.68
371.65	386.19
371.84	348.74
372.04	287.89
372.24	397.89
372.44	421.30
372.63	416.62
372.83	482.15
373.03	435.34
373.22	440.02
373.42	430.66
373.62	360.44
373.81	418.96
374.01	479.81
374.21	383.85
374.40	348.74
374.60	425.98
374.79	458.74
374.99	386.19
375.19	472.79
375.38	440.02
375.58	393.21
375.78	416.62
375.97	456.40
376.17	428.32
376.37	444.70
376.56	404.91
376.76	306.61
376.95	395.55
377.15	425.98
377.35	430.66
377.54	407.25
377.74	395.55
377.93	339.38
378.13	388.53
378.33	437.68
378.52	421.30
378.72	355.76
378.91	393.21
379.11	409.59
379.31	416.62
379.50	411.93
379.70	493.85
379.89	486.83
380.09	409.59
380.28	423.64
380.48	472.79
380.68	388.53
380.87	355.76
381.07	404.91
381.26	498.53
381.46	355.76
381.65	393.21
381.85	341.72
382.04	407.25
382.24	390.87
382.43	404.91
382.63	414.27
382.83	358.10
383.02	414.27
383.22	442.36
383.41	388.53
383.61	348.74
383.80	409.59
384.00	332.36
384.19	416.62
384.39	463.43
384.58	358.10
384.78	444.70
384.97	444.70
385.17	416.62
385.36	362.78
385.56	397.89
385.75	388.53
385.95	374.49
386.14	395.55
386.34	416.62
386.53	404.91
386.72	442.36
386.92	444.70
387.11	449.38
387.31	451.72
387.50	407.25
387.70	411.93
387.89	376.83
388.09	414.27
388.28	409.59
388.48	393.21
388.67	393.21
388.86	379.17
389.06	390.87
389.25	379.17
389.45	262.14
389.64	383.85
389.84	416.62
390.03	454.06
390.22	407.25
390.42	400.23
390.61	433.00
390.81	395.55
391.00	393.21
391.19	348.74
391.39	400.23
391.58	393.21
391.78	458.74
391.97	379.17
392.16	358.10
392.36	402.57
392.55	386.19
392.75	421.30
392.94	418.96
393.13	376.83
393.33	355.76
393.52	416.62
393.71	421.30
393.91	374.49
394.10	414.27
394.29	353.42
394.49	360.44
394.68	428.32
394.88	479.81
395.07	393.21
395.26	330.02
395.46	430.66
395.65	402.57
395.84	484.49
396.04	454.06
396.23	442.36
396.42	332.36
396.62	369.80
396.81	444.70
397.00	465.77
397.19	402.57
397.39	435.34
397.58	430.66
397.77	369.80
397.97	402.57
398.16	332.36
398.35	442.36
398.55	353.42
398.74	360.44
398.93	404.91
399.12	369.80
399.32	435.34
399.51	433.00
399.70	425.98
399.90	411.93
400.09	397.89
400.28	430.66
400.47	362.78
400.67	472.79
400.86	418.96
401.05	498.53
401.24	358.10
401.44	409.59
401.63	355.76
401.82	416.62
402.01	341.72
402.21	400.23
402.40	416.62
402.59	423.64
402.78	442.36
402.97	435.34
403.17	395.55
403.36	400.23
403.55	360.44
403.74	402.57
403.93	372.15
404.13	379.17
404.32	404.91
404.51	325.33
404.70	425.98
404.89	404.91
405.09	411.93
405.28	409.59
405.47	374.49
405.66	402.57
405.85	407.25
406.05	379.17
406.24	395.55
406.43	322.99
406.62	454.06
406.81	456.40
407.00	416.62
407.20	433.00
407.39	360.44
407.58	365.12
407.77	346.40
407.96	423.64
408.15	425.98
408.34	381.51
408.54	367.46
408.73	383.85
408.92	418.96
409.11	407.25
409.30	425.98
409.49	383.85
409.68	407.25
409.87	374.49
410.07	388.53
410.26	346.40
410.45	423.64
410.64	372.15
410.83	397.89
411.02	409.59
411.21	409.59
411.40	414.27
411.59	383.85
411.78	428.32
411.98	397.89
412.17	381.51
412.36	416.62
412.55	372.15
412.74	451.72
412.93	421.30
413.12	339.38
413.31	358.10
413.50	376.83
413.69	386.19
413.88	454.06
414.07	477.47
414.26	404.91
414.45	411.93
414.64	390.87
414.83	404.91
415.02	348.74
415.22	339.38
415.41	374.49
415.60	348.74
415.79	348.74
415.98	433.00
416.17	468.11
416.36	414.27
416.55	461.09
416.74	372.15
416.93	416.62
417.12	397.89
417.31	379.17
417.50	416.62
417.69	402.57
417.88	376.83
418.07	304.27
418.26	416.62
418.45	402.57
418.64	409.59
418.83	407.25
419.02	416.62
419.21	393.21
419.39	486.83
419.58	402.57
419.77	433.00
419.96	496.19
420.15	423.64
420.34	458.74
420.53	404.91
420.72	425.98
420.91	395.55
421.10	416.62
421.29	393.21
421.48	397.89
421.67	393.21
421.86	365.12
422.05	351.08
422.24	433.00
422.43	346.40
422.61	369.80
422.80	376.83
422.99	442.36
423.18	470.45
423.37	447.04
423.56	362.78
423.75	409.59
423.94	409.59
424.13	423.64
424.32	358.10
424.50	454.06
424.69	428.32
424.88	421.30
425.07	407.25
425.26	451.72
425.45	442.36
425.64	404.91
425.83	358.10
426.01	428.32
426.20	425.98
426.39	414.27
426.58	433.00
426.77	400.23
426.96	383.85
427.15	407.25
427.33	365.12
427.52	379.17
427.71	383.85
427.90	425.98
428.09	416.62
428.28	334.70
428.46	425.98
428.65	444.70
428.84	353.42
429.03	414.27
429.22	393.21
429.40	376.83
429.59	327.68
429.78	451.72
429.97	339.38
430.16	393.21
430.34	444.70
430.53	428.32
430.72	393.21
430.91	358.10
431.10	348.74
431.28	433.00
431.47	407.25
431.66	433.00
431.85	454.06
432.03	463.43
432.22	421.30
432.41	388.53
432.60	475.13
432.79	437.68
432.97	348.74
433.16	372.15
433.35	388.53
433.54	395.55
433.72	365.12
433.91	374.49
434.10	369.80
434.28	444.70
434.47	374.49
434.66	447.04
434.85	395.55
435.03	423.64
435.22	461.09
435.41	463.43
435.59	491.51
435.78	367.46
435.97	367.46
436.16	447.04
436.34	397.89
436.53	425.98
436.72	444.70
436.90	365.12
437.09	477.47
437.28	416.62
437.46	423.64
437.65	353.42
437.84	433.00
438.02	367.46
438.21	512.58
438.40	379.17
438.58	381.51
438.77	409.59
438.96	461.09
439.14	414.27
439.33	437.68
439.52	418.96
439.70	376.83
439.89	379.17
440.08	440.02
440.26	376.83
440.45	440.02
440.63	395.55
440.82	421.30
441.01	409.59
441.19	411.93
441.38	372.15
441.57	390.87
441.75	449.38
441.94	444.70
442.12	425.98
442.31	425.98
442.50	386.19
442.68	381.51
442.87	440.02
443.05	444.70
443.24	372.15
443.43	404.91
443.61	489.17
443.80	423.64
443.98	381.51
444.17	411.93
444.35	372.15
444.54	400.23
444.73	397.89
444.91	454.06
445.10	404.91
445.28	404.91
445.47	381.51
445.65	425.98
445.84	379.17
446.02	393.21
446.21	374.49
446.39	395.55
446.58	393.21
446.77	423.64
446.95	496.19
447.14	479.81
447.32	454.06
447.51	374.49
447.69	383.85
447.88	388.53
448.06	456.40
448.25	367.46
448.43	362.78
448.62	393.21
448.80	514.92
448.99	367.46
449.17	358.10
449.36	433.00
449.54	475.13
449.73	393.21
449.91	418.96
450.10	397.89
450.28	411.93
450.46	477.47
450.65	435.34
450.83	386.19
451.02	437.68
451.20	334.70
451.39	428.32
451.57	449.38
451.76	393.21
451.94	416.62
452.13	400.23
452.31	425.98
452.49	430.66
452.68	435.34
452.86	388.53
453.05	409.59
453.23	425.98
453.42	348.74
453.60	416.62
453.78	491.51
453.97	425.98
454.15	362.78
454.34	421.30
454.52	433.00
454.70	428.32
454.89	402.57
455.07	369.80
455.26	482.15
455.44	449.38
455.62	383.85
455.81	407.25
455.99	404.91
456.17	416.62
456.36	360.44
456.54	440.02
456.73	404.91
456.91	372.15
457.09	372.15
457.28	365.12
457.46	346.40
457.64	418.96
457.83	418.96
458.01	360.44
458.19	388.53
458.38	397.89
458.56	409.59
458.74	418.96
458.93	482.15
459.11	440.02
459.29	435.34
459.48	376.83
459.66	360.44
459.84	400.23
460.03	435.34
460.21	395.55
460.39	435.34
460.57	468.11
460.76	362.78
460.94	451.72
461.12	444.70
461.31	451.72
461.49	374.49
461.67	433.00
461.85	442.36
462.04	430.66
462.22	760.67
462.40	442.36
462.59	388.53
462.77	404.91
462.95	465.77
463.13	376.83
463.32	482.15
463.50	468.11
463.68	475.13
463.86	395.55
464.05	482.15
464.23	433.00
464.41	365.12
464.59	367.46
464.78	425.98
464.96	369.80
465.14	430.66
465.32	449.38
465.50	447.04
465.69	449.38
465.87	425.98
466.05	414.27
466.23	400.23
466.41	514.92
466.60	339.38
466.78	433.00
466.96	435.34
467.14	458.74
467.32	489.17
467.51	444.70
467.69	372.15
467.87	411.93
468.05	416.62
468.23	454.06
468.41	465.77
468.60	383.85
468.78	477.47
468.96	409.59
469.14	407.25
469.32	411.93
469.50	411.93
469.69	411.93
469.87	404.91
470.05	418.96
470.23	400.23
470.41	369.80
470.59	369.80
470.77	418.96
470.95	346.40
471.14	402.57
471.32	376.83
471.50	376.83
471.68	397.89
471.86	489.17
472.04	402.57
472.22	355.76
472.40	402.57
472.58	393.21
472.77	369.80
472.95	379.17
473.13	465.77
473.31	414.27
473.49	409.59
473.67	421.30
473.85	390.87
474.03	437.68
474.21	411.93
474.39	472.79
474.57	440.02
474.75	498.53
474.93	402.57
475.12	374.49
475.30	400.23
475.48	358.10
475.66	447.04
475.84	369.80
476.02	395.55
476.20	416.62
476.38	346.40
476.56	498.53
476.74	444.70
476.92	411.93
477.10	418.96
477.28	484.49
477.46	440.02
477.64	397.89
477.82	374.49
478.00	414.27
478.18	409.59
478.36	374.49
478.54	507.90
478.72	360.44
478.90	390.87
479.08	428.32
479.26	355.76
479.44	407.25
479.62	344.06
479.80	456.40
479.98	367.46
480.16	390.87
480.34	423.64
480.52	358.10
480.70	430.66
480.88	409.59
481.06	449.38
481.24	435.34
481.41	376.83
481.59	341.72
481.77	421.30
481.95	418.96
482.13	458.74
482.31	435.34
482.49	353.42
482.67	433.00
482.85	423.64
483.03	388.53
483.21	393.21
483.39	435.34
483.57	433.00
483.74	395.55
483.92	447.04
484.10	362.78
484.28	386.19
484.46	444.70
484.64	369.80
484.82	407.25
485.00	442.36
485.18	393.21
485.35	456.40
485.53	388.53
485.71	423.64
485.89	451.72
486.07	454.06
486.25	482.15
486.43	447.04
486.61	433.00
486.78	444.70
486.96	344.06
487.14	318.31
487.32	425.98
487.50	397.89
487.68	433.00
487.85	409.59
488.03	390.87
488.21	425.98
488.39	367.46
488.57	416.62
488.75	423.64
488.92	442.36
489.10	440.02
489.28	369.80
489.46	358.10
489.64	416.62
489.81	435.34
489.99	402.57
490.17	454.06
490.35	411.93
490.53	461.09
490.70	418.96
490.88	393.21
491.06	418.96
491.24	421.30
491.41	379.17
491.59	390.87
491.77	449.38
491.95	463.43
492.13	315.97
492.30	418.96
492.48	442.36
492.66	365.12
492.84	393.21
493.01	383.85
493.19	409.59
493.37	451.72
493.54	367.46
493.72	404.91
493.90	379.17
494.08	400.23
494.25	374.49
494.43	411.93
494.61	428.32
494.79	400.23
494.96	386.19
495.14	428.32
495.32	379.17
495.49	414.27
495.67	423.64
495.85	365.12
496.02	355.76
496.20	430.66
496.38	437.68
496.55	430.66
496.73	491.51
496.91	418.96
497.09	486.83
497.26	402.57
497.44	367.46
497.62	482.15
497.79	458.74
497.97	369.80
498.14	416.62
498.32	475.13
498.50	433.00
498.67	437.68
498.85	395.55
499.03	437.68
499.20	428.32
499.38	334.70
499.56	365.12
499.73	372.15
499.91	444.70
500.08	475.13
500.26	458.74
500.44	409.59
500.61	435.34
500.79	409.59
500.97	444.70
501.14	404.91
501.32	400.23
501.49	451.72
501.67	404.91
501.84	442.36
502.02	411.93
502.20	463.43
502.37	409.59
502.55	489.17
502.72	358.10
502.90	404.91
503.07	393.21
503.25	390.87
503.43	402.57
503.60	393.21
503.78	425.98
503.95	411.93
504.13	395.55
504.30	489.17
504.48	421.30
504.65	463.43
504.83	430.66
505.01	386.19
505.18	360.44
505.36	372.15
505.53	437.68
505.71	418.96
505.88	475.13
506.06	386.19
506.23	411.93
506.41	404.91
506.58	442.36
506.76	507.90
506.93	435.34
507.11	400.23
507.28	365.12
507.46	376.83
507.63	355.76
507.81	454.06
507.98	428.32
508.16	402.57
508.33	423.64
508.50	456.40
508.68	379.17
508.85	477.47
509.03	428.32
509.20	414.27
509.38	402.57
509.55	409.59
509.73	484.49
509.90	409.59
510.08	360.44
510.25	402.57
510.42	367.46
510.60	416.62
510.77	393.21
510.95	388.53
511.12	395.55
511.30	425.98
511.47	346.40
511.64	397.89
511.82	374.49
511.99	358.10
512.17	358.10
512.34	381.51
512.51	404.91
512.69	390.87
512.86	425.98
513.04	365.12
513.21	458.74
513.38	388.53
513.56	400.23
513.73	390.87
513.90	416.62
514.08	418.96
514.25	418.96
514.43	491.51
514.60	447.04
514.77	442.36
514.95	369.80
515.12	348.74
515.29	428.32
515.47	376.83
515.64	360.44
515.81	402.57
515.99	496.19
516.16	493.85
516.33	423.64
516.51	395.55
516.68	379.17
516.85	435.34
517.03	404.91
517.20	447.04
517.37	463.43
517.54	409.59
517.72	372.15
517.89	395.55
518.06	444.70
518.24	437.68
518.41	472.79
518.58	449.38
518.75	397.89
518.93	414.27
519.10	514.92
519.27	416.62
519.45	355.76
519.62	437.68
519.79	374.49
519.96	383.85
520.14	383.85
520.31	425.98
520.48	341.72
520.65	454.06
520.83	404.91
521.00	367.46
521.17	421.30
521.34	360.44
521.52	393.21
521.69	374.49
521.86	430.66
522.03	423.64
522.20	484.49
522.38	442.36
522.55	407.25
522.72	470.45
522.89	463.43
523.07	440.02
523.24	425.98
523.41	442.36
523.58	397.89
523.75	372.15
523.92	444.70
524.10	383.85
524.27	440.02
524.44	425.98
524.61	360.44
524.78	379.17
524.96	437.68
525.13	369.80
525.30	440.02
525.47	498.53
525.64	500.87
525.81	449.38
525.98	402.57
526.16	440.02
526.33	449.38
526.50	484.49
526.67	461.09
526.84	433.00
527.01	421.30
527.18	390.87
527.36	400.23
527.53	383.85
527.70	416.62
527.87	374.49
528.04	463.43
528.21	395.55
528.38	388.53
528.55	383.85
528.72	437.68
528.89	430.66
529.07	395.55
529.24	404.91
529.41	416.62
529.58	423.64
529.75	451.72
529.92	451.72
530.09	383.85
530.26	463.43
530.43	411.93
530.60	482.15
530.77	421.30
530.94	435.34
531.11	388.53
531.28	393.21
531.46	397.89
531.63	491.51
531.80	444.70
531.97	425.98
532.14	393.21
532.31	447.04
532.48	407.25
532.65	437.68
532.82	351.08
532.99	376.83
533.16	407.25
533.33	416.62
533.50	348.74
533.67	355.76
533.84	423.64
534.01	395.55
534.18	416.62
534.35	430.66
534.52	458.74
534.69	404.91
534.86	489.17
535.03	428.32
535.20	444.70
535.37	493.85
535.54	381.51
535.71	430.66
535.88	500.87
536.05	484.49
536.22	393.21
536.38	414.27
536.55	440.02
536.72	404.91
536.89	402.57
537.06	388.53
537.23	402.57
537.40	411.93
537.57	409.59
537.74	437.68
537.91	421.30
538.08	374.49
538.25	353.42
538.42	383.85
538.59	454.06
538.75	454.06
538.92	423.64
539.09	475.13
539.26	470.45
539.43	437.68
539.60	393.21
539.77	444.70
539.94	386.19
540.11	376.83
540.28	411.93
540.44	456.40
540.61	433.00
540.78	423.64
540.95	390.87
541.12	477.47
541.29	430.66
541.46	510.24
541.62	383.85
541.79	388.53
541.96	418.96
542.13	383.85
542.30	365.12
542.47	421.30
542.63	418.96
542.80	442.36
542.97	402.57
543.14	449.38
543.31	351.08
543.48	393.21
543.64	404.91
543.81	393.21
543.98	397.89
544.15	330.02
544.32	374.49
544.48	393.21
544.65	367.46
544.82	374.49
544.99	374.49
545.16	472.79
545.32	421.30
545.49	416.62
545.66	444.70
545.83	367.46
546.00	355.76
546.16	365.12
546.33	414.27
546.50	479.81
546.67	451.72
546.83	409.59
547.00	414.27
547.17	313.63
547.34	496.19
547.50	386.19
547.67	456.40
547.84	484.49
548.00	409.59
548.17	414.27
548.34	381.51
548.51	400.23
548.67	468.11
548.84	407.25
549.01	414.27
549.18	407.25
549.34	463.43
549.51	395.55
549.68	355.76
549.84	341.72
550.01	381.51
550.18	491.51
550.34	510.24
550.51	409.59
550.68	442.36
550.84	409.59
551.01	421.30
551.18	428.32
551.34	383.85
551.51	365.12
551.68	421.30
551.84	468.11
552.01	507.90
552.18	362.78
552.34	409.59
552.51	433.00
552.68	428.32
552.84	358.10
553.01	430.66
553.18	435.34
553.34	456.40
553.51	411.93
553.67	458.74
553.84	425.98
554.01	456.40
554.17	414.27
554.34	404.91
554.51	447.04
554.67	411.93
554.84	433.00
555.00	397.89
555.17	418.96
555.33	442.36
555.50	430.66
555.67	402.57
555.83	367.46
556.00	360.44
556.16	554.71
556.33	451.72
556.50	409.59
556.66	379.17
556.83	400.23
556.99	407.25
557.16	341.72
557.32	444.70
557.49	404.91
557.65	461.09
557.82	479.81
557.98	400.23
558.15	428.32
558.32	475.13
558.48	428.32
558.65	355.76
558.81	444.70
558.98	425.98
559.14	498.53
559.31	358.10
559.47	386.19
559.64	393.21
559.80	482.15
559.97	407.25
560.13	416.62
560.30	390.87
560.46	430.66
560.63	397.89
560.79	416.62
560.96	423.64
561.12	332.36
561.29	449.38
561.45	355.76
561.61	433.00
561.78	524.28
561.94	365.12
562.11	451.72
562.27	442.36
562.44	358.10
562.60	395.55
562.77	437.68
562.93	557.05
563.10	362.78
563.26	421.30
563.42	479.81
563.59	484.49
563.75	409.59
563.92	358.10
564.08	440.02
564.24	458.74
564.41	421.30
564.57	369.80
564.74	423.64
564.90	451.72
565.07	442.36
565.23	507.90
565.39	416.62
565.56	404.91
565.72	465.77
565.88	395.55
566.05	449.38
566.21	393.21
566.38	383.85
566.54	512.58
566.70	437.68
566.87	465.77
567.03	351.08
567.19	425.98
567.36	418.96
567.52	386.19
567.68	433.00
567.85	475.13
568.01	386.19
568.17	395.55
568.34	379.17
568.50	505.56
568.66	421.30
568.83	425.98
568.99	411.93
569.15	423.64
569.32	428.32
569.48	393.21
569.64	463.43
569.81	411.93
569.97	407.25
570.13	388.53
570.30	404.91
570.46	416.62
570.62	388.53
570.78	414.27
570.95	482.15
571.11	388.53
571.27	425.98
571.43	472.79
571.60	388.53
571.76	510.24
571.92	465.77
572.09	442.36
572.25	496.19
572.41	444.70
572.57	437.68
572.74	486.83
572.90	423.64
573.06	444.70
573.22	393.21
573.38	440.02
573.55	390.87
573.71	433.00
573.87	416.62
574.03	437.68
574.20	369.80
574.36	498.53
574.52	435.34
574.68	407.25
574.84	425.98
575.01	407.25
575.17	500.87
575.33	463.43
575.49	409.59
575.65	433.00
575.82	400.23
575.98	428.32
576.14	451.72
576.30	428.32
576.46	461.09
576.62	402.57
576.79	465.77
576.95	468.11
577.11	386.19
577.27	287.89
577.43	381.51
577.59	470.45
577.75	376.83
577.92	484.49
578.08	425.98
578.24	341.72
578.40	456.40
578.56	433.00
578.72	449.38
578.88	397.89
579.04	365.12
579.21	404.91
579.37	425.98
579.53	390.87
579.69	447.04
579.85	421.30
580.01	444.70
580.17	430.66
580.33	435.34
580.49	524.28
580.65	390.87
580.82	404.91
580.98	381.51
581.14	423.64
581.30	465.77
581.46	456.40
581.62	407.25
581.78	374.49
581.94	416.62
582.10	365.12
582.26	416.62
582.42	454.06
582.58	376.83
582.74	374.49
582.90	367.46
583.06	456.40
583.22	379.17
583.38	440.02
583.54	374.49
583.70	425.98
583.86	451.72
584.02	470.45
584.18	430.66
584.34	482.15
584.50	365.12
584.66	484.49
584.82	376.83
584.98	355.76
585.14	416.62
585.30	458.74
585.46	430.66
585.62	425.98
585.78	423.64
585.94	440.02
586.10	341.72
586.26	447.04
586.42	449.38
586.58	451.72
586.74	365.12
586.90	379.17
587.06	435.34
587.22	388.53
587.38	444.70
587.54	376.83
587.70	404.91
587.86	421.30
588.02	451.72
588.18	402.57
588.34	397.89
588.49	468.11
588.65	449.38
588.81	388.53
588.97	397.89
589.13	447.04
589.29	458.74
589.45	386.19
589.61	407.25
589.77	407.25
589.93	397.89
590.08	404.91
590.24	442.36
590.40	313.63
590.56	433.00
590.72	449.38
590.88	428.32
591.04	435.34
591.20	428.32
591.35	451.72
591.51	400.23
591.67	383.85
591.83	458.74
591.99	376.83
592.15	395.55
592.31	411.93
592.46	454.06
592.62	421.30
592.78	386.19
592.94	435.34
593.10	397.89
593.26	440.02
593.41	449.38
593.57	407.25
593.73	411.93
593.89	433.00
594.05	388.53
594.20	423.64
594.36	454.06
594.52	414.27
594.68	407.25
594.84	358.10
594.99	451.72
595.15	435.34
595.31	454.06
595.47	367.46
595.62	379.17
595.78	442.36
595.94	423.64
596.10	456.40
596.25	433.00
596.41	421.30
596.57	421.30
596.73	423.64
596.88	465.77
597.04	423.64
597.20	444.70
597.36	425.98
597.51	362.78
597.67	428.32
597.83	425.98
597.99	484.49
598.14	411.93
598.30	404.91
598.46	409.59
598.61	465.77
598.77	440.02
598.93	404.91
599.09	404.91
599.24	517.26
599.40	479.81
599.56	397.89
599.71	390.87
599.87	369.80
600.03	322.99
600.18	465.77
600.34	463.43
600.50	423.64
600.65	407.25
600.81	421.30
600.97	479.81
601.12	491.51
601.28	454.06
601.44	454.06
601.59	390.87
601.75	407.25
601.91	395.55
602.06	390.87
602.22	425.98
602.37	458.74
602.53	458.74
602.69	421.30
602.84	388.53
603.00	416.62
603.16	376.83
603.31	411.93
603.47	379.17
603.62	390.87
603.78	397.89
603.94	421.30
604.09	393.21
604.25	423.64
604.40	451.72
604.56	311.29
604.71	411.93
604.87	407.25
605.03	430.66
605.18	447.04
605.34	458.74
605.49	430.66
605.65	449.38
605.80	353.42
605.96	376.83
606.12	493.85
606.27	475.13
606.43	400.23
606.58	409.59
606.74	372.15
606.89	360.44
607.05	423.64
607.20	409.59
607.36	458.74
607.51	402.57
607.67	395.55
607.82	379.17
607.98	475.13
608.13	435.34
608.29	388.53
608.44	463.43
608.60	444.70
608.75	442.36
608.91	449.38
609.06	472.79
609.22	465.77
609.37	383.85
609.53	423.64
609.68	491.51
609.84	362.78
609.99	479.81
610.15	461.09
