SpectraSuite Data File
++++++++++++++++++++++++++++++++++++
Date: Fri Oct 25 12:10:39 EDT 2013
User: price-jones
Dark Spectrum Present: No
Reference Spectrum Present: No
Number of Sampled Component Spectra: 1
Spectrometers: USB2+H05261
Integration Time (usec): 100000 (USB2+H05261)
Spectra Averaged: 1 (USB2+H05261)
Boxcar Smoothing: 0 (USB2+H05261)
Correct for Electrical Dark: No (USB2+H05261)
Strobe/Lamp Enabled: No (USB2+H05261)
Correct for Detector Non-linearity: No (USB2+H05261)
Correct for Stray Light: No (USB2+H05261)
Number of Pixels in Processed Spectrum: 2048
>>>>>Begin Processed Spectral Data<<<<<
365.73	337.04
365.92	337.04
366.12	337.04
366.32	299.59
366.52	217.67
366.72	264.48
366.91	262.14
367.11	191.92
367.31	252.78
367.51	264.48
367.70	255.12
367.90	220.01
368.10	168.52
368.30	184.90
368.49	276.18
368.69	301.93
368.89	229.37
369.09	292.57
369.28	280.86
369.48	191.92
369.68	236.39
369.87	250.44
370.07	332.36
370.27	376.83
370.47	351.08
370.66	313.63
370.86	388.53
371.06	388.53
371.25	393.21
371.45	355.76
371.65	409.59
371.84	332.36
372.04	360.44
372.24	397.89
372.44	425.98
372.63	458.74
372.83	402.57
373.03	404.91
373.22	468.11
373.42	381.51
373.62	425.98
373.81	404.91
374.01	423.64
374.21	465.77
374.40	449.38
374.60	425.98
374.79	449.38
374.99	500.87
375.19	409.59
375.38	479.81
375.58	390.87
375.78	433.00
375.97	440.02
376.17	421.30
376.37	341.72
376.56	433.00
376.76	376.83
376.95	358.10
377.15	386.19
377.35	365.12
377.54	393.21
377.74	402.57
377.93	348.74
378.13	360.44
378.33	320.65
378.52	334.70
378.72	395.55
378.91	409.59
379.11	414.27
379.31	337.04
379.50	397.89
379.70	416.62
379.89	355.76
380.09	440.02
380.28	374.49
380.48	355.76
380.68	383.85
380.87	456.40
381.07	404.91
381.26	390.87
381.46	353.42
381.65	383.85
381.85	421.30
382.04	425.98
382.24	449.38
382.43	456.40
382.63	437.68
382.83	393.21
383.02	421.30
383.22	325.33
383.41	393.21
383.61	374.49
383.80	491.51
384.00	400.23
384.19	395.55
384.39	411.93
384.58	337.04
384.78	444.70
384.97	440.02
385.17	407.25
385.36	362.78
385.56	442.36
385.75	400.23
385.95	383.85
386.14	421.30
386.34	386.19
386.53	365.12
386.72	353.42
386.92	409.59
387.11	395.55
387.31	437.68
387.50	360.44
387.70	379.17
387.89	503.22
388.09	388.53
388.28	395.55
388.48	418.96
388.67	463.43
388.86	425.98
389.06	449.38
389.25	418.96
389.45	440.02
389.64	430.66
389.84	407.25
390.03	393.21
390.22	479.81
390.42	414.27
390.61	407.25
390.81	407.25
391.00	322.99
391.19	458.74
391.39	423.64
391.58	411.93
391.78	372.15
391.97	379.17
392.16	376.83
392.36	421.30
392.55	418.96
392.75	423.64
392.94	322.99
393.13	421.30
393.33	393.21
393.52	442.36
393.71	416.62
393.91	416.62
394.10	388.53
394.29	393.21
394.49	369.80
394.68	383.85
394.88	447.04
395.07	418.96
395.26	402.57
395.46	461.09
395.65	433.00
395.84	395.55
396.04	430.66
396.23	383.85
396.42	421.30
396.62	435.34
396.81	414.27
397.00	440.02
397.19	407.25
397.39	386.19
397.58	411.93
397.77	397.89
397.97	411.93
398.16	421.30
398.35	388.53
398.55	416.62
398.74	381.51
398.93	397.89
399.12	428.32
399.32	411.93
399.51	388.53
399.70	374.49
399.90	322.99
400.09	449.38
400.28	435.34
400.47	442.36
400.67	376.83
400.86	430.66
401.05	421.30
401.24	416.62
401.44	416.62
401.63	395.55
401.82	435.34
402.01	416.62
402.21	461.09
402.40	449.38
402.59	374.49
402.78	388.53
402.97	402.57
403.17	395.55
403.36	425.98
403.55	383.85
403.74	334.70
403.93	411.93
404.13	409.59
404.32	393.21
404.51	428.32
404.70	393.21
404.89	440.02
405.09	505.56
405.28	409.59
405.47	379.17
405.66	418.96
405.85	404.91
406.05	395.55
406.24	365.12
406.43	435.34
406.62	397.89
406.81	407.25
407.00	353.42
407.20	447.04
407.39	411.93
407.58	372.15
407.77	465.77
407.96	484.49
408.15	528.96
408.34	388.53
408.54	367.46
408.73	400.23
408.92	372.15
409.11	475.13
409.30	470.45
409.49	353.42
409.68	351.08
409.87	390.87
410.07	393.21
410.26	355.76
410.45	402.57
410.64	484.49
410.83	416.62
411.02	372.15
411.21	400.23
411.40	440.02
411.59	454.06
411.78	386.19
411.98	416.62
412.17	409.59
412.36	454.06
412.55	425.98
412.74	416.62
412.93	433.00
413.12	372.15
413.31	416.62
413.50	447.04
413.69	390.87
413.88	423.64
414.07	362.78
414.26	365.12
414.45	430.66
414.64	397.89
414.83	313.63
415.02	437.68
415.22	390.87
415.41	491.51
415.60	358.10
415.79	407.25
415.98	468.11
416.17	374.49
416.36	433.00
416.55	456.40
416.74	365.12
416.93	444.70
417.12	344.06
417.31	454.06
417.50	407.25
417.69	437.68
417.88	388.53
418.07	465.77
418.26	461.09
418.45	430.66
418.64	369.80
418.83	414.27
419.02	416.62
419.21	447.04
419.39	456.40
419.58	386.19
419.77	397.89
419.96	395.55
420.15	486.83
420.34	435.34
420.53	451.72
420.72	407.25
420.91	400.23
421.10	435.34
421.29	451.72
421.48	435.34
421.67	458.74
421.86	418.96
422.05	418.96
422.24	465.77
422.43	435.34
422.61	388.53
422.80	423.64
422.99	423.64
423.18	308.95
423.37	416.62
423.56	348.74
423.75	337.04
423.94	402.57
424.13	344.06
424.32	451.72
424.50	395.55
424.69	418.96
424.88	482.15
425.07	381.51
425.26	402.57
425.45	468.11
425.64	428.32
425.83	402.57
426.01	444.70
426.20	383.85
426.39	381.51
426.58	402.57
426.77	334.70
426.96	376.83
427.15	330.02
427.33	381.51
427.52	339.38
427.71	461.09
427.90	454.06
428.09	379.17
428.28	353.42
428.46	367.46
428.65	358.10
428.84	393.21
429.03	388.53
429.22	468.11
429.40	416.62
429.59	418.96
429.78	416.62
429.97	395.55
430.16	358.10
430.34	402.57
430.53	411.93
430.72	355.76
430.91	449.38
431.10	365.12
431.28	388.53
431.47	449.38
431.66	465.77
431.85	442.36
432.03	341.72
432.22	421.30
432.41	416.62
432.60	381.51
432.79	397.89
432.97	440.02
433.16	355.76
433.35	400.23
433.54	414.27
433.72	290.23
433.91	437.68
434.10	423.64
434.28	404.91
434.47	400.23
434.66	367.46
434.85	428.32
435.03	393.21
435.22	451.72
435.41	447.04
435.59	353.42
435.78	407.25
435.97	400.23
436.16	393.21
436.34	353.42
436.53	491.51
436.72	423.64
436.90	360.44
437.09	428.32
437.28	388.53
437.46	437.68
437.65	407.25
437.84	470.45
438.02	423.64
438.21	402.57
438.40	395.55
438.58	400.23
438.77	521.94
438.96	388.53
439.14	383.85
439.33	507.90
439.52	447.04
439.70	496.19
439.89	444.70
440.08	444.70
440.26	465.77
440.45	411.93
440.63	421.30
440.82	444.70
441.01	456.40
441.19	360.44
441.38	470.45
441.57	435.34
441.75	409.59
441.94	433.00
442.12	327.68
442.31	390.87
442.50	353.42
442.68	414.27
442.87	386.19
443.05	393.21
443.24	470.45
443.43	447.04
443.61	449.38
443.80	409.59
443.98	463.43
444.17	402.57
444.35	430.66
444.54	358.10
444.73	425.98
444.91	507.90
445.10	395.55
445.28	311.29
445.47	486.83
445.65	367.46
445.84	365.12
446.02	360.44
446.21	414.27
446.39	397.89
446.58	444.70
446.77	425.98
446.95	435.34
447.14	416.62
447.32	533.64
447.51	383.85
447.69	458.74
447.88	407.25
448.06	397.89
448.25	425.98
448.43	318.31
448.62	447.04
448.80	423.64
448.99	444.70
449.17	353.42
449.36	416.62
449.54	428.32
449.73	402.57
449.91	423.64
450.10	362.78
450.28	484.49
450.46	393.21
450.65	395.55
450.83	411.93
451.02	486.83
451.20	425.98
451.39	400.23
451.57	358.10
451.76	458.74
451.94	360.44
452.13	444.70
452.31	376.83
452.49	433.00
452.68	400.23
452.86	416.62
453.05	367.46
453.23	454.06
453.42	404.91
453.60	444.70
453.78	428.32
453.97	362.78
454.15	374.49
454.34	341.72
454.52	456.40
454.70	475.13
454.89	428.32
455.07	433.00
455.26	402.57
455.44	475.13
455.62	440.02
455.81	414.27
455.99	409.59
456.17	400.23
456.36	395.55
456.54	390.87
456.73	444.70
456.91	386.19
457.09	386.19
457.28	383.85
457.46	367.46
457.64	423.64
457.83	383.85
458.01	458.74
458.19	383.85
458.38	358.10
458.56	430.66
458.74	421.30
458.93	433.00
459.11	449.38
459.29	482.15
459.48	458.74
459.66	463.43
459.84	376.83
460.03	463.43
460.21	407.25
460.39	437.68
460.57	395.55
460.76	376.83
460.94	418.96
461.12	397.89
461.31	458.74
461.49	458.74
461.67	407.25
461.85	390.87
462.04	444.70
462.22	751.31
462.40	416.62
462.59	447.04
462.77	362.78
462.95	395.55
463.13	407.25
463.32	416.62
463.50	428.32
463.68	390.87
463.86	437.68
464.05	367.46
464.23	482.15
464.41	388.53
464.59	449.38
464.78	449.38
464.96	362.78
465.14	362.78
465.32	367.46
465.50	390.87
465.69	409.59
465.87	404.91
466.05	355.76
466.23	383.85
466.41	372.15
466.60	416.62
466.78	367.46
466.96	444.70
467.14	456.40
467.32	456.40
467.51	433.00
467.69	393.21
467.87	514.92
468.05	390.87
468.23	479.81
468.41	362.78
468.60	435.34
468.78	421.30
468.96	435.34
469.14	402.57
469.32	376.83
469.50	397.89
469.69	440.02
469.87	425.98
470.05	346.40
470.23	496.19
470.41	358.10
470.59	390.87
470.77	407.25
470.95	388.53
471.14	477.47
471.32	421.30
471.50	444.70
471.68	430.66
471.86	477.47
472.04	428.32
472.22	346.40
472.40	430.66
472.58	348.74
472.77	468.11
472.95	449.38
473.13	425.98
473.31	440.02
473.49	402.57
473.67	404.91
473.85	355.76
474.03	379.17
474.21	449.38
474.39	433.00
474.57	470.45
474.75	416.62
474.93	404.91
475.12	430.66
475.30	416.62
475.48	470.45
475.66	348.74
475.84	421.30
476.02	353.42
476.20	388.53
476.38	444.70
476.56	458.74
476.74	442.36
476.92	402.57
477.10	393.21
477.28	395.55
477.46	472.79
477.64	404.91
477.82	402.57
478.00	430.66
478.18	437.68
478.36	388.53
478.54	411.93
478.72	369.80
478.90	444.70
479.08	454.06
479.26	383.85
479.44	444.70
479.62	428.32
479.80	388.53
479.98	390.87
480.16	416.62
480.34	505.56
480.52	440.02
480.70	486.83
480.88	379.17
481.06	376.83
481.24	397.89
481.41	355.76
481.59	395.55
481.77	430.66
481.95	433.00
482.13	449.38
482.31	421.30
482.49	404.91
482.67	416.62
482.85	449.38
483.03	409.59
483.21	390.87
483.39	344.06
483.57	430.66
483.74	482.15
483.92	489.17
484.10	454.06
484.28	400.23
484.46	451.72
484.64	458.74
484.82	461.09
485.00	397.89
485.18	402.57
485.35	395.55
485.53	458.74
485.71	386.19
485.89	418.96
486.07	379.17
486.25	414.27
486.43	425.98
486.61	369.80
486.78	404.91
486.96	395.55
487.14	360.44
487.32	372.15
487.50	404.91
487.68	423.64
487.85	362.78
488.03	425.98
488.21	421.30
488.39	383.85
488.57	416.62
488.75	407.25
488.92	479.81
489.10	404.91
489.28	404.91
489.46	400.23
489.64	411.93
489.81	451.72
489.99	379.17
490.17	479.81
490.35	468.11
490.53	463.43
490.70	442.36
490.88	477.47
491.06	423.64
491.24	416.62
491.41	451.72
491.59	395.55
491.77	423.64
491.95	435.34
492.13	351.08
492.30	341.72
492.48	374.49
492.66	404.91
492.84	362.78
493.01	433.00
493.19	458.74
493.37	442.36
493.54	440.02
493.72	395.55
493.90	425.98
494.08	477.47
494.25	386.19
494.43	416.62
494.61	400.23
494.79	414.27
494.96	409.59
495.14	482.15
495.32	423.64
495.49	421.30
495.67	428.32
495.85	388.53
496.02	341.72
496.20	409.59
496.38	397.89
496.55	383.85
496.73	449.38
496.91	416.62
497.09	470.45
497.26	369.80
497.44	386.19
497.62	397.89
497.79	388.53
497.97	404.91
498.14	472.79
498.32	454.06
498.50	449.38
498.67	423.64
498.85	423.64
499.03	379.17
499.20	437.68
499.38	402.57
499.56	414.27
499.73	433.00
499.91	423.64
500.08	358.10
500.26	369.80
500.44	393.21
500.61	365.12
500.79	379.17
500.97	463.43
501.14	500.87
501.32	409.59
501.49	496.19
501.67	425.98
501.84	400.23
502.02	376.83
502.20	472.79
502.37	442.36
502.55	440.02
502.72	311.29
502.90	472.79
503.07	442.36
503.25	449.38
503.43	388.53
503.60	435.34
503.78	407.25
503.95	449.38
504.13	390.87
504.30	362.78
504.48	358.10
504.65	381.51
504.83	479.81
505.01	440.02
505.18	421.30
505.36	386.19
505.53	421.30
505.71	444.70
505.88	463.43
506.06	435.34
506.23	454.06
506.41	430.66
506.58	402.57
506.76	390.87
506.93	339.38
507.11	397.89
507.28	388.53
507.46	397.89
507.63	416.62
507.81	454.06
507.98	381.51
508.16	407.25
508.33	372.15
508.50	451.72
508.68	386.19
508.85	451.72
509.03	444.70
509.20	461.09
509.38	369.80
509.55	337.04
509.73	411.93
509.90	451.72
510.08	425.98
510.25	381.51
510.42	477.47
510.60	397.89
510.77	418.96
510.95	372.15
511.12	337.04
511.30	379.17
511.47	437.68
511.64	477.47
511.82	421.30
511.99	465.77
512.17	418.96
512.34	433.00
512.51	425.98
512.69	362.78
512.86	437.68
513.04	360.44
513.21	414.27
513.38	388.53
513.56	386.19
513.73	421.30
513.90	440.02
514.08	334.70
514.25	454.06
514.43	437.68
514.60	444.70
514.77	388.53
514.95	376.83
515.12	430.66
515.29	428.32
515.47	430.66
515.64	372.15
515.81	430.66
515.99	440.02
516.16	425.98
516.33	479.81
516.51	428.32
516.68	386.19
516.85	411.93
517.03	379.17
517.20	444.70
517.37	372.15
517.54	402.57
517.72	421.30
517.89	383.85
518.06	400.23
518.24	393.21
518.41	388.53
518.58	411.93
518.75	376.83
518.93	425.98
519.10	402.57
519.27	444.70
519.45	402.57
519.62	416.62
519.79	369.80
519.96	402.57
520.14	388.53
520.31	367.46
520.48	393.21
520.65	402.57
520.83	461.09
521.00	433.00
521.17	421.30
521.34	433.00
521.52	421.30
521.69	411.93
521.86	402.57
522.03	365.12
522.20	454.06
522.38	397.89
522.55	386.19
522.72	351.08
522.89	463.43
523.07	447.04
523.24	421.30
523.41	381.51
523.58	397.89
523.75	390.87
523.92	430.66
524.10	414.27
524.27	414.27
524.44	379.17
524.61	468.11
524.78	383.85
524.96	423.64
525.13	416.62
525.30	425.98
525.47	435.34
525.64	362.78
525.81	346.40
525.98	397.89
526.16	414.27
526.33	351.08
526.50	418.96
526.67	346.40
526.84	433.00
527.01	423.64
527.18	458.74
527.36	454.06
527.53	411.93
527.70	369.80
527.87	465.77
528.04	390.87
528.21	418.96
528.38	379.17
528.55	414.27
528.72	416.62
528.89	421.30
529.07	381.51
529.24	477.47
529.41	409.59
529.58	444.70
529.75	395.55
529.92	386.19
530.09	442.36
530.26	468.11
530.43	468.11
530.60	425.98
530.77	442.36
530.94	498.53
531.11	440.02
531.28	337.04
531.46	388.53
531.63	390.87
531.80	407.25
531.97	369.80
532.14	407.25
532.31	437.68
532.48	411.93
532.65	433.00
532.82	355.76
532.99	407.25
533.16	440.02
533.33	416.62
533.50	421.30
533.67	425.98
533.84	479.81
534.01	435.34
534.18	425.98
534.35	369.80
534.52	383.85
534.69	423.64
534.86	423.64
535.03	416.62
535.20	390.87
535.37	423.64
535.54	421.30
535.71	463.43
535.88	409.59
536.05	402.57
536.22	395.55
536.38	400.23
536.55	416.62
536.72	428.32
536.89	421.30
537.06	437.68
537.23	404.91
537.40	381.51
537.57	484.49
537.74	430.66
537.91	407.25
538.08	351.08
538.25	454.06
538.42	388.53
538.59	402.57
538.75	430.66
538.92	444.70
539.09	416.62
539.26	376.83
539.43	442.36
539.60	381.51
539.77	369.80
539.94	468.11
540.11	461.09
540.28	381.51
540.44	374.49
540.61	411.93
540.78	372.15
540.95	339.38
541.12	477.47
541.29	369.80
541.46	376.83
541.62	402.57
541.79	383.85
541.96	409.59
542.13	395.55
542.30	414.27
542.47	409.59
542.63	404.91
542.80	442.36
542.97	503.22
543.14	376.83
543.31	414.27
543.48	468.11
543.64	367.46
543.81	411.93
543.98	449.38
544.15	440.02
544.32	369.80
544.48	437.68
544.65	482.15
544.82	369.80
544.99	421.30
545.16	461.09
545.32	423.64
545.49	461.09
545.66	386.19
545.83	407.25
546.00	376.83
546.16	489.17
546.33	482.15
546.50	411.93
546.67	379.17
546.83	463.43
547.00	435.34
547.17	344.06
547.34	407.25
547.50	386.19
547.67	430.66
547.84	362.78
548.00	430.66
548.17	456.40
548.34	479.81
548.51	472.79
548.67	381.51
548.84	395.55
549.01	458.74
549.18	463.43
549.34	400.23
549.51	437.68
549.68	468.11
549.84	447.04
550.01	318.31
550.18	491.51
550.34	430.66
550.51	414.27
550.68	430.66
550.84	383.85
551.01	407.25
551.18	421.30
551.34	423.64
551.51	400.23
551.68	423.64
551.84	407.25
552.01	407.25
552.18	390.87
552.34	421.30
552.51	442.36
552.68	383.85
552.84	428.32
553.01	386.19
553.18	379.17
553.34	348.74
553.51	397.89
553.67	358.10
553.84	503.22
554.01	395.55
554.17	449.38
554.34	395.55
554.51	458.74
554.67	372.15
554.84	383.85
555.00	468.11
555.17	404.91
555.33	477.47
555.50	449.38
555.67	440.02
555.83	423.64
556.00	346.40
556.16	486.83
556.33	458.74
556.50	442.36
556.66	372.15
556.83	449.38
556.99	440.02
557.16	425.98
557.32	423.64
557.49	470.45
557.65	388.53
557.82	362.78
557.98	428.32
558.15	416.62
558.32	489.17
558.48	416.62
558.65	395.55
558.81	442.36
558.98	400.23
559.14	407.25
559.31	397.89
559.47	414.27
559.64	430.66
559.80	435.34
559.97	393.21
560.13	390.87
560.30	475.13
560.46	397.89
560.63	461.09
560.79	458.74
560.96	346.40
561.12	435.34
561.29	407.25
561.45	433.00
561.61	402.57
561.78	433.00
561.94	451.72
562.11	318.31
562.27	423.64
562.44	390.87
562.60	393.21
562.77	404.91
562.93	486.83
563.10	423.64
563.26	395.55
563.42	489.17
563.59	442.36
563.75	421.30
563.92	383.85
564.08	437.68
564.24	404.91
564.41	461.09
564.57	461.09
564.74	325.33
564.90	348.74
565.07	433.00
565.23	472.79
565.39	383.85
565.56	409.59
565.72	365.12
565.88	507.90
566.05	379.17
566.21	411.93
566.38	383.85
566.54	421.30
566.70	463.43
566.87	414.27
567.03	397.89
567.19	447.04
567.36	358.10
567.52	421.30
567.68	414.27
567.85	346.40
568.01	369.80
568.17	449.38
568.34	407.25
568.50	493.85
568.66	416.62
568.83	454.06
568.99	423.64
569.15	465.77
569.32	372.15
569.48	456.40
569.64	367.46
569.81	381.51
569.97	402.57
570.13	395.55
570.30	463.43
570.46	383.85
570.62	404.91
570.78	428.32
570.95	454.06
571.11	440.02
571.27	416.62
571.43	372.15
571.60	365.12
571.76	421.30
571.92	507.90
572.09	468.11
572.25	393.21
572.41	397.89
572.57	440.02
572.74	444.70
572.90	421.30
573.06	442.36
573.22	404.91
573.38	400.23
573.55	374.49
573.71	409.59
573.87	414.27
574.03	425.98
574.20	435.34
574.36	482.15
574.52	416.62
574.68	346.40
574.84	444.70
575.01	512.58
575.17	444.70
575.33	442.36
575.49	428.32
575.65	454.06
575.82	465.77
575.98	468.11
576.14	421.30
576.30	376.83
576.46	390.87
576.62	416.62
576.79	425.98
576.95	440.02
577.11	442.36
577.27	395.55
577.43	444.70
577.59	475.13
577.75	475.13
577.92	404.91
578.08	393.21
578.24	418.96
578.40	428.32
578.56	454.06
578.72	428.32
578.88	442.36
579.04	428.32
579.21	381.51
579.37	433.00
579.53	397.89
579.69	402.57
579.85	402.57
580.01	475.13
580.17	430.66
580.33	416.62
580.49	475.13
580.65	402.57
580.82	449.38
580.98	440.02
581.14	414.27
581.30	411.93
581.46	414.27
581.62	447.04
581.78	395.55
581.94	393.21
582.10	482.15
582.26	388.53
582.42	425.98
582.58	402.57
582.74	416.62
582.90	381.51
583.06	358.10
583.22	463.43
583.38	437.68
583.54	374.49
583.70	433.00
583.86	428.32
584.02	379.17
584.18	411.93
584.34	393.21
584.50	393.21
584.66	372.15
584.82	400.23
584.98	440.02
585.14	454.06
585.30	444.70
585.46	479.81
585.62	318.31
585.78	395.55
585.94	510.24
586.10	369.80
586.26	496.19
586.42	411.93
586.58	444.70
586.74	449.38
586.90	383.85
587.06	423.64
587.22	367.46
587.38	397.89
587.54	484.49
587.70	400.23
587.86	465.77
588.02	435.34
588.18	376.83
588.34	465.77
588.49	416.62
588.65	416.62
588.81	353.42
588.97	411.93
589.13	416.62
589.29	463.43
589.45	454.06
589.61	411.93
589.77	435.34
589.93	390.87
590.08	465.77
590.24	362.78
590.40	444.70
590.56	369.80
590.72	482.15
590.88	395.55
591.04	337.04
591.20	393.21
591.35	428.32
591.51	369.80
591.67	428.32
591.83	425.98
591.99	454.06
592.15	440.02
592.31	397.89
592.46	433.00
592.62	423.64
592.78	472.79
592.94	402.57
593.10	351.08
593.26	327.68
593.41	482.15
593.57	425.98
593.73	458.74
593.89	477.47
594.05	416.62
594.20	386.19
594.36	517.26
594.52	430.66
594.68	358.10
594.84	409.59
594.99	493.85
595.15	456.40
595.31	461.09
595.47	421.30
595.62	374.49
595.78	383.85
595.94	411.93
596.10	433.00
596.25	430.66
596.41	421.30
596.57	362.78
596.73	388.53
596.88	407.25
597.04	437.68
597.20	409.59
597.36	493.85
597.51	383.85
597.67	369.80
597.83	365.12
597.99	423.64
598.14	454.06
598.30	386.19
598.46	409.59
598.61	463.43
598.77	346.40
598.93	402.57
599.09	440.02
599.24	390.87
599.40	440.02
599.56	449.38
599.71	351.08
599.87	365.12
600.03	404.91
600.18	416.62
600.34	440.02
600.50	442.36
600.65	351.08
600.81	472.79
600.97	416.62
601.12	458.74
601.28	477.47
601.44	367.46
601.59	379.17
601.75	411.93
601.91	395.55
602.06	388.53
602.22	498.53
602.37	447.04
602.53	409.59
602.69	372.15
602.84	409.59
603.00	409.59
603.16	463.43
603.31	496.19
603.47	411.93
603.62	425.98
603.78	475.13
603.94	369.80
604.09	428.32
604.25	390.87
604.40	479.81
604.56	388.53
604.71	444.70
604.87	383.85
605.03	477.47
605.18	468.11
605.34	409.59
605.49	402.57
605.65	444.70
605.80	430.66
605.96	425.98
606.12	407.25
606.27	458.74
606.43	379.17
606.58	451.72
606.74	376.83
606.89	376.83
607.05	454.06
607.20	365.12
607.36	451.72
607.51	414.27
607.67	407.25
607.82	388.53
607.98	444.70
608.13	463.43
608.29	454.06
608.44	475.13
608.60	355.76
608.75	409.59
608.91	442.36
609.06	416.62
609.22	435.34
609.37	395.55
609.53	390.87
609.68	369.80
609.84	411.93
609.99	339.38
610.15	397.89
