SpectraSuite Data File
++++++++++++++++++++++++++++++++++++
Date: Fri Oct 25 12:10:13 EDT 2013
User: price-jones
Dark Spectrum Present: No
Reference Spectrum Present: No
Number of Sampled Component Spectra: 1
Spectrometers: USB2+H05261
Integration Time (usec): 100000 (USB2+H05261)
Spectra Averaged: 1 (USB2+H05261)
Boxcar Smoothing: 0 (USB2+H05261)
Correct for Electrical Dark: No (USB2+H05261)
Strobe/Lamp Enabled: No (USB2+H05261)
Correct for Detector Non-linearity: No (USB2+H05261)
Correct for Stray Light: No (USB2+H05261)
Number of Pixels in Processed Spectrum: 2048
>>>>>Begin Processed Spectral Data<<<<<
365.73	360.44
365.92	360.44
366.12	360.44
366.32	271.50
366.52	250.44
366.72	241.08
366.91	269.16
367.11	301.93
367.31	208.31
367.51	257.46
367.70	166.18
367.90	250.44
368.10	248.10
368.30	283.20
368.49	180.22
368.69	304.27
368.89	234.05
369.09	266.82
369.28	236.39
369.48	318.31
369.68	252.78
369.87	269.16
370.07	341.72
370.27	337.04
370.47	327.68
370.66	250.44
370.86	322.99
371.06	339.38
371.25	388.53
371.45	337.04
371.65	337.04
371.84	388.53
372.04	320.65
372.24	395.55
372.44	372.15
372.63	418.96
372.83	379.17
373.03	351.08
373.22	393.21
373.42	402.57
373.62	404.91
373.81	451.72
374.01	454.06
374.21	381.51
374.40	418.96
374.60	433.00
374.79	400.23
374.99	332.36
375.19	308.95
375.38	475.13
375.58	411.93
375.78	402.57
375.97	442.36
376.17	524.28
376.37	414.27
376.56	430.66
376.76	369.80
376.95	425.98
377.15	430.66
377.35	435.34
377.54	418.96
377.74	285.55
377.93	367.46
378.13	425.98
378.33	447.04
378.52	402.57
378.72	400.23
378.91	447.04
379.11	390.87
379.31	411.93
379.50	379.17
379.70	479.81
379.89	500.87
380.09	421.30
380.28	386.19
380.48	388.53
380.68	418.96
380.87	402.57
381.07	411.93
381.26	409.59
381.46	404.91
381.65	442.36
381.85	423.64
382.04	390.87
382.24	372.15
382.43	444.70
382.63	428.32
382.83	447.04
383.02	411.93
383.22	404.91
383.41	367.46
383.61	468.11
383.80	414.27
384.00	358.10
384.19	358.10
384.39	308.95
384.58	353.42
384.78	444.70
384.97	402.57
385.17	416.62
385.36	365.12
385.56	416.62
385.75	367.46
385.95	386.19
386.14	444.70
386.34	425.98
386.53	402.57
386.72	416.62
386.92	418.96
387.11	407.25
387.31	461.09
387.50	369.80
387.70	400.23
387.89	470.45
388.09	341.72
388.28	437.68
388.48	421.30
388.67	367.46
388.86	402.57
389.06	381.51
389.25	414.27
389.45	498.53
389.64	404.91
389.84	383.85
390.03	440.02
390.22	383.85
390.42	358.10
390.61	372.15
390.81	386.19
391.00	402.57
391.19	414.27
391.39	444.70
391.58	400.23
391.78	456.40
391.97	327.68
392.16	402.57
392.36	444.70
392.55	397.89
392.75	388.53
392.94	327.68
393.13	440.02
393.33	327.68
393.52	404.91
393.71	411.93
393.91	449.38
394.10	397.89
394.29	404.91
394.49	414.27
394.68	376.83
394.88	421.30
395.07	414.27
395.26	358.10
395.46	447.04
395.65	388.53
395.84	369.80
396.04	428.32
396.23	351.08
396.42	339.38
396.62	451.72
396.81	435.34
397.00	442.36
397.19	360.44
397.39	360.44
397.58	430.66
397.77	353.42
397.97	339.38
398.16	409.59
398.35	482.15
398.55	379.17
398.74	395.55
398.93	428.32
399.12	440.02
399.32	430.66
399.51	447.04
399.70	397.89
399.90	379.17
400.09	421.30
400.28	418.96
400.47	407.25
400.67	414.27
400.86	388.53
401.05	411.93
401.24	491.51
401.44	468.11
401.63	369.80
401.82	421.30
402.01	428.32
402.21	444.70
402.40	390.87
402.59	421.30
402.78	367.46
402.97	430.66
403.17	395.55
403.36	454.06
403.55	442.36
403.74	386.19
403.93	379.17
404.13	404.91
404.32	397.89
404.51	395.55
404.70	472.79
404.89	404.91
405.09	458.74
405.28	409.59
405.47	484.49
405.66	484.49
405.85	423.64
406.05	348.74
406.24	414.27
406.43	442.36
406.62	519.60
406.81	411.93
407.00	376.83
407.20	388.53
407.39	339.38
407.58	379.17
407.77	461.09
407.96	444.70
408.15	414.27
408.34	372.15
408.54	400.23
408.73	409.59
408.92	381.51
409.11	421.30
409.30	437.68
409.49	449.38
409.68	381.51
409.87	437.68
410.07	367.46
410.26	388.53
410.45	451.72
410.64	374.49
410.83	407.25
411.02	395.55
411.21	395.55
411.40	472.79
411.59	456.40
411.78	447.04
411.98	409.59
412.17	393.21
412.36	421.30
412.55	376.83
412.74	393.21
412.93	383.85
413.12	381.51
413.31	369.80
413.50	416.62
413.69	360.44
413.88	489.17
414.07	402.57
414.26	383.85
414.45	407.25
414.64	400.23
414.83	402.57
415.02	451.72
415.22	372.15
415.41	468.11
415.60	437.68
415.79	360.44
415.98	369.80
416.17	425.98
416.36	423.64
416.55	425.98
416.74	433.00
416.93	407.25
417.12	430.66
417.31	416.62
417.50	386.19
417.69	421.30
417.88	379.17
418.07	454.06
418.26	383.85
418.45	407.25
418.64	512.58
418.83	346.40
419.02	353.42
419.21	341.72
419.39	421.30
419.58	374.49
419.77	435.34
419.96	407.25
420.15	477.47
420.34	435.34
420.53	402.57
420.72	423.64
420.91	440.02
421.10	414.27
421.29	337.04
421.48	374.49
421.67	475.13
421.86	433.00
422.05	442.36
422.24	395.55
422.43	367.46
422.61	425.98
422.80	330.02
422.99	369.80
423.18	435.34
423.37	421.30
423.56	400.23
423.75	440.02
423.94	442.36
424.13	369.80
424.32	362.78
424.50	386.19
424.69	423.64
424.88	458.74
425.07	315.97
425.26	362.78
425.45	423.64
425.64	386.19
425.83	418.96
426.01	395.55
426.20	409.59
426.39	393.21
426.58	456.40
426.77	435.34
426.96	475.13
427.15	376.83
427.33	456.40
427.52	430.66
427.71	416.62
427.90	386.19
428.09	393.21
428.28	440.02
428.46	372.15
428.65	390.87
428.84	395.55
429.03	358.10
429.22	395.55
429.40	383.85
429.59	400.23
429.78	430.66
429.97	393.21
430.16	414.27
430.34	400.23
430.53	372.15
430.72	313.63
430.91	430.66
431.10	390.87
431.28	400.23
431.47	465.77
431.66	428.32
431.85	393.21
432.03	456.40
432.22	543.00
432.41	418.96
432.60	496.19
432.79	337.04
432.97	381.51
433.16	376.83
433.35	397.89
433.54	372.15
433.72	376.83
433.91	390.87
434.10	397.89
434.28	451.72
434.47	416.62
434.66	358.10
434.85	390.87
435.03	381.51
435.22	496.19
435.41	430.66
435.59	346.40
435.78	500.87
435.97	433.00
436.16	416.62
436.34	470.45
436.53	449.38
436.72	447.04
436.90	475.13
437.09	372.15
437.28	423.64
437.46	411.93
437.65	458.74
437.84	449.38
438.02	379.17
438.21	444.70
438.40	440.02
438.58	404.91
438.77	423.64
438.96	421.30
439.14	423.64
439.33	362.78
439.52	430.66
439.70	390.87
439.89	414.27
440.08	388.53
440.26	433.00
440.45	402.57
440.63	358.10
440.82	470.45
441.01	416.62
441.19	465.77
441.38	430.66
441.57	442.36
441.75	379.17
441.94	456.40
442.12	425.98
442.31	486.83
442.50	388.53
442.68	491.51
442.87	416.62
443.05	332.36
443.24	423.64
443.43	416.62
443.61	397.89
443.80	404.91
443.98	411.93
444.17	400.23
444.35	407.25
444.54	379.17
444.73	409.59
444.91	440.02
445.10	468.11
445.28	379.17
445.47	376.83
445.65	348.74
445.84	379.17
446.02	425.98
446.21	421.30
446.39	365.12
446.58	421.30
446.77	395.55
446.95	362.78
447.14	402.57
447.32	491.51
447.51	444.70
447.69	423.64
447.88	454.06
448.06	337.04
448.25	454.06
448.43	430.66
448.62	428.32
448.80	526.62
448.99	388.53
449.17	383.85
449.36	367.46
449.54	402.57
449.73	482.15
449.91	376.83
450.10	428.32
450.28	528.96
450.46	472.79
450.65	383.85
450.83	409.59
451.02	404.91
451.20	407.25
451.39	400.23
451.57	411.93
451.76	376.83
451.94	388.53
452.13	400.23
452.31	428.32
452.49	430.66
452.68	355.76
452.86	430.66
453.05	484.49
453.23	411.93
453.42	423.64
453.60	470.45
453.78	400.23
453.97	437.68
454.15	458.74
454.34	423.64
454.52	465.77
454.70	414.27
454.89	430.66
455.07	376.83
455.26	421.30
455.44	433.00
455.62	475.13
455.81	418.96
455.99	428.32
456.17	475.13
456.36	383.85
456.54	449.38
456.73	358.10
456.91	397.89
457.09	440.02
457.28	372.15
457.46	430.66
457.64	383.85
457.83	472.79
458.01	383.85
458.19	454.06
458.38	365.12
458.56	360.44
458.74	470.45
458.93	390.87
459.11	376.83
459.29	402.57
459.48	411.93
459.66	372.15
459.84	404.91
460.03	493.85
460.21	407.25
460.39	353.42
460.57	456.40
460.76	404.91
460.94	325.33
461.12	468.11
461.31	423.64
461.49	423.64
461.67	430.66
461.85	425.98
462.04	435.34
462.22	779.40
462.40	463.43
462.59	386.19
462.77	425.98
462.95	463.43
463.13	421.30
463.32	423.64
463.50	440.02
463.68	383.85
463.86	454.06
464.05	421.30
464.23	470.45
464.41	421.30
464.59	416.62
464.78	437.68
464.96	433.00
465.14	402.57
465.32	407.25
465.50	498.53
465.69	458.74
465.87	409.59
466.05	484.49
466.23	393.21
466.41	449.38
466.60	365.12
466.78	416.62
466.96	433.00
467.14	407.25
467.32	386.19
467.51	376.83
467.69	402.57
467.87	416.62
468.05	393.21
468.23	381.51
468.41	411.93
468.60	367.46
468.78	486.83
468.96	418.96
469.14	498.53
469.32	388.53
469.50	416.62
469.69	393.21
469.87	383.85
470.05	435.34
470.23	482.15
470.41	376.83
470.59	386.19
470.77	440.02
470.95	400.23
471.14	468.11
471.32	440.02
471.50	411.93
471.68	376.83
471.86	433.00
472.04	451.72
472.22	416.62
472.40	374.49
472.58	351.08
472.77	430.66
472.95	482.15
473.13	447.04
473.31	421.30
473.49	458.74
473.67	418.96
473.85	425.98
474.03	433.00
474.21	397.89
474.39	447.04
474.57	418.96
474.75	416.62
474.93	421.30
475.12	442.36
475.30	372.15
475.48	470.45
475.66	484.49
475.84	425.98
476.02	379.17
476.20	411.93
476.38	390.87
476.56	470.45
476.74	477.47
476.92	379.17
477.10	362.78
477.28	444.70
477.46	404.91
477.64	400.23
477.82	425.98
478.00	379.17
478.18	421.30
478.36	374.49
478.54	411.93
478.72	388.53
478.90	402.57
479.08	468.11
479.26	428.32
479.44	402.57
479.62	369.80
479.80	458.74
479.98	404.91
480.16	421.30
480.34	409.59
480.52	409.59
480.70	390.87
480.88	383.85
481.06	418.96
481.24	400.23
481.41	339.38
481.59	454.06
481.77	381.51
481.95	409.59
482.13	376.83
482.31	430.66
482.49	407.25
482.67	383.85
482.85	433.00
483.03	430.66
483.21	409.59
483.39	433.00
483.57	437.68
483.74	376.83
483.92	430.66
484.10	379.17
484.28	444.70
484.46	479.81
484.64	313.63
484.82	425.98
485.00	440.02
485.18	325.33
485.35	482.15
485.53	374.49
485.71	397.89
485.89	414.27
486.07	428.32
486.25	425.98
486.43	390.87
486.61	498.53
486.78	409.59
486.96	449.38
487.14	381.51
487.32	393.21
487.50	386.19
487.68	444.70
487.85	330.02
488.03	388.53
488.21	421.30
488.39	414.27
488.57	367.46
488.75	332.36
488.92	535.98
489.10	400.23
489.28	486.83
489.46	428.32
489.64	346.40
489.81	414.27
489.99	437.68
490.17	404.91
490.35	411.93
490.53	468.11
490.70	496.19
490.88	416.62
491.06	423.64
491.24	461.09
491.41	477.47
491.59	498.53
491.77	437.68
491.95	433.00
492.13	411.93
492.30	388.53
492.48	456.40
492.66	463.43
492.84	416.62
493.01	425.98
493.19	381.51
493.37	543.00
493.54	390.87
493.72	407.25
493.90	402.57
494.08	379.17
494.25	456.40
494.43	416.62
494.61	393.21
494.79	421.30
494.96	376.83
495.14	409.59
495.32	454.06
495.49	435.34
495.67	433.00
495.85	414.27
496.02	393.21
496.20	393.21
496.38	414.27
496.55	430.66
496.73	440.02
496.91	360.44
497.09	437.68
497.26	365.12
497.44	404.91
497.62	358.10
497.79	416.62
497.97	456.40
498.14	433.00
498.32	395.55
498.50	353.42
498.67	376.83
498.85	435.34
499.03	407.25
499.20	397.89
499.38	400.23
499.56	449.38
499.73	491.51
499.91	482.15
500.08	367.46
500.26	421.30
500.44	421.30
500.61	428.32
500.79	461.09
500.97	421.30
501.14	404.91
501.32	470.45
501.49	423.64
501.67	430.66
501.84	416.62
502.02	374.49
502.20	414.27
502.37	454.06
502.55	369.80
502.72	407.25
502.90	386.19
503.07	428.32
503.25	456.40
503.43	388.53
503.60	395.55
503.78	414.27
503.95	395.55
504.13	470.45
504.30	414.27
504.48	468.11
504.65	390.87
504.83	411.93
505.01	372.15
505.18	383.85
505.36	418.96
505.53	430.66
505.71	395.55
505.88	463.43
506.06	449.38
506.23	388.53
506.41	372.15
506.58	355.76
506.76	400.23
506.93	416.62
507.11	477.47
507.28	395.55
507.46	372.15
507.63	365.12
507.81	339.38
507.98	402.57
508.16	411.93
508.33	421.30
508.50	418.96
508.68	400.23
508.85	435.34
509.03	397.89
509.20	416.62
509.38	355.76
509.55	400.23
509.73	489.17
509.90	442.36
510.08	421.30
510.25	440.02
510.42	386.19
510.60	411.93
510.77	425.98
510.95	407.25
511.12	505.56
511.30	489.17
511.47	425.98
511.64	475.13
511.82	372.15
511.99	400.23
512.17	442.36
512.34	463.43
512.51	428.32
512.69	327.68
512.86	435.34
513.04	433.00
513.21	456.40
513.38	463.43
513.56	365.12
513.73	414.27
513.90	407.25
514.08	337.04
514.25	402.57
514.43	393.21
514.60	416.62
514.77	416.62
514.95	465.77
515.12	393.21
515.29	404.91
515.47	416.62
515.64	451.72
515.81	440.02
515.99	451.72
516.16	360.44
516.33	484.49
516.51	447.04
516.68	318.31
516.85	395.55
517.03	479.81
517.20	477.47
517.37	411.93
517.54	390.87
517.72	332.36
517.89	402.57
518.06	308.95
518.24	414.27
518.41	435.34
518.58	472.79
518.75	386.19
518.93	475.13
519.10	393.21
519.27	397.89
519.45	379.17
519.62	395.55
519.79	456.40
519.96	383.85
520.14	397.89
520.31	484.49
520.48	390.87
520.65	430.66
520.83	423.64
521.00	346.40
521.17	428.32
521.34	362.78
521.52	425.98
521.69	442.36
521.86	381.51
522.03	479.81
522.20	454.06
522.38	433.00
522.55	491.51
522.72	430.66
522.89	430.66
523.07	535.98
523.24	484.49
523.41	435.34
523.58	393.21
523.75	390.87
523.92	360.44
524.10	411.93
524.27	430.66
524.44	421.30
524.61	402.57
524.78	334.70
524.96	440.02
525.13	447.04
525.30	428.32
525.47	430.66
525.64	393.21
525.81	400.23
525.98	456.40
526.16	374.49
526.33	454.06
526.50	416.62
526.67	409.59
526.84	465.77
527.01	416.62
527.18	411.93
527.36	451.72
527.53	421.30
527.70	425.98
527.87	388.53
528.04	400.23
528.21	395.55
528.38	517.26
528.55	475.13
528.72	418.96
528.89	428.32
529.07	386.19
529.24	355.76
529.41	358.10
529.58	416.62
529.75	416.62
529.92	433.00
530.09	449.38
530.26	358.10
530.43	425.98
530.60	416.62
530.77	330.02
530.94	418.96
531.11	435.34
531.28	418.96
531.46	402.57
531.63	360.44
531.80	418.96
531.97	411.93
532.14	447.04
532.31	409.59
532.48	374.49
532.65	447.04
532.82	437.68
532.99	409.59
533.16	435.34
533.33	421.30
533.50	407.25
533.67	402.57
533.84	437.68
534.01	470.45
534.18	322.99
534.35	444.70
534.52	425.98
534.69	435.34
534.86	449.38
535.03	404.91
535.20	433.00
535.37	388.53
535.54	346.40
535.71	404.91
535.88	430.66
536.05	407.25
536.22	390.87
536.38	442.36
536.55	442.36
536.72	407.25
536.89	409.59
537.06	416.62
537.23	320.65
537.40	409.59
537.57	447.04
537.74	414.27
537.91	440.02
538.08	454.06
538.25	397.89
538.42	447.04
538.59	433.00
538.75	397.89
538.92	477.47
539.09	390.87
539.26	390.87
539.43	414.27
539.60	379.17
539.77	362.78
539.94	411.93
540.11	435.34
540.28	388.53
540.44	442.36
540.61	393.21
540.78	341.72
540.95	423.64
541.12	526.62
541.29	388.53
541.46	402.57
541.62	463.43
541.79	440.02
541.96	365.12
542.13	425.98
542.30	425.98
542.47	407.25
542.63	428.32
542.80	402.57
542.97	428.32
543.14	440.02
543.31	442.36
543.48	332.36
543.64	421.30
543.81	372.15
543.98	367.46
544.15	348.74
544.32	425.98
544.48	430.66
544.65	400.23
544.82	362.78
544.99	433.00
545.16	400.23
545.32	376.83
545.49	414.27
545.66	433.00
545.83	337.04
546.00	470.45
546.16	451.72
546.33	418.96
546.50	456.40
546.67	416.62
546.83	472.79
547.00	423.64
547.17	433.00
547.34	383.85
547.50	461.09
547.67	416.62
547.84	386.19
548.00	351.08
548.17	386.19
548.34	418.96
548.51	409.59
548.67	463.43
548.84	355.76
549.01	442.36
549.18	397.89
549.34	440.02
549.51	390.87
549.68	475.13
549.84	451.72
550.01	400.23
550.18	486.83
550.34	514.92
550.51	440.02
550.68	418.96
550.84	510.24
551.01	468.11
551.18	444.70
551.34	306.61
551.51	395.55
551.68	353.42
551.84	451.72
552.01	463.43
552.18	386.19
552.34	461.09
552.51	456.40
552.68	393.21
552.84	362.78
553.01	547.69
553.18	437.68
553.34	428.32
553.51	395.55
553.67	407.25
553.84	458.74
554.01	430.66
554.17	510.24
554.34	451.72
554.51	447.04
554.67	425.98
554.84	425.98
555.00	404.91
555.17	379.17
555.33	486.83
555.50	524.28
555.67	402.57
555.83	463.43
556.00	416.62
556.16	475.13
556.33	468.11
556.50	423.64
556.66	421.30
556.83	421.30
556.99	360.44
557.16	362.78
557.32	414.27
557.49	388.53
557.65	409.59
557.82	372.15
557.98	381.51
558.15	397.89
558.32	440.02
558.48	383.85
558.65	472.79
558.81	470.45
558.98	397.89
559.14	402.57
559.31	444.70
559.47	407.25
559.64	390.87
559.80	482.15
559.97	390.87
560.13	451.72
560.30	428.32
560.46	379.17
560.63	404.91
560.79	393.21
560.96	472.79
561.12	418.96
561.29	423.64
561.45	430.66
561.61	425.98
561.78	465.77
561.94	381.51
562.11	430.66
562.27	409.59
562.44	400.23
562.60	423.64
562.77	418.96
562.93	486.83
563.10	369.80
563.26	458.74
563.42	465.77
563.59	397.89
563.75	376.83
563.92	510.24
564.08	407.25
564.24	414.27
564.41	479.81
564.57	402.57
564.74	339.38
564.90	395.55
565.07	400.23
565.23	386.19
565.39	489.17
565.56	393.21
565.72	376.83
565.88	404.91
566.05	521.94
566.21	430.66
566.38	404.91
566.54	418.96
566.70	416.62
566.87	425.98
567.03	449.38
567.19	402.57
567.36	381.51
567.52	411.93
567.68	414.27
567.85	383.85
568.01	358.10
568.17	400.23
568.34	318.31
568.50	449.38
568.66	444.70
568.83	456.40
568.99	423.64
569.15	423.64
569.32	421.30
569.48	407.25
569.64	322.99
569.81	444.70
569.97	374.49
570.13	381.51
570.30	355.76
570.46	327.68
570.62	447.04
570.78	402.57
570.95	409.59
571.11	353.42
571.27	339.38
571.43	362.78
571.60	360.44
571.76	416.62
571.92	397.89
572.09	418.96
572.25	367.46
572.41	355.76
572.57	433.00
572.74	416.62
572.90	383.85
573.06	386.19
573.22	435.34
573.38	390.87
573.55	416.62
573.71	489.17
573.87	425.98
574.03	437.68
574.20	393.21
574.36	360.44
574.52	409.59
574.68	301.93
574.84	315.97
575.01	430.66
575.17	437.68
575.33	416.62
575.49	451.72
575.65	397.89
575.82	418.96
575.98	437.68
576.14	414.27
576.30	444.70
576.46	386.19
576.62	372.15
576.79	449.38
576.95	407.25
577.11	472.79
577.27	383.85
577.43	407.25
577.59	472.79
577.75	397.89
577.92	404.91
578.08	430.66
578.24	365.12
578.40	351.08
578.56	376.83
578.72	444.70
578.88	393.21
579.04	379.17
579.21	423.64
579.37	400.23
579.53	383.85
579.69	463.43
579.85	475.13
580.01	451.72
580.17	355.76
580.33	414.27
580.49	458.74
580.65	404.91
580.82	390.87
580.98	430.66
581.14	400.23
581.30	472.79
581.46	386.19
581.62	423.64
581.78	435.34
581.94	444.70
582.10	386.19
582.26	421.30
582.42	386.19
582.58	458.74
582.74	362.78
582.90	367.46
583.06	381.51
583.22	397.89
583.38	386.19
583.54	325.33
583.70	409.59
583.86	423.64
584.02	411.93
584.18	477.47
584.34	344.06
584.50	437.68
584.66	395.55
584.82	381.51
584.98	496.19
585.14	454.06
585.30	386.19
585.46	447.04
585.62	437.68
585.78	416.62
585.94	456.40
586.10	423.64
586.26	433.00
586.42	409.59
586.58	463.43
586.74	416.62
586.90	447.04
587.06	463.43
587.22	421.30
587.38	428.32
587.54	407.25
587.70	402.57
587.86	425.98
588.02	397.89
588.18	456.40
588.34	472.79
588.49	400.23
588.65	442.36
588.81	360.44
588.97	449.38
589.13	393.21
589.29	374.49
589.45	461.09
589.61	472.79
589.77	435.34
589.93	416.62
590.08	400.23
590.24	416.62
590.40	390.87
590.56	437.68
590.72	397.89
590.88	414.27
591.04	397.89
591.20	402.57
591.35	524.28
591.51	379.17
591.67	393.21
591.83	440.02
591.99	423.64
592.15	425.98
592.31	479.81
592.46	428.32
592.62	440.02
592.78	428.32
592.94	355.76
593.10	400.23
593.26	407.25
593.41	428.32
593.57	456.40
593.73	400.23
593.89	411.93
594.05	458.74
594.20	353.42
594.36	411.93
594.52	409.59
594.68	423.64
594.84	416.62
594.99	421.30
595.15	362.78
595.31	407.25
595.47	411.93
595.62	400.23
595.78	451.72
595.94	470.45
596.10	451.72
596.25	468.11
596.41	437.68
596.57	376.83
596.73	409.59
596.88	465.77
597.04	362.78
597.20	374.49
597.36	421.30
597.51	442.36
597.67	416.62
597.83	456.40
597.99	468.11
598.14	376.83
598.30	489.17
598.46	374.49
598.61	477.47
598.77	411.93
598.93	442.36
599.09	475.13
599.24	463.43
599.40	479.81
599.56	409.59
599.71	414.27
599.87	367.46
600.03	411.93
600.18	444.70
600.34	411.93
600.50	402.57
600.65	437.68
600.81	449.38
600.97	402.57
601.12	440.02
601.28	451.72
601.44	400.23
601.59	337.04
601.75	376.83
601.91	330.02
602.06	416.62
602.22	444.70
602.37	402.57
602.53	447.04
602.69	360.44
602.84	383.85
603.00	374.49
603.16	358.10
603.31	461.09
603.47	388.53
603.62	320.65
603.78	407.25
603.94	383.85
604.09	409.59
604.25	484.49
604.40	430.66
604.56	407.25
604.71	440.02
604.87	411.93
605.03	395.55
605.18	388.53
605.34	374.49
605.49	383.85
605.65	423.64
605.80	463.43
605.96	444.70
606.12	386.19
606.27	414.27
606.43	496.19
606.58	465.77
606.74	456.40
606.89	388.53
607.05	461.09
607.20	444.70
607.36	411.93
607.51	423.64
607.67	395.55
607.82	414.27
607.98	355.76
608.13	395.55
608.29	369.80
608.44	475.13
608.60	416.62
608.75	479.81
608.91	465.77
609.06	451.72
609.22	348.74
609.37	386.19
609.53	423.64
609.68	402.57
609.84	428.32
609.99	386.19
610.15	454.06
