SpectraSuite Data File
++++++++++++++++++++++++++++++++++++
Date: Fri Oct 25 12:11:18 EDT 2013
User: price-jones
Dark Spectrum Present: No
Reference Spectrum Present: No
Number of Sampled Component Spectra: 1
Spectrometers: USB2+H05261
Integration Time (usec): 100000 (USB2+H05261)
Spectra Averaged: 1 (USB2+H05261)
Boxcar Smoothing: 0 (USB2+H05261)
Correct for Electrical Dark: No (USB2+H05261)
Strobe/Lamp Enabled: No (USB2+H05261)
Correct for Detector Non-linearity: No (USB2+H05261)
Correct for Stray Light: No (USB2+H05261)
Number of Pixels in Processed Spectrum: 2048
>>>>>Begin Processed Spectral Data<<<<<
365.73	376.83
365.92	376.83
366.12	376.83
366.32	266.82
366.52	262.14
366.72	292.57
366.91	271.50
367.11	290.23
367.31	234.05
367.51	231.71
367.70	283.20
367.90	290.23
368.10	175.54
368.30	236.39
368.49	236.39
368.69	266.82
368.89	191.92
369.09	294.91
369.28	259.80
369.48	255.12
369.68	304.27
369.87	337.04
370.07	327.68
370.27	299.59
370.47	351.08
370.66	292.57
370.86	433.00
371.06	418.96
371.25	442.36
371.45	372.15
371.65	365.12
371.84	313.63
372.04	330.02
372.24	346.40
372.44	404.91
372.63	402.57
372.83	344.06
373.03	491.51
373.22	411.93
373.42	418.96
373.62	451.72
373.81	435.34
374.01	486.83
374.21	456.40
374.40	400.23
374.60	458.74
374.79	367.46
374.99	386.19
375.19	458.74
375.38	428.32
375.58	423.64
375.78	430.66
375.97	475.13
376.17	486.83
376.37	423.64
376.56	355.76
376.76	444.70
376.95	367.46
377.15	397.89
377.35	407.25
377.54	411.93
377.74	421.30
377.93	442.36
378.13	421.30
378.33	388.53
378.52	475.13
378.72	418.96
378.91	395.55
379.11	379.17
379.31	416.62
379.50	376.83
379.70	472.79
379.89	456.40
380.09	428.32
380.28	423.64
380.48	423.64
380.68	442.36
380.87	355.76
381.07	365.12
381.26	332.36
381.46	416.62
381.65	425.98
381.85	404.91
382.04	425.98
382.24	409.59
382.43	414.27
382.63	407.25
382.83	451.72
383.02	444.70
383.22	374.49
383.41	468.11
383.61	447.04
383.80	451.72
384.00	418.96
384.19	433.00
384.39	388.53
384.58	400.23
384.78	437.68
384.97	379.17
385.17	379.17
385.36	407.25
385.56	456.40
385.75	444.70
385.95	383.85
386.14	416.62
386.34	355.76
386.53	360.44
386.72	428.32
386.92	489.17
387.11	475.13
387.31	451.72
387.50	355.76
387.70	341.72
387.89	358.10
388.09	444.70
388.28	393.21
388.48	470.45
388.67	470.45
388.86	482.15
389.06	433.00
389.25	447.04
389.45	411.93
389.64	433.00
389.84	435.34
390.03	461.09
390.22	444.70
390.42	475.13
390.61	381.51
390.81	372.15
391.00	397.89
391.19	477.47
391.39	447.04
391.58	421.30
391.78	322.99
391.97	402.57
392.16	325.33
392.36	458.74
392.55	505.56
392.75	400.23
392.94	386.19
393.13	409.59
393.33	425.98
393.52	440.02
393.71	479.81
393.91	437.68
394.10	362.78
394.29	416.62
394.49	418.96
394.68	395.55
394.88	404.91
395.07	367.46
395.26	367.46
395.46	374.49
395.65	393.21
395.84	444.70
396.04	500.87
396.23	416.62
396.42	479.81
396.62	465.77
396.81	409.59
397.00	390.87
397.19	407.25
397.39	388.53
397.58	379.17
397.77	360.44
397.97	383.85
398.16	440.02
398.35	430.66
398.55	440.02
398.74	430.66
398.93	386.19
399.12	411.93
399.32	334.70
399.51	397.89
399.70	360.44
399.90	407.25
400.09	430.66
400.28	433.00
400.47	372.15
400.67	423.64
400.86	393.21
401.05	440.02
401.24	456.40
401.44	447.04
401.63	505.56
401.82	433.00
402.01	425.98
402.21	423.64
402.40	395.55
402.59	379.17
402.78	367.46
402.97	414.27
403.17	444.70
403.36	451.72
403.55	395.55
403.74	383.85
403.93	414.27
404.13	442.36
404.32	470.45
404.51	423.64
404.70	416.62
404.89	360.44
405.09	400.23
405.28	397.89
405.47	423.64
405.66	416.62
405.85	433.00
406.05	395.55
406.24	404.91
406.43	433.00
406.62	496.19
406.81	465.77
407.00	463.43
407.20	344.06
407.39	430.66
407.58	449.38
407.77	400.23
407.96	428.32
408.15	362.78
408.34	407.25
408.54	383.85
408.73	372.15
408.92	383.85
409.11	475.13
409.30	367.46
409.49	360.44
409.68	358.10
409.87	418.96
410.07	409.59
410.26	395.55
410.45	402.57
410.64	369.80
410.83	395.55
411.02	402.57
411.21	362.78
411.40	454.06
411.59	404.91
411.78	334.70
411.98	379.17
412.17	390.87
412.36	458.74
412.55	423.64
412.74	390.87
412.93	404.91
413.12	379.17
413.31	416.62
413.50	402.57
413.69	421.30
413.88	430.66
414.07	407.25
414.26	358.10
414.45	395.55
414.64	402.57
414.83	400.23
415.02	393.21
415.22	442.36
415.41	404.91
415.60	423.64
415.79	430.66
415.98	428.32
416.17	416.62
416.36	355.76
416.55	372.15
416.74	416.62
416.93	393.21
417.12	362.78
417.31	325.33
417.50	437.68
417.69	397.89
417.88	379.17
418.07	379.17
418.26	386.19
418.45	404.91
418.64	449.38
418.83	402.57
419.02	386.19
419.21	425.98
419.39	416.62
419.58	440.02
419.77	447.04
419.96	451.72
420.15	496.19
420.34	418.96
420.53	393.21
420.72	461.09
420.91	397.89
421.10	411.93
421.29	404.91
421.48	440.02
421.67	491.51
421.86	425.98
422.05	386.19
422.24	421.30
422.43	414.27
422.61	402.57
422.80	395.55
422.99	409.59
423.18	346.40
423.37	390.87
423.56	472.79
423.75	397.89
423.94	411.93
424.13	397.89
424.32	395.55
424.50	374.49
424.69	358.10
424.88	395.55
425.07	482.15
425.26	444.70
425.45	386.19
425.64	440.02
425.83	425.98
426.01	393.21
426.20	463.43
426.39	418.96
426.58	376.83
426.77	414.27
426.96	430.66
427.15	470.45
427.33	374.49
427.52	388.53
427.71	397.89
427.90	388.53
428.09	362.78
428.28	334.70
428.46	374.49
428.65	447.04
428.84	313.63
429.03	379.17
429.22	360.44
429.40	351.08
429.59	430.66
429.78	425.98
429.97	425.98
430.16	409.59
430.34	416.62
430.53	433.00
430.72	358.10
430.91	428.32
431.10	376.83
431.28	376.83
431.47	414.27
431.66	454.06
431.85	351.08
432.03	423.64
432.22	461.09
432.41	365.12
432.60	521.94
432.79	437.68
432.97	346.40
433.16	404.91
433.35	367.46
433.54	451.72
433.72	461.09
433.91	381.51
434.10	440.02
434.28	365.12
434.47	428.32
434.66	418.96
434.85	414.27
435.03	498.53
435.22	397.89
435.41	468.11
435.59	395.55
435.78	425.98
435.97	393.21
436.16	430.66
436.34	386.19
436.53	369.80
436.72	437.68
436.90	449.38
437.09	395.55
437.28	425.98
437.46	386.19
437.65	475.13
437.84	351.08
438.02	409.59
438.21	498.53
438.40	365.12
438.58	423.64
438.77	402.57
438.96	444.70
439.14	416.62
439.33	489.17
439.52	397.89
439.70	428.32
439.89	470.45
440.08	414.27
440.26	379.17
440.45	390.87
440.63	472.79
440.82	454.06
441.01	383.85
441.19	376.83
441.38	404.91
441.57	418.96
441.75	521.94
441.94	449.38
442.12	500.87
442.31	465.77
442.50	430.66
442.68	365.12
442.87	388.53
443.05	346.40
443.24	409.59
443.43	374.49
443.61	472.79
443.80	404.91
443.98	409.59
444.17	435.34
444.35	400.23
444.54	465.77
444.73	367.46
444.91	369.80
445.10	484.49
445.28	397.89
445.47	440.02
445.65	355.76
445.84	407.25
446.02	421.30
446.21	428.32
446.39	404.91
446.58	341.72
446.77	393.21
446.95	337.04
447.14	388.53
447.32	463.43
447.51	468.11
447.69	397.89
447.88	435.34
448.06	456.40
448.25	454.06
448.43	421.30
448.62	386.19
448.80	444.70
448.99	451.72
449.17	440.02
449.36	400.23
449.54	360.44
449.73	458.74
449.91	440.02
450.10	397.89
450.28	461.09
450.46	435.34
450.65	430.66
450.83	386.19
451.02	372.15
451.20	400.23
451.39	472.79
451.57	416.62
451.76	379.17
451.94	470.45
452.13	461.09
452.31	498.53
452.49	428.32
452.68	313.63
452.86	386.19
453.05	470.45
453.23	409.59
453.42	421.30
453.60	425.98
453.78	416.62
453.97	442.36
454.15	386.19
454.34	409.59
454.52	407.25
454.70	430.66
454.89	475.13
455.07	430.66
455.26	428.32
455.44	421.30
455.62	444.70
455.81	388.53
455.99	507.90
456.17	444.70
456.36	346.40
456.54	395.55
456.73	332.36
456.91	449.38
457.09	440.02
457.28	372.15
457.46	425.98
457.64	397.89
457.83	355.76
458.01	360.44
458.19	386.19
458.38	407.25
458.56	449.38
458.74	407.25
458.93	433.00
459.11	400.23
459.29	346.40
459.48	388.53
459.66	486.83
459.84	390.87
460.03	440.02
460.21	472.79
460.39	411.93
460.57	355.76
460.76	430.66
460.94	444.70
461.12	472.79
461.31	423.64
461.49	416.62
461.67	421.30
461.85	421.30
462.04	421.30
462.22	793.44
462.40	442.36
462.59	418.96
462.77	433.00
462.95	444.70
463.13	411.93
463.32	402.57
463.50	397.89
463.68	383.85
463.86	376.83
464.05	383.85
464.23	465.77
464.41	435.34
464.59	421.30
464.78	374.49
464.96	381.51
465.14	411.93
465.32	339.38
465.50	404.91
465.69	428.32
465.87	489.17
466.05	454.06
466.23	421.30
466.41	383.85
466.60	367.46
466.78	454.06
466.96	416.62
467.14	423.64
467.32	428.32
467.51	381.51
467.69	470.45
467.87	395.55
468.05	407.25
468.23	507.90
468.41	463.43
468.60	440.02
468.78	433.00
468.96	447.04
469.14	390.87
469.32	351.08
469.50	437.68
469.69	376.83
469.87	393.21
470.05	449.38
470.23	418.96
470.41	411.93
470.59	400.23
470.77	435.34
470.95	395.55
471.14	428.32
471.32	388.53
471.50	456.40
471.68	442.36
471.86	402.57
472.04	327.68
472.22	437.68
472.40	442.36
472.58	409.59
472.77	365.12
472.95	433.00
473.13	451.72
473.31	470.45
473.49	447.04
473.67	367.46
473.85	433.00
474.03	458.74
474.21	411.93
474.39	411.93
474.57	416.62
474.75	411.93
474.93	372.15
475.12	381.51
475.30	447.04
475.48	451.72
475.66	397.89
475.84	519.60
476.02	465.77
476.20	484.49
476.38	418.96
476.56	505.56
476.74	414.27
476.92	416.62
477.10	393.21
477.28	423.64
477.46	376.83
477.64	409.59
477.82	348.74
478.00	430.66
478.18	393.21
478.36	402.57
478.54	414.27
478.72	390.87
478.90	435.34
479.08	388.53
479.26	461.09
479.44	369.80
479.62	383.85
479.80	376.83
479.98	386.19
480.16	383.85
480.34	402.57
480.52	379.17
480.70	400.23
480.88	418.96
481.06	477.47
481.24	447.04
481.41	369.80
481.59	437.68
481.77	423.64
481.95	360.44
482.13	461.09
482.31	397.89
482.49	418.96
482.67	468.11
482.85	423.64
483.03	386.19
483.21	451.72
483.39	442.36
483.57	416.62
483.74	465.77
483.92	442.36
484.10	444.70
484.28	479.81
484.46	507.90
484.64	433.00
484.82	486.83
485.00	475.13
485.18	416.62
485.35	479.81
485.53	425.98
485.71	444.70
485.89	402.57
486.07	390.87
486.25	395.55
486.43	425.98
486.61	479.81
486.78	468.11
486.96	395.55
487.14	421.30
487.32	451.72
487.50	465.77
487.68	484.49
487.85	351.08
488.03	479.81
488.21	400.23
488.39	365.12
488.57	454.06
488.75	379.17
488.92	482.15
489.10	374.49
489.28	435.34
489.46	428.32
489.64	365.12
489.81	475.13
489.99	433.00
490.17	381.51
490.35	447.04
490.53	390.87
490.70	348.74
490.88	404.91
491.06	433.00
491.24	402.57
491.41	433.00
491.59	456.40
491.77	463.43
491.95	346.40
492.13	418.96
492.30	348.74
492.48	435.34
492.66	407.25
492.84	423.64
493.01	409.59
493.19	437.68
493.37	461.09
493.54	414.27
493.72	409.59
493.90	409.59
494.08	402.57
494.25	482.15
494.43	451.72
494.61	433.00
494.79	425.98
494.96	402.57
495.14	465.77
495.32	425.98
495.49	479.81
495.67	447.04
495.85	421.30
496.02	367.46
496.20	407.25
496.38	397.89
496.55	330.02
496.73	430.66
496.91	500.87
497.09	353.42
497.26	440.02
497.44	376.83
497.62	390.87
497.79	409.59
497.97	409.59
498.14	430.66
498.32	421.30
498.50	458.74
498.67	397.89
498.85	353.42
499.03	447.04
499.20	444.70
499.38	348.74
499.56	437.68
499.73	447.04
499.91	400.23
500.08	517.26
500.26	395.55
500.44	440.02
500.61	472.79
500.79	411.93
500.97	425.98
501.14	418.96
501.32	528.96
501.49	458.74
501.67	442.36
501.84	390.87
502.02	435.34
502.20	411.93
502.37	402.57
502.55	360.44
502.72	411.93
502.90	451.72
503.07	367.46
503.25	386.19
503.43	433.00
503.60	454.06
503.78	416.62
503.95	489.17
504.13	407.25
504.30	416.62
504.48	437.68
504.65	409.59
504.83	461.09
505.01	374.49
505.18	433.00
505.36	454.06
505.53	376.83
505.71	407.25
505.88	479.81
506.06	400.23
506.23	341.72
506.41	400.23
506.58	433.00
506.76	374.49
506.93	395.55
507.11	379.17
507.28	505.56
507.46	374.49
507.63	479.81
507.81	355.76
507.98	425.98
508.16	470.45
508.33	463.43
508.50	440.02
508.68	341.72
508.85	482.15
509.03	421.30
509.20	423.64
509.38	428.32
509.55	404.91
509.73	451.72
509.90	430.66
510.08	472.79
510.25	528.96
510.42	437.68
510.60	409.59
510.77	433.00
510.95	442.36
511.12	449.38
511.30	409.59
511.47	465.77
511.64	451.72
511.82	440.02
511.99	493.85
512.17	386.19
512.34	416.62
512.51	379.17
512.69	404.91
512.86	386.19
513.04	425.98
513.21	440.02
513.38	400.23
513.56	383.85
513.73	341.72
513.90	407.25
514.08	440.02
514.25	470.45
514.43	461.09
514.60	444.70
514.77	416.62
514.95	348.74
515.12	388.53
515.29	390.87
515.47	461.09
515.64	411.93
515.81	397.89
515.99	468.11
516.16	390.87
516.33	418.96
516.51	430.66
516.68	458.74
516.85	416.62
517.03	334.70
517.20	433.00
517.37	451.72
517.54	425.98
517.72	470.45
517.89	461.09
518.06	388.53
518.24	379.17
518.41	447.04
518.58	430.66
518.75	482.15
518.93	449.38
519.10	442.36
519.27	416.62
519.45	414.27
519.62	369.80
519.79	470.45
519.96	381.51
520.14	404.91
520.31	416.62
520.48	428.32
520.65	341.72
520.83	447.04
521.00	482.15
521.17	425.98
521.34	416.62
521.52	421.30
521.69	411.93
521.86	386.19
522.03	400.23
522.20	470.45
522.38	444.70
522.55	404.91
522.72	362.78
522.89	423.64
523.07	456.40
523.24	362.78
523.41	475.13
523.58	379.17
523.75	407.25
523.92	428.32
524.10	428.32
524.27	430.66
524.44	449.38
524.61	440.02
524.78	351.08
524.96	451.72
525.13	414.27
525.30	411.93
525.47	468.11
525.64	421.30
525.81	444.70
525.98	409.59
526.16	397.89
526.33	416.62
526.50	388.53
526.67	423.64
526.84	372.15
527.01	411.93
527.18	423.64
527.36	425.98
527.53	468.11
527.70	376.83
527.87	442.36
528.04	440.02
528.21	437.68
528.38	470.45
528.55	465.77
528.72	437.68
528.89	507.90
529.07	397.89
529.24	425.98
529.41	418.96
529.58	416.62
529.75	376.83
529.92	447.04
530.09	416.62
530.26	430.66
530.43	428.32
530.60	437.68
530.77	433.00
530.94	381.51
531.11	437.68
531.28	383.85
531.46	358.10
531.63	374.49
531.80	470.45
531.97	414.27
532.14	411.93
532.31	479.81
532.48	463.43
532.65	496.19
532.82	449.38
532.99	369.80
533.16	496.19
533.33	390.87
533.50	414.27
533.67	372.15
533.84	400.23
534.01	435.34
534.18	423.64
534.35	374.49
534.52	414.27
534.69	444.70
534.86	428.32
535.03	454.06
535.20	400.23
535.37	472.79
535.54	461.09
535.71	447.04
535.88	409.59
536.05	407.25
536.22	482.15
536.38	393.21
536.55	444.70
536.72	397.89
536.89	428.32
537.06	348.74
537.23	468.11
537.40	411.93
537.57	379.17
537.74	437.68
537.91	461.09
538.08	379.17
538.25	416.62
538.42	418.96
538.59	449.38
538.75	425.98
538.92	369.80
539.09	552.37
539.26	451.72
539.43	428.32
539.60	416.62
539.77	498.53
539.94	421.30
540.11	372.15
540.28	404.91
540.44	421.30
540.61	430.66
540.78	407.25
540.95	379.17
541.12	449.38
541.29	440.02
541.46	402.57
541.62	407.25
541.79	383.85
541.96	414.27
542.13	411.93
542.30	416.62
542.47	379.17
542.63	386.19
542.80	414.27
542.97	440.02
543.14	416.62
543.31	447.04
543.48	376.83
543.64	374.49
543.81	393.21
543.98	418.96
544.15	465.77
544.32	409.59
544.48	393.21
544.65	353.42
544.82	400.23
544.99	360.44
545.16	433.00
545.32	362.78
545.49	447.04
545.66	365.12
545.83	425.98
546.00	393.21
546.16	437.68
546.33	404.91
546.50	451.72
546.67	421.30
546.83	472.79
547.00	397.89
547.17	395.55
547.34	393.21
547.50	440.02
547.67	404.91
547.84	381.51
548.00	381.51
548.17	402.57
548.34	442.36
548.51	430.66
548.67	461.09
548.84	430.66
549.01	407.25
549.18	407.25
549.34	447.04
549.51	376.83
549.68	390.87
549.84	421.30
550.01	372.15
550.18	449.38
550.34	498.53
550.51	442.36
550.68	435.34
550.84	372.15
551.01	416.62
551.18	383.85
551.34	379.17
551.51	465.77
551.68	409.59
551.84	421.30
552.01	418.96
552.18	404.91
552.34	461.09
552.51	374.49
552.68	386.19
552.84	379.17
553.01	442.36
553.18	407.25
553.34	421.30
553.51	421.30
553.67	430.66
553.84	425.98
554.01	489.17
554.17	449.38
554.34	433.00
554.51	379.17
554.67	386.19
554.84	416.62
555.00	400.23
555.17	465.77
555.33	425.98
555.50	402.57
555.67	458.74
555.83	437.68
556.00	400.23
556.16	472.79
556.33	379.17
556.50	433.00
556.66	491.51
556.83	433.00
556.99	435.34
557.16	376.83
557.32	400.23
557.49	414.27
557.65	470.45
557.82	322.99
557.98	447.04
558.15	351.08
558.32	404.91
558.48	425.98
558.65	395.55
558.81	379.17
558.98	411.93
559.14	472.79
559.31	451.72
559.47	437.68
559.64	418.96
559.80	425.98
559.97	379.17
560.13	425.98
560.30	397.89
560.46	421.30
560.63	423.64
560.79	442.36
560.96	416.62
561.12	442.36
561.29	416.62
561.45	325.33
561.61	430.66
561.78	477.47
561.94	416.62
562.11	425.98
562.27	421.30
562.44	437.68
562.60	477.47
562.77	423.64
562.93	496.19
563.10	411.93
563.26	404.91
563.42	451.72
563.59	407.25
563.75	444.70
563.92	435.34
564.08	416.62
564.24	433.00
564.41	449.38
564.57	407.25
564.74	409.59
564.90	362.78
565.07	388.53
565.23	451.72
565.39	402.57
565.56	428.32
565.72	454.06
565.88	430.66
566.05	397.89
566.21	369.80
566.38	454.06
566.54	442.36
566.70	376.83
566.87	381.51
567.03	355.76
567.19	425.98
567.36	381.51
567.52	411.93
567.68	442.36
567.85	449.38
568.01	437.68
568.17	362.78
568.34	395.55
568.50	440.02
568.66	337.04
568.83	433.00
568.99	397.89
569.15	477.47
569.32	477.47
569.48	430.66
569.64	358.10
569.81	423.64
569.97	433.00
570.13	418.96
570.30	404.91
570.46	386.19
570.62	442.36
570.78	498.53
570.95	418.96
571.11	484.49
571.27	409.59
571.43	365.12
571.60	456.40
571.76	404.91
571.92	435.34
572.09	381.51
572.25	430.66
572.41	454.06
572.57	416.62
572.74	353.42
572.90	421.30
573.06	456.40
573.22	433.00
573.38	374.49
573.55	468.11
573.71	440.02
573.87	395.55
574.03	376.83
574.20	435.34
574.36	409.59
574.52	400.23
574.68	404.91
574.84	337.04
575.01	465.77
575.17	451.72
575.33	400.23
575.49	517.26
575.65	409.59
575.82	470.45
575.98	440.02
576.14	433.00
576.30	416.62
576.46	442.36
576.62	498.53
576.79	360.44
576.95	489.17
577.11	435.34
577.27	433.00
577.43	444.70
577.59	428.32
577.75	365.12
577.92	369.80
578.08	330.02
578.24	388.53
578.40	451.72
578.56	468.11
578.72	430.66
578.88	451.72
579.04	344.06
579.21	407.25
579.37	463.43
579.53	442.36
579.69	447.04
579.85	409.59
580.01	430.66
580.17	468.11
580.33	390.87
580.49	337.04
580.65	374.49
580.82	369.80
580.98	390.87
581.14	440.02
581.30	470.45
581.46	390.87
581.62	470.45
581.78	482.15
581.94	414.27
582.10	404.91
582.26	421.30
582.42	402.57
582.58	461.09
582.74	440.02
582.90	472.79
583.06	358.10
583.22	437.68
583.38	395.55
583.54	423.64
583.70	418.96
583.86	362.78
584.02	362.78
584.18	409.59
584.34	430.66
584.50	428.32
584.66	369.80
584.82	383.85
584.98	449.38
585.14	451.72
585.30	383.85
585.46	355.76
585.62	348.74
585.78	327.68
585.94	332.36
586.10	390.87
586.26	402.57
586.42	437.68
586.58	414.27
586.74	503.22
586.90	465.77
587.06	423.64
587.22	383.85
587.38	360.44
587.54	369.80
587.70	390.87
587.86	442.36
588.02	465.77
588.18	390.87
588.34	470.45
588.49	404.91
588.65	449.38
588.81	425.98
588.97	423.64
589.13	388.53
589.29	475.13
589.45	397.89
589.61	407.25
589.77	425.98
589.93	402.57
590.08	451.72
590.24	416.62
590.40	402.57
590.56	435.34
590.72	470.45
590.88	414.27
591.04	372.15
591.20	388.53
591.35	456.40
591.51	369.80
591.67	365.12
591.83	402.57
591.99	435.34
592.15	561.73
592.31	390.87
592.46	414.27
592.62	486.83
592.78	442.36
592.94	372.15
593.10	479.81
593.26	479.81
593.41	372.15
593.57	472.79
593.73	433.00
593.89	423.64
594.05	400.23
594.20	369.80
594.36	440.02
594.52	449.38
594.68	416.62
594.84	444.70
594.99	465.77
595.15	447.04
595.31	472.79
595.47	454.06
595.62	416.62
595.78	402.57
595.94	397.89
596.10	395.55
596.25	442.36
596.41	425.98
596.57	447.04
596.73	409.59
596.88	365.12
597.04	383.85
597.20	374.49
597.36	423.64
597.51	421.30
597.67	418.96
597.83	409.59
597.99	376.83
598.14	440.02
598.30	482.15
598.46	461.09
598.61	425.98
598.77	421.30
598.93	386.19
599.09	390.87
599.24	407.25
599.40	360.44
599.56	402.57
599.71	390.87
599.87	423.64
600.03	449.38
600.18	397.89
600.34	430.66
600.50	505.56
600.65	390.87
600.81	409.59
600.97	318.31
601.12	353.42
601.28	344.06
601.44	414.27
601.59	409.59
601.75	425.98
601.91	386.19
602.06	381.51
602.22	554.71
602.37	458.74
602.53	365.12
602.69	337.04
602.84	421.30
603.00	442.36
603.16	458.74
603.31	475.13
603.47	423.64
603.62	390.87
603.78	411.93
603.94	461.09
604.09	402.57
604.25	437.68
604.40	400.23
604.56	388.53
604.71	395.55
604.87	418.96
605.03	425.98
605.18	390.87
605.34	411.93
605.49	367.46
605.65	411.93
605.80	372.15
605.96	409.59
606.12	404.91
606.27	360.44
606.43	493.85
606.58	505.56
606.74	442.36
606.89	430.66
607.05	475.13
607.20	444.70
607.36	423.64
607.51	433.00
607.67	397.89
607.82	472.79
607.98	397.89
608.13	440.02
608.29	409.59
608.44	435.34
608.60	463.43
608.75	486.83
608.91	428.32
609.06	416.62
609.22	477.47
609.37	388.53
609.53	348.74
609.68	381.51
609.84	404.91
609.99	351.08
610.15	383.85
