SpectraSuite Data File
++++++++++++++++++++++++++++++++++++
Date: Fri Oct 25 12:11:46 EDT 2013
User: price-jones
Dark Spectrum Present: No
Reference Spectrum Present: No
Number of Sampled Component Spectra: 1
Spectrometers: USB2+H05261
Integration Time (usec): 100000 (USB2+H05261)
Spectra Averaged: 1 (USB2+H05261)
Boxcar Smoothing: 0 (USB2+H05261)
Correct for Electrical Dark: No (USB2+H05261)
Strobe/Lamp Enabled: No (USB2+H05261)
Correct for Detector Non-linearity: No (USB2+H05261)
Correct for Stray Light: No (USB2+H05261)
Number of Pixels in Processed Spectrum: 2048
>>>>>Begin Processed Spectral Data<<<<<
365.73	320.65
365.92	320.65
366.12	320.65
366.32	212.99
366.52	266.82
366.72	301.93
366.91	196.60
367.11	241.08
367.31	252.78
367.51	280.86
367.70	241.08
367.90	287.89
368.10	248.10
368.30	271.50
368.49	257.46
368.69	353.42
368.89	278.52
369.09	255.12
369.28	290.23
369.48	266.82
369.68	220.01
369.87	278.52
370.07	269.16
370.27	306.61
370.47	367.46
370.66	404.91
370.86	311.29
371.06	386.19
371.25	355.76
371.45	360.44
371.65	353.42
371.84	374.49
372.04	402.57
372.24	423.64
372.44	465.77
372.63	341.72
372.83	355.76
373.03	383.85
373.22	409.59
373.42	437.68
373.62	451.72
373.81	435.34
374.01	470.45
374.21	404.91
374.40	409.59
374.60	505.56
374.79	376.83
374.99	390.87
375.19	458.74
375.38	341.72
375.58	428.32
375.78	458.74
375.97	458.74
376.17	454.06
376.37	358.10
376.56	423.64
376.76	416.62
376.95	447.04
377.15	381.51
377.35	376.83
377.54	348.74
377.74	428.32
377.93	442.36
378.13	353.42
378.33	435.34
378.52	372.15
378.72	470.45
378.91	416.62
379.11	447.04
379.31	402.57
379.50	376.83
379.70	407.25
379.89	418.96
380.09	468.11
380.28	418.96
380.48	386.19
380.68	393.21
380.87	407.25
381.07	421.30
381.26	388.53
381.46	444.70
381.65	367.46
381.85	454.06
382.04	374.49
382.24	339.38
382.43	428.32
382.63	411.93
382.83	461.09
383.02	449.38
383.22	456.40
383.41	362.78
383.61	365.12
383.80	397.89
384.00	430.66
384.19	409.59
384.39	416.62
384.58	395.55
384.78	402.57
384.97	360.44
385.17	440.02
385.36	440.02
385.56	486.83
385.75	393.21
385.95	456.40
386.14	376.83
386.34	397.89
386.53	454.06
386.72	458.74
386.92	423.64
387.11	414.27
387.31	461.09
387.50	341.72
387.70	409.59
387.89	421.30
388.09	397.89
388.28	386.19
388.48	395.55
388.67	379.17
388.86	463.43
389.06	451.72
389.25	411.93
389.45	468.11
389.64	465.77
389.84	468.11
390.03	414.27
390.22	463.43
390.42	414.27
390.61	418.96
390.81	404.91
391.00	440.02
391.19	407.25
391.39	423.64
391.58	442.36
391.78	367.46
391.97	388.53
392.16	334.70
392.36	433.00
392.55	454.06
392.75	348.74
392.94	411.93
393.13	393.21
393.33	458.74
393.52	386.19
393.71	365.12
393.91	447.04
394.10	440.02
394.29	451.72
394.49	430.66
394.68	447.04
394.88	458.74
395.07	463.43
395.26	365.12
395.46	433.00
395.65	407.25
395.84	421.30
396.04	454.06
396.23	383.85
396.42	402.57
396.62	393.21
396.81	454.06
397.00	423.64
397.19	386.19
397.39	383.85
397.58	449.38
397.77	390.87
397.97	348.74
398.16	390.87
398.35	440.02
398.55	491.51
398.74	397.89
398.93	400.23
399.12	402.57
399.32	421.30
399.51	468.11
399.70	430.66
399.90	409.59
400.09	388.53
400.28	440.02
400.47	437.68
400.67	393.21
400.86	351.08
401.05	416.62
401.24	425.98
401.44	388.53
401.63	360.44
401.82	372.15
402.01	414.27
402.21	346.40
402.40	470.45
402.59	423.64
402.78	444.70
402.97	365.12
403.17	367.46
403.36	430.66
403.55	390.87
403.74	386.19
403.93	376.83
404.13	425.98
404.32	327.68
404.51	507.90
404.70	423.64
404.89	411.93
405.09	376.83
405.28	423.64
405.47	465.77
405.66	393.21
405.85	433.00
406.05	393.21
406.24	397.89
406.43	437.68
406.62	451.72
406.81	369.80
407.00	435.34
407.20	449.38
407.39	468.11
407.58	372.15
407.77	444.70
407.96	442.36
408.15	475.13
408.34	400.23
408.54	430.66
408.73	489.17
408.92	465.77
409.11	477.47
409.30	407.25
409.49	442.36
409.68	463.43
409.87	367.46
410.07	320.65
410.26	430.66
410.45	381.51
410.64	418.96
410.83	390.87
411.02	388.53
411.21	397.89
411.40	397.89
411.59	374.49
411.78	374.49
411.98	414.27
412.17	411.93
412.36	400.23
412.55	367.46
412.74	451.72
412.93	402.57
413.12	444.70
413.31	430.66
413.50	416.62
413.69	402.57
413.88	435.34
414.07	472.79
414.26	369.80
414.45	447.04
414.64	444.70
414.83	435.34
415.02	409.59
415.22	376.83
415.41	470.45
415.60	402.57
415.79	440.02
415.98	390.87
416.17	458.74
416.36	414.27
416.55	416.62
416.74	407.25
416.93	411.93
417.12	451.72
417.31	365.12
417.50	404.91
417.69	425.98
417.88	404.91
418.07	351.08
418.26	395.55
418.45	367.46
418.64	475.13
418.83	402.57
419.02	444.70
419.21	407.25
419.39	425.98
419.58	442.36
419.77	407.25
419.96	433.00
420.15	440.02
420.34	383.85
420.53	447.04
420.72	491.51
420.91	372.15
421.10	449.38
421.29	447.04
421.48	423.64
421.67	365.12
421.86	369.80
422.05	404.91
422.24	493.85
422.43	428.32
422.61	433.00
422.80	386.19
422.99	409.59
423.18	458.74
423.37	477.47
423.56	423.64
423.75	388.53
423.94	376.83
424.13	362.78
424.32	381.51
424.50	449.38
424.69	351.08
424.88	491.51
425.07	393.21
425.26	344.06
425.45	367.46
425.64	400.23
425.83	425.98
426.01	428.32
426.20	402.57
426.39	339.38
426.58	400.23
426.77	407.25
426.96	477.47
427.15	381.51
427.33	332.36
427.52	428.32
427.71	379.17
427.90	435.34
428.09	437.68
428.28	383.85
428.46	500.87
428.65	381.51
428.84	444.70
429.03	472.79
429.22	442.36
429.40	456.40
429.59	411.93
429.78	339.38
429.97	414.27
430.16	383.85
430.34	404.91
430.53	463.43
430.72	379.17
430.91	423.64
431.10	341.72
431.28	411.93
431.47	489.17
431.66	449.38
431.85	404.91
432.03	355.76
432.22	458.74
432.41	416.62
432.60	367.46
432.79	358.10
432.97	379.17
433.16	461.09
433.35	416.62
433.54	383.85
433.72	402.57
433.91	381.51
434.10	369.80
434.28	454.06
434.47	442.36
434.66	442.36
434.85	362.78
435.03	435.34
435.22	433.00
435.41	362.78
435.59	491.51
435.78	418.96
435.97	383.85
436.16	463.43
436.34	416.62
436.53	416.62
436.72	404.91
436.90	402.57
437.09	344.06
437.28	458.74
437.46	390.87
437.65	390.87
437.84	433.00
438.02	444.70
438.21	407.25
438.40	367.46
438.58	320.65
438.77	418.96
438.96	430.66
439.14	330.02
439.33	407.25
439.52	397.89
439.70	486.83
439.89	388.53
440.08	428.32
440.26	393.21
440.45	433.00
440.63	444.70
440.82	430.66
441.01	468.11
441.19	468.11
441.38	383.85
441.57	458.74
441.75	404.91
441.94	496.19
442.12	449.38
442.31	407.25
442.50	444.70
442.68	440.02
442.87	400.23
443.05	449.38
443.24	433.00
443.43	355.76
443.61	454.06
443.80	449.38
443.98	386.19
444.17	402.57
444.35	479.81
444.54	437.68
444.73	479.81
444.91	416.62
445.10	421.30
445.28	418.96
445.47	388.53
445.65	376.83
445.84	437.68
446.02	449.38
446.21	451.72
446.39	358.10
446.58	348.74
446.77	344.06
446.95	393.21
447.14	425.98
447.32	463.43
447.51	461.09
447.69	388.53
447.88	440.02
448.06	468.11
448.25	428.32
448.43	383.85
448.62	400.23
448.80	407.25
448.99	430.66
449.17	451.72
449.36	358.10
449.54	449.38
449.73	362.78
449.91	402.57
450.10	425.98
450.28	428.32
450.46	428.32
450.65	409.59
450.83	393.21
451.02	374.49
451.20	374.49
451.39	376.83
451.57	430.66
451.76	381.51
451.94	360.44
452.13	397.89
452.31	423.64
452.49	435.34
452.68	383.85
452.86	390.87
453.05	367.46
453.23	437.68
453.42	372.15
453.60	383.85
453.78	444.70
453.97	411.93
454.15	407.25
454.34	444.70
454.52	369.80
454.70	397.89
454.89	372.15
455.07	435.34
455.26	440.02
455.44	393.21
455.62	381.51
455.81	423.64
455.99	388.53
456.17	423.64
456.36	397.89
456.54	526.62
456.73	374.49
456.91	397.89
457.09	505.56
457.28	454.06
457.46	428.32
457.64	468.11
457.83	435.34
458.01	418.96
458.19	381.51
458.38	393.21
458.56	379.17
458.74	402.57
458.93	440.02
459.11	435.34
459.29	414.27
459.48	451.72
459.66	489.17
459.84	360.44
460.03	535.98
460.21	425.98
460.39	393.21
460.57	456.40
460.76	381.51
460.94	365.12
461.12	484.49
461.31	486.83
461.49	395.55
461.67	414.27
461.85	461.09
462.04	339.38
462.22	725.57
462.40	456.40
462.59	433.00
462.77	395.55
462.95	348.74
463.13	409.59
463.32	451.72
463.50	388.53
463.68	355.76
463.86	353.42
464.05	381.51
464.23	395.55
464.41	425.98
464.59	395.55
464.78	449.38
464.96	435.34
465.14	435.34
465.32	390.87
465.50	334.70
465.69	461.09
465.87	395.55
466.05	428.32
466.23	409.59
466.41	374.49
466.60	440.02
466.78	491.51
466.96	409.59
467.14	416.62
467.32	444.70
467.51	376.83
467.69	421.30
467.87	461.09
468.05	360.44
468.23	444.70
468.41	351.08
468.60	414.27
468.78	388.53
468.96	456.40
469.14	402.57
469.32	355.76
469.50	348.74
469.69	355.76
469.87	433.00
470.05	372.15
470.23	390.87
470.41	388.53
470.59	470.45
470.77	388.53
470.95	430.66
471.14	489.17
471.32	433.00
471.50	444.70
471.68	423.64
471.86	404.91
472.04	451.72
472.22	400.23
472.40	372.15
472.58	372.15
472.77	374.49
472.95	322.99
473.13	444.70
473.31	421.30
473.49	402.57
473.67	362.78
473.85	400.23
474.03	390.87
474.21	402.57
474.39	428.32
474.57	521.94
474.75	397.89
474.93	372.15
475.12	416.62
475.30	397.89
475.48	407.25
475.66	444.70
475.84	449.38
476.02	433.00
476.20	461.09
476.38	425.98
476.56	500.87
476.74	437.68
476.92	341.72
477.10	320.65
477.28	395.55
477.46	430.66
477.64	418.96
477.82	397.89
478.00	353.42
478.18	470.45
478.36	332.36
478.54	442.36
478.72	362.78
478.90	496.19
479.08	491.51
479.26	421.30
479.44	425.98
479.62	404.91
479.80	397.89
479.98	416.62
480.16	404.91
480.34	404.91
480.52	437.68
480.70	388.53
480.88	390.87
481.06	334.70
481.24	360.44
481.41	461.09
481.59	461.09
481.77	454.06
481.95	451.72
482.13	449.38
482.31	437.68
482.49	365.12
482.67	461.09
482.85	430.66
483.03	456.40
483.21	482.15
483.39	482.15
483.57	411.93
483.74	472.79
483.92	414.27
484.10	369.80
484.28	454.06
484.46	440.02
484.64	423.64
484.82	381.51
485.00	365.12
485.18	444.70
485.35	498.53
485.53	381.51
485.71	353.42
485.89	388.53
486.07	430.66
486.25	416.62
486.43	435.34
486.61	447.04
486.78	358.10
486.96	430.66
487.14	386.19
487.32	402.57
487.50	346.40
487.68	521.94
487.85	400.23
488.03	365.12
488.21	383.85
488.39	409.59
488.57	456.40
488.75	428.32
488.92	568.75
489.10	400.23
489.28	421.30
489.46	362.78
489.64	463.43
489.81	395.55
489.99	472.79
490.17	486.83
490.35	514.92
490.53	409.59
490.70	386.19
490.88	404.91
491.06	447.04
491.24	437.68
491.41	416.62
491.59	416.62
491.77	442.36
491.95	454.06
492.13	334.70
492.30	425.98
492.48	435.34
492.66	486.83
492.84	402.57
493.01	404.91
493.19	416.62
493.37	456.40
493.54	397.89
493.72	379.17
493.90	425.98
494.08	414.27
494.25	372.15
494.43	369.80
494.61	479.81
494.79	418.96
494.96	418.96
495.14	409.59
495.32	388.53
495.49	381.51
495.67	421.30
495.85	409.59
496.02	395.55
496.20	428.32
496.38	433.00
496.55	444.70
496.73	383.85
496.91	465.77
497.09	393.21
497.26	311.29
497.44	393.21
497.62	430.66
497.79	397.89
497.97	449.38
498.14	503.22
498.32	381.51
498.50	447.04
498.67	468.11
498.85	423.64
499.03	372.15
499.20	416.62
499.38	479.81
499.56	430.66
499.73	423.64
499.91	381.51
500.08	428.32
500.26	374.49
500.44	430.66
500.61	390.87
500.79	409.59
500.97	400.23
501.14	465.77
501.32	374.49
501.49	468.11
501.67	454.06
501.84	491.51
502.02	379.17
502.20	416.62
502.37	369.80
502.55	454.06
502.72	344.06
502.90	362.78
503.07	468.11
503.25	404.91
503.43	454.06
503.60	386.19
503.78	407.25
503.95	442.36
504.13	421.30
504.30	447.04
504.48	437.68
504.65	479.81
504.83	386.19
505.01	320.65
505.18	475.13
505.36	440.02
505.53	440.02
505.71	404.91
505.88	479.81
506.06	470.45
506.23	425.98
506.41	425.98
506.58	442.36
506.76	390.87
506.93	430.66
507.11	379.17
507.28	369.80
507.46	404.91
507.63	451.72
507.81	414.27
507.98	386.19
508.16	433.00
508.33	395.55
508.50	435.34
508.68	435.34
508.85	470.45
509.03	409.59
509.20	404.91
509.38	374.49
509.55	533.64
509.73	489.17
509.90	400.23
510.08	397.89
510.25	416.62
510.42	372.15
510.60	367.46
510.77	458.74
510.95	507.90
511.12	397.89
511.30	461.09
511.47	393.21
511.64	447.04
511.82	423.64
511.99	475.13
512.17	381.51
512.34	423.64
512.51	395.55
512.69	428.32
512.86	435.34
513.04	425.98
513.21	351.08
513.38	442.36
513.56	449.38
513.73	404.91
513.90	409.59
514.08	421.30
514.25	374.49
514.43	334.70
514.60	369.80
514.77	334.70
514.95	388.53
515.12	447.04
515.29	456.40
515.47	461.09
515.64	414.27
515.81	393.21
515.99	425.98
516.16	397.89
516.33	458.74
516.51	411.93
516.68	360.44
516.85	400.23
517.03	409.59
517.20	491.51
517.37	402.57
517.54	463.43
517.72	447.04
517.89	376.83
518.06	376.83
518.24	400.23
518.41	451.72
518.58	437.68
518.75	409.59
518.93	437.68
519.10	395.55
519.27	465.77
519.45	425.98
519.62	451.72
519.79	425.98
519.96	447.04
520.14	362.78
520.31	372.15
520.48	402.57
520.65	425.98
520.83	411.93
521.00	386.19
521.17	416.62
521.34	372.15
521.52	496.19
521.69	430.66
521.86	447.04
522.03	435.34
522.20	414.27
522.38	409.59
522.55	409.59
522.72	418.96
522.89	395.55
523.07	514.92
523.24	475.13
523.41	463.43
523.58	337.04
523.75	414.27
523.92	397.89
524.10	461.09
524.27	402.57
524.44	451.72
524.61	477.47
524.78	306.61
524.96	458.74
525.13	337.04
525.30	442.36
525.47	381.51
525.64	365.12
525.81	411.93
525.98	411.93
526.16	400.23
526.33	421.30
526.50	400.23
526.67	355.76
526.84	435.34
527.01	372.15
527.18	372.15
527.36	433.00
527.53	365.12
527.70	423.64
527.87	386.19
528.04	451.72
528.21	362.78
528.38	379.17
528.55	376.83
528.72	468.11
528.89	458.74
529.07	451.72
529.24	440.02
529.41	428.32
529.58	346.40
529.75	355.76
529.92	451.72
530.09	447.04
530.26	407.25
530.43	430.66
530.60	379.17
530.77	428.32
530.94	322.99
531.11	433.00
531.28	395.55
531.46	418.96
531.63	463.43
531.80	400.23
531.97	435.34
532.14	400.23
532.31	454.06
532.48	372.15
532.65	393.21
532.82	425.98
532.99	355.76
533.16	423.64
533.33	447.04
533.50	498.53
533.67	423.64
533.84	435.34
534.01	430.66
534.18	341.72
534.35	425.98
534.52	358.10
534.69	388.53
534.86	447.04
535.03	383.85
535.20	440.02
535.37	407.25
535.54	376.83
535.71	414.27
535.88	449.38
536.05	395.55
536.22	400.23
536.38	444.70
536.55	407.25
536.72	489.17
536.89	447.04
537.06	479.81
537.23	484.49
537.40	402.57
537.57	360.44
537.74	454.06
537.91	449.38
538.08	456.40
538.25	472.79
538.42	353.42
538.59	423.64
538.75	461.09
538.92	348.74
539.09	388.53
539.26	440.02
539.43	514.92
539.60	362.78
539.77	400.23
539.94	393.21
540.11	454.06
540.28	472.79
540.44	468.11
540.61	437.68
540.78	440.02
540.95	344.06
541.12	493.85
541.29	442.36
541.46	386.19
541.62	456.40
541.79	425.98
541.96	435.34
542.13	411.93
542.30	346.40
542.47	486.83
542.63	390.87
542.80	315.97
542.97	470.45
543.14	437.68
543.31	449.38
543.48	454.06
543.64	407.25
543.81	395.55
543.98	435.34
544.15	425.98
544.32	435.34
544.48	425.98
544.65	379.17
544.82	383.85
544.99	428.32
545.16	423.64
545.32	407.25
545.49	418.96
545.66	411.93
545.83	369.80
546.00	414.27
546.16	416.62
546.33	416.62
546.50	386.19
546.67	470.45
546.83	411.93
547.00	451.72
547.17	440.02
547.34	458.74
547.50	383.85
547.67	472.79
547.84	358.10
548.00	428.32
548.17	376.83
548.34	362.78
548.51	456.40
548.67	362.78
548.84	418.96
549.01	369.80
549.18	400.23
549.34	381.51
549.51	402.57
549.68	367.46
549.84	358.10
550.01	365.12
550.18	409.59
550.34	461.09
550.51	425.98
550.68	360.44
550.84	447.04
551.01	479.81
551.18	421.30
551.34	463.43
551.51	351.08
551.68	395.55
551.84	404.91
552.01	461.09
552.18	416.62
552.34	393.21
552.51	440.02
552.68	433.00
552.84	416.62
553.01	383.85
553.18	425.98
553.34	454.06
553.51	449.38
553.67	477.47
553.84	470.45
554.01	468.11
554.17	400.23
554.34	472.79
554.51	437.68
554.67	489.17
554.84	437.68
555.00	383.85
555.17	456.40
555.33	416.62
555.50	444.70
555.67	409.59
555.83	374.49
556.00	425.98
556.16	535.98
556.33	456.40
556.50	393.21
556.66	433.00
556.83	514.92
556.99	435.34
557.16	360.44
557.32	367.46
557.49	346.40
557.65	402.57
557.82	400.23
557.98	400.23
558.15	440.02
558.32	379.17
558.48	477.47
558.65	414.27
558.81	407.25
558.98	407.25
559.14	440.02
559.31	353.42
559.47	397.89
559.64	433.00
559.80	393.21
559.97	461.09
560.13	461.09
560.30	397.89
560.46	376.83
560.63	327.68
560.79	423.64
560.96	437.68
561.12	376.83
561.29	442.36
561.45	418.96
561.61	442.36
561.78	454.06
561.94	418.96
562.11	381.51
562.27	404.91
562.44	414.27
562.60	372.15
562.77	362.78
562.93	400.23
563.10	407.25
563.26	372.15
563.42	451.72
563.59	451.72
563.75	449.38
563.92	465.77
564.08	404.91
564.24	416.62
564.41	454.06
564.57	409.59
564.74	423.64
564.90	346.40
565.07	395.55
565.23	341.72
565.39	493.85
565.56	421.30
565.72	430.66
565.88	390.87
566.05	376.83
566.21	411.93
566.38	402.57
566.54	454.06
566.70	423.64
566.87	409.59
567.03	379.17
567.19	390.87
567.36	472.79
567.52	414.27
567.68	449.38
567.85	449.38
568.01	322.99
568.17	400.23
568.34	409.59
568.50	395.55
568.66	402.57
568.83	489.17
568.99	388.53
569.15	351.08
569.32	463.43
569.48	425.98
569.64	404.91
569.81	358.10
569.97	404.91
570.13	468.11
570.30	393.21
570.46	402.57
570.62	404.91
570.78	400.23
570.95	393.21
571.11	458.74
571.27	510.24
571.43	379.17
571.60	421.30
571.76	402.57
571.92	339.38
572.09	418.96
572.25	425.98
572.41	409.59
572.57	456.40
572.74	428.32
572.90	470.45
573.06	386.19
573.22	418.96
573.38	500.87
573.55	435.34
573.71	402.57
573.87	517.26
574.03	414.27
574.20	475.13
574.36	440.02
574.52	334.70
574.68	421.30
574.84	409.59
575.01	379.17
575.17	470.45
575.33	447.04
575.49	449.38
575.65	498.53
575.82	402.57
575.98	411.93
576.14	411.93
576.30	395.55
576.46	407.25
576.62	444.70
576.79	400.23
576.95	425.98
577.11	388.53
577.27	362.78
577.43	421.30
577.59	435.34
577.75	421.30
577.92	411.93
578.08	454.06
578.24	454.06
578.40	400.23
578.56	400.23
578.72	423.64
578.88	402.57
579.04	416.62
579.21	472.79
579.37	447.04
579.53	404.91
579.69	334.70
579.85	404.91
580.01	355.76
580.17	451.72
580.33	486.83
580.49	402.57
580.65	407.25
580.82	376.83
580.98	425.98
581.14	374.49
581.30	386.19
581.46	440.02
581.62	519.60
581.78	339.38
581.94	400.23
582.10	414.27
582.26	393.21
582.42	423.64
582.58	416.62
582.74	421.30
582.90	491.51
583.06	372.15
583.22	451.72
583.38	388.53
583.54	463.43
583.70	458.74
583.86	411.93
584.02	383.85
584.18	390.87
584.34	437.68
584.50	353.42
584.66	409.59
584.82	517.26
584.98	416.62
585.14	407.25
585.30	376.83
585.46	463.43
585.62	454.06
585.78	465.77
585.94	360.44
586.10	414.27
586.26	428.32
586.42	433.00
586.58	379.17
586.74	433.00
586.90	470.45
587.06	433.00
587.22	461.09
587.38	440.02
587.54	456.40
587.70	423.64
587.86	437.68
588.02	418.96
588.18	444.70
588.34	463.43
588.49	411.93
588.65	458.74
588.81	369.80
588.97	346.40
589.13	393.21
589.29	423.64
589.45	489.17
589.61	437.68
589.77	475.13
589.93	433.00
590.08	393.21
590.24	395.55
590.40	447.04
590.56	418.96
590.72	393.21
590.88	498.53
591.04	397.89
591.20	456.40
591.35	456.40
591.51	489.17
591.67	397.89
591.83	430.66
591.99	475.13
592.15	461.09
592.31	444.70
592.46	383.85
592.62	444.70
592.78	433.00
592.94	400.23
593.10	440.02
593.26	395.55
593.41	393.21
593.57	393.21
593.73	397.89
593.89	423.64
594.05	390.87
594.20	362.78
594.36	496.19
594.52	435.34
594.68	400.23
594.84	376.83
594.99	379.17
595.15	379.17
595.31	517.26
595.47	428.32
595.62	411.93
595.78	414.27
595.94	397.89
596.10	444.70
596.25	486.83
596.41	475.13
596.57	437.68
596.73	404.91
596.88	411.93
597.04	393.21
597.20	472.79
597.36	433.00
597.51	458.74
597.67	451.72
597.83	400.23
597.99	414.27
598.14	411.93
598.30	421.30
598.46	390.87
598.61	397.89
598.77	449.38
598.93	393.21
599.09	435.34
599.24	369.80
599.40	498.53
599.56	369.80
599.71	449.38
599.87	393.21
600.03	355.76
600.18	440.02
600.34	404.91
600.50	400.23
600.65	437.68
600.81	379.17
600.97	425.98
601.12	454.06
601.28	451.72
601.44	458.74
601.59	383.85
601.75	404.91
601.91	416.62
602.06	395.55
602.22	447.04
602.37	379.17
602.53	374.49
602.69	404.91
602.84	454.06
603.00	400.23
603.16	407.25
603.31	409.59
603.47	442.36
603.62	379.17
603.78	433.00
603.94	330.02
604.09	418.96
604.25	409.59
604.40	388.53
604.56	379.17
604.71	451.72
604.87	353.42
605.03	493.85
605.18	381.51
605.34	423.64
605.49	404.91
605.65	379.17
605.80	402.57
605.96	505.56
606.12	400.23
606.27	440.02
606.43	414.27
606.58	365.12
606.74	395.55
606.89	435.34
607.05	540.66
607.20	372.15
607.36	425.98
607.51	381.51
607.67	409.59
607.82	486.83
607.98	505.56
608.13	442.36
608.29	444.70
608.44	416.62
608.60	395.55
608.75	428.32
608.91	395.55
609.06	463.43
609.22	425.98
609.37	442.36
609.53	437.68
609.68	409.59
609.84	397.89
609.99	379.17
610.15	447.04
