SpectraSuite Data File
++++++++++++++++++++++++++++++++++++
Date: Fri Oct 25 12:10:24 EDT 2013
User: price-jones
Dark Spectrum Present: No
Reference Spectrum Present: No
Number of Sampled Component Spectra: 1
Spectrometers: USB2+H05261
Integration Time (usec): 100000 (USB2+H05261)
Spectra Averaged: 1 (USB2+H05261)
Boxcar Smoothing: 0 (USB2+H05261)
Correct for Electrical Dark: No (USB2+H05261)
Strobe/Lamp Enabled: No (USB2+H05261)
Correct for Detector Non-linearity: No (USB2+H05261)
Correct for Stray Light: No (USB2+H05261)
Number of Pixels in Processed Spectrum: 2048
>>>>>Begin Processed Spectral Data<<<<<
365.73	292.57
365.92	292.57
366.12	292.57
366.32	241.08
366.52	266.82
366.72	285.55
366.91	184.90
367.11	205.97
367.31	203.63
367.51	257.46
367.70	273.84
367.90	231.71
368.10	189.58
368.30	227.03
368.49	224.69
368.69	259.80
368.89	339.38
369.09	243.42
369.28	273.84
369.48	191.92
369.68	273.84
369.87	320.65
370.07	255.12
370.27	362.78
370.47	337.04
370.66	266.82
370.86	397.89
371.06	395.55
371.25	416.62
371.45	390.87
371.65	400.23
371.84	383.85
372.04	355.76
372.24	393.21
372.44	318.31
372.63	423.64
372.83	449.38
373.03	475.13
373.22	344.06
373.42	372.15
373.62	379.17
373.81	390.87
374.01	425.98
374.21	418.96
374.40	465.77
374.60	451.72
374.79	447.04
374.99	397.89
375.19	433.00
375.38	444.70
375.58	365.12
375.78	379.17
375.97	418.96
376.17	402.57
376.37	393.21
376.56	395.55
376.76	351.08
376.95	442.36
377.15	348.74
377.35	425.98
377.54	414.27
377.74	381.51
377.93	454.06
378.13	397.89
378.33	484.49
378.52	456.40
378.72	470.45
378.91	418.96
379.11	428.32
379.31	477.47
379.50	348.74
379.70	458.74
379.89	411.93
380.09	407.25
380.28	463.43
380.48	397.89
380.68	433.00
380.87	409.59
381.07	414.27
381.26	440.02
381.46	451.72
381.65	465.77
381.85	414.27
382.04	447.04
382.24	416.62
382.43	360.44
382.63	376.83
382.83	379.17
383.02	402.57
383.22	411.93
383.41	404.91
383.61	414.27
383.80	433.00
384.00	430.66
384.19	414.27
384.39	418.96
384.58	355.76
384.78	376.83
384.97	404.91
385.17	404.91
385.36	376.83
385.56	428.32
385.75	376.83
385.95	372.15
386.14	433.00
386.34	409.59
386.53	395.55
386.72	423.64
386.92	458.74
387.11	428.32
387.31	421.30
387.50	400.23
387.70	449.38
387.89	451.72
388.09	315.97
388.28	418.96
388.48	376.83
388.67	430.66
388.86	360.44
389.06	465.77
389.25	407.25
389.45	395.55
389.64	379.17
389.84	418.96
390.03	430.66
390.22	397.89
390.42	440.02
390.61	374.49
390.81	425.98
391.00	327.68
391.19	416.62
391.39	402.57
391.58	435.34
391.78	379.17
391.97	404.91
392.16	369.80
392.36	393.21
392.55	479.81
392.75	407.25
392.94	372.15
393.13	425.98
393.33	372.15
393.52	407.25
393.71	411.93
393.91	374.49
394.10	435.34
394.29	367.46
394.49	411.93
394.68	400.23
394.88	339.38
395.07	383.85
395.26	430.66
395.46	360.44
395.65	421.30
395.84	411.93
396.04	440.02
396.23	386.19
396.42	437.68
396.62	421.30
396.81	465.77
397.00	421.30
397.19	381.51
397.39	454.06
397.58	365.12
397.77	435.34
397.97	440.02
398.16	358.10
398.35	496.19
398.55	346.40
398.74	414.27
398.93	440.02
399.12	393.21
399.32	397.89
399.51	486.83
399.70	407.25
399.90	416.62
400.09	367.46
400.28	402.57
400.47	369.80
400.67	458.74
400.86	444.70
401.05	416.62
401.24	407.25
401.44	440.02
401.63	430.66
401.82	409.59
402.01	402.57
402.21	456.40
402.40	388.53
402.59	418.96
402.78	346.40
402.97	390.87
403.17	456.40
403.36	369.80
403.55	369.80
403.74	341.72
403.93	365.12
404.13	440.02
404.32	421.30
404.51	306.61
404.70	369.80
404.89	376.83
405.09	428.32
405.28	400.23
405.47	416.62
405.66	369.80
405.85	444.70
406.05	402.57
406.24	468.11
406.43	411.93
406.62	472.79
406.81	484.49
407.00	395.55
407.20	397.89
407.39	362.78
407.58	411.93
407.77	428.32
407.96	414.27
408.15	372.15
408.34	416.62
408.54	444.70
408.73	402.57
408.92	442.36
409.11	454.06
409.30	437.68
409.49	388.53
409.68	425.98
409.87	372.15
410.07	393.21
410.26	393.21
410.45	416.62
410.64	404.91
410.83	444.70
411.02	351.08
411.21	440.02
411.40	411.93
411.59	463.43
411.78	376.83
411.98	360.44
412.17	348.74
412.36	395.55
412.55	355.76
412.74	461.09
412.93	440.02
413.12	416.62
413.31	416.62
413.50	393.21
413.69	339.38
413.88	358.10
414.07	411.93
414.26	374.49
414.45	425.98
414.64	437.68
414.83	358.10
415.02	327.68
415.22	411.93
415.41	437.68
415.60	395.55
415.79	365.12
415.98	414.27
416.17	341.72
416.36	362.78
416.55	411.93
416.74	435.34
416.93	435.34
417.12	435.34
417.31	390.87
417.50	475.13
417.69	383.85
417.88	440.02
418.07	397.89
418.26	395.55
418.45	409.59
418.64	493.85
418.83	358.10
419.02	402.57
419.21	451.72
419.39	465.77
419.58	381.51
419.77	407.25
419.96	449.38
420.15	397.89
420.34	386.19
420.53	428.32
420.72	454.06
420.91	435.34
421.10	393.21
421.29	386.19
421.48	470.45
421.67	369.80
421.86	360.44
422.05	376.83
422.24	337.04
422.43	365.12
422.61	428.32
422.80	341.72
422.99	390.87
423.18	390.87
423.37	486.83
423.56	411.93
423.75	386.19
423.94	372.15
424.13	351.08
424.32	360.44
424.50	388.53
424.69	369.80
424.88	400.23
425.07	437.68
425.26	393.21
425.45	402.57
425.64	379.17
425.83	376.83
426.01	475.13
426.20	367.46
426.39	433.00
426.58	362.78
426.77	367.46
426.96	463.43
427.15	442.36
427.33	430.66
427.52	395.55
427.71	395.55
427.90	409.59
428.09	376.83
428.28	393.21
428.46	442.36
428.65	411.93
428.84	374.49
429.03	447.04
429.22	411.93
429.40	360.44
429.59	367.46
429.78	407.25
429.97	442.36
430.16	367.46
430.34	376.83
430.53	379.17
430.72	381.51
430.91	423.64
431.10	397.89
431.28	402.57
431.47	444.70
431.66	355.76
431.85	414.27
432.03	402.57
432.22	498.53
432.41	390.87
432.60	425.98
432.79	304.27
432.97	461.09
433.16	440.02
433.35	447.04
433.54	428.32
433.72	404.91
433.91	433.00
434.10	409.59
434.28	388.53
434.47	393.21
434.66	463.43
434.85	402.57
435.03	409.59
435.22	409.59
435.41	482.15
435.59	393.21
435.78	397.89
435.97	379.17
436.16	437.68
436.34	397.89
436.53	477.47
436.72	388.53
436.90	404.91
437.09	423.64
437.28	407.25
437.46	365.12
437.65	449.38
437.84	428.32
438.02	486.83
438.21	421.30
438.40	430.66
438.58	428.32
438.77	372.15
438.96	461.09
439.14	428.32
439.33	449.38
439.52	390.87
439.70	493.85
439.89	407.25
440.08	421.30
440.26	409.59
440.45	418.96
440.63	315.97
440.82	421.30
441.01	409.59
441.19	404.91
441.38	395.55
441.57	442.36
441.75	402.57
441.94	475.13
442.12	362.78
442.31	437.68
442.50	365.12
442.68	369.80
442.87	404.91
443.05	418.96
443.24	421.30
443.43	416.62
443.61	489.17
443.80	486.83
443.98	451.72
444.17	395.55
444.35	374.49
444.54	430.66
444.73	428.32
444.91	505.56
445.10	365.12
445.28	440.02
445.47	397.89
445.65	395.55
445.84	348.74
446.02	379.17
446.21	416.62
446.39	423.64
446.58	414.27
446.77	444.70
446.95	353.42
447.14	383.85
447.32	416.62
447.51	358.10
447.69	386.19
447.88	400.23
448.06	435.34
448.25	372.15
448.43	339.38
448.62	339.38
448.80	407.25
448.99	395.55
449.17	383.85
449.36	386.19
449.54	435.34
449.73	496.19
449.91	414.27
450.10	362.78
450.28	440.02
450.46	414.27
450.65	444.70
450.83	428.32
451.02	447.04
451.20	430.66
451.39	449.38
451.57	470.45
451.76	421.30
451.94	484.49
452.13	479.81
452.31	395.55
452.49	461.09
452.68	451.72
452.86	388.53
453.05	430.66
453.23	442.36
453.42	414.27
453.60	421.30
453.78	383.85
453.97	407.25
454.15	351.08
454.34	393.21
454.52	395.55
454.70	423.64
454.89	390.87
455.07	430.66
455.26	430.66
455.44	425.98
455.62	414.27
455.81	395.55
455.99	407.25
456.17	421.30
456.36	379.17
456.54	423.64
456.73	416.62
456.91	390.87
457.09	381.51
457.28	407.25
457.46	440.02
457.64	428.32
457.83	353.42
458.01	425.98
458.19	418.96
458.38	362.78
458.56	428.32
458.74	351.08
458.93	400.23
459.11	442.36
459.29	379.17
459.48	440.02
459.66	449.38
459.84	393.21
460.03	489.17
460.21	390.87
460.39	411.93
460.57	421.30
460.76	393.21
460.94	407.25
461.12	397.89
461.31	440.02
461.49	376.83
461.67	369.80
461.85	482.15
462.04	456.40
462.22	741.95
462.40	423.64
462.59	425.98
462.77	411.93
462.95	386.19
463.13	351.08
463.32	341.72
463.50	435.34
463.68	334.70
463.86	383.85
464.05	390.87
464.23	428.32
464.41	379.17
464.59	372.15
464.78	425.98
464.96	381.51
465.14	491.51
465.32	400.23
465.50	402.57
465.69	433.00
465.87	425.98
466.05	505.56
466.23	402.57
466.41	407.25
466.60	407.25
466.78	456.40
466.96	428.32
467.14	402.57
467.32	463.43
467.51	461.09
467.69	458.74
467.87	416.62
468.05	369.80
468.23	456.40
468.41	430.66
468.60	372.15
468.78	418.96
468.96	447.04
469.14	423.64
469.32	498.53
469.50	348.74
469.69	402.57
469.87	327.68
470.05	458.74
470.23	521.94
470.41	348.74
470.59	376.83
470.77	386.19
470.95	463.43
471.14	383.85
471.32	437.68
471.50	362.78
471.68	414.27
471.86	477.47
472.04	372.15
472.22	484.49
472.40	428.32
472.58	400.23
472.77	383.85
472.95	489.17
473.13	491.51
473.31	428.32
473.49	365.12
473.67	449.38
473.85	449.38
474.03	461.09
474.21	330.02
474.39	428.32
474.57	397.89
474.75	425.98
474.93	407.25
475.12	379.17
475.30	437.68
475.48	433.00
475.66	458.74
475.84	411.93
476.02	355.76
476.20	404.91
476.38	430.66
476.56	475.13
476.74	390.87
476.92	442.36
477.10	393.21
477.28	430.66
477.46	435.34
477.64	475.13
477.82	425.98
478.00	421.30
478.18	444.70
478.36	402.57
478.54	383.85
478.72	402.57
478.90	395.55
479.08	400.23
479.26	428.32
479.44	402.57
479.62	344.06
479.80	407.25
479.98	437.68
480.16	442.36
480.34	372.15
480.52	381.51
480.70	425.98
480.88	362.78
481.06	332.36
481.24	353.42
481.41	374.49
481.59	414.27
481.77	367.46
481.95	435.34
482.13	421.30
482.31	423.64
482.49	402.57
482.67	360.44
482.85	421.30
483.03	416.62
483.21	428.32
483.39	400.23
483.57	505.56
483.74	493.85
483.92	365.12
484.10	465.77
484.28	454.06
484.46	449.38
484.64	458.74
484.82	489.17
485.00	386.19
485.18	428.32
485.35	463.43
485.53	400.23
485.71	447.04
485.89	379.17
486.07	404.91
486.25	430.66
486.43	425.98
486.61	418.96
486.78	376.83
486.96	386.19
487.14	402.57
487.32	482.15
487.50	414.27
487.68	470.45
487.85	416.62
488.03	393.21
488.21	479.81
488.39	489.17
488.57	433.00
488.75	425.98
488.92	486.83
489.10	454.06
489.28	498.53
489.46	425.98
489.64	430.66
489.81	397.89
489.99	437.68
490.17	418.96
490.35	482.15
490.53	358.10
490.70	325.33
490.88	421.30
491.06	372.15
491.24	362.78
491.41	433.00
491.59	360.44
491.77	428.32
491.95	418.96
492.13	351.08
492.30	456.40
492.48	337.04
492.66	376.83
492.84	461.09
493.01	449.38
493.19	355.76
493.37	407.25
493.54	315.97
493.72	388.53
493.90	411.93
494.08	369.80
494.25	409.59
494.43	468.11
494.61	428.32
494.79	388.53
494.96	428.32
495.14	428.32
495.32	442.36
495.49	442.36
495.67	409.59
495.85	381.51
496.02	442.36
496.20	463.43
496.38	435.34
496.55	475.13
496.73	388.53
496.91	407.25
497.09	393.21
497.26	414.27
497.44	425.98
497.62	435.34
497.79	479.81
497.97	372.15
498.14	425.98
498.32	496.19
498.50	374.49
498.67	376.83
498.85	437.68
499.03	400.23
499.20	433.00
499.38	428.32
499.56	416.62
499.73	507.90
499.91	449.38
500.08	433.00
500.26	407.25
500.44	430.66
500.61	468.11
500.79	442.36
500.97	447.04
501.14	411.93
501.32	400.23
501.49	447.04
501.67	430.66
501.84	454.06
502.02	374.49
502.20	351.08
502.37	402.57
502.55	447.04
502.72	390.87
502.90	404.91
503.07	433.00
503.25	365.12
503.43	369.80
503.60	374.49
503.78	397.89
503.95	365.12
504.13	465.77
504.30	484.49
504.48	423.64
504.65	512.58
504.83	379.17
505.01	404.91
505.18	355.76
505.36	425.98
505.53	390.87
505.71	433.00
505.88	451.72
506.06	402.57
506.23	463.43
506.41	433.00
506.58	430.66
506.76	437.68
506.93	458.74
507.11	397.89
507.28	400.23
507.46	430.66
507.63	472.79
507.81	416.62
507.98	407.25
508.16	430.66
508.33	442.36
508.50	390.87
508.68	416.62
508.85	465.77
509.03	386.19
509.20	365.12
509.38	407.25
509.55	414.27
509.73	461.09
509.90	437.68
510.08	404.91
510.25	428.32
510.42	416.62
510.60	440.02
510.77	425.98
510.95	437.68
511.12	416.62
511.30	437.68
511.47	491.51
511.64	400.23
511.82	332.36
511.99	442.36
512.17	402.57
512.34	383.85
512.51	402.57
512.69	411.93
512.86	461.09
513.04	425.98
513.21	416.62
513.38	449.38
513.56	444.70
513.73	402.57
513.90	404.91
514.08	390.87
514.25	379.17
514.43	404.91
514.60	423.64
514.77	386.19
514.95	458.74
515.12	442.36
515.29	348.74
515.47	379.17
515.64	397.89
515.81	414.27
515.99	433.00
516.16	440.02
516.33	486.83
516.51	418.96
516.68	365.12
516.85	486.83
517.03	407.25
517.20	400.23
517.37	463.43
517.54	402.57
517.72	339.38
517.89	435.34
518.06	430.66
518.24	458.74
518.41	449.38
518.58	461.09
518.75	428.32
518.93	379.17
519.10	447.04
519.27	416.62
519.45	428.32
519.62	397.89
519.79	407.25
519.96	454.06
520.14	348.74
520.31	486.83
520.48	423.64
520.65	400.23
520.83	428.32
521.00	379.17
521.17	475.13
521.34	475.13
521.52	379.17
521.69	379.17
521.86	351.08
522.03	386.19
522.20	372.15
522.38	442.36
522.55	409.59
522.72	491.51
522.89	409.59
523.07	472.79
523.24	376.83
523.41	421.30
523.58	444.70
523.75	444.70
523.92	475.13
524.10	486.83
524.27	416.62
524.44	379.17
524.61	468.11
524.78	337.04
524.96	421.30
525.13	372.15
525.30	423.64
525.47	486.83
525.64	337.04
525.81	372.15
525.98	437.68
526.16	421.30
526.33	372.15
526.50	397.89
526.67	409.59
526.84	393.21
527.01	489.17
527.18	454.06
527.36	409.59
527.53	393.21
527.70	440.02
527.87	362.78
528.04	404.91
528.21	304.27
528.38	447.04
528.55	486.83
528.72	440.02
528.89	482.15
529.07	444.70
529.24	386.19
529.41	458.74
529.58	416.62
529.75	390.87
529.92	402.57
530.09	447.04
530.26	435.34
530.43	376.83
530.60	390.87
530.77	451.72
530.94	479.81
531.11	444.70
531.28	425.98
531.46	374.49
531.63	372.15
531.80	393.21
531.97	437.68
532.14	421.30
532.31	451.72
532.48	433.00
532.65	428.32
532.82	407.25
532.99	416.62
533.16	402.57
533.33	421.30
533.50	440.02
533.67	442.36
533.84	400.23
534.01	402.57
534.18	362.78
534.35	402.57
534.52	386.19
534.69	428.32
534.86	400.23
535.03	402.57
535.20	381.51
535.37	458.74
535.54	379.17
535.71	433.00
535.88	463.43
536.05	411.93
536.22	489.17
536.38	383.85
536.55	442.36
536.72	437.68
536.89	402.57
537.06	428.32
537.23	362.78
537.40	374.49
537.57	395.55
537.74	430.66
537.91	507.90
538.08	454.06
538.25	397.89
538.42	503.22
538.59	421.30
538.75	409.59
538.92	390.87
539.09	463.43
539.26	395.55
539.43	411.93
539.60	475.13
539.77	435.34
539.94	327.68
540.11	418.96
540.28	482.15
540.44	475.13
540.61	372.15
540.78	491.51
540.95	404.91
541.12	493.85
541.29	411.93
541.46	440.02
541.62	437.68
541.79	437.68
541.96	428.32
542.13	404.91
542.30	397.89
542.47	369.80
542.63	379.17
542.80	425.98
542.97	498.53
543.14	372.15
543.31	404.91
543.48	400.23
543.64	428.32
543.81	400.23
543.98	400.23
544.15	409.59
544.32	458.74
544.48	388.53
544.65	451.72
544.82	386.19
544.99	416.62
545.16	414.27
545.32	390.87
545.49	325.33
545.66	440.02
545.83	451.72
546.00	411.93
546.16	428.32
546.33	433.00
546.50	477.47
546.67	442.36
546.83	447.04
547.00	444.70
547.17	440.02
547.34	325.33
547.50	376.83
547.67	416.62
547.84	402.57
548.00	454.06
548.17	411.93
548.34	437.68
548.51	444.70
548.67	402.57
548.84	411.93
549.01	458.74
549.18	388.53
549.34	447.04
549.51	374.49
549.68	416.62
549.84	393.21
550.01	414.27
550.18	454.06
550.34	465.77
550.51	449.38
550.68	454.06
550.84	479.81
551.01	491.51
551.18	454.06
551.34	449.38
551.51	393.21
551.68	411.93
551.84	421.30
552.01	416.62
552.18	395.55
552.34	435.34
552.51	425.98
552.68	369.80
552.84	454.06
553.01	397.89
553.18	449.38
553.34	407.25
553.51	367.46
553.67	447.04
553.84	418.96
554.01	479.81
554.17	454.06
554.34	449.38
554.51	437.68
554.67	421.30
554.84	397.89
555.00	362.78
555.17	397.89
555.33	367.46
555.50	402.57
555.67	456.40
555.83	428.32
556.00	407.25
556.16	564.07
556.33	421.30
556.50	372.15
556.66	404.91
556.83	425.98
556.99	421.30
557.16	369.80
557.32	442.36
557.49	442.36
557.65	416.62
557.82	376.83
557.98	367.46
558.15	435.34
558.32	433.00
558.48	428.32
558.65	428.32
558.81	468.11
558.98	360.44
559.14	477.47
559.31	402.57
559.47	383.85
559.64	381.51
559.80	428.32
559.97	449.38
560.13	393.21
560.30	440.02
560.46	423.64
560.63	407.25
560.79	421.30
560.96	428.32
561.12	428.32
561.29	458.74
561.45	430.66
561.61	404.91
561.78	458.74
561.94	447.04
562.11	404.91
562.27	425.98
562.44	449.38
562.60	433.00
562.77	484.49
562.93	519.60
563.10	507.90
563.26	470.45
563.42	503.22
563.59	468.11
563.75	430.66
563.92	447.04
564.08	437.68
564.24	360.44
564.41	475.13
564.57	425.98
564.74	400.23
564.90	428.32
565.07	463.43
565.23	444.70
565.39	374.49
565.56	437.68
565.72	435.34
565.88	390.87
566.05	484.49
566.21	407.25
566.38	465.77
566.54	447.04
566.70	376.83
566.87	425.98
567.03	374.49
567.19	388.53
567.36	512.58
567.52	449.38
567.68	423.64
567.85	442.36
568.01	498.53
568.17	379.17
568.34	395.55
568.50	461.09
568.66	444.70
568.83	425.98
568.99	440.02
569.15	428.32
569.32	428.32
569.48	416.62
569.64	376.83
569.81	386.19
569.97	388.53
570.13	465.77
570.30	409.59
570.46	358.10
570.62	421.30
570.78	411.93
570.95	395.55
571.11	425.98
571.27	512.58
571.43	437.68
571.60	418.96
571.76	472.79
571.92	435.34
572.09	437.68
572.25	442.36
572.41	351.08
572.57	458.74
572.74	435.34
572.90	386.19
573.06	449.38
573.22	367.46
573.38	461.09
573.55	524.28
573.71	440.02
573.87	421.30
574.03	418.96
574.20	433.00
574.36	404.91
574.52	449.38
574.68	376.83
574.84	421.30
575.01	461.09
575.17	507.90
575.33	388.53
575.49	397.89
575.65	397.89
575.82	393.21
575.98	397.89
576.14	451.72
576.30	423.64
576.46	470.45
576.62	465.77
576.79	416.62
576.95	376.83
577.11	381.51
577.27	353.42
577.43	367.46
577.59	514.92
577.75	428.32
577.92	444.70
578.08	402.57
578.24	360.44
578.40	428.32
578.56	421.30
578.72	454.06
578.88	388.53
579.04	337.04
579.21	388.53
579.37	416.62
579.53	348.74
579.69	372.15
579.85	414.27
580.01	369.80
580.17	407.25
580.33	367.46
580.49	461.09
580.65	393.21
580.82	369.80
580.98	341.72
581.14	393.21
581.30	425.98
581.46	421.30
581.62	339.38
581.78	407.25
581.94	454.06
582.10	306.61
582.26	456.40
582.42	454.06
582.58	416.62
582.74	428.32
582.90	395.55
583.06	404.91
583.22	386.19
583.38	367.46
583.54	353.42
583.70	442.36
583.86	433.00
584.02	425.98
584.18	418.96
584.34	386.19
584.50	437.68
584.66	425.98
584.82	372.15
584.98	418.96
585.14	381.51
585.30	491.51
585.46	404.91
585.62	416.62
585.78	301.93
585.94	449.38
586.10	402.57
586.26	351.08
586.42	379.17
586.58	416.62
586.74	395.55
586.90	418.96
587.06	465.77
587.22	451.72
587.38	360.44
587.54	383.85
587.70	414.27
587.86	430.66
588.02	379.17
588.18	437.68
588.34	454.06
588.49	383.85
588.65	409.59
588.81	433.00
588.97	383.85
589.13	418.96
589.29	451.72
589.45	475.13
589.61	447.04
589.77	421.30
589.93	388.53
590.08	402.57
590.24	341.72
590.40	411.93
590.56	447.04
590.72	430.66
590.88	407.25
591.04	440.02
591.20	360.44
591.35	393.21
591.51	416.62
591.67	411.93
591.83	383.85
591.99	409.59
592.15	421.30
592.31	430.66
592.46	407.25
592.62	486.83
592.78	470.45
592.94	458.74
593.10	372.15
593.26	353.42
593.41	472.79
593.57	463.43
593.73	358.10
593.89	458.74
594.05	465.77
594.20	418.96
594.36	360.44
594.52	416.62
594.68	388.53
594.84	381.51
594.99	461.09
595.15	449.38
595.31	320.65
595.47	461.09
595.62	444.70
595.78	449.38
595.94	334.70
596.10	423.64
596.25	433.00
596.41	400.23
596.57	475.13
596.73	430.66
596.88	437.68
597.04	456.40
597.20	383.85
597.36	433.00
597.51	409.59
597.67	374.49
597.83	430.66
597.99	493.85
598.14	409.59
598.30	395.55
598.46	458.74
598.61	454.06
598.77	472.79
598.93	402.57
599.09	365.12
599.24	433.00
599.40	470.45
599.56	442.36
599.71	409.59
599.87	423.64
600.03	437.68
600.18	404.91
600.34	414.27
600.50	409.59
600.65	421.30
600.81	411.93
600.97	388.53
601.12	372.15
601.28	449.38
601.44	465.77
601.59	411.93
601.75	456.40
601.91	435.34
602.06	428.32
602.22	479.81
602.37	400.23
602.53	381.51
602.69	470.45
602.84	383.85
603.00	400.23
603.16	379.17
603.31	484.49
603.47	425.98
603.62	383.85
603.78	355.76
603.94	353.42
604.09	444.70
604.25	393.21
604.40	447.04
604.56	430.66
604.71	421.30
604.87	400.23
605.03	409.59
605.18	402.57
605.34	423.64
605.49	437.68
605.65	425.98
605.80	409.59
605.96	409.59
606.12	451.72
606.27	337.04
606.43	437.68
606.58	421.30
606.74	376.83
606.89	442.36
607.05	461.09
607.20	440.02
607.36	421.30
607.51	489.17
607.67	381.51
607.82	449.38
607.98	503.22
608.13	442.36
608.29	444.70
608.44	451.72
608.60	421.30
608.75	444.70
608.91	416.62
609.06	390.87
609.22	458.74
609.37	435.34
609.53	442.36
609.68	369.80
609.84	416.62
609.99	395.55
610.15	381.51
