SpectraSuite Data File
++++++++++++++++++++++++++++++++++++
Date: Fri Oct 25 12:11:41 EDT 2013
User: price-jones
Dark Spectrum Present: No
Reference Spectrum Present: No
Number of Sampled Component Spectra: 1
Spectrometers: USB2+H05261
Integration Time (usec): 100000 (USB2+H05261)
Spectra Averaged: 1 (USB2+H05261)
Boxcar Smoothing: 0 (USB2+H05261)
Correct for Electrical Dark: No (USB2+H05261)
Strobe/Lamp Enabled: No (USB2+H05261)
Correct for Detector Non-linearity: No (USB2+H05261)
Correct for Stray Light: No (USB2+H05261)
Number of Pixels in Processed Spectrum: 2048
>>>>>Begin Processed Spectral Data<<<<<
365.73	344.06
365.92	344.06
366.12	344.06
366.32	224.69
366.52	180.22
366.72	252.78
366.91	266.82
367.11	189.58
367.31	243.42
367.51	269.16
367.70	189.58
367.90	285.55
368.10	243.42
368.30	266.82
368.49	290.23
368.69	278.52
368.89	229.37
369.09	332.36
369.28	227.03
369.48	201.29
369.68	306.61
369.87	271.50
370.07	290.23
370.27	313.63
370.47	348.74
370.66	341.72
370.86	369.80
371.06	437.68
371.25	341.72
371.45	315.97
371.65	393.21
371.84	395.55
372.04	388.53
372.24	395.55
372.44	374.49
372.63	397.89
372.83	449.38
373.03	430.66
373.22	379.17
373.42	381.51
373.62	355.76
373.81	358.10
374.01	435.34
374.21	411.93
374.40	383.85
374.60	407.25
374.79	400.23
374.99	496.19
375.19	437.68
375.38	376.83
375.58	369.80
375.78	421.30
375.97	472.79
376.17	535.98
376.37	486.83
376.56	388.53
376.76	493.85
376.95	416.62
377.15	425.98
377.35	411.93
377.54	388.53
377.74	379.17
377.93	407.25
378.13	390.87
378.33	458.74
378.52	388.53
378.72	418.96
378.91	402.57
379.11	372.15
379.31	355.76
379.50	397.89
379.70	367.46
379.89	414.27
380.09	365.12
380.28	367.46
380.48	444.70
380.68	365.12
380.87	353.42
381.07	395.55
381.26	411.93
381.46	407.25
381.65	409.59
381.85	353.42
382.04	395.55
382.24	400.23
382.43	362.78
382.63	358.10
382.83	362.78
383.02	418.96
383.22	437.68
383.41	404.91
383.61	383.85
383.80	414.27
384.00	362.78
384.19	416.62
384.39	414.27
384.58	414.27
384.78	404.91
384.97	475.13
385.17	449.38
385.36	411.93
385.56	428.32
385.75	435.34
385.95	381.51
386.14	416.62
386.34	348.74
386.53	458.74
386.72	423.64
386.92	437.68
387.11	449.38
387.31	383.85
387.50	393.21
387.70	379.17
387.89	404.91
388.09	372.15
388.28	465.77
388.48	423.64
388.67	409.59
388.86	428.32
389.06	355.76
389.25	365.12
389.45	435.34
389.64	449.38
389.84	411.93
390.03	404.91
390.22	430.66
390.42	383.85
390.61	414.27
390.81	416.62
391.00	355.76
391.19	468.11
391.39	486.83
391.58	404.91
391.78	435.34
391.97	376.83
392.16	449.38
392.36	416.62
392.55	458.74
392.75	435.34
392.94	402.57
393.13	472.79
393.33	409.59
393.52	402.57
393.71	458.74
393.91	421.30
394.10	388.53
394.29	395.55
394.49	383.85
394.68	362.78
394.88	362.78
395.07	407.25
395.26	416.62
395.46	447.04
395.65	411.93
395.84	428.32
396.04	433.00
396.23	397.89
396.42	414.27
396.62	468.11
396.81	397.89
397.00	397.89
397.19	442.36
397.39	433.00
397.58	430.66
397.77	414.27
397.97	400.23
398.16	468.11
398.35	477.47
398.55	409.59
398.74	421.30
398.93	404.91
399.12	409.59
399.32	430.66
399.51	447.04
399.70	458.74
399.90	433.00
400.09	374.49
400.28	440.02
400.47	433.00
400.67	435.34
400.86	353.42
401.05	397.89
401.24	386.19
401.44	400.23
401.63	435.34
401.82	409.59
402.01	358.10
402.21	421.30
402.40	435.34
402.59	414.27
402.78	383.85
402.97	367.46
403.17	393.21
403.36	482.15
403.55	407.25
403.74	360.44
403.93	365.12
404.13	416.62
404.32	346.40
404.51	440.02
404.70	435.34
404.89	353.42
405.09	465.77
405.28	390.87
405.47	440.02
405.66	416.62
405.85	393.21
406.05	311.29
406.24	372.15
406.43	444.70
406.62	416.62
406.81	482.15
407.00	479.81
407.20	418.96
407.39	346.40
407.58	334.70
407.77	369.80
407.96	367.46
408.15	358.10
408.34	390.87
408.54	409.59
408.73	409.59
408.92	430.66
409.11	503.22
409.30	393.21
409.49	447.04
409.68	379.17
409.87	475.13
410.07	353.42
410.26	416.62
410.45	372.15
410.64	404.91
410.83	428.32
411.02	400.23
411.21	400.23
411.40	400.23
411.59	393.21
411.78	411.93
411.98	341.72
412.17	395.55
412.36	440.02
412.55	390.87
412.74	456.40
412.93	454.06
413.12	351.08
413.31	461.09
413.50	404.91
413.69	360.44
413.88	454.06
414.07	402.57
414.26	421.30
414.45	379.17
414.64	440.02
414.83	475.13
415.02	404.91
415.22	390.87
415.41	451.72
415.60	381.51
415.79	367.46
415.98	458.74
416.17	358.10
416.36	475.13
416.55	376.83
416.74	379.17
416.93	411.93
417.12	351.08
417.31	395.55
417.50	393.21
417.69	416.62
417.88	414.27
418.07	332.36
418.26	351.08
418.45	479.81
418.64	418.96
418.83	444.70
419.02	416.62
419.21	404.91
419.39	435.34
419.58	442.36
419.77	423.64
419.96	355.76
420.15	479.81
420.34	409.59
420.53	390.87
420.72	472.79
420.91	465.77
421.10	404.91
421.29	393.21
421.48	428.32
421.67	390.87
421.86	418.96
422.05	397.89
422.24	444.70
422.43	421.30
422.61	437.68
422.80	442.36
422.99	374.49
423.18	397.89
423.37	475.13
423.56	400.23
423.75	463.43
423.94	322.99
424.13	430.66
424.32	318.31
424.50	376.83
424.69	461.09
424.88	404.91
425.07	475.13
425.26	437.68
425.45	397.89
425.64	409.59
425.83	381.51
426.01	463.43
426.20	395.55
426.39	451.72
426.58	465.77
426.77	395.55
426.96	388.53
427.15	390.87
427.33	379.17
427.52	409.59
427.71	425.98
427.90	416.62
428.09	341.72
428.28	521.94
428.46	472.79
428.65	397.89
428.84	458.74
429.03	484.49
429.22	449.38
429.40	369.80
429.59	376.83
429.78	486.83
429.97	383.85
430.16	306.61
430.34	454.06
430.53	423.64
430.72	404.91
430.91	458.74
431.10	458.74
431.28	344.06
431.47	421.30
431.66	325.33
431.85	400.23
432.03	486.83
432.22	383.85
432.41	337.04
432.60	386.19
432.79	428.32
432.97	358.10
433.16	402.57
433.35	362.78
433.54	313.63
433.72	484.49
433.91	423.64
434.10	433.00
434.28	390.87
434.47	416.62
434.66	381.51
434.85	449.38
435.03	372.15
435.22	442.36
435.41	393.21
435.59	477.47
435.78	393.21
435.97	461.09
436.16	416.62
436.34	409.59
436.53	355.76
436.72	458.74
436.90	458.74
437.09	489.17
437.28	470.45
437.46	402.57
437.65	404.91
437.84	458.74
438.02	369.80
438.21	440.02
438.40	437.68
438.58	407.25
438.77	379.17
438.96	435.34
439.14	414.27
439.33	423.64
439.52	395.55
439.70	365.12
439.89	402.57
440.08	454.06
440.26	395.55
440.45	465.77
440.63	458.74
440.82	379.17
441.01	409.59
441.19	470.45
441.38	369.80
441.57	444.70
441.75	449.38
441.94	449.38
442.12	397.89
442.31	386.19
442.50	386.19
442.68	376.83
442.87	444.70
443.05	341.72
443.24	418.96
443.43	365.12
443.61	440.02
443.80	411.93
443.98	400.23
444.17	332.36
444.35	386.19
444.54	470.45
444.73	451.72
444.91	411.93
445.10	365.12
445.28	414.27
445.47	409.59
445.65	367.46
445.84	379.17
446.02	365.12
446.21	484.49
446.39	418.96
446.58	468.11
446.77	411.93
446.95	414.27
447.14	447.04
447.32	491.51
447.51	489.17
447.69	386.19
447.88	449.38
448.06	353.42
448.25	433.00
448.43	325.33
448.62	369.80
448.80	442.36
448.99	418.96
449.17	414.27
449.36	390.87
449.54	393.21
449.73	369.80
449.91	404.91
450.10	423.64
450.28	425.98
450.46	489.17
450.65	414.27
450.83	454.06
451.02	475.13
451.20	365.12
451.39	402.57
451.57	454.06
451.76	430.66
451.94	409.59
452.13	526.62
452.31	433.00
452.49	393.21
452.68	372.15
452.86	442.36
453.05	491.51
453.23	407.25
453.42	407.25
453.60	402.57
453.78	374.49
453.97	367.46
454.15	386.19
454.34	447.04
454.52	433.00
454.70	411.93
454.89	376.83
455.07	444.70
455.26	400.23
455.44	489.17
455.62	437.68
455.81	454.06
455.99	376.83
456.17	397.89
456.36	428.32
456.54	390.87
456.73	442.36
456.91	379.17
457.09	402.57
457.28	421.30
457.46	456.40
457.64	418.96
457.83	348.74
458.01	411.93
458.19	421.30
458.38	447.04
458.56	402.57
458.74	383.85
458.93	337.04
459.11	409.59
459.29	475.13
459.48	456.40
459.66	430.66
459.84	325.33
460.03	489.17
460.21	358.10
460.39	388.53
460.57	470.45
460.76	416.62
460.94	442.36
461.12	489.17
461.31	428.32
461.49	430.66
461.67	430.66
461.85	390.87
462.04	334.70
462.22	784.08
462.40	444.70
462.59	423.64
462.77	397.89
462.95	397.89
463.13	421.30
463.32	437.68
463.50	475.13
463.68	437.68
463.86	425.98
464.05	416.62
464.23	465.77
464.41	437.68
464.59	421.30
464.78	397.89
464.96	388.53
465.14	388.53
465.32	435.34
465.50	449.38
465.69	454.06
465.87	388.53
466.05	379.17
466.23	423.64
466.41	411.93
466.60	386.19
466.78	409.59
466.96	320.65
467.14	395.55
467.32	430.66
467.51	390.87
467.69	414.27
467.87	449.38
468.05	369.80
468.23	402.57
468.41	440.02
468.60	486.83
468.78	440.02
468.96	512.58
469.14	449.38
469.32	388.53
469.50	414.27
469.69	402.57
469.87	407.25
470.05	458.74
470.23	381.51
470.41	472.79
470.59	437.68
470.77	390.87
470.95	433.00
471.14	393.21
471.32	383.85
471.50	402.57
471.68	423.64
471.86	388.53
472.04	430.66
472.22	404.91
472.40	442.36
472.58	372.15
472.77	444.70
472.95	327.68
473.13	383.85
473.31	388.53
473.49	442.36
473.67	416.62
473.85	425.98
474.03	425.98
474.21	470.45
474.39	472.79
474.57	465.77
474.75	390.87
474.93	407.25
475.12	346.40
475.30	458.74
475.48	348.74
475.66	374.49
475.84	395.55
476.02	395.55
476.20	433.00
476.38	414.27
476.56	430.66
476.74	456.40
476.92	407.25
477.10	390.87
477.28	456.40
477.46	358.10
477.64	437.68
477.82	383.85
478.00	353.42
478.18	440.02
478.36	367.46
478.54	393.21
478.72	414.27
478.90	404.91
479.08	470.45
479.26	393.21
479.44	407.25
479.62	404.91
479.80	376.83
479.98	397.89
480.16	430.66
480.34	440.02
480.52	430.66
480.70	388.53
480.88	430.66
481.06	397.89
481.24	430.66
481.41	381.51
481.59	421.30
481.77	395.55
481.95	358.10
482.13	397.89
482.31	404.91
482.49	411.93
482.67	362.78
482.85	402.57
483.03	479.81
483.21	397.89
483.39	330.02
483.57	456.40
483.74	430.66
483.92	386.19
484.10	435.34
484.28	418.96
484.46	484.49
484.64	367.46
484.82	416.62
485.00	397.89
485.18	423.64
485.35	418.96
485.53	437.68
485.71	463.43
485.89	421.30
486.07	395.55
486.25	440.02
486.43	395.55
486.61	461.09
486.78	505.56
486.96	442.36
487.14	397.89
487.32	423.64
487.50	369.80
487.68	475.13
487.85	414.27
488.03	388.53
488.21	416.62
488.39	332.36
488.57	489.17
488.75	409.59
488.92	468.11
489.10	355.76
489.28	414.27
489.46	304.27
489.64	451.72
489.81	430.66
489.99	423.64
490.17	449.38
490.35	367.46
490.53	341.72
490.70	397.89
490.88	442.36
491.06	351.08
491.24	425.98
491.41	442.36
491.59	404.91
491.77	332.36
491.95	348.74
492.13	451.72
492.30	440.02
492.48	440.02
492.66	379.17
492.84	407.25
493.01	428.32
493.19	400.23
493.37	496.19
493.54	430.66
493.72	379.17
493.90	444.70
494.08	472.79
494.25	428.32
494.43	440.02
494.61	437.68
494.79	369.80
494.96	407.25
495.14	449.38
495.32	451.72
495.49	355.76
495.67	367.46
495.85	423.64
496.02	437.68
496.20	395.55
496.38	449.38
496.55	355.76
496.73	414.27
496.91	430.66
497.09	491.51
497.26	409.59
497.44	468.11
497.62	421.30
497.79	418.96
497.97	400.23
498.14	397.89
498.32	404.91
498.50	451.72
498.67	365.12
498.85	456.40
499.03	442.36
499.20	416.62
499.38	409.59
499.56	433.00
499.73	440.02
499.91	425.98
500.08	341.72
500.26	428.32
500.44	423.64
500.61	369.80
500.79	397.89
500.97	454.06
501.14	428.32
501.32	411.93
501.49	404.91
501.67	425.98
501.84	379.17
502.02	435.34
502.20	444.70
502.37	449.38
502.55	390.87
502.72	397.89
502.90	500.87
503.07	423.64
503.25	362.78
503.43	416.62
503.60	379.17
503.78	362.78
503.95	440.02
504.13	374.49
504.30	444.70
504.48	468.11
504.65	418.96
504.83	425.98
505.01	409.59
505.18	379.17
505.36	468.11
505.53	411.93
505.71	461.09
505.88	456.40
506.06	418.96
506.23	360.44
506.41	390.87
506.58	332.36
506.76	440.02
506.93	430.66
507.11	393.21
507.28	447.04
507.46	425.98
507.63	475.13
507.81	301.93
507.98	407.25
508.16	369.80
508.33	376.83
508.50	430.66
508.68	433.00
508.85	411.93
509.03	402.57
509.20	374.49
509.38	437.68
509.55	400.23
509.73	402.57
509.90	425.98
510.08	400.23
510.25	390.87
510.42	376.83
510.60	414.27
510.77	454.06
510.95	423.64
511.12	470.45
511.30	472.79
511.47	390.87
511.64	416.62
511.82	372.15
511.99	381.51
512.17	414.27
512.34	435.34
512.51	351.08
512.69	402.57
512.86	444.70
513.04	414.27
513.21	430.66
513.38	376.83
513.56	451.72
513.73	376.83
513.90	430.66
514.08	400.23
514.25	409.59
514.43	397.89
514.60	365.12
514.77	444.70
514.95	383.85
515.12	360.44
515.29	379.17
515.47	390.87
515.64	454.06
515.81	383.85
515.99	500.87
516.16	437.68
516.33	507.90
516.51	440.02
516.68	362.78
516.85	358.10
517.03	376.83
517.20	444.70
517.37	433.00
517.54	470.45
517.72	379.17
517.89	416.62
518.06	358.10
518.24	454.06
518.41	521.94
518.58	409.59
518.75	407.25
518.93	351.08
519.10	376.83
519.27	395.55
519.45	433.00
519.62	365.12
519.79	458.74
519.96	386.19
520.14	395.55
520.31	374.49
520.48	407.25
520.65	404.91
520.83	472.79
521.00	381.51
521.17	468.11
521.34	421.30
521.52	337.04
521.69	421.30
521.86	414.27
522.03	430.66
522.20	465.77
522.38	337.04
522.55	433.00
522.72	442.36
522.89	428.32
523.07	397.89
523.24	395.55
523.41	381.51
523.58	428.32
523.75	353.42
523.92	386.19
524.10	468.11
524.27	367.46
524.44	376.83
524.61	447.04
524.78	418.96
524.96	437.68
525.13	437.68
525.30	456.40
525.47	355.76
525.64	449.38
525.81	423.64
525.98	374.49
526.16	355.76
526.33	454.06
526.50	430.66
526.67	425.98
526.84	367.46
527.01	444.70
527.18	397.89
527.36	409.59
527.53	397.89
527.70	477.47
527.87	330.02
528.04	493.85
528.21	372.15
528.38	442.36
528.55	416.62
528.72	428.32
528.89	468.11
529.07	376.83
529.24	430.66
529.41	472.79
529.58	411.93
529.75	411.93
529.92	425.98
530.09	381.51
530.26	482.15
530.43	339.38
530.60	435.34
530.77	440.02
530.94	449.38
531.11	479.81
531.28	388.53
531.46	421.30
531.63	397.89
531.80	423.64
531.97	397.89
532.14	358.10
532.31	416.62
532.48	531.30
532.65	367.46
532.82	348.74
532.99	395.55
533.16	458.74
533.33	402.57
533.50	383.85
533.67	388.53
533.84	465.77
534.01	449.38
534.18	402.57
534.35	458.74
534.52	376.83
534.69	381.51
534.86	444.70
535.03	447.04
535.20	430.66
535.37	442.36
535.54	411.93
535.71	470.45
535.88	454.06
536.05	400.23
536.22	489.17
536.38	414.27
536.55	404.91
536.72	456.40
536.89	458.74
537.06	400.23
537.23	416.62
537.40	397.89
537.57	503.22
537.74	477.47
537.91	430.66
538.08	421.30
538.25	442.36
538.42	386.19
538.59	376.83
538.75	330.02
538.92	433.00
539.09	458.74
539.26	376.83
539.43	393.21
539.60	395.55
539.77	374.49
539.94	409.59
540.11	421.30
540.28	447.04
540.44	421.30
540.61	461.09
540.78	367.46
540.95	418.96
541.12	463.43
541.29	449.38
541.46	477.47
541.62	386.19
541.79	486.83
541.96	435.34
542.13	451.72
542.30	484.49
542.47	433.00
542.63	360.44
542.80	409.59
542.97	390.87
543.14	400.23
543.31	442.36
543.48	442.36
543.64	418.96
543.81	397.89
543.98	416.62
544.15	416.62
544.32	425.98
544.48	437.68
544.65	433.00
544.82	463.43
544.99	454.06
545.16	458.74
545.32	304.27
545.49	482.15
545.66	423.64
545.83	409.59
546.00	376.83
546.16	423.64
546.33	400.23
546.50	475.13
546.67	451.72
546.83	454.06
547.00	444.70
547.17	414.27
547.34	440.02
547.50	484.49
547.67	367.46
547.84	390.87
548.00	393.21
548.17	449.38
548.34	465.77
548.51	463.43
548.67	395.55
548.84	393.21
549.01	477.47
549.18	388.53
549.34	414.27
549.51	414.27
549.68	433.00
549.84	411.93
550.01	383.85
550.18	449.38
550.34	535.98
550.51	404.91
550.68	442.36
550.84	402.57
551.01	383.85
551.18	360.44
551.34	397.89
551.51	393.21
551.68	365.12
551.84	395.55
552.01	395.55
552.18	461.09
552.34	409.59
552.51	444.70
552.68	395.55
552.84	498.53
553.01	409.59
553.18	334.70
553.34	411.93
553.51	369.80
553.67	423.64
553.84	409.59
554.01	423.64
554.17	393.21
554.34	376.83
554.51	411.93
554.67	390.87
554.84	383.85
555.00	409.59
555.17	435.34
555.33	428.32
555.50	421.30
555.67	477.47
555.83	414.27
556.00	416.62
556.16	571.09
556.33	484.49
556.50	388.53
556.66	414.27
556.83	472.79
556.99	411.93
557.16	477.47
557.32	489.17
557.49	428.32
557.65	454.06
557.82	449.38
557.98	435.34
558.15	421.30
558.32	521.94
558.48	468.11
558.65	416.62
558.81	477.47
558.98	440.02
559.14	430.66
559.31	442.36
559.47	358.10
559.64	458.74
559.80	409.59
559.97	472.79
560.13	433.00
560.30	489.17
560.46	407.25
560.63	437.68
560.79	533.64
560.96	395.55
561.12	493.85
561.29	425.98
561.45	442.36
561.61	475.13
561.78	493.85
561.94	402.57
562.11	442.36
562.27	416.62
562.44	437.68
562.60	451.72
562.77	423.64
562.93	468.11
563.10	355.76
563.26	442.36
563.42	418.96
563.59	465.77
563.75	411.93
563.92	372.15
564.08	409.59
564.24	374.49
564.41	507.90
564.57	444.70
564.74	409.59
564.90	451.72
565.07	383.85
565.23	414.27
565.39	390.87
565.56	430.66
565.72	400.23
565.88	416.62
566.05	451.72
566.21	341.72
566.38	437.68
566.54	425.98
566.70	404.91
566.87	421.30
567.03	442.36
567.19	435.34
567.36	379.17
567.52	428.32
567.68	418.96
567.85	425.98
568.01	444.70
568.17	393.21
568.34	433.00
568.50	451.72
568.66	411.93
568.83	477.47
568.99	409.59
569.15	430.66
569.32	451.72
569.48	386.19
569.64	400.23
569.81	442.36
569.97	404.91
570.13	414.27
570.30	425.98
570.46	393.21
570.62	386.19
570.78	442.36
570.95	360.44
571.11	461.09
571.27	428.32
571.43	437.68
571.60	472.79
571.76	416.62
571.92	390.87
572.09	475.13
572.25	425.98
572.41	376.83
572.57	414.27
572.74	402.57
572.90	379.17
573.06	465.77
573.22	425.98
573.38	430.66
573.55	414.27
573.71	477.47
573.87	425.98
574.03	332.36
574.20	444.70
574.36	470.45
574.52	465.77
574.68	404.91
574.84	393.21
575.01	402.57
575.17	470.45
575.33	395.55
575.49	503.22
575.65	411.93
575.82	493.85
575.98	379.17
576.14	383.85
576.30	416.62
576.46	341.72
576.62	341.72
576.79	390.87
576.95	369.80
577.11	423.64
577.27	365.12
577.43	418.96
577.59	489.17
577.75	360.44
577.92	374.49
578.08	468.11
578.24	395.55
578.40	479.81
578.56	449.38
578.72	423.64
578.88	395.55
579.04	482.15
579.21	362.78
579.37	397.89
579.53	400.23
579.69	428.32
579.85	355.76
580.01	411.93
580.17	386.19
580.33	404.91
580.49	470.45
580.65	386.19
580.82	437.68
580.98	407.25
581.14	390.87
581.30	498.53
581.46	458.74
581.62	418.96
581.78	444.70
581.94	491.51
582.10	411.93
582.26	423.64
582.42	428.32
582.58	486.83
582.74	414.27
582.90	437.68
583.06	465.77
583.22	358.10
583.38	421.30
583.54	470.45
583.70	470.45
583.86	447.04
584.02	402.57
584.18	425.98
584.34	388.53
584.50	402.57
584.66	430.66
584.82	433.00
584.98	430.66
585.14	425.98
585.30	470.45
585.46	374.49
585.62	437.68
585.78	376.83
585.94	440.02
586.10	365.12
586.26	397.89
586.42	433.00
586.58	390.87
586.74	301.93
586.90	414.27
587.06	451.72
587.22	454.06
587.38	402.57
587.54	367.46
587.70	442.36
587.86	496.19
588.02	423.64
588.18	390.87
588.34	425.98
588.49	395.55
588.65	425.98
588.81	444.70
588.97	433.00
589.13	390.87
589.29	330.02
589.45	400.23
589.61	425.98
589.77	449.38
589.93	395.55
590.08	440.02
590.24	430.66
590.40	414.27
590.56	470.45
590.72	477.47
590.88	379.17
591.04	475.13
591.20	411.93
591.35	433.00
591.51	414.27
591.67	386.19
591.83	411.93
591.99	470.45
592.15	435.34
592.31	435.34
592.46	407.25
592.62	486.83
592.78	353.42
592.94	393.21
593.10	514.92
593.26	423.64
593.41	372.15
593.57	404.91
593.73	353.42
593.89	341.72
594.05	421.30
594.20	402.57
594.36	442.36
594.52	379.17
594.68	430.66
594.84	400.23
594.99	454.06
595.15	500.87
595.31	421.30
595.47	507.90
595.62	421.30
595.78	379.17
595.94	425.98
596.10	407.25
596.25	430.66
596.41	383.85
596.57	458.74
596.73	435.34
596.88	383.85
597.04	433.00
597.20	404.91
597.36	472.79
597.51	400.23
597.67	411.93
597.83	402.57
597.99	489.17
598.14	428.32
598.30	362.78
598.46	390.87
598.61	430.66
598.77	482.15
598.93	397.89
599.09	381.51
599.24	437.68
599.40	416.62
599.56	372.15
599.71	381.51
599.87	344.06
600.03	451.72
600.18	458.74
600.34	435.34
600.50	433.00
600.65	390.87
600.81	458.74
600.97	425.98
601.12	414.27
601.28	379.17
601.44	411.93
601.59	440.02
601.75	409.59
601.91	458.74
602.06	430.66
602.22	498.53
602.37	381.51
602.53	493.85
602.69	400.23
602.84	402.57
603.00	369.80
603.16	414.27
603.31	468.11
603.47	447.04
603.62	437.68
603.78	425.98
603.94	458.74
604.09	360.44
604.25	393.21
604.40	404.91
604.56	477.47
604.71	369.80
604.87	393.21
605.03	386.19
605.18	416.62
605.34	456.40
605.49	388.53
605.65	479.81
605.80	475.13
605.96	402.57
606.12	358.10
606.27	390.87
606.43	461.09
606.58	414.27
606.74	435.34
606.89	456.40
607.05	433.00
607.20	376.83
607.36	440.02
607.51	442.36
607.67	444.70
607.82	430.66
607.98	416.62
608.13	472.79
608.29	393.21
608.44	463.43
608.60	367.46
608.75	486.83
608.91	456.40
609.06	484.49
609.22	447.04
609.37	428.32
609.53	402.57
609.68	372.15
609.84	372.15
609.99	458.74
610.15	425.98
