SpectraSuite Data File
++++++++++++++++++++++++++++++++++++
Date: Fri Oct 25 12:11:32 EDT 2013
User: price-jones
Dark Spectrum Present: No
Reference Spectrum Present: No
Number of Sampled Component Spectra: 1
Spectrometers: USB2+H05261
Integration Time (usec): 100000 (USB2+H05261)
Spectra Averaged: 1 (USB2+H05261)
Boxcar Smoothing: 0 (USB2+H05261)
Correct for Electrical Dark: No (USB2+H05261)
Strobe/Lamp Enabled: No (USB2+H05261)
Correct for Detector Non-linearity: No (USB2+H05261)
Correct for Stray Light: No (USB2+H05261)
Number of Pixels in Processed Spectrum: 2048
>>>>>Begin Processed Spectral Data<<<<<
365.73	355.76
365.92	355.76
366.12	355.76
366.32	273.84
366.52	294.91
366.72	294.91
366.91	294.91
367.11	203.63
367.31	236.39
367.51	252.78
367.70	217.67
367.90	224.69
368.10	243.42
368.30	304.27
368.49	297.25
368.69	285.55
368.89	250.44
369.09	259.80
369.28	243.42
369.48	194.26
369.68	241.08
369.87	290.23
370.07	280.86
370.27	358.10
370.47	301.93
370.66	367.46
370.86	332.36
371.06	409.59
371.25	376.83
371.45	395.55
371.65	376.83
371.84	482.15
372.04	372.15
372.24	374.49
372.44	360.44
372.63	421.30
372.83	454.06
373.03	369.80
373.22	444.70
373.42	463.43
373.62	451.72
373.81	388.53
374.01	416.62
374.21	421.30
374.40	423.64
374.60	393.21
374.79	402.57
374.99	440.02
375.19	491.51
375.38	447.04
375.58	306.61
375.78	411.93
375.97	463.43
376.17	437.68
376.37	390.87
376.56	402.57
376.76	433.00
376.95	351.08
377.15	416.62
377.35	374.49
377.54	451.72
377.74	411.93
377.93	461.09
378.13	395.55
378.33	465.77
378.52	397.89
378.72	435.34
378.91	404.91
379.11	374.49
379.31	400.23
379.50	388.53
379.70	369.80
379.89	470.45
380.09	404.91
380.28	337.04
380.48	428.32
380.68	386.19
380.87	369.80
381.07	461.09
381.26	369.80
381.46	311.29
381.65	301.93
381.85	421.30
382.04	430.66
382.24	425.98
382.43	369.80
382.63	376.83
382.83	322.99
383.02	444.70
383.22	390.87
383.41	397.89
383.61	402.57
383.80	442.36
384.00	390.87
384.19	423.64
384.39	433.00
384.58	428.32
384.78	442.36
384.97	348.74
385.17	407.25
385.36	430.66
385.56	451.72
385.75	381.51
385.95	365.12
386.14	430.66
386.34	470.45
386.53	418.96
386.72	334.70
386.92	386.19
387.11	390.87
387.31	479.81
387.50	383.85
387.70	407.25
387.89	376.83
388.09	418.96
388.28	407.25
388.48	362.78
388.67	463.43
388.86	442.36
389.06	428.32
389.25	416.62
389.45	428.32
389.64	484.49
389.84	376.83
390.03	379.17
390.22	400.23
390.42	437.68
390.61	388.53
390.81	409.59
391.00	449.38
391.19	461.09
391.39	397.89
391.58	404.91
391.78	388.53
391.97	451.72
392.16	372.15
392.36	425.98
392.55	386.19
392.75	465.77
392.94	430.66
393.13	386.19
393.33	407.25
393.52	358.10
393.71	451.72
393.91	435.34
394.10	369.80
394.29	416.62
394.49	400.23
394.68	393.21
394.88	365.12
395.07	442.36
395.26	414.27
395.46	358.10
395.65	416.62
395.84	461.09
396.04	498.53
396.23	360.44
396.42	346.40
396.62	411.93
396.81	388.53
397.00	395.55
397.19	411.93
397.39	355.76
397.58	395.55
397.77	486.83
397.97	381.51
398.16	425.98
398.35	393.21
398.55	444.70
398.74	369.80
398.93	430.66
399.12	395.55
399.32	402.57
399.51	341.72
399.70	437.68
399.90	386.19
400.09	437.68
400.28	425.98
400.47	503.22
400.67	447.04
400.86	442.36
401.05	395.55
401.24	454.06
401.44	463.43
401.63	454.06
401.82	479.81
402.01	393.21
402.21	404.91
402.40	418.96
402.59	454.06
402.78	402.57
402.97	407.25
403.17	395.55
403.36	376.83
403.55	369.80
403.74	486.83
403.93	442.36
404.13	430.66
404.32	362.78
404.51	430.66
404.70	414.27
404.89	409.59
405.09	423.64
405.28	437.68
405.47	381.51
405.66	475.13
405.85	451.72
406.05	402.57
406.24	433.00
406.43	402.57
406.62	346.40
406.81	454.06
407.00	440.02
407.20	386.19
407.39	383.85
407.58	341.72
407.77	397.89
407.96	465.77
408.15	433.00
408.34	428.32
408.54	369.80
408.73	386.19
408.92	395.55
409.11	456.40
409.30	409.59
409.49	337.04
409.68	400.23
409.87	409.59
410.07	388.53
410.26	428.32
410.45	388.53
410.64	388.53
410.83	362.78
411.02	447.04
411.21	418.96
411.40	461.09
411.59	442.36
411.78	411.93
411.98	433.00
412.17	416.62
412.36	383.85
412.55	376.83
412.74	407.25
412.93	468.11
413.12	414.27
413.31	463.43
413.50	360.44
413.69	416.62
413.88	482.15
414.07	381.51
414.26	348.74
414.45	376.83
414.64	458.74
414.83	365.12
415.02	442.36
415.22	437.68
415.41	416.62
415.60	360.44
415.79	397.89
415.98	381.51
416.17	376.83
416.36	451.72
416.55	442.36
416.74	451.72
416.93	430.66
417.12	407.25
417.31	374.49
417.50	341.72
417.69	421.30
417.88	461.09
418.07	395.55
418.26	425.98
418.45	430.66
418.64	454.06
418.83	418.96
419.02	463.43
419.21	381.51
419.39	341.72
419.58	421.30
419.77	430.66
419.96	428.32
420.15	425.98
420.34	440.02
420.53	369.80
420.72	402.57
420.91	479.81
421.10	451.72
421.29	376.83
421.48	433.00
421.67	344.06
421.86	360.44
422.05	402.57
422.24	421.30
422.43	454.06
422.61	393.21
422.80	372.15
422.99	421.30
423.18	358.10
423.37	383.85
423.56	344.06
423.75	390.87
423.94	337.04
424.13	411.93
424.32	411.93
424.50	409.59
424.69	442.36
424.88	468.11
425.07	440.02
425.26	440.02
425.45	409.59
425.64	442.36
425.83	458.74
426.01	418.96
426.20	376.83
426.39	372.15
426.58	435.34
426.77	325.33
426.96	402.57
427.15	397.89
427.33	393.21
427.52	421.30
427.71	411.93
427.90	407.25
428.09	425.98
428.28	433.00
428.46	423.64
428.65	404.91
428.84	433.00
429.03	411.93
429.22	388.53
429.40	379.17
429.59	383.85
429.78	407.25
429.97	374.49
430.16	531.30
430.34	395.55
430.53	393.21
430.72	393.21
430.91	421.30
431.10	379.17
431.28	367.46
431.47	421.30
431.66	425.98
431.85	418.96
432.03	416.62
432.22	402.57
432.41	381.51
432.60	496.19
432.79	351.08
432.97	386.19
433.16	458.74
433.35	461.09
433.54	458.74
433.72	444.70
433.91	418.96
434.10	404.91
434.28	418.96
434.47	435.34
434.66	444.70
434.85	388.53
435.03	376.83
435.22	404.91
435.41	435.34
435.59	468.11
435.78	423.64
435.97	437.68
436.16	409.59
436.34	348.74
436.53	404.91
436.72	482.15
436.90	418.96
437.09	458.74
437.28	440.02
437.46	437.68
437.65	421.30
437.84	423.64
438.02	433.00
438.21	430.66
438.40	325.33
438.58	456.40
438.77	475.13
438.96	447.04
439.14	458.74
439.33	496.19
439.52	451.72
439.70	397.89
439.89	393.21
440.08	423.64
440.26	400.23
440.45	430.66
440.63	425.98
440.82	409.59
441.01	369.80
441.19	447.04
441.38	362.78
441.57	423.64
441.75	440.02
441.94	491.51
442.12	376.83
442.31	400.23
442.50	400.23
442.68	411.93
442.87	402.57
443.05	365.12
443.24	449.38
443.43	367.46
443.61	395.55
443.80	433.00
443.98	477.47
444.17	440.02
444.35	423.64
444.54	428.32
444.73	440.02
444.91	454.06
445.10	421.30
445.28	451.72
445.47	470.45
445.65	365.12
445.84	402.57
446.02	337.04
446.21	376.83
446.39	416.62
446.58	454.06
446.77	428.32
446.95	374.49
447.14	416.62
447.32	472.79
447.51	454.06
447.69	435.34
447.88	428.32
448.06	435.34
448.25	423.64
448.43	407.25
448.62	411.93
448.80	414.27
448.99	465.77
449.17	404.91
449.36	379.17
449.54	475.13
449.73	435.34
449.91	421.30
450.10	456.40
450.28	510.24
450.46	428.32
450.65	402.57
450.83	418.96
451.02	458.74
451.20	404.91
451.39	440.02
451.57	484.49
451.76	395.55
451.94	465.77
452.13	402.57
452.31	463.43
452.49	470.45
452.68	407.25
452.86	409.59
453.05	388.53
453.23	404.91
453.42	447.04
453.60	435.34
453.78	482.15
453.97	470.45
454.15	440.02
454.34	440.02
454.52	407.25
454.70	397.89
454.89	381.51
455.07	447.04
455.26	430.66
455.44	440.02
455.62	435.34
455.81	393.21
455.99	482.15
456.17	437.68
456.36	472.79
456.54	390.87
456.73	376.83
456.91	360.44
457.09	456.40
457.28	440.02
457.46	346.40
457.64	451.72
457.83	407.25
458.01	470.45
458.19	423.64
458.38	407.25
458.56	400.23
458.74	351.08
458.93	442.36
459.11	475.13
459.29	437.68
459.48	397.89
459.66	437.68
459.84	395.55
460.03	454.06
460.21	479.81
460.39	442.36
460.57	421.30
460.76	454.06
460.94	465.77
461.12	421.30
461.31	454.06
461.49	367.46
461.67	346.40
461.85	404.91
462.04	414.27
462.22	774.72
462.40	440.02
462.59	444.70
462.77	367.46
462.95	400.23
463.13	388.53
463.32	477.47
463.50	400.23
463.68	472.79
463.86	383.85
464.05	468.11
464.23	418.96
464.41	486.83
464.59	379.17
464.78	379.17
464.96	449.38
465.14	437.68
465.32	489.17
465.50	468.11
465.69	379.17
465.87	418.96
466.05	451.72
466.23	468.11
466.41	421.30
466.60	383.85
466.78	367.46
466.96	416.62
467.14	479.81
467.32	437.68
467.51	484.49
467.69	435.34
467.87	470.45
468.05	353.42
468.23	486.83
468.41	496.19
468.60	423.64
468.78	390.87
468.96	428.32
469.14	409.59
469.32	425.98
469.50	397.89
469.69	381.51
469.87	430.66
470.05	428.32
470.23	365.12
470.41	404.91
470.59	369.80
470.77	411.93
470.95	386.19
471.14	437.68
471.32	390.87
471.50	479.81
471.68	449.38
471.86	435.34
472.04	472.79
472.22	395.55
472.40	414.27
472.58	348.74
472.77	400.23
472.95	358.10
473.13	447.04
473.31	437.68
473.49	430.66
473.67	444.70
473.85	390.87
474.03	475.13
474.21	423.64
474.39	463.43
474.57	400.23
474.75	454.06
474.93	381.51
475.12	346.40
475.30	355.76
475.48	386.19
475.66	376.83
475.84	383.85
476.02	386.19
476.20	428.32
476.38	442.36
476.56	458.74
476.74	407.25
476.92	421.30
477.10	414.27
477.28	428.32
477.46	344.06
477.64	386.19
477.82	411.93
478.00	383.85
478.18	433.00
478.36	353.42
478.54	421.30
478.72	435.34
478.90	402.57
479.08	362.78
479.26	435.34
479.44	372.15
479.62	346.40
479.80	369.80
479.98	400.23
480.16	362.78
480.34	390.87
480.52	381.51
480.70	437.68
480.88	435.34
481.06	355.76
481.24	379.17
481.41	409.59
481.59	444.70
481.77	435.34
481.95	416.62
482.13	404.91
482.31	421.30
482.49	451.72
482.67	393.21
482.85	451.72
483.03	484.49
483.21	437.68
483.39	374.49
483.57	484.49
483.74	470.45
483.92	442.36
484.10	409.59
484.28	468.11
484.46	482.15
484.64	397.89
484.82	421.30
485.00	404.91
485.18	409.59
485.35	390.87
485.53	388.53
485.71	353.42
485.89	409.59
486.07	411.93
486.25	407.25
486.43	461.09
486.61	437.68
486.78	456.40
486.96	428.32
487.14	435.34
487.32	407.25
487.50	400.23
487.68	416.62
487.85	458.74
488.03	430.66
488.21	437.68
488.39	463.43
488.57	379.17
488.75	376.83
488.92	435.34
489.10	430.66
489.28	465.77
489.46	332.36
489.64	430.66
489.81	444.70
489.99	416.62
490.17	437.68
490.35	390.87
490.53	440.02
490.70	390.87
490.88	458.74
491.06	404.91
491.24	430.66
491.41	484.49
491.59	423.64
491.77	397.89
491.95	395.55
492.13	348.74
492.30	365.12
492.48	421.30
492.66	447.04
492.84	346.40
493.01	390.87
493.19	374.49
493.37	449.38
493.54	440.02
493.72	433.00
493.90	447.04
494.08	411.93
494.25	468.11
494.43	379.17
494.61	346.40
494.79	334.70
494.96	449.38
495.14	444.70
495.32	402.57
495.49	468.11
495.67	409.59
495.85	430.66
496.02	390.87
496.20	472.79
496.38	423.64
496.55	449.38
496.73	425.98
496.91	358.10
497.09	381.51
497.26	458.74
497.44	421.30
497.62	393.21
497.79	414.27
497.97	451.72
498.14	444.70
498.32	477.47
498.50	418.96
498.67	418.96
498.85	423.64
499.03	388.53
499.20	428.32
499.38	472.79
499.56	461.09
499.73	360.44
499.91	372.15
500.08	470.45
500.26	444.70
500.44	456.40
500.61	407.25
500.79	358.10
500.97	423.64
501.14	433.00
501.32	442.36
501.49	386.19
501.67	437.68
501.84	390.87
502.02	381.51
502.20	402.57
502.37	365.12
502.55	500.87
502.72	404.91
502.90	395.55
503.07	395.55
503.25	381.51
503.43	482.15
503.60	414.27
503.78	404.91
503.95	442.36
504.13	372.15
504.30	416.62
504.48	442.36
504.65	456.40
504.83	397.89
505.01	397.89
505.18	390.87
505.36	449.38
505.53	374.49
505.71	435.34
505.88	418.96
506.06	447.04
506.23	337.04
506.41	395.55
506.58	423.64
506.76	461.09
506.93	414.27
507.11	482.15
507.28	379.17
507.46	339.38
507.63	449.38
507.81	407.25
507.98	383.85
508.16	365.12
508.33	444.70
508.50	435.34
508.68	348.74
508.85	414.27
509.03	447.04
509.20	376.83
509.38	454.06
509.55	477.47
509.73	346.40
509.90	472.79
510.08	418.96
510.25	379.17
510.42	372.15
510.60	414.27
510.77	402.57
510.95	390.87
511.12	430.66
511.30	379.17
511.47	447.04
511.64	442.36
511.82	428.32
511.99	470.45
512.17	414.27
512.34	379.17
512.51	374.49
512.69	440.02
512.86	479.81
513.04	465.77
513.21	423.64
513.38	461.09
513.56	383.85
513.73	449.38
513.90	402.57
514.08	358.10
514.25	435.34
514.43	407.25
514.60	301.93
514.77	390.87
514.95	409.59
515.12	449.38
515.29	418.96
515.47	433.00
515.64	381.51
515.81	435.34
515.99	425.98
516.16	372.15
516.33	386.19
516.51	449.38
516.68	400.23
516.85	421.30
517.03	372.15
517.20	341.72
517.37	461.09
517.54	482.15
517.72	344.06
517.89	397.89
518.06	430.66
518.24	442.36
518.41	430.66
518.58	421.30
518.75	407.25
518.93	407.25
519.10	365.12
519.27	418.96
519.45	386.19
519.62	386.19
519.79	451.72
519.96	447.04
520.14	411.93
520.31	496.19
520.48	482.15
520.65	430.66
520.83	456.40
521.00	461.09
521.17	386.19
521.34	503.22
521.52	456.40
521.69	416.62
521.86	430.66
522.03	500.87
522.20	423.64
522.38	402.57
522.55	472.79
522.72	388.53
522.89	435.34
523.07	451.72
523.24	435.34
523.41	421.30
523.58	461.09
523.75	421.30
523.92	498.53
524.10	395.55
524.27	435.34
524.44	423.64
524.61	456.40
524.78	425.98
524.96	489.17
525.13	437.68
525.30	416.62
525.47	369.80
525.64	421.30
525.81	437.68
525.98	442.36
526.16	411.93
526.33	425.98
526.50	486.83
526.67	374.49
526.84	454.06
527.01	395.55
527.18	383.85
527.36	369.80
527.53	390.87
527.70	472.79
527.87	379.17
528.04	491.51
528.21	325.33
528.38	425.98
528.55	489.17
528.72	397.89
528.89	479.81
529.07	381.51
529.24	425.98
529.41	400.23
529.58	411.93
529.75	479.81
529.92	449.38
530.09	355.76
530.26	418.96
530.43	379.17
530.60	418.96
530.77	428.32
530.94	400.23
531.11	327.68
531.28	355.76
531.46	414.27
531.63	407.25
531.80	351.08
531.97	430.66
532.14	418.96
532.31	395.55
532.48	397.89
532.65	418.96
532.82	433.00
532.99	418.96
533.16	437.68
533.33	437.68
533.50	402.57
533.67	451.72
533.84	409.59
534.01	458.74
534.18	416.62
534.35	447.04
534.52	381.51
534.69	496.19
534.86	409.59
535.03	381.51
535.20	454.06
535.37	435.34
535.54	388.53
535.71	440.02
535.88	451.72
536.05	416.62
536.22	442.36
536.38	418.96
536.55	402.57
536.72	449.38
536.89	374.49
537.06	461.09
537.23	362.78
537.40	369.80
537.57	386.19
537.74	468.11
537.91	397.89
538.08	449.38
538.25	418.96
538.42	449.38
538.59	414.27
538.75	421.30
538.92	395.55
539.09	400.23
539.26	428.32
539.43	493.85
539.60	411.93
539.77	365.12
539.94	435.34
540.11	369.80
540.28	433.00
540.44	470.45
540.61	430.66
540.78	358.10
540.95	484.49
541.12	425.98
541.29	472.79
541.46	449.38
541.62	381.51
541.79	414.27
541.96	372.15
542.13	468.11
542.30	374.49
542.47	470.45
542.63	381.51
542.80	416.62
542.97	442.36
543.14	472.79
543.31	416.62
543.48	440.02
543.64	374.49
543.81	400.23
543.98	395.55
544.15	489.17
544.32	447.04
544.48	418.96
544.65	489.17
544.82	411.93
544.99	425.98
545.16	374.49
545.32	409.59
545.49	414.27
545.66	362.78
545.83	365.12
546.00	365.12
546.16	395.55
546.33	393.21
546.50	435.34
546.67	381.51
546.83	400.23
547.00	421.30
547.17	374.49
547.34	442.36
547.50	397.89
547.67	327.68
547.84	435.34
548.00	444.70
548.17	395.55
548.34	444.70
548.51	430.66
548.67	414.27
548.84	447.04
549.01	407.25
549.18	414.27
549.34	425.98
549.51	411.93
549.68	449.38
549.84	390.87
550.01	388.53
550.18	472.79
550.34	491.51
550.51	414.27
550.68	479.81
550.84	369.80
551.01	423.64
551.18	390.87
551.34	425.98
551.51	440.02
551.68	425.98
551.84	376.83
552.01	386.19
552.18	351.08
552.34	458.74
552.51	388.53
552.68	425.98
552.84	407.25
553.01	390.87
553.18	449.38
553.34	421.30
553.51	390.87
553.67	470.45
553.84	454.06
554.01	397.89
554.17	461.09
554.34	437.68
554.51	472.79
554.67	458.74
554.84	390.87
555.00	416.62
555.17	376.83
555.33	397.89
555.50	400.23
555.67	393.21
555.83	482.15
556.00	477.47
556.16	538.32
556.33	416.62
556.50	360.44
556.66	372.15
556.83	463.43
556.99	461.09
557.16	470.45
557.32	421.30
557.49	458.74
557.65	369.80
557.82	470.45
557.98	484.49
558.15	444.70
558.32	411.93
558.48	411.93
558.65	496.19
558.81	358.10
558.98	414.27
559.14	402.57
559.31	374.49
559.47	407.25
559.64	486.83
559.80	435.34
559.97	456.40
560.13	442.36
560.30	433.00
560.46	369.80
560.63	400.23
560.79	416.62
560.96	517.26
561.12	496.19
561.29	477.47
561.45	358.10
561.61	493.85
561.78	442.36
561.94	414.27
562.11	458.74
562.27	435.34
562.44	454.06
562.60	379.17
562.77	423.64
562.93	454.06
563.10	461.09
563.26	425.98
563.42	472.79
563.59	358.10
563.75	407.25
563.92	400.23
564.08	381.51
564.24	475.13
564.41	458.74
564.57	374.49
564.74	451.72
564.90	433.00
565.07	505.56
565.23	444.70
565.39	465.77
565.56	337.04
565.72	383.85
565.88	388.53
566.05	393.21
566.21	437.68
566.38	442.36
566.54	397.89
566.70	351.08
566.87	365.12
567.03	407.25
567.19	454.06
567.36	327.68
567.52	414.27
567.68	386.19
567.85	442.36
568.01	437.68
568.17	372.15
568.34	402.57
568.50	423.64
568.66	456.40
568.83	519.60
568.99	379.17
569.15	400.23
569.32	496.19
569.48	423.64
569.64	421.30
569.81	372.15
569.97	430.66
570.13	369.80
570.30	365.12
570.46	369.80
570.62	442.36
570.78	418.96
570.95	355.76
571.11	444.70
571.27	491.51
571.43	454.06
571.60	379.17
571.76	367.46
571.92	435.34
572.09	393.21
572.25	381.51
572.41	425.98
572.57	407.25
572.74	425.98
572.90	372.15
573.06	447.04
573.22	512.58
573.38	496.19
573.55	411.93
573.71	430.66
573.87	376.83
574.03	390.87
574.20	411.93
574.36	442.36
574.52	358.10
574.68	421.30
574.84	475.13
575.01	444.70
575.17	425.98
575.33	425.98
575.49	360.44
575.65	411.93
575.82	433.00
575.98	435.34
576.14	454.06
576.30	407.25
576.46	465.77
576.62	397.89
576.79	367.46
576.95	447.04
577.11	414.27
577.27	386.19
577.43	451.72
577.59	503.22
577.75	421.30
577.92	360.44
578.08	416.62
578.24	341.72
578.40	447.04
578.56	491.51
578.72	416.62
578.88	458.74
579.04	358.10
579.21	400.23
579.37	395.55
579.53	449.38
579.69	440.02
579.85	374.49
580.01	435.34
580.17	400.23
580.33	449.38
580.49	404.91
580.65	395.55
580.82	496.19
580.98	423.64
581.14	433.00
581.30	428.32
581.46	421.30
581.62	444.70
581.78	421.30
581.94	451.72
582.10	348.74
582.26	327.68
582.42	414.27
582.58	423.64
582.74	440.02
582.90	409.59
583.06	407.25
583.22	435.34
583.38	430.66
583.54	400.23
583.70	477.47
583.86	407.25
584.02	355.76
584.18	362.78
584.34	468.11
584.50	482.15
584.66	395.55
584.82	407.25
584.98	484.49
585.14	393.21
585.30	404.91
585.46	358.10
585.62	411.93
585.78	449.38
585.94	425.98
586.10	393.21
586.26	454.06
586.42	458.74
586.58	404.91
586.74	409.59
586.90	379.17
587.06	393.21
587.22	404.91
587.38	386.19
587.54	407.25
587.70	379.17
587.86	404.91
588.02	402.57
588.18	433.00
588.34	416.62
588.49	388.53
588.65	444.70
588.81	430.66
588.97	430.66
589.13	404.91
589.29	425.98
589.45	369.80
589.61	421.30
589.77	440.02
589.93	437.68
590.08	449.38
590.24	341.72
590.40	374.49
590.56	383.85
590.72	430.66
590.88	388.53
591.04	367.46
591.20	381.51
591.35	475.13
591.51	477.47
591.67	351.08
591.83	430.66
591.99	425.98
592.15	500.87
592.31	437.68
592.46	449.38
592.62	442.36
592.78	404.91
592.94	470.45
593.10	411.93
593.26	376.83
593.41	362.78
593.57	390.87
593.73	400.23
593.89	423.64
594.05	390.87
594.20	418.96
594.36	416.62
594.52	423.64
594.68	355.76
594.84	423.64
594.99	411.93
595.15	381.51
595.31	505.56
595.47	418.96
595.62	414.27
595.78	374.49
595.94	397.89
596.10	437.68
596.25	468.11
596.41	468.11
596.57	379.17
596.73	414.27
596.88	414.27
597.04	437.68
597.20	383.85
597.36	472.79
597.51	416.62
597.67	386.19
597.83	482.15
597.99	388.53
598.14	442.36
598.30	475.13
598.46	465.77
598.61	447.04
598.77	433.00
598.93	355.76
599.09	435.34
599.24	353.42
599.40	414.27
599.56	505.56
599.71	433.00
599.87	454.06
600.03	416.62
600.18	376.83
600.34	407.25
600.50	444.70
600.65	411.93
600.81	451.72
600.97	393.21
601.12	435.34
601.28	447.04
601.44	402.57
601.59	376.83
601.75	379.17
601.91	390.87
602.06	409.59
602.22	468.11
602.37	507.90
602.53	400.23
602.69	449.38
602.84	390.87
603.00	409.59
603.16	397.89
603.31	482.15
603.47	444.70
603.62	418.96
603.78	393.21
603.94	400.23
604.09	383.85
604.25	425.98
604.40	376.83
604.56	435.34
604.71	440.02
604.87	374.49
605.03	442.36
605.18	388.53
605.34	472.79
605.49	425.98
605.65	330.02
605.80	418.96
605.96	465.77
606.12	463.43
606.27	351.08
606.43	402.57
606.58	414.27
606.74	411.93
606.89	404.91
607.05	430.66
607.20	407.25
607.36	381.51
607.51	379.17
607.67	423.64
607.82	404.91
607.98	395.55
608.13	496.19
608.29	449.38
608.44	442.36
608.60	388.53
608.75	454.06
608.91	428.32
609.06	437.68
609.22	500.87
609.37	362.78
609.53	411.93
609.68	404.91
609.84	423.64
609.99	386.19
610.15	475.13
