SpectraSuite Data File
++++++++++++++++++++++++++++++++++++
Date: Fri Oct 25 12:11:13 EDT 2013
User: price-jones
Dark Spectrum Present: No
Reference Spectrum Present: No
Number of Sampled Component Spectra: 1
Spectrometers: USB2+H05261
Integration Time (usec): 100000 (USB2+H05261)
Spectra Averaged: 1 (USB2+H05261)
Boxcar Smoothing: 0 (USB2+H05261)
Correct for Electrical Dark: No (USB2+H05261)
Strobe/Lamp Enabled: No (USB2+H05261)
Correct for Detector Non-linearity: No (USB2+H05261)
Correct for Stray Light: No (USB2+H05261)
Number of Pixels in Processed Spectrum: 2048
>>>>>Begin Processed Spectral Data<<<<<
365.73	337.04
365.92	337.04
366.12	337.04
366.32	264.48
366.52	266.82
366.72	292.57
366.91	184.90
367.11	241.08
367.31	175.54
367.51	182.56
367.70	292.57
367.90	257.46
368.10	285.55
368.30	262.14
368.49	287.89
368.69	224.69
368.89	243.42
369.09	224.69
369.28	294.91
369.48	266.82
369.68	311.29
369.87	299.59
370.07	351.08
370.27	299.59
370.47	257.46
370.66	308.95
370.86	409.59
371.06	433.00
371.25	362.78
371.45	341.72
371.65	330.02
371.84	386.19
372.04	367.46
372.24	407.25
372.44	358.10
372.63	400.23
372.83	367.46
373.03	365.12
373.22	449.38
373.42	461.09
373.62	400.23
373.81	379.17
374.01	435.34
374.21	418.96
374.40	444.70
374.60	400.23
374.79	402.57
374.99	447.04
375.19	444.70
375.38	435.34
375.58	472.79
375.78	456.40
375.97	409.59
376.17	454.06
376.37	447.04
376.56	409.59
376.76	433.00
376.95	407.25
377.15	421.30
377.35	463.43
377.54	402.57
377.74	362.78
377.93	404.91
378.13	381.51
378.33	376.83
378.52	447.04
378.72	414.27
378.91	465.77
379.11	374.49
379.31	369.80
379.50	353.42
379.70	407.25
379.89	416.62
380.09	339.38
380.28	393.21
380.48	454.06
380.68	388.53
380.87	346.40
381.07	358.10
381.26	421.30
381.46	344.06
381.65	411.93
381.85	425.98
382.04	451.72
382.24	379.17
382.43	435.34
382.63	416.62
382.83	454.06
383.02	465.77
383.22	428.32
383.41	423.64
383.61	430.66
383.80	425.98
384.00	402.57
384.19	369.80
384.39	346.40
384.58	400.23
384.78	397.89
384.97	351.08
385.17	447.04
385.36	374.49
385.56	386.19
385.75	414.27
385.95	472.79
386.14	388.53
386.34	449.38
386.53	433.00
386.72	374.49
386.92	470.45
387.11	430.66
387.31	414.27
387.50	367.46
387.70	369.80
387.89	404.91
388.09	400.23
388.28	430.66
388.48	390.87
388.67	447.04
388.86	407.25
389.06	425.98
389.25	463.43
389.45	416.62
389.64	367.46
389.84	383.85
390.03	414.27
390.22	418.96
390.42	421.30
390.61	433.00
390.81	381.51
391.00	379.17
391.19	442.36
391.39	449.38
391.58	444.70
391.78	468.11
391.97	407.25
392.16	449.38
392.36	451.72
392.55	400.23
392.75	451.72
392.94	437.68
393.13	458.74
393.33	407.25
393.52	397.89
393.71	465.77
393.91	454.06
394.10	379.17
394.29	458.74
394.49	416.62
394.68	437.68
394.88	430.66
395.07	367.46
395.26	390.87
395.46	388.53
395.65	337.04
395.84	379.17
396.04	414.27
396.23	383.85
396.42	351.08
396.62	435.34
396.81	395.55
397.00	395.55
397.19	400.23
397.39	409.59
397.58	379.17
397.77	365.12
397.97	374.49
398.16	444.70
398.35	386.19
398.55	418.96
398.74	379.17
398.93	437.68
399.12	414.27
399.32	519.60
399.51	430.66
399.70	390.87
399.90	437.68
400.09	428.32
400.28	418.96
400.47	386.19
400.67	386.19
400.86	386.19
401.05	423.64
401.24	430.66
401.44	409.59
401.63	416.62
401.82	325.33
402.01	437.68
402.21	409.59
402.40	330.02
402.59	416.62
402.78	456.40
402.97	454.06
403.17	372.15
403.36	440.02
403.55	418.96
403.74	360.44
403.93	360.44
404.13	510.24
404.32	388.53
404.51	449.38
404.70	407.25
404.89	465.77
405.09	496.19
405.28	404.91
405.47	353.42
405.66	433.00
405.85	503.22
406.05	358.10
406.24	430.66
406.43	411.93
406.62	475.13
406.81	400.23
407.00	358.10
407.20	409.59
407.39	404.91
407.58	428.32
407.77	433.00
407.96	442.36
408.15	351.08
408.34	416.62
408.54	397.89
408.73	423.64
408.92	351.08
409.11	369.80
409.30	484.49
409.49	395.55
409.68	411.93
409.87	411.93
410.07	447.04
410.26	318.31
410.45	374.49
410.64	421.30
410.83	402.57
411.02	414.27
411.21	407.25
411.40	454.06
411.59	395.55
411.78	393.21
411.98	465.77
412.17	379.17
412.36	496.19
412.55	393.21
412.74	416.62
412.93	507.90
413.12	332.36
413.31	425.98
413.50	376.83
413.69	358.10
413.88	465.77
414.07	411.93
414.26	409.59
414.45	411.93
414.64	449.38
414.83	500.87
415.02	397.89
415.22	355.76
415.41	461.09
415.60	374.49
415.79	351.08
415.98	393.21
416.17	444.70
416.36	404.91
416.55	414.27
416.74	409.59
416.93	425.98
417.12	358.10
417.31	433.00
417.50	463.43
417.69	444.70
417.88	414.27
418.07	381.51
418.26	402.57
418.45	421.30
418.64	479.81
418.83	477.47
419.02	365.12
419.21	479.81
419.39	407.25
419.58	414.27
419.77	383.85
419.96	425.98
420.15	362.78
420.34	414.27
420.53	423.64
420.72	465.77
420.91	468.11
421.10	430.66
421.29	468.11
421.48	409.59
421.67	358.10
421.86	301.93
422.05	367.46
422.24	447.04
422.43	449.38
422.61	346.40
422.80	477.47
422.99	475.13
423.18	416.62
423.37	428.32
423.56	402.57
423.75	440.02
423.94	435.34
424.13	411.93
424.32	454.06
424.50	360.44
424.69	416.62
424.88	393.21
425.07	386.19
425.26	456.40
425.45	383.85
425.64	402.57
425.83	400.23
426.01	369.80
426.20	395.55
426.39	400.23
426.58	454.06
426.77	400.23
426.96	472.79
427.15	325.33
427.33	421.30
427.52	454.06
427.71	344.06
427.90	367.46
428.09	369.80
428.28	381.51
428.46	351.08
428.65	409.59
428.84	425.98
429.03	397.89
429.22	379.17
429.40	468.11
429.59	428.32
429.78	456.40
429.97	437.68
430.16	400.23
430.34	451.72
430.53	435.34
430.72	500.87
430.91	397.89
431.10	402.57
431.28	339.38
431.47	390.87
431.66	379.17
431.85	341.72
432.03	411.93
432.22	489.17
432.41	388.53
432.60	404.91
432.79	360.44
432.97	428.32
433.16	341.72
433.35	353.42
433.54	428.32
433.72	414.27
433.91	465.77
434.10	383.85
434.28	369.80
434.47	397.89
434.66	376.83
434.85	339.38
435.03	444.70
435.22	454.06
435.41	428.32
435.59	411.93
435.78	416.62
435.97	421.30
436.16	428.32
436.34	404.91
436.53	395.55
436.72	421.30
436.90	442.36
437.09	423.64
437.28	416.62
437.46	440.02
437.65	433.00
437.84	451.72
438.02	484.49
438.21	409.59
438.40	456.40
438.58	367.46
438.77	411.93
438.96	386.19
439.14	421.30
439.33	411.93
439.52	393.21
439.70	393.21
439.89	470.45
440.08	386.19
440.26	454.06
440.45	383.85
440.63	423.64
440.82	386.19
441.01	341.72
441.19	386.19
441.38	376.83
441.57	414.27
441.75	374.49
441.94	500.87
442.12	430.66
442.31	430.66
442.50	404.91
442.68	440.02
442.87	397.89
443.05	433.00
443.24	416.62
443.43	428.32
443.61	425.98
443.80	414.27
443.98	402.57
444.17	362.78
444.35	402.57
444.54	433.00
444.73	397.89
444.91	430.66
445.10	440.02
445.28	395.55
445.47	372.15
445.65	414.27
445.84	416.62
446.02	414.27
446.21	395.55
446.39	425.98
446.58	390.87
446.77	425.98
446.95	379.17
447.14	383.85
447.32	362.78
447.51	428.32
447.69	376.83
447.88	461.09
448.06	402.57
448.25	416.62
448.43	386.19
448.62	381.51
448.80	381.51
448.99	418.96
449.17	358.10
449.36	435.34
449.54	444.70
449.73	442.36
449.91	435.34
450.10	409.59
450.28	510.24
450.46	456.40
450.65	458.74
450.83	369.80
451.02	374.49
451.20	358.10
451.39	423.64
451.57	463.43
451.76	383.85
451.94	402.57
452.13	472.79
452.31	472.79
452.49	451.72
452.68	444.70
452.86	442.36
453.05	407.25
453.23	440.02
453.42	379.17
453.60	456.40
453.78	360.44
453.97	395.55
454.15	372.15
454.34	433.00
454.52	430.66
454.70	428.32
454.89	428.32
455.07	402.57
455.26	407.25
455.44	390.87
455.62	367.46
455.81	397.89
455.99	442.36
456.17	407.25
456.36	418.96
456.54	458.74
456.73	437.68
456.91	355.76
457.09	465.77
457.28	435.34
457.46	477.47
457.64	433.00
457.83	440.02
458.01	367.46
458.19	379.17
458.38	334.70
458.56	447.04
458.74	400.23
458.93	461.09
459.11	409.59
459.29	425.98
459.48	423.64
459.66	404.91
459.84	409.59
460.03	486.83
460.21	358.10
460.39	372.15
460.57	407.25
460.76	442.36
460.94	500.87
461.12	461.09
461.31	376.83
461.49	444.70
461.67	442.36
461.85	416.62
462.04	465.77
462.22	755.99
462.40	465.77
462.59	411.93
462.77	330.02
462.95	376.83
463.13	397.89
463.32	458.74
463.50	472.79
463.68	372.15
463.86	440.02
464.05	379.17
464.23	465.77
464.41	437.68
464.59	386.19
464.78	407.25
464.96	421.30
465.14	437.68
465.32	456.40
465.50	433.00
465.69	433.00
465.87	454.06
466.05	428.32
466.23	468.11
466.41	428.32
466.60	433.00
466.78	451.72
466.96	407.25
467.14	493.85
467.32	496.19
467.51	465.77
467.69	547.69
467.87	376.83
468.05	386.19
468.23	407.25
468.41	416.62
468.60	421.30
468.78	475.13
468.96	428.32
469.14	388.53
469.32	386.19
469.50	407.25
469.69	362.78
469.87	421.30
470.05	421.30
470.23	447.04
470.41	449.38
470.59	444.70
470.77	430.66
470.95	404.91
471.14	458.74
471.32	395.55
471.50	451.72
471.68	393.21
471.86	397.89
472.04	383.85
472.22	390.87
472.40	393.21
472.58	388.53
472.77	411.93
472.95	418.96
473.13	435.34
473.31	456.40
473.49	393.21
473.67	386.19
473.85	400.23
474.03	414.27
474.21	442.36
474.39	414.27
474.57	524.28
474.75	339.38
474.93	407.25
475.12	332.36
475.30	351.08
475.48	360.44
475.66	355.76
475.84	355.76
476.02	505.56
476.20	451.72
476.38	360.44
476.56	456.40
476.74	421.30
476.92	442.36
477.10	409.59
477.28	390.87
477.46	411.93
477.64	428.32
477.82	465.77
478.00	454.06
478.18	418.96
478.36	383.85
478.54	472.79
478.72	372.15
478.90	397.89
479.08	416.62
479.26	400.23
479.44	416.62
479.62	402.57
479.80	360.44
479.98	411.93
480.16	449.38
480.34	491.51
480.52	374.49
480.70	458.74
480.88	449.38
481.06	351.08
481.24	395.55
481.41	397.89
481.59	418.96
481.77	430.66
481.95	379.17
482.13	425.98
482.31	407.25
482.49	383.85
482.67	430.66
482.85	458.74
483.03	404.91
483.21	433.00
483.39	355.76
483.57	454.06
483.74	447.04
483.92	404.91
484.10	402.57
484.28	400.23
484.46	507.90
484.64	386.19
484.82	461.09
485.00	491.51
485.18	395.55
485.35	491.51
485.53	409.59
485.71	437.68
485.89	322.99
486.07	390.87
486.25	428.32
486.43	477.47
486.61	465.77
486.78	440.02
486.96	442.36
487.14	423.64
487.32	458.74
487.50	418.96
487.68	440.02
487.85	390.87
488.03	465.77
488.21	437.68
488.39	397.89
488.57	416.62
488.75	430.66
488.92	503.22
489.10	416.62
489.28	395.55
489.46	383.85
489.64	407.25
489.81	479.81
489.99	390.87
490.17	468.11
490.35	547.69
490.53	381.51
490.70	428.32
490.88	421.30
491.06	451.72
491.24	461.09
491.41	430.66
491.59	372.15
491.77	409.59
491.95	465.77
492.13	493.85
492.30	339.38
492.48	435.34
492.66	421.30
492.84	411.93
493.01	411.93
493.19	404.91
493.37	510.24
493.54	409.59
493.72	393.21
493.90	416.62
494.08	360.44
494.25	386.19
494.43	433.00
494.61	454.06
494.79	353.42
494.96	489.17
495.14	428.32
495.32	402.57
495.49	369.80
495.67	418.96
495.85	418.96
496.02	428.32
496.20	402.57
496.38	404.91
496.55	346.40
496.73	414.27
496.91	440.02
497.09	470.45
497.26	397.89
497.44	447.04
497.62	433.00
497.79	449.38
497.97	433.00
498.14	437.68
498.32	395.55
498.50	510.24
498.67	393.21
498.85	414.27
499.03	404.91
499.20	292.57
499.38	425.98
499.56	444.70
499.73	470.45
499.91	470.45
500.08	447.04
500.26	451.72
500.44	390.87
500.61	418.96
500.79	435.34
500.97	425.98
501.14	423.64
501.32	386.19
501.49	383.85
501.67	433.00
501.84	463.43
502.02	381.51
502.20	414.27
502.37	428.32
502.55	409.59
502.72	390.87
502.90	465.77
503.07	435.34
503.25	477.47
503.43	404.91
503.60	388.53
503.78	397.89
503.95	447.04
504.13	465.77
504.30	463.43
504.48	430.66
504.65	449.38
504.83	442.36
505.01	454.06
505.18	353.42
505.36	435.34
505.53	367.46
505.71	374.49
505.88	454.06
506.06	334.70
506.23	475.13
506.41	444.70
506.58	435.34
506.76	456.40
506.93	411.93
507.11	442.36
507.28	423.64
507.46	465.77
507.63	465.77
507.81	433.00
507.98	404.91
508.16	362.78
508.33	454.06
508.50	379.17
508.68	372.15
508.85	346.40
509.03	337.04
509.20	365.12
509.38	456.40
509.55	433.00
509.73	428.32
509.90	454.06
510.08	402.57
510.25	423.64
510.42	418.96
510.60	449.38
510.77	475.13
510.95	493.85
511.12	416.62
511.30	409.59
511.47	402.57
511.64	423.64
511.82	390.87
511.99	418.96
512.17	428.32
512.34	409.59
512.51	435.34
512.69	351.08
512.86	411.93
513.04	454.06
513.21	442.36
513.38	360.44
513.56	404.91
513.73	416.62
513.90	411.93
514.08	447.04
514.25	414.27
514.43	388.53
514.60	369.80
514.77	383.85
514.95	374.49
515.12	456.40
515.29	496.19
515.47	416.62
515.64	365.12
515.81	402.57
515.99	437.68
516.16	409.59
516.33	451.72
516.51	393.21
516.68	381.51
516.85	421.30
517.03	388.53
517.20	351.08
517.37	348.74
517.54	447.04
517.72	379.17
517.89	416.62
518.06	369.80
518.24	519.60
518.41	486.83
518.58	381.51
518.75	393.21
518.93	355.76
519.10	430.66
519.27	402.57
519.45	430.66
519.62	437.68
519.79	383.85
519.96	531.30
520.14	524.28
520.31	447.04
520.48	428.32
520.65	425.98
520.83	449.38
521.00	458.74
521.17	402.57
521.34	433.00
521.52	433.00
521.69	430.66
521.86	449.38
522.03	468.11
522.20	433.00
522.38	411.93
522.55	409.59
522.72	379.17
522.89	388.53
523.07	535.98
523.24	367.46
523.41	367.46
523.58	372.15
523.75	355.76
523.92	425.98
524.10	404.91
524.27	369.80
524.44	430.66
524.61	461.09
524.78	442.36
524.96	491.51
525.13	423.64
525.30	425.98
525.47	416.62
525.64	433.00
525.81	433.00
525.98	437.68
526.16	383.85
526.33	346.40
526.50	393.21
526.67	440.02
526.84	409.59
527.01	369.80
527.18	395.55
527.36	390.87
527.53	313.63
527.70	425.98
527.87	454.06
528.04	468.11
528.21	372.15
528.38	428.32
528.55	437.68
528.72	404.91
528.89	444.70
529.07	437.68
529.24	416.62
529.41	409.59
529.58	402.57
529.75	442.36
529.92	498.53
530.09	435.34
530.26	414.27
530.43	454.06
530.60	395.55
530.77	374.49
530.94	341.72
531.11	339.38
531.28	414.27
531.46	393.21
531.63	400.23
531.80	409.59
531.97	374.49
532.14	355.76
532.31	407.25
532.48	388.53
532.65	477.47
532.82	407.25
532.99	400.23
533.16	381.51
533.33	383.85
533.50	437.68
533.67	463.43
533.84	397.89
534.01	358.10
534.18	360.44
534.35	423.64
534.52	404.91
534.69	477.47
534.86	402.57
535.03	503.22
535.20	437.68
535.37	442.36
535.54	404.91
535.71	472.79
535.88	442.36
536.05	397.89
536.22	428.32
536.38	416.62
536.55	397.89
536.72	421.30
536.89	397.89
537.06	418.96
537.23	390.87
537.40	404.91
537.57	400.23
537.74	500.87
537.91	423.64
538.08	423.64
538.25	458.74
538.42	395.55
538.59	402.57
538.75	409.59
538.92	500.87
539.09	486.83
539.26	421.30
539.43	491.51
539.60	407.25
539.77	451.72
539.94	421.30
540.11	458.74
540.28	372.15
540.44	362.78
540.61	411.93
540.78	428.32
540.95	386.19
541.12	482.15
541.29	463.43
541.46	423.64
541.62	428.32
541.79	428.32
541.96	383.85
542.13	437.68
542.30	386.19
542.47	486.83
542.63	503.22
542.80	411.93
542.97	451.72
543.14	484.49
543.31	409.59
543.48	425.98
543.64	386.19
543.81	454.06
543.98	407.25
544.15	514.92
544.32	458.74
544.48	430.66
544.65	330.02
544.82	355.76
544.99	397.89
545.16	428.32
545.32	449.38
545.49	418.96
545.66	486.83
545.83	414.27
546.00	479.81
546.16	315.97
546.33	418.96
546.50	428.32
546.67	482.15
546.83	425.98
547.00	491.51
547.17	388.53
547.34	454.06
547.50	414.27
547.67	421.30
547.84	411.93
548.00	458.74
548.17	416.62
548.34	418.96
548.51	400.23
548.67	430.66
548.84	402.57
549.01	395.55
549.18	482.15
549.34	374.49
549.51	337.04
549.68	353.42
549.84	461.09
550.01	332.36
550.18	472.79
550.34	461.09
550.51	463.43
550.68	409.59
550.84	341.72
551.01	390.87
551.18	409.59
551.34	393.21
551.51	353.42
551.68	404.91
551.84	425.98
552.01	430.66
552.18	358.10
552.34	397.89
552.51	379.17
552.68	416.62
552.84	414.27
553.01	433.00
553.18	510.24
553.34	423.64
553.51	322.99
553.67	367.46
553.84	486.83
554.01	383.85
554.17	367.46
554.34	461.09
554.51	433.00
554.67	360.44
554.84	360.44
555.00	437.68
555.17	351.08
555.33	395.55
555.50	458.74
555.67	402.57
555.83	348.74
556.00	367.46
556.16	442.36
556.33	456.40
556.50	372.15
556.66	409.59
556.83	376.83
556.99	409.59
557.16	367.46
557.32	372.15
557.49	407.25
557.65	404.91
557.82	447.04
557.98	395.55
558.15	416.62
558.32	409.59
558.48	383.85
558.65	416.62
558.81	402.57
558.98	407.25
559.14	369.80
559.31	430.66
559.47	407.25
559.64	440.02
559.80	430.66
559.97	404.91
560.13	414.27
560.30	430.66
560.46	447.04
560.63	393.21
560.79	425.98
560.96	458.74
561.12	482.15
561.29	430.66
561.45	416.62
561.61	465.77
561.78	521.94
561.94	461.09
562.11	353.42
562.27	355.76
562.44	451.72
562.60	430.66
562.77	458.74
562.93	421.30
563.10	383.85
563.26	365.12
563.42	423.64
563.59	442.36
563.75	388.53
563.92	430.66
564.08	407.25
564.24	388.53
564.41	479.81
564.57	435.34
564.74	379.17
564.90	451.72
565.07	437.68
565.23	411.93
565.39	395.55
565.56	442.36
565.72	425.98
565.88	468.11
566.05	456.40
566.21	393.21
566.38	390.87
566.54	423.64
566.70	388.53
566.87	393.21
567.03	367.46
567.19	339.38
567.36	418.96
567.52	507.90
567.68	491.51
567.85	433.00
568.01	332.36
568.17	346.40
568.34	365.12
568.50	444.70
568.66	451.72
568.83	447.04
568.99	355.76
569.15	449.38
569.32	421.30
569.48	421.30
569.64	433.00
569.81	376.83
569.97	395.55
570.13	421.30
570.30	393.21
570.46	442.36
570.62	435.34
570.78	468.11
570.95	416.62
571.11	449.38
571.27	447.04
571.43	376.83
571.60	472.79
571.76	369.80
571.92	414.27
572.09	379.17
572.25	433.00
572.41	407.25
572.57	397.89
572.74	465.77
572.90	430.66
573.06	315.97
573.22	383.85
573.38	456.40
573.55	430.66
573.71	454.06
573.87	421.30
574.03	500.87
574.20	372.15
574.36	393.21
574.52	379.17
574.68	442.36
574.84	442.36
575.01	444.70
575.17	421.30
575.33	407.25
575.49	414.27
575.65	421.30
575.82	470.45
575.98	425.98
576.14	351.08
576.30	355.76
576.46	390.87
576.62	449.38
576.79	374.49
576.95	486.83
577.11	440.02
577.27	447.04
577.43	428.32
577.59	493.85
577.75	433.00
577.92	433.00
578.08	449.38
578.24	397.89
578.40	456.40
578.56	451.72
578.72	477.47
578.88	442.36
579.04	444.70
579.21	337.04
579.37	395.55
579.53	414.27
579.69	428.32
579.85	425.98
580.01	428.32
580.17	402.57
580.33	407.25
580.49	355.76
580.65	454.06
580.82	433.00
580.98	430.66
581.14	418.96
581.30	437.68
581.46	430.66
581.62	489.17
581.78	444.70
581.94	442.36
582.10	409.59
582.26	440.02
582.42	390.87
582.58	430.66
582.74	440.02
582.90	395.55
583.06	442.36
583.22	381.51
583.38	397.89
583.54	327.68
583.70	397.89
583.86	454.06
584.02	411.93
584.18	479.81
584.34	461.09
584.50	418.96
584.66	449.38
584.82	428.32
584.98	449.38
585.14	423.64
585.30	407.25
585.46	411.93
585.62	449.38
585.78	484.49
585.94	442.36
586.10	447.04
586.26	461.09
586.42	433.00
586.58	407.25
586.74	330.02
586.90	435.34
587.06	379.17
587.22	381.51
587.38	411.93
587.54	369.80
587.70	475.13
587.86	409.59
588.02	407.25
588.18	411.93
588.34	390.87
588.49	381.51
588.65	428.32
588.81	433.00
588.97	379.17
589.13	416.62
589.29	388.53
589.45	465.77
589.61	519.60
589.77	421.30
589.93	489.17
590.08	407.25
590.24	418.96
590.40	479.81
590.56	449.38
590.72	430.66
590.88	404.91
591.04	470.45
591.20	440.02
591.35	458.74
591.51	442.36
591.67	430.66
591.83	472.79
591.99	390.87
592.15	493.85
592.31	442.36
592.46	386.19
592.62	425.98
592.78	360.44
592.94	390.87
593.10	383.85
593.26	416.62
593.41	386.19
593.57	463.43
593.73	393.21
593.89	430.66
594.05	447.04
594.20	423.64
594.36	454.06
594.52	407.25
594.68	449.38
594.84	454.06
594.99	449.38
595.15	402.57
595.31	374.49
595.47	517.26
595.62	402.57
595.78	411.93
595.94	372.15
596.10	447.04
596.25	381.51
596.41	379.17
596.57	423.64
596.73	416.62
596.88	388.53
597.04	454.06
597.20	369.80
597.36	435.34
597.51	379.17
597.67	418.96
597.83	355.76
597.99	376.83
598.14	360.44
598.30	425.98
598.46	362.78
598.61	411.93
598.77	362.78
598.93	402.57
599.09	402.57
599.24	430.66
599.40	360.44
599.56	418.96
599.71	404.91
599.87	416.62
600.03	442.36
600.18	407.25
600.34	449.38
600.50	416.62
600.65	390.87
600.81	400.23
600.97	454.06
601.12	423.64
601.28	500.87
601.44	386.19
601.59	369.80
601.75	451.72
601.91	409.59
602.06	381.51
602.22	479.81
602.37	479.81
602.53	421.30
602.69	407.25
602.84	407.25
603.00	423.64
603.16	437.68
603.31	472.79
603.47	484.49
603.62	411.93
603.78	484.49
603.94	407.25
604.09	437.68
604.25	397.89
604.40	433.00
604.56	430.66
604.71	404.91
604.87	383.85
605.03	447.04
605.18	444.70
605.34	411.93
605.49	425.98
605.65	409.59
605.80	433.00
605.96	416.62
606.12	404.91
606.27	498.53
606.43	386.19
606.58	428.32
606.74	404.91
606.89	407.25
607.05	440.02
607.20	444.70
607.36	381.51
607.51	393.21
607.67	435.34
607.82	388.53
607.98	470.45
608.13	486.83
608.29	407.25
608.44	393.21
608.60	470.45
608.75	435.34
608.91	437.68
609.06	425.98
609.22	498.53
609.37	425.98
609.53	395.55
609.68	491.51
609.84	484.49
609.99	393.21
610.15	461.09
