SpectraSuite Data File
++++++++++++++++++++++++++++++++++++
Date: Fri Oct 25 12:11:25 EDT 2013
User: price-jones
Dark Spectrum Present: No
Reference Spectrum Present: No
Number of Sampled Component Spectra: 1
Spectrometers: USB2+H05261
Integration Time (usec): 100000 (USB2+H05261)
Spectra Averaged: 1 (USB2+H05261)
Boxcar Smoothing: 0 (USB2+H05261)
Correct for Electrical Dark: No (USB2+H05261)
Strobe/Lamp Enabled: No (USB2+H05261)
Correct for Detector Non-linearity: No (USB2+H05261)
Correct for Stray Light: No (USB2+H05261)
Number of Pixels in Processed Spectrum: 2048
>>>>>Begin Processed Spectral Data<<<<<
365.73	348.74
365.92	348.74
366.12	348.74
366.32	236.39
366.52	238.73
366.72	280.86
366.91	299.59
367.11	264.48
367.31	241.08
367.51	238.73
367.70	271.50
367.90	215.33
368.10	283.20
368.30	220.01
368.49	173.20
368.69	294.91
368.89	236.39
369.09	271.50
369.28	262.14
369.48	285.55
369.68	222.35
369.87	271.50
370.07	330.02
370.27	383.85
370.47	360.44
370.66	407.25
370.86	367.46
371.06	367.46
371.25	416.62
371.45	367.46
371.65	367.46
371.84	304.27
372.04	374.49
372.24	449.38
372.44	407.25
372.63	416.62
372.83	346.40
373.03	346.40
373.22	447.04
373.42	344.06
373.62	442.36
373.81	444.70
374.01	470.45
374.21	482.15
374.40	435.34
374.60	503.22
374.79	437.68
374.99	367.46
375.19	425.98
375.38	458.74
375.58	477.47
375.78	430.66
375.97	423.64
376.17	433.00
376.37	444.70
376.56	374.49
376.76	393.21
376.95	402.57
377.15	390.87
377.35	416.62
377.54	505.56
377.74	461.09
377.93	435.34
378.13	468.11
378.33	386.19
378.52	383.85
378.72	421.30
378.91	358.10
379.11	344.06
379.31	442.36
379.50	421.30
379.70	503.22
379.89	425.98
380.09	437.68
380.28	407.25
380.48	400.23
380.68	374.49
380.87	346.40
381.07	374.49
381.26	388.53
381.46	374.49
381.65	416.62
381.85	388.53
382.04	435.34
382.24	390.87
382.43	416.62
382.63	390.87
382.83	365.12
383.02	327.68
383.22	440.02
383.41	414.27
383.61	423.64
383.80	486.83
384.00	477.47
384.19	318.31
384.39	435.34
384.58	334.70
384.78	454.06
384.97	372.15
385.17	416.62
385.36	362.78
385.56	451.72
385.75	437.68
385.95	449.38
386.14	381.51
386.34	381.51
386.53	341.72
386.72	428.32
386.92	383.85
387.11	390.87
387.31	440.02
387.50	407.25
387.70	400.23
387.89	479.81
388.09	425.98
388.28	423.64
388.48	341.72
388.67	440.02
388.86	458.74
389.06	381.51
389.25	433.00
389.45	409.59
389.64	407.25
389.84	388.53
390.03	440.02
390.22	393.21
390.42	442.36
390.61	381.51
390.81	383.85
391.00	423.64
391.19	383.85
391.39	425.98
391.58	409.59
391.78	423.64
391.97	500.87
392.16	355.76
392.36	435.34
392.55	416.62
392.75	400.23
392.94	383.85
393.13	374.49
393.33	372.15
393.52	435.34
393.71	386.19
393.91	379.17
394.10	379.17
394.29	416.62
394.49	444.70
394.68	395.55
394.88	482.15
395.07	416.62
395.26	367.46
395.46	416.62
395.65	369.80
395.84	395.55
396.04	463.43
396.23	414.27
396.42	400.23
396.62	451.72
396.81	416.62
397.00	411.93
397.19	444.70
397.39	332.36
397.58	435.34
397.77	383.85
397.97	447.04
398.16	383.85
398.35	442.36
398.55	421.30
398.74	411.93
398.93	390.87
399.12	449.38
399.32	468.11
399.51	447.04
399.70	444.70
399.90	421.30
400.09	425.98
400.28	407.25
400.47	407.25
400.67	397.89
400.86	447.04
401.05	369.80
401.24	395.55
401.44	383.85
401.63	379.17
401.82	367.46
402.01	386.19
402.21	346.40
402.40	411.93
402.59	407.25
402.78	430.66
402.97	346.40
403.17	435.34
403.36	418.96
403.55	430.66
403.74	362.78
403.93	397.89
404.13	486.83
404.32	362.78
404.51	409.59
404.70	435.34
404.89	428.32
405.09	507.90
405.28	428.32
405.47	376.83
405.66	411.93
405.85	437.68
406.05	372.15
406.24	325.33
406.43	428.32
406.62	447.04
406.81	444.70
407.00	425.98
407.20	400.23
407.39	447.04
407.58	404.91
407.77	418.96
407.96	416.62
408.15	472.79
408.34	414.27
408.54	404.91
408.73	332.36
408.92	372.15
409.11	461.09
409.30	411.93
409.49	482.15
409.68	393.21
409.87	369.80
410.07	397.89
410.26	379.17
410.45	367.46
410.64	390.87
410.83	386.19
411.02	470.45
411.21	440.02
411.40	540.66
411.59	500.87
411.78	402.57
411.98	435.34
412.17	440.02
412.36	430.66
412.55	428.32
412.74	463.43
412.93	358.10
413.12	362.78
413.31	404.91
413.50	421.30
413.69	390.87
413.88	362.78
414.07	430.66
414.26	372.15
414.45	397.89
414.64	458.74
414.83	365.12
415.02	383.85
415.22	416.62
415.41	402.57
415.60	402.57
415.79	395.55
415.98	416.62
416.17	433.00
416.36	397.89
416.55	456.40
416.74	440.02
416.93	433.00
417.12	390.87
417.31	369.80
417.50	425.98
417.69	449.38
417.88	470.45
418.07	395.55
418.26	458.74
418.45	369.80
418.64	414.27
418.83	440.02
419.02	383.85
419.21	400.23
419.39	416.62
419.58	407.25
419.77	470.45
419.96	435.34
420.15	454.06
420.34	423.64
420.53	454.06
420.72	421.30
420.91	449.38
421.10	397.89
421.29	451.72
421.48	395.55
421.67	433.00
421.86	404.91
422.05	351.08
422.24	411.93
422.43	358.10
422.61	409.59
422.80	414.27
422.99	390.87
423.18	489.17
423.37	458.74
423.56	442.36
423.75	433.00
423.94	388.53
424.13	444.70
424.32	454.06
424.50	388.53
424.69	402.57
424.88	442.36
425.07	367.46
425.26	367.46
425.45	362.78
425.64	461.09
425.83	395.55
426.01	330.02
426.20	381.51
426.39	486.83
426.58	444.70
426.77	383.85
426.96	402.57
427.15	475.13
427.33	411.93
427.52	435.34
427.71	430.66
427.90	425.98
428.09	421.30
428.28	397.89
428.46	423.64
428.65	465.77
428.84	351.08
429.03	510.24
429.22	390.87
429.40	433.00
429.59	379.17
429.78	447.04
429.97	442.36
430.16	381.51
430.34	381.51
430.53	353.42
430.72	482.15
430.91	414.27
431.10	355.76
431.28	444.70
431.47	421.30
431.66	421.30
431.85	411.93
432.03	437.68
432.22	475.13
432.41	435.34
432.60	505.56
432.79	414.27
432.97	421.30
433.16	393.21
433.35	369.80
433.54	332.36
433.72	348.74
433.91	400.23
434.10	414.27
434.28	372.15
434.47	386.19
434.66	414.27
434.85	454.06
435.03	416.62
435.22	418.96
435.41	411.93
435.59	447.04
435.78	379.17
435.97	407.25
436.16	458.74
436.34	362.78
436.53	414.27
436.72	465.77
436.90	440.02
437.09	444.70
437.28	447.04
437.46	421.30
437.65	409.59
437.84	428.32
438.02	402.57
438.21	437.68
438.40	397.89
438.58	330.02
438.77	484.49
438.96	461.09
439.14	454.06
439.33	491.51
439.52	423.64
439.70	418.96
439.89	470.45
440.08	477.47
440.26	390.87
440.45	418.96
440.63	379.17
440.82	414.27
441.01	397.89
441.19	416.62
441.38	367.46
441.57	428.32
441.75	458.74
441.94	395.55
442.12	383.85
442.31	383.85
442.50	381.51
442.68	358.10
442.87	407.25
443.05	409.59
443.24	421.30
443.43	428.32
443.61	440.02
443.80	421.30
443.98	393.21
444.17	449.38
444.35	423.64
444.54	402.57
444.73	362.78
444.91	421.30
445.10	458.74
445.28	454.06
445.47	472.79
445.65	456.40
445.84	397.89
446.02	372.15
446.21	395.55
446.39	407.25
446.58	444.70
446.77	409.59
446.95	454.06
447.14	381.51
447.32	421.30
447.51	440.02
447.69	449.38
447.88	458.74
448.06	407.25
448.25	465.77
448.43	346.40
448.62	400.23
448.80	404.91
448.99	456.40
449.17	447.04
449.36	388.53
449.54	358.10
449.73	440.02
449.91	433.00
450.10	400.23
450.28	479.81
450.46	447.04
450.65	369.80
450.83	376.83
451.02	430.66
451.20	348.74
451.39	416.62
451.57	372.15
451.76	395.55
451.94	451.72
452.13	449.38
452.31	407.25
452.49	388.53
452.68	386.19
452.86	421.30
453.05	454.06
453.23	351.08
453.42	472.79
453.60	386.19
453.78	430.66
453.97	397.89
454.15	400.23
454.34	472.79
454.52	407.25
454.70	468.11
454.89	425.98
455.07	400.23
455.26	442.36
455.44	411.93
455.62	386.19
455.81	383.85
455.99	395.55
456.17	421.30
456.36	367.46
456.54	383.85
456.73	409.59
456.91	400.23
457.09	430.66
457.28	484.49
457.46	372.15
457.64	414.27
457.83	369.80
458.01	367.46
458.19	402.57
458.38	433.00
458.56	355.76
458.74	416.62
458.93	402.57
459.11	400.23
459.29	465.77
459.48	430.66
459.66	465.77
459.84	425.98
460.03	444.70
460.21	404.91
460.39	486.83
460.57	468.11
460.76	395.55
460.94	447.04
461.12	447.04
461.31	475.13
461.49	365.12
461.67	407.25
461.85	395.55
462.04	425.98
462.22	737.27
462.40	421.30
462.59	451.72
462.77	355.76
462.95	430.66
463.13	411.93
463.32	437.68
463.50	444.70
463.68	437.68
463.86	425.98
464.05	388.53
464.23	411.93
464.41	404.91
464.59	461.09
464.78	397.89
464.96	360.44
465.14	341.72
465.32	423.64
465.50	451.72
465.69	437.68
465.87	365.12
466.05	468.11
466.23	505.56
466.41	440.02
466.60	400.23
466.78	372.15
466.96	407.25
467.14	428.32
467.32	442.36
467.51	430.66
467.69	381.51
467.87	440.02
468.05	386.19
468.23	465.77
468.41	433.00
468.60	421.30
468.78	454.06
468.96	339.38
469.14	383.85
469.32	376.83
469.50	395.55
469.69	376.83
469.87	444.70
470.05	421.30
470.23	407.25
470.41	374.49
470.59	390.87
470.77	344.06
470.95	367.46
471.14	376.83
471.32	414.27
471.50	418.96
471.68	374.49
471.86	437.68
472.04	341.72
472.22	465.77
472.40	407.25
472.58	414.27
472.77	374.49
472.95	376.83
473.13	451.72
473.31	367.46
473.49	407.25
473.67	407.25
473.85	463.43
474.03	482.15
474.21	372.15
474.39	393.21
474.57	404.91
474.75	454.06
474.93	379.17
475.12	402.57
475.30	423.64
475.48	383.85
475.66	313.63
475.84	418.96
476.02	393.21
476.20	360.44
476.38	388.53
476.56	400.23
476.74	435.34
476.92	341.72
477.10	414.27
477.28	395.55
477.46	390.87
477.64	465.77
477.82	484.49
478.00	423.64
478.18	442.36
478.36	386.19
478.54	393.21
478.72	456.40
478.90	416.62
479.08	479.81
479.26	437.68
479.44	397.89
479.62	393.21
479.80	383.85
479.98	376.83
480.16	421.30
480.34	449.38
480.52	414.27
480.70	463.43
480.88	435.34
481.06	388.53
481.24	379.17
481.41	454.06
481.59	454.06
481.77	393.21
481.95	430.66
482.13	503.22
482.31	425.98
482.49	423.64
482.67	449.38
482.85	489.17
483.03	346.40
483.21	416.62
483.39	383.85
483.57	449.38
483.74	416.62
483.92	400.23
484.10	472.79
484.28	456.40
484.46	435.34
484.64	320.65
484.82	465.77
485.00	421.30
485.18	409.59
485.35	381.51
485.53	423.64
485.71	507.90
485.89	423.64
486.07	404.91
486.25	449.38
486.43	425.98
486.61	437.68
486.78	437.68
486.96	400.23
487.14	442.36
487.32	447.04
487.50	418.96
487.68	458.74
487.85	379.17
488.03	372.15
488.21	461.09
488.39	397.89
488.57	440.02
488.75	402.57
488.92	531.30
489.10	503.22
489.28	430.66
489.46	390.87
489.64	400.23
489.81	397.89
489.99	421.30
490.17	463.43
490.35	472.79
490.53	376.83
490.70	409.59
490.88	430.66
491.06	404.91
491.24	411.93
491.41	411.93
491.59	379.17
491.77	404.91
491.95	433.00
492.13	327.68
492.30	416.62
492.48	451.72
492.66	423.64
492.84	454.06
493.01	430.66
493.19	402.57
493.37	435.34
493.54	421.30
493.72	393.21
493.90	346.40
494.08	365.12
494.25	381.51
494.43	381.51
494.61	351.08
494.79	365.12
494.96	470.45
495.14	404.91
495.32	400.23
495.49	418.96
495.67	498.53
495.85	435.34
496.02	414.27
496.20	503.22
496.38	468.11
496.55	372.15
496.73	372.15
496.91	414.27
497.09	435.34
497.26	379.17
497.44	402.57
497.62	451.72
497.79	414.27
497.97	369.80
498.14	435.34
498.32	421.30
498.50	461.09
498.67	400.23
498.85	379.17
499.03	458.74
499.20	430.66
499.38	440.02
499.56	421.30
499.73	393.21
499.91	458.74
500.08	376.83
500.26	397.89
500.44	418.96
500.61	383.85
500.79	435.34
500.97	430.66
501.14	440.02
501.32	421.30
501.49	414.27
501.67	463.43
501.84	423.64
502.02	402.57
502.20	463.43
502.37	461.09
502.55	416.62
502.72	383.85
502.90	383.85
503.07	442.36
503.25	449.38
503.43	468.11
503.60	393.21
503.78	411.93
503.95	454.06
504.13	484.49
504.30	393.21
504.48	449.38
504.65	447.04
504.83	442.36
505.01	425.98
505.18	505.56
505.36	444.70
505.53	348.74
505.71	451.72
505.88	468.11
506.06	416.62
506.23	381.51
506.41	437.68
506.58	404.91
506.76	402.57
506.93	358.10
507.11	395.55
507.28	444.70
507.46	411.93
507.63	440.02
507.81	400.23
507.98	416.62
508.16	346.40
508.33	390.87
508.50	456.40
508.68	353.42
508.85	421.30
509.03	425.98
509.20	393.21
509.38	383.85
509.55	437.68
509.73	409.59
509.90	325.33
510.08	388.53
510.25	381.51
510.42	437.68
510.60	444.70
510.77	437.68
510.95	491.51
511.12	388.53
511.30	383.85
511.47	430.66
511.64	510.24
511.82	423.64
511.99	393.21
512.17	418.96
512.34	456.40
512.51	428.32
512.69	407.25
512.86	402.57
513.04	430.66
513.21	369.80
513.38	362.78
513.56	423.64
513.73	418.96
513.90	374.49
514.08	458.74
514.25	437.68
514.43	449.38
514.60	339.38
514.77	411.93
514.95	444.70
515.12	404.91
515.29	414.27
515.47	374.49
515.64	440.02
515.81	437.68
515.99	425.98
516.16	428.32
516.33	430.66
516.51	388.53
516.68	416.62
516.85	353.42
517.03	397.89
517.20	341.72
517.37	355.76
517.54	470.45
517.72	395.55
517.89	395.55
518.06	430.66
518.24	449.38
518.41	486.83
518.58	416.62
518.75	416.62
518.93	425.98
519.10	390.87
519.27	447.04
519.45	491.51
519.62	456.40
519.79	418.96
519.96	393.21
520.14	414.27
520.31	535.98
520.48	402.57
520.65	447.04
520.83	386.19
521.00	454.06
521.17	444.70
521.34	393.21
521.52	308.95
521.69	435.34
521.86	421.30
522.03	440.02
522.20	468.11
522.38	484.49
522.55	442.36
522.72	388.53
522.89	489.17
523.07	491.51
523.24	369.80
523.41	498.53
523.58	430.66
523.75	428.32
523.92	449.38
524.10	404.91
524.27	449.38
524.44	393.21
524.61	397.89
524.78	395.55
524.96	383.85
525.13	400.23
525.30	372.15
525.47	514.92
525.64	411.93
525.81	442.36
525.98	451.72
526.16	423.64
526.33	402.57
526.50	393.21
526.67	344.06
526.84	369.80
527.01	440.02
527.18	414.27
527.36	428.32
527.53	454.06
527.70	503.22
527.87	444.70
528.04	470.45
528.21	322.99
528.38	423.64
528.55	355.76
528.72	367.46
528.89	475.13
529.07	430.66
529.24	383.85
529.41	442.36
529.58	472.79
529.75	428.32
529.92	407.25
530.09	456.40
530.26	327.68
530.43	447.04
530.60	447.04
530.77	383.85
530.94	454.06
531.11	418.96
531.28	435.34
531.46	407.25
531.63	376.83
531.80	430.66
531.97	421.30
532.14	444.70
532.31	493.85
532.48	479.81
532.65	489.17
532.82	428.32
532.99	362.78
533.16	355.76
533.33	383.85
533.50	425.98
533.67	395.55
533.84	430.66
534.01	407.25
534.18	437.68
534.35	484.49
534.52	418.96
534.69	425.98
534.86	374.49
535.03	383.85
535.20	390.87
535.37	351.08
535.54	393.21
535.71	421.30
535.88	433.00
536.05	388.53
536.22	393.21
536.38	484.49
536.55	353.42
536.72	479.81
536.89	416.62
537.06	358.10
537.23	430.66
537.40	465.77
537.57	334.70
537.74	402.57
537.91	409.59
538.08	418.96
538.25	449.38
538.42	402.57
538.59	283.20
538.75	376.83
538.92	430.66
539.09	386.19
539.26	353.42
539.43	430.66
539.60	386.19
539.77	390.87
539.94	463.43
540.11	470.45
540.28	435.34
540.44	416.62
540.61	449.38
540.78	414.27
540.95	381.51
541.12	486.83
541.29	463.43
541.46	458.74
541.62	372.15
541.79	414.27
541.96	433.00
542.13	440.02
542.30	381.51
542.47	390.87
542.63	416.62
542.80	416.62
542.97	407.25
543.14	346.40
543.31	440.02
543.48	414.27
543.64	449.38
543.81	444.70
543.98	447.04
544.15	369.80
544.32	360.44
544.48	493.85
544.65	365.12
544.82	423.64
544.99	449.38
545.16	425.98
545.32	407.25
545.49	423.64
545.66	383.85
545.83	369.80
546.00	416.62
546.16	447.04
546.33	374.49
546.50	428.32
546.67	475.13
546.83	435.34
547.00	435.34
547.17	414.27
547.34	433.00
547.50	428.32
547.67	465.77
547.84	440.02
548.00	367.46
548.17	449.38
548.34	416.62
548.51	454.06
548.67	411.93
548.84	360.44
549.01	402.57
549.18	435.34
549.34	475.13
549.51	486.83
549.68	472.79
549.84	425.98
550.01	369.80
550.18	437.68
550.34	472.79
550.51	414.27
550.68	456.40
550.84	400.23
551.01	348.74
551.18	409.59
551.34	388.53
551.51	407.25
551.68	402.57
551.84	463.43
552.01	411.93
552.18	358.10
552.34	404.91
552.51	395.55
552.68	458.74
552.84	510.24
553.01	435.34
553.18	400.23
553.34	416.62
553.51	388.53
553.67	472.79
553.84	475.13
554.01	416.62
554.17	388.53
554.34	344.06
554.51	430.66
554.67	388.53
554.84	416.62
555.00	430.66
555.17	404.91
555.33	442.36
555.50	442.36
555.67	430.66
555.83	381.51
556.00	435.34
556.16	514.92
556.33	491.51
556.50	402.57
556.66	442.36
556.83	407.25
556.99	449.38
557.16	423.64
557.32	454.06
557.49	402.57
557.65	482.15
557.82	381.51
557.98	388.53
558.15	308.95
558.32	381.51
558.48	388.53
558.65	430.66
558.81	355.76
558.98	407.25
559.14	435.34
559.31	418.96
559.47	383.85
559.64	428.32
559.80	362.78
559.97	393.21
560.13	381.51
560.30	409.59
560.46	339.38
560.63	383.85
560.79	367.46
560.96	437.68
561.12	397.89
561.29	409.59
561.45	367.46
561.61	395.55
561.78	409.59
561.94	454.06
562.11	358.10
562.27	437.68
562.44	372.15
562.60	395.55
562.77	346.40
562.93	423.64
563.10	477.47
563.26	423.64
563.42	404.91
563.59	402.57
563.75	435.34
563.92	411.93
564.08	404.91
564.24	393.21
564.41	423.64
564.57	362.78
564.74	400.23
564.90	465.77
565.07	435.34
565.23	425.98
565.39	428.32
565.56	500.87
565.72	449.38
565.88	386.19
566.05	425.98
566.21	381.51
566.38	470.45
566.54	444.70
566.70	390.87
566.87	428.32
567.03	428.32
567.19	374.49
567.36	440.02
567.52	409.59
567.68	451.72
567.85	421.30
568.01	390.87
568.17	390.87
568.34	358.10
568.50	411.93
568.66	414.27
568.83	425.98
568.99	456.40
569.15	428.32
569.32	456.40
569.48	383.85
569.64	421.30
569.81	418.96
569.97	337.04
570.13	395.55
570.30	416.62
570.46	388.53
570.62	442.36
570.78	407.25
570.95	421.30
571.11	414.27
571.27	414.27
571.43	407.25
571.60	344.06
571.76	423.64
571.92	449.38
572.09	484.49
572.25	421.30
572.41	397.89
572.57	383.85
572.74	442.36
572.90	463.43
573.06	397.89
573.22	355.76
573.38	416.62
573.55	433.00
573.71	463.43
573.87	437.68
574.03	435.34
574.20	327.68
574.36	372.15
574.52	435.34
574.68	388.53
574.84	411.93
575.01	451.72
575.17	416.62
575.33	437.68
575.49	440.02
575.65	440.02
575.82	423.64
575.98	395.55
576.14	379.17
576.30	397.89
576.46	449.38
576.62	454.06
576.79	407.25
576.95	437.68
577.11	395.55
577.27	418.96
577.43	416.62
577.59	428.32
577.75	430.66
577.92	425.98
578.08	404.91
578.24	341.72
578.40	465.77
578.56	442.36
578.72	440.02
578.88	451.72
579.04	367.46
579.21	425.98
579.37	472.79
579.53	430.66
579.69	397.89
579.85	372.15
580.01	454.06
580.17	451.72
580.33	437.68
580.49	428.32
580.65	397.89
580.82	379.17
580.98	400.23
581.14	376.83
581.30	463.43
581.46	393.21
581.62	402.57
581.78	468.11
581.94	454.06
582.10	430.66
582.26	372.15
582.42	428.32
582.58	461.09
582.74	498.53
582.90	437.68
583.06	463.43
583.22	470.45
583.38	444.70
583.54	402.57
583.70	479.81
583.86	402.57
584.02	451.72
584.18	458.74
584.34	388.53
584.50	351.08
584.66	341.72
584.82	308.95
584.98	414.27
585.14	372.15
585.30	451.72
585.46	423.64
585.62	430.66
585.78	376.83
585.94	472.79
586.10	456.40
586.26	463.43
586.42	416.62
586.58	393.21
586.74	414.27
586.90	484.49
587.06	447.04
587.22	425.98
587.38	409.59
587.54	374.49
587.70	493.85
587.86	355.76
588.02	372.15
588.18	379.17
588.34	372.15
588.49	390.87
588.65	444.70
588.81	479.81
588.97	355.76
589.13	395.55
589.29	463.43
589.45	388.53
589.61	489.17
589.77	351.08
589.93	416.62
590.08	400.23
590.24	372.15
590.40	393.21
590.56	400.23
590.72	390.87
590.88	414.27
591.04	456.40
591.20	404.91
591.35	449.38
591.51	498.53
591.67	433.00
591.83	418.96
591.99	447.04
592.15	393.21
592.31	395.55
592.46	386.19
592.62	440.02
592.78	444.70
592.94	346.40
593.10	421.30
593.26	418.96
593.41	425.98
593.57	388.53
593.73	367.46
593.89	407.25
594.05	421.30
594.20	379.17
594.36	444.70
594.52	379.17
594.68	447.04
594.84	470.45
594.99	465.77
595.15	440.02
595.31	381.51
595.47	414.27
595.62	442.36
595.78	409.59
595.94	423.64
596.10	369.80
596.25	435.34
596.41	444.70
596.57	423.64
596.73	388.53
596.88	393.21
597.04	430.66
597.20	404.91
597.36	456.40
597.51	442.36
597.67	390.87
597.83	393.21
597.99	430.66
598.14	409.59
598.30	458.74
598.46	402.57
598.61	437.68
598.77	388.53
598.93	444.70
599.09	451.72
599.24	390.87
599.40	425.98
599.56	470.45
599.71	517.26
599.87	435.34
600.03	411.93
600.18	421.30
600.34	470.45
600.50	425.98
600.65	437.68
600.81	388.53
600.97	458.74
601.12	402.57
601.28	489.17
601.44	451.72
601.59	386.19
601.75	472.79
601.91	372.15
602.06	365.12
602.22	463.43
602.37	402.57
602.53	454.06
602.69	395.55
602.84	482.15
603.00	437.68
603.16	444.70
603.31	367.46
603.47	468.11
603.62	404.91
603.78	407.25
603.94	416.62
604.09	447.04
604.25	411.93
604.40	435.34
604.56	416.62
604.71	367.46
604.87	409.59
605.03	451.72
605.18	402.57
605.34	442.36
605.49	493.85
605.65	407.25
605.80	423.64
605.96	411.93
606.12	365.12
606.27	444.70
606.43	376.83
606.58	472.79
606.74	435.34
606.89	395.55
607.05	407.25
607.20	468.11
607.36	418.96
607.51	395.55
607.67	369.80
607.82	533.64
607.98	409.59
608.13	449.38
608.29	440.02
608.44	400.23
608.60	435.34
608.75	463.43
608.91	454.06
609.06	454.06
609.22	374.49
609.37	393.21
609.53	458.74
609.68	409.59
609.84	339.38
609.99	463.43
610.15	383.85
