SpectraSuite Data File
++++++++++++++++++++++++++++++++++++
Date: Fri Oct 25 12:10:36 EDT 2013
User: price-jones
Dark Spectrum Present: No
Reference Spectrum Present: No
Number of Sampled Component Spectra: 1
Spectrometers: USB2+H05261
Integration Time (usec): 100000 (USB2+H05261)
Spectra Averaged: 1 (USB2+H05261)
Boxcar Smoothing: 0 (USB2+H05261)
Correct for Electrical Dark: No (USB2+H05261)
Strobe/Lamp Enabled: No (USB2+H05261)
Correct for Detector Non-linearity: No (USB2+H05261)
Correct for Stray Light: No (USB2+H05261)
Number of Pixels in Processed Spectrum: 2048
>>>>>Begin Processed Spectral Data<<<<<
365.73	325.33
365.92	325.33
366.12	325.33
366.32	234.05
366.52	255.12
366.72	241.08
366.91	189.58
367.11	241.08
367.31	259.80
367.51	191.92
367.70	280.86
367.90	208.31
368.10	259.80
368.30	266.82
368.49	208.31
368.69	273.84
368.89	290.23
369.09	271.50
369.28	227.03
369.48	287.89
369.68	287.89
369.87	341.72
370.07	308.95
370.27	360.44
370.47	325.33
370.66	311.29
370.86	346.40
371.06	397.89
371.25	442.36
371.45	358.10
371.65	437.68
371.84	306.61
372.04	381.51
372.24	407.25
372.44	362.78
372.63	355.76
372.83	376.83
373.03	451.72
373.22	397.89
373.42	486.83
373.62	442.36
373.81	447.04
374.01	437.68
374.21	395.55
374.40	437.68
374.60	418.96
374.79	388.53
374.99	383.85
375.19	428.32
375.38	386.19
375.58	397.89
375.78	447.04
375.97	395.55
376.17	454.06
376.37	425.98
376.56	404.91
376.76	379.17
376.95	339.38
377.15	397.89
377.35	416.62
377.54	381.51
377.74	390.87
377.93	409.59
378.13	437.68
378.33	423.64
378.52	348.74
378.72	416.62
378.91	400.23
379.11	355.76
379.31	386.19
379.50	374.49
379.70	414.27
379.89	444.70
380.09	290.23
380.28	390.87
380.48	358.10
380.68	404.91
380.87	416.62
381.07	489.17
381.26	442.36
381.46	386.19
381.65	449.38
381.85	421.30
382.04	397.89
382.24	416.62
382.43	388.53
382.63	362.78
382.83	447.04
383.02	425.98
383.22	409.59
383.41	388.53
383.61	428.32
383.80	351.08
384.00	355.76
384.19	425.98
384.39	433.00
384.58	376.83
384.78	468.11
384.97	433.00
385.17	348.74
385.36	386.19
385.56	416.62
385.75	379.17
385.95	383.85
386.14	477.47
386.34	334.70
386.53	458.74
386.72	383.85
386.92	425.98
387.11	421.30
387.31	395.55
387.50	416.62
387.70	395.55
387.89	337.04
388.09	390.87
388.28	337.04
388.48	372.15
388.67	362.78
388.86	374.49
389.06	404.91
389.25	440.02
389.45	355.76
389.64	433.00
389.84	365.12
390.03	418.96
390.22	447.04
390.42	404.91
390.61	414.27
390.81	351.08
391.00	428.32
391.19	381.51
391.39	400.23
391.58	393.21
391.78	435.34
391.97	386.19
392.16	400.23
392.36	400.23
392.55	393.21
392.75	416.62
392.94	458.74
393.13	421.30
393.33	383.85
393.52	395.55
393.71	341.72
393.91	400.23
394.10	322.99
394.29	376.83
394.49	407.25
394.68	416.62
394.88	482.15
395.07	372.15
395.26	397.89
395.46	397.89
395.65	423.64
395.84	395.55
396.04	449.38
396.23	496.19
396.42	428.32
396.62	404.91
396.81	477.47
397.00	330.02
397.19	418.96
397.39	348.74
397.58	463.43
397.77	440.02
397.97	428.32
398.16	390.87
398.35	411.93
398.55	365.12
398.74	339.38
398.93	463.43
399.12	369.80
399.32	334.70
399.51	346.40
399.70	414.27
399.90	444.70
400.09	393.21
400.28	400.23
400.47	393.21
400.67	393.21
400.86	362.78
401.05	444.70
401.24	463.43
401.44	395.55
401.63	334.70
401.82	379.17
402.01	400.23
402.21	465.77
402.40	407.25
402.59	390.87
402.78	428.32
402.97	337.04
403.17	404.91
403.36	421.30
403.55	388.53
403.74	367.46
403.93	428.32
404.13	447.04
404.32	465.77
404.51	386.19
404.70	414.27
404.89	383.85
405.09	407.25
405.28	425.98
405.47	367.46
405.66	435.34
405.85	440.02
406.05	447.04
406.24	465.77
406.43	409.59
406.62	402.57
406.81	470.45
407.00	411.93
407.20	468.11
407.39	477.47
407.58	440.02
407.77	374.49
407.96	411.93
408.15	435.34
408.34	388.53
408.54	461.09
408.73	470.45
408.92	440.02
409.11	461.09
409.30	376.83
409.49	393.21
409.68	383.85
409.87	379.17
410.07	383.85
410.26	461.09
410.45	395.55
410.64	416.62
410.83	287.89
411.02	346.40
411.21	444.70
411.40	470.45
411.59	425.98
411.78	388.53
411.98	402.57
412.17	388.53
412.36	425.98
412.55	437.68
412.74	372.15
412.93	454.06
413.12	411.93
413.31	374.49
413.50	416.62
413.69	425.98
413.88	465.77
414.07	351.08
414.26	414.27
414.45	395.55
414.64	351.08
414.83	433.00
415.02	381.51
415.22	397.89
415.41	458.74
415.60	383.85
415.79	376.83
415.98	425.98
416.17	458.74
416.36	388.53
416.55	393.21
416.74	372.15
416.93	411.93
417.12	407.25
417.31	421.30
417.50	381.51
417.69	379.17
417.88	341.72
418.07	379.17
418.26	404.91
418.45	416.62
418.64	416.62
418.83	369.80
419.02	353.42
419.21	444.70
419.39	465.77
419.58	367.46
419.77	395.55
419.96	440.02
420.15	444.70
420.34	440.02
420.53	369.80
420.72	393.21
420.91	360.44
421.10	409.59
421.29	423.64
421.48	402.57
421.67	376.83
421.86	456.40
422.05	367.46
422.24	407.25
422.43	395.55
422.61	425.98
422.80	360.44
422.99	383.85
423.18	437.68
423.37	461.09
423.56	442.36
423.75	390.87
423.94	348.74
424.13	355.76
424.32	355.76
424.50	376.83
424.69	374.49
424.88	367.46
425.07	423.64
425.26	514.92
425.45	435.34
425.64	407.25
425.83	421.30
426.01	475.13
426.20	393.21
426.39	414.27
426.58	454.06
426.77	397.89
426.96	362.78
427.15	454.06
427.33	407.25
427.52	447.04
427.71	383.85
427.90	390.87
428.09	458.74
428.28	421.30
428.46	337.04
428.65	435.34
428.84	404.91
429.03	461.09
429.22	372.15
429.40	397.89
429.59	322.99
429.78	475.13
429.97	376.83
430.16	465.77
430.34	500.87
430.53	376.83
430.72	346.40
430.91	421.30
431.10	402.57
431.28	411.93
431.47	397.89
431.66	444.70
431.85	411.93
432.03	444.70
432.22	442.36
432.41	393.21
432.60	386.19
432.79	442.36
432.97	376.83
433.16	376.83
433.35	428.32
433.54	512.58
433.72	400.23
433.91	451.72
434.10	428.32
434.28	421.30
434.47	421.30
434.66	444.70
434.85	360.44
435.03	428.32
435.22	437.68
435.41	407.25
435.59	409.59
435.78	400.23
435.97	407.25
436.16	491.51
436.34	383.85
436.53	397.89
436.72	489.17
436.90	435.34
437.09	346.40
437.28	379.17
437.46	379.17
437.65	440.02
437.84	430.66
438.02	430.66
438.21	468.11
438.40	360.44
438.58	344.06
438.77	388.53
438.96	407.25
439.14	414.27
439.33	395.55
439.52	423.64
439.70	365.12
439.89	433.00
440.08	404.91
440.26	454.06
440.45	358.10
440.63	486.83
440.82	404.91
441.01	461.09
441.19	437.68
441.38	386.19
441.57	404.91
441.75	433.00
441.94	435.34
442.12	425.98
442.31	402.57
442.50	372.15
442.68	500.87
442.87	461.09
443.05	442.36
443.24	388.53
443.43	411.93
443.61	418.96
443.80	477.47
443.98	393.21
444.17	437.68
444.35	390.87
444.54	437.68
444.73	395.55
444.91	433.00
445.10	381.51
445.28	395.55
445.47	421.30
445.65	365.12
445.84	461.09
446.02	416.62
446.21	362.78
446.39	437.68
446.58	416.62
446.77	397.89
446.95	416.62
447.14	433.00
447.32	472.79
447.51	348.74
447.69	477.47
447.88	428.32
448.06	362.78
448.25	423.64
448.43	376.83
448.62	400.23
448.80	404.91
448.99	440.02
449.17	421.30
449.36	400.23
449.54	477.47
449.73	440.02
449.91	360.44
450.10	369.80
450.28	491.51
450.46	423.64
450.65	414.27
450.83	423.64
451.02	435.34
451.20	416.62
451.39	402.57
451.57	433.00
451.76	440.02
451.94	423.64
452.13	477.47
452.31	404.91
452.49	440.02
452.68	500.87
452.86	507.90
453.05	472.79
453.23	369.80
453.42	404.91
453.60	402.57
453.78	428.32
453.97	400.23
454.15	421.30
454.34	484.49
454.52	369.80
454.70	428.32
454.89	397.89
455.07	400.23
455.26	416.62
455.44	435.34
455.62	381.51
455.81	367.46
455.99	423.64
456.17	358.10
456.36	433.00
456.54	430.66
456.73	339.38
456.91	397.89
457.09	461.09
457.28	433.00
457.46	400.23
457.64	369.80
457.83	449.38
458.01	395.55
458.19	428.32
458.38	458.74
458.56	407.25
458.74	416.62
458.93	430.66
459.11	433.00
459.29	456.40
459.48	407.25
459.66	423.64
459.84	461.09
460.03	463.43
460.21	407.25
460.39	353.42
460.57	395.55
460.76	376.83
460.94	447.04
461.12	400.23
461.31	465.77
461.49	418.96
461.67	418.96
461.85	414.27
462.04	433.00
462.22	856.64
462.40	390.87
462.59	376.83
462.77	402.57
462.95	465.77
463.13	451.72
463.32	468.11
463.50	440.02
463.68	411.93
463.86	348.74
464.05	444.70
464.23	409.59
464.41	395.55
464.59	395.55
464.78	404.91
464.96	369.80
465.14	386.19
465.32	416.62
465.50	390.87
465.69	449.38
465.87	447.04
466.05	407.25
466.23	355.76
466.41	330.02
466.60	397.89
466.78	400.23
466.96	421.30
467.14	414.27
467.32	482.15
467.51	425.98
467.69	416.62
467.87	402.57
468.05	334.70
468.23	484.49
468.41	400.23
468.60	414.27
468.78	358.10
468.96	421.30
469.14	465.77
469.32	407.25
469.50	437.68
469.69	437.68
469.87	416.62
470.05	388.53
470.23	454.06
470.41	402.57
470.59	486.83
470.77	465.77
470.95	414.27
471.14	449.38
471.32	444.70
471.50	379.17
471.68	407.25
471.86	449.38
472.04	414.27
472.22	372.15
472.40	400.23
472.58	355.76
472.77	351.08
472.95	423.64
473.13	477.47
473.31	440.02
473.49	383.85
473.67	433.00
473.85	409.59
474.03	463.43
474.21	367.46
474.39	400.23
474.57	498.53
474.75	451.72
474.93	468.11
475.12	400.23
475.30	386.19
475.48	437.68
475.66	433.00
475.84	407.25
476.02	421.30
476.20	358.10
476.38	367.46
476.56	409.59
476.74	404.91
476.92	430.66
477.10	379.17
477.28	425.98
477.46	447.04
477.64	482.15
477.82	409.59
478.00	390.87
478.18	397.89
478.36	475.13
478.54	472.79
478.72	433.00
478.90	400.23
479.08	449.38
479.26	404.91
479.44	369.80
479.62	414.27
479.80	409.59
479.98	388.53
480.16	425.98
480.34	411.93
480.52	334.70
480.70	397.89
480.88	376.83
481.06	327.68
481.24	442.36
481.41	355.76
481.59	456.40
481.77	348.74
481.95	344.06
482.13	442.36
482.31	337.04
482.49	379.17
482.67	442.36
482.85	428.32
483.03	454.06
483.21	376.83
483.39	348.74
483.57	421.30
483.74	456.40
483.92	489.17
484.10	383.85
484.28	435.34
484.46	437.68
484.64	381.51
484.82	393.21
485.00	437.68
485.18	369.80
485.35	369.80
485.53	395.55
485.71	489.17
485.89	395.55
486.07	404.91
486.25	451.72
486.43	435.34
486.61	409.59
486.78	393.21
486.96	348.74
487.14	437.68
487.32	379.17
487.50	374.49
487.68	465.77
487.85	402.57
488.03	409.59
488.21	472.79
488.39	440.02
488.57	411.93
488.75	477.47
488.92	472.79
489.10	418.96
489.28	507.90
489.46	479.81
489.64	451.72
489.81	325.33
489.99	414.27
490.17	386.19
490.35	496.19
490.53	395.55
490.70	346.40
490.88	486.83
491.06	397.89
491.24	472.79
491.41	510.24
491.59	411.93
491.77	376.83
491.95	383.85
492.13	442.36
492.30	400.23
492.48	381.51
492.66	402.57
492.84	442.36
493.01	388.53
493.19	458.74
493.37	400.23
493.54	451.72
493.72	421.30
493.90	360.44
494.08	397.89
494.25	390.87
494.43	433.00
494.61	386.19
494.79	393.21
494.96	376.83
495.14	418.96
495.32	447.04
495.49	402.57
495.67	388.53
495.85	369.80
496.02	402.57
496.20	414.27
496.38	393.21
496.55	468.11
496.73	407.25
496.91	402.57
497.09	498.53
497.26	404.91
497.44	383.85
497.62	425.98
497.79	416.62
497.97	470.45
498.14	430.66
498.32	400.23
498.50	451.72
498.67	440.02
498.85	341.72
499.03	402.57
499.20	407.25
499.38	428.32
499.56	430.66
499.73	433.00
499.91	386.19
500.08	421.30
500.26	376.83
500.44	400.23
500.61	440.02
500.79	418.96
500.97	470.45
501.14	442.36
501.32	456.40
501.49	458.74
501.67	407.25
501.84	437.68
502.02	360.44
502.20	468.11
502.37	458.74
502.55	454.06
502.72	409.59
502.90	409.59
503.07	390.87
503.25	440.02
503.43	414.27
503.60	395.55
503.78	440.02
503.95	425.98
504.13	416.62
504.30	477.47
504.48	456.40
504.65	451.72
504.83	449.38
505.01	393.21
505.18	433.00
505.36	444.70
505.53	337.04
505.71	383.85
505.88	470.45
506.06	386.19
506.23	423.64
506.41	468.11
506.58	402.57
506.76	454.06
506.93	423.64
507.11	390.87
507.28	327.68
507.46	372.15
507.63	421.30
507.81	425.98
507.98	418.96
508.16	402.57
508.33	428.32
508.50	379.17
508.68	390.87
508.85	416.62
509.03	407.25
509.20	425.98
509.38	395.55
509.55	463.43
509.73	369.80
509.90	418.96
510.08	365.12
510.25	421.30
510.42	372.15
510.60	414.27
510.77	442.36
510.95	442.36
511.12	351.08
511.30	428.32
511.47	367.46
511.64	456.40
511.82	435.34
511.99	404.91
512.17	365.12
512.34	379.17
512.51	418.96
512.69	482.15
512.86	451.72
513.04	353.42
513.21	482.15
513.38	468.11
513.56	409.59
513.73	395.55
513.90	365.12
514.08	409.59
514.25	440.02
514.43	470.45
514.60	404.91
514.77	475.13
514.95	383.85
515.12	397.89
515.29	442.36
515.47	514.92
515.64	374.49
515.81	367.46
515.99	447.04
516.16	447.04
516.33	425.98
516.51	334.70
516.68	442.36
516.85	393.21
517.03	430.66
517.20	416.62
517.37	355.76
517.54	374.49
517.72	372.15
517.89	404.91
518.06	400.23
518.24	461.09
518.41	430.66
518.58	379.17
518.75	428.32
518.93	372.15
519.10	395.55
519.27	369.80
519.45	301.93
519.62	425.98
519.79	390.87
519.96	451.72
520.14	463.43
520.31	500.87
520.48	454.06
520.65	372.15
520.83	423.64
521.00	404.91
521.17	423.64
521.34	402.57
521.52	468.11
521.69	440.02
521.86	404.91
522.03	433.00
522.20	425.98
522.38	397.89
522.55	402.57
522.72	425.98
522.89	428.32
523.07	442.36
523.24	393.21
523.41	367.46
523.58	404.91
523.75	449.38
523.92	440.02
524.10	400.23
524.27	411.93
524.44	386.19
524.61	447.04
524.78	465.77
524.96	449.38
525.13	428.32
525.30	500.87
525.47	414.27
525.64	379.17
525.81	477.47
525.98	449.38
526.16	411.93
526.33	402.57
526.50	421.30
526.67	402.57
526.84	360.44
527.01	411.93
527.18	425.98
527.36	430.66
527.53	404.91
527.70	433.00
527.87	444.70
528.04	454.06
528.21	395.55
528.38	454.06
528.55	414.27
528.72	433.00
528.89	402.57
529.07	435.34
529.24	421.30
529.41	437.68
529.58	428.32
529.75	449.38
529.92	411.93
530.09	458.74
530.26	414.27
530.43	472.79
530.60	404.91
530.77	489.17
530.94	407.25
531.11	397.89
531.28	402.57
531.46	397.89
531.63	535.98
531.80	374.49
531.97	402.57
532.14	372.15
532.31	468.11
532.48	458.74
532.65	444.70
532.82	400.23
532.99	451.72
533.16	388.53
533.33	470.45
533.50	425.98
533.67	313.63
533.84	344.06
534.01	409.59
534.18	402.57
534.35	433.00
534.52	465.77
534.69	458.74
534.86	388.53
535.03	409.59
535.20	358.10
535.37	414.27
535.54	395.55
535.71	386.19
535.88	451.72
536.05	418.96
536.22	397.89
536.38	365.12
536.55	388.53
536.72	428.32
536.89	315.97
537.06	379.17
537.23	430.66
537.40	411.93
537.57	493.85
537.74	461.09
537.91	451.72
538.08	444.70
538.25	482.15
538.42	449.38
538.59	409.59
538.75	428.32
538.92	505.56
539.09	472.79
539.26	411.93
539.43	440.02
539.60	416.62
539.77	409.59
539.94	411.93
540.11	430.66
540.28	470.45
540.44	472.79
540.61	451.72
540.78	423.64
540.95	397.89
541.12	500.87
541.29	423.64
541.46	433.00
541.62	491.51
541.79	409.59
541.96	484.49
542.13	449.38
542.30	461.09
542.47	435.34
542.63	463.43
542.80	400.23
542.97	435.34
543.14	433.00
543.31	388.53
543.48	393.21
543.64	463.43
543.81	390.87
543.98	437.68
544.15	365.12
544.32	402.57
544.48	449.38
544.65	376.83
544.82	367.46
544.99	463.43
545.16	395.55
545.32	402.57
545.49	411.93
545.66	386.19
545.83	407.25
546.00	346.40
546.16	428.32
546.33	418.96
546.50	463.43
546.67	440.02
546.83	416.62
547.00	447.04
547.17	390.87
547.34	470.45
547.50	425.98
547.67	440.02
547.84	388.53
548.00	447.04
548.17	428.32
548.34	402.57
548.51	444.70
548.67	390.87
548.84	358.10
549.01	402.57
549.18	423.64
549.34	409.59
549.51	435.34
549.68	440.02
549.84	395.55
550.01	435.34
550.18	519.60
550.34	435.34
550.51	397.89
550.68	414.27
550.84	435.34
551.01	444.70
551.18	444.70
551.34	449.38
551.51	425.98
551.68	365.12
551.84	365.12
552.01	435.34
552.18	449.38
552.34	407.25
552.51	411.93
552.68	386.19
552.84	440.02
553.01	390.87
553.18	418.96
553.34	372.15
553.51	402.57
553.67	411.93
553.84	491.51
554.01	458.74
554.17	477.47
554.34	402.57
554.51	393.21
554.67	465.77
554.84	433.00
555.00	425.98
555.17	386.19
555.33	411.93
555.50	477.47
555.67	411.93
555.83	362.78
556.00	458.74
556.16	528.96
556.33	449.38
556.50	402.57
556.66	416.62
556.83	414.27
556.99	404.91
557.16	423.64
557.32	442.36
557.49	444.70
557.65	379.17
557.82	334.70
557.98	454.06
558.15	411.93
558.32	411.93
558.48	390.87
558.65	418.96
558.81	402.57
558.98	388.53
559.14	346.40
559.31	376.83
559.47	430.66
559.64	456.40
559.80	414.27
559.97	418.96
560.13	416.62
560.30	454.06
560.46	479.81
560.63	383.85
560.79	454.06
560.96	390.87
561.12	393.21
561.29	388.53
561.45	381.51
561.61	376.83
561.78	451.72
561.94	404.91
562.11	449.38
562.27	379.17
562.44	390.87
562.60	407.25
562.77	393.21
562.93	498.53
563.10	470.45
563.26	393.21
563.42	404.91
563.59	500.87
563.75	360.44
563.92	444.70
564.08	444.70
564.24	430.66
564.41	524.28
564.57	381.51
564.74	355.76
564.90	374.49
565.07	440.02
565.23	388.53
565.39	341.72
565.56	484.49
565.72	325.33
565.88	423.64
566.05	428.32
566.21	428.32
566.38	402.57
566.54	360.44
566.70	435.34
566.87	461.09
567.03	425.98
567.19	435.34
567.36	447.04
567.52	440.02
567.68	465.77
567.85	437.68
568.01	463.43
568.17	344.06
568.34	386.19
568.50	491.51
568.66	428.32
568.83	498.53
568.99	416.62
569.15	440.02
569.32	421.30
569.48	465.77
569.64	369.80
569.81	409.59
569.97	374.49
570.13	397.89
570.30	428.32
570.46	376.83
570.62	386.19
570.78	411.93
570.95	402.57
571.11	390.87
571.27	463.43
571.43	404.91
571.60	414.27
571.76	360.44
571.92	383.85
572.09	337.04
572.25	393.21
572.41	390.87
572.57	411.93
572.74	454.06
572.90	407.25
573.06	409.59
573.22	395.55
573.38	379.17
573.55	393.21
573.71	344.06
573.87	383.85
574.03	339.38
574.20	416.62
574.36	411.93
574.52	489.17
574.68	430.66
574.84	353.42
575.01	400.23
575.17	437.68
575.33	395.55
575.49	409.59
575.65	447.04
575.82	486.83
575.98	468.11
576.14	315.97
576.30	442.36
576.46	367.46
576.62	388.53
576.79	435.34
576.95	454.06
577.11	421.30
577.27	468.11
577.43	475.13
577.59	409.59
577.75	425.98
577.92	465.77
578.08	430.66
578.24	388.53
578.40	416.62
578.56	465.77
578.72	461.09
578.88	409.59
579.04	458.74
579.21	475.13
579.37	372.15
579.53	367.46
579.69	447.04
579.85	416.62
580.01	465.77
580.17	386.19
580.33	444.70
580.49	430.66
580.65	440.02
580.82	393.21
580.98	407.25
581.14	418.96
581.30	440.02
581.46	428.32
581.62	444.70
581.78	454.06
581.94	414.27
582.10	365.12
582.26	442.36
582.42	400.23
582.58	400.23
582.74	428.32
582.90	386.19
583.06	491.51
583.22	318.31
583.38	362.78
583.54	390.87
583.70	463.43
583.86	428.32
584.02	388.53
584.18	454.06
584.34	386.19
584.50	440.02
584.66	348.74
584.82	407.25
584.98	400.23
585.14	402.57
585.30	376.83
585.46	430.66
585.62	440.02
585.78	379.17
585.94	458.74
586.10	402.57
586.26	423.64
586.42	425.98
586.58	444.70
586.74	475.13
586.90	418.96
587.06	440.02
587.22	454.06
587.38	437.68
587.54	362.78
587.70	341.72
587.86	444.70
588.02	393.21
588.18	428.32
588.34	425.98
588.49	346.40
588.65	435.34
588.81	414.27
588.97	367.46
589.13	379.17
589.29	468.11
589.45	447.04
589.61	395.55
589.77	489.17
589.93	407.25
590.08	383.85
590.24	390.87
590.40	456.40
590.56	463.43
590.72	430.66
590.88	425.98
591.04	402.57
591.20	367.46
591.35	489.17
591.51	442.36
591.67	435.34
591.83	395.55
591.99	468.11
592.15	458.74
592.31	421.30
592.46	395.55
592.62	435.34
592.78	423.64
592.94	416.62
593.10	400.23
593.26	428.32
593.41	376.83
593.57	486.83
593.73	409.59
593.89	484.49
594.05	395.55
594.20	355.76
594.36	367.46
594.52	409.59
594.68	411.93
594.84	404.91
594.99	433.00
595.15	360.44
595.31	442.36
595.47	437.68
595.62	442.36
595.78	461.09
595.94	416.62
596.10	437.68
596.25	414.27
596.41	388.53
596.57	411.93
596.73	411.93
596.88	320.65
597.04	463.43
597.20	449.38
597.36	437.68
597.51	449.38
597.67	407.25
597.83	428.32
597.99	421.30
598.14	383.85
598.30	458.74
598.46	390.87
598.61	461.09
598.77	421.30
598.93	395.55
599.09	390.87
599.24	433.00
599.40	449.38
599.56	521.94
599.71	444.70
599.87	442.36
600.03	372.15
600.18	416.62
600.34	369.80
600.50	367.46
600.65	358.10
600.81	430.66
600.97	416.62
601.12	351.08
601.28	503.22
601.44	409.59
601.59	353.42
601.75	442.36
601.91	353.42
602.06	379.17
602.22	463.43
602.37	442.36
602.53	376.83
602.69	437.68
602.84	381.51
603.00	341.72
603.16	430.66
603.31	374.49
603.47	472.79
603.62	414.27
603.78	449.38
603.94	428.32
604.09	388.53
604.25	402.57
604.40	482.15
604.56	418.96
604.71	437.68
604.87	421.30
605.03	447.04
605.18	418.96
605.34	388.53
605.49	383.85
605.65	421.30
605.80	362.78
605.96	468.11
606.12	437.68
606.27	430.66
606.43	461.09
606.58	418.96
606.74	440.02
606.89	437.68
607.05	374.49
607.20	400.23
607.36	435.34
607.51	423.64
607.67	348.74
607.82	365.12
607.98	477.47
608.13	353.42
608.29	346.40
608.44	468.11
608.60	400.23
608.75	463.43
608.91	423.64
609.06	475.13
609.22	414.27
609.37	388.53
609.53	414.27
609.68	346.40
609.84	423.64
609.99	435.34
610.15	444.70
