SpectraSuite Data File
++++++++++++++++++++++++++++++++++++
Date: Fri Oct 25 12:11:36 EDT 2013
User: price-jones
Dark Spectrum Present: No
Reference Spectrum Present: No
Number of Sampled Component Spectra: 1
Spectrometers: USB2+H05261
Integration Time (usec): 100000 (USB2+H05261)
Spectra Averaged: 1 (USB2+H05261)
Boxcar Smoothing: 0 (USB2+H05261)
Correct for Electrical Dark: No (USB2+H05261)
Strobe/Lamp Enabled: No (USB2+H05261)
Correct for Detector Non-linearity: No (USB2+H05261)
Correct for Stray Light: No (USB2+H05261)
Number of Pixels in Processed Spectrum: 2048
>>>>>Begin Processed Spectral Data<<<<<
365.73	327.68
365.92	327.68
366.12	327.68
366.32	248.10
366.52	236.39
366.72	287.89
366.91	257.46
367.11	194.26
367.31	161.50
367.51	194.26
367.70	198.95
367.90	283.20
368.10	252.78
368.30	234.05
368.49	224.69
368.69	346.40
368.89	227.03
369.09	194.26
369.28	262.14
369.48	266.82
369.68	337.04
369.87	304.27
370.07	351.08
370.27	341.72
370.47	292.57
370.66	313.63
370.86	360.44
371.06	360.44
371.25	374.49
371.45	383.85
371.65	395.55
371.84	374.49
372.04	395.55
372.24	365.12
372.44	376.83
372.63	404.91
372.83	360.44
373.03	447.04
373.22	418.96
373.42	379.17
373.62	379.17
373.81	456.40
374.01	463.43
374.21	362.78
374.40	367.46
374.60	440.02
374.79	376.83
374.99	442.36
375.19	407.25
375.38	393.21
375.58	430.66
375.78	461.09
375.97	484.49
376.17	463.43
376.37	463.43
376.56	376.83
376.76	444.70
376.95	346.40
377.15	418.96
377.35	475.13
377.54	365.12
377.74	386.19
377.93	306.61
378.13	407.25
378.33	468.11
378.52	416.62
378.72	463.43
378.91	433.00
379.11	449.38
379.31	423.64
379.50	404.91
379.70	435.34
379.89	454.06
380.09	355.76
380.28	418.96
380.48	468.11
380.68	360.44
380.87	479.81
381.07	451.72
381.26	505.56
381.46	402.57
381.65	386.19
381.85	395.55
382.04	376.83
382.24	367.46
382.43	404.91
382.63	421.30
382.83	425.98
383.02	447.04
383.22	437.68
383.41	428.32
383.61	433.00
383.80	414.27
384.00	458.74
384.19	372.15
384.39	440.02
384.58	440.02
384.78	418.96
384.97	428.32
385.17	435.34
385.36	379.17
385.56	475.13
385.75	404.91
385.95	458.74
386.14	447.04
386.34	454.06
386.53	381.51
386.72	386.19
386.92	418.96
387.11	400.23
387.31	423.64
387.50	334.70
387.70	374.49
387.89	374.49
388.09	355.76
388.28	397.89
388.48	423.64
388.67	442.36
388.86	430.66
389.06	402.57
389.25	381.51
389.45	411.93
389.64	367.46
389.84	369.80
390.03	428.32
390.22	411.93
390.42	454.06
390.61	379.17
390.81	393.21
391.00	386.19
391.19	400.23
391.39	360.44
391.58	433.00
391.78	397.89
391.97	484.49
392.16	346.40
392.36	355.76
392.55	400.23
392.75	425.98
392.94	440.02
393.13	386.19
393.33	374.49
393.52	395.55
393.71	465.77
393.91	433.00
394.10	369.80
394.29	393.21
394.49	374.49
394.68	383.85
394.88	395.55
395.07	444.70
395.26	421.30
395.46	395.55
395.65	416.62
395.84	397.89
396.04	390.87
396.23	442.36
396.42	376.83
396.62	468.11
396.81	442.36
397.00	393.21
397.19	444.70
397.39	402.57
397.58	437.68
397.77	334.70
397.97	327.68
398.16	367.46
398.35	383.85
398.55	330.02
398.74	414.27
398.93	393.21
399.12	421.30
399.32	491.51
399.51	395.55
399.70	442.36
399.90	465.77
400.09	318.31
400.28	489.17
400.47	430.66
400.67	425.98
400.86	440.02
401.05	376.83
401.24	411.93
401.44	430.66
401.63	418.96
401.82	379.17
402.01	379.17
402.21	411.93
402.40	468.11
402.59	454.06
402.78	402.57
402.97	458.74
403.17	339.38
403.36	437.68
403.55	400.23
403.74	407.25
403.93	400.23
404.13	451.72
404.32	411.93
404.51	393.21
404.70	528.96
404.89	372.15
405.09	475.13
405.28	423.64
405.47	369.80
405.66	390.87
405.85	423.64
406.05	489.17
406.24	414.27
406.43	479.81
406.62	418.96
406.81	437.68
407.00	468.11
407.20	440.02
407.39	395.55
407.58	325.33
407.77	416.62
407.96	397.89
408.15	365.12
408.34	461.09
408.54	491.51
408.73	423.64
408.92	430.66
409.11	404.91
409.30	454.06
409.49	486.83
409.68	348.74
409.87	435.34
410.07	376.83
410.26	409.59
410.45	411.93
410.64	374.49
410.83	358.10
411.02	444.70
411.21	409.59
411.40	402.57
411.59	414.27
411.78	379.17
411.98	428.32
412.17	388.53
412.36	407.25
412.55	416.62
412.74	379.17
412.93	374.49
413.12	334.70
413.31	447.04
413.50	433.00
413.69	351.08
413.88	510.24
414.07	376.83
414.26	425.98
414.45	461.09
414.64	451.72
414.83	458.74
415.02	437.68
415.22	390.87
415.41	524.28
415.60	425.98
415.79	486.83
415.98	454.06
416.17	437.68
416.36	362.78
416.55	428.32
416.74	458.74
416.93	395.55
417.12	435.34
417.31	409.59
417.50	388.53
417.69	437.68
417.88	346.40
418.07	433.00
418.26	383.85
418.45	360.44
418.64	484.49
418.83	393.21
419.02	400.23
419.21	477.47
419.39	383.85
419.58	449.38
419.77	365.12
419.96	442.36
420.15	454.06
420.34	372.15
420.53	411.93
420.72	482.15
420.91	369.80
421.10	344.06
421.29	454.06
421.48	386.19
421.67	407.25
421.86	379.17
422.05	425.98
422.24	346.40
422.43	416.62
422.61	395.55
422.80	472.79
422.99	423.64
423.18	369.80
423.37	428.32
423.56	425.98
423.75	386.19
423.94	320.65
424.13	395.55
424.32	414.27
424.50	409.59
424.69	362.78
424.88	496.19
425.07	376.83
425.26	348.74
425.45	423.64
425.64	383.85
425.83	355.76
426.01	369.80
426.20	397.89
426.39	421.30
426.58	484.49
426.77	421.30
426.96	440.02
427.15	425.98
427.33	433.00
427.52	372.15
427.71	381.51
427.90	365.12
428.09	428.32
428.28	416.62
428.46	447.04
428.65	418.96
428.84	395.55
429.03	507.90
429.22	358.10
429.40	360.44
429.59	365.12
429.78	402.57
429.97	404.91
430.16	367.46
430.34	381.51
430.53	397.89
430.72	393.21
430.91	475.13
431.10	393.21
431.28	390.87
431.47	407.25
431.66	430.66
431.85	463.43
432.03	407.25
432.22	442.36
432.41	397.89
432.60	440.02
432.79	442.36
432.97	332.36
433.16	395.55
433.35	327.68
433.54	458.74
433.72	388.53
433.91	440.02
434.10	379.17
434.28	454.06
434.47	425.98
434.66	451.72
434.85	306.61
435.03	468.11
435.22	477.47
435.41	372.15
435.59	421.30
435.78	322.99
435.97	435.34
436.16	400.23
436.34	411.93
436.53	376.83
436.72	411.93
436.90	386.19
437.09	451.72
437.28	393.21
437.46	440.02
437.65	395.55
437.84	435.34
438.02	383.85
438.21	400.23
438.40	421.30
438.58	351.08
438.77	404.91
438.96	444.70
439.14	404.91
439.33	395.55
439.52	442.36
439.70	477.47
439.89	454.06
440.08	433.00
440.26	425.98
440.45	437.68
440.63	348.74
440.82	414.27
441.01	376.83
441.19	411.93
441.38	369.80
441.57	428.32
441.75	430.66
441.94	379.17
442.12	470.45
442.31	468.11
442.50	470.45
442.68	409.59
442.87	400.23
443.05	379.17
443.24	383.85
443.43	353.42
443.61	482.15
443.80	440.02
443.98	421.30
444.17	365.12
444.35	404.91
444.54	430.66
444.73	449.38
444.91	503.22
445.10	383.85
445.28	381.51
445.47	465.77
445.65	358.10
445.84	442.36
446.02	393.21
446.21	421.30
446.39	402.57
446.58	397.89
446.77	374.49
446.95	367.46
447.14	383.85
447.32	404.91
447.51	383.85
447.69	435.34
447.88	414.27
448.06	418.96
448.25	449.38
448.43	393.21
448.62	365.12
448.80	390.87
448.99	425.98
449.17	388.53
449.36	381.51
449.54	397.89
449.73	353.42
449.91	421.30
450.10	423.64
450.28	402.57
450.46	376.83
450.65	409.59
450.83	416.62
451.02	454.06
451.20	416.62
451.39	430.66
451.57	440.02
451.76	425.98
451.94	463.43
452.13	447.04
452.31	409.59
452.49	465.77
452.68	407.25
452.86	414.27
453.05	376.83
453.23	400.23
453.42	400.23
453.60	390.87
453.78	433.00
453.97	433.00
454.15	372.15
454.34	418.96
454.52	423.64
454.70	470.45
454.89	437.68
455.07	374.49
455.26	369.80
455.44	386.19
455.62	416.62
455.81	421.30
455.99	423.64
456.17	428.32
456.36	397.89
456.54	383.85
456.73	418.96
456.91	358.10
457.09	461.09
457.28	475.13
457.46	411.93
457.64	449.38
457.83	433.00
458.01	400.23
458.19	376.83
458.38	358.10
458.56	393.21
458.74	376.83
458.93	397.89
459.11	414.27
459.29	369.80
459.48	404.91
459.66	367.46
459.84	430.66
460.03	470.45
460.21	388.53
460.39	423.64
460.57	479.81
460.76	463.43
460.94	447.04
461.12	444.70
461.31	409.59
461.49	402.57
461.67	440.02
461.85	475.13
462.04	381.51
462.22	748.97
462.40	470.45
462.59	411.93
462.77	383.85
462.95	416.62
463.13	442.36
463.32	383.85
463.50	454.06
463.68	404.91
463.86	407.25
464.05	435.34
464.23	416.62
464.41	374.49
464.59	395.55
464.78	451.72
464.96	421.30
465.14	440.02
465.32	404.91
465.50	416.62
465.69	390.87
465.87	435.34
466.05	517.26
466.23	433.00
466.41	367.46
466.60	400.23
466.78	444.70
466.96	475.13
467.14	414.27
467.32	430.66
467.51	433.00
467.69	402.57
467.87	421.30
468.05	449.38
468.23	479.81
468.41	423.64
468.60	425.98
468.78	430.66
468.96	440.02
469.14	468.11
469.32	407.25
469.50	374.49
469.69	367.46
469.87	381.51
470.05	433.00
470.23	451.72
470.41	449.38
470.59	456.40
470.77	437.68
470.95	440.02
471.14	454.06
471.32	400.23
471.50	489.17
471.68	489.17
471.86	360.44
472.04	418.96
472.22	437.68
472.40	372.15
472.58	491.51
472.77	362.78
472.95	421.30
473.13	440.02
473.31	470.45
473.49	397.89
473.67	379.17
473.85	381.51
474.03	458.74
474.21	409.59
474.39	386.19
474.57	505.56
474.75	444.70
474.93	425.98
475.12	421.30
475.30	503.22
475.48	479.81
475.66	395.55
475.84	379.17
476.02	472.79
476.20	386.19
476.38	451.72
476.56	465.77
476.74	365.12
476.92	400.23
477.10	311.29
477.28	421.30
477.46	409.59
477.64	477.47
477.82	416.62
478.00	503.22
478.18	437.68
478.36	435.34
478.54	437.68
478.72	404.91
478.90	465.77
479.08	418.96
479.26	451.72
479.44	351.08
479.62	437.68
479.80	393.21
479.98	362.78
480.16	351.08
480.34	402.57
480.52	402.57
480.70	400.23
480.88	301.93
481.06	395.55
481.24	372.15
481.41	411.93
481.59	428.32
481.77	433.00
481.95	430.66
482.13	358.10
482.31	463.43
482.49	465.77
482.67	404.91
482.85	468.11
483.03	383.85
483.21	447.04
483.39	409.59
483.57	433.00
483.74	430.66
483.92	437.68
484.10	407.25
484.28	430.66
484.46	418.96
484.64	475.13
484.82	379.17
485.00	334.70
485.18	437.68
485.35	456.40
485.53	379.17
485.71	430.66
485.89	444.70
486.07	442.36
486.25	444.70
486.43	477.47
486.61	395.55
486.78	404.91
486.96	409.59
487.14	395.55
487.32	444.70
487.50	425.98
487.68	367.46
487.85	395.55
488.03	435.34
488.21	491.51
488.39	404.91
488.57	463.43
488.75	451.72
488.92	423.64
489.10	386.19
489.28	369.80
489.46	339.38
489.64	458.74
489.81	451.72
489.99	486.83
490.17	416.62
490.35	470.45
490.53	386.19
490.70	397.89
490.88	442.36
491.06	418.96
491.24	402.57
491.41	461.09
491.59	400.23
491.77	465.77
491.95	407.25
492.13	470.45
492.30	444.70
492.48	463.43
492.66	465.77
492.84	365.12
493.01	421.30
493.19	414.27
493.37	442.36
493.54	526.62
493.72	477.47
493.90	442.36
494.08	390.87
494.25	456.40
494.43	425.98
494.61	416.62
494.79	376.83
494.96	409.59
495.14	435.34
495.32	397.89
495.49	428.32
495.67	360.44
495.85	524.28
496.02	472.79
496.20	418.96
496.38	393.21
496.55	463.43
496.73	470.45
496.91	442.36
497.09	397.89
497.26	447.04
497.44	381.51
497.62	372.15
497.79	414.27
497.97	365.12
498.14	484.49
498.32	470.45
498.50	451.72
498.67	463.43
498.85	421.30
499.03	414.27
499.20	444.70
499.38	472.79
499.56	442.36
499.73	414.27
499.91	376.83
500.08	470.45
500.26	461.09
500.44	416.62
500.61	477.47
500.79	372.15
500.97	430.66
501.14	428.32
501.32	409.59
501.49	400.23
501.67	400.23
501.84	365.12
502.02	440.02
502.20	376.83
502.37	390.87
502.55	365.12
502.72	484.49
502.90	479.81
503.07	409.59
503.25	411.93
503.43	458.74
503.60	386.19
503.78	425.98
503.95	435.34
504.13	411.93
504.30	486.83
504.48	362.78
504.65	472.79
504.83	430.66
505.01	465.77
505.18	400.23
505.36	348.74
505.53	376.83
505.71	433.00
505.88	456.40
506.06	330.02
506.23	395.55
506.41	365.12
506.58	451.72
506.76	425.98
506.93	386.19
507.11	451.72
507.28	400.23
507.46	428.32
507.63	400.23
507.81	411.93
507.98	423.64
508.16	360.44
508.33	383.85
508.50	409.59
508.68	440.02
508.85	447.04
509.03	348.74
509.20	353.42
509.38	430.66
509.55	369.80
509.73	449.38
509.90	423.64
510.08	383.85
510.25	470.45
510.42	395.55
510.60	456.40
510.77	397.89
510.95	435.34
511.12	437.68
511.30	451.72
511.47	465.77
511.64	440.02
511.82	411.93
511.99	428.32
512.17	468.11
512.34	444.70
512.51	425.98
512.69	395.55
512.86	423.64
513.04	491.51
513.21	381.51
513.38	433.00
513.56	339.38
513.73	440.02
513.90	393.21
514.08	416.62
514.25	383.85
514.43	416.62
514.60	416.62
514.77	430.66
514.95	407.25
515.12	428.32
515.29	449.38
515.47	451.72
515.64	374.49
515.81	386.19
515.99	491.51
516.16	456.40
516.33	437.68
516.51	395.55
516.68	468.11
516.85	400.23
517.03	409.59
517.20	433.00
517.37	461.09
517.54	477.47
517.72	454.06
517.89	372.15
518.06	430.66
518.24	458.74
518.41	433.00
518.58	379.17
518.75	421.30
518.93	372.15
519.10	365.12
519.27	395.55
519.45	498.53
519.62	442.36
519.79	463.43
519.96	425.98
520.14	512.58
520.31	463.43
520.48	454.06
520.65	463.43
520.83	456.40
521.00	402.57
521.17	463.43
521.34	376.83
521.52	468.11
521.69	376.83
521.86	428.32
522.03	435.34
522.20	428.32
522.38	423.64
522.55	409.59
522.72	397.89
522.89	470.45
523.07	463.43
523.24	440.02
523.41	390.87
523.58	402.57
523.75	404.91
523.92	383.85
524.10	451.72
524.27	531.30
524.44	428.32
524.61	470.45
524.78	482.15
524.96	447.04
525.13	362.78
525.30	468.11
525.47	402.57
525.64	458.74
525.81	393.21
525.98	365.12
526.16	409.59
526.33	318.31
526.50	325.33
526.67	381.51
526.84	367.46
527.01	386.19
527.18	423.64
527.36	418.96
527.53	318.31
527.70	416.62
527.87	414.27
528.04	428.32
528.21	433.00
528.38	355.76
528.55	456.40
528.72	435.34
528.89	388.53
529.07	456.40
529.24	383.85
529.41	440.02
529.58	430.66
529.75	409.59
529.92	461.09
530.09	330.02
530.26	388.53
530.43	393.21
530.60	458.74
530.77	486.83
530.94	372.15
531.11	400.23
531.28	393.21
531.46	367.46
531.63	414.27
531.80	395.55
531.97	381.51
532.14	402.57
532.31	344.06
532.48	402.57
532.65	421.30
532.82	383.85
532.99	421.30
533.16	430.66
533.33	433.00
533.50	409.59
533.67	388.53
533.84	456.40
534.01	386.19
534.18	416.62
534.35	379.17
534.52	442.36
534.69	416.62
534.86	500.87
535.03	376.83
535.20	397.89
535.37	435.34
535.54	355.76
535.71	458.74
535.88	440.02
536.05	451.72
536.22	465.77
536.38	381.51
536.55	423.64
536.72	400.23
536.89	386.19
537.06	447.04
537.23	449.38
537.40	374.49
537.57	379.17
537.74	517.26
537.91	449.38
538.08	433.00
538.25	407.25
538.42	404.91
538.59	383.85
538.75	409.59
538.92	388.53
539.09	440.02
539.26	465.77
539.43	468.11
539.60	414.27
539.77	411.93
539.94	472.79
540.11	367.46
540.28	425.98
540.44	493.85
540.61	416.62
540.78	360.44
540.95	388.53
541.12	386.19
541.29	463.43
541.46	393.21
541.62	390.87
541.79	425.98
541.96	409.59
542.13	430.66
542.30	409.59
542.47	388.53
542.63	397.89
542.80	447.04
542.97	447.04
543.14	430.66
543.31	433.00
543.48	414.27
543.64	395.55
543.81	421.30
543.98	444.70
544.15	416.62
544.32	468.11
544.48	402.57
544.65	430.66
544.82	411.93
544.99	430.66
545.16	531.30
545.32	346.40
545.49	388.53
545.66	341.72
545.83	379.17
546.00	461.09
546.16	435.34
546.33	428.32
546.50	468.11
546.67	456.40
546.83	512.58
547.00	437.68
547.17	416.62
547.34	416.62
547.50	475.13
547.67	498.53
547.84	402.57
548.00	388.53
548.17	454.06
548.34	402.57
548.51	507.90
548.67	414.27
548.84	404.91
549.01	414.27
549.18	390.87
549.34	428.32
549.51	397.89
549.68	416.62
549.84	442.36
550.01	411.93
550.18	449.38
550.34	475.13
550.51	421.30
550.68	482.15
550.84	454.06
551.01	430.66
551.18	376.83
551.34	433.00
551.51	423.64
551.68	337.04
551.84	397.89
552.01	440.02
552.18	388.53
552.34	397.89
552.51	430.66
552.68	451.72
552.84	400.23
553.01	486.83
553.18	430.66
553.34	381.51
553.51	362.78
553.67	411.93
553.84	418.96
554.01	390.87
554.17	358.10
554.34	369.80
554.51	449.38
554.67	430.66
554.84	456.40
555.00	463.43
555.17	463.43
555.33	365.12
555.50	390.87
555.67	409.59
555.83	435.34
556.00	428.32
556.16	484.49
556.33	440.02
556.50	386.19
556.66	507.90
556.83	461.09
556.99	449.38
557.16	437.68
557.32	402.57
557.49	409.59
557.65	330.02
557.82	376.83
557.98	386.19
558.15	400.23
558.32	386.19
558.48	379.17
558.65	416.62
558.81	416.62
558.98	393.21
559.14	428.32
559.31	320.65
559.47	379.17
559.64	397.89
559.80	442.36
559.97	400.23
560.13	421.30
560.30	416.62
560.46	414.27
560.63	404.91
560.79	390.87
560.96	390.87
561.12	482.15
561.29	507.90
561.45	458.74
561.61	454.06
561.78	414.27
561.94	421.30
562.11	390.87
562.27	390.87
562.44	407.25
562.60	402.57
562.77	386.19
562.93	449.38
563.10	409.59
563.26	409.59
563.42	493.85
563.59	458.74
563.75	482.15
563.92	449.38
564.08	465.77
564.24	367.46
564.41	458.74
564.57	458.74
564.74	358.10
564.90	421.30
565.07	465.77
565.23	374.49
565.39	414.27
565.56	430.66
565.72	468.11
565.88	470.45
566.05	393.21
566.21	430.66
566.38	456.40
566.54	430.66
566.70	414.27
566.87	400.23
567.03	369.80
567.19	407.25
567.36	388.53
567.52	351.08
567.68	433.00
567.85	341.72
568.01	442.36
568.17	421.30
568.34	442.36
568.50	440.02
568.66	374.49
568.83	451.72
568.99	362.78
569.15	440.02
569.32	416.62
569.48	470.45
569.64	519.60
569.81	416.62
569.97	411.93
570.13	447.04
570.30	397.89
570.46	447.04
570.62	376.83
570.78	428.32
570.95	421.30
571.11	512.58
571.27	463.43
571.43	463.43
571.60	320.65
571.76	456.40
571.92	386.19
572.09	418.96
572.25	435.34
572.41	376.83
572.57	369.80
572.74	479.81
572.90	463.43
573.06	386.19
573.22	341.72
573.38	461.09
573.55	386.19
573.71	479.81
573.87	416.62
574.03	470.45
574.20	423.64
574.36	423.64
574.52	456.40
574.68	416.62
574.84	407.25
575.01	404.91
575.17	425.98
575.33	386.19
575.49	416.62
575.65	421.30
575.82	447.04
575.98	409.59
576.14	404.91
576.30	458.74
576.46	400.23
576.62	362.78
576.79	475.13
576.95	390.87
577.11	372.15
577.27	351.08
577.43	409.59
577.59	428.32
577.75	397.89
577.92	402.57
578.08	449.38
578.24	423.64
578.40	369.80
578.56	411.93
578.72	484.49
578.88	414.27
579.04	369.80
579.21	418.96
579.37	423.64
579.53	381.51
579.69	404.91
579.85	418.96
580.01	456.40
580.17	449.38
580.33	475.13
580.49	421.30
580.65	372.15
580.82	404.91
580.98	442.36
581.14	428.32
581.30	444.70
581.46	390.87
581.62	444.70
581.78	409.59
581.94	369.80
582.10	458.74
582.26	416.62
582.42	360.44
582.58	393.21
582.74	383.85
582.90	390.87
583.06	425.98
583.22	346.40
583.38	353.42
583.54	440.02
583.70	397.89
583.86	477.47
584.02	454.06
584.18	428.32
584.34	400.23
584.50	397.89
584.66	390.87
584.82	442.36
584.98	425.98
585.14	362.78
585.30	463.43
585.46	339.38
585.62	479.81
585.78	393.21
585.94	430.66
586.10	393.21
586.26	456.40
586.42	491.51
586.58	442.36
586.74	367.46
586.90	416.62
587.06	458.74
587.22	383.85
587.38	423.64
587.54	451.72
587.70	433.00
587.86	421.30
588.02	428.32
588.18	433.00
588.34	395.55
588.49	372.15
588.65	440.02
588.81	416.62
588.97	390.87
589.13	334.70
589.29	437.68
589.45	418.96
589.61	484.49
589.77	409.59
589.93	447.04
590.08	444.70
590.24	458.74
590.40	348.74
590.56	376.83
590.72	353.42
590.88	407.25
591.04	468.11
591.20	379.17
591.35	362.78
591.51	425.98
591.67	365.12
591.83	407.25
591.99	430.66
592.15	433.00
592.31	458.74
592.46	454.06
592.62	416.62
592.78	381.51
592.94	458.74
593.10	479.81
593.26	341.72
593.41	407.25
593.57	440.02
593.73	458.74
593.89	465.77
594.05	376.83
594.20	442.36
594.36	489.17
594.52	409.59
594.68	449.38
594.84	454.06
594.99	468.11
595.15	428.32
595.31	482.15
595.47	388.53
595.62	402.57
595.78	449.38
595.94	386.19
596.10	486.83
596.25	461.09
596.41	402.57
596.57	390.87
596.73	358.10
596.88	411.93
597.04	402.57
597.20	414.27
597.36	449.38
597.51	440.02
597.67	346.40
597.83	435.34
597.99	397.89
598.14	379.17
598.30	463.43
598.46	465.77
598.61	440.02
598.77	433.00
598.93	388.53
599.09	416.62
599.24	437.68
599.40	402.57
599.56	402.57
599.71	517.26
599.87	440.02
600.03	374.49
600.18	407.25
600.34	404.91
600.50	442.36
600.65	440.02
600.81	418.96
600.97	430.66
601.12	435.34
601.28	440.02
601.44	491.51
601.59	475.13
601.75	440.02
601.91	498.53
602.06	456.40
602.22	505.56
602.37	491.51
602.53	428.32
602.69	414.27
602.84	390.87
603.00	379.17
603.16	472.79
603.31	444.70
603.47	411.93
603.62	449.38
603.78	372.15
603.94	411.93
604.09	461.09
604.25	454.06
604.40	449.38
604.56	433.00
604.71	397.89
604.87	381.51
605.03	456.40
605.18	416.62
605.34	482.15
605.49	486.83
605.65	346.40
605.80	430.66
605.96	397.89
606.12	442.36
606.27	433.00
606.43	423.64
606.58	395.55
606.74	348.74
606.89	470.45
607.05	451.72
607.20	430.66
607.36	437.68
607.51	386.19
607.67	444.70
607.82	393.21
607.98	386.19
608.13	402.57
608.29	376.83
608.44	463.43
608.60	414.27
608.75	414.27
608.91	461.09
609.06	440.02
609.22	425.98
609.37	393.21
609.53	376.83
609.68	428.32
609.84	339.38
609.99	374.49
610.15	397.89
