SpectraSuite Data File
++++++++++++++++++++++++++++++++++++
Date: Fri Oct 25 12:10:37 EDT 2013
User: price-jones
Dark Spectrum Present: No
Reference Spectrum Present: No
Number of Sampled Component Spectra: 1
Spectrometers: USB2+H05261
Integration Time (usec): 100000 (USB2+H05261)
Spectra Averaged: 1 (USB2+H05261)
Boxcar Smoothing: 0 (USB2+H05261)
Correct for Electrical Dark: No (USB2+H05261)
Strobe/Lamp Enabled: No (USB2+H05261)
Correct for Detector Non-linearity: No (USB2+H05261)
Correct for Stray Light: No (USB2+H05261)
Number of Pixels in Processed Spectrum: 2048
>>>>>Begin Processed Spectral Data<<<<<
365.73	337.04
365.92	337.04
366.12	337.04
366.32	322.99
366.52	238.73
366.72	234.05
366.91	245.76
367.11	215.33
367.31	175.54
367.51	191.92
367.70	234.05
367.90	278.52
368.10	313.63
368.30	299.59
368.49	210.65
368.69	285.55
368.89	241.08
369.09	278.52
369.28	280.86
369.48	241.08
369.68	339.38
369.87	322.99
370.07	212.99
370.27	353.42
370.47	351.08
370.66	311.29
370.86	351.08
371.06	353.42
371.25	409.59
371.45	372.15
371.65	411.93
371.84	402.57
372.04	397.89
372.24	414.27
372.44	397.89
372.63	376.83
372.83	386.19
373.03	388.53
373.22	437.68
373.42	386.19
373.62	498.53
373.81	449.38
374.01	407.25
374.21	479.81
374.40	425.98
374.60	418.96
374.79	355.76
374.99	442.36
375.19	491.51
375.38	404.91
375.58	407.25
375.78	468.11
375.97	397.89
376.17	416.62
376.37	337.04
376.56	437.68
376.76	395.55
376.95	447.04
377.15	465.77
377.35	430.66
377.54	442.36
377.74	470.45
377.93	395.55
378.13	414.27
378.33	411.93
378.52	365.12
378.72	461.09
378.91	437.68
379.11	332.36
379.31	470.45
379.50	341.72
379.70	433.00
379.89	430.66
380.09	351.08
380.28	435.34
380.48	400.23
380.68	449.38
380.87	524.28
381.07	449.38
381.26	475.13
381.46	409.59
381.65	425.98
381.85	400.23
382.04	390.87
382.24	390.87
382.43	456.40
382.63	355.76
382.83	341.72
383.02	374.49
383.22	423.64
383.41	402.57
383.61	344.06
383.80	440.02
384.00	404.91
384.19	407.25
384.39	397.89
384.58	315.97
384.78	402.57
384.97	360.44
385.17	437.68
385.36	404.91
385.56	395.55
385.75	379.17
385.95	402.57
386.14	505.56
386.34	477.47
386.53	390.87
386.72	402.57
386.92	414.27
387.11	449.38
387.31	451.72
387.50	367.46
387.70	400.23
387.89	475.13
388.09	465.77
388.28	355.76
388.48	374.49
388.67	404.91
388.86	430.66
389.06	411.93
389.25	468.11
389.45	397.89
389.64	362.78
389.84	393.21
390.03	402.57
390.22	386.19
390.42	372.15
390.61	334.70
390.81	346.40
391.00	397.89
391.19	447.04
391.39	379.17
391.58	341.72
391.78	369.80
391.97	423.64
392.16	463.43
392.36	355.76
392.55	442.36
392.75	369.80
392.94	372.15
393.13	414.27
393.33	365.12
393.52	454.06
393.71	454.06
393.91	414.27
394.10	360.44
394.29	360.44
394.49	395.55
394.68	383.85
394.88	428.32
395.07	472.79
395.26	395.55
395.46	393.21
395.65	416.62
395.84	430.66
396.04	454.06
396.23	355.76
396.42	390.87
396.62	435.34
396.81	442.36
397.00	365.12
397.19	409.59
397.39	461.09
397.58	468.11
397.77	390.87
397.97	465.77
398.16	379.17
398.35	376.83
398.55	411.93
398.74	397.89
398.93	376.83
399.12	372.15
399.32	411.93
399.51	369.80
399.70	381.51
399.90	386.19
400.09	337.04
400.28	444.70
400.47	409.59
400.67	407.25
400.86	465.77
401.05	418.96
401.24	423.64
401.44	461.09
401.63	351.08
401.82	440.02
402.01	360.44
402.21	416.62
402.40	367.46
402.59	379.17
402.78	390.87
402.97	451.72
403.17	386.19
403.36	388.53
403.55	362.78
403.74	369.80
403.93	379.17
404.13	444.70
404.32	397.89
404.51	301.93
404.70	433.00
404.89	400.23
405.09	372.15
405.28	447.04
405.47	388.53
405.66	433.00
405.85	477.47
406.05	353.42
406.24	421.30
406.43	355.76
406.62	433.00
406.81	447.04
407.00	454.06
407.20	400.23
407.39	433.00
407.58	367.46
407.77	435.34
407.96	437.68
408.15	372.15
408.34	404.91
408.54	411.93
408.73	416.62
408.92	346.40
409.11	346.40
409.30	379.17
409.49	428.32
409.68	341.72
409.87	472.79
410.07	404.91
410.26	440.02
410.45	407.25
410.64	407.25
410.83	421.30
411.02	395.55
411.21	355.76
411.40	414.27
411.59	454.06
411.78	442.36
411.98	374.49
412.17	383.85
412.36	388.53
412.55	381.51
412.74	423.64
412.93	404.91
413.12	395.55
413.31	503.22
413.50	393.21
413.69	449.38
413.88	414.27
414.07	489.17
414.26	369.80
414.45	430.66
414.64	416.62
414.83	447.04
415.02	482.15
415.22	444.70
415.41	470.45
415.60	461.09
415.79	393.21
415.98	486.83
416.17	414.27
416.36	358.10
416.55	418.96
416.74	390.87
416.93	355.76
417.12	353.42
417.31	339.38
417.50	393.21
417.69	456.40
417.88	404.91
418.07	376.83
418.26	418.96
418.45	418.96
418.64	388.53
418.83	381.51
419.02	351.08
419.21	376.83
419.39	423.64
419.58	348.74
419.77	409.59
419.96	390.87
420.15	444.70
420.34	421.30
420.53	454.06
420.72	421.30
420.91	320.65
421.10	430.66
421.29	400.23
421.48	407.25
421.67	402.57
421.86	479.81
422.05	414.27
422.24	390.87
422.43	379.17
422.61	355.76
422.80	341.72
422.99	395.55
423.18	414.27
423.37	433.00
423.56	409.59
423.75	418.96
423.94	454.06
424.13	421.30
424.32	440.02
424.50	425.98
424.69	409.59
424.88	425.98
425.07	395.55
425.26	404.91
425.45	395.55
425.64	362.78
425.83	393.21
426.01	379.17
426.20	367.46
426.39	337.04
426.58	425.98
426.77	451.72
426.96	393.21
427.15	454.06
427.33	444.70
427.52	409.59
427.71	416.62
427.90	458.74
428.09	409.59
428.28	393.21
428.46	442.36
428.65	402.57
428.84	440.02
429.03	528.96
429.22	381.51
429.40	454.06
429.59	320.65
429.78	416.62
429.97	425.98
430.16	430.66
430.34	390.87
430.53	383.85
430.72	355.76
430.91	447.04
431.10	362.78
431.28	402.57
431.47	418.96
431.66	447.04
431.85	407.25
432.03	465.77
432.22	435.34
432.41	360.44
432.60	374.49
432.79	416.62
432.97	332.36
433.16	404.91
433.35	416.62
433.54	386.19
433.72	355.76
433.91	425.98
434.10	372.15
434.28	411.93
434.47	477.47
434.66	435.34
434.85	435.34
435.03	496.19
435.22	358.10
435.41	470.45
435.59	444.70
435.78	376.83
435.97	444.70
436.16	362.78
436.34	353.42
436.53	479.81
436.72	512.58
436.90	411.93
437.09	440.02
437.28	388.53
437.46	395.55
437.65	451.72
437.84	468.11
438.02	421.30
438.21	383.85
438.40	425.98
438.58	468.11
438.77	407.25
438.96	402.57
439.14	395.55
439.33	393.21
439.52	386.19
439.70	379.17
439.89	472.79
440.08	397.89
440.26	397.89
440.45	353.42
440.63	472.79
440.82	430.66
441.01	493.85
441.19	456.40
441.38	402.57
441.57	451.72
441.75	379.17
441.94	421.30
442.12	348.74
442.31	374.49
442.50	397.89
442.68	421.30
442.87	344.06
443.05	381.51
443.24	416.62
443.43	423.64
443.61	447.04
443.80	423.64
443.98	465.77
444.17	327.68
444.35	444.70
444.54	344.06
444.73	411.93
444.91	484.49
445.10	409.59
445.28	404.91
445.47	416.62
445.65	360.44
445.84	433.00
446.02	362.78
446.21	414.27
446.39	468.11
446.58	468.11
446.77	369.80
446.95	402.57
447.14	463.43
447.32	400.23
447.51	477.47
447.69	374.49
447.88	369.80
448.06	428.32
448.25	470.45
448.43	418.96
448.62	379.17
448.80	428.32
448.99	454.06
449.17	376.83
449.36	367.46
449.54	397.89
449.73	386.19
449.91	395.55
450.10	421.30
450.28	514.92
450.46	435.34
450.65	414.27
450.83	358.10
451.02	454.06
451.20	463.43
451.39	454.06
451.57	353.42
451.76	418.96
451.94	400.23
452.13	524.28
452.31	425.98
452.49	414.27
452.68	442.36
452.86	465.77
453.05	425.98
453.23	330.02
453.42	449.38
453.60	414.27
453.78	416.62
453.97	372.15
454.15	425.98
454.34	484.49
454.52	367.46
454.70	444.70
454.89	334.70
455.07	383.85
455.26	463.43
455.44	423.64
455.62	372.15
455.81	433.00
455.99	435.34
456.17	365.12
456.36	472.79
456.54	423.64
456.73	435.34
456.91	418.96
457.09	404.91
457.28	449.38
457.46	395.55
457.64	458.74
457.83	376.83
458.01	318.31
458.19	435.34
458.38	339.38
458.56	465.77
458.74	440.02
458.93	390.87
459.11	369.80
459.29	477.47
459.48	379.17
459.66	425.98
459.84	442.36
460.03	461.09
460.21	367.46
460.39	390.87
460.57	416.62
460.76	381.51
460.94	362.78
461.12	416.62
461.31	545.34
461.49	458.74
461.67	407.25
461.85	447.04
462.04	421.30
462.22	791.10
462.40	479.81
462.59	402.57
462.77	425.98
462.95	451.72
463.13	449.38
463.32	404.91
463.50	411.93
463.68	468.11
463.86	421.30
464.05	404.91
464.23	400.23
464.41	477.47
464.59	362.78
464.78	346.40
464.96	428.32
465.14	388.53
465.32	416.62
465.50	454.06
465.69	418.96
465.87	369.80
466.05	433.00
466.23	442.36
466.41	414.27
466.60	379.17
466.78	376.83
466.96	404.91
467.14	482.15
467.32	365.12
467.51	379.17
467.69	447.04
467.87	379.17
468.05	365.12
468.23	423.64
468.41	451.72
468.60	416.62
468.78	388.53
468.96	421.30
469.14	376.83
469.32	367.46
469.50	395.55
469.69	423.64
469.87	379.17
470.05	440.02
470.23	465.77
470.41	428.32
470.59	402.57
470.77	435.34
470.95	374.49
471.14	475.13
471.32	463.43
471.50	393.21
471.68	379.17
471.86	447.04
472.04	400.23
472.22	409.59
472.40	407.25
472.58	360.44
472.77	383.85
472.95	351.08
473.13	451.72
473.31	468.11
473.49	425.98
473.67	395.55
473.85	397.89
474.03	456.40
474.21	386.19
474.39	409.59
474.57	393.21
474.75	428.32
474.93	376.83
475.12	430.66
475.30	430.66
475.48	437.68
475.66	456.40
475.84	435.34
476.02	376.83
476.20	325.33
476.38	458.74
476.56	433.00
476.74	325.33
476.92	433.00
477.10	437.68
477.28	388.53
477.46	393.21
477.64	402.57
477.82	330.02
478.00	454.06
478.18	454.06
478.36	358.10
478.54	444.70
478.72	381.51
478.90	390.87
479.08	442.36
479.26	388.53
479.44	404.91
479.62	444.70
479.80	402.57
479.98	430.66
480.16	402.57
480.34	479.81
480.52	435.34
480.70	433.00
480.88	390.87
481.06	388.53
481.24	404.91
481.41	411.93
481.59	395.55
481.77	421.30
481.95	442.36
482.13	381.51
482.31	409.59
482.49	362.78
482.67	423.64
482.85	409.59
483.03	433.00
483.21	409.59
483.39	404.91
483.57	416.62
483.74	428.32
483.92	409.59
484.10	367.46
484.28	390.87
484.46	447.04
484.64	393.21
484.82	437.68
485.00	418.96
485.18	376.83
485.35	337.04
485.53	390.87
485.71	482.15
485.89	414.27
486.07	444.70
486.25	472.79
486.43	411.93
486.61	463.43
486.78	367.46
486.96	404.91
487.14	418.96
487.32	358.10
487.50	428.32
487.68	411.93
487.85	358.10
488.03	393.21
488.21	449.38
488.39	388.53
488.57	404.91
488.75	423.64
488.92	533.64
489.10	390.87
489.28	456.40
489.46	430.66
489.64	360.44
489.81	477.47
489.99	433.00
490.17	428.32
490.35	468.11
490.53	400.23
490.70	425.98
490.88	383.85
491.06	400.23
491.24	393.21
491.41	423.64
491.59	440.02
491.77	411.93
491.95	440.02
492.13	386.19
492.30	421.30
492.48	397.89
492.66	458.74
492.84	418.96
493.01	414.27
493.19	395.55
493.37	465.77
493.54	449.38
493.72	437.68
493.90	456.40
494.08	402.57
494.25	442.36
494.43	421.30
494.61	454.06
494.79	397.89
494.96	355.76
495.14	418.96
495.32	330.02
495.49	355.76
495.67	414.27
495.85	339.38
496.02	388.53
496.20	369.80
496.38	461.09
496.55	395.55
496.73	447.04
496.91	404.91
497.09	458.74
497.26	374.49
497.44	465.77
497.62	500.87
497.79	451.72
497.97	365.12
498.14	390.87
498.32	414.27
498.50	409.59
498.67	407.25
498.85	456.40
499.03	390.87
499.20	484.49
499.38	463.43
499.56	341.72
499.73	435.34
499.91	454.06
500.08	458.74
500.26	456.40
500.44	456.40
500.61	402.57
500.79	397.89
500.97	425.98
501.14	402.57
501.32	433.00
501.49	379.17
501.67	402.57
501.84	397.89
502.02	416.62
502.20	381.51
502.37	465.77
502.55	428.32
502.72	372.15
502.90	463.43
503.07	421.30
503.25	341.72
503.43	372.15
503.60	409.59
503.78	397.89
503.95	425.98
504.13	411.93
504.30	376.83
504.48	379.17
504.65	381.51
504.83	477.47
505.01	430.66
505.18	393.21
505.36	491.51
505.53	393.21
505.71	402.57
505.88	409.59
506.06	397.89
506.23	416.62
506.41	372.15
506.58	341.72
506.76	374.49
506.93	404.91
507.11	503.22
507.28	393.21
507.46	423.64
507.63	454.06
507.81	395.55
507.98	390.87
508.16	353.42
508.33	414.27
508.50	369.80
508.68	416.62
508.85	416.62
509.03	416.62
509.20	400.23
509.38	493.85
509.55	402.57
509.73	479.81
509.90	386.19
510.08	440.02
510.25	444.70
510.42	411.93
510.60	454.06
510.77	355.76
510.95	465.77
511.12	470.45
511.30	386.19
511.47	421.30
511.64	390.87
511.82	374.49
511.99	388.53
512.17	447.04
512.34	407.25
512.51	440.02
512.69	358.10
512.86	435.34
513.04	383.85
513.21	407.25
513.38	411.93
513.56	505.56
513.73	411.93
513.90	360.44
514.08	409.59
514.25	402.57
514.43	449.38
514.60	386.19
514.77	393.21
514.95	444.70
515.12	444.70
515.29	351.08
515.47	454.06
515.64	414.27
515.81	416.62
515.99	421.30
516.16	486.83
516.33	454.06
516.51	409.59
516.68	388.53
516.85	470.45
517.03	386.19
517.20	465.77
517.37	437.68
517.54	381.51
517.72	388.53
517.89	388.53
518.06	407.25
518.24	447.04
518.41	418.96
518.58	477.47
518.75	444.70
518.93	353.42
519.10	414.27
519.27	386.19
519.45	388.53
519.62	475.13
519.79	381.51
519.96	379.17
520.14	463.43
520.31	362.78
520.48	395.55
520.65	404.91
520.83	449.38
521.00	461.09
521.17	416.62
521.34	430.66
521.52	409.59
521.69	362.78
521.86	442.36
522.03	440.02
522.20	409.59
522.38	365.12
522.55	458.74
522.72	409.59
522.89	360.44
523.07	409.59
523.24	435.34
523.41	386.19
523.58	400.23
523.75	348.74
523.92	320.65
524.10	437.68
524.27	386.19
524.44	411.93
524.61	454.06
524.78	374.49
524.96	416.62
525.13	451.72
525.30	503.22
525.47	421.30
525.64	458.74
525.81	428.32
525.98	400.23
526.16	458.74
526.33	365.12
526.50	388.53
526.67	409.59
526.84	463.43
527.01	482.15
527.18	386.19
527.36	447.04
527.53	348.74
527.70	449.38
527.87	421.30
528.04	421.30
528.21	444.70
528.38	425.98
528.55	423.64
528.72	456.40
528.89	407.25
529.07	409.59
529.24	404.91
529.41	479.81
529.58	468.11
529.75	456.40
529.92	440.02
530.09	388.53
530.26	395.55
530.43	433.00
530.60	421.30
530.77	433.00
530.94	433.00
531.11	374.49
531.28	444.70
531.46	369.80
531.63	416.62
531.80	376.83
531.97	479.81
532.14	475.13
532.31	477.47
532.48	407.25
532.65	449.38
532.82	404.91
532.99	463.43
533.16	437.68
533.33	442.36
533.50	393.21
533.67	411.93
533.84	418.96
534.01	383.85
534.18	440.02
534.35	433.00
534.52	418.96
534.69	416.62
534.86	458.74
535.03	379.17
535.20	477.47
535.37	421.30
535.54	423.64
535.71	358.10
535.88	416.62
536.05	383.85
536.22	423.64
536.38	433.00
536.55	435.34
536.72	404.91
536.89	425.98
537.06	477.47
537.23	407.25
537.40	430.66
537.57	411.93
537.74	393.21
537.91	433.00
538.08	362.78
538.25	472.79
538.42	409.59
538.59	423.64
538.75	381.51
538.92	433.00
539.09	456.40
539.26	444.70
539.43	433.00
539.60	444.70
539.77	416.62
539.94	404.91
540.11	421.30
540.28	425.98
540.44	449.38
540.61	440.02
540.78	421.30
540.95	423.64
541.12	458.74
541.29	388.53
541.46	425.98
541.62	425.98
541.79	468.11
541.96	418.96
542.13	524.28
542.30	447.04
542.47	475.13
542.63	360.44
542.80	388.53
542.97	435.34
543.14	428.32
543.31	388.53
543.48	411.93
543.64	381.51
543.81	411.93
543.98	379.17
544.15	414.27
544.32	425.98
544.48	351.08
544.65	362.78
544.82	400.23
544.99	376.83
545.16	437.68
545.32	416.62
545.49	327.68
545.66	404.91
545.83	418.96
546.00	390.87
546.16	463.43
546.33	447.04
546.50	369.80
546.67	442.36
546.83	444.70
547.00	433.00
547.17	400.23
547.34	465.77
547.50	421.30
547.67	414.27
547.84	379.17
548.00	491.51
548.17	447.04
548.34	407.25
548.51	372.15
548.67	458.74
548.84	404.91
549.01	416.62
549.18	463.43
549.34	442.36
549.51	397.89
549.68	463.43
549.84	400.23
550.01	388.53
550.18	411.93
550.34	482.15
550.51	374.49
550.68	414.27
550.84	444.70
551.01	472.79
551.18	409.59
551.34	425.98
551.51	411.93
551.68	411.93
551.84	440.02
552.01	423.64
552.18	421.30
552.34	442.36
552.51	409.59
552.68	484.49
552.84	397.89
553.01	369.80
553.18	486.83
553.34	395.55
553.51	400.23
553.67	409.59
553.84	465.77
554.01	510.24
554.17	362.78
554.34	421.30
554.51	435.34
554.67	397.89
554.84	507.90
555.00	472.79
555.17	472.79
555.33	456.40
555.50	367.46
555.67	477.47
555.83	367.46
556.00	388.53
556.16	528.96
556.33	449.38
556.50	386.19
556.66	372.15
556.83	442.36
556.99	477.47
557.16	435.34
557.32	458.74
557.49	414.27
557.65	402.57
557.82	374.49
557.98	418.96
558.15	498.53
558.32	379.17
558.48	437.68
558.65	395.55
558.81	423.64
558.98	388.53
559.14	425.98
559.31	367.46
559.47	435.34
559.64	456.40
559.80	449.38
559.97	390.87
560.13	376.83
560.30	421.30
560.46	423.64
560.63	468.11
560.79	397.89
560.96	397.89
561.12	395.55
561.29	433.00
561.45	418.96
561.61	416.62
561.78	451.72
561.94	404.91
562.11	339.38
562.27	428.32
562.44	376.83
562.60	465.77
562.77	402.57
562.93	491.51
563.10	414.27
563.26	425.98
563.42	456.40
563.59	442.36
563.75	451.72
563.92	421.30
564.08	465.77
564.24	428.32
564.41	447.04
564.57	400.23
564.74	360.44
564.90	416.62
565.07	461.09
565.23	507.90
565.39	447.04
565.56	409.59
565.72	444.70
565.88	369.80
566.05	348.74
566.21	383.85
566.38	341.72
566.54	418.96
566.70	388.53
566.87	447.04
567.03	367.46
567.19	428.32
567.36	418.96
567.52	409.59
567.68	416.62
567.85	479.81
568.01	367.46
568.17	425.98
568.34	393.21
568.50	381.51
568.66	440.02
568.83	461.09
568.99	411.93
569.15	461.09
569.32	402.57
569.48	430.66
569.64	433.00
569.81	390.87
569.97	397.89
570.13	451.72
570.30	463.43
570.46	463.43
570.62	421.30
570.78	395.55
570.95	360.44
571.11	421.30
571.27	423.64
571.43	444.70
571.60	388.53
571.76	358.10
571.92	386.19
572.09	463.43
572.25	358.10
572.41	437.68
572.57	400.23
572.74	395.55
572.90	390.87
573.06	416.62
573.22	332.36
573.38	477.47
573.55	428.32
573.71	475.13
573.87	386.19
574.03	400.23
574.20	407.25
574.36	418.96
574.52	402.57
574.68	418.96
574.84	449.38
575.01	447.04
575.17	472.79
575.33	386.19
575.49	388.53
575.65	386.19
575.82	463.43
575.98	444.70
576.14	407.25
576.30	395.55
576.46	454.06
576.62	365.12
576.79	442.36
576.95	489.17
577.11	498.53
577.27	330.02
577.43	421.30
577.59	388.53
577.75	435.34
577.92	449.38
578.08	407.25
578.24	362.78
578.40	351.08
578.56	470.45
578.72	440.02
578.88	437.68
579.04	454.06
579.21	407.25
579.37	477.47
579.53	421.30
579.69	454.06
579.85	379.17
580.01	416.62
580.17	404.91
580.33	482.15
580.49	353.42
580.65	444.70
580.82	355.76
580.98	428.32
581.14	409.59
581.30	423.64
581.46	369.80
581.62	393.21
581.78	489.17
581.94	414.27
582.10	369.80
582.26	430.66
582.42	322.99
582.58	416.62
582.74	388.53
582.90	407.25
583.06	409.59
583.22	383.85
583.38	407.25
583.54	409.59
583.70	395.55
583.86	402.57
584.02	344.06
584.18	372.15
584.34	400.23
584.50	369.80
584.66	407.25
584.82	444.70
584.98	435.34
585.14	470.45
585.30	454.06
585.46	407.25
585.62	444.70
585.78	355.76
585.94	435.34
586.10	395.55
586.26	386.19
586.42	461.09
586.58	400.23
586.74	442.36
586.90	400.23
587.06	496.19
587.22	454.06
587.38	442.36
587.54	362.78
587.70	442.36
587.86	423.64
588.02	416.62
588.18	414.27
588.34	454.06
588.49	330.02
588.65	407.25
588.81	423.64
588.97	414.27
589.13	418.96
589.29	390.87
589.45	444.70
589.61	400.23
589.77	402.57
589.93	369.80
590.08	425.98
590.24	388.53
590.40	407.25
590.56	421.30
590.72	395.55
590.88	416.62
591.04	440.02
591.20	430.66
591.35	416.62
591.51	440.02
591.67	416.62
591.83	447.04
591.99	416.62
592.15	337.04
592.31	458.74
592.46	388.53
592.62	440.02
592.78	402.57
592.94	421.30
593.10	428.32
593.26	397.89
593.41	414.27
593.57	454.06
593.73	365.12
593.89	461.09
594.05	470.45
594.20	367.46
594.36	416.62
594.52	479.81
594.68	351.08
594.84	402.57
594.99	449.38
595.15	440.02
595.31	444.70
595.47	468.11
595.62	393.21
595.78	411.93
595.94	414.27
596.10	482.15
596.25	414.27
596.41	489.17
596.57	458.74
596.73	435.34
596.88	449.38
597.04	418.96
597.20	355.76
597.36	418.96
597.51	388.53
597.67	346.40
597.83	440.02
597.99	463.43
598.14	442.36
598.30	409.59
598.46	393.21
598.61	367.46
598.77	433.00
598.93	390.87
599.09	395.55
599.24	411.93
599.40	407.25
599.56	414.27
599.71	409.59
599.87	437.68
600.03	430.66
600.18	404.91
600.34	491.51
600.50	411.93
600.65	393.21
600.81	468.11
600.97	411.93
601.12	433.00
601.28	390.87
601.44	409.59
601.59	388.53
601.75	358.10
601.91	414.27
602.06	374.49
602.22	512.58
602.37	416.62
602.53	390.87
602.69	365.12
602.84	425.98
603.00	409.59
603.16	416.62
603.31	409.59
603.47	451.72
603.62	449.38
603.78	418.96
603.94	393.21
604.09	430.66
604.25	444.70
604.40	395.55
604.56	411.93
604.71	386.19
604.87	341.72
605.03	411.93
605.18	470.45
605.34	423.64
605.49	430.66
605.65	355.76
605.80	393.21
605.96	397.89
606.12	416.62
606.27	437.68
606.43	423.64
606.58	397.89
606.74	454.06
606.89	465.77
607.05	451.72
607.20	421.30
607.36	407.25
607.51	386.19
607.67	365.12
607.82	440.02
607.98	404.91
608.13	330.02
608.29	421.30
608.44	421.30
608.60	470.45
608.75	458.74
608.91	451.72
609.06	390.87
609.22	428.32
609.37	372.15
609.53	383.85
609.68	411.93
609.84	444.70
609.99	493.85
610.15	440.02
