SpectraSuite Data File
++++++++++++++++++++++++++++++++++++
Date: Fri Oct 25 12:10:41 EDT 2013
User: price-jones
Dark Spectrum Present: No
Reference Spectrum Present: No
Number of Sampled Component Spectra: 1
Spectrometers: USB2+H05261
Integration Time (usec): 100000 (USB2+H05261)
Spectra Averaged: 1 (USB2+H05261)
Boxcar Smoothing: 0 (USB2+H05261)
Correct for Electrical Dark: No (USB2+H05261)
Strobe/Lamp Enabled: No (USB2+H05261)
Correct for Detector Non-linearity: No (USB2+H05261)
Correct for Stray Light: No (USB2+H05261)
Number of Pixels in Processed Spectrum: 2048
>>>>>Begin Processed Spectral Data<<<<<
365.73	360.44
365.92	360.44
366.12	360.44
366.32	285.55
366.52	224.69
366.72	283.20
366.91	266.82
367.11	283.20
367.31	154.48
367.51	224.69
367.70	271.50
367.90	283.20
368.10	191.92
368.30	257.46
368.49	177.88
368.69	224.69
368.89	191.92
369.09	243.42
369.28	308.95
369.48	231.71
369.68	271.50
369.87	318.31
370.07	348.74
370.27	294.91
370.47	290.23
370.66	383.85
370.86	351.08
371.06	313.63
371.25	369.80
371.45	306.61
371.65	388.53
371.84	367.46
372.04	379.17
372.24	339.38
372.44	339.38
372.63	320.65
372.83	369.80
373.03	337.04
373.22	365.12
373.42	430.66
373.62	430.66
373.81	447.04
374.01	477.47
374.21	409.59
374.40	440.02
374.60	346.40
374.79	379.17
374.99	400.23
375.19	402.57
375.38	379.17
375.58	416.62
375.78	484.49
375.97	433.00
376.17	496.19
376.37	397.89
376.56	449.38
376.76	376.83
376.95	414.27
377.15	435.34
377.35	414.27
377.54	442.36
377.74	425.98
377.93	397.89
378.13	400.23
378.33	351.08
378.52	428.32
378.72	423.64
378.91	418.96
379.11	404.91
379.31	477.47
379.50	428.32
379.70	440.02
379.89	416.62
380.09	337.04
380.28	374.49
380.48	332.36
380.68	386.19
380.87	369.80
381.07	395.55
381.26	456.40
381.46	362.78
381.65	388.53
381.85	393.21
382.04	491.51
382.24	421.30
382.43	447.04
382.63	402.57
382.83	390.87
383.02	449.38
383.22	402.57
383.41	458.74
383.61	390.87
383.80	449.38
384.00	400.23
384.19	435.34
384.39	416.62
384.58	440.02
384.78	444.70
384.97	395.55
385.17	400.23
385.36	407.25
385.56	404.91
385.75	344.06
385.95	430.66
386.14	440.02
386.34	425.98
386.53	440.02
386.72	433.00
386.92	379.17
387.11	397.89
387.31	383.85
387.50	402.57
387.70	388.53
387.89	430.66
388.09	322.99
388.28	379.17
388.48	393.21
388.67	362.78
388.86	376.83
389.06	454.06
389.25	407.25
389.45	433.00
389.64	414.27
389.84	444.70
390.03	393.21
390.22	388.53
390.42	461.09
390.61	397.89
390.81	372.15
391.00	374.49
391.19	435.34
391.39	388.53
391.58	386.19
391.78	442.36
391.97	416.62
392.16	414.27
392.36	425.98
392.55	430.66
392.75	421.30
392.94	351.08
393.13	440.02
393.33	358.10
393.52	315.97
393.71	447.04
393.91	330.02
394.10	416.62
394.29	411.93
394.49	334.70
394.68	383.85
394.88	433.00
395.07	360.44
395.26	409.59
395.46	386.19
395.65	395.55
395.84	463.43
396.04	484.49
396.23	418.96
396.42	421.30
396.62	390.87
396.81	449.38
397.00	400.23
397.19	393.21
397.39	447.04
397.58	489.17
397.77	416.62
397.97	418.96
398.16	418.96
398.35	409.59
398.55	440.02
398.74	416.62
398.93	430.66
399.12	423.64
399.32	390.87
399.51	386.19
399.70	418.96
399.90	400.23
400.09	449.38
400.28	402.57
400.47	386.19
400.67	409.59
400.86	421.30
401.05	383.85
401.24	325.33
401.44	372.15
401.63	451.72
401.82	407.25
402.01	351.08
402.21	458.74
402.40	383.85
402.59	320.65
402.78	348.74
402.97	381.51
403.17	379.17
403.36	407.25
403.55	390.87
403.74	430.66
403.93	332.36
404.13	435.34
404.32	416.62
404.51	454.06
404.70	433.00
404.89	418.96
405.09	397.89
405.28	390.87
405.47	367.46
405.66	421.30
405.85	425.98
406.05	386.19
406.24	365.12
406.43	346.40
406.62	367.46
406.81	465.77
407.00	437.68
407.20	418.96
407.39	386.19
407.58	404.91
407.77	346.40
407.96	400.23
408.15	447.04
408.34	428.32
408.54	374.49
408.73	435.34
408.92	376.83
409.11	428.32
409.30	407.25
409.49	461.09
409.68	395.55
409.87	318.31
410.07	447.04
410.26	334.70
410.45	374.49
410.64	400.23
410.83	421.30
411.02	409.59
411.21	418.96
411.40	433.00
411.59	505.56
411.78	418.96
411.98	409.59
412.17	414.27
412.36	369.80
412.55	369.80
412.74	397.89
412.93	418.96
413.12	421.30
413.31	400.23
413.50	379.17
413.69	444.70
413.88	414.27
414.07	414.27
414.26	386.19
414.45	411.93
414.64	470.45
414.83	395.55
415.02	433.00
415.22	381.51
415.41	468.11
415.60	372.15
415.79	409.59
415.98	440.02
416.17	383.85
416.36	423.64
416.55	416.62
416.74	440.02
416.93	388.53
417.12	418.96
417.31	341.72
417.50	400.23
417.69	414.27
417.88	367.46
418.07	449.38
418.26	425.98
418.45	440.02
418.64	358.10
418.83	428.32
419.02	386.19
419.21	456.40
419.39	411.93
419.58	379.17
419.77	379.17
419.96	397.89
420.15	463.43
420.34	409.59
420.53	351.08
420.72	491.51
420.91	400.23
421.10	435.34
421.29	393.21
421.48	451.72
421.67	461.09
421.86	388.53
422.05	416.62
422.24	402.57
422.43	334.70
422.61	355.76
422.80	353.42
422.99	395.55
423.18	390.87
423.37	433.00
423.56	442.36
423.75	442.36
423.94	409.59
424.13	369.80
424.32	344.06
424.50	428.32
424.69	362.78
424.88	372.15
425.07	379.17
425.26	456.40
425.45	395.55
425.64	468.11
425.83	407.25
426.01	414.27
426.20	407.25
426.39	447.04
426.58	402.57
426.77	376.83
426.96	454.06
427.15	393.21
427.33	433.00
427.52	369.80
427.71	528.96
427.90	372.15
428.09	369.80
428.28	433.00
428.46	404.91
428.65	416.62
428.84	409.59
429.03	458.74
429.22	362.78
429.40	379.17
429.59	404.91
429.78	348.74
429.97	379.17
430.16	418.96
430.34	416.62
430.53	472.79
430.72	360.44
430.91	444.70
431.10	397.89
431.28	442.36
431.47	447.04
431.66	393.21
431.85	454.06
432.03	421.30
432.22	402.57
432.41	440.02
432.60	489.17
432.79	437.68
432.97	379.17
433.16	454.06
433.35	461.09
433.54	355.76
433.72	449.38
433.91	463.43
434.10	437.68
434.28	430.66
434.47	435.34
434.66	411.93
434.85	383.85
435.03	290.23
435.22	402.57
435.41	465.77
435.59	393.21
435.78	440.02
435.97	421.30
436.16	379.17
436.34	409.59
436.53	330.02
436.72	444.70
436.90	454.06
437.09	379.17
437.28	418.96
437.46	437.68
437.65	425.98
437.84	418.96
438.02	383.85
438.21	395.55
438.40	423.64
438.58	444.70
438.77	358.10
438.96	416.62
439.14	433.00
439.33	430.66
439.52	360.44
439.70	390.87
439.89	447.04
440.08	407.25
440.26	362.78
440.45	414.27
440.63	383.85
440.82	468.11
441.01	400.23
441.19	369.80
441.38	428.32
441.57	409.59
441.75	458.74
441.94	425.98
442.12	358.10
442.31	447.04
442.50	496.19
442.68	388.53
442.87	344.06
443.05	393.21
443.24	479.81
443.43	428.32
443.61	409.59
443.80	475.13
443.98	379.17
444.17	388.53
444.35	423.64
444.54	360.44
444.73	397.89
444.91	423.64
445.10	393.21
445.28	421.30
445.47	315.97
445.65	404.91
445.84	376.83
446.02	440.02
446.21	423.64
446.39	442.36
446.58	367.46
446.77	376.83
446.95	409.59
447.14	418.96
447.32	416.62
447.51	416.62
447.69	376.83
447.88	407.25
448.06	454.06
448.25	386.19
448.43	395.55
448.62	402.57
448.80	414.27
448.99	372.15
449.17	372.15
449.36	407.25
449.54	418.96
449.73	365.12
449.91	430.66
450.10	414.27
450.28	498.53
450.46	486.83
450.65	440.02
450.83	489.17
451.02	409.59
451.20	330.02
451.39	381.51
451.57	362.78
451.76	440.02
451.94	407.25
452.13	475.13
452.31	421.30
452.49	449.38
452.68	369.80
452.86	428.32
453.05	479.81
453.23	411.93
453.42	320.65
453.60	395.55
453.78	404.91
453.97	404.91
454.15	447.04
454.34	458.74
454.52	365.12
454.70	390.87
454.89	411.93
455.07	421.30
455.26	444.70
455.44	390.87
455.62	461.09
455.81	411.93
455.99	383.85
456.17	404.91
456.36	351.08
456.54	397.89
456.73	435.34
456.91	400.23
457.09	390.87
457.28	444.70
457.46	320.65
457.64	337.04
457.83	358.10
458.01	425.98
458.19	428.32
458.38	360.44
458.56	416.62
458.74	390.87
458.93	458.74
459.11	369.80
459.29	381.51
459.48	456.40
459.66	470.45
459.84	458.74
460.03	465.77
460.21	404.91
460.39	435.34
460.57	447.04
460.76	482.15
460.94	390.87
461.12	444.70
461.31	376.83
461.49	395.55
461.67	428.32
461.85	416.62
462.04	440.02
462.22	758.33
462.40	416.62
462.59	414.27
462.77	425.98
462.95	372.15
463.13	360.44
463.32	449.38
463.50	423.64
463.68	402.57
463.86	409.59
464.05	435.34
464.23	393.21
464.41	435.34
464.59	381.51
464.78	311.29
464.96	416.62
465.14	421.30
465.32	376.83
465.50	374.49
465.69	400.23
465.87	388.53
466.05	465.77
466.23	418.96
466.41	308.95
466.60	451.72
466.78	407.25
466.96	414.27
467.14	390.87
467.32	400.23
467.51	512.58
467.69	407.25
467.87	402.57
468.05	367.46
468.23	440.02
468.41	358.10
468.60	376.83
468.78	472.79
468.96	444.70
469.14	402.57
469.32	409.59
469.50	409.59
469.69	451.72
469.87	423.64
470.05	484.49
470.23	372.15
470.41	353.42
470.59	433.00
470.77	390.87
470.95	430.66
471.14	425.98
471.32	360.44
471.50	428.32
471.68	386.19
471.86	416.62
472.04	353.42
472.22	395.55
472.40	393.21
472.58	372.15
472.77	442.36
472.95	341.72
473.13	409.59
473.31	484.49
473.49	430.66
473.67	451.72
473.85	435.34
474.03	393.21
474.21	447.04
474.39	402.57
474.57	433.00
474.75	418.96
474.93	435.34
475.12	470.45
475.30	386.19
475.48	428.32
475.66	442.36
475.84	496.19
476.02	390.87
476.20	447.04
476.38	390.87
476.56	449.38
476.74	414.27
476.92	416.62
477.10	442.36
477.28	437.68
477.46	383.85
477.64	369.80
477.82	388.53
478.00	416.62
478.18	479.81
478.36	362.78
478.54	437.68
478.72	348.74
478.90	353.42
479.08	372.15
479.26	423.64
479.44	418.96
479.62	374.49
479.80	388.53
479.98	454.06
480.16	428.32
480.34	397.89
480.52	367.46
480.70	381.51
480.88	423.64
481.06	472.79
481.24	458.74
481.41	447.04
481.59	407.25
481.77	367.46
481.95	447.04
482.13	395.55
482.31	388.53
482.49	435.34
482.67	475.13
482.85	421.30
483.03	463.43
483.21	395.55
483.39	456.40
483.57	404.91
483.74	468.11
483.92	430.66
484.10	351.08
484.28	416.62
484.46	451.72
484.64	425.98
484.82	421.30
485.00	461.09
485.18	402.57
485.35	376.83
485.53	418.96
485.71	449.38
485.89	402.57
486.07	353.42
486.25	486.83
486.43	313.63
486.61	430.66
486.78	449.38
486.96	433.00
487.14	440.02
487.32	376.83
487.50	372.15
487.68	414.27
487.85	379.17
488.03	472.79
488.21	409.59
488.39	411.93
488.57	423.64
488.75	444.70
488.92	479.81
489.10	416.62
489.28	465.77
489.46	383.85
489.64	397.89
489.81	418.96
489.99	400.23
490.17	395.55
490.35	423.64
490.53	421.30
490.70	369.80
490.88	358.10
491.06	421.30
491.24	379.17
491.41	463.43
491.59	411.93
491.77	337.04
491.95	482.15
492.13	381.51
492.30	372.15
492.48	393.21
492.66	477.47
492.84	383.85
493.01	433.00
493.19	388.53
493.37	489.17
493.54	430.66
493.72	449.38
493.90	397.89
494.08	304.27
494.25	444.70
494.43	360.44
494.61	388.53
494.79	334.70
494.96	388.53
495.14	355.76
495.32	454.06
495.49	381.51
495.67	425.98
495.85	351.08
496.02	437.68
496.20	416.62
496.38	386.19
496.55	435.34
496.73	397.89
496.91	465.77
497.09	430.66
497.26	437.68
497.44	395.55
497.62	433.00
497.79	409.59
497.97	418.96
498.14	416.62
498.32	402.57
498.50	447.04
498.67	517.26
498.85	447.04
499.03	393.21
499.20	365.12
499.38	376.83
499.56	454.06
499.73	468.11
499.91	435.34
500.08	458.74
500.26	428.32
500.44	447.04
500.61	470.45
500.79	489.17
500.97	477.47
501.14	440.02
501.32	393.21
501.49	477.47
501.67	397.89
501.84	400.23
502.02	351.08
502.20	531.30
502.37	470.45
502.55	379.17
502.72	292.57
502.90	449.38
503.07	435.34
503.25	440.02
503.43	393.21
503.60	428.32
503.78	379.17
503.95	395.55
504.13	362.78
504.30	425.98
504.48	425.98
504.65	475.13
504.83	454.06
505.01	407.25
505.18	414.27
505.36	451.72
505.53	374.49
505.71	425.98
505.88	404.91
506.06	374.49
506.23	374.49
506.41	383.85
506.58	409.59
506.76	409.59
506.93	400.23
507.11	456.40
507.28	346.40
507.46	369.80
507.63	482.15
507.81	390.87
507.98	379.17
508.16	428.32
508.33	423.64
508.50	442.36
508.68	327.68
508.85	414.27
509.03	355.76
509.20	379.17
509.38	376.83
509.55	435.34
509.73	411.93
509.90	395.55
510.08	374.49
510.25	425.98
510.42	397.89
510.60	369.80
510.77	369.80
510.95	489.17
511.12	435.34
511.30	397.89
511.47	498.53
511.64	472.79
511.82	463.43
511.99	395.55
512.17	411.93
512.34	423.64
512.51	376.83
512.69	365.12
512.86	463.43
513.04	423.64
513.21	379.17
513.38	423.64
513.56	423.64
513.73	390.87
513.90	355.76
514.08	341.72
514.25	388.53
514.43	390.87
514.60	423.64
514.77	386.19
514.95	369.80
515.12	421.30
515.29	472.79
515.47	430.66
515.64	325.33
515.81	463.43
515.99	409.59
516.16	423.64
516.33	390.87
516.51	395.55
516.68	348.74
516.85	386.19
517.03	486.83
517.20	430.66
517.37	418.96
517.54	376.83
517.72	407.25
517.89	416.62
518.06	397.89
518.24	423.64
518.41	416.62
518.58	440.02
518.75	465.77
518.93	390.87
519.10	414.27
519.27	367.46
519.45	428.32
519.62	395.55
519.79	383.85
519.96	418.96
520.14	465.77
520.31	421.30
520.48	465.77
520.65	397.89
520.83	458.74
521.00	395.55
521.17	404.91
521.34	498.53
521.52	414.27
521.69	379.17
521.86	369.80
522.03	418.96
522.20	477.47
522.38	395.55
522.55	449.38
522.72	430.66
522.89	362.78
523.07	477.47
523.24	425.98
523.41	421.30
523.58	374.49
523.75	404.91
523.92	444.70
524.10	425.98
524.27	386.19
524.44	503.22
524.61	468.11
524.78	376.83
524.96	374.49
525.13	339.38
525.30	463.43
525.47	486.83
525.64	512.58
525.81	367.46
525.98	440.02
526.16	397.89
526.33	428.32
526.50	472.79
526.67	411.93
526.84	414.27
527.01	454.06
527.18	454.06
527.36	404.91
527.53	376.83
527.70	444.70
527.87	353.42
528.04	477.47
528.21	456.40
528.38	393.21
528.55	484.49
528.72	425.98
528.89	463.43
529.07	400.23
529.24	362.78
529.41	447.04
529.58	484.49
529.75	442.36
529.92	444.70
530.09	402.57
530.26	440.02
530.43	365.12
530.60	435.34
530.77	395.55
530.94	435.34
531.11	423.64
531.28	468.11
531.46	393.21
531.63	388.53
531.80	374.49
531.97	395.55
532.14	383.85
532.31	372.15
532.48	376.83
532.65	423.64
532.82	451.72
532.99	383.85
533.16	463.43
533.33	332.36
533.50	428.32
533.67	482.15
533.84	472.79
534.01	510.24
534.18	463.43
534.35	421.30
534.52	411.93
534.69	386.19
534.86	425.98
535.03	407.25
535.20	374.49
535.37	442.36
535.54	388.53
535.71	461.09
535.88	468.11
536.05	393.21
536.22	451.72
536.38	418.96
536.55	430.66
536.72	468.11
536.89	334.70
537.06	348.74
537.23	418.96
537.40	409.59
537.57	482.15
537.74	414.27
537.91	430.66
538.08	325.33
538.25	388.53
538.42	372.15
538.59	430.66
538.75	402.57
538.92	395.55
539.09	489.17
539.26	425.98
539.43	463.43
539.60	416.62
539.77	435.34
539.94	388.53
540.11	416.62
540.28	447.04
540.44	430.66
540.61	360.44
540.78	418.96
540.95	402.57
541.12	475.13
541.29	360.44
541.46	433.00
541.62	418.96
541.79	386.19
541.96	404.91
542.13	454.06
542.30	400.23
542.47	486.83
542.63	376.83
542.80	409.59
542.97	383.85
543.14	355.76
543.31	435.34
543.48	404.91
543.64	505.56
543.81	454.06
543.98	440.02
544.15	409.59
544.32	383.85
544.48	400.23
544.65	395.55
544.82	465.77
544.99	388.53
545.16	447.04
545.32	369.80
545.49	416.62
545.66	451.72
545.83	470.45
546.00	360.44
546.16	395.55
546.33	379.17
546.50	386.19
546.67	425.98
546.83	486.83
547.00	390.87
547.17	348.74
547.34	407.25
547.50	440.02
547.67	400.23
547.84	404.91
548.00	440.02
548.17	414.27
548.34	423.64
548.51	442.36
548.67	449.38
548.84	379.17
549.01	430.66
549.18	404.91
549.34	388.53
549.51	433.00
549.68	430.66
549.84	400.23
550.01	479.81
550.18	468.11
550.34	447.04
550.51	465.77
550.68	477.47
550.84	402.57
551.01	468.11
551.18	386.19
551.34	372.15
551.51	383.85
551.68	477.47
551.84	414.27
552.01	428.32
552.18	470.45
552.34	491.51
552.51	404.91
552.68	421.30
552.84	386.19
553.01	341.72
553.18	397.89
553.34	393.21
553.51	479.81
553.67	421.30
553.84	447.04
554.01	397.89
554.17	428.32
554.34	379.17
554.51	423.64
554.67	491.51
554.84	451.72
555.00	395.55
555.17	369.80
555.33	454.06
555.50	414.27
555.67	477.47
555.83	425.98
556.00	411.93
556.16	575.77
556.33	496.19
556.50	437.68
556.66	402.57
556.83	395.55
556.99	470.45
557.16	472.79
557.32	353.42
557.49	430.66
557.65	423.64
557.82	402.57
557.98	395.55
558.15	355.76
558.32	433.00
558.48	381.51
558.65	400.23
558.81	451.72
558.98	430.66
559.14	458.74
559.31	430.66
559.47	421.30
559.64	404.91
559.80	454.06
559.97	416.62
560.13	421.30
560.30	414.27
560.46	374.49
560.63	407.25
560.79	458.74
560.96	402.57
561.12	360.44
561.29	400.23
561.45	409.59
561.61	395.55
561.78	535.98
561.94	428.32
562.11	423.64
562.27	411.93
562.44	416.62
562.60	456.40
562.77	367.46
562.93	503.22
563.10	454.06
563.26	444.70
563.42	430.66
563.59	369.80
563.75	383.85
563.92	454.06
564.08	486.83
564.24	484.49
564.41	418.96
564.57	362.78
564.74	369.80
564.90	423.64
565.07	418.96
565.23	416.62
565.39	411.93
565.56	407.25
565.72	430.66
565.88	428.32
566.05	407.25
566.21	435.34
566.38	390.87
566.54	454.06
566.70	397.89
566.87	383.85
567.03	421.30
567.19	355.76
567.36	458.74
567.52	397.89
567.68	393.21
567.85	479.81
568.01	374.49
568.17	407.25
568.34	444.70
568.50	421.30
568.66	374.49
568.83	496.19
568.99	395.55
569.15	390.87
569.32	442.36
569.48	374.49
569.64	447.04
569.81	449.38
569.97	367.46
570.13	409.59
570.30	456.40
570.46	381.51
570.62	393.21
570.78	344.06
570.95	383.85
571.11	416.62
571.27	449.38
571.43	421.30
571.60	407.25
571.76	402.57
571.92	393.21
572.09	348.74
572.25	374.49
572.41	393.21
572.57	404.91
572.74	442.36
572.90	489.17
573.06	418.96
573.22	479.81
573.38	482.15
573.55	388.53
573.71	435.34
573.87	376.83
574.03	388.53
574.20	461.09
574.36	421.30
574.52	383.85
574.68	428.32
574.84	393.21
575.01	390.87
575.17	433.00
575.33	482.15
575.49	435.34
575.65	454.06
575.82	416.62
575.98	442.36
576.14	435.34
576.30	458.74
576.46	493.85
576.62	407.25
576.79	421.30
576.95	418.96
577.11	440.02
577.27	430.66
577.43	421.30
577.59	486.83
577.75	421.30
577.92	447.04
578.08	374.49
578.24	393.21
578.40	409.59
578.56	521.94
578.72	505.56
578.88	451.72
579.04	468.11
579.21	444.70
579.37	440.02
579.53	351.08
579.69	411.93
579.85	353.42
580.01	393.21
580.17	388.53
580.33	423.64
580.49	440.02
580.65	416.62
580.82	433.00
580.98	393.21
581.14	337.04
581.30	402.57
581.46	407.25
581.62	339.38
581.78	414.27
581.94	414.27
582.10	463.43
582.26	447.04
582.42	451.72
582.58	395.55
582.74	425.98
582.90	451.72
583.06	461.09
583.22	444.70
583.38	454.06
583.54	388.53
583.70	372.15
583.86	458.74
584.02	475.13
584.18	414.27
584.34	465.77
584.50	430.66
584.66	388.53
584.82	397.89
584.98	381.51
585.14	388.53
585.30	397.89
585.46	456.40
585.62	472.79
585.78	423.64
585.94	435.34
586.10	491.51
586.26	418.96
586.42	409.59
586.58	388.53
586.74	365.12
586.90	437.68
587.06	482.15
587.22	472.79
587.38	425.98
587.54	423.64
587.70	486.83
587.86	374.49
588.02	430.66
588.18	407.25
588.34	468.11
588.49	390.87
588.65	362.78
588.81	428.32
588.97	379.17
589.13	390.87
589.29	393.21
589.45	397.89
589.61	386.19
589.77	395.55
589.93	461.09
590.08	442.36
590.24	339.38
590.40	407.25
590.56	454.06
590.72	393.21
590.88	440.02
591.04	395.55
591.20	402.57
591.35	470.45
591.51	400.23
591.67	440.02
591.83	351.08
591.99	327.68
592.15	510.24
592.31	437.68
592.46	411.93
592.62	456.40
592.78	407.25
592.94	397.89
593.10	358.10
593.26	416.62
593.41	407.25
593.57	409.59
593.73	421.30
593.89	482.15
594.05	416.62
594.20	376.83
594.36	411.93
594.52	411.93
594.68	465.77
594.84	423.64
594.99	365.12
595.15	332.36
595.31	411.93
595.47	437.68
595.62	479.81
595.78	475.13
595.94	407.25
596.10	468.11
596.25	369.80
596.41	404.91
596.57	372.15
596.73	365.12
596.88	425.98
597.04	451.72
597.20	423.64
597.36	409.59
597.51	442.36
597.67	430.66
597.83	421.30
597.99	414.27
598.14	376.83
598.30	479.81
598.46	416.62
598.61	428.32
598.77	447.04
598.93	374.49
599.09	383.85
599.24	397.89
599.40	414.27
599.56	411.93
599.71	416.62
599.87	449.38
600.03	407.25
600.18	500.87
600.34	491.51
600.50	428.32
600.65	369.80
600.81	491.51
600.97	416.62
601.12	374.49
601.28	444.70
601.44	411.93
601.59	393.21
601.75	411.93
601.91	379.17
602.06	397.89
602.22	456.40
602.37	383.85
602.53	435.34
602.69	461.09
602.84	442.36
603.00	414.27
603.16	416.62
603.31	454.06
603.47	416.62
603.62	379.17
603.78	418.96
603.94	428.32
604.09	374.49
604.25	404.91
604.40	379.17
604.56	301.93
604.71	437.68
604.87	362.78
605.03	376.83
605.18	409.59
605.34	435.34
605.49	358.10
605.65	437.68
605.80	472.79
605.96	374.49
606.12	355.76
606.27	411.93
606.43	414.27
606.58	477.47
606.74	418.96
606.89	386.19
607.05	414.27
607.20	402.57
607.36	353.42
607.51	444.70
607.67	407.25
607.82	482.15
607.98	425.98
608.13	482.15
608.29	463.43
608.44	468.11
608.60	418.96
608.75	528.96
608.91	433.00
609.06	379.17
609.22	358.10
609.37	358.10
609.53	355.76
609.68	372.15
609.84	447.04
609.99	334.70
610.15	390.87
