SpectraSuite Data File
++++++++++++++++++++++++++++++++++++
Date: Fri Oct 25 12:11:00 EDT 2013
User: price-jones
Dark Spectrum Present: No
Reference Spectrum Present: No
Number of Sampled Component Spectra: 1
Spectrometers: USB2+H05261
Integration Time (usec): 100000 (USB2+H05261)
Spectra Averaged: 1 (USB2+H05261)
Boxcar Smoothing: 0 (USB2+H05261)
Correct for Electrical Dark: No (USB2+H05261)
Strobe/Lamp Enabled: No (USB2+H05261)
Correct for Detector Non-linearity: No (USB2+H05261)
Correct for Stray Light: No (USB2+H05261)
Number of Pixels in Processed Spectrum: 2048
>>>>>Begin Processed Spectral Data<<<<<
365.73	346.40
365.92	346.40
366.12	346.40
366.32	297.25
366.52	231.71
366.72	276.18
366.91	255.12
367.11	257.46
367.31	208.31
367.51	156.82
367.70	250.44
367.90	280.86
368.10	273.84
368.30	215.33
368.49	203.63
368.69	285.55
368.89	220.01
369.09	285.55
369.28	255.12
369.48	229.37
369.68	341.72
369.87	306.61
370.07	278.52
370.27	353.42
370.47	276.18
370.66	388.53
370.86	367.46
371.06	365.12
371.25	358.10
371.45	379.17
371.65	379.17
371.84	421.30
372.04	351.08
372.24	358.10
372.44	360.44
372.63	454.06
372.83	376.83
373.03	355.76
373.22	379.17
373.42	442.36
373.62	456.40
373.81	379.17
374.01	454.06
374.21	428.32
374.40	468.11
374.60	421.30
374.79	388.53
374.99	444.70
375.19	475.13
375.38	374.49
375.58	397.89
375.78	458.74
375.97	458.74
376.17	425.98
376.37	435.34
376.56	353.42
376.76	365.12
376.95	416.62
377.15	414.27
377.35	430.66
377.54	365.12
377.74	447.04
377.93	461.09
378.13	447.04
378.33	468.11
378.52	346.40
378.72	428.32
378.91	388.53
379.11	365.12
379.31	383.85
379.50	395.55
379.70	484.49
379.89	402.57
380.09	374.49
380.28	421.30
380.48	418.96
380.68	397.89
380.87	344.06
381.07	395.55
381.26	440.02
381.46	449.38
381.65	428.32
381.85	482.15
382.04	425.98
382.24	404.91
382.43	428.32
382.63	414.27
382.83	379.17
383.02	372.15
383.22	360.44
383.41	414.27
383.61	500.87
383.80	381.51
384.00	402.57
384.19	393.21
384.39	433.00
384.58	451.72
384.78	360.44
384.97	421.30
385.17	440.02
385.36	397.89
385.56	397.89
385.75	337.04
385.95	397.89
386.14	397.89
386.34	374.49
386.53	440.02
386.72	404.91
386.92	463.43
387.11	400.23
387.31	409.59
387.50	339.38
387.70	421.30
387.89	416.62
388.09	421.30
388.28	395.55
388.48	404.91
388.67	372.15
388.86	383.85
389.06	355.76
389.25	447.04
389.45	404.91
389.64	351.08
389.84	355.76
390.03	479.81
390.22	381.51
390.42	449.38
390.61	388.53
390.81	416.62
391.00	414.27
391.19	369.80
391.39	411.93
391.58	400.23
391.78	430.66
391.97	430.66
392.16	425.98
392.36	388.53
392.55	430.66
392.75	346.40
392.94	388.53
393.13	397.89
393.33	358.10
393.52	362.78
393.71	433.00
393.91	505.56
394.10	360.44
394.29	374.49
394.49	346.40
394.68	414.27
394.88	379.17
395.07	320.65
395.26	430.66
395.46	440.02
395.65	437.68
395.84	411.93
396.04	465.77
396.23	442.36
396.42	390.87
396.62	381.51
396.81	353.42
397.00	440.02
397.19	337.04
397.39	367.46
397.58	388.53
397.77	444.70
397.97	433.00
398.16	372.15
398.35	449.38
398.55	418.96
398.74	337.04
398.93	418.96
399.12	390.87
399.32	409.59
399.51	390.87
399.70	461.09
399.90	435.34
400.09	411.93
400.28	383.85
400.47	400.23
400.67	463.43
400.86	416.62
401.05	351.08
401.24	374.49
401.44	423.64
401.63	428.32
401.82	346.40
402.01	374.49
402.21	463.43
402.40	400.23
402.59	372.15
402.78	425.98
402.97	351.08
403.17	461.09
403.36	372.15
403.55	437.68
403.74	400.23
403.93	414.27
404.13	435.34
404.32	325.33
404.51	393.21
404.70	404.91
404.89	325.33
405.09	409.59
405.28	416.62
405.47	365.12
405.66	423.64
405.85	433.00
406.05	418.96
406.24	367.46
406.43	425.98
406.62	395.55
406.81	421.30
407.00	491.51
407.20	418.96
407.39	400.23
407.58	404.91
407.77	477.47
407.96	381.51
408.15	409.59
408.34	362.78
408.54	425.98
408.73	376.83
408.92	400.23
409.11	484.49
409.30	470.45
409.49	461.09
409.68	397.89
409.87	339.38
410.07	400.23
410.26	433.00
410.45	411.93
410.64	421.30
410.83	397.89
411.02	404.91
411.21	463.43
411.40	332.36
411.59	435.34
411.78	367.46
411.98	386.19
412.17	360.44
412.36	435.34
412.55	367.46
412.74	372.15
412.93	440.02
413.12	383.85
413.31	334.70
413.50	430.66
413.69	334.70
413.88	409.59
414.07	353.42
414.26	449.38
414.45	374.49
414.64	395.55
414.83	418.96
415.02	461.09
415.22	435.34
415.41	358.10
415.60	362.78
415.79	421.30
415.98	402.57
416.17	447.04
416.36	423.64
416.55	325.33
416.74	425.98
416.93	442.36
417.12	421.30
417.31	381.51
417.50	475.13
417.69	433.00
417.88	409.59
418.07	393.21
418.26	416.62
418.45	379.17
418.64	472.79
418.83	386.19
419.02	454.06
419.21	414.27
419.39	337.04
419.58	397.89
419.77	390.87
419.96	421.30
420.15	454.06
420.34	449.38
420.53	414.27
420.72	423.64
420.91	428.32
421.10	430.66
421.29	409.59
421.48	353.42
421.67	418.96
421.86	358.10
422.05	423.64
422.24	444.70
422.43	381.51
422.61	365.12
422.80	416.62
422.99	411.93
423.18	381.51
423.37	526.62
423.56	400.23
423.75	418.96
423.94	421.30
424.13	421.30
424.32	421.30
424.50	409.59
424.69	465.77
424.88	498.53
425.07	407.25
425.26	348.74
425.45	411.93
425.64	383.85
425.83	381.51
426.01	491.51
426.20	430.66
426.39	435.34
426.58	437.68
426.77	390.87
426.96	416.62
427.15	414.27
427.33	390.87
427.52	330.02
427.71	400.23
427.90	428.32
428.09	458.74
428.28	454.06
428.46	374.49
428.65	367.46
428.84	379.17
429.03	411.93
429.22	444.70
429.40	395.55
429.59	458.74
429.78	423.64
429.97	400.23
430.16	430.66
430.34	414.27
430.53	374.49
430.72	477.47
430.91	435.34
431.10	320.65
431.28	330.02
431.47	395.55
431.66	433.00
431.85	390.87
432.03	418.96
432.22	440.02
432.41	444.70
432.60	447.04
432.79	425.98
432.97	470.45
433.16	390.87
433.35	388.53
433.54	376.83
433.72	475.13
433.91	461.09
434.10	369.80
434.28	351.08
434.47	414.27
434.66	451.72
434.85	400.23
435.03	372.15
435.22	449.38
435.41	472.79
435.59	393.21
435.78	423.64
435.97	423.64
436.16	404.91
436.34	416.62
436.53	447.04
436.72	430.66
436.90	365.12
437.09	365.12
437.28	416.62
437.46	416.62
437.65	421.30
437.84	447.04
438.02	423.64
438.21	475.13
438.40	393.21
438.58	423.64
438.77	374.49
438.96	400.23
439.14	430.66
439.33	374.49
439.52	386.19
439.70	456.40
439.89	381.51
440.08	369.80
440.26	383.85
440.45	416.62
440.63	447.04
440.82	451.72
441.01	409.59
441.19	428.32
441.38	428.32
441.57	433.00
441.75	486.83
441.94	411.93
442.12	472.79
442.31	433.00
442.50	360.44
442.68	428.32
442.87	425.98
443.05	337.04
443.24	365.12
443.43	430.66
443.61	425.98
443.80	428.32
443.98	379.17
444.17	400.23
444.35	372.15
444.54	374.49
444.73	397.89
444.91	423.64
445.10	442.36
445.28	404.91
445.47	388.53
445.65	421.30
445.84	409.59
446.02	379.17
446.21	411.93
446.39	425.98
446.58	468.11
446.77	372.15
446.95	404.91
447.14	407.25
447.32	475.13
447.51	374.49
447.69	454.06
447.88	404.91
448.06	397.89
448.25	402.57
448.43	315.97
448.62	437.68
448.80	430.66
448.99	430.66
449.17	409.59
449.36	369.80
449.54	404.91
449.73	468.11
449.91	376.83
450.10	449.38
450.28	425.98
450.46	465.77
450.65	397.89
450.83	421.30
451.02	404.91
451.20	423.64
451.39	425.98
451.57	430.66
451.76	428.32
451.94	395.55
452.13	388.53
452.31	418.96
452.49	332.36
452.68	458.74
452.86	463.43
453.05	444.70
453.23	404.91
453.42	393.21
453.60	430.66
453.78	442.36
453.97	425.98
454.15	435.34
454.34	423.64
454.52	407.25
454.70	477.47
454.89	397.89
455.07	383.85
455.26	477.47
455.44	477.47
455.62	421.30
455.81	400.23
455.99	472.79
456.17	456.40
456.36	416.62
456.54	416.62
456.73	388.53
456.91	407.25
457.09	400.23
457.28	390.87
457.46	390.87
457.64	397.89
457.83	447.04
458.01	409.59
458.19	451.72
458.38	390.87
458.56	454.06
458.74	362.78
458.93	440.02
459.11	397.89
459.29	390.87
459.48	376.83
459.66	475.13
459.84	416.62
460.03	484.49
460.21	477.47
460.39	489.17
460.57	521.94
460.76	397.89
460.94	407.25
461.12	444.70
461.31	379.17
461.49	383.85
461.67	435.34
461.85	365.12
462.04	397.89
462.22	606.20
462.40	407.25
462.59	404.91
462.77	400.23
462.95	468.11
463.13	456.40
463.32	414.27
463.50	374.49
463.68	358.10
463.86	407.25
464.05	475.13
464.23	379.17
464.41	416.62
464.59	449.38
464.78	388.53
464.96	397.89
465.14	372.15
465.32	404.91
465.50	402.57
465.69	423.64
465.87	390.87
466.05	390.87
466.23	393.21
466.41	388.53
466.60	346.40
466.78	425.98
466.96	421.30
467.14	435.34
467.32	454.06
467.51	421.30
467.69	414.27
467.87	433.00
468.05	374.49
468.23	475.13
468.41	472.79
468.60	404.91
468.78	390.87
468.96	325.33
469.14	379.17
469.32	435.34
469.50	402.57
469.69	414.27
469.87	348.74
470.05	397.89
470.23	430.66
470.41	360.44
470.59	407.25
470.77	395.55
470.95	440.02
471.14	461.09
471.32	456.40
471.50	383.85
471.68	437.68
471.86	442.36
472.04	411.93
472.22	500.87
472.40	365.12
472.58	407.25
472.77	383.85
472.95	435.34
473.13	463.43
473.31	444.70
473.49	365.12
473.67	388.53
473.85	440.02
474.03	404.91
474.21	442.36
474.39	472.79
474.57	454.06
474.75	395.55
474.93	393.21
475.12	414.27
475.30	442.36
475.48	379.17
475.66	430.66
475.84	461.09
476.02	463.43
476.20	416.62
476.38	428.32
476.56	397.89
476.74	435.34
476.92	383.85
477.10	383.85
477.28	383.85
477.46	430.66
477.64	421.30
477.82	416.62
478.00	458.74
478.18	320.65
478.36	346.40
478.54	379.17
478.72	400.23
478.90	409.59
479.08	447.04
479.26	409.59
479.44	383.85
479.62	428.32
479.80	379.17
479.98	390.87
480.16	444.70
480.34	468.11
480.52	376.83
480.70	418.96
480.88	341.72
481.06	407.25
481.24	409.59
481.41	435.34
481.59	369.80
481.77	395.55
481.95	414.27
482.13	430.66
482.31	430.66
482.49	428.32
482.67	447.04
482.85	428.32
483.03	479.81
483.21	404.91
483.39	379.17
483.57	400.23
483.74	397.89
483.92	440.02
484.10	351.08
484.28	407.25
484.46	468.11
484.64	475.13
484.82	456.40
485.00	372.15
485.18	386.19
485.35	440.02
485.53	362.78
485.71	517.26
485.89	400.23
486.07	454.06
486.25	425.98
486.43	451.72
486.61	437.68
486.78	386.19
486.96	451.72
487.14	390.87
487.32	374.49
487.50	411.93
487.68	402.57
487.85	437.68
488.03	369.80
488.21	442.36
488.39	400.23
488.57	397.89
488.75	451.72
488.92	475.13
489.10	433.00
489.28	440.02
489.46	433.00
489.64	376.83
489.81	395.55
489.99	388.53
490.17	404.91
490.35	451.72
490.53	362.78
490.70	442.36
490.88	425.98
491.06	423.64
491.24	395.55
491.41	472.79
491.59	421.30
491.77	416.62
491.95	388.53
492.13	355.76
492.30	430.66
492.48	486.83
492.66	372.15
492.84	454.06
493.01	416.62
493.19	400.23
493.37	402.57
493.54	416.62
493.72	390.87
493.90	425.98
494.08	332.36
494.25	425.98
494.43	456.40
494.61	416.62
494.79	374.49
494.96	421.30
495.14	484.49
495.32	409.59
495.49	381.51
495.67	423.64
495.85	383.85
496.02	404.91
496.20	496.19
496.38	404.91
496.55	409.59
496.73	428.32
496.91	435.34
497.09	479.81
497.26	390.87
497.44	351.08
497.62	482.15
497.79	397.89
497.97	433.00
498.14	381.51
498.32	442.36
498.50	456.40
498.67	386.19
498.85	444.70
499.03	428.32
499.20	416.62
499.38	423.64
499.56	390.87
499.73	386.19
499.91	365.12
500.08	390.87
500.26	425.98
500.44	425.98
500.61	440.02
500.79	409.59
500.97	414.27
501.14	423.64
501.32	400.23
501.49	433.00
501.67	381.51
501.84	425.98
502.02	414.27
502.20	456.40
502.37	369.80
502.55	425.98
502.72	421.30
502.90	404.91
503.07	465.77
503.25	519.60
503.43	379.17
503.60	409.59
503.78	451.72
503.95	421.30
504.13	428.32
504.30	409.59
504.48	395.55
504.65	383.85
504.83	402.57
505.01	404.91
505.18	416.62
505.36	402.57
505.53	425.98
505.71	430.66
505.88	442.36
506.06	407.25
506.23	433.00
506.41	423.64
506.58	414.27
506.76	367.46
506.93	414.27
507.11	411.93
507.28	400.23
507.46	433.00
507.63	372.15
507.81	395.55
507.98	404.91
508.16	475.13
508.33	465.77
508.50	407.25
508.68	397.89
508.85	414.27
509.03	402.57
509.20	430.66
509.38	428.32
509.55	418.96
509.73	454.06
509.90	428.32
510.08	379.17
510.25	414.27
510.42	468.11
510.60	491.51
510.77	428.32
510.95	449.38
511.12	400.23
511.30	416.62
511.47	404.91
511.64	470.45
511.82	416.62
511.99	411.93
512.17	461.09
512.34	409.59
512.51	442.36
512.69	402.57
512.86	498.53
513.04	430.66
513.21	421.30
513.38	418.96
513.56	435.34
513.73	418.96
513.90	442.36
514.08	407.25
514.25	369.80
514.43	404.91
514.60	402.57
514.77	440.02
514.95	470.45
515.12	400.23
515.29	407.25
515.47	376.83
515.64	376.83
515.81	433.00
515.99	458.74
516.16	423.64
516.33	402.57
516.51	360.44
516.68	449.38
516.85	477.47
517.03	334.70
517.20	477.47
517.37	386.19
517.54	456.40
517.72	463.43
517.89	388.53
518.06	397.89
518.24	491.51
518.41	425.98
518.58	409.59
518.75	376.83
518.93	400.23
519.10	407.25
519.27	454.06
519.45	409.59
519.62	390.87
519.79	416.62
519.96	435.34
520.14	425.98
520.31	418.96
520.48	402.57
520.65	376.83
520.83	425.98
521.00	379.17
521.17	414.27
521.34	437.68
521.52	414.27
521.69	414.27
521.86	348.74
522.03	430.66
522.20	437.68
522.38	468.11
522.55	425.98
522.72	407.25
522.89	332.36
523.07	442.36
523.24	376.83
523.41	379.17
523.58	374.49
523.75	442.36
523.92	404.91
524.10	428.32
524.27	416.62
524.44	383.85
524.61	393.21
524.78	372.15
524.96	404.91
525.13	461.09
525.30	472.79
525.47	484.49
525.64	435.34
525.81	421.30
525.98	402.57
526.16	402.57
526.33	351.08
526.50	400.23
526.67	435.34
526.84	353.42
527.01	470.45
527.18	430.66
527.36	435.34
527.53	390.87
527.70	388.53
527.87	411.93
528.04	493.85
528.21	400.23
528.38	360.44
528.55	383.85
528.72	461.09
528.89	451.72
529.07	334.70
529.24	362.78
529.41	491.51
529.58	472.79
529.75	463.43
529.92	416.62
530.09	407.25
530.26	475.13
530.43	444.70
530.60	362.78
530.77	400.23
530.94	442.36
531.11	381.51
531.28	435.34
531.46	470.45
531.63	442.36
531.80	423.64
531.97	393.21
532.14	435.34
532.31	383.85
532.48	374.49
532.65	407.25
532.82	421.30
532.99	442.36
533.16	425.98
533.33	404.91
533.50	449.38
533.67	447.04
533.84	327.68
534.01	416.62
534.18	447.04
534.35	390.87
534.52	454.06
534.69	433.00
534.86	353.42
535.03	423.64
535.20	409.59
535.37	475.13
535.54	440.02
535.71	404.91
535.88	404.91
536.05	404.91
536.22	404.91
536.38	404.91
536.55	444.70
536.72	463.43
536.89	355.76
537.06	360.44
537.23	400.23
537.40	428.32
537.57	458.74
537.74	472.79
537.91	390.87
538.08	433.00
538.25	440.02
538.42	418.96
538.59	418.96
538.75	388.53
538.92	390.87
539.09	402.57
539.26	411.93
539.43	491.51
539.60	435.34
539.77	355.76
539.94	484.49
540.11	451.72
540.28	437.68
540.44	379.17
540.61	379.17
540.78	428.32
540.95	409.59
541.12	330.02
541.29	411.93
541.46	418.96
541.62	423.64
541.79	400.23
541.96	444.70
542.13	397.89
542.30	379.17
542.47	386.19
542.63	322.99
542.80	383.85
542.97	407.25
543.14	346.40
543.31	369.80
543.48	421.30
543.64	400.23
543.81	411.93
543.98	411.93
544.15	475.13
544.32	388.53
544.48	440.02
544.65	421.30
544.82	411.93
544.99	416.62
545.16	425.98
545.32	404.91
545.49	365.12
545.66	414.27
545.83	383.85
546.00	437.68
546.16	484.49
546.33	418.96
546.50	428.32
546.67	409.59
546.83	423.64
547.00	421.30
547.17	433.00
547.34	486.83
547.50	416.62
547.67	458.74
547.84	346.40
548.00	461.09
548.17	421.30
548.34	369.80
548.51	346.40
548.67	404.91
548.84	440.02
549.01	430.66
549.18	395.55
549.34	381.51
549.51	454.06
549.68	353.42
549.84	465.77
550.01	416.62
550.18	404.91
550.34	489.17
550.51	444.70
550.68	482.15
550.84	447.04
551.01	409.59
551.18	444.70
551.34	337.04
551.51	390.87
551.68	395.55
551.84	411.93
552.01	393.21
552.18	421.30
552.34	390.87
552.51	393.21
552.68	461.09
552.84	402.57
553.01	383.85
553.18	421.30
553.34	344.06
553.51	416.62
553.67	470.45
553.84	400.23
554.01	421.30
554.17	404.91
554.34	442.36
554.51	472.79
554.67	486.83
554.84	477.47
555.00	407.25
555.17	423.64
555.33	449.38
555.50	496.19
555.67	430.66
555.83	477.47
556.00	332.36
556.16	500.87
556.33	486.83
556.50	470.45
556.66	390.87
556.83	423.64
556.99	414.27
557.16	482.15
557.32	402.57
557.49	381.51
557.65	362.78
557.82	468.11
557.98	411.93
558.15	428.32
558.32	430.66
558.48	390.87
558.65	395.55
558.81	390.87
558.98	407.25
559.14	332.36
559.31	397.89
559.47	444.70
559.64	379.17
559.80	416.62
559.97	409.59
560.13	465.77
560.30	418.96
560.46	339.38
560.63	458.74
560.79	414.27
560.96	421.30
561.12	458.74
561.29	390.87
561.45	458.74
561.61	477.47
561.78	503.22
561.94	437.68
562.11	355.76
562.27	423.64
562.44	409.59
562.60	407.25
562.77	374.49
562.93	430.66
563.10	367.46
563.26	449.38
563.42	479.81
563.59	454.06
563.75	393.21
563.92	500.87
564.08	461.09
564.24	386.19
564.41	449.38
564.57	397.89
564.74	428.32
564.90	388.53
565.07	393.21
565.23	418.96
565.39	447.04
565.56	421.30
565.72	416.62
565.88	409.59
566.05	388.53
566.21	355.76
566.38	411.93
566.54	435.34
566.70	414.27
566.87	454.06
567.03	400.23
567.19	479.81
567.36	418.96
567.52	475.13
567.68	416.62
567.85	397.89
568.01	414.27
568.17	388.53
568.34	451.72
568.50	451.72
568.66	393.21
568.83	524.28
568.99	433.00
569.15	458.74
569.32	386.19
569.48	404.91
569.64	395.55
569.81	400.23
569.97	372.15
570.13	454.06
570.30	362.78
570.46	421.30
570.62	430.66
570.78	390.87
570.95	442.36
571.11	376.83
571.27	414.27
571.43	320.65
571.60	423.64
571.76	348.74
571.92	414.27
572.09	437.68
572.25	435.34
572.41	470.45
572.57	402.57
572.74	449.38
572.90	395.55
573.06	425.98
573.22	451.72
573.38	428.32
573.55	465.77
573.71	369.80
573.87	440.02
574.03	407.25
574.20	374.49
574.36	440.02
574.52	404.91
574.68	418.96
574.84	407.25
575.01	383.85
575.17	421.30
575.33	425.98
575.49	416.62
575.65	369.80
575.82	381.51
575.98	400.23
576.14	465.77
576.30	423.64
576.46	404.91
576.62	433.00
576.79	463.43
576.95	425.98
577.11	411.93
577.27	435.34
577.43	395.55
577.59	414.27
577.75	449.38
577.92	402.57
578.08	414.27
578.24	404.91
578.40	444.70
578.56	470.45
578.72	470.45
578.88	348.74
579.04	456.40
579.21	402.57
579.37	400.23
579.53	407.25
579.69	386.19
579.85	463.43
580.01	451.72
580.17	423.64
580.33	393.21
580.49	418.96
580.65	468.11
580.82	397.89
580.98	433.00
581.14	475.13
581.30	404.91
581.46	416.62
581.62	435.34
581.78	393.21
581.94	404.91
582.10	430.66
582.26	449.38
582.42	393.21
582.58	442.36
582.74	451.72
582.90	461.09
583.06	482.15
583.22	400.23
583.38	421.30
583.54	383.85
583.70	344.06
583.86	500.87
584.02	383.85
584.18	442.36
584.34	449.38
584.50	484.49
584.66	440.02
584.82	367.46
584.98	395.55
585.14	440.02
585.30	376.83
585.46	433.00
585.62	451.72
585.78	397.89
585.94	404.91
586.10	388.53
586.26	369.80
586.42	479.81
586.58	395.55
586.74	376.83
586.90	341.72
587.06	425.98
587.22	491.51
587.38	418.96
587.54	433.00
587.70	421.30
587.86	425.98
588.02	407.25
588.18	397.89
588.34	416.62
588.49	395.55
588.65	400.23
588.81	351.08
588.97	447.04
589.13	454.06
589.29	358.10
589.45	418.96
589.61	435.34
589.77	339.38
589.93	376.83
590.08	447.04
590.24	475.13
590.40	358.10
590.56	524.28
590.72	395.55
590.88	454.06
591.04	360.44
591.20	433.00
591.35	465.77
591.51	386.19
591.67	390.87
591.83	496.19
591.99	386.19
592.15	456.40
592.31	437.68
592.46	395.55
592.62	374.49
592.78	404.91
592.94	468.11
593.10	397.89
593.26	435.34
593.41	407.25
593.57	397.89
593.73	381.51
593.89	388.53
594.05	374.49
594.20	409.59
594.36	465.77
594.52	440.02
594.68	407.25
594.84	388.53
594.99	404.91
595.15	383.85
595.31	440.02
595.47	447.04
595.62	379.17
595.78	468.11
595.94	433.00
596.10	442.36
596.25	381.51
596.41	418.96
596.57	407.25
596.73	390.87
596.88	425.98
597.04	418.96
597.20	423.64
597.36	479.81
597.51	416.62
597.67	472.79
597.83	376.83
597.99	430.66
598.14	416.62
598.30	458.74
598.46	437.68
598.61	341.72
598.77	463.43
598.93	402.57
599.09	395.55
599.24	379.17
599.40	411.93
599.56	423.64
599.71	416.62
599.87	374.49
600.03	374.49
600.18	430.66
600.34	444.70
600.50	346.40
600.65	416.62
600.81	425.98
600.97	369.80
601.12	407.25
601.28	416.62
601.44	383.85
601.59	411.93
601.75	395.55
601.91	468.11
602.06	461.09
602.22	414.27
602.37	395.55
602.53	440.02
602.69	411.93
602.84	360.44
603.00	433.00
603.16	416.62
603.31	444.70
603.47	418.96
603.62	407.25
603.78	433.00
603.94	404.91
604.09	416.62
604.25	465.77
604.40	472.79
604.56	353.42
604.71	344.06
604.87	425.98
605.03	393.21
605.18	390.87
605.34	407.25
605.49	458.74
605.65	379.17
605.80	397.89
605.96	390.87
606.12	400.23
606.27	407.25
606.43	444.70
606.58	360.44
606.74	477.47
606.89	416.62
607.05	433.00
607.20	418.96
607.36	322.99
607.51	402.57
607.67	386.19
607.82	430.66
607.98	423.64
608.13	428.32
608.29	416.62
608.44	407.25
608.60	421.30
608.75	397.89
608.91	463.43
609.06	402.57
609.22	423.64
609.37	397.89
609.53	374.49
609.68	404.91
609.84	330.02
609.99	390.87
610.15	430.66
