SpectraSuite Data File
++++++++++++++++++++++++++++++++++++
Date: Fri Oct 25 12:10:12 EDT 2013
User: price-jones
Dark Spectrum Present: No
Reference Spectrum Present: No
Number of Sampled Component Spectra: 1
Spectrometers: USB2+H05261
Integration Time (usec): 100000 (USB2+H05261)
Spectra Averaged: 1 (USB2+H05261)
Boxcar Smoothing: 0 (USB2+H05261)
Correct for Electrical Dark: No (USB2+H05261)
Strobe/Lamp Enabled: No (USB2+H05261)
Correct for Detector Non-linearity: No (USB2+H05261)
Correct for Stray Light: No (USB2+H05261)
Number of Pixels in Processed Spectrum: 2048
>>>>>Begin Processed Spectral Data<<<<<
365.73	339.38
365.92	339.38
366.12	339.38
366.32	231.71
366.52	196.60
366.72	227.03
366.91	273.84
367.11	266.82
367.31	238.73
367.51	212.99
367.70	224.69
367.90	227.03
368.10	243.42
368.30	227.03
368.49	245.76
368.69	334.70
368.89	271.50
369.09	220.01
369.28	292.57
369.48	248.10
369.68	257.46
369.87	320.65
370.07	222.35
370.27	255.12
370.47	376.83
370.66	337.04
370.86	290.23
371.06	425.98
371.25	390.87
371.45	322.99
371.65	348.74
371.84	407.25
372.04	353.42
372.24	442.36
372.44	386.19
372.63	433.00
372.83	400.23
373.03	393.21
373.22	458.74
373.42	433.00
373.62	470.45
373.81	330.02
374.01	395.55
374.21	451.72
374.40	449.38
374.60	444.70
374.79	388.53
374.99	390.87
375.19	447.04
375.38	390.87
375.58	395.55
375.78	430.66
375.97	461.09
376.17	465.77
376.37	416.62
376.56	461.09
376.76	421.30
376.95	440.02
377.15	369.80
377.35	440.02
377.54	411.93
377.74	437.68
377.93	409.59
378.13	365.12
378.33	395.55
378.52	409.59
378.72	407.25
378.91	498.53
379.11	369.80
379.31	400.23
379.50	435.34
379.70	416.62
379.89	421.30
380.09	353.42
380.28	367.46
380.48	423.64
380.68	416.62
380.87	388.53
381.07	477.47
381.26	355.76
381.46	414.27
381.65	421.30
381.85	411.93
382.04	430.66
382.24	411.93
382.43	407.25
382.63	337.04
382.83	407.25
383.02	402.57
383.22	416.62
383.41	416.62
383.61	360.44
383.80	472.79
384.00	395.55
384.19	442.36
384.39	421.30
384.58	358.10
384.78	407.25
384.97	409.59
385.17	379.17
385.36	395.55
385.56	369.80
385.75	411.93
385.95	454.06
386.14	388.53
386.34	433.00
386.53	407.25
386.72	421.30
386.92	463.43
387.11	470.45
387.31	388.53
387.50	372.15
387.70	449.38
387.89	351.08
388.09	383.85
388.28	393.21
388.48	442.36
388.67	451.72
388.86	393.21
389.06	360.44
389.25	400.23
389.45	383.85
389.64	425.98
389.84	390.87
390.03	355.76
390.22	390.87
390.42	421.30
390.61	416.62
390.81	400.23
391.00	409.59
391.19	369.80
391.39	409.59
391.58	421.30
391.78	379.17
391.97	388.53
392.16	355.76
392.36	433.00
392.55	425.98
392.75	428.32
392.94	332.36
393.13	433.00
393.33	367.46
393.52	339.38
393.71	411.93
393.91	433.00
394.10	383.85
394.29	393.21
394.49	376.83
394.68	409.59
394.88	397.89
395.07	404.91
395.26	456.40
395.46	423.64
395.65	456.40
395.84	407.25
396.04	514.92
396.23	425.98
396.42	311.29
396.62	374.49
396.81	407.25
397.00	386.19
397.19	402.57
397.39	407.25
397.58	379.17
397.77	388.53
397.97	404.91
398.16	433.00
398.35	358.10
398.55	369.80
398.74	397.89
398.93	451.72
399.12	369.80
399.32	360.44
399.51	348.74
399.70	379.17
399.90	355.76
400.09	369.80
400.28	372.15
400.47	479.81
400.67	388.53
400.86	437.68
401.05	491.51
401.24	407.25
401.44	411.93
401.63	465.77
401.82	433.00
402.01	360.44
402.21	390.87
402.40	437.68
402.59	351.08
402.78	397.89
402.97	442.36
403.17	428.32
403.36	395.55
403.55	369.80
403.74	421.30
403.93	348.74
404.13	348.74
404.32	397.89
404.51	383.85
404.70	449.38
404.89	367.46
405.09	400.23
405.28	430.66
405.47	421.30
405.66	376.83
405.85	376.83
406.05	365.12
406.24	397.89
406.43	402.57
406.62	369.80
406.81	423.64
407.00	416.62
407.20	418.96
407.39	369.80
407.58	456.40
407.77	402.57
407.96	393.21
408.15	409.59
408.34	376.83
408.54	444.70
408.73	433.00
408.92	379.17
409.11	496.19
409.30	407.25
409.49	433.00
409.68	395.55
409.87	395.55
410.07	390.87
410.26	383.85
410.45	430.66
410.64	379.17
410.83	376.83
411.02	402.57
411.21	367.46
411.40	428.32
411.59	315.97
411.78	386.19
411.98	404.91
412.17	360.44
412.36	395.55
412.55	379.17
412.74	315.97
412.93	421.30
413.12	407.25
413.31	425.98
413.50	351.08
413.69	376.83
413.88	447.04
414.07	461.09
414.26	344.06
414.45	390.87
414.64	416.62
414.83	451.72
415.02	376.83
415.22	379.17
415.41	407.25
415.60	409.59
415.79	416.62
415.98	397.89
416.17	442.36
416.36	440.02
416.55	390.87
416.74	425.98
416.93	411.93
417.12	383.85
417.31	381.51
417.50	411.93
417.69	465.77
417.88	423.64
418.07	292.57
418.26	428.32
418.45	390.87
418.64	430.66
418.83	421.30
419.02	372.15
419.21	472.79
419.39	360.44
419.58	404.91
419.77	449.38
419.96	456.40
420.15	421.30
420.34	388.53
420.53	379.17
420.72	430.66
420.91	414.27
421.10	447.04
421.29	395.55
421.48	388.53
421.67	425.98
421.86	437.68
422.05	400.23
422.24	404.91
422.43	388.53
422.61	390.87
422.80	411.93
422.99	397.89
423.18	395.55
423.37	454.06
423.56	423.64
423.75	442.36
423.94	524.28
424.13	440.02
424.32	407.25
424.50	484.49
424.69	386.19
424.88	390.87
425.07	379.17
425.26	421.30
425.45	365.12
425.64	383.85
425.83	341.72
426.01	411.93
426.20	465.77
426.39	470.45
426.58	402.57
426.77	372.15
426.96	528.96
427.15	451.72
427.33	416.62
427.52	411.93
427.71	418.96
427.90	449.38
428.09	521.94
428.28	367.46
428.46	425.98
428.65	465.77
428.84	425.98
429.03	430.66
429.22	395.55
429.40	414.27
429.59	353.42
429.78	435.34
429.97	353.42
430.16	404.91
430.34	456.40
430.53	395.55
430.72	404.91
430.91	472.79
431.10	360.44
431.28	444.70
431.47	463.43
431.66	341.72
431.85	421.30
432.03	418.96
432.22	484.49
432.41	379.17
432.60	477.47
432.79	461.09
432.97	374.49
433.16	418.96
433.35	461.09
433.54	425.98
433.72	454.06
433.91	407.25
434.10	404.91
434.28	395.55
434.47	418.96
434.66	423.64
434.85	362.78
435.03	423.64
435.22	479.81
435.41	379.17
435.59	463.43
435.78	463.43
435.97	414.27
436.16	414.27
436.34	425.98
436.53	430.66
436.72	477.47
436.90	440.02
437.09	376.83
437.28	442.36
437.46	376.83
437.65	498.53
437.84	367.46
438.02	447.04
438.21	498.53
438.40	397.89
438.58	400.23
438.77	411.93
438.96	449.38
439.14	402.57
439.33	442.36
439.52	437.68
439.70	409.59
439.89	393.21
440.08	449.38
440.26	465.77
440.45	484.49
440.63	430.66
440.82	390.87
441.01	414.27
441.19	393.21
441.38	437.68
441.57	365.12
441.75	404.91
441.94	444.70
442.12	397.89
442.31	482.15
442.50	430.66
442.68	374.49
442.87	421.30
443.05	449.38
443.24	393.21
443.43	409.59
443.61	433.00
443.80	386.19
443.98	397.89
444.17	372.15
444.35	465.77
444.54	367.46
444.73	430.66
444.91	409.59
445.10	397.89
445.28	397.89
445.47	344.06
445.65	393.21
445.84	440.02
446.02	404.91
446.21	348.74
446.39	440.02
446.58	409.59
446.77	430.66
446.95	411.93
447.14	388.53
447.32	430.66
447.51	395.55
447.69	374.49
447.88	428.32
448.06	486.83
448.25	449.38
448.43	365.12
448.62	358.10
448.80	390.87
448.99	437.68
449.17	454.06
449.36	353.42
449.54	386.19
449.73	400.23
449.91	402.57
450.10	407.25
450.28	449.38
450.46	482.15
450.65	379.17
450.83	409.59
451.02	358.10
451.20	400.23
451.39	386.19
451.57	444.70
451.76	414.27
451.94	435.34
452.13	454.06
452.31	411.93
452.49	421.30
452.68	430.66
452.86	470.45
453.05	472.79
453.23	404.91
453.42	355.76
453.60	440.02
453.78	404.91
453.97	418.96
454.15	290.23
454.34	372.15
454.52	339.38
454.70	418.96
454.89	440.02
455.07	447.04
455.26	376.83
455.44	379.17
455.62	414.27
455.81	376.83
455.99	407.25
456.17	423.64
456.36	477.47
456.54	397.89
456.73	358.10
456.91	414.27
457.09	465.77
457.28	416.62
457.46	470.45
457.64	414.27
457.83	383.85
458.01	404.91
458.19	388.53
458.38	365.12
458.56	435.34
458.74	395.55
458.93	409.59
459.11	423.64
459.29	374.49
459.48	425.98
459.66	365.12
459.84	362.78
460.03	425.98
460.21	402.57
460.39	379.17
460.57	358.10
460.76	444.70
460.94	418.96
461.12	372.15
461.31	444.70
461.49	425.98
461.67	397.89
461.85	454.06
462.04	423.64
462.22	777.06
462.40	400.23
462.59	402.57
462.77	351.08
462.95	386.19
463.13	341.72
463.32	451.72
463.50	395.55
463.68	379.17
463.86	425.98
464.05	365.12
464.23	489.17
464.41	442.36
464.59	416.62
464.78	402.57
464.96	390.87
465.14	449.38
465.32	372.15
465.50	402.57
465.69	393.21
465.87	388.53
466.05	390.87
466.23	430.66
466.41	367.46
466.60	379.17
466.78	411.93
466.96	440.02
467.14	444.70
467.32	341.72
467.51	451.72
467.69	411.93
467.87	447.04
468.05	433.00
468.23	421.30
468.41	369.80
468.60	393.21
468.78	332.36
468.96	397.89
469.14	360.44
469.32	325.33
469.50	395.55
469.69	365.12
469.87	383.85
470.05	381.51
470.23	465.77
470.41	456.40
470.59	404.91
470.77	465.77
470.95	379.17
471.14	386.19
471.32	379.17
471.50	409.59
471.68	440.02
471.86	411.93
472.04	372.15
472.22	435.34
472.40	411.93
472.58	447.04
472.77	451.72
472.95	435.34
473.13	425.98
473.31	493.85
473.49	407.25
473.67	383.85
473.85	437.68
474.03	444.70
474.21	425.98
474.39	386.19
474.57	447.04
474.75	411.93
474.93	355.76
475.12	468.11
475.30	404.91
475.48	386.19
475.66	397.89
475.84	435.34
476.02	421.30
476.20	447.04
476.38	388.53
476.56	496.19
476.74	423.64
476.92	428.32
477.10	360.44
477.28	409.59
477.46	386.19
477.64	379.17
477.82	367.46
478.00	390.87
478.18	425.98
478.36	365.12
478.54	416.62
478.72	404.91
478.90	355.76
479.08	503.22
479.26	440.02
479.44	402.57
479.62	348.74
479.80	386.19
479.98	381.51
480.16	421.30
480.34	355.76
480.52	411.93
480.70	472.79
480.88	423.64
481.06	449.38
481.24	456.40
481.41	407.25
481.59	372.15
481.77	367.46
481.95	407.25
482.13	475.13
482.31	435.34
482.49	388.53
482.67	372.15
482.85	411.93
483.03	402.57
483.21	374.49
483.39	334.70
483.57	390.87
483.74	433.00
483.92	409.59
484.10	400.23
484.28	376.83
484.46	505.56
484.64	383.85
484.82	402.57
485.00	421.30
485.18	421.30
485.35	369.80
485.53	456.40
485.71	444.70
485.89	428.32
486.07	386.19
486.25	402.57
486.43	369.80
486.61	440.02
486.78	421.30
486.96	411.93
487.14	407.25
487.32	456.40
487.50	468.11
487.68	486.83
487.85	404.91
488.03	416.62
488.21	461.09
488.39	367.46
488.57	407.25
488.75	301.93
488.92	472.79
489.10	376.83
489.28	447.04
489.46	421.30
489.64	369.80
489.81	358.10
489.99	402.57
490.17	421.30
490.35	456.40
490.53	397.89
490.70	461.09
490.88	337.04
491.06	447.04
491.24	447.04
491.41	496.19
491.59	367.46
491.77	400.23
491.95	386.19
492.13	397.89
492.30	421.30
492.48	468.11
492.66	463.43
492.84	437.68
493.01	496.19
493.19	379.17
493.37	491.51
493.54	498.53
493.72	449.38
493.90	444.70
494.08	367.46
494.25	416.62
494.43	388.53
494.61	414.27
494.79	400.23
494.96	362.78
495.14	440.02
495.32	362.78
495.49	409.59
495.67	409.59
495.85	418.96
496.02	414.27
496.20	435.34
496.38	465.77
496.55	383.85
496.73	416.62
496.91	407.25
497.09	320.65
497.26	477.47
497.44	372.15
497.62	411.93
497.79	447.04
497.97	440.02
498.14	470.45
498.32	411.93
498.50	423.64
498.67	428.32
498.85	435.34
499.03	358.10
499.20	393.21
499.38	496.19
499.56	421.30
499.73	433.00
499.91	435.34
500.08	440.02
500.26	425.98
500.44	376.83
500.61	400.23
500.79	327.68
500.97	404.91
501.14	425.98
501.32	407.25
501.49	435.34
501.67	423.64
501.84	423.64
502.02	402.57
502.20	437.68
502.37	404.91
502.55	425.98
502.72	433.00
502.90	397.89
503.07	444.70
503.25	414.27
503.43	433.00
503.60	404.91
503.78	411.93
503.95	400.23
504.13	285.55
504.30	367.46
504.48	444.70
504.65	393.21
504.83	365.12
505.01	421.30
505.18	379.17
505.36	461.09
505.53	421.30
505.71	367.46
505.88	454.06
506.06	348.74
506.23	397.89
506.41	402.57
506.58	482.15
506.76	456.40
506.93	404.91
507.11	376.83
507.28	390.87
507.46	327.68
507.63	418.96
507.81	388.53
507.98	334.70
508.16	428.32
508.33	482.15
508.50	407.25
508.68	332.36
508.85	374.49
509.03	423.64
509.20	416.62
509.38	447.04
509.55	428.32
509.73	397.89
509.90	458.74
510.08	388.53
510.25	414.27
510.42	409.59
510.60	346.40
510.77	428.32
510.95	458.74
511.12	374.49
511.30	404.91
511.47	425.98
511.64	482.15
511.82	421.30
511.99	407.25
512.17	411.93
512.34	376.83
512.51	449.38
512.69	355.76
512.86	470.45
513.04	362.78
513.21	451.72
513.38	442.36
513.56	390.87
513.73	393.21
513.90	393.21
514.08	383.85
514.25	400.23
514.43	397.89
514.60	421.30
514.77	374.49
514.95	404.91
515.12	437.68
515.29	428.32
515.47	348.74
515.64	477.47
515.81	435.34
515.99	449.38
516.16	416.62
516.33	458.74
516.51	395.55
516.68	409.59
516.85	486.83
517.03	372.15
517.20	449.38
517.37	395.55
517.54	397.89
517.72	393.21
517.89	425.98
518.06	425.98
518.24	440.02
518.41	491.51
518.58	475.13
518.75	463.43
518.93	468.11
519.10	395.55
519.27	423.64
519.45	461.09
519.62	454.06
519.79	440.02
519.96	397.89
520.14	372.15
520.31	477.47
520.48	416.62
520.65	440.02
520.83	451.72
521.00	528.96
521.17	479.81
521.34	461.09
521.52	421.30
521.69	381.51
521.86	404.91
522.03	404.91
522.20	475.13
522.38	390.87
522.55	414.27
522.72	496.19
522.89	442.36
523.07	465.77
523.24	461.09
523.41	416.62
523.58	379.17
523.75	437.68
523.92	365.12
524.10	447.04
524.27	393.21
524.44	444.70
524.61	416.62
524.78	444.70
524.96	454.06
525.13	376.83
525.30	463.43
525.47	435.34
525.64	360.44
525.81	404.91
525.98	374.49
526.16	367.46
526.33	440.02
526.50	353.42
526.67	447.04
526.84	379.17
527.01	411.93
527.18	416.62
527.36	425.98
527.53	456.40
527.70	456.40
527.87	507.90
528.04	449.38
528.21	402.57
528.38	451.72
528.55	440.02
528.72	397.89
528.89	402.57
529.07	388.53
529.24	404.91
529.41	440.02
529.58	503.22
529.75	395.55
529.92	449.38
530.09	470.45
530.26	395.55
530.43	414.27
530.60	430.66
530.77	423.64
530.94	369.80
531.11	411.93
531.28	435.34
531.46	423.64
531.63	395.55
531.80	451.72
531.97	397.89
532.14	393.21
532.31	402.57
532.48	376.83
532.65	416.62
532.82	423.64
532.99	388.53
533.16	416.62
533.33	435.34
533.50	400.23
533.67	369.80
533.84	423.64
534.01	367.46
534.18	425.98
534.35	393.21
534.52	461.09
534.69	381.51
534.86	416.62
535.03	351.08
535.20	440.02
535.37	472.79
535.54	421.30
535.71	458.74
535.88	435.34
536.05	390.87
536.22	388.53
536.38	376.83
536.55	484.49
536.72	402.57
536.89	365.12
537.06	393.21
537.23	334.70
537.40	395.55
537.57	437.68
537.74	397.89
537.91	442.36
538.08	491.51
538.25	507.90
538.42	447.04
538.59	451.72
538.75	376.83
538.92	411.93
539.09	421.30
539.26	425.98
539.43	390.87
539.60	353.42
539.77	376.83
539.94	379.17
540.11	435.34
540.28	442.36
540.44	468.11
540.61	421.30
540.78	451.72
540.95	337.04
541.12	465.77
541.29	435.34
541.46	461.09
541.62	465.77
541.79	402.57
541.96	465.77
542.13	397.89
542.30	369.80
542.47	465.77
542.63	358.10
542.80	407.25
542.97	435.34
543.14	428.32
543.31	383.85
543.48	400.23
543.64	362.78
543.81	442.36
543.98	437.68
544.15	409.59
544.32	397.89
544.48	437.68
544.65	437.68
544.82	484.49
544.99	360.44
545.16	416.62
545.32	369.80
545.49	463.43
545.66	360.44
545.83	444.70
546.00	365.12
546.16	344.06
546.33	447.04
546.50	322.99
546.67	418.96
546.83	444.70
547.00	437.68
547.17	362.78
547.34	493.85
547.50	407.25
547.67	456.40
547.84	395.55
548.00	430.66
548.17	421.30
548.34	458.74
548.51	484.49
548.67	414.27
548.84	411.93
549.01	407.25
549.18	407.25
549.34	430.66
549.51	433.00
549.68	472.79
549.84	444.70
550.01	416.62
550.18	475.13
550.34	498.53
550.51	484.49
550.68	416.62
550.84	362.78
551.01	407.25
551.18	430.66
551.34	454.06
551.51	344.06
551.68	496.19
551.84	423.64
552.01	409.59
552.18	400.23
552.34	407.25
552.51	404.91
552.68	461.09
552.84	418.96
553.01	411.93
553.18	416.62
553.34	365.12
553.51	369.80
553.67	425.98
553.84	479.81
554.01	503.22
554.17	470.45
554.34	407.25
554.51	390.87
554.67	440.02
554.84	428.32
555.00	376.83
555.17	402.57
555.33	456.40
555.50	416.62
555.67	491.51
555.83	407.25
556.00	442.36
556.16	482.15
556.33	470.45
556.50	374.49
556.66	397.89
556.83	447.04
556.99	353.42
557.16	367.46
557.32	404.91
557.49	409.59
557.65	407.25
557.82	369.80
557.98	486.83
558.15	414.27
558.32	447.04
558.48	344.06
558.65	416.62
558.81	409.59
558.98	458.74
559.14	390.87
559.31	470.45
559.47	468.11
559.64	407.25
559.80	451.72
559.97	397.89
560.13	418.96
560.30	351.08
560.46	407.25
560.63	447.04
560.79	425.98
560.96	416.62
561.12	369.80
561.29	353.42
561.45	390.87
561.61	409.59
561.78	458.74
561.94	463.43
562.11	390.87
562.27	409.59
562.44	376.83
562.60	395.55
562.77	416.62
562.93	498.53
563.10	402.57
563.26	313.63
563.42	414.27
563.59	409.59
563.75	447.04
563.92	386.19
564.08	423.64
564.24	440.02
564.41	458.74
564.57	390.87
564.74	425.98
564.90	374.49
565.07	447.04
565.23	444.70
565.39	351.08
565.56	379.17
565.72	393.21
565.88	482.15
566.05	376.83
566.21	351.08
566.38	402.57
566.54	421.30
566.70	444.70
566.87	418.96
567.03	463.43
567.19	395.55
567.36	402.57
567.52	353.42
567.68	442.36
567.85	416.62
568.01	435.34
568.17	477.47
568.34	416.62
568.50	444.70
568.66	374.49
568.83	498.53
568.99	465.77
569.15	475.13
569.32	433.00
569.48	365.12
569.64	447.04
569.81	355.76
569.97	390.87
570.13	418.96
570.30	374.49
570.46	449.38
570.62	369.80
570.78	381.51
570.95	351.08
571.11	418.96
571.27	500.87
571.43	409.59
571.60	397.89
571.76	388.53
571.92	400.23
572.09	411.93
572.25	402.57
572.41	393.21
572.57	451.72
572.74	468.11
572.90	367.46
573.06	451.72
573.22	461.09
573.38	425.98
573.55	407.25
573.71	416.62
573.87	472.79
574.03	383.85
574.20	451.72
574.36	430.66
574.52	395.55
574.68	430.66
574.84	442.36
575.01	451.72
575.17	407.25
575.33	372.15
575.49	449.38
575.65	475.13
575.82	465.77
575.98	512.58
576.14	463.43
576.30	404.91
576.46	397.89
576.62	416.62
576.79	376.83
576.95	416.62
577.11	404.91
577.27	369.80
577.43	425.98
577.59	449.38
577.75	418.96
577.92	400.23
578.08	425.98
578.24	421.30
578.40	376.83
578.56	421.30
578.72	393.21
578.88	397.89
579.04	425.98
579.21	428.32
579.37	423.64
579.53	400.23
579.69	388.53
579.85	390.87
580.01	463.43
580.17	498.53
580.33	402.57
580.49	383.85
580.65	395.55
580.82	381.51
580.98	407.25
581.14	271.50
581.30	449.38
581.46	414.27
581.62	430.66
581.78	367.46
581.94	428.32
582.10	393.21
582.26	430.66
582.42	395.55
582.58	372.15
582.74	379.17
582.90	411.93
583.06	369.80
583.22	430.66
583.38	367.46
583.54	400.23
583.70	372.15
583.86	386.19
584.02	367.46
584.18	461.09
584.34	379.17
584.50	465.77
584.66	447.04
584.82	411.93
584.98	442.36
585.14	379.17
585.30	407.25
585.46	428.32
585.62	379.17
585.78	379.17
585.94	409.59
586.10	383.85
586.26	430.66
586.42	379.17
586.58	367.46
586.74	374.49
586.90	379.17
587.06	437.68
587.22	449.38
587.38	395.55
587.54	404.91
587.70	423.64
587.86	451.72
588.02	472.79
588.18	440.02
588.34	470.45
588.49	313.63
588.65	397.89
588.81	418.96
588.97	372.15
589.13	447.04
589.29	444.70
589.45	430.66
589.61	454.06
589.77	475.13
589.93	409.59
590.08	397.89
590.24	395.55
590.40	463.43
590.56	395.55
590.72	468.11
590.88	386.19
591.04	388.53
591.20	425.98
591.35	498.53
591.51	479.81
591.67	355.76
591.83	358.10
591.99	402.57
592.15	397.89
592.31	444.70
592.46	411.93
592.62	404.91
592.78	404.91
592.94	411.93
593.10	395.55
593.26	456.40
593.41	440.02
593.57	447.04
593.73	454.06
593.89	505.56
594.05	358.10
594.20	390.87
594.36	407.25
594.52	435.34
594.68	400.23
594.84	458.74
594.99	428.32
595.15	475.13
595.31	449.38
595.47	428.32
595.62	397.89
595.78	383.85
595.94	400.23
596.10	425.98
596.25	393.21
596.41	517.26
596.57	461.09
596.73	484.49
596.88	440.02
597.04	449.38
597.20	449.38
597.36	393.21
597.51	409.59
597.67	430.66
597.83	400.23
597.99	451.72
598.14	393.21
598.30	500.87
598.46	500.87
598.61	465.77
598.77	435.34
598.93	423.64
599.09	449.38
599.24	402.57
599.40	418.96
599.56	416.62
599.71	463.43
599.87	451.72
600.03	430.66
600.18	461.09
600.34	374.49
600.50	477.47
600.65	477.47
600.81	414.27
600.97	374.49
601.12	414.27
601.28	435.34
601.44	437.68
601.59	351.08
601.75	414.27
601.91	423.64
602.06	423.64
602.22	479.81
602.37	355.76
602.53	416.62
602.69	449.38
602.84	435.34
603.00	430.66
603.16	477.47
603.31	430.66
603.47	351.08
603.62	388.53
603.78	442.36
603.94	463.43
604.09	418.96
604.25	442.36
604.40	440.02
604.56	409.59
604.71	414.27
604.87	383.85
605.03	414.27
605.18	386.19
605.34	430.66
605.49	472.79
605.65	423.64
605.80	430.66
605.96	461.09
606.12	468.11
606.27	425.98
606.43	416.62
606.58	381.51
606.74	374.49
606.89	468.11
607.05	414.27
607.20	374.49
607.36	414.27
607.51	365.12
607.67	479.81
607.82	397.89
607.98	414.27
608.13	430.66
608.29	411.93
608.44	447.04
608.60	416.62
608.75	409.59
608.91	395.55
609.06	440.02
609.22	458.74
609.37	367.46
609.53	360.44
609.68	416.62
609.84	433.00
609.99	411.93
610.15	407.25
