SpectraSuite Data File
++++++++++++++++++++++++++++++++++++
Date: Fri Oct 25 12:11:24 EDT 2013
User: price-jones
Dark Spectrum Present: No
Reference Spectrum Present: No
Number of Sampled Component Spectra: 1
Spectrometers: USB2+H05261
Integration Time (usec): 100000 (USB2+H05261)
Spectra Averaged: 1 (USB2+H05261)
Boxcar Smoothing: 0 (USB2+H05261)
Correct for Electrical Dark: No (USB2+H05261)
Strobe/Lamp Enabled: No (USB2+H05261)
Correct for Detector Non-linearity: No (USB2+H05261)
Correct for Stray Light: No (USB2+H05261)
Number of Pixels in Processed Spectrum: 2048
>>>>>Begin Processed Spectral Data<<<<<
365.73	311.29
365.92	311.29
366.12	311.29
366.32	318.31
366.52	201.29
366.72	215.33
366.91	259.80
367.11	238.73
367.31	196.60
367.51	290.23
367.70	262.14
367.90	182.56
368.10	250.44
368.30	304.27
368.49	224.69
368.69	290.23
368.89	301.93
369.09	269.16
369.28	294.91
369.48	262.14
369.68	341.72
369.87	358.10
370.07	280.86
370.27	330.02
370.47	330.02
370.66	325.33
370.86	322.99
371.06	397.89
371.25	362.78
371.45	372.15
371.65	428.32
371.84	351.08
372.04	430.66
372.24	407.25
372.44	348.74
372.63	428.32
372.83	360.44
373.03	386.19
373.22	337.04
373.42	395.55
373.62	393.21
373.81	400.23
374.01	449.38
374.21	428.32
374.40	374.49
374.60	479.81
374.79	440.02
374.99	430.66
375.19	468.11
375.38	418.96
375.58	435.34
375.78	451.72
375.97	496.19
376.17	482.15
376.37	444.70
376.56	402.57
376.76	414.27
376.95	433.00
377.15	458.74
377.35	397.89
377.54	404.91
377.74	365.12
377.93	402.57
378.13	404.91
378.33	374.49
378.52	374.49
378.72	285.55
378.91	465.77
379.11	369.80
379.31	372.15
379.50	374.49
379.70	470.45
379.89	404.91
380.09	416.62
380.28	355.76
380.48	444.70
380.68	404.91
380.87	376.83
381.07	423.64
381.26	454.06
381.46	442.36
381.65	386.19
381.85	346.40
382.04	365.12
382.24	372.15
382.43	472.79
382.63	386.19
382.83	428.32
383.02	425.98
383.22	458.74
383.41	418.96
383.61	402.57
383.80	461.09
384.00	425.98
384.19	435.34
384.39	423.64
384.58	341.72
384.78	404.91
384.97	437.68
385.17	442.36
385.36	482.15
385.56	416.62
385.75	428.32
385.95	421.30
386.14	355.76
386.34	358.10
386.53	304.27
386.72	472.79
386.92	400.23
387.11	381.51
387.31	472.79
387.50	320.65
387.70	334.70
387.89	400.23
388.09	414.27
388.28	379.17
388.48	463.43
388.67	458.74
388.86	447.04
389.06	409.59
389.25	404.91
389.45	505.56
389.64	400.23
389.84	475.13
390.03	393.21
390.22	414.27
390.42	409.59
390.61	435.34
390.81	458.74
391.00	383.85
391.19	414.27
391.39	425.98
391.58	409.59
391.78	437.68
391.97	383.85
392.16	397.89
392.36	407.25
392.55	472.79
392.75	442.36
392.94	379.17
393.13	458.74
393.33	433.00
393.52	381.51
393.71	393.21
393.91	374.49
394.10	344.06
394.29	372.15
394.49	393.21
394.68	395.55
394.88	437.68
395.07	475.13
395.26	346.40
395.46	313.63
395.65	381.51
395.84	397.89
396.04	533.64
396.23	383.85
396.42	404.91
396.62	397.89
396.81	458.74
397.00	374.49
397.19	421.30
397.39	451.72
397.58	397.89
397.77	330.02
397.97	428.32
398.16	407.25
398.35	351.08
398.55	468.11
398.74	390.87
398.93	407.25
399.12	355.76
399.32	411.93
399.51	479.81
399.70	416.62
399.90	374.49
400.09	416.62
400.28	498.53
400.47	421.30
400.67	414.27
400.86	444.70
401.05	416.62
401.24	430.66
401.44	369.80
401.63	435.34
401.82	386.19
402.01	395.55
402.21	411.93
402.40	360.44
402.59	344.06
402.78	468.11
402.97	365.12
403.17	400.23
403.36	444.70
403.55	418.96
403.74	458.74
403.93	388.53
404.13	362.78
404.32	423.64
404.51	341.72
404.70	423.64
404.89	379.17
405.09	386.19
405.28	414.27
405.47	416.62
405.66	355.76
405.85	440.02
406.05	461.09
406.24	416.62
406.43	444.70
406.62	393.21
406.81	484.49
407.00	470.45
407.20	416.62
407.39	447.04
407.58	341.72
407.77	355.76
407.96	430.66
408.15	444.70
408.34	386.19
408.54	418.96
408.73	395.55
408.92	447.04
409.11	404.91
409.30	341.72
409.49	397.89
409.68	393.21
409.87	362.78
410.07	409.59
410.26	341.72
410.45	351.08
410.64	388.53
410.83	437.68
411.02	395.55
411.21	444.70
411.40	435.34
411.59	404.91
411.78	454.06
411.98	397.89
412.17	381.51
412.36	351.08
412.55	318.31
412.74	402.57
412.93	409.59
413.12	411.93
413.31	374.49
413.50	365.12
413.69	372.15
413.88	381.51
414.07	451.72
414.26	442.36
414.45	451.72
414.64	428.32
414.83	444.70
415.02	402.57
415.22	397.89
415.41	442.36
415.60	339.38
415.79	322.99
415.98	465.77
416.17	365.12
416.36	397.89
416.55	418.96
416.74	397.89
416.93	444.70
417.12	409.59
417.31	465.77
417.50	418.96
417.69	437.68
417.88	500.87
418.07	334.70
418.26	397.89
418.45	383.85
418.64	402.57
418.83	411.93
419.02	425.98
419.21	433.00
419.39	454.06
419.58	395.55
419.77	404.91
419.96	411.93
420.15	423.64
420.34	409.59
420.53	390.87
420.72	411.93
420.91	397.89
421.10	411.93
421.29	407.25
421.48	449.38
421.67	330.02
421.86	433.00
422.05	447.04
422.24	397.89
422.43	475.13
422.61	430.66
422.80	472.79
422.99	468.11
423.18	430.66
423.37	451.72
423.56	411.93
423.75	416.62
423.94	440.02
424.13	369.80
424.32	423.64
424.50	440.02
424.69	404.91
424.88	393.21
425.07	386.19
425.26	454.06
425.45	390.87
425.64	362.78
425.83	414.27
426.01	456.40
426.20	390.87
426.39	437.68
426.58	451.72
426.77	440.02
426.96	381.51
427.15	418.96
427.33	402.57
427.52	353.42
427.71	463.43
427.90	376.83
428.09	395.55
428.28	430.66
428.46	425.98
428.65	416.62
428.84	360.44
429.03	411.93
429.22	416.62
429.40	449.38
429.59	418.96
429.78	458.74
429.97	393.21
430.16	428.32
430.34	402.57
430.53	418.96
430.72	475.13
430.91	430.66
431.10	397.89
431.28	423.64
431.47	451.72
431.66	447.04
431.85	395.55
432.03	421.30
432.22	430.66
432.41	402.57
432.60	451.72
432.79	421.30
432.97	447.04
433.16	414.27
433.35	430.66
433.54	421.30
433.72	416.62
433.91	486.83
434.10	339.38
434.28	454.06
434.47	390.87
434.66	454.06
434.85	477.47
435.03	477.47
435.22	428.32
435.41	435.34
435.59	482.15
435.78	416.62
435.97	449.38
436.16	334.70
436.34	451.72
436.53	395.55
436.72	400.23
436.90	430.66
437.09	463.43
437.28	381.51
437.46	362.78
437.65	362.78
437.84	379.17
438.02	372.15
438.21	418.96
438.40	374.49
438.58	362.78
438.77	418.96
438.96	437.68
439.14	376.83
439.33	444.70
439.52	449.38
439.70	468.11
439.89	491.51
440.08	397.89
440.26	465.77
440.45	514.92
440.63	402.57
440.82	362.78
441.01	482.15
441.19	451.72
441.38	348.74
441.57	358.10
441.75	430.66
441.94	393.21
442.12	344.06
442.31	437.68
442.50	517.26
442.68	397.89
442.87	409.59
443.05	421.30
443.24	437.68
443.43	465.77
443.61	449.38
443.80	374.49
443.98	348.74
444.17	397.89
444.35	421.30
444.54	416.62
444.73	414.27
444.91	390.87
445.10	395.55
445.28	383.85
445.47	346.40
445.65	367.46
445.84	430.66
446.02	318.31
446.21	395.55
446.39	374.49
446.58	500.87
446.77	428.32
446.95	365.12
447.14	372.15
447.32	437.68
447.51	463.43
447.69	461.09
447.88	355.76
448.06	510.24
448.25	428.32
448.43	376.83
448.62	409.59
448.80	393.21
448.99	402.57
449.17	330.02
449.36	404.91
449.54	528.96
449.73	308.95
449.91	435.34
450.10	397.89
450.28	433.00
450.46	430.66
450.65	428.32
450.83	365.12
451.02	376.83
451.20	430.66
451.39	479.81
451.57	372.15
451.76	451.72
451.94	407.25
452.13	383.85
452.31	472.79
452.49	423.64
452.68	372.15
452.86	367.46
453.05	472.79
453.23	451.72
453.42	395.55
453.60	360.44
453.78	400.23
453.97	400.23
454.15	456.40
454.34	372.15
454.52	388.53
454.70	461.09
454.89	449.38
455.07	369.80
455.26	456.40
455.44	430.66
455.62	442.36
455.81	430.66
455.99	461.09
456.17	430.66
456.36	416.62
456.54	414.27
456.73	418.96
456.91	470.45
457.09	421.30
457.28	451.72
457.46	379.17
457.64	430.66
457.83	409.59
458.01	465.77
458.19	435.34
458.38	407.25
458.56	395.55
458.74	390.87
458.93	393.21
459.11	367.46
459.29	376.83
459.48	486.83
459.66	479.81
459.84	430.66
460.03	409.59
460.21	411.93
460.39	423.64
460.57	404.91
460.76	416.62
460.94	451.72
461.12	428.32
461.31	437.68
461.49	465.77
461.67	435.34
461.85	430.66
462.04	418.96
462.22	793.44
462.40	402.57
462.59	479.81
462.77	437.68
462.95	437.68
463.13	411.93
463.32	442.36
463.50	449.38
463.68	428.32
463.86	390.87
464.05	411.93
464.23	400.23
464.41	395.55
464.59	414.27
464.78	397.89
464.96	416.62
465.14	397.89
465.32	386.19
465.50	416.62
465.69	435.34
465.87	402.57
466.05	411.93
466.23	339.38
466.41	395.55
466.60	414.27
466.78	472.79
466.96	444.70
467.14	470.45
467.32	472.79
467.51	393.21
467.69	421.30
467.87	409.59
468.05	418.96
468.23	411.93
468.41	428.32
468.60	376.83
468.78	458.74
468.96	414.27
469.14	451.72
469.32	416.62
469.50	418.96
469.69	400.23
469.87	491.51
470.05	339.38
470.23	477.47
470.41	447.04
470.59	475.13
470.77	381.51
470.95	421.30
471.14	491.51
471.32	358.10
471.50	402.57
471.68	407.25
471.86	435.34
472.04	418.96
472.22	372.15
472.40	421.30
472.58	360.44
472.77	447.04
472.95	388.53
473.13	414.27
473.31	507.90
473.49	411.93
473.67	425.98
473.85	390.87
474.03	463.43
474.21	397.89
474.39	428.32
474.57	449.38
474.75	372.15
474.93	360.44
475.12	440.02
475.30	458.74
475.48	409.59
475.66	402.57
475.84	372.15
476.02	458.74
476.20	365.12
476.38	409.59
476.56	463.43
476.74	393.21
476.92	430.66
477.10	407.25
477.28	418.96
477.46	425.98
477.64	388.53
477.82	430.66
478.00	433.00
478.18	383.85
478.36	397.89
478.54	402.57
478.72	400.23
478.90	423.64
479.08	454.06
479.26	358.10
479.44	416.62
479.62	447.04
479.80	362.78
479.98	355.76
480.16	407.25
480.34	475.13
480.52	381.51
480.70	430.66
480.88	451.72
481.06	341.72
481.24	388.53
481.41	395.55
481.59	437.68
481.77	440.02
481.95	433.00
482.13	418.96
482.31	402.57
482.49	390.87
482.67	369.80
482.85	479.81
483.03	390.87
483.21	372.15
483.39	421.30
483.57	400.23
483.74	564.07
483.92	369.80
484.10	400.23
484.28	458.74
484.46	442.36
484.64	337.04
484.82	409.59
485.00	437.68
485.18	433.00
485.35	435.34
485.53	418.96
485.71	447.04
485.89	365.12
486.07	395.55
486.25	418.96
486.43	402.57
486.61	458.74
486.78	386.19
486.96	433.00
487.14	425.98
487.32	411.93
487.50	344.06
487.68	421.30
487.85	465.77
488.03	423.64
488.21	524.28
488.39	463.43
488.57	393.21
488.75	404.91
488.92	503.22
489.10	444.70
489.28	435.34
489.46	440.02
489.64	404.91
489.81	393.21
489.99	393.21
490.17	470.45
490.35	449.38
490.53	425.98
490.70	404.91
490.88	500.87
491.06	468.11
491.24	390.87
491.41	465.77
491.59	507.90
491.77	393.21
491.95	348.74
492.13	465.77
492.30	468.11
492.48	449.38
492.66	365.12
492.84	390.87
493.01	362.78
493.19	348.74
493.37	437.68
493.54	425.98
493.72	421.30
493.90	409.59
494.08	468.11
494.25	402.57
494.43	400.23
494.61	388.53
494.79	470.45
494.96	404.91
495.14	348.74
495.32	423.64
495.49	416.62
495.67	381.51
495.85	367.46
496.02	482.15
496.20	454.06
496.38	440.02
496.55	444.70
496.73	388.53
496.91	418.96
497.09	444.70
497.26	454.06
497.44	404.91
497.62	442.36
497.79	475.13
497.97	489.17
498.14	454.06
498.32	433.00
498.50	407.25
498.67	365.12
498.85	360.44
499.03	435.34
499.20	437.68
499.38	461.09
499.56	428.32
499.73	421.30
499.91	346.40
500.08	435.34
500.26	395.55
500.44	472.79
500.61	397.89
500.79	362.78
500.97	418.96
501.14	372.15
501.32	435.34
501.49	475.13
501.67	442.36
501.84	339.38
502.02	409.59
502.20	437.68
502.37	374.49
502.55	458.74
502.72	468.11
502.90	423.64
503.07	390.87
503.25	416.62
503.43	402.57
503.60	411.93
503.78	379.17
503.95	337.04
504.13	423.64
504.30	421.30
504.48	463.43
504.65	386.19
504.83	409.59
505.01	341.72
505.18	386.19
505.36	442.36
505.53	437.68
505.71	358.10
505.88	475.13
506.06	451.72
506.23	409.59
506.41	374.49
506.58	418.96
506.76	465.77
506.93	379.17
507.11	433.00
507.28	383.85
507.46	374.49
507.63	365.12
507.81	358.10
507.98	407.25
508.16	456.40
508.33	463.43
508.50	423.64
508.68	374.49
508.85	423.64
509.03	425.98
509.20	346.40
509.38	425.98
509.55	433.00
509.73	470.45
509.90	358.10
510.08	404.91
510.25	435.34
510.42	421.30
510.60	372.15
510.77	451.72
510.95	397.89
511.12	444.70
511.30	365.12
511.47	393.21
511.64	493.85
511.82	435.34
511.99	463.43
512.17	402.57
512.34	351.08
512.51	395.55
512.69	430.66
512.86	397.89
513.04	393.21
513.21	428.32
513.38	477.47
513.56	418.96
513.73	440.02
513.90	355.76
514.08	433.00
514.25	423.64
514.43	425.98
514.60	449.38
514.77	421.30
514.95	449.38
515.12	390.87
515.29	404.91
515.47	374.49
515.64	435.34
515.81	418.96
515.99	442.36
516.16	463.43
516.33	409.59
516.51	416.62
516.68	491.51
516.85	421.30
517.03	393.21
517.20	393.21
517.37	423.64
517.54	423.64
517.72	409.59
517.89	397.89
518.06	416.62
518.24	449.38
518.41	425.98
518.58	461.09
518.75	437.68
518.93	418.96
519.10	440.02
519.27	430.66
519.45	386.19
519.62	390.87
519.79	411.93
519.96	395.55
520.14	440.02
520.31	425.98
520.48	454.06
520.65	482.15
520.83	486.83
521.00	449.38
521.17	388.53
521.34	449.38
521.52	456.40
521.69	437.68
521.86	454.06
522.03	479.81
522.20	505.56
522.38	440.02
522.55	479.81
522.72	379.17
522.89	437.68
523.07	503.22
523.24	451.72
523.41	425.98
523.58	414.27
523.75	360.44
523.92	344.06
524.10	456.40
524.27	430.66
524.44	440.02
524.61	428.32
524.78	325.33
524.96	358.10
525.13	400.23
525.30	482.15
525.47	421.30
525.64	421.30
525.81	440.02
525.98	353.42
526.16	425.98
526.33	463.43
526.50	458.74
526.67	397.89
526.84	404.91
527.01	400.23
527.18	425.98
527.36	407.25
527.53	376.83
527.70	463.43
527.87	444.70
528.04	421.30
528.21	400.23
528.38	442.36
528.55	472.79
528.72	447.04
528.89	463.43
529.07	388.53
529.24	416.62
529.41	496.19
529.58	416.62
529.75	414.27
529.92	470.45
530.09	423.64
530.26	402.57
530.43	440.02
530.60	400.23
530.77	386.19
530.94	400.23
531.11	395.55
531.28	397.89
531.46	465.77
531.63	409.59
531.80	404.91
531.97	418.96
532.14	430.66
532.31	435.34
532.48	376.83
532.65	390.87
532.82	372.15
532.99	351.08
533.16	402.57
533.33	402.57
533.50	386.19
533.67	407.25
533.84	346.40
534.01	372.15
534.18	393.21
534.35	470.45
534.52	362.78
534.69	388.53
534.86	418.96
535.03	397.89
535.20	468.11
535.37	461.09
535.54	400.23
535.71	414.27
535.88	484.49
536.05	360.44
536.22	461.09
536.38	444.70
536.55	430.66
536.72	402.57
536.89	414.27
537.06	425.98
537.23	423.64
537.40	428.32
537.57	465.77
537.74	437.68
537.91	451.72
538.08	430.66
538.25	468.11
538.42	475.13
538.59	411.93
538.75	353.42
538.92	367.46
539.09	454.06
539.26	428.32
539.43	498.53
539.60	374.49
539.77	393.21
539.94	358.10
540.11	409.59
540.28	435.34
540.44	503.22
540.61	400.23
540.78	409.59
540.95	411.93
541.12	454.06
541.29	369.80
541.46	404.91
541.62	442.36
541.79	407.25
541.96	418.96
542.13	458.74
542.30	332.36
542.47	479.81
542.63	433.00
542.80	421.30
542.97	418.96
543.14	444.70
543.31	397.89
543.48	447.04
543.64	418.96
543.81	407.25
543.98	379.17
544.15	425.98
544.32	390.87
544.48	393.21
544.65	362.78
544.82	433.00
544.99	379.17
545.16	365.12
545.32	344.06
545.49	496.19
545.66	358.10
545.83	388.53
546.00	348.74
546.16	339.38
546.33	400.23
546.50	390.87
546.67	421.30
546.83	404.91
547.00	348.74
547.17	369.80
547.34	411.93
547.50	440.02
547.67	447.04
547.84	465.77
548.00	472.79
548.17	386.19
548.34	402.57
548.51	414.27
548.67	479.81
548.84	404.91
549.01	393.21
549.18	440.02
549.34	479.81
549.51	449.38
549.68	395.55
549.84	397.89
550.01	397.89
550.18	496.19
550.34	505.56
550.51	388.53
550.68	447.04
550.84	383.85
551.01	433.00
551.18	456.40
551.34	444.70
551.51	461.09
551.68	409.59
551.84	498.53
552.01	421.30
552.18	421.30
552.34	454.06
552.51	444.70
552.68	444.70
552.84	440.02
553.01	362.78
553.18	454.06
553.34	435.34
553.51	461.09
553.67	444.70
553.84	428.32
554.01	358.10
554.17	430.66
554.34	400.23
554.51	463.43
554.67	458.74
554.84	454.06
555.00	484.49
555.17	428.32
555.33	355.76
555.50	381.51
555.67	465.77
555.83	463.43
556.00	425.98
556.16	543.00
556.33	435.34
556.50	416.62
556.66	430.66
556.83	400.23
556.99	440.02
557.16	381.51
557.32	444.70
557.49	449.38
557.65	442.36
557.82	407.25
557.98	411.93
558.15	440.02
558.32	402.57
558.48	423.64
558.65	379.17
558.81	454.06
558.98	421.30
559.14	486.83
559.31	379.17
559.47	414.27
559.64	416.62
559.80	346.40
559.97	386.19
560.13	393.21
560.30	458.74
560.46	374.49
560.63	402.57
560.79	402.57
560.96	418.96
561.12	386.19
561.29	463.43
561.45	456.40
561.61	472.79
561.78	447.04
561.94	423.64
562.11	397.89
562.27	451.72
562.44	393.21
562.60	383.85
562.77	477.47
562.93	482.15
563.10	423.64
563.26	404.91
563.42	360.44
563.59	468.11
563.75	383.85
563.92	433.00
564.08	421.30
564.24	423.64
564.41	435.34
564.57	404.91
564.74	428.32
564.90	407.25
565.07	390.87
565.23	367.46
565.39	393.21
565.56	409.59
565.72	503.22
565.88	479.81
566.05	395.55
566.21	393.21
566.38	414.27
566.54	400.23
566.70	386.19
566.87	355.76
567.03	421.30
567.19	433.00
567.36	472.79
567.52	423.64
567.68	442.36
567.85	395.55
568.01	400.23
568.17	362.78
568.34	463.43
568.50	498.53
568.66	437.68
568.83	500.87
568.99	376.83
569.15	421.30
569.32	379.17
569.48	421.30
569.64	421.30
569.81	458.74
569.97	332.36
570.13	472.79
570.30	397.89
570.46	351.08
570.62	337.04
570.78	395.55
570.95	397.89
571.11	458.74
571.27	447.04
571.43	451.72
571.60	414.27
571.76	425.98
571.92	397.89
572.09	447.04
572.25	402.57
572.41	379.17
572.57	409.59
572.74	407.25
572.90	395.55
573.06	409.59
573.22	428.32
573.38	393.21
573.55	477.47
573.71	423.64
573.87	477.47
574.03	341.72
574.20	379.17
574.36	421.30
574.52	397.89
574.68	369.80
574.84	447.04
575.01	386.19
575.17	421.30
575.33	404.91
575.49	482.15
575.65	400.23
575.82	379.17
575.98	423.64
576.14	468.11
576.30	428.32
576.46	449.38
576.62	435.34
576.79	400.23
576.95	472.79
577.11	418.96
577.27	388.53
577.43	433.00
577.59	409.59
577.75	486.83
577.92	383.85
578.08	463.43
578.24	334.70
578.40	477.47
578.56	454.06
578.72	442.36
578.88	500.87
579.04	418.96
579.21	428.32
579.37	477.47
579.53	402.57
579.69	440.02
579.85	397.89
580.01	465.77
580.17	381.51
580.33	451.72
580.49	428.32
580.65	374.49
580.82	400.23
580.98	416.62
581.14	365.12
581.30	433.00
581.46	418.96
581.62	475.13
581.78	367.46
581.94	416.62
582.10	397.89
582.26	294.91
582.42	418.96
582.58	388.53
582.74	414.27
582.90	433.00
583.06	477.47
583.22	421.30
583.38	409.59
583.54	407.25
583.70	477.47
583.86	451.72
584.02	418.96
584.18	437.68
584.34	351.08
584.50	376.83
584.66	435.34
584.82	468.11
584.98	418.96
585.14	437.68
585.30	353.42
585.46	454.06
585.62	430.66
585.78	411.93
585.94	437.68
586.10	451.72
586.26	414.27
586.42	437.68
586.58	456.40
586.74	367.46
586.90	390.87
587.06	428.32
587.22	465.77
587.38	386.19
587.54	341.72
587.70	433.00
587.86	449.38
588.02	423.64
588.18	440.02
588.34	437.68
588.49	402.57
588.65	484.49
588.81	428.32
588.97	355.76
589.13	386.19
589.29	428.32
589.45	367.46
589.61	456.40
589.77	404.91
589.93	393.21
590.08	404.91
590.24	440.02
590.40	451.72
590.56	449.38
590.72	498.53
590.88	376.83
591.04	437.68
591.20	372.15
591.35	477.47
591.51	416.62
591.67	421.30
591.83	475.13
591.99	463.43
592.15	486.83
592.31	395.55
592.46	444.70
592.62	388.53
592.78	458.74
592.94	409.59
593.10	428.32
593.26	332.36
593.41	372.15
593.57	402.57
593.73	374.49
593.89	444.70
594.05	404.91
594.20	423.64
594.36	437.68
594.52	503.22
594.68	388.53
594.84	468.11
594.99	411.93
595.15	440.02
595.31	433.00
595.47	510.24
595.62	416.62
595.78	355.76
595.94	404.91
596.10	463.43
596.25	362.78
596.41	435.34
596.57	402.57
596.73	379.17
596.88	418.96
597.04	454.06
597.20	477.47
597.36	416.62
597.51	393.21
597.67	421.30
597.83	360.44
597.99	418.96
598.14	397.89
598.30	425.98
598.46	479.81
598.61	430.66
598.77	402.57
598.93	475.13
599.09	423.64
599.24	465.77
599.40	421.30
599.56	409.59
599.71	421.30
599.87	437.68
600.03	388.53
600.18	409.59
600.34	437.68
600.50	365.12
600.65	409.59
600.81	440.02
600.97	440.02
601.12	440.02
601.28	451.72
601.44	418.96
601.59	416.62
601.75	418.96
601.91	358.10
602.06	425.98
602.22	512.58
602.37	388.53
602.53	430.66
602.69	486.83
602.84	430.66
603.00	447.04
603.16	489.17
603.31	421.30
603.47	493.85
603.62	379.17
603.78	383.85
603.94	400.23
604.09	475.13
604.25	421.30
604.40	425.98
604.56	409.59
604.71	454.06
604.87	395.55
605.03	397.89
605.18	444.70
605.34	358.10
605.49	435.34
605.65	362.78
605.80	454.06
605.96	404.91
606.12	470.45
606.27	407.25
606.43	393.21
606.58	353.42
606.74	400.23
606.89	404.91
607.05	477.47
607.20	390.87
607.36	362.78
607.51	372.15
607.67	376.83
607.82	390.87
607.98	498.53
608.13	470.45
608.29	409.59
608.44	482.15
608.60	395.55
608.75	468.11
608.91	510.24
609.06	397.89
609.22	440.02
609.37	411.93
609.53	390.87
609.68	442.36
609.84	355.76
609.99	433.00
610.15	449.38
