SpectraSuite Data File
++++++++++++++++++++++++++++++++++++
Date: Fri Oct 25 12:10:16 EDT 2013
User: price-jones
Dark Spectrum Present: No
Reference Spectrum Present: No
Number of Sampled Component Spectra: 1
Spectrometers: USB2+H05261
Integration Time (usec): 100000 (USB2+H05261)
Spectra Averaged: 1 (USB2+H05261)
Boxcar Smoothing: 0 (USB2+H05261)
Correct for Electrical Dark: No (USB2+H05261)
Strobe/Lamp Enabled: No (USB2+H05261)
Correct for Detector Non-linearity: No (USB2+H05261)
Correct for Stray Light: No (USB2+H05261)
Number of Pixels in Processed Spectrum: 2048
>>>>>Begin Processed Spectral Data<<<<<
365.73	257.46
365.92	257.46
366.12	257.46
366.32	271.50
366.52	252.78
366.72	229.37
366.91	212.99
367.11	315.97
367.31	234.05
367.51	243.42
367.70	220.01
367.90	299.59
368.10	173.20
368.30	269.16
368.49	255.12
368.69	255.12
368.89	285.55
369.09	224.69
369.28	262.14
369.48	285.55
369.68	243.42
369.87	325.33
370.07	294.91
370.27	390.87
370.47	252.78
370.66	339.38
370.86	353.42
371.06	397.89
371.25	433.00
371.45	344.06
371.65	348.74
371.84	379.17
372.04	337.04
372.24	339.38
372.44	437.68
372.63	400.23
372.83	421.30
373.03	430.66
373.22	348.74
373.42	376.83
373.62	468.11
373.81	435.34
374.01	414.27
374.21	451.72
374.40	447.04
374.60	489.17
374.79	362.78
374.99	353.42
375.19	449.38
375.38	360.44
375.58	418.96
375.78	496.19
375.97	388.53
376.17	470.45
376.37	397.89
376.56	416.62
376.76	430.66
376.95	346.40
377.15	479.81
377.35	430.66
377.54	451.72
377.74	435.34
377.93	416.62
378.13	411.93
378.33	404.91
378.52	479.81
378.72	388.53
378.91	369.80
379.11	416.62
379.31	402.57
379.50	372.15
379.70	404.91
379.89	365.12
380.09	416.62
380.28	425.98
380.48	447.04
380.68	360.44
380.87	376.83
381.07	449.38
381.26	477.47
381.46	397.89
381.65	414.27
381.85	358.10
382.04	442.36
382.24	402.57
382.43	383.85
382.63	407.25
382.83	400.23
383.02	496.19
383.22	451.72
383.41	500.87
383.61	454.06
383.80	365.12
384.00	472.79
384.19	414.27
384.39	479.81
384.58	381.51
384.78	386.19
384.97	416.62
385.17	421.30
385.36	383.85
385.56	372.15
385.75	367.46
385.95	337.04
386.14	454.06
386.34	444.70
386.53	437.68
386.72	365.12
386.92	435.34
387.11	386.19
387.31	484.49
387.50	386.19
387.70	386.19
387.89	322.99
388.09	414.27
388.28	416.62
388.48	397.89
388.67	369.80
388.86	444.70
389.06	454.06
389.25	433.00
389.45	374.49
389.64	440.02
389.84	428.32
390.03	411.93
390.22	372.15
390.42	421.30
390.61	414.27
390.81	407.25
391.00	341.72
391.19	374.49
391.39	496.19
391.58	374.49
391.78	444.70
391.97	381.51
392.16	425.98
392.36	425.98
392.55	355.76
392.75	353.42
392.94	348.74
393.13	458.74
393.33	383.85
393.52	362.78
393.71	365.12
393.91	365.12
394.10	383.85
394.29	325.33
394.49	386.19
394.68	390.87
394.88	435.34
395.07	409.59
395.26	447.04
395.46	388.53
395.65	388.53
395.84	409.59
396.04	430.66
396.23	367.46
396.42	381.51
396.62	376.83
396.81	468.11
397.00	346.40
397.19	381.51
397.39	374.49
397.58	442.36
397.77	390.87
397.97	440.02
398.16	374.49
398.35	418.96
398.55	411.93
398.74	449.38
398.93	493.85
399.12	437.68
399.32	395.55
399.51	411.93
399.70	428.32
399.90	409.59
400.09	376.83
400.28	456.40
400.47	346.40
400.67	444.70
400.86	421.30
401.05	430.66
401.24	435.34
401.44	341.72
401.63	425.98
401.82	369.80
402.01	390.87
402.21	435.34
402.40	372.15
402.59	386.19
402.78	461.09
402.97	367.46
403.17	390.87
403.36	437.68
403.55	386.19
403.74	409.59
403.93	388.53
404.13	322.99
404.32	376.83
404.51	451.72
404.70	428.32
404.89	407.25
405.09	444.70
405.28	451.72
405.47	320.65
405.66	475.13
405.85	444.70
406.05	355.76
406.24	449.38
406.43	383.85
406.62	444.70
406.81	393.21
407.00	409.59
407.20	414.27
407.39	435.34
407.58	465.77
407.77	477.47
407.96	407.25
408.15	402.57
408.34	367.46
408.54	472.79
408.73	365.12
408.92	381.51
409.11	433.00
409.30	411.93
409.49	409.59
409.68	315.97
409.87	383.85
410.07	521.94
410.26	421.30
410.45	404.91
410.64	397.89
410.83	395.55
411.02	407.25
411.21	428.32
411.40	411.93
411.59	379.17
411.78	390.87
411.98	423.64
412.17	365.12
412.36	489.17
412.55	411.93
412.74	423.64
412.93	477.47
413.12	369.80
413.31	372.15
413.50	442.36
413.69	418.96
413.88	404.91
414.07	475.13
414.26	381.51
414.45	374.49
414.64	386.19
414.83	411.93
415.02	440.02
415.22	351.08
415.41	411.93
415.60	468.11
415.79	365.12
415.98	425.98
416.17	395.55
416.36	421.30
416.55	320.65
416.74	393.21
416.93	404.91
417.12	435.34
417.31	367.46
417.50	376.83
417.69	496.19
417.88	425.98
418.07	404.91
418.26	374.49
418.45	407.25
418.64	388.53
418.83	390.87
419.02	358.10
419.21	386.19
419.39	376.83
419.58	360.44
419.77	447.04
419.96	451.72
420.15	423.64
420.34	372.15
420.53	418.96
420.72	372.15
420.91	414.27
421.10	367.46
421.29	402.57
421.48	442.36
421.67	440.02
421.86	444.70
422.05	362.78
422.24	407.25
422.43	393.21
422.61	397.89
422.80	362.78
422.99	322.99
423.18	353.42
423.37	409.59
423.56	433.00
423.75	437.68
423.94	444.70
424.13	348.74
424.32	388.53
424.50	416.62
424.69	454.06
424.88	416.62
425.07	383.85
425.26	393.21
425.45	435.34
425.64	437.68
425.83	444.70
426.01	421.30
426.20	360.44
426.39	421.30
426.58	435.34
426.77	414.27
426.96	425.98
427.15	402.57
427.33	400.23
427.52	454.06
427.71	418.96
427.90	362.78
428.09	428.32
428.28	390.87
428.46	463.43
428.65	430.66
428.84	376.83
429.03	507.90
429.22	465.77
429.40	390.87
429.59	395.55
429.78	376.83
429.97	477.47
430.16	381.51
430.34	437.68
430.53	414.27
430.72	447.04
430.91	468.11
431.10	365.12
431.28	442.36
431.47	414.27
431.66	428.32
431.85	456.40
432.03	437.68
432.22	414.27
432.41	423.64
432.60	437.68
432.79	379.17
432.97	454.06
433.16	362.78
433.35	346.40
433.54	442.36
433.72	407.25
433.91	407.25
434.10	390.87
434.28	409.59
434.47	461.09
434.66	493.85
434.85	325.33
435.03	451.72
435.22	383.85
435.41	414.27
435.59	430.66
435.78	437.68
435.97	381.51
436.16	393.21
436.34	390.87
436.53	414.27
436.72	477.47
436.90	423.64
437.09	397.89
437.28	421.30
437.46	362.78
437.65	381.51
437.84	407.25
438.02	458.74
438.21	397.89
438.40	435.34
438.58	386.19
438.77	411.93
438.96	369.80
439.14	388.53
439.33	428.32
439.52	447.04
439.70	393.21
439.89	500.87
440.08	454.06
440.26	421.30
440.45	435.34
440.63	433.00
440.82	472.79
441.01	444.70
441.19	451.72
441.38	367.46
441.57	423.64
441.75	472.79
441.94	456.40
442.12	393.21
442.31	430.66
442.50	425.98
442.68	369.80
442.87	444.70
443.05	404.91
443.24	475.13
443.43	489.17
443.61	409.59
443.80	383.85
443.98	386.19
444.17	402.57
444.35	367.46
444.54	390.87
444.73	472.79
444.91	423.64
445.10	372.15
445.28	386.19
445.47	451.72
445.65	423.64
445.84	430.66
446.02	437.68
446.21	440.02
446.39	383.85
446.58	447.04
446.77	433.00
446.95	454.06
447.14	369.80
447.32	449.38
447.51	381.51
447.69	447.04
447.88	386.19
448.06	383.85
448.25	437.68
448.43	433.00
448.62	421.30
448.80	437.68
448.99	444.70
449.17	456.40
449.36	365.12
449.54	423.64
449.73	390.87
449.91	409.59
450.10	435.34
450.28	440.02
450.46	425.98
450.65	397.89
450.83	437.68
451.02	381.51
451.20	390.87
451.39	449.38
451.57	344.06
451.76	409.59
451.94	482.15
452.13	390.87
452.31	355.76
452.49	388.53
452.68	390.87
452.86	435.34
453.05	435.34
453.23	444.70
453.42	461.09
453.60	449.38
453.78	404.91
453.97	402.57
454.15	407.25
454.34	360.44
454.52	437.68
454.70	486.83
454.89	440.02
455.07	383.85
455.26	454.06
455.44	411.93
455.62	491.51
455.81	456.40
455.99	407.25
456.17	395.55
456.36	500.87
456.54	428.32
456.73	489.17
456.91	367.46
457.09	416.62
457.28	386.19
457.46	393.21
457.64	433.00
457.83	346.40
458.01	393.21
458.19	435.34
458.38	402.57
458.56	386.19
458.74	395.55
458.93	334.70
459.11	397.89
459.29	425.98
459.48	381.51
459.66	402.57
459.84	425.98
460.03	519.60
460.21	430.66
460.39	425.98
460.57	444.70
460.76	400.23
460.94	479.81
461.12	454.06
461.31	348.74
461.49	400.23
461.67	374.49
461.85	355.76
462.04	437.68
462.22	784.08
462.40	418.96
462.59	479.81
462.77	449.38
462.95	379.17
463.13	337.04
463.32	411.93
463.50	395.55
463.68	383.85
463.86	447.04
464.05	409.59
464.23	381.51
464.41	379.17
464.59	400.23
464.78	418.96
464.96	409.59
465.14	393.21
465.32	435.34
465.50	409.59
465.69	348.74
465.87	433.00
466.05	496.19
466.23	395.55
466.41	430.66
466.60	421.30
466.78	423.64
466.96	486.83
467.14	428.32
467.32	444.70
467.51	397.89
467.69	409.59
467.87	430.66
468.05	344.06
468.23	430.66
468.41	484.49
468.60	468.11
468.78	372.15
468.96	442.36
469.14	437.68
469.32	374.49
469.50	458.74
469.69	421.30
469.87	367.46
470.05	346.40
470.23	449.38
470.41	442.36
470.59	393.21
470.77	383.85
470.95	365.12
471.14	486.83
471.32	409.59
471.50	423.64
471.68	362.78
471.86	414.27
472.04	388.53
472.22	360.44
472.40	386.19
472.58	430.66
472.77	430.66
472.95	376.83
473.13	496.19
473.31	383.85
473.49	400.23
473.67	330.02
473.85	435.34
474.03	337.04
474.21	435.34
474.39	470.45
474.57	437.68
474.75	330.02
474.93	369.80
475.12	402.57
475.30	421.30
475.48	418.96
475.66	381.51
475.84	416.62
476.02	433.00
476.20	458.74
476.38	423.64
476.56	472.79
476.74	407.25
476.92	470.45
477.10	418.96
477.28	367.46
477.46	383.85
477.64	428.32
477.82	404.91
478.00	409.59
478.18	458.74
478.36	430.66
478.54	468.11
478.72	395.55
478.90	397.89
479.08	400.23
479.26	470.45
479.44	425.98
479.62	468.11
479.80	379.17
479.98	449.38
480.16	421.30
480.34	489.17
480.52	449.38
480.70	447.04
480.88	430.66
481.06	425.98
481.24	423.64
481.41	353.42
481.59	381.51
481.77	425.98
481.95	301.93
482.13	465.77
482.31	430.66
482.49	416.62
482.67	402.57
482.85	390.87
483.03	470.45
483.21	496.19
483.39	388.53
483.57	372.15
483.74	461.09
483.92	397.89
484.10	358.10
484.28	414.27
484.46	465.77
484.64	465.77
484.82	379.17
485.00	428.32
485.18	374.49
485.35	383.85
485.53	430.66
485.71	386.19
485.89	404.91
486.07	386.19
486.25	463.43
486.43	341.72
486.61	507.90
486.78	369.80
486.96	425.98
487.14	449.38
487.32	367.46
487.50	409.59
487.68	496.19
487.85	411.93
488.03	430.66
488.21	425.98
488.39	435.34
488.57	397.89
488.75	374.49
488.92	484.49
489.10	423.64
489.28	397.89
489.46	297.25
489.64	423.64
489.81	397.89
489.99	433.00
490.17	437.68
490.35	493.85
490.53	404.91
490.70	458.74
490.88	393.21
491.06	395.55
491.24	428.32
491.41	430.66
491.59	411.93
491.77	332.36
491.95	407.25
492.13	416.62
492.30	428.32
492.48	430.66
492.66	346.40
492.84	404.91
493.01	346.40
493.19	404.91
493.37	390.87
493.54	388.53
493.72	388.53
493.90	390.87
494.08	498.53
494.25	425.98
494.43	393.21
494.61	409.59
494.79	440.02
494.96	442.36
495.14	447.04
495.32	327.68
495.49	393.21
495.67	440.02
495.85	379.17
496.02	433.00
496.20	425.98
496.38	400.23
496.55	447.04
496.73	414.27
496.91	465.77
497.09	465.77
497.26	407.25
497.44	374.49
497.62	435.34
497.79	414.27
497.97	491.51
498.14	395.55
498.32	521.94
498.50	367.46
498.67	430.66
498.85	400.23
499.03	418.96
499.20	454.06
499.38	397.89
499.56	397.89
499.73	463.43
499.91	379.17
500.08	367.46
500.26	416.62
500.44	411.93
500.61	433.00
500.79	421.30
500.97	390.87
501.14	447.04
501.32	360.44
501.49	430.66
501.67	386.19
501.84	461.09
502.02	358.10
502.20	400.23
502.37	470.45
502.55	428.32
502.72	400.23
502.90	444.70
503.07	519.60
503.25	491.51
503.43	411.93
503.60	383.85
503.78	411.93
503.95	425.98
504.13	365.12
504.30	447.04
504.48	425.98
504.65	465.77
504.83	447.04
505.01	390.87
505.18	468.11
505.36	372.15
505.53	334.70
505.71	451.72
505.88	461.09
506.06	381.51
506.23	449.38
506.41	468.11
506.58	435.34
506.76	423.64
506.93	411.93
507.11	404.91
507.28	390.87
507.46	372.15
507.63	528.96
507.81	379.17
507.98	418.96
508.16	491.51
508.33	390.87
508.50	482.15
508.68	393.21
508.85	433.00
509.03	423.64
509.20	360.44
509.38	433.00
509.55	451.72
509.73	402.57
509.90	465.77
510.08	400.23
510.25	386.19
510.42	386.19
510.60	489.17
510.77	402.57
510.95	400.23
511.12	407.25
511.30	400.23
511.47	456.40
511.64	374.49
511.82	367.46
511.99	447.04
512.17	414.27
512.34	395.55
512.51	461.09
512.69	425.98
512.86	440.02
513.04	486.83
513.21	447.04
513.38	421.30
513.56	451.72
513.73	447.04
513.90	428.32
514.08	407.25
514.25	428.32
514.43	407.25
514.60	447.04
514.77	397.89
514.95	503.22
515.12	433.00
515.29	402.57
515.47	440.02
515.64	416.62
515.81	451.72
515.99	442.36
516.16	421.30
516.33	440.02
516.51	456.40
516.68	362.78
516.85	414.27
517.03	379.17
517.20	437.68
517.37	388.53
517.54	489.17
517.72	430.66
517.89	414.27
518.06	437.68
518.24	451.72
518.41	491.51
518.58	383.85
518.75	409.59
518.93	437.68
519.10	435.34
519.27	383.85
519.45	425.98
519.62	449.38
519.79	463.43
519.96	409.59
520.14	451.72
520.31	451.72
520.48	449.38
520.65	440.02
520.83	414.27
521.00	416.62
521.17	404.91
521.34	444.70
521.52	456.40
521.69	449.38
521.86	470.45
522.03	428.32
522.20	468.11
522.38	428.32
522.55	425.98
522.72	451.72
522.89	449.38
523.07	390.87
523.24	386.19
523.41	397.89
523.58	393.21
523.75	524.28
523.92	435.34
524.10	454.06
524.27	376.83
524.44	440.02
524.61	404.91
524.78	383.85
524.96	402.57
525.13	416.62
525.30	451.72
525.47	437.68
525.64	477.47
525.81	444.70
525.98	454.06
526.16	430.66
526.33	367.46
526.50	498.53
526.67	430.66
526.84	423.64
527.01	454.06
527.18	400.23
527.36	402.57
527.53	444.70
527.70	381.51
527.87	404.91
528.04	435.34
528.21	383.85
528.38	498.53
528.55	423.64
528.72	496.19
528.89	428.32
529.07	304.27
529.24	383.85
529.41	407.25
529.58	423.64
529.75	402.57
529.92	400.23
530.09	442.36
530.26	341.72
530.43	400.23
530.60	437.68
530.77	437.68
530.94	454.06
531.11	372.15
531.28	409.59
531.46	428.32
531.63	365.12
531.80	472.79
531.97	465.77
532.14	411.93
532.31	372.15
532.48	390.87
532.65	440.02
532.82	404.91
532.99	372.15
533.16	367.46
533.33	400.23
533.50	449.38
533.67	376.83
533.84	489.17
534.01	454.06
534.18	379.17
534.35	395.55
534.52	414.27
534.69	482.15
534.86	397.89
535.03	409.59
535.20	360.44
535.37	430.66
535.54	435.34
535.71	451.72
535.88	475.13
536.05	374.49
536.22	449.38
536.38	369.80
536.55	458.74
536.72	456.40
536.89	381.51
537.06	465.77
537.23	454.06
537.40	475.13
537.57	425.98
537.74	400.23
537.91	365.12
538.08	418.96
538.25	486.83
538.42	414.27
538.59	397.89
538.75	390.87
538.92	358.10
539.09	468.11
539.26	369.80
539.43	388.53
539.60	397.89
539.77	425.98
539.94	355.76
540.11	421.30
540.28	409.59
540.44	470.45
540.61	428.32
540.78	463.43
540.95	409.59
541.12	463.43
541.29	402.57
541.46	458.74
541.62	404.91
541.79	437.68
541.96	393.21
542.13	404.91
542.30	400.23
542.47	435.34
542.63	428.32
542.80	400.23
542.97	374.49
543.14	435.34
543.31	367.46
543.48	360.44
543.64	381.51
543.81	416.62
543.98	437.68
544.15	418.96
544.32	353.42
544.48	451.72
544.65	423.64
544.82	393.21
544.99	379.17
545.16	468.11
545.32	404.91
545.49	411.93
545.66	442.36
545.83	484.49
546.00	456.40
546.16	383.85
546.33	402.57
546.50	395.55
546.67	468.11
546.83	435.34
547.00	404.91
547.17	449.38
547.34	393.21
547.50	456.40
547.67	465.77
547.84	409.59
548.00	409.59
548.17	393.21
548.34	411.93
548.51	451.72
548.67	351.08
548.84	381.51
549.01	376.83
549.18	425.98
549.34	472.79
549.51	353.42
549.68	421.30
549.84	353.42
550.01	440.02
550.18	547.69
550.34	451.72
550.51	456.40
550.68	475.13
550.84	390.87
551.01	416.62
551.18	489.17
551.34	388.53
551.51	430.66
551.68	519.60
551.84	411.93
552.01	442.36
552.18	468.11
552.34	430.66
552.51	414.27
552.68	444.70
552.84	397.89
553.01	407.25
553.18	381.51
553.34	409.59
553.51	440.02
553.67	461.09
553.84	461.09
554.01	486.83
554.17	475.13
554.34	379.17
554.51	442.36
554.67	444.70
554.84	351.08
555.00	376.83
555.17	433.00
555.33	484.49
555.50	407.25
555.67	451.72
555.83	423.64
556.00	407.25
556.16	486.83
556.33	418.96
556.50	400.23
556.66	393.21
556.83	411.93
556.99	421.30
557.16	397.89
557.32	374.49
557.49	376.83
557.65	351.08
557.82	414.27
557.98	442.36
558.15	325.33
558.32	409.59
558.48	411.93
558.65	430.66
558.81	418.96
558.98	423.64
559.14	442.36
559.31	381.51
559.47	395.55
559.64	402.57
559.80	498.53
559.97	451.72
560.13	454.06
560.30	388.53
560.46	383.85
560.63	428.32
560.79	421.30
560.96	416.62
561.12	414.27
561.29	433.00
561.45	404.91
561.61	383.85
561.78	507.90
561.94	395.55
562.11	390.87
562.27	440.02
562.44	390.87
562.60	395.55
562.77	468.11
562.93	456.40
563.10	521.94
563.26	407.25
563.42	456.40
563.59	365.12
563.75	447.04
563.92	463.43
564.08	493.85
564.24	442.36
564.41	400.23
564.57	362.78
564.74	409.59
564.90	463.43
565.07	454.06
565.23	437.68
565.39	381.51
565.56	416.62
565.72	381.51
565.88	344.06
566.05	388.53
566.21	470.45
566.38	423.64
566.54	383.85
566.70	395.55
566.87	461.09
567.03	433.00
567.19	447.04
567.36	435.34
567.52	355.76
567.68	444.70
567.85	402.57
568.01	425.98
568.17	447.04
568.34	409.59
568.50	444.70
568.66	433.00
568.83	482.15
568.99	369.80
569.15	423.64
569.32	411.93
569.48	386.19
569.64	423.64
569.81	449.38
569.97	388.53
570.13	454.06
570.30	458.74
570.46	411.93
570.62	425.98
570.78	402.57
570.95	425.98
571.11	510.24
571.27	533.64
571.43	416.62
571.60	393.21
571.76	388.53
571.92	428.32
572.09	472.79
572.25	407.25
572.41	414.27
572.57	430.66
572.74	461.09
572.90	442.36
573.06	393.21
573.22	418.96
573.38	447.04
573.55	468.11
573.71	458.74
573.87	449.38
574.03	407.25
574.20	386.19
574.36	435.34
574.52	348.74
574.68	409.59
574.84	428.32
575.01	397.89
575.17	442.36
575.33	383.85
575.49	477.47
575.65	311.29
575.82	468.11
575.98	449.38
576.14	383.85
576.30	388.53
576.46	428.32
576.62	407.25
576.79	451.72
576.95	447.04
577.11	409.59
577.27	400.23
577.43	367.46
577.59	479.81
577.75	407.25
577.92	465.77
578.08	383.85
578.24	355.76
578.40	433.00
578.56	484.49
578.72	461.09
578.88	451.72
579.04	430.66
579.21	468.11
579.37	358.10
579.53	444.70
579.69	418.96
579.85	376.83
580.01	430.66
580.17	397.89
580.33	390.87
580.49	381.51
580.65	444.70
580.82	418.96
580.98	458.74
581.14	456.40
581.30	386.19
581.46	360.44
581.62	397.89
581.78	425.98
581.94	458.74
582.10	393.21
582.26	395.55
582.42	435.34
582.58	468.11
582.74	346.40
582.90	386.19
583.06	482.15
583.22	489.17
583.38	416.62
583.54	334.70
583.70	472.79
583.86	465.77
584.02	463.43
584.18	425.98
584.34	449.38
584.50	367.46
584.66	421.30
584.82	362.78
584.98	400.23
585.14	468.11
585.30	465.77
585.46	334.70
585.62	461.09
585.78	418.96
585.94	456.40
586.10	407.25
586.26	454.06
586.42	454.06
586.58	381.51
586.74	442.36
586.90	388.53
587.06	395.55
587.22	421.30
587.38	440.02
587.54	404.91
587.70	465.77
587.86	454.06
588.02	418.96
588.18	442.36
588.34	433.00
588.49	456.40
588.65	470.45
588.81	386.19
588.97	425.98
589.13	407.25
589.29	447.04
589.45	458.74
589.61	440.02
589.77	468.11
589.93	435.34
590.08	421.30
590.24	449.38
590.40	346.40
590.56	348.74
590.72	451.72
590.88	353.42
591.04	402.57
591.20	414.27
591.35	500.87
591.51	397.89
591.67	444.70
591.83	416.62
591.99	362.78
592.15	395.55
592.31	461.09
592.46	465.77
592.62	437.68
592.78	379.17
592.94	482.15
593.10	493.85
593.26	374.49
593.41	451.72
593.57	416.62
593.73	376.83
593.89	447.04
594.05	397.89
594.20	400.23
594.36	367.46
594.52	348.74
594.68	409.59
594.84	400.23
594.99	463.43
595.15	362.78
595.31	418.96
595.47	519.60
595.62	411.93
595.78	411.93
595.94	475.13
596.10	470.45
596.25	379.17
596.41	414.27
596.57	414.27
596.73	414.27
596.88	409.59
597.04	444.70
597.20	374.49
597.36	454.06
597.51	447.04
597.67	393.21
597.83	421.30
597.99	496.19
598.14	475.13
598.30	409.59
598.46	388.53
598.61	463.43
598.77	360.44
598.93	313.63
599.09	386.19
599.24	456.40
599.40	409.59
599.56	444.70
599.71	393.21
599.87	425.98
600.03	444.70
600.18	482.15
600.34	437.68
600.50	407.25
600.65	430.66
600.81	449.38
600.97	435.34
601.12	451.72
601.28	496.19
601.44	414.27
601.59	470.45
601.75	367.46
601.91	402.57
602.06	409.59
602.22	395.55
602.37	414.27
602.53	411.93
602.69	425.98
602.84	365.12
603.00	397.89
603.16	393.21
603.31	383.85
603.47	486.83
603.62	428.32
603.78	477.47
603.94	418.96
604.09	414.27
604.25	475.13
604.40	397.89
604.56	388.53
604.71	393.21
604.87	386.19
605.03	416.62
605.18	400.23
605.34	414.27
605.49	447.04
605.65	468.11
605.80	416.62
605.96	402.57
606.12	379.17
606.27	425.98
606.43	449.38
606.58	414.27
606.74	437.68
606.89	430.66
607.05	355.76
607.20	400.23
607.36	351.08
607.51	447.04
607.67	407.25
607.82	414.27
607.98	456.40
608.13	390.87
608.29	428.32
608.44	414.27
608.60	440.02
608.75	411.93
608.91	425.98
609.06	493.85
609.22	447.04
609.37	379.17
609.53	393.21
609.68	449.38
609.84	407.25
609.99	440.02
610.15	491.51
