SpectraSuite Data File
++++++++++++++++++++++++++++++++++++
Date: Fri Oct 25 12:11:04 EDT 2013
User: price-jones
Dark Spectrum Present: No
Reference Spectrum Present: No
Number of Sampled Component Spectra: 1
Spectrometers: USB2+H05261
Integration Time (usec): 100000 (USB2+H05261)
Spectra Averaged: 1 (USB2+H05261)
Boxcar Smoothing: 0 (USB2+H05261)
Correct for Electrical Dark: No (USB2+H05261)
Strobe/Lamp Enabled: No (USB2+H05261)
Correct for Detector Non-linearity: No (USB2+H05261)
Correct for Stray Light: No (USB2+H05261)
Number of Pixels in Processed Spectrum: 2048
>>>>>Begin Processed Spectral Data<<<<<
365.73	341.72
365.92	341.72
366.12	341.72
366.32	217.67
366.52	222.35
366.72	248.10
366.91	217.67
367.11	257.46
367.31	276.18
367.51	217.67
367.70	198.95
367.90	180.22
368.10	250.44
368.30	198.95
368.49	308.95
368.69	245.76
368.89	234.05
369.09	304.27
369.28	215.33
369.48	292.57
369.68	290.23
369.87	306.61
370.07	304.27
370.27	358.10
370.47	367.46
370.66	294.91
370.86	259.80
371.06	381.51
371.25	416.62
371.45	334.70
371.65	346.40
371.84	339.38
372.04	367.46
372.24	414.27
372.44	374.49
372.63	395.55
372.83	409.59
373.03	414.27
373.22	400.23
373.42	407.25
373.62	461.09
373.81	428.32
374.01	449.38
374.21	402.57
374.40	435.34
374.60	463.43
374.79	411.93
374.99	421.30
375.19	414.27
375.38	447.04
375.58	393.21
375.78	404.91
375.97	435.34
376.17	514.92
376.37	458.74
376.56	423.64
376.76	409.59
376.95	447.04
377.15	442.36
377.35	447.04
377.54	379.17
377.74	365.12
377.93	308.95
378.13	400.23
378.33	414.27
378.52	454.06
378.72	414.27
378.91	386.19
379.11	381.51
379.31	451.72
379.50	407.25
379.70	444.70
379.89	407.25
380.09	425.98
380.28	404.91
380.48	414.27
380.68	416.62
380.87	386.19
381.07	351.08
381.26	404.91
381.46	379.17
381.65	407.25
381.85	421.30
382.04	383.85
382.24	416.62
382.43	372.15
382.63	379.17
382.83	397.89
383.02	428.32
383.22	383.85
383.41	386.19
383.61	465.77
383.80	348.74
384.00	381.51
384.19	409.59
384.39	402.57
384.58	433.00
384.78	294.91
384.97	400.23
385.17	383.85
385.36	393.21
385.56	404.91
385.75	404.91
385.95	433.00
386.14	458.74
386.34	376.83
386.53	390.87
386.72	393.21
386.92	458.74
387.11	369.80
387.31	435.34
387.50	421.30
387.70	395.55
387.89	425.98
388.09	465.77
388.28	416.62
388.48	367.46
388.67	444.70
388.86	397.89
389.06	383.85
389.25	451.72
389.45	430.66
389.64	461.09
389.84	414.27
390.03	411.93
390.22	365.12
390.42	404.91
390.61	423.64
390.81	437.68
391.00	393.21
391.19	442.36
391.39	390.87
391.58	442.36
391.78	407.25
391.97	414.27
392.16	388.53
392.36	414.27
392.55	362.78
392.75	397.89
392.94	390.87
393.13	390.87
393.33	423.64
393.52	386.19
393.71	482.15
393.91	409.59
394.10	353.42
394.29	362.78
394.49	414.27
394.68	383.85
394.88	397.89
395.07	395.55
395.26	421.30
395.46	337.04
395.65	358.10
395.84	372.15
396.04	440.02
396.23	386.19
396.42	369.80
396.62	425.98
396.81	390.87
397.00	409.59
397.19	444.70
397.39	414.27
397.58	367.46
397.77	372.15
397.97	411.93
398.16	395.55
398.35	337.04
398.55	390.87
398.74	332.36
398.93	407.25
399.12	339.38
399.32	470.45
399.51	440.02
399.70	407.25
399.90	468.11
400.09	386.19
400.28	442.36
400.47	376.83
400.67	463.43
400.86	383.85
401.05	456.40
401.24	372.15
401.44	367.46
401.63	430.66
401.82	388.53
402.01	447.04
402.21	468.11
402.40	360.44
402.59	402.57
402.78	423.64
402.97	348.74
403.17	451.72
403.36	454.06
403.55	367.46
403.74	416.62
403.93	428.32
404.13	428.32
404.32	397.89
404.51	414.27
404.70	454.06
404.89	362.78
405.09	409.59
405.28	463.43
405.47	454.06
405.66	477.47
405.85	360.44
406.05	334.70
406.24	409.59
406.43	402.57
406.62	376.83
406.81	407.25
407.00	451.72
407.20	365.12
407.39	339.38
407.58	444.70
407.77	425.98
407.96	379.17
408.15	376.83
408.34	407.25
408.54	447.04
408.73	430.66
408.92	379.17
409.11	435.34
409.30	374.49
409.49	348.74
409.68	430.66
409.87	397.89
410.07	411.93
410.26	416.62
410.45	404.91
410.64	437.68
410.83	381.51
411.02	463.43
411.21	465.77
411.40	404.91
411.59	411.93
411.78	461.09
411.98	383.85
412.17	355.76
412.36	423.64
412.55	369.80
412.74	334.70
412.93	507.90
413.12	435.34
413.31	383.85
413.50	421.30
413.69	423.64
413.88	421.30
414.07	397.89
414.26	433.00
414.45	400.23
414.64	418.96
414.83	423.64
415.02	461.09
415.22	379.17
415.41	341.72
415.60	409.59
415.79	381.51
415.98	376.83
416.17	397.89
416.36	440.02
416.55	390.87
416.74	418.96
416.93	411.93
417.12	440.02
417.31	425.98
417.50	428.32
417.69	423.64
417.88	407.25
418.07	367.46
418.26	381.51
418.45	402.57
418.64	411.93
418.83	430.66
419.02	404.91
419.21	344.06
419.39	374.49
419.58	383.85
419.77	442.36
419.96	430.66
420.15	416.62
420.34	409.59
420.53	315.97
420.72	418.96
420.91	416.62
421.10	397.89
421.29	388.53
421.48	454.06
421.67	465.77
421.86	421.30
422.05	388.53
422.24	437.68
422.43	402.57
422.61	393.21
422.80	374.49
422.99	402.57
423.18	407.25
423.37	421.30
423.56	444.70
423.75	388.53
423.94	411.93
424.13	362.78
424.32	402.57
424.50	390.87
424.69	353.42
424.88	489.17
425.07	369.80
425.26	444.70
425.45	465.77
425.64	435.34
425.83	416.62
426.01	447.04
426.20	404.91
426.39	425.98
426.58	390.87
426.77	400.23
426.96	414.27
427.15	390.87
427.33	430.66
427.52	437.68
427.71	358.10
427.90	414.27
428.09	428.32
428.28	402.57
428.46	449.38
428.65	484.49
428.84	416.62
429.03	372.15
429.22	425.98
429.40	322.99
429.59	383.85
429.78	428.32
429.97	428.32
430.16	362.78
430.34	433.00
430.53	461.09
430.72	418.96
430.91	454.06
431.10	404.91
431.28	414.27
431.47	390.87
431.66	416.62
431.85	379.17
432.03	372.15
432.22	440.02
432.41	433.00
432.60	397.89
432.79	390.87
432.97	404.91
433.16	404.91
433.35	433.00
433.54	362.78
433.72	407.25
433.91	468.11
434.10	449.38
434.28	355.76
434.47	381.51
434.66	447.04
434.85	411.93
435.03	402.57
435.22	463.43
435.41	437.68
435.59	461.09
435.78	433.00
435.97	376.83
436.16	433.00
436.34	423.64
436.53	414.27
436.72	430.66
436.90	428.32
437.09	411.93
437.28	421.30
437.46	416.62
437.65	369.80
437.84	461.09
438.02	510.24
438.21	512.58
438.40	444.70
438.58	425.98
438.77	435.34
438.96	433.00
439.14	372.15
439.33	393.21
439.52	414.27
439.70	425.98
439.89	390.87
440.08	388.53
440.26	367.46
440.45	416.62
440.63	465.77
440.82	437.68
441.01	449.38
441.19	418.96
441.38	397.89
441.57	435.34
441.75	390.87
441.94	425.98
442.12	383.85
442.31	433.00
442.50	393.21
442.68	372.15
442.87	433.00
443.05	430.66
443.24	425.98
443.43	423.64
443.61	484.49
443.80	423.64
443.98	428.32
444.17	411.93
444.35	444.70
444.54	397.89
444.73	390.87
444.91	409.59
445.10	449.38
445.28	365.12
445.47	458.74
445.65	493.85
445.84	355.76
446.02	397.89
446.21	369.80
446.39	447.04
446.58	374.49
446.77	388.53
446.95	461.09
447.14	484.49
447.32	456.40
447.51	414.27
447.69	365.12
447.88	383.85
448.06	435.34
448.25	411.93
448.43	376.83
448.62	315.97
448.80	388.53
448.99	381.51
449.17	493.85
449.36	414.27
449.54	388.53
449.73	444.70
449.91	440.02
450.10	400.23
450.28	430.66
450.46	425.98
450.65	423.64
450.83	416.62
451.02	423.64
451.20	507.90
451.39	425.98
451.57	348.74
451.76	433.00
451.94	437.68
452.13	447.04
452.31	470.45
452.49	418.96
452.68	416.62
452.86	451.72
453.05	484.49
453.23	458.74
453.42	337.04
453.60	479.81
453.78	440.02
453.97	421.30
454.15	388.53
454.34	351.08
454.52	421.30
454.70	402.57
454.89	442.36
455.07	468.11
455.26	430.66
455.44	425.98
455.62	407.25
455.81	468.11
455.99	402.57
456.17	430.66
456.36	407.25
456.54	458.74
456.73	484.49
456.91	381.51
457.09	416.62
457.28	421.30
457.46	416.62
457.64	512.58
457.83	383.85
458.01	351.08
458.19	369.80
458.38	472.79
458.56	423.64
458.74	395.55
458.93	351.08
459.11	393.21
459.29	435.34
459.48	425.98
459.66	456.40
459.84	442.36
460.03	510.24
460.21	463.43
460.39	386.19
460.57	433.00
460.76	433.00
460.94	433.00
461.12	407.25
461.31	411.93
461.49	418.96
461.67	390.87
461.85	416.62
462.04	433.00
462.22	828.55
462.40	451.72
462.59	498.53
462.77	447.04
462.95	416.62
463.13	322.99
463.32	468.11
463.50	393.21
463.68	447.04
463.86	437.68
464.05	411.93
464.23	421.30
464.41	379.17
464.59	411.93
464.78	362.78
464.96	374.49
465.14	390.87
465.32	397.89
465.50	451.72
465.69	428.32
465.87	416.62
466.05	479.81
466.23	381.51
466.41	400.23
466.60	411.93
466.78	451.72
466.96	444.70
467.14	461.09
467.32	470.45
467.51	411.93
467.69	367.46
467.87	411.93
468.05	397.89
468.23	418.96
468.41	395.55
468.60	437.68
468.78	369.80
468.96	402.57
469.14	433.00
469.32	411.93
469.50	332.36
469.69	400.23
469.87	397.89
470.05	383.85
470.23	433.00
470.41	381.51
470.59	465.77
470.77	423.64
470.95	503.22
471.14	362.78
471.32	526.62
471.50	491.51
471.68	461.09
471.86	411.93
472.04	388.53
472.22	372.15
472.40	414.27
472.58	386.19
472.77	404.91
472.95	425.98
473.13	407.25
473.31	423.64
473.49	360.44
473.67	374.49
473.85	395.55
474.03	393.21
474.21	416.62
474.39	409.59
474.57	411.93
474.75	411.93
474.93	369.80
475.12	416.62
475.30	376.83
475.48	458.74
475.66	367.46
475.84	393.21
476.02	430.66
476.20	409.59
476.38	358.10
476.56	465.77
476.74	498.53
476.92	351.08
477.10	367.46
477.28	416.62
477.46	372.15
477.64	407.25
477.82	418.96
478.00	381.51
478.18	435.34
478.36	400.23
478.54	362.78
478.72	428.32
478.90	409.59
479.08	358.10
479.26	423.64
479.44	360.44
479.62	433.00
479.80	482.15
479.98	353.42
480.16	435.34
480.34	383.85
480.52	414.27
480.70	418.96
480.88	346.40
481.06	430.66
481.24	433.00
481.41	402.57
481.59	355.76
481.77	388.53
481.95	379.17
482.13	468.11
482.31	346.40
482.49	404.91
482.67	397.89
482.85	397.89
483.03	435.34
483.21	540.66
483.39	407.25
483.57	402.57
483.74	493.85
483.92	409.59
484.10	402.57
484.28	376.83
484.46	484.49
484.64	322.99
484.82	449.38
485.00	400.23
485.18	418.96
485.35	458.74
485.53	393.21
485.71	437.68
485.89	435.34
486.07	404.91
486.25	454.06
486.43	430.66
486.61	442.36
486.78	482.15
486.96	404.91
487.14	421.30
487.32	461.09
487.50	325.33
487.68	372.15
487.85	393.21
488.03	414.27
488.21	451.72
488.39	418.96
488.57	428.32
488.75	477.47
488.92	533.64
489.10	421.30
489.28	344.06
489.46	362.78
489.64	444.70
489.81	440.02
489.99	449.38
490.17	355.76
490.35	425.98
490.53	393.21
490.70	428.32
490.88	447.04
491.06	435.34
491.24	418.96
491.41	437.68
491.59	407.25
491.77	404.91
491.95	337.04
492.13	390.87
492.30	470.45
492.48	418.96
492.66	472.79
492.84	379.17
493.01	414.27
493.19	411.93
493.37	400.23
493.54	402.57
493.72	367.46
493.90	344.06
494.08	409.59
494.25	428.32
494.43	416.62
494.61	369.80
494.79	334.70
494.96	414.27
495.14	468.11
495.32	402.57
495.49	383.85
495.67	416.62
495.85	404.91
496.02	407.25
496.20	423.64
496.38	390.87
496.55	404.91
496.73	449.38
496.91	428.32
497.09	383.85
497.26	472.79
497.44	479.81
497.62	421.30
497.79	393.21
497.97	442.36
498.14	423.64
498.32	444.70
498.50	416.62
498.67	400.23
498.85	348.74
499.03	386.19
499.20	416.62
499.38	386.19
499.56	383.85
499.73	440.02
499.91	470.45
500.08	500.87
500.26	407.25
500.44	407.25
500.61	428.32
500.79	388.53
500.97	447.04
501.14	416.62
501.32	428.32
501.49	449.38
501.67	386.19
501.84	458.74
502.02	353.42
502.20	428.32
502.37	456.40
502.55	449.38
502.72	372.15
502.90	379.17
503.07	402.57
503.25	360.44
503.43	402.57
503.60	372.15
503.78	447.04
503.95	482.15
504.13	440.02
504.30	400.23
504.48	486.83
504.65	416.62
504.83	414.27
505.01	404.91
505.18	358.10
505.36	402.57
505.53	407.25
505.71	381.51
505.88	400.23
506.06	458.74
506.23	430.66
506.41	344.06
506.58	414.27
506.76	372.15
506.93	407.25
507.11	425.98
507.28	440.02
507.46	311.29
507.63	404.91
507.81	418.96
507.98	451.72
508.16	360.44
508.33	409.59
508.50	341.72
508.68	447.04
508.85	433.00
509.03	402.57
509.20	500.87
509.38	414.27
509.55	461.09
509.73	381.51
509.90	411.93
510.08	442.36
510.25	414.27
510.42	379.17
510.60	407.25
510.77	418.96
510.95	372.15
511.12	435.34
511.30	465.77
511.47	390.87
511.64	395.55
511.82	433.00
511.99	381.51
512.17	440.02
512.34	348.74
512.51	430.66
512.69	400.23
512.86	465.77
513.04	430.66
513.21	440.02
513.38	482.15
513.56	470.45
513.73	386.19
513.90	367.46
514.08	444.70
514.25	444.70
514.43	414.27
514.60	390.87
514.77	374.49
514.95	369.80
515.12	376.83
515.29	388.53
515.47	397.89
515.64	447.04
515.81	430.66
515.99	381.51
516.16	360.44
516.33	479.81
516.51	465.77
516.68	376.83
516.85	411.93
517.03	425.98
517.20	416.62
517.37	456.40
517.54	437.68
517.72	400.23
517.89	353.42
518.06	322.99
518.24	447.04
518.41	372.15
518.58	425.98
518.75	423.64
518.93	365.12
519.10	454.06
519.27	409.59
519.45	463.43
519.62	433.00
519.79	425.98
519.96	437.68
520.14	414.27
520.31	435.34
520.48	430.66
520.65	449.38
520.83	463.43
521.00	454.06
521.17	505.56
521.34	390.87
521.52	433.00
521.69	407.25
521.86	386.19
522.03	425.98
522.20	421.30
522.38	374.49
522.55	435.34
522.72	404.91
522.89	402.57
523.07	479.81
523.24	416.62
523.41	414.27
523.58	365.12
523.75	465.77
523.92	409.59
524.10	449.38
524.27	416.62
524.44	425.98
524.61	402.57
524.78	409.59
524.96	404.91
525.13	484.49
525.30	433.00
525.47	489.17
525.64	376.83
525.81	365.12
525.98	386.19
526.16	393.21
526.33	400.23
526.50	440.02
526.67	421.30
526.84	416.62
527.01	433.00
527.18	388.53
527.36	402.57
527.53	407.25
527.70	440.02
527.87	388.53
528.04	461.09
528.21	365.12
528.38	430.66
528.55	470.45
528.72	376.83
528.89	416.62
529.07	425.98
529.24	360.44
529.41	468.11
529.58	390.87
529.75	301.93
529.92	442.36
530.09	388.53
530.26	451.72
530.43	442.36
530.60	463.43
530.77	386.19
530.94	407.25
531.11	416.62
531.28	369.80
531.46	500.87
531.63	402.57
531.80	440.02
531.97	416.62
532.14	386.19
532.31	440.02
532.48	491.51
532.65	428.32
532.82	397.89
532.99	411.93
533.16	381.51
533.33	358.10
533.50	421.30
533.67	372.15
533.84	374.49
534.01	447.04
534.18	407.25
534.35	376.83
534.52	404.91
534.69	433.00
534.86	430.66
535.03	425.98
535.20	395.55
535.37	435.34
535.54	404.91
535.71	500.87
535.88	440.02
536.05	402.57
536.22	433.00
536.38	451.72
536.55	404.91
536.72	425.98
536.89	463.43
537.06	421.30
537.23	397.89
537.40	381.51
537.57	411.93
537.74	442.36
537.91	409.59
538.08	376.83
538.25	374.49
538.42	358.10
538.59	402.57
538.75	397.89
538.92	416.62
539.09	468.11
539.26	381.51
539.43	355.76
539.60	437.68
539.77	433.00
539.94	416.62
540.11	365.12
540.28	428.32
540.44	440.02
540.61	388.53
540.78	365.12
540.95	404.91
541.12	414.27
541.29	386.19
541.46	313.63
541.62	393.21
541.79	358.10
541.96	430.66
542.13	411.93
542.30	397.89
542.47	425.98
542.63	435.34
542.80	447.04
542.97	435.34
543.14	379.17
543.31	428.32
543.48	376.83
543.64	449.38
543.81	362.78
543.98	470.45
544.15	369.80
544.32	423.64
544.48	444.70
544.65	407.25
544.82	421.30
544.99	369.80
545.16	521.94
545.32	381.51
545.49	388.53
545.66	440.02
545.83	407.25
546.00	393.21
546.16	374.49
546.33	381.51
546.50	437.68
546.67	435.34
546.83	475.13
547.00	379.17
547.17	376.83
547.34	397.89
547.50	390.87
547.67	461.09
547.84	379.17
548.00	376.83
548.17	397.89
548.34	395.55
548.51	388.53
548.67	397.89
548.84	386.19
549.01	404.91
549.18	393.21
549.34	449.38
549.51	433.00
549.68	355.76
549.84	416.62
550.01	311.29
550.18	458.74
550.34	442.36
550.51	423.64
550.68	477.47
550.84	423.64
551.01	421.30
551.18	397.89
551.34	454.06
551.51	475.13
551.68	395.55
551.84	463.43
552.01	418.96
552.18	444.70
552.34	404.91
552.51	348.74
552.68	400.23
552.84	418.96
553.01	407.25
553.18	449.38
553.34	423.64
553.51	437.68
553.67	458.74
553.84	447.04
554.01	421.30
554.17	397.89
554.34	451.72
554.51	454.06
554.67	437.68
554.84	479.81
555.00	428.32
555.17	454.06
555.33	395.55
555.50	416.62
555.67	458.74
555.83	440.02
556.00	376.83
556.16	498.53
556.33	500.87
556.50	421.30
556.66	383.85
556.83	435.34
556.99	484.49
557.16	369.80
557.32	409.59
557.49	414.27
557.65	430.66
557.82	369.80
557.98	367.46
558.15	423.64
558.32	414.27
558.48	362.78
558.65	414.27
558.81	414.27
558.98	390.87
559.14	397.89
559.31	414.27
559.47	468.11
559.64	404.91
559.80	402.57
559.97	479.81
560.13	437.68
560.30	451.72
560.46	472.79
560.63	475.13
560.79	449.38
560.96	496.19
561.12	379.17
561.29	381.51
561.45	435.34
561.61	423.64
561.78	454.06
561.94	395.55
562.11	428.32
562.27	430.66
562.44	383.85
562.60	463.43
562.77	341.72
562.93	486.83
563.10	442.36
563.26	348.74
563.42	374.49
563.59	472.79
563.75	433.00
563.92	461.09
564.08	397.89
564.24	344.06
564.41	498.53
564.57	407.25
564.74	430.66
564.90	376.83
565.07	416.62
565.23	414.27
565.39	421.30
565.56	444.70
565.72	344.06
565.88	440.02
566.05	447.04
566.21	461.09
566.38	472.79
566.54	397.89
566.70	414.27
566.87	383.85
567.03	418.96
567.19	479.81
567.36	393.21
567.52	428.32
567.68	437.68
567.85	461.09
568.01	411.93
568.17	444.70
568.34	435.34
568.50	425.98
568.66	404.91
568.83	449.38
568.99	311.29
569.15	388.53
569.32	428.32
569.48	411.93
569.64	353.42
569.81	458.74
569.97	470.45
570.13	484.49
570.30	461.09
570.46	444.70
570.62	348.74
570.78	442.36
570.95	454.06
571.11	355.76
571.27	428.32
571.43	388.53
571.60	430.66
571.76	433.00
571.92	444.70
572.09	486.83
572.25	414.27
572.41	421.30
572.57	348.74
572.74	395.55
572.90	418.96
573.06	355.76
573.22	369.80
573.38	423.64
573.55	425.98
573.71	458.74
573.87	486.83
574.03	423.64
574.20	423.64
574.36	372.15
574.52	421.30
574.68	390.87
574.84	461.09
575.01	503.22
575.17	465.77
575.33	486.83
575.49	496.19
575.65	416.62
575.82	407.25
575.98	496.19
576.14	409.59
576.30	407.25
576.46	383.85
576.62	386.19
576.79	440.02
576.95	451.72
577.11	472.79
577.27	400.23
577.43	440.02
577.59	395.55
577.75	463.43
577.92	435.34
578.08	418.96
578.24	395.55
578.40	381.51
578.56	491.51
578.72	348.74
578.88	493.85
579.04	400.23
579.21	421.30
579.37	388.53
579.53	454.06
579.69	421.30
579.85	421.30
580.01	395.55
580.17	393.21
580.33	435.34
580.49	451.72
580.65	416.62
580.82	423.64
580.98	414.27
581.14	374.49
581.30	470.45
581.46	388.53
581.62	395.55
581.78	433.00
581.94	435.34
582.10	397.89
582.26	372.15
582.42	463.43
582.58	425.98
582.74	423.64
582.90	414.27
583.06	397.89
583.22	390.87
583.38	418.96
583.54	411.93
583.70	430.66
583.86	414.27
584.02	444.70
584.18	444.70
584.34	484.49
584.50	334.70
584.66	437.68
584.82	414.27
584.98	395.55
585.14	418.96
585.30	425.98
585.46	458.74
585.62	416.62
585.78	442.36
585.94	411.93
586.10	325.33
586.26	379.17
586.42	493.85
586.58	418.96
586.74	411.93
586.90	458.74
587.06	374.49
587.22	423.64
587.38	402.57
587.54	325.33
587.70	381.51
587.86	463.43
588.02	425.98
588.18	372.15
588.34	444.70
588.49	381.51
588.65	442.36
588.81	428.32
588.97	442.36
589.13	437.68
589.29	451.72
589.45	447.04
589.61	409.59
589.77	456.40
589.93	430.66
590.08	428.32
590.24	409.59
590.40	388.53
590.56	416.62
590.72	447.04
590.88	346.40
591.04	423.64
591.20	372.15
591.35	418.96
591.51	409.59
591.67	409.59
591.83	397.89
591.99	496.19
592.15	470.45
592.31	388.53
592.46	367.46
592.62	411.93
592.78	362.78
592.94	404.91
593.10	451.72
593.26	475.13
593.41	463.43
593.57	458.74
593.73	421.30
593.89	428.32
594.05	372.15
594.20	287.89
594.36	407.25
594.52	451.72
594.68	411.93
594.84	421.30
594.99	418.96
595.15	414.27
595.31	430.66
595.47	414.27
595.62	435.34
595.78	421.30
595.94	400.23
596.10	512.58
596.25	411.93
596.41	489.17
596.57	409.59
596.73	400.23
596.88	430.66
597.04	442.36
597.20	362.78
597.36	421.30
597.51	428.32
597.67	435.34
597.83	388.53
597.99	447.04
598.14	383.85
598.30	475.13
598.46	395.55
598.61	400.23
598.77	477.47
598.93	397.89
599.09	414.27
599.24	493.85
599.40	433.00
599.56	421.30
599.71	456.40
599.87	402.57
600.03	451.72
600.18	400.23
600.34	477.47
600.50	449.38
600.65	362.78
600.81	456.40
600.97	444.70
601.12	409.59
601.28	454.06
601.44	414.27
601.59	395.55
601.75	418.96
601.91	395.55
602.06	449.38
602.22	470.45
602.37	407.25
602.53	383.85
602.69	435.34
602.84	444.70
603.00	379.17
603.16	447.04
603.31	418.96
603.47	404.91
603.62	449.38
603.78	402.57
603.94	428.32
604.09	465.77
604.25	430.66
604.40	400.23
604.56	440.02
604.71	407.25
604.87	433.00
605.03	395.55
605.18	510.24
605.34	451.72
605.49	388.53
605.65	344.06
605.80	383.85
605.96	355.76
606.12	505.56
606.27	397.89
606.43	409.59
606.58	383.85
606.74	416.62
606.89	442.36
607.05	496.19
607.20	430.66
607.36	444.70
607.51	411.93
607.67	475.13
607.82	355.76
607.98	470.45
608.13	376.83
608.29	390.87
608.44	404.91
608.60	402.57
608.75	463.43
608.91	393.21
609.06	360.44
609.22	337.04
609.37	451.72
609.53	376.83
609.68	444.70
609.84	421.30
609.99	367.46
610.15	409.59
