SpectraSuite Data File
++++++++++++++++++++++++++++++++++++
Date: Fri Oct 25 12:10:56 EDT 2013
User: price-jones
Dark Spectrum Present: No
Reference Spectrum Present: No
Number of Sampled Component Spectra: 1
Spectrometers: USB2+H05261
Integration Time (usec): 100000 (USB2+H05261)
Spectra Averaged: 1 (USB2+H05261)
Boxcar Smoothing: 0 (USB2+H05261)
Correct for Electrical Dark: No (USB2+H05261)
Strobe/Lamp Enabled: No (USB2+H05261)
Correct for Detector Non-linearity: No (USB2+H05261)
Correct for Stray Light: No (USB2+H05261)
Number of Pixels in Processed Spectrum: 2048
>>>>>Begin Processed Spectral Data<<<<<
365.73	322.99
365.92	322.99
366.12	322.99
366.32	299.59
366.52	264.48
366.72	191.92
366.91	259.80
367.11	269.16
367.31	180.22
367.51	198.95
367.70	266.82
367.90	266.82
368.10	236.39
368.30	229.37
368.49	297.25
368.69	266.82
368.89	243.42
369.09	227.03
369.28	255.12
369.48	278.52
369.68	311.29
369.87	388.53
370.07	414.27
370.27	315.97
370.47	341.72
370.66	348.74
370.86	346.40
371.06	374.49
371.25	458.74
371.45	311.29
371.65	374.49
371.84	376.83
372.04	320.65
372.24	447.04
372.44	386.19
372.63	362.78
372.83	440.02
373.03	395.55
373.22	414.27
373.42	479.81
373.62	390.87
373.81	409.59
374.01	454.06
374.21	414.27
374.40	463.43
374.60	456.40
374.79	411.93
374.99	374.49
375.19	395.55
375.38	308.95
375.58	404.91
375.78	491.51
375.97	390.87
376.17	454.06
376.37	397.89
376.56	449.38
376.76	367.46
376.95	411.93
377.15	409.59
377.35	383.85
377.54	470.45
377.74	390.87
377.93	353.42
378.13	444.70
378.33	456.40
378.52	409.59
378.72	442.36
378.91	440.02
379.11	393.21
379.31	348.74
379.50	463.43
379.70	461.09
379.89	376.83
380.09	393.21
380.28	383.85
380.48	430.66
380.68	449.38
380.87	409.59
381.07	475.13
381.26	423.64
381.46	388.53
381.65	493.85
381.85	337.04
382.04	423.64
382.24	409.59
382.43	442.36
382.63	418.96
382.83	430.66
383.02	402.57
383.22	444.70
383.41	491.51
383.61	423.64
383.80	414.27
384.00	383.85
384.19	456.40
384.39	442.36
384.58	411.93
384.78	440.02
384.97	519.60
385.17	404.91
385.36	425.98
385.56	407.25
385.75	381.51
385.95	355.76
386.14	393.21
386.34	421.30
386.53	409.59
386.72	388.53
386.92	400.23
387.11	381.51
387.31	393.21
387.50	416.62
387.70	472.79
387.89	388.53
388.09	428.32
388.28	407.25
388.48	337.04
388.67	402.57
388.86	397.89
389.06	465.77
389.25	400.23
389.45	409.59
389.64	414.27
389.84	435.34
390.03	454.06
390.22	362.78
390.42	404.91
390.61	322.99
390.81	383.85
391.00	414.27
391.19	458.74
391.39	374.49
391.58	400.23
391.78	416.62
391.97	482.15
392.16	404.91
392.36	447.04
392.55	404.91
392.75	437.68
392.94	411.93
393.13	440.02
393.33	400.23
393.52	390.87
393.71	372.15
393.91	423.64
394.10	369.80
394.29	379.17
394.49	421.30
394.68	407.25
394.88	416.62
395.07	393.21
395.26	440.02
395.46	400.23
395.65	505.56
395.84	383.85
396.04	456.40
396.23	425.98
396.42	400.23
396.62	369.80
396.81	428.32
397.00	444.70
397.19	362.78
397.39	430.66
397.58	416.62
397.77	416.62
397.97	402.57
398.16	416.62
398.35	395.55
398.55	353.42
398.74	423.64
398.93	365.12
399.12	393.21
399.32	397.89
399.51	449.38
399.70	395.55
399.90	388.53
400.09	388.53
400.28	428.32
400.47	407.25
400.67	475.13
400.86	367.46
401.05	425.98
401.24	386.19
401.44	395.55
401.63	442.36
401.82	367.46
402.01	388.53
402.21	386.19
402.40	421.30
402.59	461.09
402.78	489.17
402.97	386.19
403.17	397.89
403.36	451.72
403.55	440.02
403.74	411.93
403.93	381.51
404.13	444.70
404.32	428.32
404.51	411.93
404.70	458.74
404.89	400.23
405.09	472.79
405.28	374.49
405.47	416.62
405.66	358.10
405.85	454.06
406.05	404.91
406.24	411.93
406.43	409.59
406.62	425.98
406.81	465.77
407.00	367.46
407.20	428.32
407.39	404.91
407.58	372.15
407.77	376.83
407.96	407.25
408.15	348.74
408.34	393.21
408.54	414.27
408.73	425.98
408.92	440.02
409.11	400.23
409.30	440.02
409.49	395.55
409.68	435.34
409.87	414.27
410.07	416.62
410.26	409.59
410.45	461.09
410.64	418.96
410.83	425.98
411.02	351.08
411.21	433.00
411.40	470.45
411.59	416.62
411.78	369.80
411.98	423.64
412.17	425.98
412.36	442.36
412.55	402.57
412.74	425.98
412.93	451.72
413.12	418.96
413.31	397.89
413.50	397.89
413.69	414.27
413.88	454.06
414.07	444.70
414.26	386.19
414.45	355.76
414.64	456.40
414.83	418.96
415.02	507.90
415.22	428.32
415.41	482.15
415.60	407.25
415.79	379.17
415.98	395.55
416.17	383.85
416.36	472.79
416.55	355.76
416.74	440.02
416.93	451.72
417.12	423.64
417.31	400.23
417.50	379.17
417.69	421.30
417.88	388.53
418.07	379.17
418.26	409.59
418.45	402.57
418.64	477.47
418.83	407.25
419.02	470.45
419.21	369.80
419.39	409.59
419.58	397.89
419.77	397.89
419.96	372.15
420.15	425.98
420.34	374.49
420.53	451.72
420.72	369.80
420.91	407.25
421.10	411.93
421.29	388.53
421.48	458.74
421.67	444.70
421.86	353.42
422.05	447.04
422.24	351.08
422.43	444.70
422.61	433.00
422.80	449.38
422.99	433.00
423.18	372.15
423.37	500.87
423.56	409.59
423.75	449.38
423.94	472.79
424.13	425.98
424.32	418.96
424.50	418.96
424.69	454.06
424.88	463.43
425.07	383.85
425.26	325.33
425.45	411.93
425.64	433.00
425.83	407.25
426.01	411.93
426.20	400.23
426.39	418.96
426.58	376.83
426.77	402.57
426.96	365.12
427.15	425.98
427.33	468.11
427.52	381.51
427.71	416.62
427.90	484.49
428.09	437.68
428.28	407.25
428.46	409.59
428.65	428.32
428.84	334.70
429.03	451.72
429.22	440.02
429.40	416.62
429.59	376.83
429.78	421.30
429.97	463.43
430.16	374.49
430.34	355.76
430.53	411.93
430.72	470.45
430.91	397.89
431.10	372.15
431.28	461.09
431.47	468.11
431.66	355.76
431.85	416.62
432.03	390.87
432.22	404.91
432.41	425.98
432.60	435.34
432.79	402.57
432.97	367.46
433.16	393.21
433.35	365.12
433.54	425.98
433.72	348.74
433.91	456.40
434.10	402.57
434.28	428.32
434.47	334.70
434.66	430.66
434.85	416.62
435.03	402.57
435.22	489.17
435.41	407.25
435.59	322.99
435.78	477.47
435.97	388.53
436.16	493.85
436.34	465.77
436.53	379.17
436.72	421.30
436.90	468.11
437.09	388.53
437.28	411.93
437.46	428.32
437.65	423.64
437.84	388.53
438.02	435.34
438.21	390.87
438.40	418.96
438.58	367.46
438.77	388.53
438.96	454.06
439.14	423.64
439.33	418.96
439.52	425.98
439.70	425.98
439.89	456.40
440.08	470.45
440.26	386.19
440.45	360.44
440.63	503.22
440.82	409.59
441.01	444.70
441.19	400.23
441.38	428.32
441.57	404.91
441.75	454.06
441.94	505.56
442.12	428.32
442.31	411.93
442.50	390.87
442.68	411.93
442.87	381.51
443.05	430.66
443.24	386.19
443.43	386.19
443.61	437.68
443.80	442.36
443.98	423.64
444.17	411.93
444.35	421.30
444.54	416.62
444.73	433.00
444.91	472.79
445.10	465.77
445.28	437.68
445.47	362.78
445.65	430.66
445.84	346.40
446.02	463.43
446.21	416.62
446.39	465.77
446.58	390.87
446.77	390.87
446.95	404.91
447.14	372.15
447.32	489.17
447.51	386.19
447.69	451.72
447.88	383.85
448.06	468.11
448.25	423.64
448.43	454.06
448.62	414.27
448.80	397.89
448.99	407.25
449.17	379.17
449.36	435.34
449.54	463.43
449.73	374.49
449.91	435.34
450.10	416.62
450.28	430.66
450.46	489.17
450.65	395.55
450.83	435.34
451.02	423.64
451.20	358.10
451.39	411.93
451.57	390.87
451.76	477.47
451.94	407.25
452.13	416.62
452.31	421.30
452.49	465.77
452.68	397.89
452.86	425.98
453.05	517.26
453.23	355.76
453.42	418.96
453.60	407.25
453.78	451.72
453.97	433.00
454.15	418.96
454.34	388.53
454.52	379.17
454.70	383.85
454.89	507.90
455.07	402.57
455.26	458.74
455.44	418.96
455.62	461.09
455.81	393.21
455.99	386.19
456.17	437.68
456.36	440.02
456.54	430.66
456.73	430.66
456.91	425.98
457.09	367.46
457.28	383.85
457.46	458.74
457.64	423.64
457.83	367.46
458.01	463.43
458.19	425.98
458.38	425.98
458.56	447.04
458.74	383.85
458.93	444.70
459.11	390.87
459.29	390.87
459.48	407.25
459.66	454.06
459.84	458.74
460.03	447.04
460.21	449.38
460.39	409.59
460.57	447.04
460.76	458.74
460.94	425.98
461.12	458.74
461.31	404.91
461.49	440.02
461.67	435.34
461.85	437.68
462.04	435.34
462.22	774.72
462.40	421.30
462.59	416.62
462.77	491.51
462.95	381.51
463.13	416.62
463.32	433.00
463.50	442.36
463.68	414.27
463.86	395.55
464.05	362.78
464.23	449.38
464.41	484.49
464.59	348.74
464.78	407.25
464.96	407.25
465.14	447.04
465.32	458.74
465.50	397.89
465.69	458.74
465.87	454.06
466.05	374.49
466.23	447.04
466.41	437.68
466.60	437.68
466.78	390.87
466.96	507.90
467.14	454.06
467.32	444.70
467.51	449.38
467.69	400.23
467.87	468.11
468.05	332.36
468.23	507.90
468.41	461.09
468.60	442.36
468.78	479.81
468.96	425.98
469.14	503.22
469.32	435.34
469.50	386.19
469.69	437.68
469.87	402.57
470.05	376.83
470.23	433.00
470.41	362.78
470.59	346.40
470.77	472.79
470.95	402.57
471.14	404.91
471.32	418.96
471.50	440.02
471.68	407.25
471.86	433.00
472.04	409.59
472.22	383.85
472.40	449.38
472.58	479.81
472.77	409.59
472.95	404.91
473.13	463.43
473.31	463.43
473.49	402.57
473.67	402.57
473.85	454.06
474.03	409.59
474.21	402.57
474.39	430.66
474.57	444.70
474.75	397.89
474.93	395.55
475.12	409.59
475.30	463.43
475.48	421.30
475.66	395.55
475.84	381.51
476.02	379.17
476.20	496.19
476.38	400.23
476.56	456.40
476.74	404.91
476.92	358.10
477.10	411.93
477.28	386.19
477.46	393.21
477.64	411.93
477.82	411.93
478.00	465.77
478.18	367.46
478.36	428.32
478.54	421.30
478.72	458.74
478.90	435.34
479.08	454.06
479.26	425.98
479.44	435.34
479.62	376.83
479.80	470.45
479.98	409.59
480.16	344.06
480.34	355.76
480.52	418.96
480.70	416.62
480.88	404.91
481.06	360.44
481.24	348.74
481.41	388.53
481.59	423.64
481.77	435.34
481.95	337.04
482.13	404.91
482.31	376.83
482.49	416.62
482.67	418.96
482.85	383.85
483.03	402.57
483.21	444.70
483.39	372.15
483.57	402.57
483.74	512.58
483.92	393.21
484.10	425.98
484.28	402.57
484.46	435.34
484.64	355.76
484.82	423.64
485.00	491.51
485.18	400.23
485.35	442.36
485.53	437.68
485.71	461.09
485.89	470.45
486.07	451.72
486.25	372.15
486.43	454.06
486.61	381.51
486.78	489.17
486.96	365.12
487.14	386.19
487.32	435.34
487.50	388.53
487.68	472.79
487.85	365.12
488.03	428.32
488.21	388.53
488.39	402.57
488.57	416.62
488.75	383.85
488.92	521.94
489.10	496.19
489.28	383.85
489.46	351.08
489.64	430.66
489.81	463.43
489.99	327.68
490.17	402.57
490.35	440.02
490.53	386.19
490.70	374.49
490.88	402.57
491.06	374.49
491.24	423.64
491.41	409.59
491.59	416.62
491.77	416.62
491.95	386.19
492.13	444.70
492.30	393.21
492.48	374.49
492.66	388.53
492.84	404.91
493.01	414.27
493.19	400.23
493.37	458.74
493.54	404.91
493.72	428.32
493.90	374.49
494.08	402.57
494.25	430.66
494.43	433.00
494.61	507.90
494.79	355.76
494.96	409.59
495.14	514.92
495.32	435.34
495.49	416.62
495.67	423.64
495.85	402.57
496.02	334.70
496.20	475.13
496.38	435.34
496.55	395.55
496.73	404.91
496.91	425.98
497.09	376.83
497.26	484.49
497.44	395.55
497.62	355.76
497.79	393.21
497.97	433.00
498.14	362.78
498.32	414.27
498.50	393.21
498.67	402.57
498.85	416.62
499.03	341.72
499.20	421.30
499.38	456.40
499.56	472.79
499.73	374.49
499.91	404.91
500.08	414.27
500.26	411.93
500.44	421.30
500.61	440.02
500.79	402.57
500.97	425.98
501.14	454.06
501.32	376.83
501.49	449.38
501.67	451.72
501.84	397.89
502.02	376.83
502.20	416.62
502.37	395.55
502.55	376.83
502.72	407.25
502.90	433.00
503.07	465.77
503.25	369.80
503.43	369.80
503.60	393.21
503.78	433.00
503.95	444.70
504.13	376.83
504.30	418.96
504.48	425.98
504.65	451.72
504.83	395.55
505.01	388.53
505.18	456.40
505.36	409.59
505.53	376.83
505.71	475.13
505.88	458.74
506.06	404.91
506.23	458.74
506.41	418.96
506.58	369.80
506.76	451.72
506.93	458.74
507.11	386.19
507.28	383.85
507.46	381.51
507.63	400.23
507.81	376.83
507.98	433.00
508.16	348.74
508.33	351.08
508.50	379.17
508.68	402.57
508.85	400.23
509.03	430.66
509.20	435.34
509.38	454.06
509.55	491.51
509.73	456.40
509.90	454.06
510.08	423.64
510.25	423.64
510.42	381.51
510.60	402.57
510.77	444.70
510.95	395.55
511.12	475.13
511.30	372.15
511.47	463.43
511.64	416.62
511.82	379.17
511.99	362.78
512.17	393.21
512.34	440.02
512.51	421.30
512.69	390.87
512.86	414.27
513.04	414.27
513.21	379.17
513.38	430.66
513.56	442.36
513.73	367.46
513.90	414.27
514.08	374.49
514.25	395.55
514.43	451.72
514.60	388.53
514.77	404.91
514.95	449.38
515.12	428.32
515.29	393.21
515.47	404.91
515.64	409.59
515.81	397.89
515.99	404.91
516.16	365.12
516.33	489.17
516.51	433.00
516.68	402.57
516.85	425.98
517.03	425.98
517.20	386.19
517.37	397.89
517.54	433.00
517.72	395.55
517.89	428.32
518.06	379.17
518.24	430.66
518.41	468.11
518.58	435.34
518.75	447.04
518.93	395.55
519.10	386.19
519.27	440.02
519.45	458.74
519.62	407.25
519.79	414.27
519.96	442.36
520.14	372.15
520.31	472.79
520.48	449.38
520.65	360.44
520.83	362.78
521.00	418.96
521.17	416.62
521.34	409.59
521.52	472.79
521.69	360.44
521.86	437.68
522.03	397.89
522.20	512.58
522.38	400.23
522.55	390.87
522.72	425.98
522.89	425.98
523.07	390.87
523.24	465.77
523.41	517.26
523.58	454.06
523.75	390.87
523.92	379.17
524.10	407.25
524.27	383.85
524.44	379.17
524.61	430.66
524.78	414.27
524.96	484.49
525.13	458.74
525.30	461.09
525.47	423.64
525.64	500.87
525.81	416.62
525.98	423.64
526.16	423.64
526.33	386.19
526.50	367.46
526.67	334.70
526.84	353.42
527.01	404.91
527.18	393.21
527.36	430.66
527.53	393.21
527.70	407.25
527.87	435.34
528.04	379.17
528.21	407.25
528.38	411.93
528.55	465.77
528.72	365.12
528.89	475.13
529.07	456.40
529.24	433.00
529.41	447.04
529.58	449.38
529.75	428.32
529.92	454.06
530.09	437.68
530.26	435.34
530.43	383.85
530.60	365.12
530.77	358.10
530.94	444.70
531.11	468.11
531.28	390.87
531.46	465.77
531.63	486.83
531.80	407.25
531.97	397.89
532.14	402.57
532.31	411.93
532.48	407.25
532.65	397.89
532.82	379.17
532.99	388.53
533.16	365.12
533.33	418.96
533.50	393.21
533.67	409.59
533.84	454.06
534.01	362.78
534.18	414.27
534.35	393.21
534.52	454.06
534.69	376.83
534.86	449.38
535.03	411.93
535.20	400.23
535.37	414.27
535.54	383.85
535.71	418.96
535.88	388.53
536.05	390.87
536.22	500.87
536.38	355.76
536.55	486.83
536.72	519.60
536.89	435.34
537.06	451.72
537.23	433.00
537.40	444.70
537.57	465.77
537.74	489.17
537.91	451.72
538.08	433.00
538.25	493.85
538.42	404.91
538.59	379.17
538.75	463.43
538.92	407.25
539.09	442.36
539.26	423.64
539.43	449.38
539.60	430.66
539.77	414.27
539.94	423.64
540.11	414.27
540.28	440.02
540.44	482.15
540.61	442.36
540.78	468.11
540.95	435.34
541.12	449.38
541.29	447.04
541.46	423.64
541.62	463.43
541.79	383.85
541.96	393.21
542.13	510.24
542.30	465.77
542.47	395.55
542.63	425.98
542.80	372.15
542.97	482.15
543.14	416.62
543.31	404.91
543.48	449.38
543.64	379.17
543.81	418.96
543.98	395.55
544.15	428.32
544.32	379.17
544.48	339.38
544.65	381.51
544.82	456.40
544.99	433.00
545.16	454.06
545.32	407.25
545.49	463.43
545.66	418.96
545.83	348.74
546.00	416.62
546.16	379.17
546.33	374.49
546.50	486.83
546.67	479.81
546.83	458.74
547.00	442.36
547.17	397.89
547.34	402.57
547.50	367.46
547.67	428.32
547.84	493.85
548.00	468.11
548.17	430.66
548.34	423.64
548.51	449.38
548.67	381.51
548.84	411.93
549.01	449.38
549.18	428.32
549.34	379.17
549.51	456.40
549.68	395.55
549.84	430.66
550.01	463.43
550.18	435.34
550.34	444.70
550.51	440.02
550.68	559.39
550.84	433.00
551.01	521.94
551.18	442.36
551.34	397.89
551.51	454.06
551.68	381.51
551.84	456.40
552.01	404.91
552.18	451.72
552.34	449.38
552.51	402.57
552.68	416.62
552.84	430.66
553.01	428.32
553.18	390.87
553.34	411.93
553.51	395.55
553.67	440.02
553.84	390.87
554.01	477.47
554.17	451.72
554.34	514.92
554.51	388.53
554.67	421.30
554.84	451.72
555.00	482.15
555.17	388.53
555.33	393.21
555.50	458.74
555.67	454.06
555.83	451.72
556.00	428.32
556.16	461.09
556.33	435.34
556.50	423.64
556.66	418.96
556.83	425.98
556.99	400.23
557.16	435.34
557.32	409.59
557.49	369.80
557.65	423.64
557.82	428.32
557.98	400.23
558.15	388.53
558.32	407.25
558.48	421.30
558.65	435.34
558.81	465.77
558.98	416.62
559.14	461.09
559.31	435.34
559.47	435.34
559.64	430.66
559.80	484.49
559.97	402.57
560.13	402.57
560.30	386.19
560.46	402.57
560.63	395.55
560.79	390.87
560.96	383.85
561.12	397.89
561.29	414.27
561.45	484.49
561.61	397.89
561.78	503.22
561.94	428.32
562.11	414.27
562.27	468.11
562.44	388.53
562.60	346.40
562.77	376.83
562.93	491.51
563.10	362.78
563.26	454.06
563.42	362.78
563.59	456.40
563.75	414.27
563.92	416.62
564.08	440.02
564.24	404.91
564.41	430.66
564.57	313.63
564.74	393.21
564.90	486.83
565.07	465.77
565.23	418.96
565.39	430.66
565.56	423.64
565.72	418.96
565.88	376.83
566.05	374.49
566.21	393.21
566.38	456.40
566.54	409.59
566.70	376.83
566.87	393.21
567.03	332.36
567.19	411.93
567.36	447.04
567.52	423.64
567.68	463.43
567.85	414.27
568.01	435.34
568.17	407.25
568.34	404.91
568.50	409.59
568.66	409.59
568.83	449.38
568.99	463.43
569.15	482.15
569.32	397.89
569.48	404.91
569.64	381.51
569.81	409.59
569.97	367.46
570.13	411.93
570.30	437.68
570.46	390.87
570.62	395.55
570.78	468.11
570.95	372.15
571.11	388.53
571.27	458.74
571.43	444.70
571.60	376.83
571.76	486.83
571.92	470.45
572.09	416.62
572.25	379.17
572.41	418.96
572.57	411.93
572.74	428.32
572.90	430.66
573.06	397.89
573.22	374.49
573.38	472.79
573.55	458.74
573.71	428.32
573.87	397.89
574.03	433.00
574.20	416.62
574.36	493.85
574.52	381.51
574.68	400.23
574.84	400.23
575.01	400.23
575.17	388.53
575.33	402.57
575.49	428.32
575.65	433.00
575.82	365.12
575.98	447.04
576.14	393.21
576.30	407.25
576.46	369.80
576.62	416.62
576.79	437.68
576.95	411.93
577.11	407.25
577.27	374.49
577.43	447.04
577.59	433.00
577.75	461.09
577.92	346.40
578.08	379.17
578.24	353.42
578.40	374.49
578.56	404.91
578.72	393.21
578.88	397.89
579.04	376.83
579.21	461.09
579.37	395.55
579.53	425.98
579.69	496.19
579.85	449.38
580.01	421.30
580.17	486.83
580.33	430.66
580.49	454.06
580.65	393.21
580.82	402.57
580.98	435.34
581.14	470.45
581.30	440.02
581.46	451.72
581.62	407.25
581.78	407.25
581.94	379.17
582.10	442.36
582.26	407.25
582.42	451.72
582.58	386.19
582.74	402.57
582.90	360.44
583.06	379.17
583.22	440.02
583.38	444.70
583.54	437.68
583.70	491.51
583.86	463.43
584.02	414.27
584.18	425.98
584.34	404.91
584.50	390.87
584.66	390.87
584.82	409.59
584.98	418.96
585.14	341.72
585.30	486.83
585.46	414.27
585.62	416.62
585.78	397.89
585.94	456.40
586.10	430.66
586.26	451.72
586.42	386.19
586.58	409.59
586.74	486.83
586.90	416.62
587.06	334.70
587.22	404.91
587.38	395.55
587.54	395.55
587.70	428.32
587.86	393.21
588.02	395.55
588.18	397.89
588.34	390.87
588.49	440.02
588.65	465.77
588.81	390.87
588.97	437.68
589.13	428.32
589.29	433.00
589.45	482.15
589.61	454.06
589.77	383.85
589.93	400.23
590.08	407.25
590.24	381.51
590.40	404.91
590.56	472.79
590.72	346.40
590.88	390.87
591.04	411.93
591.20	425.98
591.35	418.96
591.51	411.93
591.67	404.91
591.83	404.91
591.99	411.93
592.15	409.59
592.31	386.19
592.46	447.04
592.62	479.81
592.78	395.55
592.94	418.96
593.10	393.21
593.26	435.34
593.41	402.57
593.57	475.13
593.73	477.47
593.89	505.56
594.05	423.64
594.20	416.62
594.36	430.66
594.52	407.25
594.68	447.04
594.84	449.38
594.99	442.36
595.15	456.40
595.31	407.25
595.47	484.49
595.62	421.30
595.78	411.93
595.94	320.65
596.10	390.87
596.25	423.64
596.41	433.00
596.57	479.81
596.73	477.47
596.88	367.46
597.04	484.49
597.20	425.98
597.36	393.21
597.51	454.06
597.67	397.89
597.83	409.59
597.99	425.98
598.14	409.59
598.30	440.02
598.46	430.66
598.61	362.78
598.77	416.62
598.93	395.55
599.09	435.34
599.24	447.04
599.40	468.11
599.56	397.89
599.71	390.87
599.87	376.83
600.03	447.04
600.18	416.62
600.34	402.57
600.50	409.59
600.65	397.89
600.81	397.89
600.97	362.78
601.12	435.34
601.28	423.64
601.44	397.89
601.59	421.30
601.75	444.70
601.91	407.25
602.06	402.57
602.22	423.64
602.37	449.38
602.53	344.06
602.69	365.12
602.84	360.44
603.00	402.57
603.16	444.70
603.31	400.23
603.47	330.02
603.62	327.68
603.78	397.89
603.94	423.64
604.09	381.51
604.25	395.55
604.40	365.12
604.56	449.38
604.71	440.02
604.87	447.04
605.03	519.60
605.18	393.21
605.34	411.93
605.49	468.11
605.65	458.74
605.80	454.06
605.96	341.72
606.12	369.80
606.27	503.22
606.43	353.42
606.58	381.51
606.74	386.19
606.89	437.68
607.05	433.00
607.20	458.74
607.36	444.70
607.51	344.06
607.67	376.83
607.82	407.25
607.98	449.38
608.13	423.64
608.29	395.55
608.44	425.98
608.60	496.19
608.75	510.24
608.91	390.87
609.06	468.11
609.22	411.93
609.37	360.44
609.53	463.43
609.68	444.70
609.84	393.21
609.99	411.93
610.15	390.87
