SpectraSuite Data File
++++++++++++++++++++++++++++++++++++
Date: Fri Oct 25 12:11:45 EDT 2013
User: price-jones
Dark Spectrum Present: No
Reference Spectrum Present: No
Number of Sampled Component Spectra: 1
Spectrometers: USB2+H05261
Integration Time (usec): 100000 (USB2+H05261)
Spectra Averaged: 1 (USB2+H05261)
Boxcar Smoothing: 0 (USB2+H05261)
Correct for Electrical Dark: No (USB2+H05261)
Strobe/Lamp Enabled: No (USB2+H05261)
Correct for Detector Non-linearity: No (USB2+H05261)
Correct for Stray Light: No (USB2+H05261)
Number of Pixels in Processed Spectrum: 2048
>>>>>Begin Processed Spectral Data<<<<<
365.73	294.91
365.92	294.91
366.12	294.91
366.32	318.31
366.52	234.05
366.72	271.50
366.91	201.29
367.11	154.48
367.31	264.48
367.51	262.14
367.70	227.03
367.90	257.46
368.10	229.37
368.30	236.39
368.49	198.95
368.69	262.14
368.89	344.06
369.09	304.27
369.28	294.91
369.48	294.91
369.68	287.89
369.87	315.97
370.07	290.23
370.27	304.27
370.47	308.95
370.66	337.04
370.86	315.97
371.06	339.38
371.25	414.27
371.45	372.15
371.65	372.15
371.84	280.86
372.04	372.15
372.24	383.85
372.44	414.27
372.63	369.80
372.83	451.72
373.03	411.93
373.22	428.32
373.42	400.23
373.62	444.70
373.81	362.78
374.01	397.89
374.21	458.74
374.40	442.36
374.60	421.30
374.79	428.32
374.99	470.45
375.19	411.93
375.38	400.23
375.58	402.57
375.78	491.51
375.97	416.62
376.17	444.70
376.37	423.64
376.56	367.46
376.76	374.49
376.95	435.34
377.15	397.89
377.35	341.72
377.54	428.32
377.74	425.98
377.93	397.89
378.13	369.80
378.33	423.64
378.52	390.87
378.72	465.77
378.91	414.27
379.11	372.15
379.31	376.83
379.50	365.12
379.70	416.62
379.89	418.96
380.09	390.87
380.28	395.55
380.48	409.59
380.68	416.62
380.87	416.62
381.07	365.12
381.26	468.11
381.46	507.90
381.65	372.15
381.85	430.66
382.04	353.42
382.24	435.34
382.43	348.74
382.63	283.20
382.83	458.74
383.02	348.74
383.22	414.27
383.41	414.27
383.61	337.04
383.80	454.06
384.00	418.96
384.19	418.96
384.39	449.38
384.58	456.40
384.78	360.44
384.97	430.66
385.17	397.89
385.36	418.96
385.56	372.15
385.75	334.70
385.95	428.32
386.14	479.81
386.34	397.89
386.53	379.17
386.72	416.62
386.92	346.40
387.11	449.38
387.31	477.47
387.50	479.81
387.70	369.80
387.89	402.57
388.09	362.78
388.28	423.64
388.48	374.49
388.67	435.34
388.86	376.83
389.06	407.25
389.25	454.06
389.45	442.36
389.64	390.87
389.84	430.66
390.03	404.91
390.22	447.04
390.42	404.91
390.61	322.99
390.81	395.55
391.00	407.25
391.19	397.89
391.39	358.10
391.58	456.40
391.78	418.96
391.97	454.06
392.16	374.49
392.36	397.89
392.55	421.30
392.75	435.34
392.94	425.98
393.13	372.15
393.33	416.62
393.52	411.93
393.71	395.55
393.91	388.53
394.10	440.02
394.29	365.12
394.49	395.55
394.68	400.23
394.88	433.00
395.07	472.79
395.26	353.42
395.46	402.57
395.65	468.11
395.84	404.91
396.04	463.43
396.23	404.91
396.42	369.80
396.62	411.93
396.81	444.70
397.00	381.51
397.19	390.87
397.39	442.36
397.58	402.57
397.77	421.30
397.97	421.30
398.16	393.21
398.35	395.55
398.55	315.97
398.74	388.53
398.93	444.70
399.12	430.66
399.32	477.47
399.51	379.17
399.70	425.98
399.90	341.72
400.09	337.04
400.28	437.68
400.47	402.57
400.67	414.27
400.86	388.53
401.05	430.66
401.24	402.57
401.44	395.55
401.63	468.11
401.82	444.70
402.01	358.10
402.21	418.96
402.40	395.55
402.59	360.44
402.78	451.72
402.97	402.57
403.17	376.83
403.36	383.85
403.55	402.57
403.74	449.38
403.93	346.40
404.13	386.19
404.32	353.42
404.51	421.30
404.70	393.21
404.89	393.21
405.09	423.64
405.28	440.02
405.47	388.53
405.66	442.36
405.85	503.22
406.05	428.32
406.24	355.76
406.43	301.93
406.62	365.12
406.81	433.00
407.00	425.98
407.20	416.62
407.39	425.98
407.58	423.64
407.77	341.72
407.96	411.93
408.15	425.98
408.34	421.30
408.54	430.66
408.73	456.40
408.92	440.02
409.11	390.87
409.30	388.53
409.49	404.91
409.68	416.62
409.87	414.27
410.07	362.78
410.26	428.32
410.45	433.00
410.64	423.64
410.83	404.91
411.02	374.49
411.21	430.66
411.40	440.02
411.59	397.89
411.78	407.25
411.98	407.25
412.17	414.27
412.36	367.46
412.55	369.80
412.74	397.89
412.93	465.77
413.12	383.85
413.31	390.87
413.50	409.59
413.69	367.46
413.88	479.81
414.07	386.19
414.26	440.02
414.45	369.80
414.64	437.68
414.83	423.64
415.02	369.80
415.22	407.25
415.41	386.19
415.60	313.63
415.79	355.76
415.98	311.29
416.17	447.04
416.36	414.27
416.55	442.36
416.74	430.66
416.93	397.89
417.12	440.02
417.31	374.49
417.50	418.96
417.69	451.72
417.88	498.53
418.07	383.85
418.26	367.46
418.45	440.02
418.64	388.53
418.83	397.89
419.02	444.70
419.21	428.32
419.39	353.42
419.58	315.97
419.77	376.83
419.96	393.21
420.15	386.19
420.34	386.19
420.53	383.85
420.72	379.17
420.91	425.98
421.10	383.85
421.29	421.30
421.48	390.87
421.67	442.36
421.86	390.87
422.05	449.38
422.24	423.64
422.43	421.30
422.61	390.87
422.80	367.46
422.99	407.25
423.18	475.13
423.37	444.70
423.56	379.17
423.75	456.40
423.94	400.23
424.13	472.79
424.32	330.02
424.50	397.89
424.69	388.53
424.88	381.51
425.07	315.97
425.26	381.51
425.45	407.25
425.64	365.12
425.83	355.76
426.01	425.98
426.20	409.59
426.39	400.23
426.58	447.04
426.77	388.53
426.96	400.23
427.15	409.59
427.33	388.53
427.52	297.25
427.71	414.27
427.90	430.66
428.09	388.53
428.28	430.66
428.46	402.57
428.65	482.15
428.84	435.34
429.03	414.27
429.22	395.55
429.40	355.76
429.59	475.13
429.78	397.89
429.97	402.57
430.16	416.62
430.34	397.89
430.53	402.57
430.72	411.93
430.91	404.91
431.10	416.62
431.28	346.40
431.47	451.72
431.66	414.27
431.85	388.53
432.03	383.85
432.22	472.79
432.41	423.64
432.60	435.34
432.79	337.04
432.97	332.36
433.16	402.57
433.35	416.62
433.54	376.83
433.72	395.55
433.91	372.15
434.10	397.89
434.28	486.83
434.47	404.91
434.66	400.23
434.85	388.53
435.03	503.22
435.22	463.43
435.41	418.96
435.59	428.32
435.78	479.81
435.97	369.80
436.16	388.53
436.34	472.79
436.53	458.74
436.72	372.15
436.90	425.98
437.09	454.06
437.28	341.72
437.46	449.38
437.65	461.09
437.84	421.30
438.02	411.93
438.21	374.49
438.40	369.80
438.58	468.11
438.77	404.91
438.96	379.17
439.14	409.59
439.33	496.19
439.52	383.85
439.70	411.93
439.89	379.17
440.08	416.62
440.26	465.77
440.45	402.57
440.63	388.53
440.82	423.64
441.01	369.80
441.19	433.00
441.38	421.30
441.57	477.47
441.75	482.15
441.94	379.17
442.12	449.38
442.31	447.04
442.50	451.72
442.68	421.30
442.87	367.46
443.05	442.36
443.24	393.21
443.43	472.79
443.61	395.55
443.80	411.93
443.98	362.78
444.17	484.49
444.35	451.72
444.54	390.87
444.73	414.27
444.91	454.06
445.10	365.12
445.28	496.19
445.47	400.23
445.65	334.70
445.84	421.30
446.02	372.15
446.21	379.17
446.39	383.85
446.58	409.59
446.77	517.26
446.95	479.81
447.14	514.92
447.32	449.38
447.51	404.91
447.69	421.30
447.88	423.64
448.06	470.45
448.25	423.64
448.43	393.21
448.62	421.30
448.80	451.72
448.99	430.66
449.17	372.15
449.36	397.89
449.54	397.89
449.73	330.02
449.91	440.02
450.10	442.36
450.28	486.83
450.46	449.38
450.65	442.36
450.83	486.83
451.02	425.98
451.20	489.17
451.39	440.02
451.57	362.78
451.76	465.77
451.94	374.49
452.13	475.13
452.31	458.74
452.49	425.98
452.68	374.49
452.86	411.93
453.05	397.89
453.23	472.79
453.42	440.02
453.60	395.55
453.78	468.11
453.97	416.62
454.15	400.23
454.34	355.76
454.52	430.66
454.70	475.13
454.89	451.72
455.07	461.09
455.26	411.93
455.44	414.27
455.62	411.93
455.81	360.44
455.99	454.06
456.17	407.25
456.36	393.21
456.54	433.00
456.73	404.91
456.91	418.96
457.09	458.74
457.28	355.76
457.46	374.49
457.64	444.70
457.83	393.21
458.01	472.79
458.19	425.98
458.38	388.53
458.56	395.55
458.74	407.25
458.93	416.62
459.11	395.55
459.29	456.40
459.48	454.06
459.66	369.80
459.84	449.38
460.03	449.38
460.21	428.32
460.39	472.79
460.57	348.74
460.76	440.02
460.94	414.27
461.12	418.96
461.31	428.32
461.49	437.68
461.67	458.74
461.85	468.11
462.04	383.85
462.22	802.80
462.40	477.47
462.59	475.13
462.77	383.85
462.95	444.70
463.13	383.85
463.32	404.91
463.50	418.96
463.68	397.89
463.86	470.45
464.05	472.79
464.23	423.64
464.41	393.21
464.59	454.06
464.78	379.17
464.96	440.02
465.14	463.43
465.32	388.53
465.50	407.25
465.69	355.76
465.87	409.59
466.05	425.98
466.23	360.44
466.41	381.51
466.60	367.46
466.78	449.38
466.96	381.51
467.14	407.25
467.32	400.23
467.51	428.32
467.69	475.13
467.87	430.66
468.05	503.22
468.23	486.83
468.41	395.55
468.60	430.66
468.78	468.11
468.96	400.23
469.14	465.77
469.32	428.32
469.50	404.91
469.69	383.85
469.87	390.87
470.05	461.09
470.23	430.66
470.41	444.70
470.59	390.87
470.77	440.02
470.95	449.38
471.14	376.83
471.32	365.12
471.50	428.32
471.68	330.02
471.86	423.64
472.04	411.93
472.22	428.32
472.40	418.96
472.58	449.38
472.77	355.76
472.95	477.47
473.13	447.04
473.31	400.23
473.49	376.83
473.67	484.49
473.85	477.47
474.03	430.66
474.21	423.64
474.39	451.72
474.57	458.74
474.75	372.15
474.93	435.34
475.12	409.59
475.30	433.00
475.48	449.38
475.66	379.17
475.84	458.74
476.02	435.34
476.20	425.98
476.38	456.40
476.56	465.77
476.74	456.40
476.92	433.00
477.10	395.55
477.28	444.70
477.46	425.98
477.64	463.43
477.82	440.02
478.00	411.93
478.18	418.96
478.36	411.93
478.54	496.19
478.72	383.85
478.90	425.98
479.08	477.47
479.26	395.55
479.44	372.15
479.62	425.98
479.80	397.89
479.98	425.98
480.16	433.00
480.34	423.64
480.52	454.06
480.70	425.98
480.88	421.30
481.06	411.93
481.24	397.89
481.41	388.53
481.59	428.32
481.77	402.57
481.95	428.32
482.13	440.02
482.31	402.57
482.49	409.59
482.67	423.64
482.85	435.34
483.03	421.30
483.21	430.66
483.39	463.43
483.57	418.96
483.74	383.85
483.92	404.91
484.10	416.62
484.28	411.93
484.46	479.81
484.64	484.49
484.82	397.89
485.00	442.36
485.18	416.62
485.35	449.38
485.53	351.08
485.71	458.74
485.89	475.13
486.07	409.59
486.25	458.74
486.43	477.47
486.61	425.98
486.78	386.19
486.96	411.93
487.14	400.23
487.32	437.68
487.50	393.21
487.68	423.64
487.85	369.80
488.03	411.93
488.21	465.77
488.39	400.23
488.57	428.32
488.75	365.12
488.92	524.28
489.10	444.70
489.28	440.02
489.46	320.65
489.64	397.89
489.81	397.89
489.99	479.81
490.17	451.72
490.35	489.17
490.53	421.30
490.70	348.74
490.88	447.04
491.06	390.87
491.24	421.30
491.41	440.02
491.59	449.38
491.77	374.49
491.95	348.74
492.13	409.59
492.30	437.68
492.48	381.51
492.66	484.49
492.84	482.15
493.01	425.98
493.19	409.59
493.37	477.47
493.54	386.19
493.72	428.32
493.90	470.45
494.08	337.04
494.25	362.78
494.43	411.93
494.61	437.68
494.79	442.36
494.96	456.40
495.14	437.68
495.32	468.11
495.49	397.89
495.67	449.38
495.85	381.51
496.02	449.38
496.20	409.59
496.38	444.70
496.55	360.44
496.73	386.19
496.91	400.23
497.09	381.51
497.26	423.64
497.44	433.00
497.62	435.34
497.79	461.09
497.97	451.72
498.14	423.64
498.32	484.49
498.50	458.74
498.67	374.49
498.85	348.74
499.03	395.55
499.20	449.38
499.38	414.27
499.56	414.27
499.73	465.77
499.91	447.04
500.08	479.81
500.26	411.93
500.44	425.98
500.61	388.53
500.79	400.23
500.97	498.53
501.14	423.64
501.32	451.72
501.49	416.62
501.67	477.47
501.84	428.32
502.02	458.74
502.20	484.49
502.37	421.30
502.55	376.83
502.72	397.89
502.90	433.00
503.07	409.59
503.25	397.89
503.43	456.40
503.60	346.40
503.78	444.70
503.95	414.27
504.13	423.64
504.30	346.40
504.48	491.51
504.65	444.70
504.83	425.98
505.01	435.34
505.18	475.13
505.36	444.70
505.53	414.27
505.71	425.98
505.88	430.66
506.06	315.97
506.23	372.15
506.41	360.44
506.58	407.25
506.76	465.77
506.93	322.99
507.11	416.62
507.28	435.34
507.46	430.66
507.63	418.96
507.81	358.10
507.98	428.32
508.16	447.04
508.33	369.80
508.50	397.89
508.68	400.23
508.85	365.12
509.03	416.62
509.20	489.17
509.38	440.02
509.55	447.04
509.73	404.91
509.90	482.15
510.08	454.06
510.25	503.22
510.42	393.21
510.60	395.55
510.77	447.04
510.95	404.91
511.12	376.83
511.30	404.91
511.47	421.30
511.64	409.59
511.82	425.98
511.99	433.00
512.17	430.66
512.34	355.76
512.51	400.23
512.69	411.93
512.86	421.30
513.04	404.91
513.21	388.53
513.38	447.04
513.56	365.12
513.73	435.34
513.90	425.98
514.08	414.27
514.25	390.87
514.43	440.02
514.60	418.96
514.77	409.59
514.95	381.51
515.12	339.38
515.29	395.55
515.47	397.89
515.64	423.64
515.81	407.25
515.99	425.98
516.16	444.70
516.33	442.36
516.51	425.98
516.68	404.91
516.85	416.62
517.03	437.68
517.20	353.42
517.37	418.96
517.54	388.53
517.72	470.45
517.89	472.79
518.06	437.68
518.24	503.22
518.41	449.38
518.58	411.93
518.75	388.53
518.93	353.42
519.10	400.23
519.27	407.25
519.45	423.64
519.62	416.62
519.79	376.83
519.96	435.34
520.14	423.64
520.31	444.70
520.48	489.17
520.65	423.64
520.83	463.43
521.00	437.68
521.17	472.79
521.34	505.56
521.52	479.81
521.69	498.53
521.86	407.25
522.03	400.23
522.20	407.25
522.38	437.68
522.55	397.89
522.72	451.72
522.89	390.87
523.07	442.36
523.24	390.87
523.41	369.80
523.58	454.06
523.75	379.17
523.92	367.46
524.10	409.59
524.27	437.68
524.44	444.70
524.61	463.43
524.78	409.59
524.96	393.21
525.13	421.30
525.30	435.34
525.47	374.49
525.64	414.27
525.81	442.36
525.98	318.31
526.16	414.27
526.33	510.24
526.50	346.40
526.67	388.53
526.84	334.70
527.01	418.96
527.18	517.26
527.36	351.08
527.53	351.08
527.70	402.57
527.87	416.62
528.04	484.49
528.21	418.96
528.38	479.81
528.55	435.34
528.72	437.68
528.89	388.53
529.07	411.93
529.24	444.70
529.41	404.91
529.58	430.66
529.75	367.46
529.92	454.06
530.09	444.70
530.26	423.64
530.43	421.30
530.60	433.00
530.77	428.32
530.94	407.25
531.11	447.04
531.28	442.36
531.46	428.32
531.63	367.46
531.80	407.25
531.97	416.62
532.14	416.62
532.31	444.70
532.48	381.51
532.65	421.30
532.82	404.91
532.99	411.93
533.16	425.98
533.33	416.62
533.50	491.51
533.67	416.62
533.84	400.23
534.01	470.45
534.18	407.25
534.35	372.15
534.52	437.68
534.69	416.62
534.86	475.13
535.03	383.85
535.20	369.80
535.37	395.55
535.54	383.85
535.71	369.80
535.88	444.70
536.05	395.55
536.22	475.13
536.38	395.55
536.55	395.55
536.72	428.32
536.89	407.25
537.06	449.38
537.23	365.12
537.40	402.57
537.57	332.36
537.74	437.68
537.91	496.19
538.08	433.00
538.25	472.79
538.42	414.27
538.59	395.55
538.75	390.87
538.92	383.85
539.09	458.74
539.26	390.87
539.43	409.59
539.60	442.36
539.77	472.79
539.94	386.19
540.11	472.79
540.28	440.02
540.44	395.55
540.61	416.62
540.78	402.57
540.95	416.62
541.12	449.38
541.29	423.64
541.46	397.89
541.62	393.21
541.79	454.06
541.96	395.55
542.13	376.83
542.30	393.21
542.47	486.83
542.63	423.64
542.80	482.15
542.97	472.79
543.14	454.06
543.31	400.23
543.48	383.85
543.64	454.06
543.81	397.89
543.98	351.08
544.15	423.64
544.32	484.49
544.48	353.42
544.65	444.70
544.82	461.09
544.99	369.80
545.16	418.96
545.32	433.00
545.49	404.91
545.66	468.11
545.83	397.89
546.00	500.87
546.16	423.64
546.33	449.38
546.50	400.23
546.67	440.02
546.83	416.62
547.00	393.21
547.17	376.83
547.34	433.00
547.50	339.38
547.67	430.66
547.84	454.06
548.00	440.02
548.17	411.93
548.34	362.78
548.51	388.53
548.67	447.04
548.84	397.89
549.01	308.95
549.18	421.30
549.34	454.06
549.51	383.85
549.68	404.91
549.84	332.36
550.01	407.25
550.18	491.51
550.34	414.27
550.51	440.02
550.68	421.30
550.84	411.93
551.01	386.19
551.18	414.27
551.34	386.19
551.51	393.21
551.68	465.77
551.84	472.79
552.01	388.53
552.18	418.96
552.34	444.70
552.51	454.06
552.68	484.49
552.84	482.15
553.01	468.11
553.18	421.30
553.34	461.09
553.51	430.66
553.67	458.74
553.84	423.64
554.01	449.38
554.17	428.32
554.34	418.96
554.51	437.68
554.67	360.44
554.84	411.93
555.00	486.83
555.17	416.62
555.33	456.40
555.50	395.55
555.67	437.68
555.83	435.34
556.00	404.91
556.16	498.53
556.33	498.53
556.50	407.25
556.66	451.72
556.83	393.21
556.99	407.25
557.16	376.83
557.32	351.08
557.49	334.70
557.65	437.68
557.82	428.32
557.98	404.91
558.15	454.06
558.32	414.27
558.48	477.47
558.65	425.98
558.81	442.36
558.98	433.00
559.14	414.27
559.31	362.78
559.47	437.68
559.64	346.40
559.80	470.45
559.97	451.72
560.13	428.32
560.30	449.38
560.46	437.68
560.63	395.55
560.79	362.78
560.96	418.96
561.12	449.38
561.29	388.53
561.45	400.23
561.61	447.04
561.78	498.53
561.94	447.04
562.11	404.91
562.27	435.34
562.44	409.59
562.60	437.68
562.77	423.64
562.93	580.45
563.10	320.65
563.26	463.43
563.42	369.80
563.59	456.40
563.75	435.34
563.92	421.30
564.08	425.98
564.24	451.72
564.41	411.93
564.57	430.66
564.74	374.49
564.90	351.08
565.07	461.09
565.23	402.57
565.39	404.91
565.56	433.00
565.72	407.25
565.88	388.53
566.05	400.23
566.21	360.44
566.38	465.77
566.54	482.15
566.70	425.98
566.87	442.36
567.03	390.87
567.19	386.19
567.36	367.46
567.52	407.25
567.68	355.76
567.85	484.49
568.01	395.55
568.17	456.40
568.34	449.38
568.50	470.45
568.66	360.44
568.83	456.40
568.99	456.40
569.15	440.02
569.32	479.81
569.48	402.57
569.64	393.21
569.81	456.40
569.97	411.93
570.13	444.70
570.30	482.15
570.46	463.43
570.62	402.57
570.78	362.78
570.95	374.49
571.11	388.53
571.27	425.98
571.43	397.89
571.60	425.98
571.76	411.93
571.92	425.98
572.09	435.34
572.25	447.04
572.41	376.83
572.57	383.85
572.74	482.15
572.90	470.45
573.06	430.66
573.22	435.34
573.38	421.30
573.55	418.96
573.71	463.43
573.87	447.04
574.03	315.97
574.20	344.06
574.36	461.09
574.52	379.17
574.68	435.34
574.84	379.17
575.01	395.55
575.17	416.62
575.33	440.02
575.49	451.72
575.65	383.85
575.82	521.94
575.98	365.12
576.14	430.66
576.30	423.64
576.46	409.59
576.62	447.04
576.79	397.89
576.95	470.45
577.11	390.87
577.27	379.17
577.43	423.64
577.59	407.25
577.75	442.36
577.92	496.19
578.08	397.89
578.24	414.27
578.40	386.19
578.56	435.34
578.72	517.26
578.88	449.38
579.04	407.25
579.21	425.98
579.37	421.30
579.53	482.15
579.69	425.98
579.85	344.06
580.01	400.23
580.17	442.36
580.33	428.32
580.49	425.98
580.65	407.25
580.82	465.77
580.98	444.70
581.14	550.03
581.30	461.09
581.46	416.62
581.62	341.72
581.78	433.00
581.94	421.30
582.10	395.55
582.26	411.93
582.42	393.21
582.58	451.72
582.74	355.76
582.90	423.64
583.06	402.57
583.22	468.11
583.38	355.76
583.54	383.85
583.70	425.98
583.86	379.17
584.02	442.36
584.18	407.25
584.34	447.04
584.50	456.40
584.66	395.55
584.82	416.62
584.98	409.59
585.14	433.00
585.30	489.17
585.46	468.11
585.62	360.44
585.78	369.80
585.94	468.11
586.10	414.27
586.26	411.93
586.42	409.59
586.58	395.55
586.74	372.15
586.90	435.34
587.06	418.96
587.22	437.68
587.38	484.49
587.54	337.04
587.70	444.70
587.86	449.38
588.02	353.42
588.18	456.40
588.34	435.34
588.49	327.68
588.65	447.04
588.81	414.27
588.97	346.40
589.13	339.38
589.29	414.27
589.45	461.09
589.61	423.64
589.77	367.46
589.93	346.40
590.08	372.15
590.24	411.93
590.40	437.68
590.56	400.23
590.72	402.57
590.88	397.89
591.04	400.23
591.20	339.38
591.35	400.23
591.51	433.00
591.67	407.25
591.83	463.43
591.99	468.11
592.15	421.30
592.31	477.47
592.46	383.85
592.62	489.17
592.78	547.69
592.94	362.78
593.10	468.11
593.26	386.19
593.41	383.85
593.57	402.57
593.73	362.78
593.89	477.47
594.05	411.93
594.20	423.64
594.36	475.13
594.52	435.34
594.68	409.59
594.84	470.45
594.99	428.32
595.15	423.64
595.31	400.23
595.47	442.36
595.62	505.56
595.78	416.62
595.94	423.64
596.10	454.06
596.25	379.17
596.41	447.04
596.57	449.38
596.73	381.51
596.88	456.40
597.04	456.40
597.20	465.77
597.36	379.17
597.51	447.04
597.67	386.19
597.83	381.51
597.99	447.04
598.14	388.53
598.30	409.59
598.46	367.46
598.61	451.72
598.77	493.85
598.93	351.08
599.09	358.10
599.24	411.93
599.40	400.23
599.56	468.11
599.71	472.79
599.87	344.06
600.03	559.39
600.18	369.80
600.34	433.00
600.50	414.27
600.65	411.93
600.81	421.30
600.97	397.89
601.12	430.66
601.28	440.02
601.44	465.77
601.59	376.83
601.75	470.45
601.91	430.66
602.06	348.74
602.22	514.92
602.37	388.53
602.53	414.27
602.69	402.57
602.84	418.96
603.00	437.68
603.16	421.30
603.31	468.11
603.47	468.11
603.62	430.66
603.78	395.55
603.94	418.96
604.09	435.34
604.25	416.62
604.40	400.23
604.56	433.00
604.71	407.25
604.87	393.21
605.03	451.72
605.18	397.89
605.34	395.55
605.49	337.04
605.65	409.59
605.80	400.23
605.96	372.15
606.12	395.55
606.27	428.32
606.43	402.57
606.58	374.49
606.74	372.15
606.89	416.62
607.05	423.64
607.20	449.38
607.36	463.43
607.51	507.90
607.67	411.93
607.82	351.08
607.98	402.57
608.13	437.68
608.29	435.34
608.44	402.57
608.60	400.23
608.75	416.62
608.91	395.55
609.06	423.64
609.22	442.36
609.37	409.59
609.53	423.64
609.68	374.49
609.84	379.17
609.99	376.83
610.15	409.59
