SpectraSuite Data File
++++++++++++++++++++++++++++++++++++
Date: Fri Oct 25 12:11:29 EDT 2013
User: price-jones
Dark Spectrum Present: No
Reference Spectrum Present: No
Number of Sampled Component Spectra: 1
Spectrometers: USB2+H05261
Integration Time (usec): 100000 (USB2+H05261)
Spectra Averaged: 1 (USB2+H05261)
Boxcar Smoothing: 0 (USB2+H05261)
Correct for Electrical Dark: No (USB2+H05261)
Strobe/Lamp Enabled: No (USB2+H05261)
Correct for Detector Non-linearity: No (USB2+H05261)
Correct for Stray Light: No (USB2+H05261)
Number of Pixels in Processed Spectrum: 2048
>>>>>Begin Processed Spectral Data<<<<<
365.73	322.99
365.92	322.99
366.12	322.99
366.32	262.14
366.52	227.03
366.72	198.95
366.91	245.76
367.11	262.14
367.31	245.76
367.51	236.39
367.70	212.99
367.90	189.58
368.10	201.29
368.30	266.82
368.49	224.69
368.69	283.20
368.89	276.18
369.09	180.22
369.28	229.37
369.48	248.10
369.68	287.89
369.87	322.99
370.07	229.37
370.27	287.89
370.47	245.76
370.66	308.95
370.86	313.63
371.06	344.06
371.25	456.40
371.45	404.91
371.65	400.23
371.84	355.76
372.04	402.57
372.24	428.32
372.44	402.57
372.63	407.25
372.83	435.34
373.03	367.46
373.22	407.25
373.42	472.79
373.62	402.57
373.81	454.06
374.01	425.98
374.21	407.25
374.40	369.80
374.60	435.34
374.79	437.68
374.99	348.74
375.19	477.47
375.38	402.57
375.58	393.21
375.78	479.81
375.97	425.98
376.17	477.47
376.37	437.68
376.56	437.68
376.76	458.74
376.95	411.93
377.15	393.21
377.35	454.06
377.54	503.22
377.74	372.15
377.93	404.91
378.13	372.15
378.33	456.40
378.52	327.68
378.72	388.53
378.91	404.91
379.11	397.89
379.31	440.02
379.50	411.93
379.70	475.13
379.89	407.25
380.09	421.30
380.28	358.10
380.48	421.30
380.68	451.72
380.87	430.66
381.07	381.51
381.26	372.15
381.46	393.21
381.65	381.51
381.85	416.62
382.04	397.89
382.24	451.72
382.43	486.83
382.63	416.62
382.83	388.53
383.02	362.78
383.22	430.66
383.41	400.23
383.61	430.66
383.80	428.32
384.00	416.62
384.19	421.30
384.39	327.68
384.58	435.34
384.78	390.87
384.97	358.10
385.17	376.83
385.36	367.46
385.56	411.93
385.75	353.42
385.95	421.30
386.14	351.08
386.34	376.83
386.53	355.76
386.72	414.27
386.92	386.19
387.11	440.02
387.31	461.09
387.50	421.30
387.70	423.64
387.89	423.64
388.09	362.78
388.28	379.17
388.48	407.25
388.67	402.57
388.86	428.32
389.06	369.80
389.25	379.17
389.45	449.38
389.64	472.79
389.84	500.87
390.03	374.49
390.22	456.40
390.42	454.06
390.61	297.25
390.81	369.80
391.00	348.74
391.19	411.93
391.39	444.70
391.58	383.85
391.78	414.27
391.97	409.59
392.16	362.78
392.36	372.15
392.55	442.36
392.75	435.34
392.94	388.53
393.13	402.57
393.33	400.23
393.52	304.27
393.71	442.36
393.91	390.87
394.10	411.93
394.29	440.02
394.49	372.15
394.68	428.32
394.88	341.72
395.07	379.17
395.26	411.93
395.46	353.42
395.65	428.32
395.84	374.49
396.04	451.72
396.23	411.93
396.42	388.53
396.62	458.74
396.81	451.72
397.00	353.42
397.19	409.59
397.39	372.15
397.58	400.23
397.77	393.21
397.97	437.68
398.16	447.04
398.35	346.40
398.55	477.47
398.74	365.12
398.93	451.72
399.12	425.98
399.32	346.40
399.51	358.10
399.70	423.64
399.90	472.79
400.09	409.59
400.28	430.66
400.47	386.19
400.67	376.83
400.86	425.98
401.05	383.85
401.24	365.12
401.44	421.30
401.63	430.66
401.82	404.91
402.01	461.09
402.21	440.02
402.40	374.49
402.59	425.98
402.78	416.62
402.97	425.98
403.17	351.08
403.36	404.91
403.55	334.70
403.74	447.04
403.93	414.27
404.13	362.78
404.32	430.66
404.51	395.55
404.70	442.36
404.89	372.15
405.09	435.34
405.28	395.55
405.47	372.15
405.66	397.89
405.85	376.83
406.05	414.27
406.24	433.00
406.43	397.89
406.62	358.10
406.81	458.74
407.00	444.70
407.20	409.59
407.39	390.87
407.58	376.83
407.77	423.64
407.96	437.68
408.15	395.55
408.34	397.89
408.54	440.02
408.73	400.23
408.92	393.21
409.11	454.06
409.30	421.30
409.49	341.72
409.68	388.53
409.87	433.00
410.07	428.32
410.26	383.85
410.45	416.62
410.64	367.46
410.83	437.68
411.02	367.46
411.21	428.32
411.40	433.00
411.59	374.49
411.78	451.72
411.98	538.32
412.17	411.93
412.36	416.62
412.55	390.87
412.74	437.68
412.93	456.40
413.12	435.34
413.31	416.62
413.50	416.62
413.69	386.19
413.88	425.98
414.07	386.19
414.26	479.81
414.45	451.72
414.64	393.21
414.83	437.68
415.02	510.24
415.22	428.32
415.41	374.49
415.60	402.57
415.79	362.78
415.98	409.59
416.17	388.53
416.36	386.19
416.55	327.68
416.74	449.38
416.93	456.40
417.12	348.74
417.31	381.51
417.50	433.00
417.69	423.64
417.88	421.30
418.07	442.36
418.26	428.32
418.45	390.87
418.64	442.36
418.83	362.78
419.02	414.27
419.21	409.59
419.39	390.87
419.58	430.66
419.77	407.25
419.96	407.25
420.15	430.66
420.34	447.04
420.53	444.70
420.72	400.23
420.91	372.15
421.10	407.25
421.29	430.66
421.48	400.23
421.67	435.34
421.86	468.11
422.05	423.64
422.24	379.17
422.43	402.57
422.61	433.00
422.80	397.89
422.99	425.98
423.18	433.00
423.37	433.00
423.56	421.30
423.75	435.34
423.94	421.30
424.13	393.21
424.32	444.70
424.50	425.98
424.69	383.85
424.88	351.08
425.07	402.57
425.26	456.40
425.45	409.59
425.64	414.27
425.83	402.57
426.01	411.93
426.20	444.70
426.39	402.57
426.58	449.38
426.77	414.27
426.96	376.83
427.15	435.34
427.33	411.93
427.52	404.91
427.71	395.55
427.90	447.04
428.09	367.46
428.28	360.44
428.46	379.17
428.65	421.30
428.84	428.32
429.03	475.13
429.22	400.23
429.40	372.15
429.59	388.53
429.78	407.25
429.97	397.89
430.16	388.53
430.34	425.98
430.53	388.53
430.72	449.38
430.91	416.62
431.10	425.98
431.28	344.06
431.47	444.70
431.66	407.25
431.85	390.87
432.03	367.46
432.22	414.27
432.41	379.17
432.60	395.55
432.79	369.80
432.97	362.78
433.16	444.70
433.35	468.11
433.54	451.72
433.72	449.38
433.91	390.87
434.10	395.55
434.28	428.32
434.47	423.64
434.66	390.87
434.85	423.64
435.03	306.61
435.22	409.59
435.41	444.70
435.59	411.93
435.78	411.93
435.97	327.68
436.16	383.85
436.34	388.53
436.53	465.77
436.72	433.00
436.90	383.85
437.09	395.55
437.28	402.57
437.46	421.30
437.65	451.72
437.84	451.72
438.02	404.91
438.21	425.98
438.40	404.91
438.58	376.83
438.77	430.66
438.96	428.32
439.14	512.58
439.33	461.09
439.52	383.85
439.70	407.25
439.89	376.83
440.08	355.76
440.26	437.68
440.45	484.49
440.63	463.43
440.82	360.44
441.01	416.62
441.19	351.08
441.38	440.02
441.57	416.62
441.75	388.53
441.94	388.53
442.12	423.64
442.31	444.70
442.50	388.53
442.68	383.85
442.87	479.81
443.05	362.78
443.24	407.25
443.43	458.74
443.61	423.64
443.80	428.32
443.98	407.25
444.17	388.53
444.35	421.30
444.54	381.51
444.73	358.10
444.91	489.17
445.10	444.70
445.28	397.89
445.47	482.15
445.65	381.51
445.84	369.80
446.02	484.49
446.21	351.08
446.39	365.12
446.58	411.93
446.77	458.74
446.95	428.32
447.14	393.21
447.32	416.62
447.51	369.80
447.69	425.98
447.88	374.49
448.06	423.64
448.25	421.30
448.43	374.49
448.62	381.51
448.80	395.55
448.99	465.77
449.17	400.23
449.36	409.59
449.54	433.00
449.73	381.51
449.91	365.12
450.10	482.15
450.28	423.64
450.46	540.66
450.65	423.64
450.83	416.62
451.02	440.02
451.20	444.70
451.39	479.81
451.57	430.66
451.76	351.08
451.94	346.40
452.13	489.17
452.31	418.96
452.49	465.77
452.68	425.98
452.86	440.02
453.05	395.55
453.23	365.12
453.42	400.23
453.60	397.89
453.78	416.62
453.97	355.76
454.15	400.23
454.34	451.72
454.52	433.00
454.70	447.04
454.89	409.59
455.07	416.62
455.26	472.79
455.44	430.66
455.62	379.17
455.81	341.72
455.99	418.96
456.17	383.85
456.36	395.55
456.54	376.83
456.73	379.17
456.91	430.66
457.09	458.74
457.28	416.62
457.46	404.91
457.64	423.64
457.83	374.49
458.01	461.09
458.19	381.51
458.38	367.46
458.56	404.91
458.74	482.15
458.93	482.15
459.11	430.66
459.29	437.68
459.48	407.25
459.66	468.11
459.84	444.70
460.03	470.45
460.21	442.36
460.39	393.21
460.57	449.38
460.76	404.91
460.94	433.00
461.12	465.77
461.31	479.81
461.49	423.64
461.67	365.12
461.85	372.15
462.04	433.00
462.22	781.74
462.40	383.85
462.59	433.00
462.77	454.06
462.95	395.55
463.13	358.10
463.32	400.23
463.50	442.36
463.68	393.21
463.86	437.68
464.05	433.00
464.23	479.81
464.41	461.09
464.59	407.25
464.78	402.57
464.96	390.87
465.14	425.98
465.32	423.64
465.50	407.25
465.69	372.15
465.87	430.66
466.05	440.02
466.23	421.30
466.41	461.09
466.60	430.66
466.78	374.49
466.96	404.91
467.14	425.98
467.32	468.11
467.51	442.36
467.69	404.91
467.87	374.49
468.05	388.53
468.23	442.36
468.41	416.62
468.60	407.25
468.78	428.32
468.96	496.19
469.14	442.36
469.32	390.87
469.50	414.27
469.69	393.21
469.87	475.13
470.05	416.62
470.23	393.21
470.41	381.51
470.59	440.02
470.77	425.98
470.95	444.70
471.14	428.32
471.32	458.74
471.50	372.15
471.68	362.78
471.86	414.27
472.04	409.59
472.22	414.27
472.40	395.55
472.58	489.17
472.77	465.77
472.95	381.51
473.13	526.62
473.31	416.62
473.49	355.76
473.67	414.27
473.85	383.85
474.03	430.66
474.21	500.87
474.39	430.66
474.57	449.38
474.75	442.36
474.93	404.91
475.12	409.59
475.30	486.83
475.48	400.23
475.66	411.93
475.84	444.70
476.02	421.30
476.20	414.27
476.38	461.09
476.56	404.91
476.74	337.04
476.92	393.21
477.10	418.96
477.28	447.04
477.46	395.55
477.64	409.59
477.82	442.36
478.00	376.83
478.18	442.36
478.36	461.09
478.54	386.19
478.72	348.74
478.90	353.42
479.08	393.21
479.26	402.57
479.44	358.10
479.62	341.72
479.80	376.83
479.98	433.00
480.16	374.49
480.34	421.30
480.52	423.64
480.70	390.87
480.88	397.89
481.06	372.15
481.24	444.70
481.41	402.57
481.59	393.21
481.77	428.32
481.95	430.66
482.13	456.40
482.31	379.17
482.49	421.30
482.67	437.68
482.85	423.64
483.03	381.51
483.21	409.59
483.39	407.25
483.57	313.63
483.74	437.68
483.92	337.04
484.10	369.80
484.28	381.51
484.46	444.70
484.64	353.42
484.82	402.57
485.00	472.79
485.18	390.87
485.35	411.93
485.53	383.85
485.71	479.81
485.89	425.98
486.07	383.85
486.25	458.74
486.43	414.27
486.61	416.62
486.78	425.98
486.96	325.33
487.14	383.85
487.32	374.49
487.50	454.06
487.68	402.57
487.85	351.08
488.03	418.96
488.21	442.36
488.39	353.42
488.57	411.93
488.75	339.38
488.92	507.90
489.10	472.79
489.28	500.87
489.46	428.32
489.64	376.83
489.81	353.42
489.99	400.23
490.17	402.57
490.35	440.02
490.53	369.80
490.70	351.08
490.88	454.06
491.06	423.64
491.24	404.91
491.41	458.74
491.59	442.36
491.77	390.87
491.95	421.30
492.13	435.34
492.30	444.70
492.48	372.15
492.66	365.12
492.84	383.85
493.01	458.74
493.19	393.21
493.37	397.89
493.54	449.38
493.72	442.36
493.90	374.49
494.08	374.49
494.25	383.85
494.43	416.62
494.61	425.98
494.79	470.45
494.96	449.38
495.14	421.30
495.32	451.72
495.49	472.79
495.67	477.47
495.85	353.42
496.02	397.89
496.20	414.27
496.38	421.30
496.55	409.59
496.73	390.87
496.91	367.46
497.09	414.27
497.26	409.59
497.44	493.85
497.62	407.25
497.79	376.83
497.97	341.72
498.14	379.17
498.32	383.85
498.50	411.93
498.67	360.44
498.85	360.44
499.03	376.83
499.20	425.98
499.38	388.53
499.56	402.57
499.73	482.15
499.91	428.32
500.08	517.26
500.26	421.30
500.44	414.27
500.61	456.40
500.79	388.53
500.97	435.34
501.14	414.27
501.32	386.19
501.49	449.38
501.67	395.55
501.84	430.66
502.02	437.68
502.20	428.32
502.37	346.40
502.55	465.77
502.72	449.38
502.90	409.59
503.07	468.11
503.25	465.77
503.43	409.59
503.60	393.21
503.78	468.11
503.95	390.87
504.13	449.38
504.30	376.83
504.48	475.13
504.65	351.08
504.83	447.04
505.01	369.80
505.18	444.70
505.36	376.83
505.53	400.23
505.71	360.44
505.88	444.70
506.06	386.19
506.23	388.53
506.41	376.83
506.58	447.04
506.76	430.66
506.93	402.57
507.11	411.93
507.28	435.34
507.46	433.00
507.63	461.09
507.81	372.15
507.98	379.17
508.16	479.81
508.33	353.42
508.50	458.74
508.68	461.09
508.85	376.83
509.03	393.21
509.20	341.72
509.38	447.04
509.55	353.42
509.73	472.79
509.90	430.66
510.08	418.96
510.25	402.57
510.42	344.06
510.60	454.06
510.77	440.02
510.95	332.36
511.12	376.83
511.30	458.74
511.47	407.25
511.64	404.91
511.82	374.49
511.99	423.64
512.17	425.98
512.34	430.66
512.51	423.64
512.69	360.44
512.86	414.27
513.04	390.87
513.21	355.76
513.38	308.95
513.56	409.59
513.73	423.64
513.90	416.62
514.08	451.72
514.25	395.55
514.43	458.74
514.60	425.98
514.77	386.19
514.95	454.06
515.12	390.87
515.29	411.93
515.47	402.57
515.64	395.55
515.81	372.15
515.99	433.00
516.16	442.36
516.33	444.70
516.51	463.43
516.68	461.09
516.85	435.34
517.03	423.64
517.20	449.38
517.37	402.57
517.54	456.40
517.72	442.36
517.89	423.64
518.06	390.87
518.24	428.32
518.41	425.98
518.58	435.34
518.75	395.55
518.93	425.98
519.10	402.57
519.27	395.55
519.45	404.91
519.62	428.32
519.79	468.11
519.96	454.06
520.14	416.62
520.31	477.47
520.48	435.34
520.65	437.68
520.83	451.72
521.00	397.89
521.17	395.55
521.34	456.40
521.52	395.55
521.69	379.17
521.86	365.12
522.03	461.09
522.20	390.87
522.38	374.49
522.55	404.91
522.72	386.19
522.89	435.34
523.07	414.27
523.24	409.59
523.41	374.49
523.58	472.79
523.75	442.36
523.92	339.38
524.10	425.98
524.27	365.12
524.44	404.91
524.61	463.43
524.78	433.00
524.96	332.36
525.13	440.02
525.30	507.90
525.47	416.62
525.64	407.25
525.81	402.57
525.98	337.04
526.16	411.93
526.33	397.89
526.50	451.72
526.67	437.68
526.84	400.23
527.01	468.11
527.18	465.77
527.36	468.11
527.53	383.85
527.70	388.53
527.87	435.34
528.04	468.11
528.21	397.89
528.38	444.70
528.55	447.04
528.72	447.04
528.89	475.13
529.07	430.66
529.24	442.36
529.41	433.00
529.58	418.96
529.75	400.23
529.92	341.72
530.09	400.23
530.26	400.23
530.43	454.06
530.60	423.64
530.77	397.89
530.94	414.27
531.11	386.19
531.28	416.62
531.46	435.34
531.63	444.70
531.80	388.53
531.97	416.62
532.14	456.40
532.31	430.66
532.48	437.68
532.65	440.02
532.82	421.30
532.99	409.59
533.16	372.15
533.33	404.91
533.50	402.57
533.67	402.57
533.84	365.12
534.01	423.64
534.18	418.96
534.35	449.38
534.52	402.57
534.69	358.10
534.86	418.96
535.03	407.25
535.20	425.98
535.37	388.53
535.54	397.89
535.71	425.98
535.88	421.30
536.05	449.38
536.22	360.44
536.38	437.68
536.55	423.64
536.72	416.62
536.89	367.46
537.06	472.79
537.23	395.55
537.40	379.17
537.57	351.08
537.74	369.80
537.91	444.70
538.08	425.98
538.25	353.42
538.42	414.27
538.59	433.00
538.75	430.66
538.92	430.66
539.09	411.93
539.26	397.89
539.43	433.00
539.60	421.30
539.77	369.80
539.94	451.72
540.11	449.38
540.28	440.02
540.44	477.47
540.61	477.47
540.78	414.27
540.95	416.62
541.12	400.23
541.29	390.87
541.46	355.76
541.62	433.00
541.79	346.40
541.96	409.59
542.13	442.36
542.30	479.81
542.47	407.25
542.63	374.49
542.80	444.70
542.97	479.81
543.14	397.89
543.31	374.49
543.48	447.04
543.64	435.34
543.81	301.93
543.98	369.80
544.15	421.30
544.32	503.22
544.48	397.89
544.65	435.34
544.82	428.32
544.99	421.30
545.16	409.59
545.32	374.49
545.49	381.51
545.66	451.72
545.83	414.27
546.00	386.19
546.16	409.59
546.33	449.38
546.50	479.81
546.67	404.91
546.83	411.93
547.00	498.53
547.17	362.78
547.34	435.34
547.50	440.02
547.67	428.32
547.84	418.96
548.00	381.51
548.17	454.06
548.34	383.85
548.51	444.70
548.67	381.51
548.84	397.89
549.01	390.87
549.18	428.32
549.34	435.34
549.51	390.87
549.68	430.66
549.84	451.72
550.01	386.19
550.18	547.69
550.34	554.71
550.51	409.59
550.68	486.83
550.84	402.57
551.01	397.89
551.18	404.91
551.34	489.17
551.51	390.87
551.68	425.98
551.84	400.23
552.01	463.43
552.18	524.28
552.34	425.98
552.51	409.59
552.68	407.25
552.84	393.21
553.01	442.36
553.18	376.83
553.34	386.19
553.51	381.51
553.67	386.19
553.84	407.25
554.01	381.51
554.17	416.62
554.34	421.30
554.51	395.55
554.67	498.53
554.84	447.04
555.00	479.81
555.17	383.85
555.33	407.25
555.50	444.70
555.67	404.91
555.83	383.85
556.00	397.89
556.16	543.00
556.33	437.68
556.50	395.55
556.66	451.72
556.83	367.46
556.99	379.17
557.16	402.57
557.32	489.17
557.49	365.12
557.65	397.89
557.82	395.55
557.98	418.96
558.15	451.72
558.32	463.43
558.48	423.64
558.65	390.87
558.81	440.02
558.98	409.59
559.14	388.53
559.31	421.30
559.47	433.00
559.64	381.51
559.80	365.12
559.97	374.49
560.13	454.06
560.30	393.21
560.46	376.83
560.63	421.30
560.79	409.59
560.96	372.15
561.12	355.76
561.29	465.77
561.45	437.68
561.61	416.62
561.78	468.11
561.94	407.25
562.11	425.98
562.27	440.02
562.44	409.59
562.60	433.00
562.77	451.72
562.93	470.45
563.10	444.70
563.26	348.74
563.42	451.72
563.59	437.68
563.75	425.98
563.92	491.51
564.08	409.59
564.24	416.62
564.41	486.83
564.57	493.85
564.74	388.53
564.90	369.80
565.07	407.25
565.23	407.25
565.39	423.64
565.56	461.09
565.72	418.96
565.88	360.44
566.05	390.87
566.21	414.27
566.38	433.00
566.54	362.78
566.70	400.23
566.87	418.96
567.03	351.08
567.19	355.76
567.36	440.02
567.52	386.19
567.68	425.98
567.85	379.17
568.01	444.70
568.17	402.57
568.34	411.93
568.50	435.34
568.66	369.80
568.83	503.22
568.99	449.38
569.15	414.27
569.32	449.38
569.48	440.02
569.64	411.93
569.81	409.59
569.97	458.74
570.13	404.91
570.30	400.23
570.46	430.66
570.62	397.89
570.78	437.68
570.95	430.66
571.11	468.11
571.27	477.47
571.43	440.02
571.60	435.34
571.76	421.30
571.92	414.27
572.09	390.87
572.25	496.19
572.41	374.49
572.57	397.89
572.74	435.34
572.90	400.23
573.06	383.85
573.22	503.22
573.38	381.51
573.55	395.55
573.71	442.36
573.87	444.70
574.03	402.57
574.20	386.19
574.36	402.57
574.52	500.87
574.68	440.02
574.84	409.59
575.01	442.36
575.17	397.89
575.33	376.83
575.49	451.72
575.65	404.91
575.82	447.04
575.98	514.92
576.14	421.30
576.30	447.04
576.46	498.53
576.62	386.19
576.79	411.93
576.95	369.80
577.11	489.17
577.27	381.51
577.43	425.98
577.59	447.04
577.75	418.96
577.92	435.34
578.08	442.36
578.24	423.64
578.40	461.09
578.56	414.27
578.72	393.21
578.88	397.89
579.04	374.49
579.21	463.43
579.37	421.30
579.53	386.19
579.69	423.64
579.85	393.21
580.01	430.66
580.17	407.25
580.33	395.55
580.49	376.83
580.65	372.15
580.82	330.02
580.98	322.99
581.14	442.36
581.30	470.45
581.46	397.89
581.62	547.69
581.78	402.57
581.94	341.72
582.10	353.42
582.26	430.66
582.42	470.45
582.58	407.25
582.74	435.34
582.90	407.25
583.06	416.62
583.22	444.70
583.38	386.19
583.54	407.25
583.70	489.17
583.86	444.70
584.02	409.59
584.18	477.47
584.34	388.53
584.50	444.70
584.66	372.15
584.82	367.46
584.98	397.89
585.14	440.02
585.30	442.36
585.46	400.23
585.62	393.21
585.78	430.66
585.94	454.06
586.10	409.59
586.26	409.59
586.42	423.64
586.58	451.72
586.74	449.38
586.90	381.51
587.06	409.59
587.22	472.79
587.38	416.62
587.54	442.36
587.70	416.62
587.86	418.96
588.02	472.79
588.18	386.19
588.34	390.87
588.49	428.32
588.65	433.00
588.81	404.91
588.97	428.32
589.13	365.12
589.29	468.11
589.45	454.06
589.61	444.70
589.77	468.11
589.93	390.87
590.08	409.59
590.24	374.49
590.40	491.51
590.56	423.64
590.72	477.47
590.88	411.93
591.04	433.00
591.20	421.30
591.35	510.24
591.51	407.25
591.67	362.78
591.83	428.32
591.99	477.47
592.15	465.77
592.31	376.83
592.46	416.62
592.62	374.49
592.78	393.21
592.94	468.11
593.10	430.66
593.26	444.70
593.41	372.15
593.57	435.34
593.73	411.93
593.89	397.89
594.05	423.64
594.20	400.23
594.36	351.08
594.52	414.27
594.68	383.85
594.84	458.74
594.99	449.38
595.15	390.87
595.31	397.89
595.47	430.66
595.62	454.06
595.78	411.93
595.94	437.68
596.10	414.27
596.25	430.66
596.41	454.06
596.57	475.13
596.73	479.81
596.88	425.98
597.04	407.25
597.20	428.32
597.36	402.57
597.51	367.46
597.67	360.44
597.83	411.93
597.99	444.70
598.14	472.79
598.30	444.70
598.46	447.04
598.61	454.06
598.77	393.21
598.93	404.91
599.09	365.12
599.24	451.72
599.40	418.96
599.56	458.74
599.71	437.68
599.87	479.81
600.03	423.64
600.18	381.51
600.34	351.08
600.50	395.55
600.65	428.32
600.81	386.19
600.97	435.34
601.12	393.21
601.28	451.72
601.44	381.51
601.59	365.12
601.75	440.02
601.91	313.63
602.06	433.00
602.22	447.04
602.37	428.32
602.53	400.23
602.69	414.27
602.84	388.53
603.00	430.66
603.16	409.59
603.31	374.49
603.47	491.51
603.62	390.87
603.78	458.74
603.94	425.98
604.09	409.59
604.25	477.47
604.40	451.72
604.56	482.15
604.71	418.96
604.87	407.25
605.03	440.02
605.18	421.30
605.34	477.47
605.49	402.57
605.65	416.62
605.80	365.12
605.96	379.17
606.12	425.98
606.27	447.04
606.43	416.62
606.58	397.89
606.74	461.09
606.89	395.55
607.05	475.13
607.20	411.93
607.36	355.76
607.51	428.32
607.67	383.85
607.82	461.09
607.98	468.11
608.13	423.64
608.29	400.23
608.44	433.00
608.60	397.89
608.75	451.72
608.91	482.15
609.06	386.19
609.22	390.87
609.37	416.62
609.53	348.74
609.68	351.08
609.84	454.06
609.99	470.45
610.15	437.68
