SpectraSuite Data File
++++++++++++++++++++++++++++++++++++
Date: Fri Oct 25 12:11:43 EDT 2013
User: price-jones
Dark Spectrum Present: No
Reference Spectrum Present: No
Number of Sampled Component Spectra: 1
Spectrometers: USB2+H05261
Integration Time (usec): 100000 (USB2+H05261)
Spectra Averaged: 1 (USB2+H05261)
Boxcar Smoothing: 0 (USB2+H05261)
Correct for Electrical Dark: No (USB2+H05261)
Strobe/Lamp Enabled: No (USB2+H05261)
Correct for Detector Non-linearity: No (USB2+H05261)
Correct for Stray Light: No (USB2+H05261)
Number of Pixels in Processed Spectrum: 2048
>>>>>Begin Processed Spectral Data<<<<<
365.73	322.99
365.92	322.99
366.12	322.99
366.32	334.70
366.52	271.50
366.72	297.25
366.91	227.03
367.11	334.70
367.31	241.08
367.51	269.16
367.70	224.69
367.90	297.25
368.10	205.97
368.30	222.35
368.49	222.35
368.69	262.14
368.89	262.14
369.09	351.08
369.28	290.23
369.48	231.71
369.68	318.31
369.87	250.44
370.07	285.55
370.27	341.72
370.47	304.27
370.66	266.82
370.86	395.55
371.06	369.80
371.25	433.00
371.45	280.86
371.65	386.19
371.84	372.15
372.04	320.65
372.24	358.10
372.44	365.12
372.63	425.98
372.83	430.66
373.03	372.15
373.22	341.72
373.42	430.66
373.62	477.47
373.81	393.21
374.01	407.25
374.21	428.32
374.40	397.89
374.60	416.62
374.79	444.70
374.99	390.87
375.19	393.21
375.38	447.04
375.58	376.83
375.78	381.51
375.97	435.34
376.17	444.70
376.37	348.74
376.56	442.36
376.76	425.98
376.95	379.17
377.15	428.32
377.35	428.32
377.54	440.02
377.74	381.51
377.93	404.91
378.13	475.13
378.33	423.64
378.52	416.62
378.72	456.40
378.91	456.40
379.11	407.25
379.31	397.89
379.50	400.23
379.70	454.06
379.89	348.74
380.09	379.17
380.28	344.06
380.48	433.00
380.68	414.27
380.87	400.23
381.07	372.15
381.26	390.87
381.46	423.64
381.65	411.93
381.85	365.12
382.04	374.49
382.24	416.62
382.43	397.89
382.63	421.30
382.83	376.83
383.02	423.64
383.22	428.32
383.41	374.49
383.61	444.70
383.80	425.98
384.00	367.46
384.19	433.00
384.39	465.77
384.58	409.59
384.78	355.76
384.97	346.40
385.17	428.32
385.36	374.49
385.56	393.21
385.75	369.80
385.95	355.76
386.14	444.70
386.34	353.42
386.53	440.02
386.72	365.12
386.92	447.04
387.11	416.62
387.31	425.98
387.50	407.25
387.70	365.12
387.89	353.42
388.09	397.89
388.28	395.55
388.48	451.72
388.67	423.64
388.86	374.49
389.06	386.19
389.25	421.30
389.45	402.57
389.64	409.59
389.84	465.77
390.03	393.21
390.22	376.83
390.42	409.59
390.61	493.85
390.81	456.40
391.00	383.85
391.19	393.21
391.39	400.23
391.58	463.43
391.78	409.59
391.97	351.08
392.16	402.57
392.36	437.68
392.55	409.59
392.75	444.70
392.94	475.13
393.13	449.38
393.33	386.19
393.52	411.93
393.71	433.00
393.91	400.23
394.10	458.74
394.29	348.74
394.49	383.85
394.68	374.49
394.88	482.15
395.07	463.43
395.26	482.15
395.46	327.68
395.65	383.85
395.84	402.57
396.04	475.13
396.23	428.32
396.42	393.21
396.62	465.77
396.81	482.15
397.00	388.53
397.19	440.02
397.39	409.59
397.58	444.70
397.77	409.59
397.97	456.40
398.16	416.62
398.35	362.78
398.55	397.89
398.74	315.97
398.93	425.98
399.12	379.17
399.32	339.38
399.51	409.59
399.70	383.85
399.90	440.02
400.09	447.04
400.28	421.30
400.47	433.00
400.67	353.42
400.86	409.59
401.05	444.70
401.24	388.53
401.44	400.23
401.63	388.53
401.82	451.72
402.01	353.42
402.21	484.49
402.40	418.96
402.59	409.59
402.78	395.55
402.97	437.68
403.17	461.09
403.36	421.30
403.55	367.46
403.74	369.80
403.93	374.49
404.13	341.72
404.32	447.04
404.51	393.21
404.70	435.34
404.89	433.00
405.09	435.34
405.28	425.98
405.47	404.91
405.66	430.66
405.85	472.79
406.05	456.40
406.24	395.55
406.43	355.76
406.62	447.04
406.81	383.85
407.00	404.91
407.20	400.23
407.39	341.72
407.58	414.27
407.77	423.64
407.96	414.27
408.15	353.42
408.34	383.85
408.54	362.78
408.73	397.89
408.92	447.04
409.11	437.68
409.30	507.90
409.49	379.17
409.68	423.64
409.87	416.62
410.07	388.53
410.26	477.47
410.45	425.98
410.64	395.55
410.83	409.59
411.02	418.96
411.21	468.11
411.40	461.09
411.59	416.62
411.78	465.77
411.98	411.93
412.17	383.85
412.36	395.55
412.55	386.19
412.74	383.85
412.93	444.70
413.12	433.00
413.31	390.87
413.50	468.11
413.69	372.15
413.88	428.32
414.07	440.02
414.26	444.70
414.45	430.66
414.64	334.70
414.83	402.57
415.02	428.32
415.22	411.93
415.41	372.15
415.60	402.57
415.79	395.55
415.98	475.13
416.17	451.72
416.36	437.68
416.55	440.02
416.74	430.66
416.93	414.27
417.12	393.21
417.31	425.98
417.50	409.59
417.69	440.02
417.88	322.99
418.07	411.93
418.26	395.55
418.45	444.70
418.64	381.51
418.83	425.98
419.02	369.80
419.21	386.19
419.39	381.51
419.58	397.89
419.77	433.00
419.96	411.93
420.15	440.02
420.34	386.19
420.53	383.85
420.72	400.23
420.91	465.77
421.10	435.34
421.29	418.96
421.48	451.72
421.67	447.04
421.86	409.59
422.05	425.98
422.24	402.57
422.43	390.87
422.61	430.66
422.80	404.91
422.99	390.87
423.18	400.23
423.37	465.77
423.56	456.40
423.75	465.77
423.94	388.53
424.13	468.11
424.32	388.53
424.50	404.91
424.69	425.98
424.88	416.62
425.07	367.46
425.26	407.25
425.45	468.11
425.64	397.89
425.83	388.53
426.01	393.21
426.20	372.15
426.39	444.70
426.58	416.62
426.77	376.83
426.96	416.62
427.15	393.21
427.33	421.30
427.52	414.27
427.71	472.79
427.90	433.00
428.09	400.23
428.28	428.32
428.46	402.57
428.65	411.93
428.84	428.32
429.03	430.66
429.22	402.57
429.40	425.98
429.59	421.30
429.78	451.72
429.97	379.17
430.16	393.21
430.34	404.91
430.53	374.49
430.72	407.25
430.91	475.13
431.10	344.06
431.28	383.85
431.47	440.02
431.66	444.70
431.85	433.00
432.03	435.34
432.22	470.45
432.41	482.15
432.60	433.00
432.79	400.23
432.97	407.25
433.16	395.55
433.35	414.27
433.54	451.72
433.72	461.09
433.91	376.83
434.10	374.49
434.28	393.21
434.47	393.21
434.66	437.68
434.85	433.00
435.03	437.68
435.22	414.27
435.41	442.36
435.59	437.68
435.78	465.77
435.97	416.62
436.16	383.85
436.34	404.91
436.53	383.85
436.72	449.38
436.90	440.02
437.09	411.93
437.28	414.27
437.46	393.21
437.65	468.11
437.84	500.87
438.02	475.13
438.21	491.51
438.40	425.98
438.58	402.57
438.77	379.17
438.96	367.46
439.14	367.46
439.33	423.64
439.52	435.34
439.70	418.96
439.89	458.74
440.08	411.93
440.26	449.38
440.45	449.38
440.63	421.30
440.82	449.38
441.01	456.40
441.19	463.43
441.38	402.57
441.57	379.17
441.75	428.32
441.94	428.32
442.12	456.40
442.31	341.72
442.50	414.27
442.68	383.85
442.87	423.64
443.05	451.72
443.24	395.55
443.43	341.72
443.61	423.64
443.80	400.23
443.98	470.45
444.17	360.44
444.35	365.12
444.54	348.74
444.73	390.87
444.91	411.93
445.10	463.43
445.28	318.31
445.47	374.49
445.65	414.27
445.84	442.36
446.02	376.83
446.21	440.02
446.39	430.66
446.58	402.57
446.77	337.04
446.95	369.80
447.14	428.32
447.32	463.43
447.51	423.64
447.69	381.51
447.88	451.72
448.06	433.00
448.25	386.19
448.43	423.64
448.62	404.91
448.80	421.30
448.99	381.51
449.17	381.51
449.36	390.87
449.54	367.46
449.73	379.17
449.91	402.57
450.10	332.36
450.28	454.06
450.46	528.96
450.65	416.62
450.83	414.27
451.02	428.32
451.20	416.62
451.39	374.49
451.57	365.12
451.76	435.34
451.94	337.04
452.13	493.85
452.31	430.66
452.49	458.74
452.68	407.25
452.86	386.19
453.05	425.98
453.23	388.53
453.42	369.80
453.60	404.91
453.78	353.42
453.97	407.25
454.15	437.68
454.34	376.83
454.52	379.17
454.70	447.04
454.89	444.70
455.07	440.02
455.26	383.85
455.44	472.79
455.62	421.30
455.81	386.19
455.99	442.36
456.17	411.93
456.36	470.45
456.54	404.91
456.73	390.87
456.91	440.02
457.09	444.70
457.28	421.30
457.46	444.70
457.64	463.43
457.83	409.59
458.01	425.98
458.19	376.83
458.38	454.06
458.56	454.06
458.74	423.64
458.93	400.23
459.11	379.17
459.29	437.68
459.48	444.70
459.66	447.04
459.84	451.72
460.03	458.74
460.21	444.70
460.39	475.13
460.57	404.91
460.76	456.40
460.94	402.57
461.12	451.72
461.31	442.36
461.49	390.87
461.67	440.02
461.85	449.38
462.04	393.21
462.22	793.44
462.40	444.70
462.59	477.47
462.77	416.62
462.95	344.06
463.13	397.89
463.32	425.98
463.50	440.02
463.68	362.78
463.86	376.83
464.05	430.66
464.23	379.17
464.41	463.43
464.59	400.23
464.78	428.32
464.96	383.85
465.14	400.23
465.32	393.21
465.50	425.98
465.69	411.93
465.87	409.59
466.05	430.66
466.23	447.04
466.41	411.93
466.60	395.55
466.78	470.45
466.96	444.70
467.14	454.06
467.32	440.02
467.51	395.55
467.69	435.34
467.87	411.93
468.05	430.66
468.23	416.62
468.41	421.30
468.60	507.90
468.78	365.12
468.96	390.87
469.14	421.30
469.32	411.93
469.50	454.06
469.69	461.09
469.87	393.21
470.05	362.78
470.23	440.02
470.41	456.40
470.59	437.68
470.77	414.27
470.95	414.27
471.14	425.98
471.32	433.00
471.50	433.00
471.68	360.44
471.86	440.02
472.04	374.49
472.22	423.64
472.40	409.59
472.58	407.25
472.77	393.21
472.95	379.17
473.13	437.68
473.31	470.45
473.49	440.02
473.67	395.55
473.85	451.72
474.03	381.51
474.21	465.77
474.39	503.22
474.57	463.43
474.75	444.70
474.93	447.04
475.12	416.62
475.30	423.64
475.48	407.25
475.66	468.11
475.84	404.91
476.02	390.87
476.20	451.72
476.38	444.70
476.56	440.02
476.74	449.38
476.92	440.02
477.10	411.93
477.28	416.62
477.46	444.70
477.64	440.02
477.82	404.91
478.00	425.98
478.18	393.21
478.36	451.72
478.54	449.38
478.72	372.15
478.90	430.66
479.08	393.21
479.26	411.93
479.44	414.27
479.62	454.06
479.80	400.23
479.98	367.46
480.16	386.19
480.34	479.81
480.52	372.15
480.70	461.09
480.88	435.34
481.06	435.34
481.24	435.34
481.41	454.06
481.59	421.30
481.77	360.44
481.95	393.21
482.13	440.02
482.31	416.62
482.49	346.40
482.67	407.25
482.85	421.30
483.03	475.13
483.21	423.64
483.39	475.13
483.57	458.74
483.74	484.49
483.92	407.25
484.10	386.19
484.28	418.96
484.46	400.23
484.64	369.80
484.82	397.89
485.00	435.34
485.18	435.34
485.35	402.57
485.53	383.85
485.71	425.98
485.89	393.21
486.07	421.30
486.25	433.00
486.43	358.10
486.61	423.64
486.78	468.11
486.96	435.34
487.14	484.49
487.32	400.23
487.50	482.15
487.68	430.66
487.85	344.06
488.03	388.53
488.21	503.22
488.39	416.62
488.57	351.08
488.75	428.32
488.92	444.70
489.10	386.19
489.28	437.68
489.46	444.70
489.64	409.59
489.81	444.70
489.99	435.34
490.17	369.80
490.35	479.81
490.53	353.42
490.70	308.95
490.88	451.72
491.06	418.96
491.24	339.38
491.41	433.00
491.59	418.96
491.77	374.49
491.95	479.81
492.13	404.91
492.30	400.23
492.48	442.36
492.66	404.91
492.84	472.79
493.01	449.38
493.19	390.87
493.37	367.46
493.54	475.13
493.72	447.04
493.90	402.57
494.08	374.49
494.25	475.13
494.43	400.23
494.61	409.59
494.79	461.09
494.96	376.83
495.14	475.13
495.32	447.04
495.49	409.59
495.67	451.72
495.85	332.36
496.02	416.62
496.20	404.91
496.38	433.00
496.55	425.98
496.73	503.22
496.91	360.44
497.09	454.06
497.26	402.57
497.44	388.53
497.62	435.34
497.79	418.96
497.97	423.64
498.14	428.32
498.32	491.51
498.50	416.62
498.67	390.87
498.85	430.66
499.03	451.72
499.20	386.19
499.38	358.10
499.56	395.55
499.73	477.47
499.91	425.98
500.08	369.80
500.26	388.53
500.44	447.04
500.61	437.68
500.79	369.80
500.97	411.93
501.14	472.79
501.32	411.93
501.49	402.57
501.67	425.98
501.84	458.74
502.02	416.62
502.20	433.00
502.37	440.02
502.55	379.17
502.72	358.10
502.90	479.81
503.07	458.74
503.25	353.42
503.43	348.74
503.60	388.53
503.78	505.56
503.95	369.80
504.13	355.76
504.30	374.49
504.48	475.13
504.65	400.23
504.83	428.32
505.01	397.89
505.18	433.00
505.36	442.36
505.53	379.17
505.71	421.30
505.88	437.68
506.06	388.53
506.23	339.38
506.41	381.51
506.58	489.17
506.76	433.00
506.93	409.59
507.11	463.43
507.28	430.66
507.46	451.72
507.63	437.68
507.81	447.04
507.98	433.00
508.16	428.32
508.33	404.91
508.50	409.59
508.68	421.30
508.85	475.13
509.03	444.70
509.20	390.87
509.38	440.02
509.55	421.30
509.73	416.62
509.90	430.66
510.08	435.34
510.25	388.53
510.42	407.25
510.60	409.59
510.77	496.19
510.95	447.04
511.12	461.09
511.30	456.40
511.47	418.96
511.64	449.38
511.82	318.31
511.99	379.17
512.17	388.53
512.34	341.72
512.51	440.02
512.69	447.04
512.86	472.79
513.04	428.32
513.21	418.96
513.38	388.53
513.56	416.62
513.73	435.34
513.90	404.91
514.08	369.80
514.25	358.10
514.43	458.74
514.60	386.19
514.77	451.72
514.95	486.83
515.12	442.36
515.29	458.74
515.47	503.22
515.64	482.15
515.81	414.27
515.99	456.40
516.16	393.21
516.33	322.99
516.51	482.15
516.68	444.70
516.85	479.81
517.03	397.89
517.20	458.74
517.37	381.51
517.54	346.40
517.72	435.34
517.89	330.02
518.06	454.06
518.24	425.98
518.41	475.13
518.58	428.32
518.75	383.85
518.93	421.30
519.10	374.49
519.27	411.93
519.45	388.53
519.62	435.34
519.79	458.74
519.96	437.68
520.14	411.93
520.31	477.47
520.48	386.19
520.65	418.96
520.83	491.51
521.00	461.09
521.17	418.96
521.34	451.72
521.52	418.96
521.69	463.43
521.86	440.02
522.03	402.57
522.20	428.32
522.38	409.59
522.55	470.45
522.72	416.62
522.89	416.62
523.07	435.34
523.24	416.62
523.41	491.51
523.58	423.64
523.75	425.98
523.92	416.62
524.10	379.17
524.27	393.21
524.44	444.70
524.61	470.45
524.78	353.42
524.96	496.19
525.13	411.93
525.30	404.91
525.47	437.68
525.64	425.98
525.81	437.68
525.98	425.98
526.16	444.70
526.33	407.25
526.50	393.21
526.67	423.64
526.84	418.96
527.01	437.68
527.18	437.68
527.36	433.00
527.53	402.57
527.70	376.83
527.87	395.55
528.04	491.51
528.21	449.38
528.38	468.11
528.55	400.23
528.72	411.93
528.89	447.04
529.07	470.45
529.24	465.77
529.41	451.72
529.58	425.98
529.75	425.98
529.92	425.98
530.09	386.19
530.26	386.19
530.43	454.06
530.60	435.34
530.77	425.98
530.94	416.62
531.11	437.68
531.28	428.32
531.46	437.68
531.63	456.40
531.80	376.83
531.97	416.62
532.14	444.70
532.31	447.04
532.48	437.68
532.65	411.93
532.82	442.36
532.99	416.62
533.16	444.70
533.33	414.27
533.50	472.79
533.67	390.87
533.84	428.32
534.01	383.85
534.18	433.00
534.35	411.93
534.52	393.21
534.69	451.72
534.86	470.45
535.03	376.83
535.20	358.10
535.37	447.04
535.54	402.57
535.71	414.27
535.88	440.02
536.05	346.40
536.22	486.83
536.38	425.98
536.55	409.59
536.72	435.34
536.89	428.32
537.06	472.79
537.23	304.27
537.40	386.19
537.57	404.91
537.74	496.19
537.91	433.00
538.08	414.27
538.25	479.81
538.42	433.00
538.59	496.19
538.75	421.30
538.92	479.81
539.09	358.10
539.26	400.23
539.43	454.06
539.60	409.59
539.77	411.93
539.94	416.62
540.11	430.66
540.28	486.83
540.44	493.85
540.61	407.25
540.78	486.83
540.95	414.27
541.12	433.00
541.29	435.34
541.46	475.13
541.62	484.49
541.79	372.15
541.96	404.91
542.13	386.19
542.30	421.30
542.47	484.49
542.63	414.27
542.80	423.64
542.97	442.36
543.14	348.74
543.31	425.98
543.48	379.17
543.64	393.21
543.81	454.06
543.98	454.06
544.15	430.66
544.32	404.91
544.48	409.59
544.65	372.15
544.82	414.27
544.99	395.55
545.16	423.64
545.32	383.85
545.49	402.57
545.66	449.38
545.83	437.68
546.00	381.51
546.16	386.19
546.33	390.87
546.50	374.49
546.67	437.68
546.83	437.68
547.00	486.83
547.17	407.25
547.34	486.83
547.50	390.87
547.67	447.04
547.84	388.53
548.00	400.23
548.17	402.57
548.34	381.51
548.51	393.21
548.67	425.98
548.84	404.91
549.01	411.93
549.18	440.02
549.34	330.02
549.51	388.53
549.68	351.08
549.84	402.57
550.01	479.81
550.18	451.72
550.34	475.13
550.51	367.46
550.68	421.30
550.84	428.32
551.01	388.53
551.18	414.27
551.34	423.64
551.51	465.77
551.68	425.98
551.84	421.30
552.01	442.36
552.18	461.09
552.34	395.55
552.51	451.72
552.68	449.38
552.84	360.44
553.01	390.87
553.18	437.68
553.34	447.04
553.51	353.42
553.67	428.32
553.84	454.06
554.01	404.91
554.17	503.22
554.34	470.45
554.51	395.55
554.67	386.19
554.84	437.68
555.00	489.17
555.17	461.09
555.33	447.04
555.50	421.30
555.67	491.51
555.83	400.23
556.00	430.66
556.16	517.26
556.33	383.85
556.50	393.21
556.66	447.04
556.83	397.89
556.99	486.83
557.16	437.68
557.32	433.00
557.49	463.43
557.65	447.04
557.82	418.96
557.98	430.66
558.15	381.51
558.32	477.47
558.48	472.79
558.65	428.32
558.81	437.68
558.98	472.79
559.14	355.76
559.31	411.93
559.47	381.51
559.64	458.74
559.80	367.46
559.97	433.00
560.13	428.32
560.30	372.15
560.46	386.19
560.63	411.93
560.79	344.06
560.96	376.83
561.12	425.98
561.29	322.99
561.45	440.02
561.61	454.06
561.78	507.90
561.94	386.19
562.11	379.17
562.27	423.64
562.44	367.46
562.60	402.57
562.77	395.55
562.93	433.00
563.10	414.27
563.26	369.80
563.42	376.83
563.59	318.31
563.75	409.59
563.92	404.91
564.08	404.91
564.24	500.87
564.41	498.53
564.57	379.17
564.74	383.85
564.90	458.74
565.07	500.87
565.23	484.49
565.39	418.96
565.56	400.23
565.72	365.12
565.88	428.32
566.05	395.55
566.21	388.53
566.38	390.87
566.54	449.38
566.70	397.89
566.87	404.91
567.03	430.66
567.19	465.77
567.36	386.19
567.52	423.64
567.68	376.83
567.85	376.83
568.01	334.70
568.17	402.57
568.34	414.27
568.50	491.51
568.66	418.96
568.83	547.69
568.99	463.43
569.15	447.04
569.32	379.17
569.48	421.30
569.64	482.15
569.81	418.96
569.97	435.34
570.13	395.55
570.30	447.04
570.46	414.27
570.62	470.45
570.78	395.55
570.95	358.10
571.11	449.38
571.27	496.19
571.43	353.42
571.60	433.00
571.76	409.59
571.92	411.93
572.09	479.81
572.25	390.87
572.41	428.32
572.57	449.38
572.74	454.06
572.90	470.45
573.06	416.62
573.22	423.64
573.38	479.81
573.55	409.59
573.71	374.49
573.87	425.98
574.03	479.81
574.20	379.17
574.36	433.00
574.52	430.66
574.68	435.34
574.84	456.40
575.01	425.98
575.17	449.38
575.33	461.09
575.49	355.76
575.65	376.83
575.82	414.27
575.98	461.09
576.14	444.70
576.30	414.27
576.46	425.98
576.62	461.09
576.79	468.11
576.95	376.83
577.11	411.93
577.27	355.76
577.43	468.11
577.59	498.53
577.75	367.46
577.92	437.68
578.08	388.53
578.24	393.21
578.40	437.68
578.56	456.40
578.72	440.02
578.88	388.53
579.04	484.49
579.21	447.04
579.37	402.57
579.53	444.70
579.69	418.96
579.85	369.80
580.01	425.98
580.17	449.38
580.33	395.55
580.49	433.00
580.65	407.25
580.82	393.21
580.98	393.21
581.14	444.70
581.30	465.77
581.46	362.78
581.62	421.30
581.78	376.83
581.94	493.85
582.10	386.19
582.26	397.89
582.42	353.42
582.58	465.77
582.74	367.46
582.90	386.19
583.06	449.38
583.22	365.12
583.38	435.34
583.54	374.49
583.70	461.09
583.86	447.04
584.02	418.96
584.18	365.12
584.34	388.53
584.50	397.89
584.66	430.66
584.82	428.32
584.98	388.53
585.14	376.83
585.30	386.19
585.46	465.77
585.62	463.43
585.78	393.21
585.94	404.91
586.10	421.30
586.26	444.70
586.42	465.77
586.58	517.26
586.74	402.57
586.90	386.19
587.06	411.93
587.22	433.00
587.38	397.89
587.54	381.51
587.70	425.98
587.86	505.56
588.02	433.00
588.18	444.70
588.34	381.51
588.49	475.13
588.65	379.17
588.81	463.43
588.97	372.15
589.13	416.62
589.29	365.12
589.45	477.47
589.61	456.40
589.77	423.64
589.93	397.89
590.08	421.30
590.24	358.10
590.40	402.57
590.56	442.36
590.72	425.98
590.88	440.02
591.04	395.55
591.20	435.34
591.35	435.34
591.51	358.10
591.67	383.85
591.83	381.51
591.99	472.79
592.15	383.85
592.31	468.11
592.46	430.66
592.62	447.04
592.78	440.02
592.94	386.19
593.10	430.66
593.26	475.13
593.41	425.98
593.57	423.64
593.73	409.59
593.89	433.00
594.05	402.57
594.20	341.72
594.36	447.04
594.52	433.00
594.68	397.89
594.84	430.66
594.99	430.66
595.15	423.64
595.31	458.74
595.47	477.47
595.62	454.06
595.78	505.56
595.94	423.64
596.10	470.45
596.25	423.64
596.41	407.25
596.57	381.51
596.73	409.59
596.88	411.93
597.04	395.55
597.20	400.23
597.36	477.47
597.51	510.24
597.67	397.89
597.83	383.85
597.99	456.40
598.14	376.83
598.30	454.06
598.46	390.87
598.61	425.98
598.77	358.10
598.93	475.13
599.09	404.91
599.24	386.19
599.40	393.21
599.56	456.40
599.71	344.06
599.87	421.30
600.03	402.57
600.18	447.04
600.34	430.66
600.50	381.51
600.65	428.32
600.81	458.74
600.97	367.46
601.12	433.00
601.28	435.34
601.44	442.36
601.59	330.02
601.75	454.06
601.91	416.62
602.06	444.70
602.22	482.15
602.37	402.57
602.53	383.85
602.69	416.62
602.84	437.68
603.00	409.59
603.16	430.66
603.31	465.77
603.47	402.57
603.62	393.21
603.78	418.96
603.94	369.80
604.09	379.17
604.25	376.83
604.40	390.87
604.56	414.27
604.71	411.93
604.87	414.27
605.03	430.66
605.18	416.62
605.34	400.23
605.49	421.30
605.65	470.45
605.80	395.55
605.96	374.49
606.12	388.53
606.27	440.02
606.43	411.93
606.58	383.85
606.74	421.30
606.89	386.19
607.05	411.93
607.20	414.27
607.36	496.19
607.51	475.13
607.67	428.32
607.82	393.21
607.98	447.04
608.13	397.89
608.29	482.15
608.44	479.81
608.60	400.23
608.75	475.13
608.91	440.02
609.06	421.30
609.22	428.32
609.37	320.65
609.53	374.49
609.68	393.21
609.84	442.36
609.99	479.81
610.15	454.06
