SpectraSuite Data File
++++++++++++++++++++++++++++++++++++
Date: Fri Oct 25 12:10:09 EDT 2013
User: price-jones
Dark Spectrum Present: No
Reference Spectrum Present: No
Number of Sampled Component Spectra: 1
Spectrometers: USB2+H05261
Integration Time (usec): 100000 (USB2+H05261)
Spectra Averaged: 1 (USB2+H05261)
Boxcar Smoothing: 0 (USB2+H05261)
Correct for Electrical Dark: No (USB2+H05261)
Strobe/Lamp Enabled: No (USB2+H05261)
Correct for Detector Non-linearity: No (USB2+H05261)
Correct for Stray Light: No (USB2+H05261)
Number of Pixels in Processed Spectrum: 2048
>>>>>Begin Processed Spectral Data<<<<<
365.73	374.49
365.92	374.49
366.12	374.49
366.32	255.12
366.52	117.03
366.72	234.05
366.91	168.52
367.11	269.16
367.31	208.31
367.51	255.12
367.70	205.97
367.90	236.39
368.10	231.71
368.30	271.50
368.49	210.65
368.69	257.46
368.89	245.76
369.09	264.48
369.28	297.25
369.48	278.52
369.68	315.97
369.87	273.84
370.07	367.46
370.27	264.48
370.47	313.63
370.66	355.76
370.86	374.49
371.06	404.91
371.25	374.49
371.45	367.46
371.65	430.66
371.84	386.19
372.04	372.15
372.24	433.00
372.44	358.10
372.63	341.72
372.83	383.85
373.03	414.27
373.22	393.21
373.42	418.96
373.62	376.83
373.81	358.10
374.01	449.38
374.21	454.06
374.40	440.02
374.60	461.09
374.79	416.62
374.99	362.78
375.19	404.91
375.38	395.55
375.58	430.66
375.78	376.83
375.97	440.02
376.17	400.23
376.37	332.36
376.56	454.06
376.76	390.87
376.95	386.19
377.15	435.34
377.35	362.78
377.54	440.02
377.74	379.17
377.93	367.46
378.13	430.66
378.33	362.78
378.52	449.38
378.72	404.91
378.91	428.32
379.11	395.55
379.31	416.62
379.50	355.76
379.70	381.51
379.89	418.96
380.09	418.96
380.28	395.55
380.48	374.49
380.68	397.89
380.87	458.74
381.07	456.40
381.26	423.64
381.46	397.89
381.65	437.68
381.85	407.25
382.04	355.76
382.24	435.34
382.43	381.51
382.63	388.53
382.83	355.76
383.02	463.43
383.22	397.89
383.41	358.10
383.61	423.64
383.80	442.36
384.00	440.02
384.19	362.78
384.39	442.36
384.58	374.49
384.78	437.68
384.97	407.25
385.17	374.49
385.36	334.70
385.56	388.53
385.75	362.78
385.95	365.12
386.14	402.57
386.34	423.64
386.53	418.96
386.72	337.04
386.92	423.64
387.11	414.27
387.31	442.36
387.50	386.19
387.70	430.66
387.89	433.00
388.09	440.02
388.28	430.66
388.48	334.70
388.67	381.51
388.86	325.33
389.06	442.36
389.25	414.27
389.45	407.25
389.64	383.85
389.84	407.25
390.03	372.15
390.22	461.09
390.42	393.21
390.61	390.87
390.81	402.57
391.00	404.91
391.19	458.74
391.39	390.87
391.58	383.85
391.78	411.93
391.97	435.34
392.16	388.53
392.36	423.64
392.55	409.59
392.75	440.02
392.94	400.23
393.13	407.25
393.33	379.17
393.52	365.12
393.71	395.55
393.91	505.56
394.10	404.91
394.29	423.64
394.49	407.25
394.68	397.89
394.88	365.12
395.07	463.43
395.26	416.62
395.46	360.44
395.65	461.09
395.84	442.36
396.04	442.36
396.23	416.62
396.42	351.08
396.62	365.12
396.81	372.15
397.00	456.40
397.19	454.06
397.39	428.32
397.58	472.79
397.77	393.21
397.97	479.81
398.16	423.64
398.35	414.27
398.55	409.59
398.74	355.76
398.93	414.27
399.12	411.93
399.32	486.83
399.51	374.49
399.70	393.21
399.90	461.09
400.09	425.98
400.28	428.32
400.47	397.89
400.67	440.02
400.86	414.27
401.05	407.25
401.24	369.80
401.44	425.98
401.63	388.53
401.82	425.98
402.01	369.80
402.21	402.57
402.40	435.34
402.59	365.12
402.78	374.49
402.97	381.51
403.17	442.36
403.36	379.17
403.55	395.55
403.74	367.46
403.93	395.55
404.13	409.59
404.32	472.79
404.51	416.62
404.70	397.89
404.89	374.49
405.09	390.87
405.28	440.02
405.47	381.51
405.66	418.96
405.85	463.43
406.05	454.06
406.24	348.74
406.43	428.32
406.62	390.87
406.81	505.56
407.00	395.55
407.20	376.83
407.39	360.44
407.58	365.12
407.77	407.25
407.96	337.04
408.15	451.72
408.34	449.38
408.54	344.06
408.73	411.93
408.92	472.79
409.11	430.66
409.30	383.85
409.49	355.76
409.68	341.72
409.87	404.91
410.07	400.23
410.26	388.53
410.45	367.46
410.64	409.59
410.83	379.17
411.02	440.02
411.21	428.32
411.40	418.96
411.59	344.06
411.78	348.74
411.98	365.12
412.17	433.00
412.36	491.51
412.55	440.02
412.74	437.68
412.93	372.15
413.12	402.57
413.31	402.57
413.50	374.49
413.69	428.32
413.88	381.51
414.07	362.78
414.26	411.93
414.45	362.78
414.64	407.25
414.83	381.51
415.02	428.32
415.22	461.09
415.41	433.00
415.60	379.17
415.79	381.51
415.98	421.30
416.17	409.59
416.36	468.11
416.55	367.46
416.74	402.57
416.93	411.93
417.12	468.11
417.31	421.30
417.50	358.10
417.69	416.62
417.88	369.80
418.07	423.64
418.26	461.09
418.45	379.17
418.64	381.51
418.83	344.06
419.02	440.02
419.21	425.98
419.39	360.44
419.58	425.98
419.77	468.11
419.96	395.55
420.15	491.51
420.34	404.91
420.53	283.20
420.72	447.04
420.91	381.51
421.10	400.23
421.29	351.08
421.48	374.49
421.67	365.12
421.86	409.59
422.05	322.99
422.24	411.93
422.43	449.38
422.61	381.51
422.80	463.43
422.99	433.00
423.18	477.47
423.37	393.21
423.56	409.59
423.75	414.27
423.94	395.55
424.13	430.66
424.32	421.30
424.50	428.32
424.69	416.62
424.88	411.93
425.07	435.34
425.26	404.91
425.45	393.21
425.64	409.59
425.83	379.17
426.01	418.96
426.20	416.62
426.39	421.30
426.58	425.98
426.77	435.34
426.96	411.93
427.15	367.46
427.33	325.33
427.52	421.30
427.71	395.55
427.90	428.32
428.09	353.42
428.28	482.15
428.46	390.87
428.65	393.21
428.84	437.68
429.03	472.79
429.22	383.85
429.40	383.85
429.59	379.17
429.78	442.36
429.97	411.93
430.16	369.80
430.34	458.74
430.53	348.74
430.72	411.93
430.91	451.72
431.10	433.00
431.28	418.96
431.47	435.34
431.66	421.30
431.85	418.96
432.03	418.96
432.22	449.38
432.41	397.89
432.60	411.93
432.79	348.74
432.97	383.85
433.16	411.93
433.35	390.87
433.54	416.62
433.72	491.51
433.91	369.80
434.10	393.21
434.28	395.55
434.47	411.93
434.66	421.30
434.85	461.09
435.03	402.57
435.22	374.49
435.41	414.27
435.59	456.40
435.78	379.17
435.97	402.57
436.16	372.15
436.34	330.02
436.53	402.57
436.72	444.70
436.90	362.78
437.09	402.57
437.28	397.89
437.46	442.36
437.65	440.02
437.84	444.70
438.02	414.27
438.21	407.25
438.40	409.59
438.58	409.59
438.77	388.53
438.96	367.46
439.14	337.04
439.33	369.80
439.52	365.12
439.70	381.51
439.89	484.49
440.08	304.27
440.26	454.06
440.45	409.59
440.63	475.13
440.82	407.25
441.01	468.11
441.19	390.87
441.38	409.59
441.57	423.64
441.75	444.70
441.94	369.80
442.12	388.53
442.31	390.87
442.50	388.53
442.68	416.62
442.87	449.38
443.05	397.89
443.24	409.59
443.43	458.74
443.61	447.04
443.80	423.64
443.98	365.12
444.17	383.85
444.35	456.40
444.54	425.98
444.73	435.34
444.91	365.12
445.10	334.70
445.28	449.38
445.47	395.55
445.65	369.80
445.84	411.93
446.02	461.09
446.21	465.77
446.39	400.23
446.58	423.64
446.77	379.17
446.95	383.85
447.14	437.68
447.32	449.38
447.51	416.62
447.69	388.53
447.88	416.62
448.06	463.43
448.25	407.25
448.43	397.89
448.62	400.23
448.80	437.68
448.99	411.93
449.17	369.80
449.36	372.15
449.54	433.00
449.73	421.30
449.91	397.89
450.10	414.27
450.28	456.40
450.46	475.13
450.65	479.81
450.83	369.80
451.02	451.72
451.20	376.83
451.39	400.23
451.57	411.93
451.76	414.27
451.94	472.79
452.13	381.51
452.31	414.27
452.49	395.55
452.68	454.06
452.86	388.53
453.05	493.85
453.23	444.70
453.42	362.78
453.60	451.72
453.78	411.93
453.97	365.12
454.15	400.23
454.34	374.49
454.52	402.57
454.70	428.32
454.89	369.80
455.07	393.21
455.26	397.89
455.44	376.83
455.62	425.98
455.81	454.06
455.99	306.61
456.17	388.53
456.36	454.06
456.54	444.70
456.73	393.21
456.91	383.85
457.09	468.11
457.28	456.40
457.46	449.38
457.64	414.27
457.83	440.02
458.01	376.83
458.19	433.00
458.38	376.83
458.56	395.55
458.74	393.21
458.93	440.02
459.11	444.70
459.29	388.53
459.48	428.32
459.66	421.30
459.84	423.64
460.03	475.13
460.21	442.36
460.39	372.15
460.57	449.38
460.76	393.21
460.94	393.21
461.12	437.68
461.31	423.64
461.49	409.59
461.67	456.40
461.85	402.57
462.04	458.74
462.22	727.91
462.40	454.06
462.59	463.43
462.77	437.68
462.95	416.62
463.13	451.72
463.32	437.68
463.50	390.87
463.68	444.70
463.86	341.72
464.05	397.89
464.23	430.66
464.41	383.85
464.59	374.49
464.78	325.33
464.96	418.96
465.14	411.93
465.32	421.30
465.50	386.19
465.69	482.15
465.87	386.19
466.05	390.87
466.23	367.46
466.41	374.49
466.60	421.30
466.78	437.68
466.96	407.25
467.14	454.06
467.32	346.40
467.51	456.40
467.69	418.96
467.87	449.38
468.05	376.83
468.23	486.83
468.41	451.72
468.60	379.17
468.78	440.02
468.96	425.98
469.14	411.93
469.32	440.02
469.50	379.17
469.69	374.49
469.87	393.21
470.05	414.27
470.23	402.57
470.41	411.93
470.59	440.02
470.77	435.34
470.95	461.09
471.14	475.13
471.32	395.55
471.50	372.15
471.68	451.72
471.86	386.19
472.04	393.21
472.22	353.42
472.40	381.51
472.58	454.06
472.77	362.78
472.95	407.25
473.13	468.11
473.31	404.91
473.49	358.10
473.67	400.23
473.85	393.21
474.03	379.17
474.21	358.10
474.39	369.80
474.57	526.62
474.75	407.25
474.93	393.21
475.12	348.74
475.30	444.70
475.48	383.85
475.66	430.66
475.84	486.83
476.02	454.06
476.20	400.23
476.38	320.65
476.56	461.09
476.74	397.89
476.92	341.72
477.10	470.45
477.28	381.51
477.46	458.74
477.64	425.98
477.82	362.78
478.00	404.91
478.18	404.91
478.36	444.70
478.54	374.49
478.72	383.85
478.90	433.00
479.08	395.55
479.26	416.62
479.44	372.15
479.62	395.55
479.80	411.93
479.98	374.49
480.16	404.91
480.34	402.57
480.52	348.74
480.70	362.78
480.88	404.91
481.06	421.30
481.24	477.47
481.41	390.87
481.59	374.49
481.77	365.12
481.95	383.85
482.13	440.02
482.31	386.19
482.49	498.53
482.67	442.36
482.85	461.09
483.03	383.85
483.21	454.06
483.39	411.93
483.57	379.17
483.74	411.93
483.92	376.83
484.10	376.83
484.28	374.49
484.46	437.68
484.64	360.44
484.82	428.32
485.00	365.12
485.18	374.49
485.35	400.23
485.53	470.45
485.71	421.30
485.89	414.27
486.07	376.83
486.25	376.83
486.43	395.55
486.61	425.98
486.78	493.85
486.96	463.43
487.14	409.59
487.32	451.72
487.50	414.27
487.68	458.74
487.85	402.57
488.03	393.21
488.21	381.51
488.39	393.21
488.57	411.93
488.75	400.23
488.92	568.75
489.10	430.66
489.28	444.70
489.46	440.02
489.64	407.25
489.81	365.12
489.99	374.49
490.17	383.85
490.35	437.68
490.53	372.15
490.70	390.87
490.88	374.49
491.06	381.51
491.24	425.98
491.41	454.06
491.59	468.11
491.77	383.85
491.95	437.68
492.13	489.17
492.30	320.65
492.48	444.70
492.66	397.89
492.84	383.85
493.01	362.78
493.19	379.17
493.37	458.74
493.54	440.02
493.72	442.36
493.90	463.43
494.08	397.89
494.25	496.19
494.43	444.70
494.61	430.66
494.79	411.93
494.96	393.21
495.14	376.83
495.32	461.09
495.49	447.04
495.67	395.55
495.85	407.25
496.02	437.68
496.20	404.91
496.38	463.43
496.55	458.74
496.73	423.64
496.91	376.83
497.09	472.79
497.26	435.34
497.44	365.12
497.62	418.96
497.79	421.30
497.97	449.38
498.14	400.23
498.32	383.85
498.50	395.55
498.67	475.13
498.85	376.83
499.03	365.12
499.20	414.27
499.38	461.09
499.56	430.66
499.73	418.96
499.91	451.72
500.08	449.38
500.26	414.27
500.44	456.40
500.61	503.22
500.79	348.74
500.97	414.27
501.14	376.83
501.32	402.57
501.49	468.11
501.67	390.87
501.84	444.70
502.02	400.23
502.20	433.00
502.37	437.68
502.55	362.78
502.72	440.02
502.90	442.36
503.07	456.40
503.25	376.83
503.43	337.04
503.60	390.87
503.78	374.49
503.95	416.62
504.13	416.62
504.30	437.68
504.48	468.11
504.65	409.59
504.83	454.06
505.01	330.02
505.18	411.93
505.36	367.46
505.53	428.32
505.71	451.72
505.88	379.17
506.06	468.11
506.23	379.17
506.41	463.43
506.58	379.17
506.76	395.55
506.93	386.19
507.11	440.02
507.28	404.91
507.46	383.85
507.63	381.51
507.81	454.06
507.98	344.06
508.16	440.02
508.33	383.85
508.50	496.19
508.68	437.68
508.85	430.66
509.03	390.87
509.20	428.32
509.38	433.00
509.55	423.64
509.73	475.13
509.90	486.83
510.08	388.53
510.25	463.43
510.42	423.64
510.60	395.55
510.77	454.06
510.95	383.85
511.12	369.80
511.30	390.87
511.47	428.32
511.64	418.96
511.82	411.93
511.99	348.74
512.17	482.15
512.34	379.17
512.51	351.08
512.69	388.53
512.86	388.53
513.04	358.10
513.21	409.59
513.38	423.64
513.56	332.36
513.73	428.32
513.90	365.12
514.08	383.85
514.25	416.62
514.43	421.30
514.60	411.93
514.77	433.00
514.95	440.02
515.12	369.80
515.29	435.34
515.47	430.66
515.64	428.32
515.81	418.96
515.99	423.64
516.16	407.25
516.33	360.44
516.51	402.57
516.68	449.38
516.85	407.25
517.03	390.87
517.20	444.70
517.37	465.77
517.54	374.49
517.72	404.91
517.89	402.57
518.06	458.74
518.24	458.74
518.41	451.72
518.58	418.96
518.75	437.68
518.93	395.55
519.10	402.57
519.27	372.15
519.45	374.49
519.62	397.89
519.79	425.98
519.96	430.66
520.14	411.93
520.31	397.89
520.48	421.30
520.65	451.72
520.83	400.23
521.00	414.27
521.17	386.19
521.34	458.74
521.52	418.96
521.69	411.93
521.86	362.78
522.03	400.23
522.20	428.32
522.38	418.96
522.55	477.47
522.72	477.47
522.89	369.80
523.07	468.11
523.24	411.93
523.41	447.04
523.58	397.89
523.75	355.76
523.92	435.34
524.10	395.55
524.27	425.98
524.44	409.59
524.61	449.38
524.78	395.55
524.96	407.25
525.13	402.57
525.30	465.77
525.47	353.42
525.64	416.62
525.81	475.13
525.98	423.64
526.16	311.29
526.33	318.31
526.50	451.72
526.67	395.55
526.84	390.87
527.01	360.44
527.18	440.02
527.36	442.36
527.53	409.59
527.70	404.91
527.87	428.32
528.04	435.34
528.21	407.25
528.38	440.02
528.55	468.11
528.72	397.89
528.89	404.91
529.07	454.06
529.24	425.98
529.41	435.34
529.58	470.45
529.75	437.68
529.92	447.04
530.09	468.11
530.26	442.36
530.43	435.34
530.60	458.74
530.77	423.64
530.94	440.02
531.11	463.43
531.28	440.02
531.46	395.55
531.63	479.81
531.80	440.02
531.97	374.49
532.14	484.49
532.31	451.72
532.48	423.64
532.65	381.51
532.82	449.38
532.99	423.64
533.16	386.19
533.33	468.11
533.50	423.64
533.67	400.23
533.84	423.64
534.01	533.64
534.18	477.47
534.35	514.92
534.52	447.04
534.69	395.55
534.86	360.44
535.03	461.09
535.20	386.19
535.37	404.91
535.54	409.59
535.71	458.74
535.88	449.38
536.05	433.00
536.22	435.34
536.38	444.70
536.55	463.43
536.72	416.62
536.89	440.02
537.06	449.38
537.23	358.10
537.40	400.23
537.57	402.57
537.74	461.09
537.91	367.46
538.08	465.77
538.25	374.49
538.42	369.80
538.59	486.83
538.75	458.74
538.92	435.34
539.09	428.32
539.26	433.00
539.43	461.09
539.60	397.89
539.77	374.49
539.94	442.36
540.11	470.45
540.28	390.87
540.44	449.38
540.61	425.98
540.78	461.09
540.95	428.32
541.12	404.91
541.29	407.25
541.46	514.92
541.62	468.11
541.79	433.00
541.96	388.53
542.13	409.59
542.30	388.53
542.47	423.64
542.63	437.68
542.80	486.83
542.97	456.40
543.14	430.66
543.31	414.27
543.48	425.98
543.64	414.27
543.81	383.85
543.98	437.68
544.15	425.98
544.32	395.55
544.48	393.21
544.65	428.32
544.82	362.78
544.99	400.23
545.16	447.04
545.32	411.93
545.49	404.91
545.66	451.72
545.83	346.40
546.00	463.43
546.16	430.66
546.33	435.34
546.50	463.43
546.67	472.79
546.83	440.02
547.00	449.38
547.17	383.85
547.34	421.30
547.50	451.72
547.67	393.21
547.84	376.83
548.00	409.59
548.17	409.59
548.34	437.68
548.51	482.15
548.67	468.11
548.84	404.91
549.01	418.96
549.18	360.44
549.34	369.80
549.51	425.98
549.68	411.93
549.84	449.38
550.01	407.25
550.18	451.72
550.34	447.04
550.51	393.21
550.68	451.72
550.84	374.49
551.01	395.55
551.18	397.89
551.34	463.43
551.51	416.62
551.68	400.23
551.84	451.72
552.01	451.72
552.18	362.78
552.34	430.66
552.51	454.06
552.68	334.70
552.84	418.96
553.01	379.17
553.18	444.70
553.34	404.91
553.51	367.46
553.67	428.32
553.84	447.04
554.01	451.72
554.17	486.83
554.34	454.06
554.51	414.27
554.67	393.21
554.84	437.68
555.00	433.00
555.17	404.91
555.33	407.25
555.50	428.32
555.67	430.66
555.83	346.40
556.00	407.25
556.16	498.53
556.33	376.83
556.50	386.19
556.66	421.30
556.83	444.70
556.99	390.87
557.16	430.66
557.32	437.68
557.49	423.64
557.65	367.46
557.82	449.38
557.98	433.00
558.15	493.85
558.32	468.11
558.48	454.06
558.65	479.81
558.81	433.00
558.98	390.87
559.14	433.00
559.31	437.68
559.47	447.04
559.64	421.30
559.80	486.83
559.97	383.85
560.13	400.23
560.30	376.83
560.46	367.46
560.63	449.38
560.79	451.72
560.96	451.72
561.12	444.70
561.29	421.30
561.45	402.57
561.61	449.38
561.78	454.06
561.94	482.15
562.11	435.34
562.27	404.91
562.44	390.87
562.60	447.04
562.77	463.43
562.93	442.36
563.10	430.66
563.26	456.40
563.42	397.89
563.59	454.06
563.75	465.77
563.92	468.11
564.08	458.74
564.24	421.30
564.41	402.57
564.57	407.25
564.74	383.85
564.90	456.40
565.07	376.83
565.23	423.64
565.39	444.70
565.56	449.38
565.72	411.93
565.88	351.08
566.05	344.06
566.21	465.77
566.38	402.57
566.54	383.85
566.70	442.36
566.87	348.74
567.03	404.91
567.19	404.91
567.36	428.32
567.52	461.09
567.68	423.64
567.85	395.55
568.01	435.34
568.17	311.29
568.34	376.83
568.50	390.87
568.66	451.72
568.83	477.47
568.99	376.83
569.15	514.92
569.32	355.76
569.48	454.06
569.64	428.32
569.81	430.66
569.97	411.93
570.13	491.51
570.30	416.62
570.46	327.68
570.62	411.93
570.78	393.21
570.95	374.49
571.11	449.38
571.27	395.55
571.43	416.62
571.60	470.45
571.76	386.19
571.92	442.36
572.09	390.87
572.25	486.83
572.41	404.91
572.57	423.64
572.74	451.72
572.90	418.96
573.06	416.62
573.22	456.40
573.38	465.77
573.55	475.13
573.71	416.62
573.87	491.51
574.03	390.87
574.20	428.32
574.36	472.79
574.52	425.98
574.68	444.70
574.84	456.40
575.01	397.89
575.17	433.00
575.33	397.89
575.49	388.53
575.65	362.78
575.82	498.53
575.98	437.68
576.14	482.15
576.30	454.06
576.46	451.72
576.62	430.66
576.79	449.38
576.95	430.66
577.11	404.91
577.27	451.72
577.43	416.62
577.59	402.57
577.75	444.70
577.92	428.32
578.08	402.57
578.24	404.91
578.40	418.96
578.56	461.09
578.72	447.04
578.88	355.76
579.04	386.19
579.21	442.36
579.37	433.00
579.53	379.17
579.69	444.70
579.85	435.34
580.01	433.00
580.17	418.96
580.33	367.46
580.49	383.85
580.65	404.91
580.82	397.89
580.98	486.83
581.14	388.53
581.30	489.17
581.46	425.98
581.62	465.77
581.78	376.83
581.94	358.10
582.10	383.85
582.26	400.23
582.42	437.68
582.58	301.93
582.74	351.08
582.90	402.57
583.06	400.23
583.22	414.27
583.38	355.76
583.54	447.04
583.70	489.17
583.86	402.57
584.02	372.15
584.18	458.74
584.34	400.23
584.50	510.24
584.66	423.64
584.82	423.64
584.98	393.21
585.14	395.55
585.30	379.17
585.46	416.62
585.62	372.15
585.78	435.34
585.94	458.74
586.10	433.00
586.26	423.64
586.42	463.43
586.58	407.25
586.74	454.06
586.90	442.36
587.06	383.85
587.22	409.59
587.38	376.83
587.54	454.06
587.70	454.06
587.86	360.44
588.02	358.10
588.18	444.70
588.34	442.36
588.49	381.51
588.65	376.83
588.81	437.68
588.97	355.76
589.13	418.96
589.29	379.17
589.45	407.25
589.61	437.68
589.77	456.40
589.93	386.19
590.08	435.34
590.24	404.91
590.40	409.59
590.56	493.85
590.72	440.02
590.88	449.38
591.04	397.89
591.20	379.17
591.35	395.55
591.51	416.62
591.67	444.70
591.83	409.59
591.99	461.09
592.15	404.91
592.31	423.64
592.46	468.11
592.62	440.02
592.78	411.93
592.94	454.06
593.10	416.62
593.26	369.80
593.41	444.70
593.57	390.87
593.73	402.57
593.89	423.64
594.05	367.46
594.20	388.53
594.36	416.62
594.52	390.87
594.68	360.44
594.84	423.64
594.99	472.79
595.15	470.45
595.31	402.57
595.47	425.98
595.62	414.27
595.78	365.12
595.94	376.83
596.10	493.85
596.25	390.87
596.41	498.53
596.57	404.91
596.73	372.15
596.88	388.53
597.04	416.62
597.20	400.23
597.36	500.87
597.51	400.23
597.67	482.15
597.83	395.55
597.99	479.81
598.14	447.04
598.30	416.62
598.46	395.55
598.61	430.66
598.77	433.00
598.93	437.68
599.09	447.04
599.24	381.51
599.40	369.80
599.56	500.87
599.71	341.72
599.87	437.68
600.03	411.93
600.18	418.96
600.34	449.38
600.50	400.23
600.65	456.40
600.81	433.00
600.97	430.66
601.12	390.87
601.28	528.96
601.44	407.25
601.59	358.10
601.75	440.02
601.91	421.30
602.06	458.74
602.22	475.13
602.37	430.66
602.53	372.15
602.69	423.64
602.84	423.64
603.00	442.36
603.16	507.90
603.31	437.68
603.47	393.21
603.62	414.27
603.78	409.59
603.94	393.21
604.09	341.72
604.25	484.49
604.40	475.13
604.56	358.10
604.71	407.25
604.87	409.59
605.03	454.06
605.18	440.02
605.34	458.74
605.49	430.66
605.65	435.34
605.80	440.02
605.96	402.57
606.12	423.64
606.27	440.02
606.43	409.59
606.58	390.87
606.74	491.51
606.89	381.51
607.05	404.91
607.20	390.87
607.36	428.32
607.51	383.85
607.67	381.51
607.82	440.02
607.98	461.09
608.13	435.34
608.29	397.89
608.44	374.49
608.60	470.45
608.75	472.79
608.91	430.66
609.06	411.93
609.22	433.00
609.37	397.89
609.53	400.23
609.68	447.04
609.84	433.00
609.99	355.76
610.15	430.66
