SpectraSuite Data File
++++++++++++++++++++++++++++++++++++
Date: Fri Oct 25 12:10:29 EDT 2013
User: price-jones
Dark Spectrum Present: No
Reference Spectrum Present: No
Number of Sampled Component Spectra: 1
Spectrometers: USB2+H05261
Integration Time (usec): 100000 (USB2+H05261)
Spectra Averaged: 1 (USB2+H05261)
Boxcar Smoothing: 0 (USB2+H05261)
Correct for Electrical Dark: No (USB2+H05261)
Strobe/Lamp Enabled: No (USB2+H05261)
Correct for Detector Non-linearity: No (USB2+H05261)
Correct for Stray Light: No (USB2+H05261)
Number of Pixels in Processed Spectrum: 2048
>>>>>Begin Processed Spectral Data<<<<<
365.73	360.44
365.92	360.44
366.12	360.44
366.32	248.10
366.52	159.16
366.72	266.82
366.91	301.93
367.11	215.33
367.31	252.78
367.51	205.97
367.70	236.39
367.90	229.37
368.10	198.95
368.30	236.39
368.49	276.18
368.69	227.03
368.89	276.18
369.09	280.86
369.28	290.23
369.48	229.37
369.68	255.12
369.87	280.86
370.07	313.63
370.27	255.12
370.47	308.95
370.66	304.27
370.86	374.49
371.06	414.27
371.25	381.51
371.45	402.57
371.65	418.96
371.84	372.15
372.04	428.32
372.24	365.12
372.44	418.96
372.63	409.59
372.83	337.04
373.03	390.87
373.22	440.02
373.42	367.46
373.62	484.49
373.81	390.87
374.01	435.34
374.21	418.96
374.40	416.62
374.60	411.93
374.79	358.10
374.99	360.44
375.19	449.38
375.38	425.98
375.58	425.98
375.78	407.25
375.97	461.09
376.17	475.13
376.37	437.68
376.56	397.89
376.76	367.46
376.95	418.96
377.15	421.30
377.35	416.62
377.54	400.23
377.74	425.98
377.93	388.53
378.13	418.96
378.33	428.32
378.52	407.25
378.72	456.40
378.91	409.59
379.11	411.93
379.31	344.06
379.50	393.21
379.70	475.13
379.89	409.59
380.09	395.55
380.28	468.11
380.48	440.02
380.68	344.06
380.87	393.21
381.07	484.49
381.26	458.74
381.46	449.38
381.65	468.11
381.85	355.76
382.04	372.15
382.24	353.42
382.43	367.46
382.63	496.19
382.83	442.36
383.02	435.34
383.22	428.32
383.41	402.57
383.61	404.91
383.80	442.36
384.00	351.08
384.19	337.04
384.39	388.53
384.58	423.64
384.78	344.06
384.97	409.59
385.17	458.74
385.36	416.62
385.56	461.09
385.75	367.46
385.95	346.40
386.14	414.27
386.34	463.43
386.53	393.21
386.72	425.98
386.92	414.27
387.11	388.53
387.31	344.06
387.50	365.12
387.70	454.06
387.89	409.59
388.09	362.78
388.28	437.68
388.48	437.68
388.67	372.15
388.86	418.96
389.06	437.68
389.25	397.89
389.45	418.96
389.64	449.38
389.84	423.64
390.03	397.89
390.22	341.72
390.42	407.25
390.61	435.34
390.81	465.77
391.00	409.59
391.19	425.98
391.39	423.64
391.58	369.80
391.78	400.23
391.97	418.96
392.16	442.36
392.36	416.62
392.55	437.68
392.75	402.57
392.94	442.36
393.13	367.46
393.33	376.83
393.52	344.06
393.71	510.24
393.91	423.64
394.10	421.30
394.29	475.13
394.49	376.83
394.68	447.04
394.88	458.74
395.07	442.36
395.26	369.80
395.46	379.17
395.65	442.36
395.84	418.96
396.04	425.98
396.23	407.25
396.42	390.87
396.62	440.02
396.81	395.55
397.00	369.80
397.19	414.27
397.39	458.74
397.58	416.62
397.77	374.49
397.97	407.25
398.16	402.57
398.35	402.57
398.55	437.68
398.74	451.72
398.93	402.57
399.12	440.02
399.32	372.15
399.51	395.55
399.70	355.76
399.90	456.40
400.09	355.76
400.28	334.70
400.47	351.08
400.67	360.44
400.86	390.87
401.05	386.19
401.24	383.85
401.44	351.08
401.63	379.17
401.82	327.68
402.01	421.30
402.21	397.89
402.40	414.27
402.59	390.87
402.78	414.27
402.97	435.34
403.17	390.87
403.36	409.59
403.55	402.57
403.74	414.27
403.93	348.74
404.13	423.64
404.32	402.57
404.51	341.72
404.70	444.70
404.89	393.21
405.09	362.78
405.28	362.78
405.47	418.96
405.66	386.19
405.85	414.27
406.05	351.08
406.24	395.55
406.43	428.32
406.62	411.93
406.81	435.34
407.00	489.17
407.20	479.81
407.39	435.34
407.58	381.51
407.77	400.23
407.96	386.19
408.15	428.32
408.34	444.70
408.54	498.53
408.73	435.34
408.92	383.85
409.11	421.30
409.30	353.42
409.49	322.99
409.68	379.17
409.87	433.00
410.07	362.78
410.26	402.57
410.45	351.08
410.64	489.17
410.83	442.36
411.02	411.93
411.21	465.77
411.40	369.80
411.59	470.45
411.78	388.53
411.98	397.89
412.17	330.02
412.36	388.53
412.55	435.34
412.74	451.72
412.93	510.24
413.12	376.83
413.31	435.34
413.50	454.06
413.69	404.91
413.88	428.32
414.07	430.66
414.26	360.44
414.45	435.34
414.64	430.66
414.83	416.62
415.02	402.57
415.22	374.49
415.41	388.53
415.60	369.80
415.79	376.83
415.98	381.51
416.17	390.87
416.36	388.53
416.55	311.29
416.74	374.49
416.93	411.93
417.12	379.17
417.31	421.30
417.50	381.51
417.69	355.76
417.88	421.30
418.07	379.17
418.26	411.93
418.45	320.65
418.64	379.17
418.83	374.49
419.02	386.19
419.21	437.68
419.39	435.34
419.58	341.72
419.77	435.34
419.96	486.83
420.15	447.04
420.34	397.89
420.53	423.64
420.72	369.80
420.91	461.09
421.10	425.98
421.29	386.19
421.48	442.36
421.67	397.89
421.86	407.25
422.05	397.89
422.24	334.70
422.43	388.53
422.61	409.59
422.80	365.12
422.99	367.46
423.18	365.12
423.37	482.15
423.56	430.66
423.75	423.64
423.94	388.53
424.13	425.98
424.32	362.78
424.50	411.93
424.69	500.87
424.88	430.66
425.07	409.59
425.26	442.36
425.45	444.70
425.64	400.23
425.83	414.27
426.01	484.49
426.20	416.62
426.39	367.46
426.58	379.17
426.77	407.25
426.96	482.15
427.15	393.21
427.33	341.72
427.52	374.49
427.71	447.04
427.90	381.51
428.09	435.34
428.28	393.21
428.46	374.49
428.65	461.09
428.84	334.70
429.03	437.68
429.22	372.15
429.40	435.34
429.59	421.30
429.78	383.85
429.97	414.27
430.16	367.46
430.34	475.13
430.53	351.08
430.72	444.70
430.91	397.89
431.10	433.00
431.28	433.00
431.47	454.06
431.66	367.46
431.85	362.78
432.03	360.44
432.22	447.04
432.41	372.15
432.60	475.13
432.79	390.87
432.97	397.89
433.16	386.19
433.35	407.25
433.54	348.74
433.72	404.91
433.91	386.19
434.10	475.13
434.28	402.57
434.47	374.49
434.66	463.43
434.85	479.81
435.03	402.57
435.22	404.91
435.41	393.21
435.59	451.72
435.78	358.10
435.97	379.17
436.16	393.21
436.34	414.27
436.53	383.85
436.72	423.64
436.90	428.32
437.09	376.83
437.28	346.40
437.46	423.64
437.65	386.19
437.84	489.17
438.02	421.30
438.21	409.59
438.40	409.59
438.58	409.59
438.77	411.93
438.96	463.43
439.14	381.51
439.33	428.32
439.52	435.34
439.70	411.93
439.89	454.06
440.08	414.27
440.26	416.62
440.45	409.59
440.63	393.21
440.82	440.02
441.01	397.89
441.19	362.78
441.38	430.66
441.57	430.66
441.75	500.87
441.94	421.30
442.12	407.25
442.31	353.42
442.50	360.44
442.68	442.36
442.87	400.23
443.05	390.87
443.24	421.30
443.43	409.59
443.61	447.04
443.80	414.27
443.98	475.13
444.17	456.40
444.35	381.51
444.54	360.44
444.73	348.74
444.91	430.66
445.10	397.89
445.28	341.72
445.47	376.83
445.65	437.68
445.84	430.66
446.02	390.87
446.21	353.42
446.39	465.77
446.58	440.02
446.77	386.19
446.95	367.46
447.14	388.53
447.32	376.83
447.51	395.55
447.69	477.47
447.88	346.40
448.06	416.62
448.25	423.64
448.43	369.80
448.62	404.91
448.80	379.17
448.99	486.83
449.17	454.06
449.36	409.59
449.54	486.83
449.73	393.21
449.91	365.12
450.10	348.74
450.28	486.83
450.46	479.81
450.65	458.74
450.83	379.17
451.02	409.59
451.20	383.85
451.39	407.25
451.57	393.21
451.76	416.62
451.94	386.19
452.13	423.64
452.31	468.11
452.49	400.23
452.68	379.17
452.86	351.08
453.05	449.38
453.23	428.32
453.42	376.83
453.60	402.57
453.78	369.80
453.97	383.85
454.15	407.25
454.34	397.89
454.52	447.04
454.70	386.19
454.89	381.51
455.07	421.30
455.26	465.77
455.44	386.19
455.62	451.72
455.81	358.10
455.99	376.83
456.17	411.93
456.36	355.76
456.54	372.15
456.73	433.00
456.91	430.66
457.09	404.91
457.28	428.32
457.46	430.66
457.64	381.51
457.83	449.38
458.01	386.19
458.19	447.04
458.38	404.91
458.56	477.47
458.74	435.34
458.93	400.23
459.11	390.87
459.29	372.15
459.48	451.72
459.66	444.70
459.84	444.70
460.03	402.57
460.21	458.74
460.39	386.19
460.57	454.06
460.76	353.42
460.94	374.49
461.12	449.38
461.31	468.11
461.49	383.85
461.67	477.47
461.85	416.62
462.04	393.21
462.22	720.88
462.40	397.89
462.59	463.43
462.77	386.19
462.95	430.66
463.13	334.70
463.32	433.00
463.50	365.12
463.68	374.49
463.86	442.36
464.05	404.91
464.23	423.64
464.41	444.70
464.59	404.91
464.78	411.93
464.96	430.66
465.14	376.83
465.32	351.08
465.50	498.53
465.69	458.74
465.87	404.91
466.05	402.57
466.23	433.00
466.41	367.46
466.60	351.08
466.78	360.44
466.96	435.34
467.14	440.02
467.32	383.85
467.51	388.53
467.69	430.66
467.87	468.11
468.05	341.72
468.23	472.79
468.41	367.46
468.60	428.32
468.78	444.70
468.96	327.68
469.14	418.96
469.32	447.04
469.50	365.12
469.69	430.66
469.87	390.87
470.05	437.68
470.23	367.46
470.41	379.17
470.59	440.02
470.77	381.51
470.95	458.74
471.14	411.93
471.32	451.72
471.50	409.59
471.68	383.85
471.86	390.87
472.04	388.53
472.22	472.79
472.40	414.27
472.58	454.06
472.77	376.83
472.95	456.40
473.13	416.62
473.31	430.66
473.49	386.19
473.67	454.06
473.85	428.32
474.03	418.96
474.21	348.74
474.39	407.25
474.57	414.27
474.75	414.27
474.93	393.21
475.12	376.83
475.30	367.46
475.48	386.19
475.66	449.38
475.84	435.34
476.02	414.27
476.20	369.80
476.38	458.74
476.56	458.74
476.74	433.00
476.92	433.00
477.10	423.64
477.28	430.66
477.46	397.89
477.64	416.62
477.82	440.02
478.00	421.30
478.18	458.74
478.36	484.49
478.54	369.80
478.72	365.12
478.90	477.47
479.08	454.06
479.26	437.68
479.44	411.93
479.62	425.98
479.80	365.12
479.98	447.04
480.16	374.49
480.34	393.21
480.52	397.89
480.70	421.30
480.88	358.10
481.06	433.00
481.24	416.62
481.41	440.02
481.59	369.80
481.77	442.36
481.95	449.38
482.13	423.64
482.31	411.93
482.49	369.80
482.67	437.68
482.85	404.91
483.03	407.25
483.21	414.27
483.39	390.87
483.57	397.89
483.74	456.40
483.92	433.00
484.10	379.17
484.28	383.85
484.46	444.70
484.64	376.83
484.82	414.27
485.00	428.32
485.18	475.13
485.35	454.06
485.53	416.62
485.71	404.91
485.89	376.83
486.07	376.83
486.25	479.81
486.43	390.87
486.61	456.40
486.78	388.53
486.96	421.30
487.14	404.91
487.32	411.93
487.50	447.04
487.68	416.62
487.85	395.55
488.03	454.06
488.21	451.72
488.39	449.38
488.57	472.79
488.75	463.43
488.92	479.81
489.10	440.02
489.28	395.55
489.46	411.93
489.64	437.68
489.81	404.91
489.99	463.43
490.17	524.28
490.35	435.34
490.53	411.93
490.70	383.85
490.88	458.74
491.06	423.64
491.24	461.09
491.41	535.98
491.59	433.00
491.77	418.96
491.95	358.10
492.13	280.86
492.30	390.87
492.48	383.85
492.66	421.30
492.84	330.02
493.01	402.57
493.19	418.96
493.37	458.74
493.54	369.80
493.72	390.87
493.90	388.53
494.08	351.08
494.25	358.10
494.43	454.06
494.61	421.30
494.79	402.57
494.96	414.27
495.14	411.93
495.32	400.23
495.49	339.38
495.67	411.93
495.85	393.21
496.02	435.34
496.20	390.87
496.38	442.36
496.55	393.21
496.73	482.15
496.91	365.12
497.09	470.45
497.26	451.72
497.44	409.59
497.62	411.93
497.79	416.62
497.97	435.34
498.14	491.51
498.32	416.62
498.50	433.00
498.67	428.32
498.85	376.83
499.03	465.77
499.20	393.21
499.38	433.00
499.56	402.57
499.73	421.30
499.91	425.98
500.08	503.22
500.26	454.06
500.44	365.12
500.61	437.68
500.79	430.66
500.97	456.40
501.14	451.72
501.32	451.72
501.49	477.47
501.67	397.89
501.84	440.02
502.02	383.85
502.20	400.23
502.37	388.53
502.55	369.80
502.72	425.98
502.90	428.32
503.07	458.74
503.25	409.59
503.43	463.43
503.60	442.36
503.78	468.11
503.95	414.27
504.13	433.00
504.30	449.38
504.48	388.53
504.65	388.53
504.83	468.11
505.01	372.15
505.18	374.49
505.36	358.10
505.53	379.17
505.71	418.96
505.88	367.46
506.06	416.62
506.23	461.09
506.41	440.02
506.58	451.72
506.76	449.38
506.93	353.42
507.11	374.49
507.28	449.38
507.46	430.66
507.63	433.00
507.81	383.85
507.98	435.34
508.16	301.93
508.33	330.02
508.50	461.09
508.68	444.70
508.85	454.06
509.03	451.72
509.20	388.53
509.38	425.98
509.55	503.22
509.73	400.23
509.90	454.06
510.08	404.91
510.25	430.66
510.42	381.51
510.60	402.57
510.77	437.68
510.95	386.19
511.12	339.38
511.30	388.53
511.47	428.32
511.64	411.93
511.82	388.53
511.99	341.72
512.17	451.72
512.34	374.49
512.51	442.36
512.69	374.49
512.86	440.02
513.04	425.98
513.21	482.15
513.38	376.83
513.56	414.27
513.73	449.38
513.90	362.78
514.08	353.42
514.25	437.68
514.43	409.59
514.60	407.25
514.77	351.08
514.95	411.93
515.12	308.95
515.29	367.46
515.47	402.57
515.64	465.77
515.81	449.38
515.99	442.36
516.16	449.38
516.33	414.27
516.51	367.46
516.68	355.76
516.85	414.27
517.03	388.53
517.20	472.79
517.37	397.89
517.54	440.02
517.72	402.57
517.89	416.62
518.06	348.74
518.24	430.66
518.41	416.62
518.58	444.70
518.75	355.76
518.93	411.93
519.10	348.74
519.27	440.02
519.45	433.00
519.62	421.30
519.79	376.83
519.96	388.53
520.14	414.27
520.31	423.64
520.48	376.83
520.65	365.12
520.83	355.76
521.00	430.66
521.17	451.72
521.34	379.17
521.52	444.70
521.69	400.23
521.86	348.74
522.03	435.34
522.20	395.55
522.38	367.46
522.55	416.62
522.72	374.49
522.89	365.12
523.07	400.23
523.24	440.02
523.41	360.44
523.58	369.80
523.75	390.87
523.92	423.64
524.10	482.15
524.27	451.72
524.44	425.98
524.61	440.02
524.78	388.53
524.96	418.96
525.13	425.98
525.30	519.60
525.47	489.17
525.64	430.66
525.81	355.76
525.98	407.25
526.16	437.68
526.33	437.68
526.50	411.93
526.67	360.44
526.84	334.70
527.01	416.62
527.18	477.47
527.36	372.15
527.53	388.53
527.70	477.47
527.87	372.15
528.04	367.46
528.21	386.19
528.38	475.13
528.55	418.96
528.72	369.80
528.89	444.70
529.07	402.57
529.24	369.80
529.41	447.04
529.58	447.04
529.75	376.83
529.92	409.59
530.09	435.34
530.26	409.59
530.43	416.62
530.60	437.68
530.77	479.81
530.94	388.53
531.11	498.53
531.28	425.98
531.46	433.00
531.63	402.57
531.80	435.34
531.97	451.72
532.14	437.68
532.31	468.11
532.48	437.68
532.65	454.06
532.82	381.51
532.99	390.87
533.16	381.51
533.33	449.38
533.50	395.55
533.67	433.00
533.84	472.79
534.01	409.59
534.18	353.42
534.35	414.27
534.52	360.44
534.69	407.25
534.86	421.30
535.03	423.64
535.20	365.12
535.37	479.81
535.54	458.74
535.71	433.00
535.88	442.36
536.05	447.04
536.22	428.32
536.38	383.85
536.55	334.70
536.72	404.91
536.89	376.83
537.06	409.59
537.23	425.98
537.40	440.02
537.57	479.81
537.74	461.09
537.91	393.21
538.08	475.13
538.25	407.25
538.42	308.95
538.59	477.47
538.75	442.36
538.92	409.59
539.09	444.70
539.26	440.02
539.43	514.92
539.60	512.58
539.77	339.38
539.94	409.59
540.11	325.33
540.28	395.55
540.44	404.91
540.61	411.93
540.78	411.93
540.95	341.72
541.12	461.09
541.29	360.44
541.46	402.57
541.62	437.68
541.79	454.06
541.96	383.85
542.13	376.83
542.30	472.79
542.47	444.70
542.63	365.12
542.80	475.13
542.97	463.43
543.14	355.76
543.31	376.83
543.48	360.44
543.64	360.44
543.81	477.47
543.98	433.00
544.15	404.91
544.32	390.87
544.48	402.57
544.65	433.00
544.82	449.38
544.99	407.25
545.16	451.72
545.32	388.53
545.49	465.77
545.66	447.04
545.83	428.32
546.00	397.89
546.16	463.43
546.33	402.57
546.50	404.91
546.67	379.17
546.83	444.70
547.00	388.53
547.17	465.77
547.34	421.30
547.50	407.25
547.67	365.12
547.84	411.93
548.00	416.62
548.17	341.72
548.34	402.57
548.51	461.09
548.67	482.15
548.84	362.78
549.01	430.66
549.18	367.46
549.34	484.49
549.51	390.87
549.68	414.27
549.84	397.89
550.01	402.57
550.18	440.02
550.34	484.49
550.51	449.38
550.68	475.13
550.84	374.49
551.01	404.91
551.18	428.32
551.34	409.59
551.51	451.72
551.68	435.34
551.84	470.45
552.01	416.62
552.18	411.93
552.34	437.68
552.51	383.85
552.68	465.77
552.84	418.96
553.01	505.56
553.18	409.59
553.34	416.62
553.51	365.12
553.67	404.91
553.84	369.80
554.01	425.98
554.17	379.17
554.34	379.17
554.51	397.89
554.67	437.68
554.84	423.64
555.00	447.04
555.17	423.64
555.33	423.64
555.50	418.96
555.67	425.98
555.83	390.87
556.00	449.38
556.16	554.71
556.33	484.49
556.50	365.12
556.66	390.87
556.83	407.25
556.99	353.42
557.16	430.66
557.32	397.89
557.49	369.80
557.65	442.36
557.82	362.78
557.98	430.66
558.15	404.91
558.32	400.23
558.48	409.59
558.65	397.89
558.81	402.57
558.98	411.93
559.14	409.59
559.31	414.27
559.47	465.77
559.64	409.59
559.80	428.32
559.97	386.19
560.13	425.98
560.30	437.68
560.46	346.40
560.63	444.70
560.79	475.13
560.96	383.85
561.12	444.70
561.29	447.04
561.45	489.17
561.61	463.43
561.78	435.34
561.94	451.72
562.11	414.27
562.27	440.02
562.44	430.66
562.60	404.91
562.77	449.38
562.93	458.74
563.10	355.76
563.26	454.06
563.42	435.34
563.59	411.93
563.75	433.00
563.92	414.27
564.08	463.43
564.24	393.21
564.41	484.49
564.57	435.34
564.74	404.91
564.90	428.32
565.07	425.98
565.23	423.64
565.39	386.19
565.56	421.30
565.72	341.72
565.88	416.62
566.05	346.40
566.21	407.25
566.38	425.98
566.54	365.12
566.70	521.94
566.87	374.49
567.03	423.64
567.19	416.62
567.36	489.17
567.52	444.70
567.68	409.59
567.85	449.38
568.01	416.62
568.17	421.30
568.34	404.91
568.50	444.70
568.66	418.96
568.83	437.68
568.99	381.51
569.15	458.74
569.32	418.96
569.48	449.38
569.64	444.70
569.81	334.70
569.97	404.91
570.13	409.59
570.30	461.09
570.46	463.43
570.62	442.36
570.78	400.23
570.95	367.46
571.11	428.32
571.27	423.64
571.43	433.00
571.60	444.70
571.76	397.89
571.92	423.64
572.09	381.51
572.25	472.79
572.41	465.77
572.57	470.45
572.74	447.04
572.90	454.06
573.06	388.53
573.22	404.91
573.38	444.70
573.55	444.70
573.71	351.08
573.87	449.38
574.03	475.13
574.20	458.74
574.36	461.09
574.52	374.49
574.68	400.23
574.84	447.04
575.01	461.09
575.17	491.51
575.33	409.59
575.49	440.02
575.65	404.91
575.82	461.09
575.98	414.27
576.14	456.40
576.30	400.23
576.46	374.49
576.62	477.47
576.79	428.32
576.95	433.00
577.11	451.72
577.27	397.89
577.43	444.70
577.59	482.15
577.75	447.04
577.92	351.08
578.08	351.08
578.24	400.23
578.40	390.87
578.56	484.49
578.72	468.11
578.88	437.68
579.04	416.62
579.21	423.64
579.37	409.59
579.53	341.72
579.69	379.17
579.85	463.43
580.01	418.96
580.17	386.19
580.33	341.72
580.49	454.06
580.65	458.74
580.82	388.53
580.98	362.78
581.14	402.57
581.30	463.43
581.46	411.93
581.62	444.70
581.78	402.57
581.94	400.23
582.10	477.47
582.26	383.85
582.42	416.62
582.58	435.34
582.74	421.30
582.90	435.34
583.06	456.40
583.22	449.38
583.38	435.34
583.54	360.44
583.70	409.59
583.86	428.32
584.02	372.15
584.18	472.79
584.34	486.83
584.50	442.36
584.66	507.90
584.82	348.74
584.98	447.04
585.14	414.27
585.30	423.64
585.46	433.00
585.62	355.76
585.78	386.19
585.94	433.00
586.10	372.15
586.26	397.89
586.42	425.98
586.58	423.64
586.74	411.93
586.90	400.23
587.06	433.00
587.22	491.51
587.38	440.02
587.54	379.17
587.70	447.04
587.86	416.62
588.02	365.12
588.18	369.80
588.34	477.47
588.49	395.55
588.65	461.09
588.81	379.17
588.97	379.17
589.13	397.89
589.29	519.60
589.45	379.17
589.61	383.85
589.77	463.43
589.93	400.23
590.08	414.27
590.24	376.83
590.40	447.04
590.56	400.23
590.72	418.96
590.88	386.19
591.04	423.64
591.20	334.70
591.35	491.51
591.51	386.19
591.67	402.57
591.83	425.98
591.99	482.15
592.15	376.83
592.31	390.87
592.46	418.96
592.62	390.87
592.78	390.87
592.94	411.93
593.10	383.85
593.26	416.62
593.41	423.64
593.57	447.04
593.73	355.76
593.89	470.45
594.05	444.70
594.20	402.57
594.36	423.64
594.52	365.12
594.68	461.09
594.84	430.66
594.99	444.70
595.15	440.02
595.31	454.06
595.47	433.00
595.62	489.17
595.78	416.62
595.94	397.89
596.10	404.91
596.25	449.38
596.41	407.25
596.57	325.33
596.73	379.17
596.88	346.40
597.04	372.15
597.20	355.76
597.36	397.89
597.51	421.30
597.67	339.38
597.83	425.98
597.99	411.93
598.14	402.57
598.30	407.25
598.46	491.51
598.61	440.02
598.77	444.70
598.93	365.12
599.09	423.64
599.24	461.09
599.40	503.22
599.56	433.00
599.71	414.27
599.87	339.38
600.03	444.70
600.18	418.96
600.34	374.49
600.50	456.40
600.65	360.44
600.81	433.00
600.97	451.72
601.12	402.57
601.28	358.10
601.44	411.93
601.59	437.68
601.75	496.19
601.91	425.98
602.06	433.00
602.22	472.79
602.37	489.17
602.53	430.66
602.69	433.00
602.84	421.30
603.00	348.74
603.16	339.38
603.31	489.17
603.47	484.49
603.62	395.55
603.78	393.21
603.94	489.17
604.09	374.49
604.25	407.25
604.40	418.96
604.56	353.42
604.71	395.55
604.87	381.51
605.03	435.34
605.18	430.66
605.34	386.19
605.49	454.06
605.65	484.49
605.80	306.61
605.96	414.27
606.12	423.64
606.27	484.49
606.43	404.91
606.58	465.77
606.74	365.12
606.89	435.34
607.05	404.91
607.20	428.32
607.36	428.32
607.51	397.89
607.67	409.59
607.82	428.32
607.98	444.70
608.13	440.02
608.29	383.85
608.44	484.49
608.60	411.93
608.75	423.64
608.91	437.68
609.06	376.83
609.22	451.72
609.37	376.83
609.53	339.38
609.68	388.53
609.84	397.89
609.99	454.06
610.15	416.62
