SpectraSuite Data File
++++++++++++++++++++++++++++++++++++
Date: Fri Oct 25 12:10:23 EDT 2013
User: price-jones
Dark Spectrum Present: No
Reference Spectrum Present: No
Number of Sampled Component Spectra: 1
Spectrometers: USB2+H05261
Integration Time (usec): 100000 (USB2+H05261)
Spectra Averaged: 1 (USB2+H05261)
Boxcar Smoothing: 0 (USB2+H05261)
Correct for Electrical Dark: No (USB2+H05261)
Strobe/Lamp Enabled: No (USB2+H05261)
Correct for Detector Non-linearity: No (USB2+H05261)
Correct for Stray Light: No (USB2+H05261)
Number of Pixels in Processed Spectrum: 2048
>>>>>Begin Processed Spectral Data<<<<<
365.73	330.02
365.92	330.02
366.12	330.02
366.32	201.29
366.52	262.14
366.72	271.50
366.91	243.42
367.11	196.60
367.31	163.84
367.51	264.48
367.70	203.63
367.90	205.97
368.10	222.35
368.30	248.10
368.49	255.12
368.69	273.84
368.89	257.46
369.09	220.01
369.28	208.31
369.48	273.84
369.68	264.48
369.87	297.25
370.07	278.52
370.27	372.15
370.47	299.59
370.66	308.95
370.86	269.16
371.06	433.00
371.25	428.32
371.45	381.51
371.65	437.68
371.84	393.21
372.04	414.27
372.24	334.70
372.44	425.98
372.63	444.70
372.83	428.32
373.03	472.79
373.22	425.98
373.42	409.59
373.62	421.30
373.81	390.87
374.01	381.51
374.21	411.93
374.40	421.30
374.60	447.04
374.79	383.85
374.99	388.53
375.19	475.13
375.38	407.25
375.58	395.55
375.78	362.78
375.97	430.66
376.17	395.55
376.37	440.02
376.56	418.96
376.76	440.02
376.95	449.38
377.15	472.79
377.35	463.43
377.54	341.72
377.74	395.55
377.93	449.38
378.13	362.78
378.33	458.74
378.52	442.36
378.72	440.02
378.91	395.55
379.11	388.53
379.31	428.32
379.50	390.87
379.70	409.59
379.89	451.72
380.09	421.30
380.28	425.98
380.48	451.72
380.68	344.06
380.87	395.55
381.07	472.79
381.26	430.66
381.46	425.98
381.65	440.02
381.85	440.02
382.04	411.93
382.24	402.57
382.43	498.53
382.63	372.15
382.83	435.34
383.02	454.06
383.22	390.87
383.41	449.38
383.61	400.23
383.80	397.89
384.00	341.72
384.19	355.76
384.39	390.87
384.58	414.27
384.78	447.04
384.97	411.93
385.17	435.34
385.36	447.04
385.56	362.78
385.75	367.46
385.95	407.25
386.14	409.59
386.34	433.00
386.53	407.25
386.72	376.83
386.92	414.27
387.11	411.93
387.31	348.74
387.50	390.87
387.70	353.42
387.89	440.02
388.09	416.62
388.28	386.19
388.48	407.25
388.67	458.74
388.86	465.77
389.06	390.87
389.25	411.93
389.45	428.32
389.64	351.08
389.84	442.36
390.03	351.08
390.22	386.19
390.42	421.30
390.61	390.87
390.81	365.12
391.00	400.23
391.19	397.89
391.39	440.02
391.58	465.77
391.78	348.74
391.97	397.89
392.16	430.66
392.36	430.66
392.55	388.53
392.75	360.44
392.94	372.15
393.13	442.36
393.33	400.23
393.52	388.53
393.71	409.59
393.91	376.83
394.10	379.17
394.29	451.72
394.49	369.80
394.68	447.04
394.88	386.19
395.07	479.81
395.26	437.68
395.46	330.02
395.65	421.30
395.84	397.89
396.04	390.87
396.23	360.44
396.42	400.23
396.62	383.85
396.81	437.68
397.00	404.91
397.19	430.66
397.39	365.12
397.58	404.91
397.77	362.78
397.97	435.34
398.16	430.66
398.35	376.83
398.55	379.17
398.74	344.06
398.93	416.62
399.12	390.87
399.32	433.00
399.51	390.87
399.70	423.64
399.90	353.42
400.09	351.08
400.28	425.98
400.47	383.85
400.67	397.89
400.86	470.45
401.05	477.47
401.24	444.70
401.44	418.96
401.63	421.30
401.82	386.19
402.01	327.68
402.21	416.62
402.40	416.62
402.59	306.61
402.78	440.02
402.97	421.30
403.17	409.59
403.36	355.76
403.55	447.04
403.74	365.12
403.93	414.27
404.13	428.32
404.32	334.70
404.51	411.93
404.70	433.00
404.89	400.23
405.09	423.64
405.28	411.93
405.47	372.15
405.66	393.21
405.85	465.77
406.05	428.32
406.24	400.23
406.43	407.25
406.62	407.25
406.81	425.98
407.00	416.62
407.20	442.36
407.39	411.93
407.58	456.40
407.77	360.44
407.96	374.49
408.15	402.57
408.34	433.00
408.54	388.53
408.73	454.06
408.92	444.70
409.11	425.98
409.30	454.06
409.49	397.89
409.68	369.80
409.87	447.04
410.07	430.66
410.26	383.85
410.45	454.06
410.64	402.57
410.83	425.98
411.02	435.34
411.21	402.57
411.40	395.55
411.59	477.47
411.78	435.34
411.98	369.80
412.17	390.87
412.36	447.04
412.55	372.15
412.74	463.43
412.93	400.23
413.12	400.23
413.31	475.13
413.50	379.17
413.69	411.93
413.88	411.93
414.07	456.40
414.26	440.02
414.45	355.76
414.64	428.32
414.83	423.64
415.02	435.34
415.22	489.17
415.41	393.21
415.60	505.56
415.79	393.21
415.98	451.72
416.17	435.34
416.36	423.64
416.55	372.15
416.74	416.62
416.93	416.62
417.12	407.25
417.31	390.87
417.50	414.27
417.69	517.26
417.88	362.78
418.07	440.02
418.26	327.68
418.45	374.49
418.64	400.23
418.83	402.57
419.02	332.36
419.21	395.55
419.39	472.79
419.58	348.74
419.77	353.42
419.96	353.42
420.15	395.55
420.34	430.66
420.53	374.49
420.72	397.89
420.91	411.93
421.10	428.32
421.29	437.68
421.48	421.30
421.67	372.15
421.86	421.30
422.05	358.10
422.24	400.23
422.43	386.19
422.61	367.46
422.80	430.66
422.99	388.53
423.18	379.17
423.37	479.81
423.56	447.04
423.75	465.77
423.94	327.68
424.13	395.55
424.32	393.21
424.50	395.55
424.69	416.62
424.88	451.72
425.07	365.12
425.26	442.36
425.45	402.57
425.64	409.59
425.83	334.70
426.01	430.66
426.20	386.19
426.39	407.25
426.58	461.09
426.77	404.91
426.96	400.23
427.15	433.00
427.33	395.55
427.52	393.21
427.71	397.89
427.90	372.15
428.09	411.93
428.28	367.46
428.46	351.08
428.65	411.93
428.84	461.09
429.03	456.40
429.22	416.62
429.40	327.68
429.59	416.62
429.78	397.89
429.97	416.62
430.16	374.49
430.34	362.78
430.53	423.64
430.72	346.40
430.91	416.62
431.10	355.76
431.28	472.79
431.47	421.30
431.66	409.59
431.85	400.23
432.03	367.46
432.22	458.74
432.41	514.92
432.60	479.81
432.79	362.78
432.97	435.34
433.16	374.49
433.35	381.51
433.54	332.36
433.72	404.91
433.91	355.76
434.10	358.10
434.28	437.68
434.47	421.30
434.66	402.57
434.85	383.85
435.03	383.85
435.22	318.31
435.41	442.36
435.59	407.25
435.78	351.08
435.97	402.57
436.16	372.15
436.34	451.72
436.53	383.85
436.72	470.45
436.90	376.83
437.09	444.70
437.28	344.06
437.46	351.08
437.65	468.11
437.84	430.66
438.02	461.09
438.21	334.70
438.40	433.00
438.58	355.76
438.77	402.57
438.96	437.68
439.14	402.57
439.33	451.72
439.52	493.85
439.70	407.25
439.89	461.09
440.08	442.36
440.26	339.38
440.45	374.49
440.63	421.30
440.82	407.25
441.01	409.59
441.19	449.38
441.38	411.93
441.57	327.68
441.75	365.12
441.94	376.83
442.12	369.80
442.31	381.51
442.50	404.91
442.68	430.66
442.87	393.21
443.05	414.27
443.24	425.98
443.43	416.62
443.61	454.06
443.80	362.78
443.98	360.44
444.17	390.87
444.35	535.98
444.54	442.36
444.73	372.15
444.91	411.93
445.10	472.79
445.28	421.30
445.47	414.27
445.65	404.91
445.84	416.62
446.02	337.04
446.21	468.11
446.39	465.77
446.58	381.51
446.77	325.33
446.95	395.55
447.14	435.34
447.32	475.13
447.51	395.55
447.69	402.57
447.88	395.55
448.06	421.30
448.25	472.79
448.43	374.49
448.62	465.77
448.80	388.53
448.99	397.89
449.17	470.45
449.36	430.66
449.54	435.34
449.73	301.93
449.91	379.17
450.10	400.23
450.28	425.98
450.46	409.59
450.65	451.72
450.83	311.29
451.02	351.08
451.20	437.68
451.39	440.02
451.57	367.46
451.76	421.30
451.94	402.57
452.13	397.89
452.31	395.55
452.49	461.09
452.68	404.91
452.86	376.83
453.05	458.74
453.23	374.49
453.42	393.21
453.60	360.44
453.78	449.38
453.97	341.72
454.15	341.72
454.34	402.57
454.52	346.40
454.70	425.98
454.89	376.83
455.07	451.72
455.26	393.21
455.44	388.53
455.62	479.81
455.81	390.87
455.99	440.02
456.17	411.93
456.36	484.49
456.54	383.85
456.73	444.70
456.91	486.83
457.09	397.89
457.28	367.46
457.46	407.25
457.64	395.55
457.83	442.36
458.01	454.06
458.19	411.93
458.38	409.59
458.56	367.46
458.74	409.59
458.93	379.17
459.11	409.59
459.29	390.87
459.48	456.40
459.66	433.00
459.84	482.15
460.03	451.72
460.21	437.68
460.39	423.64
460.57	489.17
460.76	437.68
460.94	367.46
461.12	435.34
461.31	414.27
461.49	435.34
461.67	437.68
461.85	397.89
462.04	416.62
462.22	812.17
462.40	449.38
462.59	374.49
462.77	440.02
462.95	397.89
463.13	362.78
463.32	362.78
463.50	395.55
463.68	454.06
463.86	379.17
464.05	433.00
464.23	407.25
464.41	411.93
464.59	395.55
464.78	430.66
464.96	388.53
465.14	514.92
465.32	447.04
465.50	463.43
465.69	421.30
465.87	381.51
466.05	437.68
466.23	400.23
466.41	468.11
466.60	402.57
466.78	327.68
466.96	390.87
467.14	447.04
467.32	388.53
467.51	388.53
467.69	416.62
467.87	386.19
468.05	379.17
468.23	489.17
468.41	395.55
468.60	407.25
468.78	372.15
468.96	376.83
469.14	372.15
469.32	332.36
469.50	390.87
469.69	493.85
469.87	425.98
470.05	451.72
470.23	437.68
470.41	360.44
470.59	397.89
470.77	437.68
470.95	372.15
471.14	402.57
471.32	418.96
471.50	465.77
471.68	416.62
471.86	369.80
472.04	383.85
472.22	376.83
472.40	402.57
472.58	442.36
472.77	411.93
472.95	381.51
473.13	435.34
473.31	496.19
473.49	430.66
473.67	440.02
473.85	456.40
474.03	411.93
474.21	454.06
474.39	395.55
474.57	463.43
474.75	421.30
474.93	461.09
475.12	435.34
475.30	330.02
475.48	430.66
475.66	334.70
475.84	418.96
476.02	411.93
476.20	397.89
476.38	435.34
476.56	472.79
476.74	447.04
476.92	461.09
477.10	458.74
477.28	393.21
477.46	372.15
477.64	461.09
477.82	454.06
478.00	348.74
478.18	404.91
478.36	521.94
478.54	383.85
478.72	376.83
478.90	395.55
479.08	440.02
479.26	416.62
479.44	458.74
479.62	447.04
479.80	430.66
479.98	390.87
480.16	411.93
480.34	365.12
480.52	369.80
480.70	416.62
480.88	461.09
481.06	365.12
481.24	433.00
481.41	334.70
481.59	339.38
481.77	433.00
481.95	386.19
482.13	440.02
482.31	390.87
482.49	411.93
482.67	395.55
482.85	454.06
483.03	411.93
483.21	402.57
483.39	395.55
483.57	433.00
483.74	456.40
483.92	421.30
484.10	428.32
484.28	456.40
484.46	451.72
484.64	461.09
484.82	407.25
485.00	383.85
485.18	322.99
485.35	425.98
485.53	407.25
485.71	430.66
485.89	390.87
486.07	374.49
486.25	367.46
486.43	369.80
486.61	400.23
486.78	458.74
486.96	369.80
487.14	416.62
487.32	393.21
487.50	400.23
487.68	341.72
487.85	393.21
488.03	407.25
488.21	404.91
488.39	493.85
488.57	425.98
488.75	388.53
488.92	475.13
489.10	456.40
489.28	416.62
489.46	353.42
489.64	435.34
489.81	390.87
489.99	465.77
490.17	463.43
490.35	454.06
490.53	393.21
490.70	461.09
490.88	414.27
491.06	425.98
491.24	458.74
491.41	390.87
491.59	358.10
491.77	400.23
491.95	386.19
492.13	400.23
492.30	411.93
492.48	463.43
492.66	433.00
492.84	425.98
493.01	397.89
493.19	416.62
493.37	484.49
493.54	320.65
493.72	393.21
493.90	404.91
494.08	367.46
494.25	372.15
494.43	444.70
494.61	482.15
494.79	414.27
494.96	411.93
495.14	451.72
495.32	397.89
495.49	416.62
495.67	414.27
495.85	358.10
496.02	344.06
496.20	395.55
496.38	428.32
496.55	372.15
496.73	444.70
496.91	430.66
497.09	493.85
497.26	442.36
497.44	428.32
497.62	437.68
497.79	442.36
497.97	376.83
498.14	440.02
498.32	437.68
498.50	458.74
498.67	428.32
498.85	440.02
499.03	376.83
499.20	409.59
499.38	468.11
499.56	442.36
499.73	458.74
499.91	404.91
500.08	395.55
500.26	470.45
500.44	414.27
500.61	411.93
500.79	414.27
500.97	451.72
501.14	440.02
501.32	440.02
501.49	409.59
501.67	379.17
501.84	400.23
502.02	454.06
502.20	435.34
502.37	400.23
502.55	440.02
502.72	425.98
502.90	397.89
503.07	468.11
503.25	407.25
503.43	435.34
503.60	428.32
503.78	397.89
503.95	402.57
504.13	374.49
504.30	404.91
504.48	400.23
504.65	442.36
504.83	451.72
505.01	440.02
505.18	425.98
505.36	365.12
505.53	379.17
505.71	365.12
505.88	418.96
506.06	365.12
506.23	418.96
506.41	358.10
506.58	393.21
506.76	435.34
506.93	433.00
507.11	454.06
507.28	360.44
507.46	395.55
507.63	449.38
507.81	416.62
507.98	360.44
508.16	425.98
508.33	367.46
508.50	395.55
508.68	425.98
508.85	400.23
509.03	404.91
509.20	437.68
509.38	428.32
509.55	421.30
509.73	430.66
509.90	414.27
510.08	393.21
510.25	395.55
510.42	376.83
510.60	386.19
510.77	451.72
510.95	498.53
511.12	418.96
511.30	395.55
511.47	381.51
511.64	496.19
511.82	341.72
511.99	414.27
512.17	334.70
512.34	397.89
512.51	388.53
512.69	430.66
512.86	456.40
513.04	451.72
513.21	423.64
513.38	379.17
513.56	418.96
513.73	341.72
513.90	332.36
514.08	454.06
514.25	414.27
514.43	404.91
514.60	330.02
514.77	372.15
514.95	390.87
515.12	362.78
515.29	395.55
515.47	454.06
515.64	374.49
515.81	372.15
515.99	409.59
516.16	456.40
516.33	433.00
516.51	428.32
516.68	404.91
516.85	409.59
517.03	337.04
517.20	416.62
517.37	414.27
517.54	386.19
517.72	379.17
517.89	351.08
518.06	397.89
518.24	388.53
518.41	430.66
518.58	472.79
518.75	376.83
518.93	320.65
519.10	337.04
519.27	397.89
519.45	383.85
519.62	400.23
519.79	386.19
519.96	454.06
520.14	379.17
520.31	402.57
520.48	383.85
520.65	416.62
520.83	468.11
521.00	416.62
521.17	435.34
521.34	484.49
521.52	334.70
521.69	358.10
521.86	472.79
522.03	411.93
522.20	400.23
522.38	320.65
522.55	418.96
522.72	341.72
522.89	440.02
523.07	463.43
523.24	390.87
523.41	376.83
523.58	442.36
523.75	407.25
523.92	355.76
524.10	433.00
524.27	376.83
524.44	437.68
524.61	491.51
524.78	475.13
524.96	451.72
525.13	395.55
525.30	433.00
525.47	409.59
525.64	430.66
525.81	475.13
525.98	425.98
526.16	341.72
526.33	402.57
526.50	477.47
526.67	521.94
526.84	397.89
527.01	306.61
527.18	409.59
527.36	395.55
527.53	491.51
527.70	449.38
527.87	423.64
528.04	498.53
528.21	411.93
528.38	400.23
528.55	407.25
528.72	421.30
528.89	449.38
529.07	512.58
529.24	402.57
529.41	416.62
529.58	447.04
529.75	400.23
529.92	468.11
530.09	472.79
530.26	386.19
530.43	339.38
530.60	430.66
530.77	425.98
530.94	477.47
531.11	421.30
531.28	496.19
531.46	461.09
531.63	423.64
531.80	456.40
531.97	369.80
532.14	482.15
532.31	428.32
532.48	447.04
532.65	418.96
532.82	367.46
532.99	458.74
533.16	386.19
533.33	404.91
533.50	411.93
533.67	393.21
533.84	491.51
534.01	428.32
534.18	433.00
534.35	379.17
534.52	440.02
534.69	437.68
534.86	362.78
535.03	365.12
535.20	386.19
535.37	381.51
535.54	414.27
535.71	374.49
535.88	407.25
536.05	433.00
536.22	451.72
536.38	409.59
536.55	414.27
536.72	386.19
536.89	358.10
537.06	475.13
537.23	421.30
537.40	425.98
537.57	461.09
537.74	489.17
537.91	465.77
538.08	416.62
538.25	458.74
538.42	407.25
538.59	407.25
538.75	381.51
538.92	461.09
539.09	479.81
539.26	379.17
539.43	416.62
539.60	393.21
539.77	407.25
539.94	414.27
540.11	388.53
540.28	423.64
540.44	500.87
540.61	433.00
540.78	449.38
540.95	395.55
541.12	456.40
541.29	423.64
541.46	416.62
541.62	447.04
541.79	444.70
541.96	449.38
542.13	402.57
542.30	390.87
542.47	411.93
542.63	423.64
542.80	479.81
542.97	484.49
543.14	451.72
543.31	465.77
543.48	397.89
543.64	447.04
543.81	433.00
543.98	411.93
544.15	346.40
544.32	475.13
544.48	372.15
544.65	365.12
544.82	470.45
544.99	418.96
545.16	447.04
545.32	404.91
545.49	400.23
545.66	395.55
545.83	346.40
546.00	367.46
546.16	451.72
546.33	447.04
546.50	437.68
546.67	374.49
546.83	400.23
547.00	425.98
547.17	425.98
547.34	407.25
547.50	402.57
547.67	433.00
547.84	470.45
548.00	461.09
548.17	421.30
548.34	388.53
548.51	421.30
548.67	416.62
548.84	397.89
549.01	411.93
549.18	425.98
549.34	383.85
549.51	442.36
549.68	402.57
549.84	379.17
550.01	327.68
550.18	407.25
550.34	498.53
550.51	383.85
550.68	486.83
550.84	468.11
551.01	411.93
551.18	433.00
551.34	369.80
551.51	428.32
551.68	376.83
551.84	437.68
552.01	423.64
552.18	395.55
552.34	395.55
552.51	376.83
552.68	491.51
552.84	411.93
553.01	486.83
553.18	409.59
553.34	449.38
553.51	425.98
553.67	414.27
553.84	409.59
554.01	362.78
554.17	407.25
554.34	435.34
554.51	430.66
554.67	461.09
554.84	430.66
555.00	447.04
555.17	393.21
555.33	500.87
555.50	374.49
555.67	423.64
555.83	489.17
556.00	397.89
556.16	557.05
556.33	416.62
556.50	365.12
556.66	400.23
556.83	444.70
556.99	369.80
557.16	461.09
557.32	383.85
557.49	390.87
557.65	397.89
557.82	449.38
557.98	374.49
558.15	400.23
558.32	374.49
558.48	388.53
558.65	435.34
558.81	451.72
558.98	425.98
559.14	388.53
559.31	386.19
559.47	454.06
559.64	404.91
559.80	430.66
559.97	395.55
560.13	407.25
560.30	442.36
560.46	423.64
560.63	376.83
560.79	444.70
560.96	421.30
561.12	440.02
561.29	458.74
561.45	430.66
561.61	395.55
561.78	484.49
561.94	442.36
562.11	400.23
562.27	472.79
562.44	390.87
562.60	383.85
562.77	402.57
562.93	386.19
563.10	444.70
563.26	369.80
563.42	458.74
563.59	463.43
563.75	395.55
563.92	433.00
564.08	369.80
564.24	437.68
564.41	484.49
564.57	423.64
564.74	402.57
564.90	423.64
565.07	421.30
565.23	421.30
565.39	344.06
565.56	353.42
565.72	379.17
565.88	468.11
566.05	407.25
566.21	409.59
566.38	416.62
566.54	411.93
566.70	407.25
566.87	397.89
567.03	416.62
567.19	468.11
567.36	416.62
567.52	440.02
567.68	390.87
567.85	379.17
568.01	411.93
568.17	327.68
568.34	470.45
568.50	620.24
568.66	440.02
568.83	465.77
568.99	425.98
569.15	437.68
569.32	461.09
569.48	409.59
569.64	414.27
569.81	425.98
569.97	395.55
570.13	468.11
570.30	407.25
570.46	421.30
570.62	411.93
570.78	463.43
570.95	393.21
571.11	437.68
571.27	437.68
571.43	367.46
571.60	390.87
571.76	456.40
571.92	428.32
572.09	428.32
572.25	358.10
572.41	332.36
572.57	418.96
572.74	479.81
572.90	444.70
573.06	390.87
573.22	423.64
573.38	458.74
573.55	477.47
573.71	461.09
573.87	465.77
574.03	407.25
574.20	454.06
574.36	400.23
574.52	437.68
574.68	463.43
574.84	402.57
575.01	372.15
575.17	454.06
575.33	433.00
575.49	416.62
575.65	514.92
575.82	440.02
575.98	484.49
576.14	411.93
576.30	416.62
576.46	428.32
576.62	383.85
576.79	430.66
576.95	402.57
577.11	381.51
577.27	423.64
577.43	491.51
577.59	421.30
577.75	430.66
577.92	435.34
578.08	386.19
578.24	397.89
578.40	454.06
578.56	456.40
578.72	421.30
578.88	454.06
579.04	376.83
579.21	386.19
579.37	479.81
579.53	390.87
579.69	393.21
579.85	374.49
580.01	435.34
580.17	362.78
580.33	383.85
580.49	411.93
580.65	430.66
580.82	491.51
580.98	421.30
581.14	362.78
581.30	404.91
581.46	372.15
581.62	276.18
581.78	407.25
581.94	372.15
582.10	430.66
582.26	484.49
582.42	360.44
582.58	351.08
582.74	451.72
582.90	395.55
583.06	397.89
583.22	374.49
583.38	421.30
583.54	360.44
583.70	358.10
583.86	472.79
584.02	407.25
584.18	423.64
584.34	395.55
584.50	409.59
584.66	451.72
584.82	395.55
584.98	390.87
585.14	376.83
585.30	440.02
585.46	381.51
585.62	393.21
585.78	435.34
585.94	465.77
586.10	416.62
586.26	381.51
586.42	496.19
586.58	388.53
586.74	463.43
586.90	383.85
587.06	374.49
587.22	418.96
587.38	456.40
587.54	416.62
587.70	484.49
587.86	458.74
588.02	346.40
588.18	400.23
588.34	449.38
588.49	440.02
588.65	423.64
588.81	428.32
588.97	332.36
589.13	425.98
589.29	514.92
589.45	421.30
589.61	369.80
589.77	358.10
589.93	435.34
590.08	390.87
590.24	393.21
590.40	369.80
590.56	449.38
590.72	435.34
590.88	365.12
591.04	428.32
591.20	463.43
591.35	409.59
591.51	383.85
591.67	423.64
591.83	346.40
591.99	369.80
592.15	430.66
592.31	390.87
592.46	411.93
592.62	486.83
592.78	482.15
592.94	337.04
593.10	435.34
593.26	416.62
593.41	402.57
593.57	425.98
593.73	395.55
593.89	404.91
594.05	341.72
594.20	386.19
594.36	397.89
594.52	477.47
594.68	341.72
594.84	418.96
594.99	440.02
595.15	449.38
595.31	433.00
595.47	475.13
595.62	355.76
595.78	416.62
595.94	491.51
596.10	374.49
596.25	416.62
596.41	393.21
596.57	433.00
596.73	369.80
596.88	395.55
597.04	433.00
597.20	369.80
597.36	454.06
597.51	395.55
597.67	390.87
597.83	433.00
597.99	472.79
598.14	468.11
598.30	463.43
598.46	411.93
598.61	416.62
598.77	430.66
598.93	351.08
599.09	390.87
599.24	418.96
599.40	458.74
599.56	477.47
599.71	414.27
599.87	400.23
600.03	428.32
600.18	407.25
600.34	365.12
600.50	421.30
600.65	355.76
600.81	454.06
600.97	381.51
601.12	374.49
601.28	423.64
601.44	440.02
601.59	470.45
601.75	451.72
601.91	414.27
602.06	390.87
602.22	486.83
602.37	425.98
602.53	430.66
602.69	465.77
602.84	346.40
603.00	428.32
603.16	379.17
603.31	468.11
603.47	397.89
603.62	416.62
603.78	365.12
603.94	388.53
604.09	353.42
604.25	442.36
604.40	423.64
604.56	365.12
604.71	472.79
604.87	395.55
605.03	425.98
605.18	465.77
605.34	449.38
605.49	411.93
605.65	393.21
605.80	400.23
605.96	454.06
606.12	428.32
606.27	435.34
606.43	435.34
606.58	425.98
606.74	386.19
606.89	433.00
607.05	428.32
607.20	433.00
607.36	425.98
607.51	395.55
607.67	414.27
607.82	393.21
607.98	416.62
608.13	360.44
608.29	451.72
608.44	388.53
608.60	402.57
608.75	435.34
608.91	430.66
609.06	461.09
609.22	418.96
609.37	341.72
609.53	381.51
609.68	416.62
609.84	414.27
609.99	367.46
610.15	416.62
