SpectraSuite Data File
++++++++++++++++++++++++++++++++++++
Date: Fri Oct 25 12:10:06 EDT 2013
User: price-jones
Dark Spectrum Present: No
Reference Spectrum Present: No
Number of Sampled Component Spectra: 1
Spectrometers: USB2+H05261
Integration Time (usec): 100000 (USB2+H05261)
Spectra Averaged: 1 (USB2+H05261)
Boxcar Smoothing: 0 (USB2+H05261)
Correct for Electrical Dark: No (USB2+H05261)
Strobe/Lamp Enabled: No (USB2+H05261)
Correct for Detector Non-linearity: No (USB2+H05261)
Correct for Stray Light: No (USB2+H05261)
Number of Pixels in Processed Spectrum: 2048
>>>>>Begin Processed Spectral Data<<<<<
365.73	315.97
365.92	315.97
366.12	315.97
366.32	299.59
366.52	257.46
366.72	224.69
366.91	234.05
367.11	191.92
367.31	238.73
367.51	147.45
367.70	248.10
367.90	273.84
368.10	187.24
368.30	248.10
368.49	166.18
368.69	227.03
368.89	287.89
369.09	231.71
369.28	334.70
369.48	252.78
369.68	276.18
369.87	360.44
370.07	325.33
370.27	395.55
370.47	381.51
370.66	402.57
370.86	379.17
371.06	449.38
371.25	411.93
371.45	369.80
371.65	367.46
371.84	374.49
372.04	379.17
372.24	400.23
372.44	367.46
372.63	393.21
372.83	379.17
373.03	348.74
373.22	437.68
373.42	393.21
373.62	423.64
373.81	395.55
374.01	444.70
374.21	463.43
374.40	437.68
374.60	498.53
374.79	461.09
374.99	414.27
375.19	433.00
375.38	437.68
375.58	344.06
375.78	407.25
375.97	379.17
376.17	425.98
376.37	456.40
376.56	475.13
376.76	348.74
376.95	344.06
377.15	440.02
377.35	372.15
377.54	346.40
377.74	451.72
377.93	454.06
378.13	360.44
378.33	390.87
378.52	367.46
378.72	393.21
378.91	411.93
379.11	428.32
379.31	388.53
379.50	379.17
379.70	484.49
379.89	402.57
380.09	337.04
380.28	423.64
380.48	365.12
380.68	362.78
380.87	355.76
381.07	358.10
381.26	376.83
381.46	428.32
381.65	353.42
381.85	418.96
382.04	409.59
382.24	447.04
382.43	346.40
382.63	407.25
382.83	379.17
383.02	393.21
383.22	444.70
383.41	344.06
383.61	425.98
383.80	444.70
384.00	418.96
384.19	421.30
384.39	390.87
384.58	400.23
384.78	383.85
384.97	440.02
385.17	407.25
385.36	423.64
385.56	454.06
385.75	379.17
385.95	358.10
386.14	435.34
386.34	444.70
386.53	320.65
386.72	348.74
386.92	437.68
387.11	390.87
387.31	393.21
387.50	444.70
387.70	388.53
387.89	451.72
388.09	381.51
388.28	414.27
388.48	332.36
388.67	493.85
388.86	365.12
389.06	386.19
389.25	458.74
389.45	386.19
389.64	358.10
389.84	454.06
390.03	428.32
390.22	465.77
390.42	369.80
390.61	411.93
390.81	390.87
391.00	372.15
391.19	465.77
391.39	400.23
391.58	440.02
391.78	430.66
391.97	425.98
392.16	430.66
392.36	433.00
392.55	440.02
392.75	395.55
392.94	433.00
393.13	388.53
393.33	409.59
393.52	428.32
393.71	477.47
393.91	353.42
394.10	397.89
394.29	404.91
394.49	442.36
394.68	435.34
394.88	461.09
395.07	369.80
395.26	386.19
395.46	393.21
395.65	332.36
395.84	433.00
396.04	479.81
396.23	393.21
396.42	362.78
396.62	411.93
396.81	397.89
397.00	388.53
397.19	376.83
397.39	386.19
397.58	351.08
397.77	414.27
397.97	358.10
398.16	425.98
398.35	414.27
398.55	461.09
398.74	358.10
398.93	458.74
399.12	339.38
399.32	383.85
399.51	388.53
399.70	461.09
399.90	430.66
400.09	397.89
400.28	458.74
400.47	383.85
400.67	484.49
400.86	388.53
401.05	402.57
401.24	358.10
401.44	407.25
401.63	379.17
401.82	416.62
402.01	346.40
402.21	407.25
402.40	418.96
402.59	390.87
402.78	442.36
402.97	468.11
403.17	421.30
403.36	351.08
403.55	421.30
403.74	355.76
403.93	395.55
404.13	386.19
404.32	407.25
404.51	404.91
404.70	430.66
404.89	433.00
405.09	416.62
405.28	416.62
405.47	388.53
405.66	458.74
405.85	421.30
406.05	393.21
406.24	465.77
406.43	463.43
406.62	393.21
406.81	531.30
407.00	500.87
407.20	496.19
407.39	379.17
407.58	344.06
407.77	376.83
407.96	454.06
408.15	428.32
408.34	430.66
408.54	386.19
408.73	369.80
408.92	395.55
409.11	440.02
409.30	386.19
409.49	442.36
409.68	411.93
409.87	381.51
410.07	383.85
410.26	383.85
410.45	397.89
410.64	369.80
410.83	407.25
411.02	360.44
411.21	430.66
411.40	400.23
411.59	425.98
411.78	390.87
411.98	404.91
412.17	395.55
412.36	411.93
412.55	407.25
412.74	463.43
412.93	440.02
413.12	388.53
413.31	456.40
413.50	437.68
413.69	395.55
413.88	397.89
414.07	374.49
414.26	390.87
414.45	390.87
414.64	461.09
414.83	397.89
415.02	423.64
415.22	463.43
415.41	425.98
415.60	423.64
415.79	367.46
415.98	418.96
416.17	369.80
416.36	442.36
416.55	386.19
416.74	365.12
416.93	554.71
417.12	411.93
417.31	360.44
417.50	393.21
417.69	433.00
417.88	465.77
418.07	334.70
418.26	409.59
418.45	461.09
418.64	486.83
418.83	388.53
419.02	376.83
419.21	425.98
419.39	409.59
419.58	435.34
419.77	442.36
419.96	425.98
420.15	491.51
420.34	372.15
420.53	463.43
420.72	351.08
420.91	337.04
421.10	416.62
421.29	454.06
421.48	409.59
421.67	433.00
421.86	395.55
422.05	395.55
422.24	379.17
422.43	369.80
422.61	402.57
422.80	358.10
422.99	416.62
423.18	383.85
423.37	468.11
423.56	414.27
423.75	407.25
423.94	484.49
424.13	475.13
424.32	416.62
424.50	365.12
424.69	461.09
424.88	421.30
425.07	435.34
425.26	461.09
425.45	479.81
425.64	437.68
425.83	423.64
426.01	418.96
426.20	397.89
426.39	390.87
426.58	402.57
426.77	365.12
426.96	437.68
427.15	442.36
427.33	395.55
427.52	386.19
427.71	416.62
427.90	411.93
428.09	421.30
428.28	358.10
428.46	393.21
428.65	386.19
428.84	414.27
429.03	402.57
429.22	433.00
429.40	418.96
429.59	440.02
429.78	404.91
429.97	351.08
430.16	428.32
430.34	447.04
430.53	477.47
430.72	388.53
430.91	414.27
431.10	400.23
431.28	383.85
431.47	360.44
431.66	388.53
431.85	372.15
432.03	362.78
432.22	454.06
432.41	447.04
432.60	430.66
432.79	433.00
432.97	348.74
433.16	433.00
433.35	437.68
433.54	374.49
433.72	435.34
433.91	393.21
434.10	402.57
434.28	428.32
434.47	388.53
434.66	404.91
434.85	437.68
435.03	486.83
435.22	458.74
435.41	400.23
435.59	379.17
435.78	407.25
435.97	390.87
436.16	416.62
436.34	447.04
436.53	416.62
436.72	458.74
436.90	456.40
437.09	416.62
437.28	400.23
437.46	449.38
437.65	470.45
437.84	339.38
438.02	458.74
438.21	407.25
438.40	353.42
438.58	358.10
438.77	400.23
438.96	362.78
439.14	416.62
439.33	418.96
439.52	433.00
439.70	421.30
439.89	433.00
440.08	430.66
440.26	414.27
440.45	369.80
440.63	440.02
440.82	369.80
441.01	458.74
441.19	461.09
441.38	395.55
441.57	374.49
441.75	395.55
441.94	383.85
442.12	369.80
442.31	442.36
442.50	421.30
442.68	407.25
442.87	386.19
443.05	381.51
443.24	447.04
443.43	423.64
443.61	500.87
443.80	440.02
443.98	411.93
444.17	383.85
444.35	416.62
444.54	402.57
444.73	390.87
444.91	447.04
445.10	353.42
445.28	449.38
445.47	416.62
445.65	369.80
445.84	428.32
446.02	404.91
446.21	360.44
446.39	409.59
446.58	442.36
446.77	482.15
446.95	437.68
447.14	381.51
447.32	390.87
447.51	374.49
447.69	407.25
447.88	425.98
448.06	451.72
448.25	458.74
448.43	383.85
448.62	381.51
448.80	470.45
448.99	404.91
449.17	411.93
449.36	484.49
449.54	428.32
449.73	404.91
449.91	440.02
450.10	414.27
450.28	407.25
450.46	496.19
450.65	386.19
450.83	404.91
451.02	435.34
451.20	374.49
451.39	341.72
451.57	397.89
451.76	428.32
451.94	416.62
452.13	414.27
452.31	489.17
452.49	411.93
452.68	351.08
452.86	440.02
453.05	418.96
453.23	411.93
453.42	400.23
453.60	400.23
453.78	449.38
453.97	383.85
454.15	404.91
454.34	454.06
454.52	383.85
454.70	437.68
454.89	510.24
455.07	433.00
455.26	404.91
455.44	442.36
455.62	372.15
455.81	449.38
455.99	379.17
456.17	337.04
456.36	407.25
456.54	428.32
456.73	381.51
456.91	409.59
457.09	449.38
457.28	397.89
457.46	437.68
457.64	472.79
457.83	407.25
458.01	393.21
458.19	397.89
458.38	376.83
458.56	418.96
458.74	425.98
458.93	442.36
459.11	372.15
459.29	407.25
459.48	498.53
459.66	465.77
459.84	421.30
460.03	533.64
460.21	409.59
460.39	416.62
460.57	512.58
460.76	433.00
460.94	442.36
461.12	456.40
461.31	472.79
461.49	395.55
461.67	400.23
461.85	437.68
462.04	358.10
462.22	793.44
462.40	386.19
462.59	423.64
462.77	411.93
462.95	482.15
463.13	388.53
463.32	414.27
463.50	402.57
463.68	367.46
463.86	381.51
464.05	337.04
464.23	428.32
464.41	461.09
464.59	409.59
464.78	397.89
464.96	409.59
465.14	360.44
465.32	393.21
465.50	444.70
465.69	400.23
465.87	409.59
466.05	407.25
466.23	365.12
466.41	454.06
466.60	374.49
466.78	367.46
466.96	414.27
467.14	414.27
467.32	409.59
467.51	346.40
467.69	442.36
467.87	470.45
468.05	418.96
468.23	421.30
468.41	437.68
468.60	372.15
468.78	383.85
468.96	475.13
469.14	458.74
469.32	421.30
469.50	358.10
469.69	468.11
469.87	472.79
470.05	395.55
470.23	407.25
470.41	393.21
470.59	411.93
470.77	409.59
470.95	402.57
471.14	470.45
471.32	402.57
471.50	428.32
471.68	407.25
471.86	425.98
472.04	409.59
472.22	437.68
472.40	463.43
472.58	440.02
472.77	388.53
472.95	386.19
473.13	425.98
473.31	435.34
473.49	482.15
473.67	402.57
473.85	360.44
474.03	423.64
474.21	383.85
474.39	411.93
474.57	409.59
474.75	425.98
474.93	346.40
475.12	411.93
475.30	447.04
475.48	381.51
475.66	421.30
475.84	411.93
476.02	425.98
476.20	461.09
476.38	367.46
476.56	444.70
476.74	421.30
476.92	407.25
477.10	383.85
477.28	409.59
477.46	404.91
477.64	442.36
477.82	386.19
478.00	409.59
478.18	386.19
478.36	407.25
478.54	388.53
478.72	437.68
478.90	341.72
479.08	425.98
479.26	477.47
479.44	447.04
479.62	372.15
479.80	337.04
479.98	348.74
480.16	362.78
480.34	440.02
480.52	437.68
480.70	458.74
480.88	376.83
481.06	407.25
481.24	409.59
481.41	404.91
481.59	376.83
481.77	423.64
481.95	397.89
482.13	475.13
482.31	456.40
482.49	418.96
482.67	447.04
482.85	433.00
483.03	449.38
483.21	411.93
483.39	388.53
483.57	383.85
483.74	409.59
483.92	416.62
484.10	348.74
484.28	433.00
484.46	484.49
484.64	402.57
484.82	458.74
485.00	430.66
485.18	351.08
485.35	433.00
485.53	360.44
485.71	444.70
485.89	315.97
486.07	383.85
486.25	447.04
486.43	355.76
486.61	449.38
486.78	470.45
486.96	414.27
487.14	348.74
487.32	374.49
487.50	381.51
487.68	498.53
487.85	454.06
488.03	451.72
488.21	425.98
488.39	423.64
488.57	442.36
488.75	362.78
488.92	491.51
489.10	416.62
489.28	404.91
489.46	404.91
489.64	425.98
489.81	430.66
489.99	477.47
490.17	383.85
490.35	411.93
490.53	421.30
490.70	386.19
490.88	339.38
491.06	360.44
491.24	447.04
491.41	470.45
491.59	407.25
491.77	442.36
491.95	334.70
492.13	444.70
492.30	428.32
492.48	468.11
492.66	442.36
492.84	353.42
493.01	435.34
493.19	437.68
493.37	404.91
493.54	421.30
493.72	479.81
493.90	400.23
494.08	407.25
494.25	465.77
494.43	454.06
494.61	418.96
494.79	402.57
494.96	451.72
495.14	505.56
495.32	430.66
495.49	407.25
495.67	414.27
495.85	451.72
496.02	404.91
496.20	440.02
496.38	437.68
496.55	430.66
496.73	407.25
496.91	447.04
497.09	447.04
497.26	440.02
497.44	402.57
497.62	451.72
497.79	423.64
497.97	472.79
498.14	425.98
498.32	372.15
498.50	400.23
498.67	414.27
498.85	421.30
499.03	407.25
499.20	447.04
499.38	376.83
499.56	447.04
499.73	374.49
499.91	376.83
500.08	395.55
500.26	402.57
500.44	458.74
500.61	435.34
500.79	390.87
500.97	449.38
501.14	465.77
501.32	458.74
501.49	411.93
501.67	458.74
501.84	386.19
502.02	442.36
502.20	489.17
502.37	388.53
502.55	379.17
502.72	425.98
502.90	428.32
503.07	411.93
503.25	407.25
503.43	388.53
503.60	402.57
503.78	421.30
503.95	416.62
504.13	451.72
504.30	404.91
504.48	477.47
504.65	470.45
504.83	372.15
505.01	393.21
505.18	418.96
505.36	430.66
505.53	360.44
505.71	449.38
505.88	423.64
506.06	330.02
506.23	402.57
506.41	475.13
506.58	423.64
506.76	444.70
506.93	416.62
507.11	479.81
507.28	414.27
507.46	411.93
507.63	430.66
507.81	379.17
507.98	411.93
508.16	454.06
508.33	433.00
508.50	442.36
508.68	423.64
508.85	435.34
509.03	475.13
509.20	447.04
509.38	383.85
509.55	468.11
509.73	404.91
509.90	416.62
510.08	486.83
510.25	362.78
510.42	402.57
510.60	362.78
510.77	404.91
510.95	372.15
511.12	477.47
511.30	404.91
511.47	437.68
511.64	383.85
511.82	444.70
511.99	451.72
512.17	449.38
512.34	428.32
512.51	421.30
512.69	407.25
512.86	393.21
513.04	365.12
513.21	379.17
513.38	416.62
513.56	477.47
513.73	372.15
513.90	374.49
514.08	344.06
514.25	437.68
514.43	369.80
514.60	416.62
514.77	482.15
514.95	444.70
515.12	423.64
515.29	390.87
515.47	435.34
515.64	400.23
515.81	437.68
515.99	461.09
516.16	411.93
516.33	421.30
516.51	449.38
516.68	418.96
516.85	421.30
517.03	315.97
517.20	383.85
517.37	444.70
517.54	409.59
517.72	414.27
517.89	416.62
518.06	421.30
518.24	425.98
518.41	430.66
518.58	358.10
518.75	407.25
518.93	451.72
519.10	402.57
519.27	397.89
519.45	425.98
519.62	400.23
519.79	465.77
519.96	472.79
520.14	395.55
520.31	397.89
520.48	386.19
520.65	414.27
520.83	435.34
521.00	383.85
521.17	470.45
521.34	477.47
521.52	447.04
521.69	437.68
521.86	402.57
522.03	362.78
522.20	456.40
522.38	388.53
522.55	418.96
522.72	395.55
522.89	447.04
523.07	489.17
523.24	407.25
523.41	433.00
523.58	418.96
523.75	411.93
523.92	374.49
524.10	407.25
524.27	425.98
524.44	383.85
524.61	400.23
524.78	418.96
524.96	451.72
525.13	400.23
525.30	461.09
525.47	400.23
525.64	496.19
525.81	425.98
525.98	491.51
526.16	477.47
526.33	475.13
526.50	437.68
526.67	421.30
526.84	475.13
527.01	489.17
527.18	397.89
527.36	383.85
527.53	360.44
527.70	463.43
527.87	414.27
528.04	447.04
528.21	472.79
528.38	404.91
528.55	470.45
528.72	451.72
528.89	435.34
529.07	428.32
529.24	451.72
529.41	514.92
529.58	435.34
529.75	393.21
529.92	433.00
530.09	411.93
530.26	428.32
530.43	416.62
530.60	414.27
530.77	388.53
530.94	456.40
531.11	428.32
531.28	433.00
531.46	425.98
531.63	414.27
531.80	348.74
531.97	482.15
532.14	358.10
532.31	433.00
532.48	489.17
532.65	428.32
532.82	435.34
532.99	440.02
533.16	500.87
533.33	409.59
533.50	367.46
533.67	393.21
533.84	451.72
534.01	358.10
534.18	454.06
534.35	435.34
534.52	461.09
534.69	435.34
534.86	423.64
535.03	449.38
535.20	376.83
535.37	381.51
535.54	442.36
535.71	388.53
535.88	440.02
536.05	379.17
536.22	360.44
536.38	430.66
536.55	449.38
536.72	503.22
536.89	383.85
537.06	409.59
537.23	390.87
537.40	386.19
537.57	456.40
537.74	451.72
537.91	440.02
538.08	416.62
538.25	393.21
538.42	353.42
538.59	425.98
538.75	416.62
538.92	414.27
539.09	461.09
539.26	423.64
539.43	423.64
539.60	355.76
539.77	447.04
539.94	411.93
540.11	458.74
540.28	531.30
540.44	463.43
540.61	440.02
540.78	423.64
540.95	416.62
541.12	362.78
541.29	393.21
541.46	411.93
541.62	409.59
541.79	397.89
541.96	395.55
542.13	395.55
542.30	411.93
542.47	418.96
542.63	430.66
542.80	456.40
542.97	416.62
543.14	435.34
543.31	397.89
543.48	423.64
543.64	383.85
543.81	433.00
543.98	376.83
544.15	447.04
544.32	428.32
544.48	395.55
544.65	447.04
544.82	416.62
544.99	407.25
545.16	409.59
545.32	430.66
545.49	458.74
545.66	327.68
545.83	435.34
546.00	407.25
546.16	362.78
546.33	390.87
546.50	374.49
546.67	402.57
546.83	503.22
547.00	442.36
547.17	383.85
547.34	538.32
547.50	454.06
547.67	451.72
547.84	510.24
548.00	444.70
548.17	362.78
548.34	451.72
548.51	428.32
548.67	386.19
548.84	402.57
549.01	402.57
549.18	465.77
549.34	423.64
549.51	479.81
549.68	461.09
549.84	369.80
550.01	414.27
550.18	444.70
550.34	510.24
550.51	381.51
550.68	472.79
550.84	465.77
551.01	428.32
551.18	454.06
551.34	437.68
551.51	414.27
551.68	461.09
551.84	440.02
552.01	442.36
552.18	379.17
552.34	444.70
552.51	365.12
552.68	344.06
552.84	397.89
553.01	388.53
553.18	447.04
553.34	341.72
553.51	397.89
553.67	425.98
553.84	423.64
554.01	414.27
554.17	416.62
554.34	418.96
554.51	397.89
554.67	400.23
554.84	472.79
555.00	411.93
555.17	416.62
555.33	444.70
555.50	486.83
555.67	503.22
555.83	411.93
556.00	376.83
556.16	526.62
556.33	465.77
556.50	383.85
556.66	418.96
556.83	414.27
556.99	383.85
557.16	430.66
557.32	383.85
557.49	414.27
557.65	407.25
557.82	437.68
557.98	397.89
558.15	407.25
558.32	360.44
558.48	479.81
558.65	418.96
558.81	430.66
558.98	383.85
559.14	458.74
559.31	355.76
559.47	507.90
559.64	465.77
559.80	449.38
559.97	355.76
560.13	386.19
560.30	358.10
560.46	334.70
560.63	374.49
560.79	425.98
560.96	430.66
561.12	423.64
561.29	425.98
561.45	395.55
561.61	334.70
561.78	451.72
561.94	388.53
562.11	442.36
562.27	482.15
562.44	400.23
562.60	397.89
562.77	498.53
562.93	411.93
563.10	437.68
563.26	421.30
563.42	489.17
563.59	472.79
563.75	383.85
563.92	463.43
564.08	454.06
564.24	442.36
564.41	465.77
564.57	423.64
564.74	442.36
564.90	440.02
565.07	404.91
565.23	430.66
565.39	381.51
565.56	470.45
565.72	379.17
565.88	442.36
566.05	421.30
566.21	433.00
566.38	440.02
566.54	442.36
566.70	433.00
566.87	428.32
567.03	360.44
567.19	409.59
567.36	409.59
567.52	374.49
567.68	444.70
567.85	454.06
568.01	369.80
568.17	374.49
568.34	395.55
568.50	512.58
568.66	386.19
568.83	437.68
568.99	376.83
569.15	411.93
569.32	451.72
569.48	472.79
569.64	430.66
569.81	390.87
569.97	390.87
570.13	486.83
570.30	458.74
570.46	390.87
570.62	454.06
570.78	416.62
570.95	365.12
571.11	418.96
571.27	393.21
571.43	428.32
571.60	388.53
571.76	428.32
571.92	423.64
572.09	458.74
572.25	423.64
572.41	355.76
572.57	484.49
572.74	477.47
572.90	386.19
573.06	496.19
573.22	491.51
573.38	416.62
573.55	362.78
573.71	435.34
573.87	517.26
574.03	404.91
574.20	442.36
574.36	465.77
574.52	423.64
574.68	440.02
574.84	402.57
575.01	440.02
575.17	456.40
575.33	400.23
575.49	388.53
575.65	395.55
575.82	475.13
575.98	407.25
576.14	451.72
576.30	397.89
576.46	491.51
576.62	475.13
576.79	397.89
576.95	461.09
577.11	395.55
577.27	386.19
577.43	374.49
577.59	425.98
577.75	358.10
577.92	404.91
578.08	402.57
578.24	421.30
578.40	465.77
578.56	365.12
578.72	440.02
578.88	482.15
579.04	437.68
579.21	362.78
579.37	390.87
579.53	390.87
579.69	463.43
579.85	388.53
580.01	454.06
580.17	390.87
580.33	409.59
580.49	388.53
580.65	444.70
580.82	465.77
580.98	374.49
581.14	454.06
581.30	461.09
581.46	444.70
581.62	376.83
581.78	334.70
581.94	395.55
582.10	440.02
582.26	414.27
582.42	435.34
582.58	360.44
582.74	449.38
582.90	435.34
583.06	379.17
583.22	379.17
583.38	407.25
583.54	454.06
583.70	414.27
583.86	397.89
584.02	369.80
584.18	454.06
584.34	430.66
584.50	379.17
584.66	402.57
584.82	397.89
584.98	435.34
585.14	475.13
585.30	369.80
585.46	388.53
585.62	388.53
585.78	381.51
585.94	353.42
586.10	423.64
586.26	407.25
586.42	416.62
586.58	411.93
586.74	376.83
586.90	421.30
587.06	484.49
587.22	383.85
587.38	381.51
587.54	395.55
587.70	433.00
587.86	346.40
588.02	440.02
588.18	461.09
588.34	402.57
588.49	348.74
588.65	372.15
588.81	425.98
588.97	341.72
589.13	447.04
589.29	428.32
589.45	472.79
589.61	465.77
589.77	472.79
589.93	414.27
590.08	479.81
590.24	381.51
590.40	407.25
590.56	440.02
590.72	393.21
590.88	372.15
591.04	416.62
591.20	388.53
591.35	500.87
591.51	386.19
591.67	409.59
591.83	360.44
591.99	507.90
592.15	379.17
592.31	411.93
592.46	433.00
592.62	435.34
592.78	400.23
592.94	437.68
593.10	407.25
593.26	393.21
593.41	468.11
593.57	540.66
593.73	341.72
593.89	437.68
594.05	416.62
594.20	395.55
594.36	437.68
594.52	414.27
594.68	423.64
594.84	449.38
594.99	425.98
595.15	451.72
595.31	461.09
595.47	517.26
595.62	451.72
595.78	440.02
595.94	381.51
596.10	409.59
596.25	447.04
596.41	402.57
596.57	344.06
596.73	458.74
596.88	407.25
597.04	428.32
597.20	409.59
597.36	393.21
597.51	407.25
597.67	437.68
597.83	365.12
597.99	423.64
598.14	376.83
598.30	351.08
598.46	400.23
598.61	397.89
598.77	447.04
598.93	428.32
599.09	472.79
599.24	353.42
599.40	442.36
599.56	416.62
599.71	512.58
599.87	451.72
600.03	348.74
600.18	388.53
600.34	449.38
600.50	383.85
600.65	395.55
600.81	421.30
600.97	379.17
601.12	423.64
601.28	449.38
601.44	468.11
601.59	388.53
601.75	416.62
601.91	414.27
602.06	449.38
602.22	449.38
602.37	402.57
602.53	325.33
602.69	393.21
602.84	423.64
603.00	428.32
603.16	386.19
603.31	472.79
603.47	418.96
603.62	395.55
603.78	465.77
603.94	437.68
604.09	463.43
604.25	428.32
604.40	390.87
604.56	388.53
604.71	372.15
604.87	418.96
605.03	470.45
605.18	381.51
605.34	491.51
605.49	379.17
605.65	404.91
605.80	332.36
605.96	367.46
606.12	444.70
606.27	393.21
606.43	407.25
606.58	484.49
606.74	390.87
606.89	376.83
607.05	416.62
607.20	454.06
607.36	437.68
607.51	367.46
607.67	386.19
607.82	423.64
607.98	372.15
608.13	409.59
608.29	376.83
608.44	447.04
608.60	411.93
608.75	440.02
608.91	416.62
609.06	451.72
609.22	468.11
609.37	423.64
609.53	381.51
609.68	437.68
609.84	407.25
609.99	367.46
610.15	369.80
