SpectraSuite Data File
++++++++++++++++++++++++++++++++++++
Date: Fri Oct 25 12:11:17 EDT 2013
User: price-jones
Dark Spectrum Present: No
Reference Spectrum Present: No
Number of Sampled Component Spectra: 1
Spectrometers: USB2+H05261
Integration Time (usec): 100000 (USB2+H05261)
Spectra Averaged: 1 (USB2+H05261)
Boxcar Smoothing: 0 (USB2+H05261)
Correct for Electrical Dark: No (USB2+H05261)
Strobe/Lamp Enabled: No (USB2+H05261)
Correct for Detector Non-linearity: No (USB2+H05261)
Correct for Stray Light: No (USB2+H05261)
Number of Pixels in Processed Spectrum: 2048
>>>>>Begin Processed Spectral Data<<<<<
365.73	353.42
365.92	353.42
366.12	353.42
366.32	222.35
366.52	255.12
366.72	227.03
366.91	238.73
367.11	290.23
367.31	173.20
367.51	250.44
367.70	222.35
367.90	290.23
368.10	215.33
368.30	212.99
368.49	353.42
368.69	243.42
368.89	280.86
369.09	238.73
369.28	243.42
369.48	248.10
369.68	313.63
369.87	332.36
370.07	271.50
370.27	315.97
370.47	353.42
370.66	315.97
370.86	344.06
371.06	374.49
371.25	379.17
371.45	402.57
371.65	358.10
371.84	306.61
372.04	379.17
372.24	442.36
372.44	367.46
372.63	386.19
372.83	444.70
373.03	416.62
373.22	388.53
373.42	472.79
373.62	454.06
373.81	395.55
374.01	437.68
374.21	404.91
374.40	407.25
374.60	449.38
374.79	383.85
374.99	388.53
375.19	423.64
375.38	496.19
375.58	435.34
375.78	484.49
375.97	470.45
376.17	475.13
376.37	351.08
376.56	404.91
376.76	360.44
376.95	404.91
377.15	447.04
377.35	383.85
377.54	383.85
377.74	409.59
377.93	372.15
378.13	400.23
378.33	491.51
378.52	358.10
378.72	379.17
378.91	456.40
379.11	447.04
379.31	475.13
379.50	397.89
379.70	447.04
379.89	360.44
380.09	344.06
380.28	386.19
380.48	428.32
380.68	320.65
380.87	344.06
381.07	440.02
381.26	402.57
381.46	376.83
381.65	430.66
381.85	334.70
382.04	465.77
382.24	360.44
382.43	390.87
382.63	440.02
382.83	395.55
383.02	414.27
383.22	381.51
383.41	409.59
383.61	383.85
383.80	367.46
384.00	454.06
384.19	372.15
384.39	454.06
384.58	348.74
384.78	449.38
384.97	440.02
385.17	421.30
385.36	395.55
385.56	379.17
385.75	407.25
385.95	376.83
386.14	383.85
386.34	402.57
386.53	433.00
386.72	395.55
386.92	372.15
387.11	411.93
387.31	454.06
387.50	402.57
387.70	451.72
387.89	379.17
388.09	397.89
388.28	393.21
388.48	404.91
388.67	344.06
388.86	421.30
389.06	393.21
389.25	414.27
389.45	437.68
389.64	409.59
389.84	372.15
390.03	407.25
390.22	416.62
390.42	407.25
390.61	397.89
390.81	390.87
391.00	355.76
391.19	372.15
391.39	437.68
391.58	379.17
391.78	360.44
391.97	332.36
392.16	414.27
392.36	491.51
392.55	451.72
392.75	376.83
392.94	486.83
393.13	414.27
393.33	353.42
393.52	468.11
393.71	437.68
393.91	404.91
394.10	428.32
394.29	442.36
394.49	428.32
394.68	416.62
394.88	447.04
395.07	430.66
395.26	320.65
395.46	435.34
395.65	381.51
395.84	379.17
396.04	472.79
396.23	418.96
396.42	383.85
396.62	365.12
396.81	442.36
397.00	379.17
397.19	381.51
397.39	381.51
397.58	411.93
397.77	374.49
397.97	351.08
398.16	393.21
398.35	454.06
398.55	386.19
398.74	437.68
398.93	486.83
399.12	437.68
399.32	428.32
399.51	381.51
399.70	433.00
399.90	390.87
400.09	416.62
400.28	374.49
400.47	383.85
400.67	421.30
400.86	290.23
401.05	397.89
401.24	444.70
401.44	414.27
401.63	393.21
401.82	414.27
402.01	372.15
402.21	386.19
402.40	409.59
402.59	442.36
402.78	390.87
402.97	451.72
403.17	346.40
403.36	362.78
403.55	447.04
403.74	465.77
403.93	400.23
404.13	475.13
404.32	348.74
404.51	369.80
404.70	365.12
404.89	437.68
405.09	458.74
405.28	355.76
405.47	372.15
405.66	388.53
405.85	379.17
406.05	428.32
406.24	383.85
406.43	367.46
406.62	388.53
406.81	475.13
407.00	484.49
407.20	400.23
407.39	376.83
407.58	379.17
407.77	437.68
407.96	510.24
408.15	449.38
408.34	409.59
408.54	383.85
408.73	411.93
408.92	409.59
409.11	393.21
409.30	407.25
409.49	369.80
409.68	421.30
409.87	447.04
410.07	404.91
410.26	451.72
410.45	411.93
410.64	362.78
410.83	411.93
411.02	435.34
411.21	456.40
411.40	374.49
411.59	433.00
411.78	470.45
411.98	353.42
412.17	435.34
412.36	421.30
412.55	383.85
412.74	437.68
412.93	463.43
413.12	423.64
413.31	456.40
413.50	470.45
413.69	397.89
413.88	416.62
414.07	444.70
414.26	449.38
414.45	393.21
414.64	390.87
414.83	315.97
415.02	414.27
415.22	388.53
415.41	411.93
415.60	430.66
415.79	360.44
415.98	390.87
416.17	437.68
416.36	397.89
416.55	421.30
416.74	423.64
416.93	367.46
417.12	400.23
417.31	421.30
417.50	421.30
417.69	444.70
417.88	395.55
418.07	400.23
418.26	400.23
418.45	358.10
418.64	430.66
418.83	397.89
419.02	407.25
419.21	383.85
419.39	421.30
419.58	454.06
419.77	430.66
419.96	379.17
420.15	418.96
420.34	344.06
420.53	386.19
420.72	447.04
420.91	367.46
421.10	395.55
421.29	428.32
421.48	430.66
421.67	414.27
421.86	395.55
422.05	414.27
422.24	344.06
422.43	365.12
422.61	411.93
422.80	407.25
422.99	433.00
423.18	507.90
423.37	395.55
423.56	468.11
423.75	489.17
423.94	435.34
424.13	447.04
424.32	423.64
424.50	409.59
424.69	428.32
424.88	465.77
425.07	416.62
425.26	414.27
425.45	433.00
425.64	322.99
425.83	409.59
426.01	428.32
426.20	395.55
426.39	374.49
426.58	428.32
426.77	372.15
426.96	444.70
427.15	388.53
427.33	379.17
427.52	416.62
427.71	390.87
427.90	365.12
428.09	365.12
428.28	437.68
428.46	365.12
428.65	470.45
428.84	414.27
429.03	376.83
429.22	425.98
429.40	395.55
429.59	400.23
429.78	400.23
429.97	421.30
430.16	449.38
430.34	402.57
430.53	428.32
430.72	430.66
430.91	468.11
431.10	372.15
431.28	465.77
431.47	444.70
431.66	444.70
431.85	456.40
432.03	407.25
432.22	393.21
432.41	447.04
432.60	454.06
432.79	351.08
432.97	411.93
433.16	393.21
433.35	418.96
433.54	423.64
433.72	423.64
433.91	404.91
434.10	416.62
434.28	484.49
434.47	376.83
434.66	414.27
434.85	421.30
435.03	414.27
435.22	393.21
435.41	425.98
435.59	458.74
435.78	421.30
435.97	440.02
436.16	416.62
436.34	372.15
436.53	428.32
436.72	470.45
436.90	416.62
437.09	440.02
437.28	365.12
437.46	444.70
437.65	463.43
437.84	332.36
438.02	482.15
438.21	437.68
438.40	456.40
438.58	381.51
438.77	358.10
438.96	397.89
439.14	379.17
439.33	390.87
439.52	442.36
439.70	425.98
439.89	437.68
440.08	454.06
440.26	397.89
440.45	395.55
440.63	409.59
440.82	409.59
441.01	425.98
441.19	444.70
441.38	341.72
441.57	393.21
441.75	395.55
441.94	433.00
442.12	461.09
442.31	447.04
442.50	348.74
442.68	351.08
442.87	489.17
443.05	388.53
443.24	362.78
443.43	442.36
443.61	507.90
443.80	423.64
443.98	367.46
444.17	409.59
444.35	435.34
444.54	386.19
444.73	404.91
444.91	411.93
445.10	351.08
445.28	365.12
445.47	409.59
445.65	376.83
445.84	386.19
446.02	372.15
446.21	454.06
446.39	465.77
446.58	404.91
446.77	442.36
446.95	388.53
447.14	348.74
447.32	491.51
447.51	376.83
447.69	402.57
447.88	423.64
448.06	447.04
448.25	411.93
448.43	435.34
448.62	421.30
448.80	418.96
448.99	437.68
449.17	339.38
449.36	421.30
449.54	383.85
449.73	400.23
449.91	358.10
450.10	362.78
450.28	458.74
450.46	425.98
450.65	458.74
450.83	374.49
451.02	411.93
451.20	407.25
451.39	458.74
451.57	414.27
451.76	416.62
451.94	381.51
452.13	437.68
452.31	456.40
452.49	402.57
452.68	444.70
452.86	451.72
453.05	411.93
453.23	397.89
453.42	411.93
453.60	416.62
453.78	351.08
453.97	430.66
454.15	416.62
454.34	421.30
454.52	468.11
454.70	535.98
454.89	421.30
455.07	507.90
455.26	397.89
455.44	381.51
455.62	400.23
455.81	440.02
455.99	409.59
456.17	428.32
456.36	484.49
456.54	346.40
456.73	416.62
456.91	463.43
457.09	365.12
457.28	428.32
457.46	416.62
457.64	449.38
457.83	437.68
458.01	374.49
458.19	423.64
458.38	404.91
458.56	454.06
458.74	437.68
458.93	404.91
459.11	372.15
459.29	372.15
459.48	507.90
459.66	433.00
459.84	437.68
460.03	500.87
460.21	418.96
460.39	402.57
460.57	425.98
460.76	433.00
460.94	386.19
461.12	365.12
461.31	477.47
461.49	411.93
461.67	397.89
461.85	367.46
462.04	416.62
462.22	819.19
462.40	397.89
462.59	360.44
462.77	381.51
462.95	351.08
463.13	393.21
463.32	437.68
463.50	407.25
463.68	383.85
463.86	425.98
464.05	390.87
464.23	402.57
464.41	402.57
464.59	433.00
464.78	433.00
464.96	411.93
465.14	400.23
465.32	517.26
465.50	367.46
465.69	449.38
465.87	444.70
466.05	468.11
466.23	388.53
466.41	388.53
466.60	418.96
466.78	500.87
466.96	444.70
467.14	388.53
467.32	447.04
467.51	409.59
467.69	461.09
467.87	376.83
468.05	416.62
468.23	423.64
468.41	407.25
468.60	472.79
468.78	475.13
468.96	517.26
469.14	414.27
469.32	362.78
469.50	435.34
469.69	451.72
469.87	475.13
470.05	428.32
470.23	456.40
470.41	362.78
470.59	395.55
470.77	411.93
470.95	416.62
471.14	407.25
471.32	395.55
471.50	383.85
471.68	463.43
471.86	435.34
472.04	416.62
472.22	402.57
472.40	404.91
472.58	451.72
472.77	400.23
472.95	411.93
473.13	451.72
473.31	477.47
473.49	449.38
473.67	435.34
473.85	395.55
474.03	369.80
474.21	458.74
474.39	482.15
474.57	402.57
474.75	414.27
474.93	437.68
475.12	379.17
475.30	308.95
475.48	433.00
475.66	454.06
475.84	390.87
476.02	386.19
476.20	386.19
476.38	489.17
476.56	421.30
476.74	337.04
476.92	400.23
477.10	451.72
477.28	358.10
477.46	362.78
477.64	390.87
477.82	400.23
478.00	381.51
478.18	397.89
478.36	442.36
478.54	337.04
478.72	381.51
478.90	397.89
479.08	386.19
479.26	463.43
479.44	458.74
479.62	430.66
479.80	369.80
479.98	421.30
480.16	379.17
480.34	454.06
480.52	409.59
480.70	395.55
480.88	383.85
481.06	369.80
481.24	376.83
481.41	409.59
481.59	486.83
481.77	437.68
481.95	433.00
482.13	425.98
482.31	444.70
482.49	390.87
482.67	365.12
482.85	411.93
483.03	416.62
483.21	360.44
483.39	395.55
483.57	472.79
483.74	447.04
483.92	409.59
484.10	414.27
484.28	442.36
484.46	461.09
484.64	482.15
484.82	372.15
485.00	404.91
485.18	451.72
485.35	400.23
485.53	414.27
485.71	444.70
485.89	423.64
486.07	444.70
486.25	489.17
486.43	407.25
486.61	437.68
486.78	381.51
486.96	437.68
487.14	416.62
487.32	428.32
487.50	393.21
487.68	433.00
487.85	386.19
488.03	393.21
488.21	472.79
488.39	404.91
488.57	440.02
488.75	411.93
488.92	580.45
489.10	376.83
489.28	421.30
489.46	461.09
489.64	402.57
489.81	456.40
489.99	351.08
490.17	454.06
490.35	449.38
490.53	423.64
490.70	430.66
490.88	465.77
491.06	372.15
491.24	346.40
491.41	411.93
491.59	477.47
491.77	447.04
491.95	458.74
492.13	397.89
492.30	451.72
492.48	395.55
492.66	458.74
492.84	381.51
493.01	372.15
493.19	430.66
493.37	449.38
493.54	423.64
493.72	388.53
493.90	388.53
494.08	390.87
494.25	402.57
494.43	411.93
494.61	461.09
494.79	458.74
494.96	388.53
495.14	404.91
495.32	383.85
495.49	428.32
495.67	447.04
495.85	339.38
496.02	428.32
496.20	416.62
496.38	433.00
496.55	442.36
496.73	411.93
496.91	355.76
497.09	416.62
497.26	369.80
497.44	402.57
497.62	437.68
497.79	461.09
497.97	461.09
498.14	390.87
498.32	430.66
498.50	421.30
498.67	440.02
498.85	461.09
499.03	383.85
499.20	433.00
499.38	416.62
499.56	397.89
499.73	430.66
499.91	400.23
500.08	407.25
500.26	418.96
500.44	456.40
500.61	411.93
500.79	355.76
500.97	388.53
501.14	454.06
501.32	400.23
501.49	444.70
501.67	332.36
501.84	421.30
502.02	390.87
502.20	402.57
502.37	425.98
502.55	395.55
502.72	393.21
502.90	402.57
503.07	458.74
503.25	386.19
503.43	367.46
503.60	451.72
503.78	486.83
503.95	404.91
504.13	367.46
504.30	360.44
504.48	442.36
504.65	442.36
504.83	479.81
505.01	367.46
505.18	444.70
505.36	414.27
505.53	418.96
505.71	442.36
505.88	491.51
506.06	409.59
506.23	388.53
506.41	416.62
506.58	416.62
506.76	346.40
506.93	444.70
507.11	440.02
507.28	402.57
507.46	430.66
507.63	416.62
507.81	290.23
507.98	393.21
508.16	390.87
508.33	407.25
508.50	369.80
508.68	365.12
508.85	379.17
509.03	414.27
509.20	404.91
509.38	414.27
509.55	381.51
509.73	449.38
509.90	477.47
510.08	433.00
510.25	407.25
510.42	383.85
510.60	418.96
510.77	491.51
510.95	463.43
511.12	411.93
511.30	491.51
511.47	440.02
511.64	449.38
511.82	496.19
511.99	447.04
512.17	423.64
512.34	381.51
512.51	341.72
512.69	451.72
512.86	393.21
513.04	390.87
513.21	444.70
513.38	463.43
513.56	402.57
513.73	484.49
513.90	341.72
514.08	430.66
514.25	449.38
514.43	442.36
514.60	337.04
514.77	458.74
514.95	390.87
515.12	395.55
515.29	449.38
515.47	447.04
515.64	425.98
515.81	414.27
515.99	360.44
516.16	423.64
516.33	407.25
516.51	421.30
516.68	393.21
516.85	442.36
517.03	435.34
517.20	435.34
517.37	454.06
517.54	411.93
517.72	369.80
517.89	383.85
518.06	409.59
518.24	437.68
518.41	414.27
518.58	496.19
518.75	362.78
518.93	411.93
519.10	383.85
519.27	458.74
519.45	374.49
519.62	451.72
519.79	365.12
519.96	402.57
520.14	423.64
520.31	437.68
520.48	440.02
520.65	379.17
520.83	402.57
521.00	383.85
521.17	379.17
521.34	421.30
521.52	383.85
521.69	423.64
521.86	421.30
522.03	435.34
522.20	440.02
522.38	425.98
522.55	437.68
522.72	407.25
522.89	454.06
523.07	435.34
523.24	409.59
523.41	407.25
523.58	334.70
523.75	388.53
523.92	458.74
524.10	320.65
524.27	400.23
524.44	477.47
524.61	491.51
524.78	468.11
524.96	402.57
525.13	449.38
525.30	425.98
525.47	414.27
525.64	482.15
525.81	365.12
525.98	458.74
526.16	425.98
526.33	416.62
526.50	411.93
526.67	388.53
526.84	383.85
527.01	318.31
527.18	442.36
527.36	468.11
527.53	381.51
527.70	470.45
527.87	397.89
528.04	444.70
528.21	421.30
528.38	388.53
528.55	475.13
528.72	404.91
528.89	493.85
529.07	402.57
529.24	404.91
529.41	414.27
529.58	486.83
529.75	456.40
529.92	386.19
530.09	468.11
530.26	437.68
530.43	411.93
530.60	353.42
530.77	360.44
530.94	425.98
531.11	395.55
531.28	414.27
531.46	395.55
531.63	421.30
531.80	376.83
531.97	545.34
532.14	433.00
532.31	397.89
532.48	442.36
532.65	428.32
532.82	397.89
532.99	418.96
533.16	454.06
533.33	475.13
533.50	458.74
533.67	390.87
533.84	468.11
534.01	414.27
534.18	479.81
534.35	381.51
534.52	440.02
534.69	411.93
534.86	433.00
535.03	458.74
535.20	437.68
535.37	461.09
535.54	449.38
535.71	372.15
535.88	503.22
536.05	379.17
536.22	482.15
536.38	435.34
536.55	428.32
536.72	379.17
536.89	358.10
537.06	470.45
537.23	388.53
537.40	407.25
537.57	442.36
537.74	461.09
537.91	388.53
538.08	463.43
538.25	458.74
538.42	388.53
538.59	430.66
538.75	531.30
538.92	414.27
539.09	442.36
539.26	414.27
539.43	510.24
539.60	386.19
539.77	411.93
539.94	395.55
540.11	437.68
540.28	365.12
540.44	440.02
540.61	418.96
540.78	383.85
540.95	400.23
541.12	444.70
541.29	423.64
541.46	463.43
541.62	425.98
541.79	463.43
541.96	367.46
542.13	407.25
542.30	451.72
542.47	341.72
542.63	404.91
542.80	451.72
542.97	470.45
543.14	449.38
543.31	444.70
543.48	451.72
543.64	454.06
543.81	407.25
543.98	423.64
544.15	395.55
544.32	388.53
544.48	400.23
544.65	397.89
544.82	322.99
544.99	409.59
545.16	393.21
545.32	482.15
545.49	411.93
545.66	418.96
545.83	411.93
546.00	472.79
546.16	318.31
546.33	470.45
546.50	433.00
546.67	454.06
546.83	437.68
547.00	409.59
547.17	411.93
547.34	390.87
547.50	444.70
547.67	372.15
547.84	362.78
548.00	447.04
548.17	470.45
548.34	362.78
548.51	486.83
548.67	383.85
548.84	395.55
549.01	470.45
549.18	449.38
549.34	304.27
549.51	390.87
549.68	411.93
549.84	423.64
550.01	437.68
550.18	540.66
550.34	433.00
550.51	440.02
550.68	451.72
550.84	365.12
551.01	425.98
551.18	440.02
551.34	425.98
551.51	395.55
551.68	411.93
551.84	461.09
552.01	381.51
552.18	367.46
552.34	418.96
552.51	430.66
552.68	479.81
552.84	351.08
553.01	491.51
553.18	423.64
553.34	451.72
553.51	372.15
553.67	465.77
553.84	437.68
554.01	428.32
554.17	372.15
554.34	421.30
554.51	447.04
554.67	433.00
554.84	451.72
555.00	521.94
555.17	355.76
555.33	421.30
555.50	470.45
555.67	397.89
555.83	390.87
556.00	367.46
556.16	571.09
556.33	449.38
556.50	437.68
556.66	442.36
556.83	414.27
556.99	393.21
557.16	402.57
557.32	393.21
557.49	369.80
557.65	376.83
557.82	444.70
557.98	458.74
558.15	447.04
558.32	299.59
558.48	421.30
558.65	409.59
558.81	414.27
558.98	451.72
559.14	421.30
559.31	433.00
559.47	346.40
559.64	428.32
559.80	425.98
559.97	374.49
560.13	404.91
560.30	379.17
560.46	395.55
560.63	454.06
560.79	437.68
560.96	454.06
561.12	451.72
561.29	400.23
561.45	423.64
561.61	423.64
561.78	454.06
561.94	461.09
562.11	386.19
562.27	400.23
562.44	390.87
562.60	358.10
562.77	397.89
562.93	444.70
563.10	421.30
563.26	388.53
563.42	402.57
563.59	425.98
563.75	397.89
563.92	411.93
564.08	447.04
564.24	395.55
564.41	437.68
564.57	360.44
564.74	374.49
564.90	461.09
565.07	451.72
565.23	458.74
565.39	369.80
565.56	414.27
565.72	440.02
565.88	365.12
566.05	425.98
566.21	386.19
566.38	496.19
566.54	409.59
566.70	393.21
566.87	390.87
567.03	397.89
567.19	461.09
567.36	416.62
567.52	397.89
567.68	433.00
567.85	442.36
568.01	400.23
568.17	341.72
568.34	463.43
568.50	458.74
568.66	423.64
568.83	498.53
568.99	390.87
569.15	440.02
569.32	468.11
569.48	404.91
569.64	418.96
569.81	442.36
569.97	372.15
570.13	376.83
570.30	404.91
570.46	454.06
570.62	346.40
570.78	435.34
570.95	418.96
571.11	416.62
571.27	465.77
571.43	454.06
571.60	425.98
571.76	463.43
571.92	372.15
572.09	463.43
572.25	372.15
572.41	386.19
572.57	451.72
572.74	416.62
572.90	472.79
573.06	348.74
573.22	423.64
573.38	444.70
573.55	510.24
573.71	440.02
573.87	468.11
574.03	397.89
574.20	442.36
574.36	409.59
574.52	374.49
574.68	404.91
574.84	486.83
575.01	463.43
575.17	351.08
575.33	461.09
575.49	411.93
575.65	404.91
575.82	421.30
575.98	454.06
576.14	423.64
576.30	491.51
576.46	425.98
576.62	444.70
576.79	414.27
576.95	390.87
577.11	440.02
577.27	486.83
577.43	458.74
577.59	416.62
577.75	435.34
577.92	330.02
578.08	409.59
578.24	397.89
578.40	393.21
578.56	442.36
578.72	423.64
578.88	381.51
579.04	407.25
579.21	500.87
579.37	376.83
579.53	383.85
579.69	400.23
579.85	423.64
580.01	421.30
580.17	388.53
580.33	500.87
580.49	461.09
580.65	505.56
580.82	482.15
580.98	421.30
581.14	475.13
581.30	486.83
581.46	430.66
581.62	479.81
581.78	400.23
581.94	395.55
582.10	416.62
582.26	353.42
582.42	435.34
582.58	458.74
582.74	449.38
582.90	414.27
583.06	402.57
583.22	454.06
583.38	451.72
583.54	407.25
583.70	395.55
583.86	461.09
584.02	458.74
584.18	400.23
584.34	418.96
584.50	393.21
584.66	418.96
584.82	353.42
584.98	390.87
585.14	491.51
585.30	416.62
585.46	411.93
585.62	423.64
585.78	388.53
585.94	444.70
586.10	425.98
586.26	444.70
586.42	433.00
586.58	482.15
586.74	414.27
586.90	374.49
587.06	465.77
587.22	449.38
587.38	444.70
587.54	456.40
587.70	409.59
587.86	442.36
588.02	327.68
588.18	334.70
588.34	442.36
588.49	411.93
588.65	418.96
588.81	451.72
588.97	390.87
589.13	454.06
589.29	404.91
589.45	414.27
589.61	381.51
589.77	433.00
589.93	449.38
590.08	414.27
590.24	393.21
590.40	402.57
590.56	411.93
590.72	442.36
590.88	393.21
591.04	433.00
591.20	484.49
591.35	444.70
591.51	440.02
591.67	346.40
591.83	386.19
591.99	404.91
592.15	409.59
592.31	376.83
592.46	372.15
592.62	425.98
592.78	386.19
592.94	374.49
593.10	524.28
593.26	423.64
593.41	421.30
593.57	416.62
593.73	437.68
593.89	458.74
594.05	372.15
594.20	400.23
594.36	447.04
594.52	447.04
594.68	423.64
594.84	479.81
594.99	470.45
595.15	444.70
595.31	337.04
595.47	414.27
595.62	418.96
595.78	393.21
595.94	425.98
596.10	430.66
596.25	440.02
596.41	444.70
596.57	358.10
596.73	416.62
596.88	414.27
597.04	421.30
597.20	442.36
597.36	468.11
597.51	358.10
597.67	402.57
597.83	411.93
597.99	407.25
598.14	416.62
598.30	470.45
598.46	383.85
598.61	409.59
598.77	407.25
598.93	411.93
599.09	374.49
599.24	470.45
599.40	400.23
599.56	409.59
599.71	442.36
599.87	402.57
600.03	414.27
600.18	416.62
600.34	428.32
600.50	437.68
600.65	320.65
600.81	421.30
600.97	397.89
601.12	458.74
601.28	433.00
601.44	454.06
601.59	404.91
601.75	348.74
601.91	393.21
602.06	397.89
602.22	440.02
602.37	428.32
602.53	393.21
602.69	447.04
602.84	465.77
603.00	346.40
603.16	503.22
603.31	388.53
603.47	327.68
603.62	428.32
603.78	475.13
603.94	454.06
604.09	407.25
604.25	437.68
604.40	430.66
604.56	430.66
604.71	425.98
604.87	411.93
605.03	369.80
605.18	468.11
605.34	444.70
605.49	369.80
605.65	332.36
605.80	393.21
605.96	402.57
606.12	430.66
606.27	449.38
606.43	360.44
606.58	369.80
606.74	374.49
606.89	433.00
607.05	395.55
607.20	447.04
607.36	463.43
607.51	475.13
607.67	404.91
607.82	372.15
607.98	425.98
608.13	461.09
608.29	409.59
608.44	505.56
608.60	416.62
608.75	451.72
608.91	430.66
609.06	435.34
609.22	435.34
609.37	369.80
609.53	433.00
609.68	465.77
609.84	421.30
609.99	388.53
610.15	409.59
