SpectraSuite Data File
++++++++++++++++++++++++++++++++++++
Date: Fri Oct 25 12:10:19 EDT 2013
User: price-jones
Dark Spectrum Present: No
Reference Spectrum Present: No
Number of Sampled Component Spectra: 1
Spectrometers: USB2+H05261
Integration Time (usec): 100000 (USB2+H05261)
Spectra Averaged: 1 (USB2+H05261)
Boxcar Smoothing: 0 (USB2+H05261)
Correct for Electrical Dark: No (USB2+H05261)
Strobe/Lamp Enabled: No (USB2+H05261)
Correct for Detector Non-linearity: No (USB2+H05261)
Correct for Stray Light: No (USB2+H05261)
Number of Pixels in Processed Spectrum: 2048
>>>>>Begin Processed Spectral Data<<<<<
365.73	308.95
365.92	308.95
366.12	308.95
366.32	236.39
366.52	243.42
366.72	264.48
366.91	215.33
367.11	262.14
367.31	215.33
367.51	191.92
367.70	308.95
367.90	215.33
368.10	255.12
368.30	262.14
368.49	227.03
368.69	266.82
368.89	250.44
369.09	325.33
369.28	257.46
369.48	276.18
369.68	222.35
369.87	315.97
370.07	341.72
370.27	379.17
370.47	285.55
370.66	341.72
370.86	402.57
371.06	318.31
371.25	416.62
371.45	418.96
371.65	425.98
371.84	355.76
372.04	341.72
372.24	351.08
372.44	393.21
372.63	414.27
372.83	440.02
373.03	465.77
373.22	393.21
373.42	393.21
373.62	374.49
373.81	451.72
374.01	390.87
374.21	454.06
374.40	355.76
374.60	390.87
374.79	428.32
374.99	456.40
375.19	414.27
375.38	451.72
375.58	404.91
375.78	437.68
375.97	418.96
376.17	479.81
376.37	407.25
376.56	376.83
376.76	449.38
376.95	390.87
377.15	379.17
377.35	402.57
377.54	470.45
377.74	360.44
377.93	341.72
378.13	393.21
378.33	451.72
378.52	330.02
378.72	472.79
378.91	475.13
379.11	379.17
379.31	423.64
379.50	383.85
379.70	447.04
379.89	440.02
380.09	355.76
380.28	358.10
380.48	374.49
380.68	451.72
380.87	294.91
381.07	397.89
381.26	477.47
381.46	313.63
381.65	418.96
381.85	409.59
382.04	472.79
382.24	425.98
382.43	407.25
382.63	374.49
382.83	437.68
383.02	433.00
383.22	465.77
383.41	433.00
383.61	351.08
383.80	430.66
384.00	418.96
384.19	332.36
384.39	482.15
384.58	325.33
384.78	437.68
384.97	393.21
385.17	444.70
385.36	407.25
385.56	409.59
385.75	346.40
385.95	393.21
386.14	489.17
386.34	437.68
386.53	362.78
386.72	374.49
386.92	397.89
387.11	442.36
387.31	400.23
387.50	470.45
387.70	379.17
387.89	341.72
388.09	381.51
388.28	362.78
388.48	404.91
388.67	449.38
388.86	395.55
389.06	362.78
389.25	386.19
389.45	411.93
389.64	386.19
389.84	463.43
390.03	433.00
390.22	414.27
390.42	407.25
390.61	435.34
390.81	411.93
391.00	454.06
391.19	411.93
391.39	404.91
391.58	409.59
391.78	360.44
391.97	397.89
392.16	503.22
392.36	418.96
392.55	360.44
392.75	381.51
392.94	475.13
393.13	372.15
393.33	454.06
393.52	351.08
393.71	425.98
393.91	365.12
394.10	409.59
394.29	348.74
394.49	351.08
394.68	489.17
394.88	447.04
395.07	449.38
395.26	430.66
395.46	435.34
395.65	402.57
395.84	393.21
396.04	381.51
396.23	404.91
396.42	437.68
396.62	383.85
396.81	414.27
397.00	386.19
397.19	376.83
397.39	421.30
397.58	395.55
397.77	383.85
397.97	379.17
398.16	402.57
398.35	416.62
398.55	409.59
398.74	365.12
398.93	332.36
399.12	353.42
399.32	397.89
399.51	376.83
399.70	393.21
399.90	458.74
400.09	397.89
400.28	393.21
400.47	416.62
400.67	458.74
400.86	409.59
401.05	400.23
401.24	442.36
401.44	395.55
401.63	374.49
401.82	423.64
402.01	379.17
402.21	402.57
402.40	400.23
402.59	425.98
402.78	407.25
402.97	407.25
403.17	397.89
403.36	367.46
403.55	407.25
403.74	433.00
403.93	451.72
404.13	425.98
404.32	402.57
404.51	390.87
404.70	440.02
404.89	414.27
405.09	397.89
405.28	390.87
405.47	440.02
405.66	437.68
405.85	442.36
406.05	369.80
406.24	386.19
406.43	360.44
406.62	418.96
406.81	505.56
407.00	416.62
407.20	395.55
407.39	381.51
407.58	339.38
407.77	507.90
407.96	365.12
408.15	386.19
408.34	425.98
408.54	374.49
408.73	447.04
408.92	458.74
409.11	407.25
409.30	430.66
409.49	393.21
409.68	344.06
409.87	421.30
410.07	421.30
410.26	423.64
410.45	388.53
410.64	388.53
410.83	367.46
411.02	355.76
411.21	397.89
411.40	388.53
411.59	407.25
411.78	428.32
411.98	404.91
412.17	421.30
412.36	386.19
412.55	404.91
412.74	477.47
412.93	416.62
413.12	353.42
413.31	540.66
413.50	425.98
413.69	411.93
413.88	433.00
414.07	444.70
414.26	425.98
414.45	418.96
414.64	386.19
414.83	430.66
415.02	379.17
415.22	442.36
415.41	425.98
415.60	332.36
415.79	318.31
415.98	463.43
416.17	430.66
416.36	393.21
416.55	423.64
416.74	444.70
416.93	435.34
417.12	503.22
417.31	397.89
417.50	444.70
417.69	440.02
417.88	390.87
418.07	330.02
418.26	421.30
418.45	418.96
418.64	353.42
418.83	381.51
419.02	397.89
419.21	404.91
419.39	376.83
419.58	404.91
419.77	430.66
419.96	470.45
420.15	447.04
420.34	414.27
420.53	376.83
420.72	477.47
420.91	362.78
421.10	461.09
421.29	393.21
421.48	376.83
421.67	433.00
421.86	379.17
422.05	437.68
422.24	479.81
422.43	355.76
422.61	404.91
422.80	414.27
422.99	386.19
423.18	423.64
423.37	388.53
423.56	404.91
423.75	404.91
423.94	456.40
424.13	360.44
424.32	365.12
424.50	404.91
424.69	407.25
424.88	423.64
425.07	383.85
425.26	456.40
425.45	407.25
425.64	404.91
425.83	367.46
426.01	428.32
426.20	393.21
426.39	407.25
426.58	451.72
426.77	362.78
426.96	416.62
427.15	430.66
427.33	383.85
427.52	344.06
427.71	428.32
427.90	463.43
428.09	456.40
428.28	376.83
428.46	468.11
428.65	428.32
428.84	393.21
429.03	414.27
429.22	411.93
429.40	430.66
429.59	423.64
429.78	407.25
429.97	416.62
430.16	444.70
430.34	341.72
430.53	353.42
430.72	414.27
430.91	402.57
431.10	404.91
431.28	362.78
431.47	358.10
431.66	423.64
431.85	463.43
432.03	393.21
432.22	463.43
432.41	397.89
432.60	456.40
432.79	400.23
432.97	433.00
433.16	400.23
433.35	414.27
433.54	397.89
433.72	393.21
433.91	334.70
434.10	369.80
434.28	374.49
434.47	440.02
434.66	458.74
434.85	379.17
435.03	367.46
435.22	468.11
435.41	442.36
435.59	442.36
435.78	421.30
435.97	425.98
436.16	447.04
436.34	402.57
436.53	416.62
436.72	489.17
436.90	486.83
437.09	414.27
437.28	433.00
437.46	400.23
437.65	484.49
437.84	479.81
438.02	409.59
438.21	444.70
438.40	390.87
438.58	320.65
438.77	376.83
438.96	320.65
439.14	430.66
439.33	437.68
439.52	367.46
439.70	355.76
439.89	449.38
440.08	402.57
440.26	468.11
440.45	400.23
440.63	365.12
440.82	397.89
441.01	437.68
441.19	484.49
441.38	374.49
441.57	397.89
441.75	407.25
441.94	388.53
442.12	369.80
442.31	444.70
442.50	381.51
442.68	435.34
442.87	449.38
443.05	414.27
443.24	358.10
443.43	428.32
443.61	433.00
443.80	395.55
443.98	458.74
444.17	393.21
444.35	507.90
444.54	365.12
444.73	397.89
444.91	449.38
445.10	437.68
445.28	433.00
445.47	423.64
445.65	440.02
445.84	411.93
446.02	416.62
446.21	388.53
446.39	341.72
446.58	341.72
446.77	421.30
446.95	409.59
447.14	407.25
447.32	463.43
447.51	393.21
447.69	430.66
447.88	454.06
448.06	440.02
448.25	425.98
448.43	437.68
448.62	386.19
448.80	430.66
448.99	435.34
449.17	369.80
449.36	397.89
449.54	454.06
449.73	346.40
449.91	400.23
450.10	376.83
450.28	479.81
450.46	456.40
450.65	409.59
450.83	428.32
451.02	409.59
451.20	407.25
451.39	440.02
451.57	463.43
451.76	365.12
451.94	416.62
452.13	454.06
452.31	423.64
452.49	372.15
452.68	362.78
452.86	503.22
453.05	454.06
453.23	374.49
453.42	416.62
453.60	376.83
453.78	397.89
453.97	433.00
454.15	381.51
454.34	376.83
454.52	346.40
454.70	418.96
454.89	411.93
455.07	372.15
455.26	411.93
455.44	339.38
455.62	402.57
455.81	425.98
455.99	362.78
456.17	428.32
456.36	409.59
456.54	400.23
456.73	376.83
456.91	372.15
457.09	425.98
457.28	390.87
457.46	400.23
457.64	442.36
457.83	388.53
458.01	414.27
458.19	397.89
458.38	465.77
458.56	402.57
458.74	421.30
458.93	386.19
459.11	388.53
459.29	388.53
459.48	440.02
459.66	477.47
459.84	454.06
460.03	547.69
460.21	470.45
460.39	374.49
460.57	369.80
460.76	423.64
460.94	435.34
461.12	418.96
461.31	386.19
461.49	421.30
461.67	440.02
461.85	444.70
462.04	437.68
462.22	767.70
462.40	442.36
462.59	503.22
462.77	360.44
462.95	444.70
463.13	386.19
463.32	400.23
463.50	430.66
463.68	428.32
463.86	344.06
464.05	339.38
464.23	468.11
464.41	489.17
464.59	390.87
464.78	433.00
464.96	472.79
465.14	409.59
465.32	386.19
465.50	393.21
465.69	376.83
465.87	290.23
466.05	463.43
466.23	414.27
466.41	414.27
466.60	418.96
466.78	416.62
466.96	472.79
467.14	411.93
467.32	395.55
467.51	325.33
467.69	376.83
467.87	503.22
468.05	372.15
468.23	479.81
468.41	447.04
468.60	397.89
468.78	386.19
468.96	468.11
469.14	428.32
469.32	395.55
469.50	433.00
469.69	421.30
469.87	381.51
470.05	409.59
470.23	395.55
470.41	374.49
470.59	365.12
470.77	404.91
470.95	397.89
471.14	440.02
471.32	428.32
471.50	437.68
471.68	388.53
471.86	433.00
472.04	414.27
472.22	454.06
472.40	372.15
472.58	374.49
472.77	482.15
472.95	475.13
473.13	458.74
473.31	435.34
473.49	367.46
473.67	442.36
473.85	437.68
474.03	411.93
474.21	395.55
474.39	470.45
474.57	346.40
474.75	435.34
474.93	402.57
475.12	430.66
475.30	454.06
475.48	414.27
475.66	414.27
475.84	449.38
476.02	404.91
476.20	379.17
476.38	395.55
476.56	498.53
476.74	423.64
476.92	442.36
477.10	388.53
477.28	390.87
477.46	421.30
477.64	465.77
477.82	418.96
478.00	430.66
478.18	428.32
478.36	376.83
478.54	463.43
478.72	388.53
478.90	416.62
479.08	400.23
479.26	404.91
479.44	362.78
479.62	372.15
479.80	416.62
479.98	348.74
480.16	435.34
480.34	425.98
480.52	400.23
480.70	383.85
480.88	437.68
481.06	381.51
481.24	409.59
481.41	351.08
481.59	463.43
481.77	416.62
481.95	433.00
482.13	411.93
482.31	423.64
482.49	428.32
482.67	454.06
482.85	430.66
483.03	374.49
483.21	360.44
483.39	383.85
483.57	381.51
483.74	418.96
483.92	407.25
484.10	404.91
484.28	386.19
484.46	463.43
484.64	423.64
484.82	372.15
485.00	414.27
485.18	440.02
485.35	397.89
485.53	430.66
485.71	428.32
485.89	358.10
486.07	411.93
486.25	458.74
486.43	507.90
486.61	470.45
486.78	376.83
486.96	423.64
487.14	337.04
487.32	325.33
487.50	348.74
487.68	416.62
487.85	425.98
488.03	437.68
488.21	528.96
488.39	353.42
488.57	360.44
488.75	400.23
488.92	519.60
489.10	496.19
489.28	395.55
489.46	346.40
489.64	411.93
489.81	418.96
489.99	437.68
490.17	425.98
490.35	444.70
490.53	379.17
490.70	411.93
490.88	451.72
491.06	449.38
491.24	465.77
491.41	407.25
491.59	430.66
491.77	393.21
491.95	407.25
492.13	393.21
492.30	390.87
492.48	428.32
492.66	383.85
492.84	414.27
493.01	397.89
493.19	409.59
493.37	440.02
493.54	458.74
493.72	458.74
493.90	447.04
494.08	365.12
494.25	358.10
494.43	468.11
494.61	374.49
494.79	337.04
494.96	454.06
495.14	447.04
495.32	344.06
495.49	358.10
495.67	400.23
495.85	386.19
496.02	407.25
496.20	411.93
496.38	407.25
496.55	437.68
496.73	514.92
496.91	353.42
497.09	442.36
497.26	402.57
497.44	337.04
497.62	430.66
497.79	381.51
497.97	404.91
498.14	372.15
498.32	433.00
498.50	315.97
498.67	414.27
498.85	348.74
499.03	449.38
499.20	468.11
499.38	332.36
499.56	404.91
499.73	421.30
499.91	461.09
500.08	425.98
500.26	430.66
500.44	397.89
500.61	386.19
500.79	425.98
500.97	400.23
501.14	416.62
501.32	362.78
501.49	386.19
501.67	402.57
501.84	444.70
502.02	395.55
502.20	400.23
502.37	313.63
502.55	358.10
502.72	355.76
502.90	440.02
503.07	393.21
503.25	421.30
503.43	376.83
503.60	369.80
503.78	402.57
503.95	381.51
504.13	358.10
504.30	447.04
504.48	397.89
504.65	409.59
504.83	442.36
505.01	390.87
505.18	416.62
505.36	404.91
505.53	334.70
505.71	383.85
505.88	400.23
506.06	423.64
506.23	404.91
506.41	320.65
506.58	479.81
506.76	374.49
506.93	388.53
507.11	374.49
507.28	416.62
507.46	451.72
507.63	433.00
507.81	339.38
507.98	449.38
508.16	430.66
508.33	456.40
508.50	472.79
508.68	433.00
508.85	381.51
509.03	407.25
509.20	416.62
509.38	486.83
509.55	365.12
509.73	472.79
509.90	437.68
510.08	379.17
510.25	423.64
510.42	339.38
510.60	442.36
510.77	393.21
510.95	489.17
511.12	409.59
511.30	477.47
511.47	456.40
511.64	444.70
511.82	376.83
511.99	416.62
512.17	395.55
512.34	433.00
512.51	402.57
512.69	397.89
512.86	376.83
513.04	381.51
513.21	428.32
513.38	409.59
513.56	428.32
513.73	444.70
513.90	407.25
514.08	379.17
514.25	367.46
514.43	372.15
514.60	416.62
514.77	341.72
514.95	437.68
515.12	428.32
515.29	491.51
515.47	500.87
515.64	395.55
515.81	407.25
515.99	423.64
516.16	388.53
516.33	451.72
516.51	447.04
516.68	351.08
516.85	358.10
517.03	433.00
517.20	360.44
517.37	414.27
517.54	444.70
517.72	437.68
517.89	374.49
518.06	411.93
518.24	376.83
518.41	451.72
518.58	454.06
518.75	425.98
518.93	369.80
519.10	447.04
519.27	390.87
519.45	404.91
519.62	402.57
519.79	365.12
519.96	421.30
520.14	447.04
520.31	465.77
520.48	444.70
520.65	468.11
520.83	425.98
521.00	454.06
521.17	416.62
521.34	421.30
521.52	337.04
521.69	369.80
521.86	367.46
522.03	402.57
522.20	484.49
522.38	400.23
522.55	381.51
522.72	475.13
522.89	430.66
523.07	386.19
523.24	395.55
523.41	374.49
523.58	365.12
523.75	428.32
523.92	402.57
524.10	440.02
524.27	369.80
524.44	402.57
524.61	442.36
524.78	395.55
524.96	454.06
525.13	379.17
525.30	482.15
525.47	456.40
525.64	386.19
525.81	383.85
525.98	374.49
526.16	397.89
526.33	440.02
526.50	369.80
526.67	379.17
526.84	416.62
527.01	444.70
527.18	423.64
527.36	484.49
527.53	395.55
527.70	442.36
527.87	393.21
528.04	383.85
528.21	388.53
528.38	433.00
528.55	369.80
528.72	475.13
528.89	421.30
529.07	428.32
529.24	423.64
529.41	465.77
529.58	491.51
529.75	379.17
529.92	435.34
530.09	395.55
530.26	414.27
530.43	411.93
530.60	458.74
530.77	458.74
530.94	440.02
531.11	365.12
531.28	365.12
531.46	386.19
531.63	479.81
531.80	402.57
531.97	433.00
532.14	414.27
532.31	416.62
532.48	418.96
532.65	444.70
532.82	491.51
532.99	435.34
533.16	351.08
533.33	402.57
533.50	381.51
533.67	444.70
533.84	477.47
534.01	425.98
534.18	414.27
534.35	395.55
534.52	397.89
534.69	489.17
534.86	390.87
535.03	411.93
535.20	339.38
535.37	404.91
535.54	435.34
535.71	437.68
535.88	358.10
536.05	423.64
536.22	423.64
536.38	428.32
536.55	388.53
536.72	374.49
536.89	407.25
537.06	404.91
537.23	402.57
537.40	435.34
537.57	393.21
537.74	500.87
537.91	428.32
538.08	351.08
538.25	442.36
538.42	447.04
538.59	449.38
538.75	454.06
538.92	397.89
539.09	463.43
539.26	442.36
539.43	465.77
539.60	362.78
539.77	388.53
539.94	433.00
540.11	372.15
540.28	465.77
540.44	447.04
540.61	390.87
540.78	444.70
540.95	390.87
541.12	447.04
541.29	440.02
541.46	458.74
541.62	397.89
541.79	369.80
541.96	344.06
542.13	409.59
542.30	365.12
542.47	416.62
542.63	390.87
542.80	465.77
542.97	456.40
543.14	381.51
543.31	418.96
543.48	367.46
543.64	395.55
543.81	458.74
543.98	421.30
544.15	395.55
544.32	454.06
544.48	414.27
544.65	425.98
544.82	416.62
544.99	440.02
545.16	402.57
545.32	393.21
545.49	416.62
545.66	360.44
545.83	381.51
546.00	374.49
546.16	463.43
546.33	472.79
546.50	458.74
546.67	390.87
546.83	447.04
547.00	379.17
547.17	411.93
547.34	395.55
547.50	468.11
547.67	393.21
547.84	395.55
548.00	433.00
548.17	407.25
548.34	407.25
548.51	468.11
548.67	456.40
548.84	397.89
549.01	369.80
549.18	463.43
549.34	433.00
549.51	407.25
549.68	353.42
549.84	374.49
550.01	397.89
550.18	470.45
550.34	447.04
550.51	470.45
550.68	451.72
550.84	395.55
551.01	414.27
551.18	479.81
551.34	433.00
551.51	404.91
551.68	500.87
551.84	379.17
552.01	360.44
552.18	430.66
552.34	437.68
552.51	512.58
552.68	463.43
552.84	477.47
553.01	395.55
553.18	341.72
553.34	308.95
553.51	404.91
553.67	475.13
553.84	425.98
554.01	393.21
554.17	454.06
554.34	468.11
554.51	404.91
554.67	482.15
554.84	472.79
555.00	454.06
555.17	383.85
555.33	400.23
555.50	400.23
555.67	477.47
555.83	423.64
556.00	425.98
556.16	519.60
556.33	421.30
556.50	475.13
556.66	390.87
556.83	381.51
556.99	411.93
557.16	358.10
557.32	411.93
557.49	365.12
557.65	416.62
557.82	440.02
557.98	456.40
558.15	374.49
558.32	351.08
558.48	376.83
558.65	435.34
558.81	411.93
558.98	395.55
559.14	465.77
559.31	479.81
559.47	465.77
559.64	440.02
559.80	482.15
559.97	383.85
560.13	463.43
560.30	404.91
560.46	447.04
560.63	475.13
560.79	379.17
560.96	435.34
561.12	374.49
561.29	381.51
561.45	496.19
561.61	437.68
561.78	386.19
561.94	418.96
562.11	442.36
562.27	386.19
562.44	376.83
562.60	428.32
562.77	337.04
562.93	428.32
563.10	435.34
563.26	395.55
563.42	414.27
563.59	400.23
563.75	339.38
563.92	411.93
564.08	423.64
564.24	435.34
564.41	416.62
564.57	433.00
564.74	355.76
564.90	414.27
565.07	416.62
565.23	456.40
565.39	411.93
565.56	475.13
565.72	390.87
565.88	440.02
566.05	414.27
566.21	414.27
566.38	383.85
566.54	353.42
566.70	404.91
566.87	400.23
567.03	367.46
567.19	425.98
567.36	402.57
567.52	379.17
567.68	388.53
567.85	437.68
568.01	444.70
568.17	372.15
568.34	437.68
568.50	374.49
568.66	407.25
568.83	486.83
568.99	365.12
569.15	407.25
569.32	409.59
569.48	390.87
569.64	454.06
569.81	393.21
569.97	437.68
570.13	470.45
570.30	348.74
570.46	479.81
570.62	550.03
570.78	416.62
570.95	397.89
571.11	397.89
571.27	498.53
571.43	369.80
571.60	468.11
571.76	414.27
571.92	407.25
572.09	409.59
572.25	423.64
572.41	458.74
572.57	416.62
572.74	421.30
572.90	433.00
573.06	428.32
573.22	367.46
573.38	355.76
573.55	418.96
573.71	430.66
573.87	444.70
574.03	388.53
574.20	383.85
574.36	402.57
574.52	393.21
574.68	386.19
574.84	435.34
575.01	379.17
575.17	418.96
575.33	388.53
575.49	407.25
575.65	409.59
575.82	411.93
575.98	358.10
576.14	425.98
576.30	423.64
576.46	397.89
576.62	461.09
576.79	339.38
576.95	430.66
577.11	425.98
577.27	454.06
577.43	470.45
577.59	440.02
577.75	433.00
577.92	409.59
578.08	416.62
578.24	367.46
578.40	482.15
578.56	444.70
578.72	472.79
578.88	425.98
579.04	383.85
579.21	470.45
579.37	409.59
579.53	397.89
579.69	416.62
579.85	372.15
580.01	505.56
580.17	447.04
580.33	423.64
580.49	383.85
580.65	458.74
580.82	388.53
580.98	411.93
581.14	353.42
581.30	411.93
581.46	386.19
581.62	442.36
581.78	454.06
581.94	449.38
582.10	414.27
582.26	390.87
582.42	306.61
582.58	442.36
582.74	360.44
582.90	386.19
583.06	404.91
583.22	430.66
583.38	395.55
583.54	444.70
583.70	496.19
583.86	442.36
584.02	519.60
584.18	479.81
584.34	416.62
584.50	379.17
584.66	435.34
584.82	360.44
584.98	449.38
585.14	355.76
585.30	440.02
585.46	433.00
585.62	383.85
585.78	402.57
585.94	388.53
586.10	423.64
586.26	411.93
586.42	411.93
586.58	414.27
586.74	376.83
586.90	388.53
587.06	421.30
587.22	440.02
587.38	409.59
587.54	351.08
587.70	423.64
587.86	400.23
588.02	425.98
588.18	461.09
588.34	381.51
588.49	348.74
588.65	411.93
588.81	500.87
588.97	428.32
589.13	421.30
589.29	498.53
589.45	440.02
589.61	468.11
589.77	454.06
589.93	400.23
590.08	381.51
590.24	409.59
590.40	418.96
590.56	411.93
590.72	409.59
590.88	416.62
591.04	339.38
591.20	337.04
591.35	475.13
591.51	428.32
591.67	388.53
591.83	409.59
591.99	442.36
592.15	451.72
592.31	484.49
592.46	397.89
592.62	465.77
592.78	407.25
592.94	386.19
593.10	472.79
593.26	414.27
593.41	433.00
593.57	379.17
593.73	407.25
593.89	360.44
594.05	449.38
594.20	330.02
594.36	421.30
594.52	423.64
594.68	416.62
594.84	395.55
594.99	533.64
595.15	411.93
595.31	440.02
595.47	486.83
595.62	472.79
595.78	339.38
595.94	402.57
596.10	477.47
596.25	418.96
596.41	423.64
596.57	388.53
596.73	360.44
596.88	449.38
597.04	395.55
597.20	400.23
597.36	388.53
597.51	512.58
597.67	411.93
597.83	442.36
597.99	468.11
598.14	423.64
598.30	421.30
598.46	425.98
598.61	409.59
598.77	372.15
598.93	428.32
599.09	402.57
599.24	425.98
599.40	407.25
599.56	411.93
599.71	477.47
599.87	421.30
600.03	428.32
600.18	388.53
600.34	341.72
600.50	440.02
600.65	444.70
600.81	500.87
600.97	397.89
601.12	421.30
601.28	414.27
601.44	322.99
601.59	379.17
601.75	435.34
601.91	397.89
602.06	409.59
602.22	428.32
602.37	456.40
602.53	365.12
602.69	404.91
602.84	414.27
603.00	411.93
603.16	386.19
603.31	372.15
603.47	409.59
603.62	344.06
603.78	416.62
603.94	379.17
604.09	395.55
604.25	468.11
604.40	397.89
604.56	414.27
604.71	381.51
604.87	365.12
605.03	435.34
605.18	411.93
605.34	430.66
605.49	430.66
605.65	433.00
605.80	407.25
605.96	409.59
606.12	376.83
606.27	498.53
606.43	395.55
606.58	447.04
606.74	463.43
606.89	409.59
607.05	454.06
607.20	393.21
607.36	416.62
607.51	433.00
607.67	421.30
607.82	421.30
607.98	449.38
608.13	360.44
608.29	442.36
608.44	362.78
608.60	468.11
608.75	458.74
608.91	411.93
609.06	425.98
609.22	458.74
609.37	416.62
609.53	421.30
609.68	367.46
609.84	423.64
609.99	500.87
610.15	444.70
