SpectraSuite Data File
++++++++++++++++++++++++++++++++++++
Date: Fri Oct 25 12:10:42 EDT 2013
User: price-jones
Dark Spectrum Present: No
Reference Spectrum Present: No
Number of Sampled Component Spectra: 1
Spectrometers: USB2+H05261
Integration Time (usec): 100000 (USB2+H05261)
Spectra Averaged: 1 (USB2+H05261)
Boxcar Smoothing: 0 (USB2+H05261)
Correct for Electrical Dark: No (USB2+H05261)
Strobe/Lamp Enabled: No (USB2+H05261)
Correct for Detector Non-linearity: No (USB2+H05261)
Correct for Stray Light: No (USB2+H05261)
Number of Pixels in Processed Spectrum: 2048
>>>>>Begin Processed Spectral Data<<<<<
365.73	365.12
365.92	365.12
366.12	365.12
366.32	241.08
366.52	194.26
366.72	243.42
366.91	250.44
367.11	234.05
367.31	250.44
367.51	238.73
367.70	229.37
367.90	220.01
368.10	285.55
368.30	283.20
368.49	205.97
368.69	222.35
368.89	271.50
369.09	224.69
369.28	266.82
369.48	196.60
369.68	248.10
369.87	341.72
370.07	301.93
370.27	355.76
370.47	339.38
370.66	379.17
370.86	390.87
371.06	367.46
371.25	360.44
371.45	372.15
371.65	407.25
371.84	418.96
372.04	372.15
372.24	407.25
372.44	425.98
372.63	372.15
372.83	433.00
373.03	409.59
373.22	425.98
373.42	402.57
373.62	489.17
373.81	423.64
374.01	344.06
374.21	461.09
374.40	456.40
374.60	428.32
374.79	376.83
374.99	395.55
375.19	393.21
375.38	486.83
375.58	458.74
375.78	414.27
375.97	454.06
376.17	472.79
376.37	383.85
376.56	442.36
376.76	416.62
376.95	348.74
377.15	327.68
377.35	472.79
377.54	461.09
377.74	414.27
377.93	372.15
378.13	358.10
378.33	449.38
378.52	400.23
378.72	402.57
378.91	355.76
379.11	395.55
379.31	348.74
379.50	325.33
379.70	409.59
379.89	468.11
380.09	369.80
380.28	332.36
380.48	376.83
380.68	327.68
380.87	421.30
381.07	437.68
381.26	454.06
381.46	386.19
381.65	430.66
381.85	416.62
382.04	465.77
382.24	468.11
382.43	440.02
382.63	374.49
382.83	416.62
383.02	465.77
383.22	444.70
383.41	395.55
383.61	411.93
383.80	414.27
384.00	418.96
384.19	346.40
384.39	486.83
384.58	390.87
384.78	374.49
384.97	390.87
385.17	383.85
385.36	400.23
385.56	386.19
385.75	407.25
385.95	400.23
386.14	400.23
386.34	407.25
386.53	365.12
386.72	435.34
386.92	440.02
387.11	430.66
387.31	437.68
387.50	381.51
387.70	449.38
387.89	367.46
388.09	463.43
388.28	454.06
388.48	489.17
388.67	456.40
388.86	423.64
389.06	381.51
389.25	407.25
389.45	311.29
389.64	327.68
389.84	447.04
390.03	437.68
390.22	386.19
390.42	376.83
390.61	416.62
390.81	400.23
391.00	388.53
391.19	472.79
391.39	360.44
391.58	393.21
391.78	383.85
391.97	409.59
392.16	374.49
392.36	390.87
392.55	379.17
392.75	351.08
392.94	334.70
393.13	351.08
393.33	362.78
393.52	435.34
393.71	484.49
393.91	444.70
394.10	367.46
394.29	430.66
394.49	381.51
394.68	400.23
394.88	402.57
395.07	456.40
395.26	404.91
395.46	320.65
395.65	437.68
395.84	472.79
396.04	433.00
396.23	381.51
396.42	416.62
396.62	402.57
396.81	376.83
397.00	379.17
397.19	402.57
397.39	395.55
397.58	454.06
397.77	372.15
397.97	411.93
398.16	425.98
398.35	346.40
398.55	423.64
398.74	374.49
398.93	425.98
399.12	416.62
399.32	402.57
399.51	358.10
399.70	407.25
399.90	395.55
400.09	437.68
400.28	451.72
400.47	425.98
400.67	451.72
400.86	395.55
401.05	442.36
401.24	367.46
401.44	428.32
401.63	400.23
401.82	444.70
402.01	395.55
402.21	409.59
402.40	421.30
402.59	437.68
402.78	451.72
402.97	404.91
403.17	421.30
403.36	416.62
403.55	402.57
403.74	407.25
403.93	428.32
404.13	388.53
404.32	386.19
404.51	418.96
404.70	381.51
404.89	475.13
405.09	475.13
405.28	430.66
405.47	402.57
405.66	411.93
405.85	402.57
406.05	491.51
406.24	482.15
406.43	346.40
406.62	400.23
406.81	418.96
407.00	386.19
407.20	416.62
407.39	390.87
407.58	376.83
407.77	355.76
407.96	477.47
408.15	397.89
408.34	425.98
408.54	355.76
408.73	479.81
408.92	425.98
409.11	404.91
409.30	428.32
409.49	334.70
409.68	395.55
409.87	390.87
410.07	430.66
410.26	369.80
410.45	397.89
410.64	360.44
410.83	390.87
411.02	379.17
411.21	461.09
411.40	454.06
411.59	418.96
411.78	388.53
411.98	437.68
412.17	393.21
412.36	423.64
412.55	379.17
412.74	454.06
412.93	482.15
413.12	386.19
413.31	418.96
413.50	418.96
413.69	409.59
413.88	482.15
414.07	447.04
414.26	418.96
414.45	355.76
414.64	430.66
414.83	400.23
415.02	404.91
415.22	465.77
415.41	437.68
415.60	332.36
415.79	433.00
415.98	388.53
416.17	447.04
416.36	421.30
416.55	468.11
416.74	447.04
416.93	440.02
417.12	358.10
417.31	425.98
417.50	447.04
417.69	465.77
417.88	433.00
418.07	395.55
418.26	428.32
418.45	388.53
418.64	500.87
418.83	425.98
419.02	444.70
419.21	414.27
419.39	383.85
419.58	414.27
419.77	358.10
419.96	435.34
420.15	425.98
420.34	484.49
420.53	451.72
420.72	402.57
420.91	430.66
421.10	416.62
421.29	428.32
421.48	407.25
421.67	447.04
421.86	461.09
422.05	355.76
422.24	395.55
422.43	437.68
422.61	451.72
422.80	393.21
422.99	379.17
423.18	416.62
423.37	430.66
423.56	430.66
423.75	386.19
423.94	433.00
424.13	411.93
424.32	425.98
424.50	365.12
424.69	411.93
424.88	411.93
425.07	447.04
425.26	440.02
425.45	402.57
425.64	411.93
425.83	351.08
426.01	451.72
426.20	440.02
426.39	388.53
426.58	437.68
426.77	477.47
426.96	425.98
427.15	407.25
427.33	425.98
427.52	390.87
427.71	402.57
427.90	388.53
428.09	388.53
428.28	360.44
428.46	372.15
428.65	411.93
428.84	369.80
429.03	475.13
429.22	393.21
429.40	409.59
429.59	414.27
429.78	322.99
429.97	327.68
430.16	435.34
430.34	360.44
430.53	461.09
430.72	451.72
430.91	365.12
431.10	362.78
431.28	449.38
431.47	416.62
431.66	444.70
431.85	437.68
432.03	416.62
432.22	430.66
432.41	463.43
432.60	454.06
432.79	393.21
432.97	437.68
433.16	360.44
433.35	390.87
433.54	383.85
433.72	355.76
433.91	451.72
434.10	407.25
434.28	449.38
434.47	425.98
434.66	442.36
434.85	437.68
435.03	482.15
435.22	416.62
435.41	461.09
435.59	372.15
435.78	440.02
435.97	393.21
436.16	486.83
436.34	430.66
436.53	461.09
436.72	416.62
436.90	442.36
437.09	435.34
437.28	416.62
437.46	386.19
437.65	416.62
437.84	433.00
438.02	407.25
438.21	444.70
438.40	430.66
438.58	428.32
438.77	486.83
438.96	397.89
439.14	393.21
439.33	381.51
439.52	428.32
439.70	411.93
439.89	339.38
440.08	444.70
440.26	400.23
440.45	444.70
440.63	442.36
440.82	433.00
441.01	397.89
441.19	395.55
441.38	346.40
441.57	454.06
441.75	404.91
441.94	409.59
442.12	479.81
442.31	395.55
442.50	404.91
442.68	351.08
442.87	386.19
443.05	395.55
443.24	421.30
443.43	376.83
443.61	397.89
443.80	447.04
443.98	365.12
444.17	440.02
444.35	435.34
444.54	297.25
444.73	421.30
444.91	428.32
445.10	407.25
445.28	425.98
445.47	435.34
445.65	404.91
445.84	383.85
446.02	465.77
446.21	397.89
446.39	416.62
446.58	402.57
446.77	425.98
446.95	353.42
447.14	381.51
447.32	423.64
447.51	433.00
447.69	344.06
447.88	433.00
448.06	423.64
448.25	456.40
448.43	360.44
448.62	421.30
448.80	461.09
448.99	411.93
449.17	393.21
449.36	433.00
449.54	479.81
449.73	470.45
449.91	433.00
450.10	379.17
450.28	449.38
450.46	472.79
450.65	456.40
450.83	376.83
451.02	397.89
451.20	402.57
451.39	390.87
451.57	418.96
451.76	447.04
451.94	367.46
452.13	400.23
452.31	362.78
452.49	451.72
452.68	367.46
452.86	386.19
453.05	491.51
453.23	418.96
453.42	421.30
453.60	367.46
453.78	397.89
453.97	404.91
454.15	484.49
454.34	486.83
454.52	416.62
454.70	430.66
454.89	409.59
455.07	397.89
455.26	442.36
455.44	362.78
455.62	325.33
455.81	477.47
455.99	414.27
456.17	423.64
456.36	388.53
456.54	397.89
456.73	393.21
456.91	435.34
457.09	404.91
457.28	472.79
457.46	388.53
457.64	449.38
457.83	400.23
458.01	325.33
458.19	458.74
458.38	395.55
458.56	404.91
458.74	397.89
458.93	393.21
459.11	454.06
459.29	465.77
459.48	421.30
459.66	449.38
459.84	390.87
460.03	500.87
460.21	540.66
460.39	454.06
460.57	407.25
460.76	418.96
460.94	355.76
461.12	423.64
461.31	381.51
461.49	402.57
461.67	386.19
461.85	388.53
462.04	393.21
462.22	723.23
462.40	472.79
462.59	374.49
462.77	381.51
462.95	379.17
463.13	395.55
463.32	444.70
463.50	428.32
463.68	402.57
463.86	425.98
464.05	369.80
464.23	465.77
464.41	449.38
464.59	379.17
464.78	428.32
464.96	402.57
465.14	428.32
465.32	348.74
465.50	470.45
465.69	465.77
465.87	393.21
466.05	414.27
466.23	372.15
466.41	418.96
466.60	355.76
466.78	402.57
466.96	496.19
467.14	421.30
467.32	393.21
467.51	383.85
467.69	479.81
467.87	468.11
468.05	402.57
468.23	449.38
468.41	470.45
468.60	425.98
468.78	447.04
468.96	430.66
469.14	454.06
469.32	362.78
469.50	358.10
469.69	451.72
469.87	379.17
470.05	383.85
470.23	381.51
470.41	383.85
470.59	369.80
470.77	404.91
470.95	292.57
471.14	393.21
471.32	442.36
471.50	440.02
471.68	383.85
471.86	454.06
472.04	393.21
472.22	437.68
472.40	360.44
472.58	334.70
472.77	400.23
472.95	393.21
473.13	341.72
473.31	348.74
473.49	428.32
473.67	425.98
473.85	425.98
474.03	416.62
474.21	433.00
474.39	451.72
474.57	376.83
474.75	397.89
474.93	430.66
475.12	409.59
475.30	374.49
475.48	351.08
475.66	430.66
475.84	397.89
476.02	433.00
476.20	376.83
476.38	407.25
476.56	470.45
476.74	465.77
476.92	421.30
477.10	402.57
477.28	451.72
477.46	390.87
477.64	461.09
477.82	416.62
478.00	472.79
478.18	440.02
478.36	416.62
478.54	458.74
478.72	376.83
478.90	428.32
479.08	411.93
479.26	428.32
479.44	393.21
479.62	369.80
479.80	395.55
479.98	425.98
480.16	360.44
480.34	423.64
480.52	400.23
480.70	470.45
480.88	393.21
481.06	414.27
481.24	315.97
481.41	416.62
481.59	456.40
481.77	416.62
481.95	393.21
482.13	456.40
482.31	402.57
482.49	456.40
482.67	383.85
482.85	454.06
483.03	468.11
483.21	430.66
483.39	468.11
483.57	337.04
483.74	433.00
483.92	393.21
484.10	376.83
484.28	376.83
484.46	468.11
484.64	407.25
484.82	393.21
485.00	390.87
485.18	428.32
485.35	477.47
485.53	388.53
485.71	397.89
485.89	447.04
486.07	423.64
486.25	451.72
486.43	404.91
486.61	367.46
486.78	421.30
486.96	369.80
487.14	416.62
487.32	423.64
487.50	381.51
487.68	374.49
487.85	379.17
488.03	418.96
488.21	423.64
488.39	428.32
488.57	477.47
488.75	337.04
488.92	500.87
489.10	407.25
489.28	400.23
489.46	404.91
489.64	428.32
489.81	433.00
489.99	390.87
490.17	435.34
490.35	463.43
490.53	430.66
490.70	421.30
490.88	337.04
491.06	433.00
491.24	360.44
491.41	411.93
491.59	461.09
491.77	444.70
491.95	428.32
492.13	524.28
492.30	435.34
492.48	435.34
492.66	397.89
492.84	388.53
493.01	414.27
493.19	421.30
493.37	477.47
493.54	383.85
493.72	374.49
493.90	425.98
494.08	411.93
494.25	334.70
494.43	409.59
494.61	435.34
494.79	418.96
494.96	360.44
495.14	447.04
495.32	379.17
495.49	379.17
495.67	404.91
495.85	461.09
496.02	407.25
496.20	407.25
496.38	486.83
496.55	425.98
496.73	411.93
496.91	390.87
497.09	440.02
497.26	407.25
497.44	423.64
497.62	416.62
497.79	355.76
497.97	411.93
498.14	362.78
498.32	437.68
498.50	416.62
498.67	402.57
498.85	400.23
499.03	407.25
499.20	433.00
499.38	421.30
499.56	332.36
499.73	414.27
499.91	449.38
500.08	461.09
500.26	538.32
500.44	395.55
500.61	454.06
500.79	442.36
500.97	395.55
501.14	442.36
501.32	381.51
501.49	444.70
501.67	365.12
501.84	383.85
502.02	444.70
502.20	442.36
502.37	416.62
502.55	367.46
502.72	414.27
502.90	465.77
503.07	397.89
503.25	435.34
503.43	421.30
503.60	369.80
503.78	433.00
503.95	358.10
504.13	390.87
504.30	402.57
504.48	423.64
504.65	449.38
504.83	351.08
505.01	386.19
505.18	451.72
505.36	449.38
505.53	386.19
505.71	400.23
505.88	437.68
506.06	379.17
506.23	404.91
506.41	425.98
506.58	381.51
506.76	433.00
506.93	433.00
507.11	423.64
507.28	383.85
507.46	390.87
507.63	346.40
507.81	442.36
507.98	379.17
508.16	435.34
508.33	421.30
508.50	449.38
508.68	404.91
508.85	381.51
509.03	362.78
509.20	390.87
509.38	433.00
509.55	528.96
509.73	367.46
509.90	397.89
510.08	376.83
510.25	437.68
510.42	390.87
510.60	423.64
510.77	416.62
510.95	430.66
511.12	353.42
511.30	437.68
511.47	470.45
511.64	400.23
511.82	418.96
511.99	397.89
512.17	402.57
512.34	414.27
512.51	418.96
512.69	442.36
512.86	440.02
513.04	411.93
513.21	393.21
513.38	393.21
513.56	414.27
513.73	449.38
513.90	339.38
514.08	411.93
514.25	433.00
514.43	435.34
514.60	440.02
514.77	362.78
514.95	444.70
515.12	416.62
515.29	416.62
515.47	423.64
515.64	447.04
515.81	458.74
515.99	477.47
516.16	388.53
516.33	486.83
516.51	442.36
516.68	458.74
516.85	369.80
517.03	358.10
517.20	430.66
517.37	379.17
517.54	425.98
517.72	367.46
517.89	418.96
518.06	433.00
518.24	489.17
518.41	540.66
518.58	454.06
518.75	447.04
518.93	414.27
519.10	407.25
519.27	330.02
519.45	486.83
519.62	386.19
519.79	423.64
519.96	418.96
520.14	425.98
520.31	430.66
520.48	400.23
520.65	365.12
520.83	435.34
521.00	428.32
521.17	454.06
521.34	470.45
521.52	388.53
521.69	411.93
521.86	395.55
522.03	458.74
522.20	388.53
522.38	435.34
522.55	491.51
522.72	440.02
522.89	437.68
523.07	538.32
523.24	407.25
523.41	351.08
523.58	430.66
523.75	355.76
523.92	472.79
524.10	477.47
524.27	379.17
524.44	351.08
524.61	444.70
524.78	397.89
524.96	407.25
525.13	435.34
525.30	437.68
525.47	465.77
525.64	393.21
525.81	379.17
525.98	463.43
526.16	421.30
526.33	428.32
526.50	397.89
526.67	404.91
526.84	402.57
527.01	397.89
527.18	404.91
527.36	278.52
527.53	433.00
527.70	411.93
527.87	414.27
528.04	397.89
528.21	454.06
528.38	435.34
528.55	409.59
528.72	493.85
528.89	491.51
529.07	379.17
529.24	409.59
529.41	360.44
529.58	411.93
529.75	388.53
529.92	435.34
530.09	416.62
530.26	454.06
530.43	463.43
530.60	367.46
530.77	390.87
530.94	383.85
531.11	418.96
531.28	433.00
531.46	383.85
531.63	430.66
531.80	444.70
531.97	409.59
532.14	496.19
532.31	416.62
532.48	430.66
532.65	400.23
532.82	456.40
532.99	409.59
533.16	407.25
533.33	374.49
533.50	468.11
533.67	411.93
533.84	451.72
534.01	456.40
534.18	418.96
534.35	397.89
534.52	421.30
534.69	362.78
534.86	390.87
535.03	400.23
535.20	383.85
535.37	414.27
535.54	496.19
535.71	360.44
535.88	503.22
536.05	456.40
536.22	409.59
536.38	402.57
536.55	416.62
536.72	393.21
536.89	358.10
537.06	355.76
537.23	332.36
537.40	416.62
537.57	411.93
537.74	447.04
537.91	416.62
538.08	404.91
538.25	428.32
538.42	353.42
538.59	404.91
538.75	449.38
538.92	421.30
539.09	423.64
539.26	411.93
539.43	404.91
539.60	351.08
539.77	477.47
539.94	388.53
540.11	486.83
540.28	489.17
540.44	397.89
540.61	482.15
540.78	421.30
540.95	367.46
541.12	454.06
541.29	411.93
541.46	440.02
541.62	451.72
541.79	454.06
541.96	472.79
542.13	430.66
542.30	362.78
542.47	465.77
542.63	376.83
542.80	402.57
542.97	454.06
543.14	449.38
543.31	418.96
543.48	449.38
543.64	409.59
543.81	456.40
543.98	358.10
544.15	339.38
544.32	430.66
544.48	297.25
544.65	388.53
544.82	442.36
544.99	425.98
545.16	433.00
545.32	433.00
545.49	435.34
545.66	409.59
545.83	421.30
546.00	421.30
546.16	418.96
546.33	491.51
546.50	404.91
546.67	507.90
546.83	468.11
547.00	461.09
547.17	430.66
547.34	365.12
547.50	381.51
547.67	416.62
547.84	414.27
548.00	442.36
548.17	416.62
548.34	421.30
548.51	433.00
548.67	444.70
548.84	395.55
549.01	409.59
549.18	355.76
549.34	491.51
549.51	376.83
549.68	362.78
549.84	395.55
550.01	402.57
550.18	433.00
550.34	376.83
550.51	411.93
550.68	472.79
550.84	397.89
551.01	409.59
551.18	442.36
551.34	437.68
551.51	383.85
551.68	440.02
551.84	447.04
552.01	456.40
552.18	421.30
552.34	379.17
552.51	489.17
552.68	395.55
552.84	386.19
553.01	447.04
553.18	386.19
553.34	456.40
553.51	433.00
553.67	397.89
553.84	409.59
554.01	400.23
554.17	430.66
554.34	397.89
554.51	489.17
554.67	461.09
554.84	311.29
555.00	421.30
555.17	428.32
555.33	355.76
555.50	367.46
555.67	407.25
555.83	451.72
556.00	449.38
556.16	456.40
556.33	435.34
556.50	430.66
556.66	421.30
556.83	381.51
556.99	444.70
557.16	430.66
557.32	463.43
557.49	442.36
557.65	379.17
557.82	358.10
557.98	381.51
558.15	430.66
558.32	451.72
558.48	409.59
558.65	416.62
558.81	381.51
558.98	344.06
559.14	411.93
559.31	442.36
559.47	425.98
559.64	402.57
559.80	428.32
559.97	423.64
560.13	418.96
560.30	447.04
560.46	404.91
560.63	395.55
560.79	383.85
560.96	435.34
561.12	454.06
561.29	449.38
561.45	472.79
561.61	414.27
561.78	540.66
561.94	411.93
562.11	428.32
562.27	414.27
562.44	402.57
562.60	388.53
562.77	484.49
562.93	447.04
563.10	365.12
563.26	379.17
563.42	425.98
563.59	374.49
563.75	400.23
563.92	456.40
564.08	397.89
564.24	411.93
564.41	428.32
564.57	334.70
564.74	416.62
564.90	461.09
565.07	425.98
565.23	425.98
565.39	393.21
565.56	456.40
565.72	393.21
565.88	428.32
566.05	397.89
566.21	418.96
566.38	463.43
566.54	461.09
566.70	386.19
566.87	503.22
567.03	325.33
567.19	437.68
567.36	428.32
567.52	449.38
567.68	400.23
567.85	379.17
568.01	404.91
568.17	418.96
568.34	367.46
568.50	428.32
568.66	414.27
568.83	437.68
568.99	470.45
569.15	433.00
569.32	447.04
569.48	440.02
569.64	440.02
569.81	449.38
569.97	449.38
570.13	440.02
570.30	400.23
570.46	454.06
570.62	369.80
570.78	430.66
570.95	381.51
571.11	442.36
571.27	418.96
571.43	442.36
571.60	365.12
571.76	407.25
571.92	491.51
572.09	475.13
572.25	456.40
572.41	369.80
572.57	475.13
572.74	437.68
572.90	421.30
573.06	514.92
573.22	437.68
573.38	400.23
573.55	418.96
573.71	421.30
573.87	418.96
574.03	437.68
574.20	423.64
574.36	484.49
574.52	428.32
574.68	346.40
574.84	428.32
575.01	423.64
575.17	428.32
575.33	421.30
575.49	425.98
575.65	388.53
575.82	425.98
575.98	484.49
576.14	418.96
576.30	468.11
576.46	421.30
576.62	470.45
576.79	447.04
576.95	463.43
577.11	433.00
577.27	367.46
577.43	444.70
577.59	519.60
577.75	358.10
577.92	402.57
578.08	404.91
578.24	390.87
578.40	451.72
578.56	442.36
578.72	447.04
578.88	454.06
579.04	386.19
579.21	435.34
579.37	402.57
579.53	395.55
579.69	451.72
579.85	400.23
580.01	423.64
580.17	435.34
580.33	355.76
580.49	360.44
580.65	437.68
580.82	475.13
580.98	442.36
581.14	402.57
581.30	444.70
581.46	433.00
581.62	456.40
581.78	442.36
581.94	395.55
582.10	416.62
582.26	416.62
582.42	486.83
582.58	383.85
582.74	484.49
582.90	456.40
583.06	437.68
583.22	414.27
583.38	451.72
583.54	416.62
583.70	430.66
583.86	425.98
584.02	369.80
584.18	465.77
584.34	475.13
584.50	374.49
584.66	362.78
584.82	369.80
584.98	418.96
585.14	437.68
585.30	423.64
585.46	358.10
585.62	425.98
585.78	465.77
585.94	428.32
586.10	379.17
586.26	430.66
586.42	442.36
586.58	437.68
586.74	428.32
586.90	430.66
587.06	428.32
587.22	397.89
587.38	402.57
587.54	414.27
587.70	440.02
587.86	409.59
588.02	442.36
588.18	400.23
588.34	437.68
588.49	449.38
588.65	451.72
588.81	418.96
588.97	374.49
589.13	409.59
589.29	433.00
589.45	465.77
589.61	425.98
589.77	428.32
589.93	402.57
590.08	430.66
590.24	454.06
590.40	407.25
590.56	468.11
590.72	465.77
590.88	379.17
591.04	486.83
591.20	374.49
591.35	437.68
591.51	458.74
591.67	376.83
591.83	418.96
591.99	416.62
592.15	386.19
592.31	430.66
592.46	409.59
592.62	456.40
592.78	402.57
592.94	411.93
593.10	407.25
593.26	440.02
593.41	423.64
593.57	423.64
593.73	416.62
593.89	472.79
594.05	447.04
594.20	444.70
594.36	456.40
594.52	372.15
594.68	404.91
594.84	484.49
594.99	414.27
595.15	489.17
595.31	442.36
595.47	484.49
595.62	390.87
595.78	407.25
595.94	404.91
596.10	381.51
596.25	430.66
596.41	407.25
596.57	437.68
596.73	386.19
596.88	418.96
597.04	327.68
597.20	388.53
597.36	330.02
597.51	414.27
597.67	463.43
597.83	468.11
597.99	425.98
598.14	400.23
598.30	437.68
598.46	421.30
598.61	468.11
598.77	374.49
598.93	454.06
599.09	425.98
599.24	489.17
599.40	428.32
599.56	369.80
599.71	428.32
599.87	507.90
600.03	381.51
600.18	369.80
600.34	395.55
600.50	372.15
600.65	444.70
600.81	393.21
600.97	442.36
601.12	388.53
601.28	404.91
601.44	409.59
601.59	435.34
601.75	418.96
601.91	430.66
602.06	386.19
602.22	404.91
602.37	393.21
602.53	463.43
602.69	425.98
602.84	418.96
603.00	379.17
603.16	421.30
603.31	449.38
603.47	383.85
603.62	477.47
603.78	397.89
603.94	425.98
604.09	440.02
604.25	376.83
604.40	418.96
604.56	468.11
604.71	442.36
604.87	428.32
605.03	341.72
605.18	465.77
605.34	470.45
605.49	430.66
605.65	425.98
605.80	381.51
605.96	374.49
606.12	407.25
606.27	486.83
606.43	355.76
606.58	395.55
606.74	393.21
606.89	367.46
607.05	428.32
607.20	404.91
607.36	425.98
607.51	444.70
607.67	381.51
607.82	475.13
607.98	414.27
608.13	442.36
608.29	440.02
608.44	458.74
608.60	425.98
608.75	437.68
608.91	468.11
609.06	430.66
609.22	477.47
609.37	332.36
609.53	360.44
609.68	475.13
609.84	442.36
609.99	402.57
610.15	381.51
