SpectraSuite Data File
++++++++++++++++++++++++++++++++++++
Date: Fri Oct 25 12:10:25 EDT 2013
User: price-jones
Dark Spectrum Present: No
Reference Spectrum Present: No
Number of Sampled Component Spectra: 1
Spectrometers: USB2+H05261
Integration Time (usec): 100000 (USB2+H05261)
Spectra Averaged: 1 (USB2+H05261)
Boxcar Smoothing: 0 (USB2+H05261)
Correct for Electrical Dark: No (USB2+H05261)
Strobe/Lamp Enabled: No (USB2+H05261)
Correct for Detector Non-linearity: No (USB2+H05261)
Correct for Stray Light: No (USB2+H05261)
Number of Pixels in Processed Spectrum: 2048
>>>>>Begin Processed Spectral Data<<<<<
365.73	257.46
365.92	257.46
366.12	257.46
366.32	224.69
366.52	245.76
366.72	266.82
366.91	252.78
367.11	280.86
367.31	262.14
367.51	238.73
367.70	238.73
367.90	325.33
368.10	250.44
368.30	278.52
368.49	250.44
368.69	290.23
368.89	217.67
369.09	212.99
369.28	205.97
369.48	283.20
369.68	299.59
369.87	339.38
370.07	299.59
370.27	421.30
370.47	351.08
370.66	332.36
370.86	367.46
371.06	369.80
371.25	475.13
371.45	374.49
371.65	421.30
371.84	383.85
372.04	393.21
372.24	440.02
372.44	369.80
372.63	318.31
372.83	449.38
373.03	428.32
373.22	404.91
373.42	435.34
373.62	470.45
373.81	339.38
374.01	458.74
374.21	386.19
374.40	386.19
374.60	449.38
374.79	447.04
374.99	381.51
375.19	395.55
375.38	400.23
375.58	390.87
375.78	409.59
375.97	362.78
376.17	465.77
376.37	402.57
376.56	383.85
376.76	437.68
376.95	404.91
377.15	379.17
377.35	421.30
377.54	409.59
377.74	454.06
377.93	348.74
378.13	430.66
378.33	433.00
378.52	341.72
378.72	425.98
378.91	421.30
379.11	365.12
379.31	313.63
379.50	442.36
379.70	449.38
379.89	430.66
380.09	379.17
380.28	383.85
380.48	456.40
380.68	372.15
380.87	442.36
381.07	435.34
381.26	428.32
381.46	339.38
381.65	402.57
381.85	404.91
382.04	409.59
382.24	454.06
382.43	449.38
382.63	376.83
382.83	353.42
383.02	468.11
383.22	463.43
383.41	440.02
383.61	400.23
383.80	395.55
384.00	423.64
384.19	472.79
384.39	423.64
384.58	425.98
384.78	404.91
384.97	407.25
385.17	367.46
385.36	411.93
385.56	433.00
385.75	423.64
385.95	372.15
386.14	444.70
386.34	372.15
386.53	318.31
386.72	388.53
386.92	454.06
387.11	430.66
387.31	397.89
387.50	334.70
387.70	337.04
387.89	358.10
388.09	416.62
388.28	313.63
388.48	402.57
388.67	451.72
388.86	428.32
389.06	409.59
389.25	388.53
389.45	456.40
389.64	372.15
389.84	362.78
390.03	437.68
390.22	425.98
390.42	444.70
390.61	421.30
390.81	390.87
391.00	444.70
391.19	362.78
391.39	423.64
391.58	411.93
391.78	404.91
391.97	344.06
392.16	411.93
392.36	397.89
392.55	425.98
392.75	440.02
392.94	423.64
393.13	416.62
393.33	372.15
393.52	393.21
393.71	428.32
393.91	468.11
394.10	374.49
394.29	423.64
394.49	360.44
394.68	416.62
394.88	379.17
395.07	414.27
395.26	332.36
395.46	362.78
395.65	461.09
395.84	465.77
396.04	484.49
396.23	437.68
396.42	390.87
396.62	428.32
396.81	390.87
397.00	397.89
397.19	376.83
397.39	376.83
397.58	423.64
397.77	411.93
397.97	341.72
398.16	421.30
398.35	400.23
398.55	407.25
398.74	486.83
398.93	421.30
399.12	428.32
399.32	428.32
399.51	421.30
399.70	449.38
399.90	418.96
400.09	411.93
400.28	435.34
400.47	337.04
400.67	402.57
400.86	472.79
401.05	388.53
401.24	461.09
401.44	409.59
401.63	367.46
401.82	390.87
402.01	372.15
402.21	397.89
402.40	402.57
402.59	444.70
402.78	472.79
402.97	435.34
403.17	367.46
403.36	402.57
403.55	400.23
403.74	416.62
403.93	379.17
404.13	416.62
404.32	425.98
404.51	465.77
404.70	402.57
404.89	433.00
405.09	397.89
405.28	388.53
405.47	433.00
405.66	425.98
405.85	486.83
406.05	386.19
406.24	381.51
406.43	327.68
406.62	383.85
406.81	400.23
407.00	430.66
407.20	374.49
407.39	379.17
407.58	381.51
407.77	383.85
407.96	421.30
408.15	397.89
408.34	411.93
408.54	463.43
408.73	351.08
408.92	416.62
409.11	407.25
409.30	381.51
409.49	433.00
409.68	437.68
409.87	414.27
410.07	447.04
410.26	348.74
410.45	374.49
410.64	341.72
410.83	409.59
411.02	472.79
411.21	430.66
411.40	435.34
411.59	360.44
411.78	493.85
411.98	414.27
412.17	400.23
412.36	369.80
412.55	397.89
412.74	351.08
412.93	332.36
413.12	425.98
413.31	421.30
413.50	414.27
413.69	367.46
413.88	390.87
414.07	365.12
414.26	425.98
414.45	444.70
414.64	437.68
414.83	393.21
415.02	414.27
415.22	411.93
415.41	404.91
415.60	496.19
415.79	454.06
415.98	381.51
416.17	435.34
416.36	418.96
416.55	435.34
416.74	402.57
416.93	395.55
417.12	404.91
417.31	423.64
417.50	423.64
417.69	418.96
417.88	461.09
418.07	442.36
418.26	367.46
418.45	449.38
418.64	402.57
418.83	416.62
419.02	397.89
419.21	379.17
419.39	463.43
419.58	355.76
419.77	383.85
419.96	435.34
420.15	423.64
420.34	411.93
420.53	367.46
420.72	425.98
420.91	409.59
421.10	465.77
421.29	416.62
421.48	346.40
421.67	390.87
421.86	414.27
422.05	407.25
422.24	393.21
422.43	376.83
422.61	379.17
422.80	393.21
422.99	475.13
423.18	362.78
423.37	376.83
423.56	470.45
423.75	344.06
423.94	409.59
424.13	425.98
424.32	383.85
424.50	414.27
424.69	400.23
424.88	411.93
425.07	365.12
425.26	397.89
425.45	463.43
425.64	365.12
425.83	421.30
426.01	395.55
426.20	414.27
426.39	402.57
426.58	379.17
426.77	482.15
426.96	463.43
427.15	400.23
427.33	344.06
427.52	390.87
427.71	409.59
427.90	409.59
428.09	470.45
428.28	407.25
428.46	465.77
428.65	447.04
428.84	421.30
429.03	369.80
429.22	414.27
429.40	444.70
429.59	409.59
429.78	344.06
429.97	383.85
430.16	386.19
430.34	339.38
430.53	433.00
430.72	435.34
430.91	482.15
431.10	397.89
431.28	397.89
431.47	435.34
431.66	465.77
431.85	425.98
432.03	374.49
432.22	423.64
432.41	493.85
432.60	376.83
432.79	442.36
432.97	386.19
433.16	383.85
433.35	339.38
433.54	461.09
433.72	437.68
433.91	374.49
434.10	411.93
434.28	416.62
434.47	465.77
434.66	411.93
434.85	386.19
435.03	411.93
435.22	404.91
435.41	397.89
435.59	362.78
435.78	442.36
435.97	379.17
436.16	402.57
436.34	428.32
436.53	402.57
436.72	456.40
436.90	393.21
437.09	355.76
437.28	379.17
437.46	430.66
437.65	435.34
437.84	435.34
438.02	360.44
438.21	421.30
438.40	428.32
438.58	372.15
438.77	437.68
438.96	404.91
439.14	425.98
439.33	381.51
439.52	395.55
439.70	365.12
439.89	409.59
440.08	365.12
440.26	458.74
440.45	409.59
440.63	400.23
440.82	430.66
441.01	430.66
441.19	379.17
441.38	430.66
441.57	351.08
441.75	468.11
441.94	472.79
442.12	414.27
442.31	376.83
442.50	374.49
442.68	461.09
442.87	344.06
443.05	374.49
443.24	500.87
443.43	451.72
443.61	374.49
443.80	414.27
443.98	425.98
444.17	479.81
444.35	447.04
444.54	362.78
444.73	437.68
444.91	414.27
445.10	440.02
445.28	395.55
445.47	400.23
445.65	397.89
445.84	341.72
446.02	362.78
446.21	421.30
446.39	372.15
446.58	386.19
446.77	418.96
446.95	381.51
447.14	440.02
447.32	472.79
447.51	447.04
447.69	332.36
447.88	334.70
448.06	458.74
448.25	372.15
448.43	418.96
448.62	421.30
448.80	449.38
448.99	437.68
449.17	404.91
449.36	395.55
449.54	423.64
449.73	372.15
449.91	451.72
450.10	383.85
450.28	491.51
450.46	493.85
450.65	440.02
450.83	386.19
451.02	444.70
451.20	425.98
451.39	465.77
451.57	423.64
451.76	404.91
451.94	449.38
452.13	500.87
452.31	493.85
452.49	400.23
452.68	418.96
452.86	365.12
453.05	430.66
453.23	397.89
453.42	367.46
453.60	383.85
453.78	449.38
453.97	397.89
454.15	367.46
454.34	397.89
454.52	430.66
454.70	479.81
454.89	402.57
455.07	423.64
455.26	407.25
455.44	423.64
455.62	404.91
455.81	418.96
455.99	425.98
456.17	383.85
456.36	402.57
456.54	400.23
456.73	318.31
456.91	386.19
457.09	383.85
457.28	451.72
457.46	449.38
457.64	355.76
457.83	449.38
458.01	367.46
458.19	360.44
458.38	449.38
458.56	425.98
458.74	367.46
458.93	418.96
459.11	416.62
459.29	416.62
459.48	379.17
459.66	428.32
459.84	416.62
460.03	512.58
460.21	447.04
460.39	374.49
460.57	425.98
460.76	402.57
460.94	402.57
461.12	433.00
461.31	418.96
461.49	346.40
461.67	416.62
461.85	379.17
462.04	348.74
462.22	767.70
462.40	458.74
462.59	421.30
462.77	468.11
462.95	367.46
463.13	360.44
463.32	470.45
463.50	437.68
463.68	386.19
463.86	386.19
464.05	365.12
464.23	430.66
464.41	496.19
464.59	451.72
464.78	461.09
464.96	383.85
465.14	355.76
465.32	418.96
465.50	428.32
465.69	407.25
465.87	437.68
466.05	404.91
466.23	376.83
466.41	456.40
466.60	444.70
466.78	404.91
466.96	376.83
467.14	456.40
467.32	390.87
467.51	444.70
467.69	379.17
467.87	451.72
468.05	423.64
468.23	414.27
468.41	449.38
468.60	416.62
468.78	449.38
468.96	437.68
469.14	409.59
469.32	397.89
469.50	456.40
469.69	404.91
469.87	418.96
470.05	484.49
470.23	425.98
470.41	393.21
470.59	477.47
470.77	463.43
470.95	447.04
471.14	444.70
471.32	379.17
471.50	421.30
471.68	404.91
471.86	414.27
472.04	397.89
472.22	468.11
472.40	388.53
472.58	454.06
472.77	372.15
472.95	437.68
473.13	397.89
473.31	442.36
473.49	414.27
473.67	409.59
473.85	496.19
474.03	390.87
474.21	337.04
474.39	444.70
474.57	425.98
474.75	491.51
474.93	442.36
475.12	393.21
475.30	456.40
475.48	425.98
475.66	404.91
475.84	442.36
476.02	428.32
476.20	407.25
476.38	531.30
476.56	507.90
476.74	367.46
476.92	461.09
477.10	320.65
477.28	376.83
477.46	411.93
477.64	468.11
477.82	435.34
478.00	383.85
478.18	430.66
478.36	390.87
478.54	423.64
478.72	416.62
478.90	400.23
479.08	404.91
479.26	395.55
479.44	447.04
479.62	411.93
479.80	472.79
479.98	472.79
480.16	428.32
480.34	362.78
480.52	402.57
480.70	383.85
480.88	383.85
481.06	442.36
481.24	400.23
481.41	402.57
481.59	285.55
481.77	376.83
481.95	454.06
482.13	428.32
482.31	353.42
482.49	374.49
482.67	428.32
482.85	388.53
483.03	428.32
483.21	341.72
483.39	386.19
483.57	447.04
483.74	421.30
483.92	414.27
484.10	447.04
484.28	472.79
484.46	430.66
484.64	409.59
484.82	414.27
485.00	468.11
485.18	334.70
485.35	358.10
485.53	407.25
485.71	454.06
485.89	451.72
486.07	376.83
486.25	428.32
486.43	327.68
486.61	437.68
486.78	425.98
486.96	395.55
487.14	440.02
487.32	458.74
487.50	444.70
487.68	423.64
487.85	447.04
488.03	458.74
488.21	360.44
488.39	437.68
488.57	416.62
488.75	386.19
488.92	533.64
489.10	421.30
489.28	407.25
489.46	330.02
489.64	407.25
489.81	433.00
489.99	418.96
490.17	421.30
490.35	470.45
490.53	423.64
490.70	374.49
490.88	437.68
491.06	379.17
491.24	414.27
491.41	425.98
491.59	388.53
491.77	461.09
491.95	383.85
492.13	449.38
492.30	411.93
492.48	383.85
492.66	404.91
492.84	402.57
493.01	430.66
493.19	386.19
493.37	444.70
493.54	416.62
493.72	400.23
493.90	440.02
494.08	402.57
494.25	440.02
494.43	407.25
494.61	465.77
494.79	379.17
494.96	444.70
495.14	449.38
495.32	472.79
495.49	407.25
495.67	442.36
495.85	472.79
496.02	358.10
496.20	402.57
496.38	416.62
496.55	465.77
496.73	451.72
496.91	416.62
497.09	367.46
497.26	437.68
497.44	440.02
497.62	428.32
497.79	397.89
497.97	388.53
498.14	479.81
498.32	353.42
498.50	402.57
498.67	463.43
498.85	416.62
499.03	409.59
499.20	435.34
499.38	358.10
499.56	423.64
499.73	433.00
499.91	407.25
500.08	519.60
500.26	379.17
500.44	409.59
500.61	430.66
500.79	425.98
500.97	440.02
501.14	477.47
501.32	400.23
501.49	351.08
501.67	330.02
501.84	390.87
502.02	362.78
502.20	451.72
502.37	397.89
502.55	428.32
502.72	442.36
502.90	416.62
503.07	404.91
503.25	393.21
503.43	381.51
503.60	390.87
503.78	489.17
503.95	414.27
504.13	418.96
504.30	479.81
504.48	423.64
504.65	489.17
504.83	433.00
505.01	435.34
505.18	304.27
505.36	393.21
505.53	421.30
505.71	421.30
505.88	409.59
506.06	519.60
506.23	454.06
506.41	404.91
506.58	447.04
506.76	390.87
506.93	479.81
507.11	367.46
507.28	411.93
507.46	393.21
507.63	404.91
507.81	318.31
507.98	447.04
508.16	383.85
508.33	435.34
508.50	365.12
508.68	451.72
508.85	299.59
509.03	409.59
509.20	468.11
509.38	472.79
509.55	482.15
509.73	442.36
509.90	372.15
510.08	390.87
510.25	442.36
510.42	416.62
510.60	365.12
510.77	435.34
510.95	407.25
511.12	397.89
511.30	461.09
511.47	409.59
511.64	409.59
511.82	346.40
511.99	421.30
512.17	383.85
512.34	458.74
512.51	346.40
512.69	379.17
512.86	395.55
513.04	411.93
513.21	388.53
513.38	454.06
513.56	463.43
513.73	390.87
513.90	435.34
514.08	351.08
514.25	388.53
514.43	395.55
514.60	390.87
514.77	425.98
514.95	404.91
515.12	386.19
515.29	461.09
515.47	369.80
515.64	376.83
515.81	390.87
515.99	418.96
516.16	414.27
516.33	454.06
516.51	414.27
516.68	418.96
516.85	379.17
517.03	435.34
517.20	388.53
517.37	383.85
517.54	397.89
517.72	421.30
517.89	367.46
518.06	468.11
518.24	470.45
518.41	411.93
518.58	498.53
518.75	395.55
518.93	374.49
519.10	425.98
519.27	407.25
519.45	484.49
519.62	416.62
519.79	442.36
519.96	435.34
520.14	388.53
520.31	369.80
520.48	400.23
520.65	444.70
520.83	346.40
521.00	388.53
521.17	418.96
521.34	400.23
521.52	348.74
521.69	386.19
521.86	463.43
522.03	540.66
522.20	449.38
522.38	414.27
522.55	451.72
522.72	376.83
522.89	463.43
523.07	510.24
523.24	383.85
523.41	404.91
523.58	372.15
523.75	418.96
523.92	351.08
524.10	418.96
524.27	404.91
524.44	430.66
524.61	414.27
524.78	358.10
524.96	430.66
525.13	411.93
525.30	428.32
525.47	376.83
525.64	437.68
525.81	435.34
525.98	386.19
526.16	341.72
526.33	400.23
526.50	465.77
526.67	428.32
526.84	411.93
527.01	379.17
527.18	470.45
527.36	397.89
527.53	437.68
527.70	414.27
527.87	442.36
528.04	475.13
528.21	390.87
528.38	435.34
528.55	365.12
528.72	423.64
528.89	444.70
529.07	404.91
529.24	383.85
529.41	407.25
529.58	397.89
529.75	496.19
529.92	472.79
530.09	428.32
530.26	414.27
530.43	421.30
530.60	444.70
530.77	404.91
530.94	440.02
531.11	381.51
531.28	374.49
531.46	320.65
531.63	418.96
531.80	416.62
531.97	402.57
532.14	407.25
532.31	374.49
532.48	423.64
532.65	447.04
532.82	397.89
532.99	411.93
533.16	425.98
533.33	411.93
533.50	318.31
533.67	442.36
533.84	418.96
534.01	414.27
534.18	428.32
534.35	498.53
534.52	463.43
534.69	374.49
534.86	381.51
535.03	456.40
535.20	440.02
535.37	437.68
535.54	374.49
535.71	440.02
535.88	447.04
536.05	425.98
536.22	451.72
536.38	433.00
536.55	379.17
536.72	451.72
536.89	416.62
537.06	447.04
537.23	416.62
537.40	334.70
537.57	407.25
537.74	465.77
537.91	463.43
538.08	353.42
538.25	353.42
538.42	390.87
538.59	447.04
538.75	358.10
538.92	360.44
539.09	376.83
539.26	404.91
539.43	440.02
539.60	407.25
539.77	374.49
539.94	433.00
540.11	456.40
540.28	421.30
540.44	472.79
540.61	397.89
540.78	390.87
540.95	430.66
541.12	463.43
541.29	463.43
541.46	383.85
541.62	374.49
541.79	430.66
541.96	451.72
542.13	425.98
542.30	465.77
542.47	444.70
542.63	372.15
542.80	414.27
542.97	421.30
543.14	390.87
543.31	411.93
543.48	458.74
543.64	461.09
543.81	360.44
543.98	390.87
544.15	418.96
544.32	360.44
544.48	395.55
544.65	386.19
544.82	479.81
544.99	447.04
545.16	442.36
545.32	351.08
545.49	461.09
545.66	421.30
545.83	341.72
546.00	400.23
546.16	376.83
546.33	414.27
546.50	388.53
546.67	440.02
546.83	468.11
547.00	451.72
547.17	365.12
547.34	376.83
547.50	411.93
547.67	376.83
547.84	465.77
548.00	479.81
548.17	369.80
548.34	388.53
548.51	472.79
548.67	489.17
548.84	449.38
549.01	437.68
549.18	421.30
549.34	447.04
549.51	409.59
549.68	409.59
549.84	379.17
550.01	421.30
550.18	456.40
550.34	472.79
550.51	456.40
550.68	435.34
550.84	390.87
551.01	475.13
551.18	456.40
551.34	404.91
551.51	430.66
551.68	442.36
551.84	449.38
552.01	374.49
552.18	383.85
552.34	374.49
552.51	456.40
552.68	418.96
552.84	475.13
553.01	376.83
553.18	400.23
553.34	416.62
553.51	475.13
553.67	458.74
553.84	528.96
554.01	435.34
554.17	402.57
554.34	411.93
554.51	489.17
554.67	475.13
554.84	409.59
555.00	437.68
555.17	477.47
555.33	503.22
555.50	367.46
555.67	397.89
555.83	400.23
556.00	440.02
556.16	557.05
556.33	409.59
556.50	465.77
556.66	379.17
556.83	393.21
556.99	358.10
557.16	416.62
557.32	486.83
557.49	437.68
557.65	404.91
557.82	341.72
557.98	409.59
558.15	468.11
558.32	383.85
558.48	423.64
558.65	400.23
558.81	444.70
558.98	437.68
559.14	381.51
559.31	416.62
559.47	463.43
559.64	376.83
559.80	407.25
559.97	451.72
560.13	400.23
560.30	425.98
560.46	416.62
560.63	383.85
560.79	402.57
560.96	461.09
561.12	390.87
561.29	411.93
561.45	430.66
561.61	365.12
561.78	430.66
561.94	386.19
562.11	468.11
562.27	451.72
562.44	376.83
562.60	416.62
562.77	411.93
562.93	428.32
563.10	409.59
563.26	397.89
563.42	400.23
563.59	393.21
563.75	433.00
563.92	416.62
564.08	409.59
564.24	463.43
564.41	330.02
564.57	430.66
564.74	454.06
564.90	484.49
565.07	463.43
565.23	423.64
565.39	433.00
565.56	493.85
565.72	449.38
565.88	442.36
566.05	411.93
566.21	360.44
566.38	430.66
566.54	449.38
566.70	430.66
566.87	390.87
567.03	404.91
567.19	451.72
567.36	374.49
567.52	475.13
567.68	416.62
567.85	400.23
568.01	395.55
568.17	454.06
568.34	404.91
568.50	397.89
568.66	400.23
568.83	449.38
568.99	395.55
569.15	437.68
569.32	475.13
569.48	447.04
569.64	451.72
569.81	383.85
569.97	454.06
570.13	397.89
570.30	397.89
570.46	388.53
570.62	423.64
570.78	482.15
570.95	386.19
571.11	454.06
571.27	435.34
571.43	374.49
571.60	475.13
571.76	454.06
571.92	407.25
572.09	409.59
572.25	425.98
572.41	500.87
572.57	437.68
572.74	454.06
572.90	435.34
573.06	388.53
573.22	388.53
573.38	454.06
573.55	416.62
573.71	423.64
573.87	369.80
574.03	447.04
574.20	367.46
574.36	449.38
574.52	409.59
574.68	468.11
574.84	393.21
575.01	402.57
575.17	414.27
575.33	360.44
575.49	423.64
575.65	383.85
575.82	393.21
575.98	416.62
576.14	409.59
576.30	355.76
576.46	355.76
576.62	444.70
576.79	451.72
576.95	440.02
577.11	454.06
577.27	407.25
577.43	430.66
577.59	507.90
577.75	440.02
577.92	400.23
578.08	433.00
578.24	456.40
578.40	423.64
578.56	472.79
578.72	463.43
578.88	416.62
579.04	447.04
579.21	447.04
579.37	367.46
579.53	428.32
579.69	381.51
579.85	332.36
580.01	414.27
580.17	416.62
580.33	451.72
580.49	367.46
580.65	388.53
580.82	376.83
580.98	390.87
581.14	421.30
581.30	505.56
581.46	451.72
581.62	421.30
581.78	444.70
581.94	402.57
582.10	341.72
582.26	381.51
582.42	386.19
582.58	411.93
582.74	348.74
582.90	465.77
583.06	325.33
583.22	388.53
583.38	442.36
583.54	395.55
583.70	449.38
583.86	383.85
584.02	442.36
584.18	449.38
584.34	337.04
584.50	433.00
584.66	346.40
584.82	400.23
584.98	477.47
585.14	440.02
585.30	425.98
585.46	372.15
585.62	416.62
585.78	449.38
585.94	421.30
586.10	313.63
586.26	411.93
586.42	444.70
586.58	425.98
586.74	425.98
586.90	379.17
587.06	472.79
587.22	447.04
587.38	425.98
587.54	409.59
587.70	479.81
587.86	367.46
588.02	388.53
588.18	390.87
588.34	449.38
588.49	327.68
588.65	383.85
588.81	440.02
588.97	351.08
589.13	386.19
589.29	397.89
589.45	470.45
589.61	379.17
589.77	425.98
589.93	449.38
590.08	414.27
590.24	376.83
590.40	411.93
590.56	386.19
590.72	390.87
590.88	351.08
591.04	465.77
591.20	442.36
591.35	400.23
591.51	465.77
591.67	360.44
591.83	400.23
591.99	386.19
592.15	416.62
592.31	433.00
592.46	393.21
592.62	416.62
592.78	402.57
592.94	374.49
593.10	402.57
593.26	386.19
593.41	372.15
593.57	393.21
593.73	386.19
593.89	454.06
594.05	383.85
594.20	414.27
594.36	447.04
594.52	430.66
594.68	423.64
594.84	421.30
594.99	444.70
595.15	372.15
595.31	355.76
595.47	447.04
595.62	402.57
595.78	416.62
595.94	449.38
596.10	440.02
596.25	428.32
596.41	475.13
596.57	393.21
596.73	491.51
596.88	440.02
597.04	397.89
597.20	423.64
597.36	425.98
597.51	390.87
597.67	482.15
597.83	393.21
597.99	461.09
598.14	393.21
598.30	395.55
598.46	381.51
598.61	461.09
598.77	437.68
598.93	386.19
599.09	393.21
599.24	416.62
599.40	421.30
599.56	365.12
599.71	423.64
599.87	425.98
600.03	390.87
600.18	484.49
600.34	447.04
600.50	477.47
600.65	428.32
600.81	411.93
600.97	362.78
601.12	421.30
601.28	423.64
601.44	435.34
601.59	372.15
601.75	521.94
601.91	456.40
602.06	376.83
602.22	510.24
602.37	418.96
602.53	447.04
602.69	402.57
602.84	337.04
603.00	400.23
603.16	407.25
603.31	339.38
603.47	451.72
603.62	369.80
603.78	428.32
603.94	461.09
604.09	510.24
604.25	435.34
604.40	442.36
604.56	402.57
604.71	428.32
604.87	362.78
605.03	472.79
605.18	416.62
605.34	440.02
605.49	386.19
605.65	344.06
605.80	430.66
605.96	477.47
606.12	468.11
606.27	444.70
606.43	397.89
606.58	433.00
606.74	348.74
606.89	386.19
607.05	454.06
607.20	416.62
607.36	393.21
607.51	409.59
607.67	498.53
607.82	397.89
607.98	470.45
608.13	491.51
608.29	367.46
608.44	447.04
608.60	365.12
608.75	444.70
608.91	430.66
609.06	313.63
609.22	386.19
609.37	437.68
609.53	374.49
609.68	409.59
609.84	411.93
609.99	351.08
610.15	451.72
