SpectraSuite Data File
++++++++++++++++++++++++++++++++++++
Date: Fri Oct 25 12:11:17 EDT 2013
User: price-jones
Dark Spectrum Present: No
Reference Spectrum Present: No
Number of Sampled Component Spectra: 1
Spectrometers: USB2+H05261
Integration Time (usec): 100000 (USB2+H05261)
Spectra Averaged: 1 (USB2+H05261)
Boxcar Smoothing: 0 (USB2+H05261)
Correct for Electrical Dark: No (USB2+H05261)
Strobe/Lamp Enabled: No (USB2+H05261)
Correct for Detector Non-linearity: No (USB2+H05261)
Correct for Stray Light: No (USB2+H05261)
Number of Pixels in Processed Spectrum: 2048
>>>>>Begin Processed Spectral Data<<<<<
365.73	351.08
365.92	351.08
366.12	351.08
366.32	243.42
366.52	210.65
366.72	241.08
366.91	311.29
367.11	215.33
367.31	269.16
367.51	212.99
367.70	222.35
367.90	313.63
368.10	227.03
368.30	238.73
368.49	287.89
368.69	257.46
368.89	259.80
369.09	210.65
369.28	285.55
369.48	283.20
369.68	269.16
369.87	308.95
370.07	273.84
370.27	369.80
370.47	358.10
370.66	341.72
370.86	360.44
371.06	402.57
371.25	348.74
371.45	311.29
371.65	379.17
371.84	390.87
372.04	360.44
372.24	365.12
372.44	304.27
372.63	407.25
372.83	461.09
373.03	383.85
373.22	339.38
373.42	360.44
373.62	409.59
373.81	411.93
374.01	393.21
374.21	468.11
374.40	360.44
374.60	355.76
374.79	411.93
374.99	341.72
375.19	369.80
375.38	442.36
375.58	428.32
375.78	479.81
375.97	451.72
376.17	489.17
376.37	330.02
376.56	400.23
376.76	393.21
376.95	400.23
377.15	414.27
377.35	456.40
377.54	430.66
377.74	360.44
377.93	437.68
378.13	454.06
378.33	397.89
378.52	416.62
378.72	374.49
378.91	388.53
379.11	390.87
379.31	346.40
379.50	395.55
379.70	411.93
379.89	390.87
380.09	388.53
380.28	433.00
380.48	421.30
380.68	339.38
380.87	330.02
381.07	390.87
381.26	430.66
381.46	388.53
381.65	362.78
381.85	482.15
382.04	416.62
382.24	365.12
382.43	411.93
382.63	397.89
382.83	337.04
383.02	423.64
383.22	486.83
383.41	421.30
383.61	447.04
383.80	430.66
384.00	372.15
384.19	428.32
384.39	428.32
384.58	365.12
384.78	397.89
384.97	411.93
385.17	381.51
385.36	367.46
385.56	381.51
385.75	435.34
385.95	397.89
386.14	418.96
386.34	386.19
386.53	407.25
386.72	372.15
386.92	447.04
387.11	440.02
387.31	428.32
387.50	454.06
387.70	393.21
387.89	416.62
388.09	414.27
388.28	411.93
388.48	393.21
388.67	514.92
388.86	421.30
389.06	414.27
389.25	411.93
389.45	454.06
389.64	423.64
389.84	381.51
390.03	402.57
390.22	411.93
390.42	411.93
390.61	454.06
390.81	355.76
391.00	475.13
391.19	428.32
391.39	395.55
391.58	489.17
391.78	362.78
391.97	397.89
392.16	341.72
392.36	353.42
392.55	421.30
392.75	383.85
392.94	395.55
393.13	449.38
393.33	351.08
393.52	344.06
393.71	458.74
393.91	404.91
394.10	388.53
394.29	374.49
394.49	409.59
394.68	435.34
394.88	418.96
395.07	430.66
395.26	397.89
395.46	395.55
395.65	393.21
395.84	440.02
396.04	454.06
396.23	414.27
396.42	418.96
396.62	428.32
396.81	447.04
397.00	402.57
397.19	461.09
397.39	428.32
397.58	358.10
397.77	395.55
397.97	393.21
398.16	447.04
398.35	447.04
398.55	332.36
398.74	379.17
398.93	437.68
399.12	470.45
399.32	416.62
399.51	381.51
399.70	379.17
399.90	428.32
400.09	458.74
400.28	404.91
400.47	433.00
400.67	397.89
400.86	447.04
401.05	465.77
401.24	423.64
401.44	358.10
401.63	458.74
401.82	435.34
402.01	456.40
402.21	486.83
402.40	397.89
402.59	421.30
402.78	379.17
402.97	365.12
403.17	404.91
403.36	353.42
403.55	451.72
403.74	479.81
403.93	435.34
404.13	470.45
404.32	425.98
404.51	369.80
404.70	461.09
404.89	421.30
405.09	468.11
405.28	479.81
405.47	411.93
405.66	421.30
405.85	449.38
406.05	372.15
406.24	360.44
406.43	402.57
406.62	416.62
406.81	383.85
407.00	395.55
407.20	425.98
407.39	458.74
407.58	411.93
407.77	468.11
407.96	418.96
408.15	435.34
408.34	433.00
408.54	411.93
408.73	374.49
408.92	500.87
409.11	493.85
409.30	484.49
409.49	395.55
409.68	402.57
409.87	428.32
410.07	374.49
410.26	341.72
410.45	416.62
410.64	407.25
410.83	421.30
411.02	381.51
411.21	362.78
411.40	423.64
411.59	362.78
411.78	414.27
411.98	346.40
412.17	421.30
412.36	383.85
412.55	374.49
412.74	334.70
412.93	449.38
413.12	430.66
413.31	351.08
413.50	388.53
413.69	400.23
413.88	369.80
414.07	402.57
414.26	435.34
414.45	425.98
414.64	437.68
414.83	402.57
415.02	348.74
415.22	442.36
415.41	463.43
415.60	486.83
415.79	388.53
415.98	468.11
416.17	461.09
416.36	390.87
416.55	414.27
416.74	397.89
416.93	451.72
417.12	425.98
417.31	407.25
417.50	374.49
417.69	388.53
417.88	379.17
418.07	374.49
418.26	400.23
418.45	395.55
418.64	369.80
418.83	407.25
419.02	400.23
419.21	379.17
419.39	477.47
419.58	416.62
419.77	414.27
419.96	421.30
420.15	440.02
420.34	395.55
420.53	442.36
420.72	416.62
420.91	500.87
421.10	416.62
421.29	400.23
421.48	416.62
421.67	379.17
421.86	418.96
422.05	369.80
422.24	404.91
422.43	369.80
422.61	390.87
422.80	320.65
422.99	358.10
423.18	360.44
423.37	440.02
423.56	411.93
423.75	351.08
423.94	388.53
424.13	372.15
424.32	482.15
424.50	400.23
424.69	437.68
424.88	463.43
425.07	456.40
425.26	393.21
425.45	395.55
425.64	376.83
425.83	468.11
426.01	456.40
426.20	367.46
426.39	344.06
426.58	290.23
426.77	442.36
426.96	411.93
427.15	442.36
427.33	360.44
427.52	409.59
427.71	451.72
427.90	372.15
428.09	386.19
428.28	449.38
428.46	423.64
428.65	425.98
428.84	397.89
429.03	423.64
429.22	458.74
429.40	341.72
429.59	388.53
429.78	461.09
429.97	421.30
430.16	390.87
430.34	381.51
430.53	400.23
430.72	395.55
430.91	393.21
431.10	425.98
431.28	332.36
431.47	376.83
431.66	411.93
431.85	383.85
432.03	397.89
432.22	425.98
432.41	390.87
432.60	475.13
432.79	421.30
432.97	463.43
433.16	376.83
433.35	383.85
433.54	425.98
433.72	447.04
433.91	444.70
434.10	390.87
434.28	425.98
434.47	435.34
434.66	451.72
434.85	351.08
435.03	428.32
435.22	395.55
435.41	472.79
435.59	456.40
435.78	411.93
435.97	418.96
436.16	451.72
436.34	372.15
436.53	430.66
436.72	346.40
436.90	404.91
437.09	479.81
437.28	470.45
437.46	369.80
437.65	430.66
437.84	477.47
438.02	376.83
438.21	409.59
438.40	423.64
438.58	358.10
438.77	418.96
438.96	395.55
439.14	325.33
439.33	433.00
439.52	421.30
439.70	418.96
439.89	386.19
440.08	423.64
440.26	381.51
440.45	444.70
440.63	414.27
440.82	372.15
441.01	479.81
441.19	472.79
441.38	428.32
441.57	388.53
441.75	458.74
441.94	369.80
442.12	447.04
442.31	379.17
442.50	430.66
442.68	388.53
442.87	355.76
443.05	369.80
443.24	449.38
443.43	472.79
443.61	463.43
443.80	402.57
443.98	421.30
444.17	435.34
444.35	442.36
444.54	400.23
444.73	367.46
444.91	374.49
445.10	353.42
445.28	386.19
445.47	362.78
445.65	447.04
445.84	358.10
446.02	367.46
446.21	486.83
446.39	418.96
446.58	409.59
446.77	390.87
446.95	409.59
447.14	407.25
447.32	390.87
447.51	409.59
447.69	428.32
447.88	388.53
448.06	386.19
448.25	454.06
448.43	397.89
448.62	362.78
448.80	400.23
448.99	402.57
449.17	390.87
449.36	409.59
449.54	435.34
449.73	440.02
449.91	414.27
450.10	409.59
450.28	458.74
450.46	374.49
450.65	451.72
450.83	418.96
451.02	393.21
451.20	411.93
451.39	428.32
451.57	421.30
451.76	395.55
451.94	414.27
452.13	390.87
452.31	379.17
452.49	463.43
452.68	365.12
452.86	376.83
453.05	381.51
453.23	423.64
453.42	404.91
453.60	409.59
453.78	383.85
453.97	435.34
454.15	388.53
454.34	339.38
454.52	383.85
454.70	447.04
454.89	393.21
455.07	411.93
455.26	433.00
455.44	498.53
455.62	456.40
455.81	437.68
455.99	416.62
456.17	454.06
456.36	393.21
456.54	379.17
456.73	400.23
456.91	437.68
457.09	383.85
457.28	390.87
457.46	386.19
457.64	397.89
457.83	470.45
458.01	477.47
458.19	454.06
458.38	358.10
458.56	404.91
458.74	374.49
458.93	433.00
459.11	449.38
459.29	383.85
459.48	486.83
459.66	475.13
459.84	423.64
460.03	482.15
460.21	425.98
460.39	374.49
460.57	416.62
460.76	369.80
460.94	395.55
461.12	435.34
461.31	407.25
461.49	383.85
461.67	442.36
461.85	435.34
462.04	395.55
462.22	828.55
462.40	442.36
462.59	430.66
462.77	395.55
462.95	407.25
463.13	386.19
463.32	458.74
463.50	477.47
463.68	421.30
463.86	362.78
464.05	407.25
464.23	456.40
464.41	454.06
464.59	404.91
464.78	409.59
464.96	409.59
465.14	435.34
465.32	397.89
465.50	379.17
465.69	479.81
465.87	414.27
466.05	386.19
466.23	435.34
466.41	423.64
466.60	447.04
466.78	451.72
466.96	379.17
467.14	428.32
467.32	409.59
467.51	458.74
467.69	472.79
467.87	393.21
468.05	428.32
468.23	468.11
468.41	416.62
468.60	395.55
468.78	421.30
468.96	470.45
469.14	409.59
469.32	376.83
469.50	374.49
469.69	330.02
469.87	451.72
470.05	470.45
470.23	376.83
470.41	341.72
470.59	395.55
470.77	400.23
470.95	411.93
471.14	451.72
471.32	430.66
471.50	484.49
471.68	418.96
471.86	437.68
472.04	437.68
472.22	449.38
472.40	435.34
472.58	470.45
472.77	388.53
472.95	381.51
473.13	477.47
473.31	472.79
473.49	341.72
473.67	397.89
473.85	517.26
474.03	395.55
474.21	395.55
474.39	454.06
474.57	433.00
474.75	430.66
474.93	376.83
475.12	388.53
475.30	402.57
475.48	365.12
475.66	421.30
475.84	477.47
476.02	395.55
476.20	451.72
476.38	322.99
476.56	463.43
476.74	388.53
476.92	304.27
477.10	421.30
477.28	411.93
477.46	360.44
477.64	414.27
477.82	430.66
478.00	451.72
478.18	402.57
478.36	463.43
478.54	388.53
478.72	393.21
478.90	472.79
479.08	498.53
479.26	367.46
479.44	428.32
479.62	294.91
479.80	430.66
479.98	435.34
480.16	390.87
480.34	479.81
480.52	416.62
480.70	383.85
480.88	433.00
481.06	425.98
481.24	437.68
481.41	360.44
481.59	449.38
481.77	407.25
481.95	477.47
482.13	477.47
482.31	421.30
482.49	346.40
482.67	416.62
482.85	423.64
483.03	423.64
483.21	388.53
483.39	383.85
483.57	435.34
483.74	402.57
483.92	425.98
484.10	437.68
484.28	428.32
484.46	430.66
484.64	449.38
484.82	390.87
485.00	407.25
485.18	374.49
485.35	379.17
485.53	404.91
485.71	456.40
485.89	484.49
486.07	407.25
486.25	472.79
486.43	440.02
486.61	423.64
486.78	465.77
486.96	381.51
487.14	437.68
487.32	440.02
487.50	386.19
487.68	428.32
487.85	362.78
488.03	376.83
488.21	461.09
488.39	428.32
488.57	461.09
488.75	367.46
488.92	517.26
489.10	418.96
489.28	489.17
489.46	376.83
489.64	383.85
489.81	402.57
489.99	418.96
490.17	393.21
490.35	444.70
490.53	482.15
490.70	428.32
490.88	395.55
491.06	383.85
491.24	435.34
491.41	435.34
491.59	451.72
491.77	477.47
491.95	479.81
492.13	421.30
492.30	428.32
492.48	341.72
492.66	444.70
492.84	414.27
493.01	423.64
493.19	365.12
493.37	465.77
493.54	407.25
493.72	449.38
493.90	437.68
494.08	418.96
494.25	418.96
494.43	451.72
494.61	372.15
494.79	346.40
494.96	416.62
495.14	510.24
495.32	479.81
495.49	372.15
495.67	374.49
495.85	407.25
496.02	358.10
496.20	437.68
496.38	402.57
496.55	383.85
496.73	360.44
496.91	414.27
497.09	430.66
497.26	404.91
497.44	367.46
497.62	383.85
497.79	395.55
497.97	409.59
498.14	470.45
498.32	388.53
498.50	517.26
498.67	376.83
498.85	444.70
499.03	367.46
499.20	433.00
499.38	376.83
499.56	404.91
499.73	468.11
499.91	379.17
500.08	482.15
500.26	358.10
500.44	348.74
500.61	472.79
500.79	348.74
500.97	449.38
501.14	386.19
501.32	407.25
501.49	458.74
501.67	346.40
501.84	372.15
502.02	341.72
502.20	465.77
502.37	482.15
502.55	416.62
502.72	423.64
502.90	430.66
503.07	369.80
503.25	383.85
503.43	393.21
503.60	372.15
503.78	425.98
503.95	379.17
504.13	376.83
504.30	428.32
504.48	435.34
504.65	484.49
504.83	416.62
505.01	409.59
505.18	440.02
505.36	409.59
505.53	440.02
505.71	402.57
505.88	409.59
506.06	451.72
506.23	376.83
506.41	402.57
506.58	393.21
506.76	451.72
506.93	388.53
507.11	430.66
507.28	440.02
507.46	369.80
507.63	435.34
507.81	430.66
507.98	442.36
508.16	451.72
508.33	430.66
508.50	440.02
508.68	428.32
508.85	510.24
509.03	400.23
509.20	435.34
509.38	390.87
509.55	463.43
509.73	433.00
509.90	526.62
510.08	433.00
510.25	423.64
510.42	381.51
510.60	383.85
510.77	332.36
510.95	367.46
511.12	393.21
511.30	430.66
511.47	404.91
511.64	458.74
511.82	451.72
511.99	447.04
512.17	402.57
512.34	407.25
512.51	447.04
512.69	416.62
512.86	404.91
513.04	348.74
513.21	440.02
513.38	376.83
513.56	339.38
513.73	386.19
513.90	414.27
514.08	472.79
514.25	362.78
514.43	372.15
514.60	372.15
514.77	381.51
514.95	458.74
515.12	404.91
515.29	409.59
515.47	402.57
515.64	444.70
515.81	395.55
515.99	414.27
516.16	430.66
516.33	454.06
516.51	451.72
516.68	351.08
516.85	409.59
517.03	376.83
517.20	451.72
517.37	404.91
517.54	365.12
517.72	425.98
517.89	360.44
518.06	346.40
518.24	463.43
518.41	496.19
518.58	425.98
518.75	383.85
518.93	444.70
519.10	383.85
519.27	395.55
519.45	402.57
519.62	330.02
519.79	428.32
519.96	400.23
520.14	381.51
520.31	369.80
520.48	449.38
520.65	362.78
520.83	423.64
521.00	482.15
521.17	449.38
521.34	393.21
521.52	339.38
521.69	397.89
521.86	447.04
522.03	437.68
522.20	507.90
522.38	425.98
522.55	493.85
522.72	393.21
522.89	411.93
523.07	437.68
523.24	421.30
523.41	395.55
523.58	414.27
523.75	449.38
523.92	435.34
524.10	440.02
524.27	421.30
524.44	465.77
524.61	416.62
524.78	444.70
524.96	409.59
525.13	411.93
525.30	468.11
525.47	470.45
525.64	437.68
525.81	493.85
525.98	369.80
526.16	411.93
526.33	395.55
526.50	339.38
526.67	409.59
526.84	358.10
527.01	318.31
527.18	369.80
527.36	346.40
527.53	482.15
527.70	367.46
527.87	390.87
528.04	404.91
528.21	379.17
528.38	463.43
528.55	428.32
528.72	430.66
528.89	433.00
529.07	397.89
529.24	414.27
529.41	449.38
529.58	390.87
529.75	400.23
529.92	449.38
530.09	444.70
530.26	430.66
530.43	482.15
530.60	397.89
530.77	433.00
530.94	390.87
531.11	458.74
531.28	388.53
531.46	374.49
531.63	411.93
531.80	400.23
531.97	400.23
532.14	470.45
532.31	397.89
532.48	400.23
532.65	374.49
532.82	386.19
532.99	425.98
533.16	468.11
533.33	397.89
533.50	440.02
533.67	461.09
533.84	482.15
534.01	360.44
534.18	409.59
534.35	407.25
534.52	461.09
534.69	428.32
534.86	381.51
535.03	390.87
535.20	376.83
535.37	416.62
535.54	411.93
535.71	390.87
535.88	461.09
536.05	423.64
536.22	386.19
536.38	454.06
536.55	400.23
536.72	437.68
536.89	440.02
537.06	430.66
537.23	381.51
537.40	395.55
537.57	386.19
537.74	468.11
537.91	440.02
538.08	425.98
538.25	442.36
538.42	423.64
538.59	440.02
538.75	486.83
538.92	411.93
539.09	472.79
539.26	409.59
539.43	498.53
539.60	437.68
539.77	390.87
539.94	444.70
540.11	425.98
540.28	447.04
540.44	465.77
540.61	390.87
540.78	418.96
540.95	463.43
541.12	482.15
541.29	425.98
541.46	435.34
541.62	482.15
541.79	454.06
541.96	451.72
542.13	437.68
542.30	449.38
542.47	397.89
542.63	421.30
542.80	416.62
542.97	451.72
543.14	397.89
543.31	409.59
543.48	404.91
543.64	475.13
543.81	444.70
543.98	414.27
544.15	395.55
544.32	372.15
544.48	454.06
544.65	372.15
544.82	397.89
544.99	444.70
545.16	430.66
545.32	433.00
545.49	397.89
545.66	374.49
545.83	442.36
546.00	407.25
546.16	416.62
546.33	440.02
546.50	435.34
546.67	479.81
546.83	372.15
547.00	409.59
547.17	395.55
547.34	388.53
547.50	477.47
547.67	465.77
547.84	381.51
548.00	442.36
548.17	390.87
548.34	465.77
548.51	472.79
548.67	407.25
548.84	430.66
549.01	351.08
549.18	470.45
549.34	362.78
549.51	402.57
549.68	414.27
549.84	456.40
550.01	440.02
550.18	383.85
550.34	404.91
550.51	472.79
550.68	491.51
550.84	454.06
551.01	454.06
551.18	470.45
551.34	444.70
551.51	379.17
551.68	383.85
551.84	486.83
552.01	386.19
552.18	423.64
552.34	409.59
552.51	351.08
552.68	477.47
552.84	374.49
553.01	395.55
553.18	428.32
553.34	444.70
553.51	388.53
553.67	402.57
553.84	433.00
554.01	400.23
554.17	461.09
554.34	393.21
554.51	533.64
554.67	365.12
554.84	442.36
555.00	486.83
555.17	428.32
555.33	430.66
555.50	454.06
555.67	414.27
555.83	411.93
556.00	463.43
556.16	526.62
556.33	489.17
556.50	360.44
556.66	358.10
556.83	390.87
556.99	418.96
557.16	369.80
557.32	395.55
557.49	451.72
557.65	444.70
557.82	463.43
557.98	449.38
558.15	397.89
558.32	404.91
558.48	414.27
558.65	435.34
558.81	442.36
558.98	409.59
559.14	421.30
559.31	461.09
559.47	369.80
559.64	334.70
559.80	423.64
559.97	383.85
560.13	383.85
560.30	393.21
560.46	458.74
560.63	353.42
560.79	341.72
560.96	409.59
561.12	402.57
561.29	496.19
561.45	440.02
561.61	444.70
561.78	484.49
561.94	372.15
562.11	458.74
562.27	444.70
562.44	381.51
562.60	414.27
562.77	468.11
562.93	500.87
563.10	344.06
563.26	421.30
563.42	468.11
563.59	454.06
563.75	397.89
563.92	421.30
564.08	393.21
564.24	451.72
564.41	447.04
564.57	470.45
564.74	479.81
564.90	383.85
565.07	500.87
565.23	428.32
565.39	397.89
565.56	423.64
565.72	468.11
565.88	454.06
566.05	414.27
566.21	355.76
566.38	402.57
566.54	372.15
566.70	418.96
566.87	493.85
567.03	454.06
567.19	440.02
567.36	381.51
567.52	435.34
567.68	470.45
567.85	442.36
568.01	416.62
568.17	397.89
568.34	381.51
568.50	395.55
568.66	386.19
568.83	519.60
568.99	411.93
569.15	461.09
569.32	435.34
569.48	367.46
569.64	447.04
569.81	400.23
569.97	444.70
570.13	400.23
570.30	358.10
570.46	454.06
570.62	376.83
570.78	433.00
570.95	428.32
571.11	514.92
571.27	484.49
571.43	425.98
571.60	479.81
571.76	397.89
571.92	437.68
572.09	430.66
572.25	395.55
572.41	430.66
572.57	308.95
572.74	489.17
572.90	369.80
573.06	425.98
573.22	402.57
573.38	407.25
573.55	498.53
573.71	421.30
573.87	454.06
574.03	344.06
574.20	491.51
574.36	442.36
574.52	425.98
574.68	404.91
574.84	454.06
575.01	388.53
575.17	393.21
575.33	376.83
575.49	533.64
575.65	500.87
575.82	395.55
575.98	425.98
576.14	390.87
576.30	416.62
576.46	395.55
576.62	449.38
576.79	411.93
576.95	484.49
577.11	430.66
577.27	477.47
577.43	411.93
577.59	397.89
577.75	440.02
577.92	468.11
578.08	435.34
578.24	409.59
578.40	442.36
578.56	454.06
578.72	451.72
578.88	411.93
579.04	379.17
579.21	402.57
579.37	400.23
579.53	414.27
579.69	433.00
579.85	423.64
580.01	440.02
580.17	454.06
580.33	367.46
580.49	435.34
580.65	479.81
580.82	369.80
580.98	437.68
581.14	388.53
581.30	491.51
581.46	496.19
581.62	477.47
581.78	430.66
581.94	414.27
582.10	369.80
582.26	463.43
582.42	433.00
582.58	351.08
582.74	461.09
582.90	425.98
583.06	440.02
583.22	395.55
583.38	346.40
583.54	404.91
583.70	442.36
583.86	411.93
584.02	428.32
584.18	397.89
584.34	383.85
584.50	430.66
584.66	423.64
584.82	353.42
584.98	489.17
585.14	332.36
585.30	491.51
585.46	423.64
585.62	430.66
585.78	402.57
585.94	395.55
586.10	407.25
586.26	423.64
586.42	463.43
586.58	449.38
586.74	374.49
586.90	376.83
587.06	463.43
587.22	421.30
587.38	411.93
587.54	458.74
587.70	411.93
587.86	456.40
588.02	411.93
588.18	472.79
588.34	468.11
588.49	428.32
588.65	414.27
588.81	433.00
588.97	332.36
589.13	491.51
589.29	421.30
589.45	440.02
589.61	416.62
589.77	430.66
589.93	404.91
590.08	468.11
590.24	416.62
590.40	482.15
590.56	444.70
590.72	411.93
590.88	407.25
591.04	402.57
591.20	421.30
591.35	468.11
591.51	510.24
591.67	393.21
591.83	369.80
591.99	433.00
592.15	512.58
592.31	379.17
592.46	383.85
592.62	409.59
592.78	458.74
592.94	468.11
593.10	355.76
593.26	472.79
593.41	465.77
593.57	362.78
593.73	416.62
593.89	404.91
594.05	489.17
594.20	376.83
594.36	470.45
594.52	414.27
594.68	418.96
594.84	393.21
594.99	484.49
595.15	519.60
595.31	449.38
595.47	442.36
595.62	365.12
595.78	400.23
595.94	395.55
596.10	388.53
596.25	411.93
596.41	451.72
596.57	365.12
596.73	397.89
596.88	351.08
597.04	381.51
597.20	306.61
597.36	491.51
597.51	395.55
597.67	393.21
597.83	369.80
597.99	470.45
598.14	423.64
598.30	400.23
598.46	440.02
598.61	440.02
598.77	430.66
598.93	411.93
599.09	421.30
599.24	454.06
599.40	458.74
599.56	386.19
599.71	482.15
599.87	381.51
600.03	402.57
600.18	437.68
600.34	414.27
600.50	475.13
600.65	346.40
600.81	381.51
600.97	411.93
601.12	433.00
601.28	402.57
601.44	440.02
601.59	379.17
601.75	440.02
601.91	404.91
602.06	500.87
602.22	447.04
602.37	468.11
602.53	393.21
602.69	423.64
602.84	414.27
603.00	341.72
603.16	451.72
603.31	421.30
603.47	358.10
603.62	376.83
603.78	381.51
603.94	470.45
604.09	486.83
604.25	444.70
604.40	454.06
604.56	482.15
604.71	362.78
604.87	416.62
605.03	404.91
605.18	423.64
605.34	421.30
605.49	395.55
605.65	374.49
605.80	456.40
605.96	423.64
606.12	402.57
606.27	465.77
606.43	463.43
606.58	425.98
606.74	444.70
606.89	465.77
607.05	409.59
607.20	470.45
607.36	397.89
607.51	390.87
607.67	449.38
607.82	386.19
607.98	430.66
608.13	421.30
608.29	358.10
608.44	358.10
608.60	367.46
608.75	465.77
608.91	430.66
609.06	475.13
609.22	475.13
609.37	454.06
609.53	430.66
609.68	379.17
609.84	379.17
609.99	416.62
610.15	404.91
