SpectraSuite Data File
++++++++++++++++++++++++++++++++++++
Date: Fri Oct 25 12:11:17 EDT 2013
User: price-jones
Dark Spectrum Present: No
Reference Spectrum Present: No
Number of Sampled Component Spectra: 1
Spectrometers: USB2+H05261
Integration Time (usec): 100000 (USB2+H05261)
Spectra Averaged: 1 (USB2+H05261)
Boxcar Smoothing: 0 (USB2+H05261)
Correct for Electrical Dark: No (USB2+H05261)
Strobe/Lamp Enabled: No (USB2+H05261)
Correct for Detector Non-linearity: No (USB2+H05261)
Correct for Stray Light: No (USB2+H05261)
Number of Pixels in Processed Spectrum: 2048
>>>>>Begin Processed Spectral Data<<<<<
365.73	407.25
365.92	407.25
366.12	407.25
366.32	306.61
366.52	280.86
366.72	332.36
366.91	222.35
367.11	180.22
367.31	205.97
367.51	243.42
367.70	283.20
367.90	250.44
368.10	285.55
368.30	248.10
368.49	243.42
368.69	266.82
368.89	313.63
369.09	292.57
369.28	252.78
369.48	304.27
369.68	250.44
369.87	297.25
370.07	241.08
370.27	376.83
370.47	348.74
370.66	353.42
370.86	346.40
371.06	304.27
371.25	409.59
371.45	337.04
371.65	362.78
371.84	411.93
372.04	355.76
372.24	442.36
372.44	355.76
372.63	458.74
372.83	376.83
373.03	388.53
373.22	395.55
373.42	404.91
373.62	365.12
373.81	435.34
374.01	421.30
374.21	498.53
374.40	402.57
374.60	388.53
374.79	416.62
374.99	402.57
375.19	374.49
375.38	355.76
375.58	381.51
375.78	421.30
375.97	437.68
376.17	451.72
376.37	397.89
376.56	421.30
376.76	362.78
376.95	435.34
377.15	425.98
377.35	353.42
377.54	400.23
377.74	407.25
377.93	351.08
378.13	362.78
378.33	437.68
378.52	346.40
378.72	416.62
378.91	461.09
379.11	404.91
379.31	456.40
379.50	372.15
379.70	390.87
379.89	456.40
380.09	407.25
380.28	393.21
380.48	454.06
380.68	468.11
380.87	362.78
381.07	428.32
381.26	421.30
381.46	397.89
381.65	414.27
381.85	428.32
382.04	404.91
382.24	407.25
382.43	325.33
382.63	386.19
382.83	404.91
383.02	374.49
383.22	393.21
383.41	411.93
383.61	430.66
383.80	451.72
384.00	369.80
384.19	458.74
384.39	407.25
384.58	456.40
384.78	400.23
384.97	444.70
385.17	397.89
385.36	428.32
385.56	397.89
385.75	327.68
385.95	351.08
386.14	388.53
386.34	407.25
386.53	451.72
386.72	447.04
386.92	468.11
387.11	367.46
387.31	449.38
387.50	379.17
387.70	428.32
387.89	393.21
388.09	409.59
388.28	365.12
388.48	423.64
388.67	407.25
388.86	421.30
389.06	360.44
389.25	430.66
389.45	383.85
389.64	397.89
389.84	388.53
390.03	414.27
390.22	486.83
390.42	379.17
390.61	430.66
390.81	379.17
391.00	421.30
391.19	402.57
391.39	430.66
391.58	449.38
391.78	411.93
391.97	365.12
392.16	388.53
392.36	428.32
392.55	454.06
392.75	430.66
392.94	355.76
393.13	390.87
393.33	383.85
393.52	388.53
393.71	428.32
393.91	367.46
394.10	360.44
394.29	409.59
394.49	414.27
394.68	425.98
394.88	430.66
395.07	451.72
395.26	430.66
395.46	351.08
395.65	421.30
395.84	418.96
396.04	428.32
396.23	444.70
396.42	386.19
396.62	404.91
396.81	416.62
397.00	386.19
397.19	374.49
397.39	395.55
397.58	425.98
397.77	386.19
397.97	395.55
398.16	395.55
398.35	437.68
398.55	400.23
398.74	390.87
398.93	407.25
399.12	430.66
399.32	433.00
399.51	454.06
399.70	461.09
399.90	411.93
400.09	344.06
400.28	409.59
400.47	360.44
400.67	456.40
400.86	372.15
401.05	444.70
401.24	388.53
401.44	470.45
401.63	461.09
401.82	393.21
402.01	383.85
402.21	428.32
402.40	409.59
402.59	393.21
402.78	496.19
402.97	360.44
403.17	367.46
403.36	440.02
403.55	411.93
403.74	447.04
403.93	451.72
404.13	442.36
404.32	421.30
404.51	444.70
404.70	430.66
404.89	339.38
405.09	477.47
405.28	421.30
405.47	393.21
405.66	404.91
405.85	451.72
406.05	421.30
406.24	411.93
406.43	479.81
406.62	454.06
406.81	477.47
407.00	313.63
407.20	367.46
407.39	479.81
407.58	416.62
407.77	444.70
407.96	444.70
408.15	411.93
408.34	369.80
408.54	381.51
408.73	409.59
408.92	411.93
409.11	334.70
409.30	458.74
409.49	407.25
409.68	393.21
409.87	297.25
410.07	348.74
410.26	404.91
410.45	379.17
410.64	367.46
410.83	379.17
411.02	402.57
411.21	409.59
411.40	444.70
411.59	388.53
411.78	374.49
411.98	400.23
412.17	341.72
412.36	397.89
412.55	395.55
412.74	421.30
412.93	383.85
413.12	435.34
413.31	402.57
413.50	388.53
413.69	400.23
413.88	414.27
414.07	386.19
414.26	379.17
414.45	416.62
414.64	447.04
414.83	454.06
415.02	449.38
415.22	421.30
415.41	369.80
415.60	409.59
415.79	407.25
415.98	411.93
416.17	447.04
416.36	393.21
416.55	299.59
416.74	365.12
416.93	383.85
417.12	386.19
417.31	397.89
417.50	367.46
417.69	477.47
417.88	435.34
418.07	386.19
418.26	423.64
418.45	358.10
418.64	470.45
418.83	463.43
419.02	365.12
419.21	456.40
419.39	451.72
419.58	414.27
419.77	498.53
419.96	447.04
420.15	524.28
420.34	444.70
420.53	409.59
420.72	393.21
420.91	355.76
421.10	423.64
421.29	444.70
421.48	416.62
421.67	411.93
421.86	400.23
422.05	374.49
422.24	362.78
422.43	433.00
422.61	400.23
422.80	428.32
422.99	388.53
423.18	339.38
423.37	367.46
423.56	407.25
423.75	421.30
423.94	395.55
424.13	423.64
424.32	430.66
424.50	379.17
424.69	362.78
424.88	430.66
425.07	479.81
425.26	386.19
425.45	402.57
425.64	425.98
425.83	379.17
426.01	416.62
426.20	374.49
426.39	386.19
426.58	353.42
426.77	351.08
426.96	507.90
427.15	369.80
427.33	409.59
427.52	365.12
427.71	484.49
427.90	425.98
428.09	404.91
428.28	390.87
428.46	355.76
428.65	379.17
428.84	428.32
429.03	475.13
429.22	414.27
429.40	358.10
429.59	367.46
429.78	465.77
429.97	402.57
430.16	416.62
430.34	369.80
430.53	411.93
430.72	379.17
430.91	503.22
431.10	421.30
431.28	348.74
431.47	409.59
431.66	472.79
431.85	440.02
432.03	341.72
432.22	400.23
432.41	344.06
432.60	409.59
432.79	393.21
432.97	404.91
433.16	400.23
433.35	395.55
433.54	454.06
433.72	400.23
433.91	416.62
434.10	374.49
434.28	369.80
434.47	379.17
434.66	458.74
434.85	395.55
435.03	304.27
435.22	425.98
435.41	433.00
435.59	372.15
435.78	344.06
435.97	451.72
436.16	423.64
436.34	407.25
436.53	465.77
436.72	397.89
436.90	458.74
437.09	477.47
437.28	411.93
437.46	458.74
437.65	388.53
437.84	381.51
438.02	421.30
438.21	411.93
438.40	337.04
438.58	353.42
438.77	472.79
438.96	440.02
439.14	390.87
439.33	393.21
439.52	348.74
439.70	428.32
439.89	376.83
440.08	404.91
440.26	374.49
440.45	400.23
440.63	362.78
440.82	435.34
441.01	472.79
441.19	360.44
441.38	304.27
441.57	416.62
441.75	468.11
441.94	423.64
442.12	374.49
442.31	409.59
442.50	463.43
442.68	442.36
442.87	456.40
443.05	365.12
443.24	425.98
443.43	470.45
443.61	376.83
443.80	315.97
443.98	451.72
444.17	341.72
444.35	442.36
444.54	442.36
444.73	402.57
444.91	437.68
445.10	437.68
445.28	437.68
445.47	433.00
445.65	479.81
445.84	418.96
446.02	414.27
446.21	372.15
446.39	400.23
446.58	400.23
446.77	428.32
446.95	376.83
447.14	477.47
447.32	423.64
447.51	346.40
447.69	468.11
447.88	472.79
448.06	416.62
448.25	411.93
448.43	475.13
448.62	421.30
448.80	395.55
448.99	414.27
449.17	365.12
449.36	388.53
449.54	458.74
449.73	400.23
449.91	374.49
450.10	451.72
450.28	463.43
450.46	423.64
450.65	407.25
450.83	360.44
451.02	440.02
451.20	383.85
451.39	418.96
451.57	404.91
451.76	393.21
451.94	397.89
452.13	437.68
452.31	402.57
452.49	444.70
452.68	440.02
452.86	414.27
453.05	421.30
453.23	444.70
453.42	449.38
453.60	334.70
453.78	454.06
453.97	351.08
454.15	409.59
454.34	435.34
454.52	430.66
454.70	465.77
454.89	482.15
455.07	374.49
455.26	411.93
455.44	433.00
455.62	411.93
455.81	379.17
455.99	407.25
456.17	470.45
456.36	397.89
456.54	395.55
456.73	428.32
456.91	430.66
457.09	477.47
457.28	344.06
457.46	425.98
457.64	440.02
457.83	416.62
458.01	447.04
458.19	407.25
458.38	400.23
458.56	397.89
458.74	372.15
458.93	433.00
459.11	456.40
459.29	437.68
459.48	388.53
459.66	433.00
459.84	479.81
460.03	512.58
460.21	395.55
460.39	402.57
460.57	437.68
460.76	365.12
460.94	468.11
461.12	440.02
461.31	456.40
461.49	383.85
461.67	393.21
461.85	496.19
462.04	411.93
462.22	802.80
462.40	475.13
462.59	421.30
462.77	447.04
462.95	390.87
463.13	418.96
463.32	372.15
463.50	498.53
463.68	355.76
463.86	393.21
464.05	418.96
464.23	479.81
464.41	456.40
464.59	407.25
464.78	433.00
464.96	355.76
465.14	423.64
465.32	339.38
465.50	390.87
465.69	423.64
465.87	379.17
466.05	393.21
466.23	447.04
466.41	362.78
466.60	386.19
466.78	472.79
466.96	447.04
467.14	404.91
467.32	461.09
467.51	468.11
467.69	411.93
467.87	465.77
468.05	416.62
468.23	477.47
468.41	393.21
468.60	409.59
468.78	423.64
468.96	425.98
469.14	433.00
469.32	395.55
469.50	461.09
469.69	447.04
469.87	374.49
470.05	435.34
470.23	456.40
470.41	348.74
470.59	397.89
470.77	341.72
470.95	411.93
471.14	433.00
471.32	407.25
471.50	397.89
471.68	442.36
471.86	383.85
472.04	360.44
472.22	418.96
472.40	479.81
472.58	393.21
472.77	456.40
472.95	332.36
473.13	379.17
473.31	440.02
473.49	493.85
473.67	409.59
473.85	325.33
474.03	400.23
474.21	379.17
474.39	486.83
474.57	540.66
474.75	454.06
474.93	376.83
475.12	404.91
475.30	447.04
475.48	374.49
475.66	433.00
475.84	430.66
476.02	402.57
476.20	428.32
476.38	472.79
476.56	447.04
476.74	442.36
476.92	383.85
477.10	376.83
477.28	379.17
477.46	447.04
477.64	421.30
477.82	428.32
478.00	458.74
478.18	409.59
478.36	440.02
478.54	395.55
478.72	402.57
478.90	418.96
479.08	444.70
479.26	388.53
479.44	425.98
479.62	409.59
479.80	388.53
479.98	416.62
480.16	433.00
480.34	369.80
480.52	409.59
480.70	442.36
480.88	423.64
481.06	395.55
481.24	430.66
481.41	400.23
481.59	423.64
481.77	454.06
481.95	372.15
482.13	440.02
482.31	486.83
482.49	390.87
482.67	365.12
482.85	500.87
483.03	376.83
483.21	327.68
483.39	351.08
483.57	367.46
483.74	458.74
483.92	458.74
484.10	414.27
484.28	301.93
484.46	437.68
484.64	374.49
484.82	400.23
485.00	409.59
485.18	416.62
485.35	397.89
485.53	383.85
485.71	454.06
485.89	449.38
486.07	407.25
486.25	463.43
486.43	381.51
486.61	409.59
486.78	409.59
486.96	433.00
487.14	341.72
487.32	397.89
487.50	461.09
487.68	425.98
487.85	409.59
488.03	386.19
488.21	444.70
488.39	468.11
488.57	454.06
488.75	402.57
488.92	437.68
489.10	397.89
489.28	447.04
489.46	437.68
489.64	442.36
489.81	369.80
489.99	435.34
490.17	447.04
490.35	489.17
490.53	416.62
490.70	414.27
490.88	425.98
491.06	383.85
491.24	449.38
491.41	435.34
491.59	496.19
491.77	423.64
491.95	447.04
492.13	400.23
492.30	423.64
492.48	369.80
492.66	454.06
492.84	374.49
493.01	411.93
493.19	395.55
493.37	468.11
493.54	418.96
493.72	402.57
493.90	381.51
494.08	435.34
494.25	397.89
494.43	477.47
494.61	369.80
494.79	463.43
494.96	376.83
495.14	461.09
495.32	348.74
495.49	395.55
495.67	433.00
495.85	409.59
496.02	383.85
496.20	458.74
496.38	489.17
496.55	496.19
496.73	447.04
496.91	456.40
497.09	461.09
497.26	423.64
497.44	428.32
497.62	397.89
497.79	458.74
497.97	430.66
498.14	435.34
498.32	430.66
498.50	397.89
498.67	379.17
498.85	437.68
499.03	407.25
499.20	411.93
499.38	421.30
499.56	355.76
499.73	435.34
499.91	409.59
500.08	409.59
500.26	423.64
500.44	433.00
500.61	444.70
500.79	353.42
500.97	465.77
501.14	482.15
501.32	421.30
501.49	409.59
501.67	411.93
501.84	402.57
502.02	421.30
502.20	451.72
502.37	376.83
502.55	428.32
502.72	414.27
502.90	346.40
503.07	372.15
503.25	433.00
503.43	411.93
503.60	386.19
503.78	447.04
503.95	505.56
504.13	421.30
504.30	444.70
504.48	428.32
504.65	376.83
504.83	404.91
505.01	430.66
505.18	337.04
505.36	390.87
505.53	402.57
505.71	358.10
505.88	315.97
506.06	421.30
506.23	407.25
506.41	400.23
506.58	421.30
506.76	388.53
506.93	423.64
507.11	423.64
507.28	393.21
507.46	411.93
507.63	376.83
507.81	454.06
507.98	468.11
508.16	409.59
508.33	383.85
508.50	388.53
508.68	386.19
508.85	386.19
509.03	395.55
509.20	383.85
509.38	463.43
509.55	400.23
509.73	465.77
509.90	472.79
510.08	390.87
510.25	477.47
510.42	444.70
510.60	346.40
510.77	454.06
510.95	447.04
511.12	418.96
511.30	402.57
511.47	425.98
511.64	468.11
511.82	407.25
511.99	428.32
512.17	374.49
512.34	311.29
512.51	421.30
512.69	414.27
512.86	472.79
513.04	440.02
513.21	386.19
513.38	355.76
513.56	430.66
513.73	383.85
513.90	400.23
514.08	374.49
514.25	416.62
514.43	416.62
514.60	388.53
514.77	374.49
514.95	407.25
515.12	374.49
515.29	390.87
515.47	437.68
515.64	404.91
515.81	402.57
515.99	451.72
516.16	383.85
516.33	425.98
516.51	325.33
516.68	369.80
516.85	400.23
517.03	374.49
517.20	447.04
517.37	449.38
517.54	381.51
517.72	383.85
517.89	444.70
518.06	365.12
518.24	425.98
518.41	393.21
518.58	411.93
518.75	379.17
518.93	435.34
519.10	418.96
519.27	416.62
519.45	388.53
519.62	430.66
519.79	440.02
519.96	463.43
520.14	447.04
520.31	353.42
520.48	465.77
520.65	531.30
520.83	414.27
521.00	386.19
521.17	404.91
521.34	458.74
521.52	500.87
521.69	414.27
521.86	512.58
522.03	369.80
522.20	468.11
522.38	463.43
522.55	461.09
522.72	423.64
522.89	388.53
523.07	484.49
523.24	381.51
523.41	472.79
523.58	353.42
523.75	430.66
523.92	393.21
524.10	430.66
524.27	388.53
524.44	400.23
524.61	404.91
524.78	395.55
524.96	482.15
525.13	447.04
525.30	386.19
525.47	465.77
525.64	397.89
525.81	416.62
525.98	477.47
526.16	454.06
526.33	503.22
526.50	409.59
526.67	379.17
526.84	421.30
527.01	414.27
527.18	346.40
527.36	430.66
527.53	337.04
527.70	482.15
527.87	428.32
528.04	482.15
528.21	435.34
528.38	367.46
528.55	500.87
528.72	404.91
528.89	411.93
529.07	428.32
529.24	428.32
529.41	423.64
529.58	423.64
529.75	449.38
529.92	386.19
530.09	428.32
530.26	421.30
530.43	386.19
530.60	372.15
530.77	379.17
530.94	440.02
531.11	489.17
531.28	484.49
531.46	346.40
531.63	390.87
531.80	521.94
531.97	442.36
532.14	376.83
532.31	500.87
532.48	402.57
532.65	449.38
532.82	337.04
532.99	442.36
533.16	360.44
533.33	374.49
533.50	414.27
533.67	400.23
533.84	404.91
534.01	461.09
534.18	425.98
534.35	397.89
534.52	421.30
534.69	388.53
534.86	416.62
535.03	465.77
535.20	407.25
535.37	444.70
535.54	470.45
535.71	362.78
535.88	414.27
536.05	421.30
536.22	442.36
536.38	414.27
536.55	423.64
536.72	435.34
536.89	374.49
537.06	381.51
537.23	421.30
537.40	440.02
537.57	383.85
537.74	421.30
537.91	339.38
538.08	425.98
538.25	456.40
538.42	390.87
538.59	341.72
538.75	498.53
538.92	423.64
539.09	503.22
539.26	479.81
539.43	447.04
539.60	428.32
539.77	409.59
539.94	400.23
540.11	421.30
540.28	468.11
540.44	449.38
540.61	444.70
540.78	395.55
540.95	395.55
541.12	491.51
541.29	435.34
541.46	411.93
541.62	430.66
541.79	402.57
541.96	400.23
542.13	404.91
542.30	341.72
542.47	386.19
542.63	383.85
542.80	423.64
542.97	341.72
543.14	489.17
543.31	430.66
543.48	500.87
543.64	433.00
543.81	454.06
543.98	428.32
544.15	395.55
544.32	475.13
544.48	397.89
544.65	386.19
544.82	454.06
544.99	512.58
545.16	404.91
545.32	433.00
545.49	383.85
545.66	386.19
545.83	414.27
546.00	428.32
546.16	442.36
546.33	397.89
546.50	468.11
546.67	358.10
546.83	421.30
547.00	447.04
547.17	433.00
547.34	484.49
547.50	355.76
547.67	388.53
547.84	425.98
548.00	409.59
548.17	433.00
548.34	423.64
548.51	472.79
548.67	470.45
548.84	393.21
549.01	444.70
549.18	468.11
549.34	332.36
549.51	325.33
549.68	421.30
549.84	402.57
550.01	463.43
550.18	463.43
550.34	437.68
550.51	456.40
550.68	437.68
550.84	383.85
551.01	449.38
551.18	402.57
551.34	482.15
551.51	428.32
551.68	395.55
551.84	400.23
552.01	376.83
552.18	402.57
552.34	418.96
552.51	404.91
552.68	386.19
552.84	407.25
553.01	440.02
553.18	430.66
553.34	440.02
553.51	395.55
553.67	404.91
553.84	393.21
554.01	428.32
554.17	407.25
554.34	390.87
554.51	465.77
554.67	472.79
554.84	475.13
555.00	433.00
555.17	386.19
555.33	456.40
555.50	479.81
555.67	360.44
555.83	367.46
556.00	428.32
556.16	533.64
556.33	418.96
556.50	423.64
556.66	348.74
556.83	341.72
556.99	486.83
557.16	402.57
557.32	430.66
557.49	362.78
557.65	325.33
557.82	388.53
557.98	428.32
558.15	379.17
558.32	376.83
558.48	400.23
558.65	344.06
558.81	367.46
558.98	372.15
559.14	386.19
559.31	463.43
559.47	433.00
559.64	444.70
559.80	433.00
559.97	381.51
560.13	367.46
560.30	339.38
560.46	416.62
560.63	416.62
560.79	397.89
560.96	526.62
561.12	418.96
561.29	437.68
561.45	411.93
561.61	440.02
561.78	484.49
561.94	374.49
562.11	348.74
562.27	433.00
562.44	442.36
562.60	437.68
562.77	393.21
562.93	477.47
563.10	416.62
563.26	430.66
563.42	381.51
563.59	390.87
563.75	428.32
563.92	477.47
564.08	440.02
564.24	507.90
564.41	423.64
564.57	430.66
564.74	374.49
564.90	451.72
565.07	388.53
565.23	484.49
565.39	388.53
565.56	421.30
565.72	386.19
565.88	451.72
566.05	407.25
566.21	348.74
566.38	428.32
566.54	428.32
566.70	421.30
566.87	461.09
567.03	402.57
567.19	484.49
567.36	423.64
567.52	332.36
567.68	475.13
567.85	435.34
568.01	447.04
568.17	379.17
568.34	454.06
568.50	414.27
568.66	428.32
568.83	454.06
568.99	402.57
569.15	449.38
569.32	447.04
569.48	472.79
569.64	327.68
569.81	376.83
569.97	388.53
570.13	351.08
570.30	400.23
570.46	346.40
570.62	414.27
570.78	407.25
570.95	411.93
571.11	402.57
571.27	383.85
571.43	409.59
571.60	456.40
571.76	430.66
571.92	451.72
572.09	390.87
572.25	416.62
572.41	388.53
572.57	346.40
572.74	442.36
572.90	367.46
573.06	444.70
573.22	440.02
573.38	414.27
573.55	425.98
573.71	505.56
573.87	414.27
574.03	346.40
574.20	451.72
574.36	433.00
574.52	402.57
574.68	395.55
574.84	491.51
575.01	388.53
575.17	404.91
575.33	428.32
575.49	433.00
575.65	433.00
575.82	477.47
575.98	507.90
576.14	425.98
576.30	425.98
576.46	458.74
576.62	435.34
576.79	386.19
576.95	425.98
577.11	425.98
577.27	386.19
577.43	409.59
577.59	472.79
577.75	444.70
577.92	465.77
578.08	475.13
578.24	383.85
578.40	470.45
578.56	433.00
578.72	428.32
578.88	447.04
579.04	411.93
579.21	433.00
579.37	397.89
579.53	428.32
579.69	472.79
579.85	411.93
580.01	418.96
580.17	400.23
580.33	461.09
580.49	358.10
580.65	386.19
580.82	425.98
580.98	393.21
581.14	372.15
581.30	435.34
581.46	440.02
581.62	451.72
581.78	388.53
581.94	372.15
582.10	416.62
582.26	418.96
582.42	381.51
582.58	411.93
582.74	374.49
582.90	407.25
583.06	451.72
583.22	404.91
583.38	381.51
583.54	428.32
583.70	416.62
583.86	393.21
584.02	376.83
584.18	482.15
584.34	430.66
584.50	407.25
584.66	374.49
584.82	322.99
584.98	393.21
585.14	404.91
585.30	484.49
585.46	400.23
585.62	428.32
585.78	369.80
585.94	433.00
586.10	428.32
586.26	355.76
586.42	374.49
586.58	440.02
586.74	437.68
586.90	421.30
587.06	428.32
587.22	355.76
587.38	418.96
587.54	383.85
587.70	458.74
587.86	472.79
588.02	407.25
588.18	468.11
588.34	404.91
588.49	421.30
588.65	475.13
588.81	404.91
588.97	355.76
589.13	447.04
589.29	411.93
589.45	486.83
589.61	334.70
589.77	496.19
589.93	409.59
590.08	423.64
590.24	456.40
590.40	440.02
590.56	440.02
590.72	416.62
590.88	416.62
591.04	451.72
591.20	369.80
591.35	472.79
591.51	379.17
591.67	505.56
591.83	287.89
591.99	348.74
592.15	470.45
592.31	440.02
592.46	451.72
592.62	430.66
592.78	437.68
592.94	358.10
593.10	390.87
593.26	358.10
593.41	463.43
593.57	437.68
593.73	425.98
593.89	461.09
594.05	416.62
594.20	390.87
594.36	430.66
594.52	425.98
594.68	346.40
594.84	465.77
594.99	447.04
595.15	414.27
595.31	500.87
595.47	425.98
595.62	388.53
595.78	435.34
595.94	407.25
596.10	418.96
596.25	358.10
596.41	451.72
596.57	395.55
596.73	411.93
596.88	402.57
597.04	397.89
597.20	425.98
597.36	440.02
597.51	379.17
597.67	411.93
597.83	400.23
597.99	400.23
598.14	418.96
598.30	475.13
598.46	402.57
598.61	379.17
598.77	367.46
598.93	367.46
599.09	440.02
599.24	435.34
599.40	449.38
599.56	383.85
599.71	416.62
599.87	388.53
600.03	456.40
600.18	327.68
600.34	421.30
600.50	367.46
600.65	402.57
600.81	442.36
600.97	423.64
601.12	383.85
601.28	435.34
601.44	372.15
601.59	362.78
601.75	491.51
601.91	449.38
602.06	442.36
602.22	503.22
602.37	430.66
602.53	376.83
602.69	472.79
602.84	423.64
603.00	430.66
603.16	416.62
603.31	386.19
603.47	353.42
603.62	447.04
603.78	435.34
603.94	383.85
604.09	369.80
604.25	484.49
604.40	423.64
604.56	418.96
604.71	383.85
604.87	414.27
605.03	383.85
605.18	409.59
605.34	397.89
605.49	423.64
605.65	414.27
605.80	379.17
605.96	409.59
606.12	428.32
606.27	458.74
606.43	482.15
606.58	351.08
606.74	484.49
606.89	365.12
607.05	465.77
607.20	444.70
607.36	421.30
607.51	376.83
607.67	414.27
607.82	395.55
607.98	409.59
608.13	496.19
608.29	390.87
608.44	397.89
608.60	393.21
608.75	395.55
608.91	390.87
609.06	449.38
609.22	444.70
609.37	421.30
609.53	402.57
609.68	393.21
609.84	393.21
609.99	423.64
610.15	421.30
