SpectraSuite Data File
++++++++++++++++++++++++++++++++++++
Date: Fri Oct 25 12:10:49 EDT 2013
User: price-jones
Dark Spectrum Present: No
Reference Spectrum Present: No
Number of Sampled Component Spectra: 1
Spectrometers: USB2+H05261
Integration Time (usec): 100000 (USB2+H05261)
Spectra Averaged: 1 (USB2+H05261)
Boxcar Smoothing: 0 (USB2+H05261)
Correct for Electrical Dark: No (USB2+H05261)
Strobe/Lamp Enabled: No (USB2+H05261)
Correct for Detector Non-linearity: No (USB2+H05261)
Correct for Stray Light: No (USB2+H05261)
Number of Pixels in Processed Spectrum: 2048
>>>>>Begin Processed Spectral Data<<<<<
365.73	327.68
365.92	327.68
366.12	327.68
366.32	227.03
366.52	262.14
366.72	243.42
366.91	201.29
367.11	313.63
367.31	229.37
367.51	236.39
367.70	236.39
367.90	283.20
368.10	290.23
368.30	222.35
368.49	224.69
368.69	278.52
368.89	248.10
369.09	191.92
369.28	257.46
369.48	210.65
369.68	255.12
369.87	248.10
370.07	348.74
370.27	358.10
370.47	404.91
370.66	278.52
370.86	372.15
371.06	341.72
371.25	379.17
371.45	358.10
371.65	353.42
371.84	376.83
372.04	360.44
372.24	376.83
372.44	411.93
372.63	411.93
372.83	491.51
373.03	440.02
373.22	341.72
373.42	379.17
373.62	386.19
373.81	425.98
374.01	486.83
374.21	447.04
374.40	437.68
374.60	423.64
374.79	472.79
374.99	404.91
375.19	395.55
375.38	510.24
375.58	376.83
375.78	418.96
375.97	505.56
376.17	458.74
376.37	428.32
376.56	428.32
376.76	379.17
376.95	386.19
377.15	386.19
377.35	479.81
377.54	484.49
377.74	388.53
377.93	367.46
378.13	390.87
378.33	404.91
378.52	402.57
378.72	500.87
378.91	407.25
379.11	386.19
379.31	362.78
379.50	442.36
379.70	468.11
379.89	395.55
380.09	395.55
380.28	365.12
380.48	465.77
380.68	358.10
380.87	430.66
381.07	472.79
381.26	440.02
381.46	416.62
381.65	486.83
381.85	386.19
382.04	447.04
382.24	407.25
382.43	351.08
382.63	365.12
382.83	355.76
383.02	395.55
383.22	451.72
383.41	421.30
383.61	400.23
383.80	491.51
384.00	388.53
384.19	337.04
384.39	390.87
384.58	372.15
384.78	327.68
384.97	390.87
385.17	379.17
385.36	374.49
385.56	383.85
385.75	449.38
385.95	365.12
386.14	416.62
386.34	416.62
386.53	395.55
386.72	362.78
386.92	346.40
387.11	437.68
387.31	404.91
387.50	397.89
387.70	367.46
387.89	404.91
388.09	465.77
388.28	414.27
388.48	358.10
388.67	461.09
388.86	367.46
389.06	447.04
389.25	482.15
389.45	374.49
389.64	407.25
389.84	409.59
390.03	402.57
390.22	421.30
390.42	428.32
390.61	402.57
390.81	386.19
391.00	416.62
391.19	395.55
391.39	472.79
391.58	458.74
391.78	451.72
391.97	381.51
392.16	379.17
392.36	411.93
392.55	397.89
392.75	383.85
392.94	341.72
393.13	437.68
393.33	433.00
393.52	430.66
393.71	374.49
393.91	411.93
394.10	411.93
394.29	407.25
394.49	393.21
394.68	353.42
394.88	404.91
395.07	437.68
395.26	425.98
395.46	458.74
395.65	393.21
395.84	454.06
396.04	470.45
396.23	430.66
396.42	390.87
396.62	369.80
396.81	421.30
397.00	395.55
397.19	383.85
397.39	376.83
397.58	409.59
397.77	374.49
397.97	456.40
398.16	470.45
398.35	386.19
398.55	423.64
398.74	367.46
398.93	421.30
399.12	400.23
399.32	393.21
399.51	390.87
399.70	376.83
399.90	437.68
400.09	353.42
400.28	421.30
400.47	308.95
400.67	449.38
400.86	393.21
401.05	465.77
401.24	388.53
401.44	383.85
401.63	388.53
401.82	456.40
402.01	411.93
402.21	461.09
402.40	388.53
402.59	383.85
402.78	414.27
402.97	397.89
403.17	388.53
403.36	400.23
403.55	409.59
403.74	414.27
403.93	416.62
404.13	425.98
404.32	367.46
404.51	369.80
404.70	491.51
404.89	430.66
405.09	526.62
405.28	393.21
405.47	425.98
405.66	416.62
405.85	376.83
406.05	447.04
406.24	400.23
406.43	421.30
406.62	397.89
406.81	444.70
407.00	447.04
407.20	451.72
407.39	376.83
407.58	388.53
407.77	451.72
407.96	440.02
408.15	407.25
408.34	346.40
408.54	346.40
408.73	465.77
408.92	440.02
409.11	425.98
409.30	468.11
409.49	423.64
409.68	404.91
409.87	383.85
410.07	463.43
410.26	433.00
410.45	390.87
410.64	379.17
410.83	440.02
411.02	421.30
411.21	449.38
411.40	477.47
411.59	437.68
411.78	404.91
411.98	388.53
412.17	374.49
412.36	395.55
412.55	416.62
412.74	421.30
412.93	484.49
413.12	374.49
413.31	386.19
413.50	418.96
413.69	400.23
413.88	430.66
414.07	458.74
414.26	440.02
414.45	423.64
414.64	470.45
414.83	400.23
415.02	322.99
415.22	379.17
415.41	386.19
415.60	411.93
415.79	428.32
415.98	461.09
416.17	365.12
416.36	451.72
416.55	369.80
416.74	376.83
416.93	428.32
417.12	404.91
417.31	397.89
417.50	383.85
417.69	379.17
417.88	360.44
418.07	402.57
418.26	393.21
418.45	423.64
418.64	440.02
418.83	444.70
419.02	461.09
419.21	461.09
419.39	423.64
419.58	454.06
419.77	451.72
419.96	442.36
420.15	425.98
420.34	367.46
420.53	362.78
420.72	390.87
420.91	381.51
421.10	425.98
421.29	407.25
421.48	435.34
421.67	425.98
421.86	411.93
422.05	493.85
422.24	365.12
422.43	386.19
422.61	372.15
422.80	374.49
422.99	341.72
423.18	437.68
423.37	395.55
423.56	386.19
423.75	475.13
423.94	423.64
424.13	437.68
424.32	383.85
424.50	411.93
424.69	416.62
424.88	447.04
425.07	475.13
425.26	390.87
425.45	461.09
425.64	395.55
425.83	442.36
426.01	493.85
426.20	451.72
426.39	383.85
426.58	404.91
426.77	374.49
426.96	388.53
427.15	404.91
427.33	433.00
427.52	388.53
427.71	353.42
427.90	381.51
428.09	404.91
428.28	376.83
428.46	374.49
428.65	388.53
428.84	421.30
429.03	444.70
429.22	447.04
429.40	463.43
429.59	428.32
429.78	465.77
429.97	447.04
430.16	428.32
430.34	435.34
430.53	477.47
430.72	390.87
430.91	433.00
431.10	383.85
431.28	416.62
431.47	409.59
431.66	369.80
431.85	430.66
432.03	449.38
432.22	404.91
432.41	442.36
432.60	428.32
432.79	428.32
432.97	442.36
433.16	444.70
433.35	374.49
433.54	395.55
433.72	510.24
433.91	433.00
434.10	365.12
434.28	411.93
434.47	351.08
434.66	402.57
434.85	395.55
435.03	496.19
435.22	440.02
435.41	433.00
435.59	475.13
435.78	491.51
435.97	400.23
436.16	449.38
436.34	360.44
436.53	397.89
436.72	402.57
436.90	442.36
437.09	449.38
437.28	400.23
437.46	423.64
437.65	386.19
437.84	442.36
438.02	379.17
438.21	362.78
438.40	372.15
438.58	414.27
438.77	430.66
438.96	346.40
439.14	435.34
439.33	418.96
439.52	421.30
439.70	404.91
439.89	468.11
440.08	386.19
440.26	388.53
440.45	386.19
440.63	388.53
440.82	449.38
441.01	425.98
441.19	437.68
441.38	339.38
441.57	416.62
441.75	463.43
441.94	447.04
442.12	372.15
442.31	409.59
442.50	414.27
442.68	440.02
442.87	395.55
443.05	395.55
443.24	477.47
443.43	465.77
443.61	346.40
443.80	411.93
443.98	379.17
444.17	454.06
444.35	484.49
444.54	425.98
444.73	386.19
444.91	353.42
445.10	376.83
445.28	416.62
445.47	365.12
445.65	421.30
445.84	451.72
446.02	393.21
446.21	409.59
446.39	444.70
446.58	440.02
446.77	461.09
446.95	414.27
447.14	444.70
447.32	386.19
447.51	367.46
447.69	416.62
447.88	367.46
448.06	465.77
448.25	386.19
448.43	374.49
448.62	409.59
448.80	393.21
448.99	388.53
449.17	477.47
449.36	379.17
449.54	400.23
449.73	381.51
449.91	358.10
450.10	416.62
450.28	414.27
450.46	367.46
450.65	444.70
450.83	388.53
451.02	376.83
451.20	393.21
451.39	418.96
451.57	383.85
451.76	355.76
451.94	430.66
452.13	386.19
452.31	435.34
452.49	461.09
452.68	367.46
452.86	416.62
453.05	475.13
453.23	428.32
453.42	381.51
453.60	381.51
453.78	458.74
453.97	386.19
454.15	362.78
454.34	360.44
454.52	397.89
454.70	376.83
454.89	477.47
455.07	402.57
455.26	404.91
455.44	374.49
455.62	388.53
455.81	407.25
455.99	423.64
456.17	491.51
456.36	372.15
456.54	397.89
456.73	461.09
456.91	344.06
457.09	407.25
457.28	447.04
457.46	414.27
457.64	409.59
457.83	433.00
458.01	435.34
458.19	449.38
458.38	402.57
458.56	468.11
458.74	374.49
458.93	428.32
459.11	430.66
459.29	341.72
459.48	435.34
459.66	430.66
459.84	383.85
460.03	402.57
460.21	425.98
460.39	458.74
460.57	451.72
460.76	400.23
460.94	437.68
461.12	411.93
461.31	470.45
461.49	486.83
461.67	423.64
461.85	472.79
462.04	386.19
462.22	741.95
462.40	404.91
462.59	463.43
462.77	372.15
462.95	376.83
463.13	437.68
463.32	381.51
463.50	404.91
463.68	365.12
463.86	416.62
464.05	337.04
464.23	358.10
464.41	334.70
464.59	425.98
464.78	397.89
464.96	355.76
465.14	458.74
465.32	418.96
465.50	428.32
465.69	376.83
465.87	372.15
466.05	365.12
466.23	416.62
466.41	383.85
466.60	386.19
466.78	379.17
466.96	404.91
467.14	414.27
467.32	454.06
467.51	395.55
467.69	472.79
467.87	442.36
468.05	454.06
468.23	454.06
468.41	454.06
468.60	416.62
468.78	374.49
468.96	444.70
469.14	451.72
469.32	367.46
469.50	416.62
469.69	425.98
469.87	423.64
470.05	468.11
470.23	386.19
470.41	449.38
470.59	484.49
470.77	411.93
470.95	362.78
471.14	442.36
471.32	365.12
471.50	449.38
471.68	421.30
471.86	486.83
472.04	351.08
472.22	418.96
472.40	348.74
472.58	421.30
472.77	402.57
472.95	372.15
473.13	503.22
473.31	418.96
473.49	344.06
473.67	369.80
473.85	477.47
474.03	358.10
474.21	437.68
474.39	477.47
474.57	472.79
474.75	397.89
474.93	332.36
475.12	423.64
475.30	428.32
475.48	411.93
475.66	411.93
475.84	428.32
476.02	367.46
476.20	381.51
476.38	388.53
476.56	521.94
476.74	472.79
476.92	416.62
477.10	404.91
477.28	416.62
477.46	353.42
477.64	390.87
477.82	409.59
478.00	437.68
478.18	372.15
478.36	388.53
478.54	346.40
478.72	418.96
478.90	440.02
479.08	447.04
479.26	367.46
479.44	351.08
479.62	351.08
479.80	351.08
479.98	369.80
480.16	442.36
480.34	418.96
480.52	423.64
480.70	400.23
480.88	409.59
481.06	386.19
481.24	451.72
481.41	418.96
481.59	409.59
481.77	409.59
481.95	365.12
482.13	425.98
482.31	451.72
482.49	428.32
482.67	440.02
482.85	400.23
483.03	416.62
483.21	362.78
483.39	386.19
483.57	390.87
483.74	367.46
483.92	409.59
484.10	416.62
484.28	479.81
484.46	468.11
484.64	437.68
484.82	444.70
485.00	414.27
485.18	414.27
485.35	418.96
485.53	337.04
485.71	414.27
485.89	383.85
486.07	397.89
486.25	442.36
486.43	355.76
486.61	456.40
486.78	475.13
486.96	461.09
487.14	386.19
487.32	386.19
487.50	376.83
487.68	433.00
487.85	416.62
488.03	418.96
488.21	374.49
488.39	332.36
488.57	423.64
488.75	437.68
488.92	528.96
489.10	423.64
489.28	475.13
489.46	414.27
489.64	416.62
489.81	376.83
489.99	390.87
490.17	421.30
490.35	498.53
490.53	416.62
490.70	407.25
490.88	468.11
491.06	456.40
491.24	411.93
491.41	411.93
491.59	425.98
491.77	416.62
491.95	381.51
492.13	423.64
492.30	411.93
492.48	390.87
492.66	411.93
492.84	341.72
493.01	449.38
493.19	428.32
493.37	454.06
493.54	362.78
493.72	409.59
493.90	390.87
494.08	386.19
494.25	376.83
494.43	404.91
494.61	379.17
494.79	421.30
494.96	435.34
495.14	409.59
495.32	458.74
495.49	423.64
495.67	393.21
495.85	395.55
496.02	311.29
496.20	468.11
496.38	344.06
496.55	353.42
496.73	456.40
496.91	402.57
497.09	418.96
497.26	388.53
497.44	411.93
497.62	404.91
497.79	470.45
497.97	430.66
498.14	437.68
498.32	407.25
498.50	440.02
498.67	351.08
498.85	435.34
499.03	390.87
499.20	374.49
499.38	400.23
499.56	383.85
499.73	463.43
499.91	421.30
500.08	519.60
500.26	369.80
500.44	435.34
500.61	404.91
500.79	423.64
500.97	383.85
501.14	425.98
501.32	400.23
501.49	472.79
501.67	451.72
501.84	369.80
502.02	409.59
502.20	390.87
502.37	451.72
502.55	360.44
502.72	472.79
502.90	430.66
503.07	454.06
503.25	409.59
503.43	411.93
503.60	411.93
503.78	407.25
503.95	395.55
504.13	400.23
504.30	465.77
504.48	500.87
504.65	535.98
504.83	421.30
505.01	486.83
505.18	400.23
505.36	435.34
505.53	486.83
505.71	397.89
505.88	386.19
506.06	479.81
506.23	418.96
506.41	449.38
506.58	440.02
506.76	414.27
506.93	383.85
507.11	411.93
507.28	379.17
507.46	374.49
507.63	404.91
507.81	341.72
507.98	430.66
508.16	355.76
508.33	428.32
508.50	451.72
508.68	418.96
508.85	395.55
509.03	400.23
509.20	498.53
509.38	442.36
509.55	463.43
509.73	498.53
509.90	379.17
510.08	418.96
510.25	414.27
510.42	353.42
510.60	414.27
510.77	404.91
510.95	428.32
511.12	423.64
511.30	395.55
511.47	390.87
511.64	404.91
511.82	388.53
511.99	393.21
512.17	425.98
512.34	379.17
512.51	388.53
512.69	397.89
512.86	400.23
513.04	442.36
513.21	430.66
513.38	428.32
513.56	416.62
513.73	409.59
513.90	472.79
514.08	407.25
514.25	433.00
514.43	416.62
514.60	418.96
514.77	468.11
514.95	456.40
515.12	395.55
515.29	463.43
515.47	386.19
515.64	449.38
515.81	472.79
515.99	440.02
516.16	449.38
516.33	454.06
516.51	451.72
516.68	393.21
516.85	449.38
517.03	435.34
517.20	428.32
517.37	409.59
517.54	437.68
517.72	416.62
517.89	374.49
518.06	404.91
518.24	491.51
518.41	400.23
518.58	414.27
518.75	479.81
518.93	386.19
519.10	358.10
519.27	404.91
519.45	458.74
519.62	414.27
519.79	402.57
519.96	440.02
520.14	440.02
520.31	430.66
520.48	437.68
520.65	414.27
520.83	423.64
521.00	428.32
521.17	362.78
521.34	390.87
521.52	451.72
521.69	404.91
521.86	421.30
522.03	379.17
522.20	418.96
522.38	383.85
522.55	461.09
522.72	400.23
522.89	369.80
523.07	484.49
523.24	376.83
523.41	430.66
523.58	367.46
523.75	362.78
523.92	423.64
524.10	383.85
524.27	407.25
524.44	461.09
524.61	411.93
524.78	388.53
524.96	381.51
525.13	339.38
525.30	402.57
525.47	355.76
525.64	400.23
525.81	393.21
525.98	444.70
526.16	470.45
526.33	404.91
526.50	444.70
526.67	397.89
526.84	440.02
527.01	414.27
527.18	414.27
527.36	435.34
527.53	400.23
527.70	430.66
527.87	407.25
528.04	435.34
528.21	407.25
528.38	402.57
528.55	409.59
528.72	351.08
528.89	454.06
529.07	379.17
529.24	390.87
529.41	414.27
529.58	344.06
529.75	402.57
529.92	362.78
530.09	433.00
530.26	404.91
530.43	390.87
530.60	381.51
530.77	358.10
530.94	470.45
531.11	425.98
531.28	421.30
531.46	390.87
531.63	411.93
531.80	435.34
531.97	414.27
532.14	442.36
532.31	411.93
532.48	416.62
532.65	437.68
532.82	360.44
532.99	435.34
533.16	461.09
533.33	456.40
533.50	369.80
533.67	416.62
533.84	402.57
534.01	388.53
534.18	449.38
534.35	360.44
534.52	400.23
534.69	418.96
534.86	322.99
535.03	381.51
535.20	461.09
535.37	458.74
535.54	533.64
535.71	451.72
535.88	409.59
536.05	425.98
536.22	421.30
536.38	449.38
536.55	416.62
536.72	402.57
536.89	468.11
537.06	322.99
537.23	388.53
537.40	454.06
537.57	418.96
537.74	461.09
537.91	423.64
538.08	404.91
538.25	442.36
538.42	423.64
538.59	358.10
538.75	451.72
538.92	447.04
539.09	435.34
539.26	404.91
539.43	470.45
539.60	435.34
539.77	390.87
539.94	409.59
540.11	355.76
540.28	409.59
540.44	489.17
540.61	390.87
540.78	418.96
540.95	318.31
541.12	461.09
541.29	444.70
541.46	397.89
541.62	402.57
541.79	411.93
541.96	386.19
542.13	332.36
542.30	397.89
542.47	461.09
542.63	376.83
542.80	458.74
542.97	468.11
543.14	381.51
543.31	437.68
543.48	456.40
543.64	404.91
543.81	442.36
543.98	407.25
544.15	348.74
544.32	409.59
544.48	362.78
544.65	386.19
544.82	341.72
544.99	393.21
545.16	409.59
545.32	435.34
545.49	425.98
545.66	449.38
545.83	433.00
546.00	416.62
546.16	414.27
546.33	486.83
546.50	430.66
546.67	379.17
546.83	430.66
547.00	451.72
547.17	404.91
547.34	433.00
547.50	491.51
547.67	372.15
547.84	397.89
548.00	482.15
548.17	456.40
548.34	435.34
548.51	456.40
548.67	416.62
548.84	454.06
549.01	348.74
549.18	374.49
549.34	395.55
549.51	339.38
549.68	386.19
549.84	365.12
550.01	348.74
550.18	465.77
550.34	540.66
550.51	414.27
550.68	489.17
550.84	433.00
551.01	461.09
551.18	411.93
551.34	428.32
551.51	512.58
551.68	369.80
551.84	463.43
552.01	358.10
552.18	456.40
552.34	430.66
552.51	449.38
552.68	418.96
552.84	428.32
553.01	442.36
553.18	414.27
553.34	313.63
553.51	362.78
553.67	451.72
553.84	393.21
554.01	358.10
554.17	442.36
554.34	433.00
554.51	423.64
554.67	468.11
554.84	430.66
555.00	383.85
555.17	437.68
555.33	418.96
555.50	393.21
555.67	423.64
555.83	379.17
556.00	355.76
556.16	571.09
556.33	458.74
556.50	402.57
556.66	383.85
556.83	388.53
556.99	402.57
557.16	468.11
557.32	421.30
557.49	463.43
557.65	430.66
557.82	423.64
557.98	425.98
558.15	379.17
558.32	395.55
558.48	388.53
558.65	470.45
558.81	491.51
558.98	407.25
559.14	418.96
559.31	322.99
559.47	411.93
559.64	423.64
559.80	454.06
559.97	393.21
560.13	411.93
560.30	423.64
560.46	404.91
560.63	435.34
560.79	421.30
560.96	379.17
561.12	393.21
561.29	456.40
561.45	367.46
561.61	409.59
561.78	451.72
561.94	430.66
562.11	461.09
562.27	381.51
562.44	423.64
562.60	318.31
562.77	402.57
562.93	447.04
563.10	418.96
563.26	348.74
563.42	416.62
563.59	451.72
563.75	362.78
563.92	430.66
564.08	411.93
564.24	433.00
564.41	390.87
564.57	383.85
564.74	416.62
564.90	374.49
565.07	376.83
565.23	414.27
565.39	381.51
565.56	454.06
565.72	355.76
565.88	337.04
566.05	454.06
566.21	390.87
566.38	423.64
566.54	440.02
566.70	442.36
566.87	383.85
567.03	423.64
567.19	383.85
567.36	360.44
567.52	425.98
567.68	411.93
567.85	409.59
568.01	421.30
568.17	374.49
568.34	414.27
568.50	440.02
568.66	440.02
568.83	482.15
568.99	411.93
569.15	465.77
569.32	463.43
569.48	315.97
569.64	362.78
569.81	440.02
569.97	397.89
570.13	421.30
570.30	428.32
570.46	393.21
570.62	435.34
570.78	451.72
570.95	346.40
571.11	437.68
571.27	425.98
571.43	311.29
571.60	376.83
571.76	395.55
571.92	454.06
572.09	400.23
572.25	440.02
572.41	418.96
572.57	433.00
572.74	454.06
572.90	465.77
573.06	390.87
573.22	449.38
573.38	470.45
573.55	477.47
573.71	472.79
573.87	416.62
574.03	512.58
574.20	390.87
574.36	402.57
574.52	393.21
574.68	447.04
574.84	524.28
575.01	433.00
575.17	423.64
575.33	498.53
575.49	475.13
575.65	454.06
575.82	442.36
575.98	425.98
576.14	433.00
576.30	507.90
576.46	376.83
576.62	440.02
576.79	425.98
576.95	472.79
577.11	400.23
577.27	351.08
577.43	484.49
577.59	479.81
577.75	435.34
577.92	428.32
578.08	383.85
578.24	313.63
578.40	493.85
578.56	470.45
578.72	416.62
578.88	449.38
579.04	477.47
579.21	458.74
579.37	468.11
579.53	355.76
579.69	440.02
579.85	379.17
580.01	444.70
580.17	360.44
580.33	440.02
580.49	381.51
580.65	489.17
580.82	491.51
580.98	482.15
581.14	386.19
581.30	470.45
581.46	435.34
581.62	407.25
581.78	433.00
581.94	414.27
582.10	397.89
582.26	425.98
582.42	393.21
582.58	416.62
582.74	416.62
582.90	444.70
583.06	425.98
583.22	416.62
583.38	414.27
583.54	374.49
583.70	421.30
583.86	454.06
584.02	458.74
584.18	428.32
584.34	449.38
584.50	421.30
584.66	418.96
584.82	440.02
584.98	442.36
585.14	447.04
585.30	482.15
585.46	430.66
585.62	341.72
585.78	531.30
585.94	407.25
586.10	360.44
586.26	416.62
586.42	512.58
586.58	477.47
586.74	386.19
586.90	395.55
587.06	374.49
587.22	461.09
587.38	407.25
587.54	461.09
587.70	362.78
587.86	461.09
588.02	425.98
588.18	475.13
588.34	444.70
588.49	395.55
588.65	437.68
588.81	475.13
588.97	428.32
589.13	367.46
589.29	458.74
589.45	472.79
589.61	374.49
589.77	367.46
589.93	425.98
590.08	416.62
590.24	409.59
590.40	390.87
590.56	454.06
590.72	362.78
590.88	428.32
591.04	404.91
591.20	435.34
591.35	477.47
591.51	458.74
591.67	362.78
591.83	451.72
591.99	341.72
592.15	425.98
592.31	407.25
592.46	395.55
592.62	451.72
592.78	367.46
592.94	425.98
593.10	479.81
593.26	411.93
593.41	388.53
593.57	444.70
593.73	374.49
593.89	468.11
594.05	353.42
594.20	365.12
594.36	393.21
594.52	397.89
594.68	383.85
594.84	451.72
594.99	444.70
595.15	456.40
595.31	435.34
595.47	456.40
595.62	390.87
595.78	390.87
595.94	414.27
596.10	402.57
596.25	421.30
596.41	402.57
596.57	407.25
596.73	386.19
596.88	379.17
597.04	451.72
597.20	447.04
597.36	456.40
597.51	411.93
597.67	402.57
597.83	430.66
597.99	458.74
598.14	465.77
598.30	454.06
598.46	381.51
598.61	411.93
598.77	416.62
598.93	374.49
599.09	484.49
599.24	404.91
599.40	386.19
599.56	397.89
599.71	367.46
599.87	423.64
600.03	433.00
600.18	407.25
600.34	428.32
600.50	428.32
600.65	430.66
600.81	428.32
600.97	388.53
601.12	379.17
601.28	395.55
601.44	463.43
601.59	468.11
601.75	428.32
601.91	409.59
602.06	451.72
602.22	500.87
602.37	379.17
602.53	404.91
602.69	369.80
602.84	421.30
603.00	449.38
603.16	447.04
603.31	482.15
603.47	386.19
603.62	379.17
603.78	409.59
603.94	430.66
604.09	407.25
604.25	440.02
604.40	390.87
604.56	416.62
604.71	477.47
604.87	414.27
605.03	416.62
605.18	444.70
605.34	437.68
605.49	440.02
605.65	470.45
605.80	416.62
605.96	379.17
606.12	393.21
606.27	458.74
606.43	388.53
606.58	442.36
606.74	430.66
606.89	355.76
607.05	456.40
607.20	425.98
607.36	447.04
607.51	383.85
607.67	362.78
607.82	346.40
607.98	353.42
608.13	411.93
608.29	390.87
608.44	416.62
608.60	400.23
608.75	421.30
608.91	444.70
609.06	393.21
609.22	400.23
609.37	388.53
609.53	449.38
609.68	416.62
609.84	407.25
609.99	458.74
610.15	416.62
