SpectraSuite Data File
++++++++++++++++++++++++++++++++++++
Date: Fri Oct 25 12:11:16 EDT 2013
User: price-jones
Dark Spectrum Present: No
Reference Spectrum Present: No
Number of Sampled Component Spectra: 1
Spectrometers: USB2+H05261
Integration Time (usec): 100000 (USB2+H05261)
Spectra Averaged: 1 (USB2+H05261)
Boxcar Smoothing: 0 (USB2+H05261)
Correct for Electrical Dark: No (USB2+H05261)
Strobe/Lamp Enabled: No (USB2+H05261)
Correct for Detector Non-linearity: No (USB2+H05261)
Correct for Stray Light: No (USB2+H05261)
Number of Pixels in Processed Spectrum: 2048
>>>>>Begin Processed Spectral Data<<<<<
365.73	381.51
365.92	381.51
366.12	381.51
366.32	266.82
366.52	238.73
366.72	234.05
366.91	236.39
367.11	245.76
367.31	266.82
367.51	208.31
367.70	210.65
367.90	259.80
368.10	224.69
368.30	273.84
368.49	217.67
368.69	297.25
368.89	245.76
369.09	250.44
369.28	318.31
369.48	276.18
369.68	283.20
369.87	374.49
370.07	264.48
370.27	365.12
370.47	346.40
370.66	308.95
370.86	409.59
371.06	346.40
371.25	400.23
371.45	390.87
371.65	430.66
371.84	358.10
372.04	353.42
372.24	379.17
372.44	374.49
372.63	372.15
372.83	409.59
373.03	339.38
373.22	421.30
373.42	454.06
373.62	440.02
373.81	444.70
374.01	437.68
374.21	456.40
374.40	355.76
374.60	456.40
374.79	454.06
374.99	433.00
375.19	404.91
375.38	390.87
375.58	437.68
375.78	505.56
375.97	456.40
376.17	418.96
376.37	425.98
376.56	428.32
376.76	416.62
376.95	376.83
377.15	482.15
377.35	395.55
377.54	400.23
377.74	348.74
377.93	411.93
378.13	461.09
378.33	425.98
378.52	440.02
378.72	454.06
378.91	449.38
379.11	346.40
379.31	430.66
379.50	409.59
379.70	444.70
379.89	440.02
380.09	407.25
380.28	425.98
380.48	423.64
380.68	379.17
380.87	404.91
381.07	411.93
381.26	393.21
381.46	390.87
381.65	386.19
381.85	374.49
382.04	360.44
382.24	353.42
382.43	449.38
382.63	407.25
382.83	388.53
383.02	465.77
383.22	353.42
383.41	381.51
383.61	388.53
383.80	463.43
384.00	388.53
384.19	388.53
384.39	400.23
384.58	463.43
384.78	379.17
384.97	351.08
385.17	379.17
385.36	365.12
385.56	409.59
385.75	451.72
385.95	402.57
386.14	411.93
386.34	493.85
386.53	440.02
386.72	337.04
386.92	411.93
387.11	428.32
387.31	395.55
387.50	313.63
387.70	442.36
387.89	416.62
388.09	400.23
388.28	395.55
388.48	400.23
388.67	397.89
388.86	388.53
389.06	397.89
389.25	400.23
389.45	449.38
389.64	440.02
389.84	470.45
390.03	418.96
390.22	416.62
390.42	395.55
390.61	353.42
390.81	367.46
391.00	482.15
391.19	472.79
391.39	486.83
391.58	449.38
391.78	421.30
391.97	374.49
392.16	430.66
392.36	512.58
392.55	477.47
392.75	440.02
392.94	447.04
393.13	407.25
393.33	463.43
393.52	397.89
393.71	411.93
393.91	390.87
394.10	381.51
394.29	454.06
394.49	315.97
394.68	472.79
394.88	383.85
395.07	425.98
395.26	374.49
395.46	365.12
395.65	456.40
395.84	346.40
396.04	437.68
396.23	449.38
396.42	447.04
396.62	367.46
396.81	383.85
397.00	407.25
397.19	416.62
397.39	400.23
397.58	388.53
397.77	393.21
397.97	416.62
398.16	418.96
398.35	400.23
398.55	365.12
398.74	409.59
398.93	367.46
399.12	393.21
399.32	372.15
399.51	344.06
399.70	435.34
399.90	447.04
400.09	411.93
400.28	447.04
400.47	348.74
400.67	339.38
400.86	360.44
401.05	362.78
401.24	379.17
401.44	411.93
401.63	444.70
401.82	418.96
402.01	344.06
402.21	397.89
402.40	404.91
402.59	416.62
402.78	395.55
402.97	360.44
403.17	346.40
403.36	397.89
403.55	400.23
403.74	388.53
403.93	465.77
404.13	341.72
404.32	397.89
404.51	388.53
404.70	435.34
404.89	418.96
405.09	421.30
405.28	423.64
405.47	388.53
405.66	428.32
405.85	348.74
406.05	404.91
406.24	381.51
406.43	372.15
406.62	418.96
406.81	402.57
407.00	444.70
407.20	418.96
407.39	390.87
407.58	374.49
407.77	416.62
407.96	475.13
408.15	404.91
408.34	470.45
408.54	430.66
408.73	376.83
408.92	447.04
409.11	435.34
409.30	465.77
409.49	414.27
409.68	421.30
409.87	411.93
410.07	404.91
410.26	444.70
410.45	451.72
410.64	425.98
410.83	369.80
411.02	402.57
411.21	437.68
411.40	402.57
411.59	393.21
411.78	421.30
411.98	416.62
412.17	451.72
412.36	430.66
412.55	402.57
412.74	430.66
412.93	472.79
413.12	322.99
413.31	381.51
413.50	327.68
413.69	435.34
413.88	458.74
414.07	411.93
414.26	423.64
414.45	510.24
414.64	369.80
414.83	404.91
415.02	369.80
415.22	491.51
415.41	379.17
415.60	358.10
415.79	369.80
415.98	395.55
416.17	386.19
416.36	369.80
416.55	397.89
416.74	430.66
416.93	489.17
417.12	425.98
417.31	369.80
417.50	404.91
417.69	458.74
417.88	372.15
418.07	400.23
418.26	362.78
418.45	379.17
418.64	414.27
418.83	388.53
419.02	414.27
419.21	421.30
419.39	395.55
419.58	433.00
419.77	386.19
419.96	491.51
420.15	444.70
420.34	393.21
420.53	411.93
420.72	428.32
420.91	386.19
421.10	344.06
421.29	402.57
421.48	428.32
421.67	367.46
421.86	404.91
422.05	358.10
422.24	386.19
422.43	425.98
422.61	372.15
422.80	400.23
422.99	428.32
423.18	433.00
423.37	465.77
423.56	456.40
423.75	393.21
423.94	421.30
424.13	447.04
424.32	456.40
424.50	451.72
424.69	421.30
424.88	369.80
425.07	402.57
425.26	390.87
425.45	451.72
425.64	442.36
425.83	367.46
426.01	418.96
426.20	423.64
426.39	365.12
426.58	402.57
426.77	416.62
426.96	369.80
427.15	390.87
427.33	383.85
427.52	454.06
427.71	411.93
427.90	369.80
428.09	362.78
428.28	402.57
428.46	397.89
428.65	505.56
428.84	414.27
429.03	447.04
429.22	435.34
429.40	414.27
429.59	341.72
429.78	425.98
429.97	351.08
430.16	472.79
430.34	451.72
430.53	409.59
430.72	433.00
430.91	428.32
431.10	451.72
431.28	444.70
431.47	404.91
431.66	418.96
431.85	386.19
432.03	418.96
432.22	423.64
432.41	425.98
432.60	404.91
432.79	290.23
432.97	407.25
433.16	444.70
433.35	444.70
433.54	404.91
433.72	449.38
433.91	435.34
434.10	367.46
434.28	421.30
434.47	402.57
434.66	423.64
434.85	411.93
435.03	454.06
435.22	440.02
435.41	425.98
435.59	421.30
435.78	423.64
435.97	397.89
436.16	428.32
436.34	395.55
436.53	444.70
436.72	348.74
436.90	440.02
437.09	400.23
437.28	442.36
437.46	468.11
437.65	372.15
437.84	411.93
438.02	386.19
438.21	507.90
438.40	353.42
438.58	421.30
438.77	454.06
438.96	433.00
439.14	393.21
439.33	320.65
439.52	447.04
439.70	456.40
439.89	411.93
440.08	388.53
440.26	411.93
440.45	411.93
440.63	416.62
440.82	332.36
441.01	397.89
441.19	418.96
441.38	458.74
441.57	395.55
441.75	397.89
441.94	428.32
442.12	486.83
442.31	496.19
442.50	435.34
442.68	381.51
442.87	451.72
443.05	428.32
443.24	400.23
443.43	421.30
443.61	327.68
443.80	479.81
443.98	374.49
444.17	362.78
444.35	404.91
444.54	442.36
444.73	414.27
444.91	449.38
445.10	376.83
445.28	383.85
445.47	442.36
445.65	376.83
445.84	348.74
446.02	388.53
446.21	433.00
446.39	463.43
446.58	407.25
446.77	411.93
446.95	367.46
447.14	421.30
447.32	421.30
447.51	430.66
447.69	442.36
447.88	463.43
448.06	463.43
448.25	414.27
448.43	454.06
448.62	493.85
448.80	435.34
448.99	454.06
449.17	435.34
449.36	458.74
449.54	376.83
449.73	423.64
449.91	376.83
450.10	402.57
450.28	444.70
450.46	489.17
450.65	498.53
450.83	435.34
451.02	449.38
451.20	461.09
451.39	423.64
451.57	425.98
451.76	421.30
451.94	376.83
452.13	440.02
452.31	397.89
452.49	444.70
452.68	367.46
452.86	475.13
453.05	489.17
453.23	437.68
453.42	407.25
453.60	414.27
453.78	414.27
453.97	381.51
454.15	372.15
454.34	442.36
454.52	390.87
454.70	400.23
454.89	472.79
455.07	407.25
455.26	414.27
455.44	376.83
455.62	320.65
455.81	496.19
455.99	463.43
456.17	468.11
456.36	367.46
456.54	341.72
456.73	383.85
456.91	465.77
457.09	435.34
457.28	407.25
457.46	388.53
457.64	402.57
457.83	397.89
458.01	381.51
458.19	393.21
458.38	332.36
458.56	491.51
458.74	430.66
458.93	369.80
459.11	390.87
459.29	400.23
459.48	400.23
459.66	468.11
459.84	414.27
460.03	472.79
460.21	416.62
460.39	383.85
460.57	411.93
460.76	425.98
460.94	421.30
461.12	463.43
461.31	458.74
461.49	409.59
461.67	355.76
461.85	379.17
462.04	425.98
462.22	748.97
462.40	442.36
462.59	388.53
462.77	418.96
462.95	440.02
463.13	444.70
463.32	454.06
463.50	339.38
463.68	414.27
463.86	416.62
464.05	346.40
464.23	433.00
464.41	430.66
464.59	367.46
464.78	428.32
464.96	376.83
465.14	456.40
465.32	416.62
465.50	365.12
465.69	489.17
465.87	407.25
466.05	454.06
466.23	433.00
466.41	433.00
466.60	381.51
466.78	360.44
466.96	491.51
467.14	407.25
467.32	400.23
467.51	383.85
467.69	327.68
467.87	365.12
468.05	414.27
468.23	489.17
468.41	472.79
468.60	428.32
468.78	390.87
468.96	409.59
469.14	400.23
469.32	418.96
469.50	435.34
469.69	428.32
469.87	482.15
470.05	451.72
470.23	430.66
470.41	355.76
470.59	388.53
470.77	451.72
470.95	465.77
471.14	397.89
471.32	440.02
471.50	463.43
471.68	393.21
471.86	449.38
472.04	360.44
472.22	402.57
472.40	411.93
472.58	360.44
472.77	355.76
472.95	428.32
473.13	472.79
473.31	411.93
473.49	435.34
473.67	400.23
473.85	404.91
474.03	463.43
474.21	358.10
474.39	414.27
474.57	454.06
474.75	404.91
474.93	390.87
475.12	337.04
475.30	395.55
475.48	404.91
475.66	390.87
475.84	416.62
476.02	456.40
476.20	393.21
476.38	393.21
476.56	421.30
476.74	477.47
476.92	414.27
477.10	386.19
477.28	393.21
477.46	311.29
477.64	437.68
477.82	433.00
478.00	433.00
478.18	381.51
478.36	372.15
478.54	423.64
478.72	346.40
478.90	461.09
479.08	388.53
479.26	400.23
479.44	479.81
479.62	390.87
479.80	423.64
479.98	351.08
480.16	404.91
480.34	421.30
480.52	430.66
480.70	388.53
480.88	435.34
481.06	315.97
481.24	381.51
481.41	456.40
481.59	409.59
481.77	404.91
481.95	400.23
482.13	472.79
482.31	449.38
482.49	475.13
482.67	440.02
482.85	475.13
483.03	400.23
483.21	339.38
483.39	463.43
483.57	435.34
483.74	418.96
483.92	442.36
484.10	376.83
484.28	418.96
484.46	418.96
484.64	374.49
484.82	402.57
485.00	381.51
485.18	447.04
485.35	407.25
485.53	381.51
485.71	477.47
485.89	395.55
486.07	400.23
486.25	346.40
486.43	435.34
486.61	411.93
486.78	390.87
486.96	404.91
487.14	381.51
487.32	386.19
487.50	409.59
487.68	414.27
487.85	362.78
488.03	486.83
488.21	435.34
488.39	381.51
488.57	458.74
488.75	411.93
488.92	545.34
489.10	400.23
489.28	430.66
489.46	407.25
489.64	454.06
489.81	395.55
489.99	362.78
490.17	397.89
490.35	470.45
490.53	409.59
490.70	311.29
490.88	447.04
491.06	430.66
491.24	437.68
491.41	442.36
491.59	440.02
491.77	470.45
491.95	388.53
492.13	390.87
492.30	440.02
492.48	407.25
492.66	395.55
492.84	374.49
493.01	393.21
493.19	418.96
493.37	489.17
493.54	449.38
493.72	465.77
493.90	447.04
494.08	416.62
494.25	365.12
494.43	360.44
494.61	430.66
494.79	369.80
494.96	418.96
495.14	425.98
495.32	465.77
495.49	428.32
495.67	479.81
495.85	409.59
496.02	388.53
496.20	454.06
496.38	393.21
496.55	456.40
496.73	428.32
496.91	418.96
497.09	409.59
497.26	369.80
497.44	351.08
497.62	444.70
497.79	444.70
497.97	442.36
498.14	418.96
498.32	355.76
498.50	421.30
498.67	376.83
498.85	461.09
499.03	400.23
499.20	444.70
499.38	468.11
499.56	435.34
499.73	421.30
499.91	421.30
500.08	437.68
500.26	442.36
500.44	442.36
500.61	416.62
500.79	381.51
500.97	416.62
501.14	425.98
501.32	475.13
501.49	444.70
501.67	339.38
501.84	395.55
502.02	376.83
502.20	465.77
502.37	447.04
502.55	395.55
502.72	341.72
502.90	433.00
503.07	402.57
503.25	414.27
503.43	435.34
503.60	430.66
503.78	411.93
503.95	379.17
504.13	421.30
504.30	386.19
504.48	421.30
504.65	461.09
504.83	463.43
505.01	402.57
505.18	416.62
505.36	409.59
505.53	386.19
505.71	334.70
505.88	454.06
506.06	400.23
506.23	308.95
506.41	456.40
506.58	402.57
506.76	447.04
506.93	397.89
507.11	402.57
507.28	395.55
507.46	447.04
507.63	484.49
507.81	383.85
507.98	381.51
508.16	418.96
508.33	386.19
508.50	386.19
508.68	416.62
508.85	379.17
509.03	407.25
509.20	304.27
509.38	393.21
509.55	458.74
509.73	468.11
509.90	449.38
510.08	407.25
510.25	461.09
510.42	397.89
510.60	498.53
510.77	388.53
510.95	456.40
511.12	353.42
511.30	435.34
511.47	430.66
511.64	379.17
511.82	468.11
511.99	425.98
512.17	360.44
512.34	369.80
512.51	433.00
512.69	379.17
512.86	449.38
513.04	449.38
513.21	458.74
513.38	379.17
513.56	362.78
513.73	435.34
513.90	395.55
514.08	463.43
514.25	435.34
514.43	454.06
514.60	390.87
514.77	409.59
514.95	372.15
515.12	440.02
515.29	437.68
515.47	437.68
515.64	418.96
515.81	388.53
515.99	402.57
516.16	395.55
516.33	430.66
516.51	383.85
516.68	351.08
516.85	482.15
517.03	463.43
517.20	451.72
517.37	355.76
517.54	421.30
517.72	395.55
517.89	383.85
518.06	388.53
518.24	461.09
518.41	430.66
518.58	425.98
518.75	461.09
518.93	449.38
519.10	475.13
519.27	337.04
519.45	470.45
519.62	367.46
519.79	367.46
519.96	393.21
520.14	444.70
520.31	472.79
520.48	400.23
520.65	442.36
520.83	486.83
521.00	414.27
521.17	454.06
521.34	404.91
521.52	379.17
521.69	381.51
521.86	388.53
522.03	493.85
522.20	440.02
522.38	423.64
522.55	353.42
522.72	416.62
522.89	491.51
523.07	475.13
523.24	400.23
523.41	379.17
523.58	372.15
523.75	388.53
523.92	407.25
524.10	486.83
524.27	416.62
524.44	395.55
524.61	414.27
524.78	421.30
524.96	402.57
525.13	355.76
525.30	383.85
525.47	376.83
525.64	411.93
525.81	390.87
525.98	442.36
526.16	442.36
526.33	416.62
526.50	402.57
526.67	416.62
526.84	369.80
527.01	381.51
527.18	365.12
527.36	402.57
527.53	416.62
527.70	435.34
527.87	411.93
528.04	463.43
528.21	400.23
528.38	433.00
528.55	379.17
528.72	458.74
528.89	533.64
529.07	486.83
529.24	437.68
529.41	435.34
529.58	395.55
529.75	372.15
529.92	358.10
530.09	482.15
530.26	461.09
530.43	404.91
530.60	407.25
530.77	358.10
530.94	421.30
531.11	362.78
531.28	437.68
531.46	388.53
531.63	421.30
531.80	435.34
531.97	444.70
532.14	409.59
532.31	381.51
532.48	512.58
532.65	456.40
532.82	365.12
532.99	425.98
533.16	400.23
533.33	353.42
533.50	418.96
533.67	397.89
533.84	407.25
534.01	444.70
534.18	369.80
534.35	393.21
534.52	379.17
534.69	428.32
534.86	454.06
535.03	407.25
535.20	407.25
535.37	505.56
535.54	409.59
535.71	395.55
535.88	458.74
536.05	395.55
536.22	423.64
536.38	449.38
536.55	421.30
536.72	458.74
536.89	428.32
537.06	390.87
537.23	393.21
537.40	358.10
537.57	449.38
537.74	505.56
537.91	407.25
538.08	416.62
538.25	456.40
538.42	402.57
538.59	367.46
538.75	449.38
538.92	409.59
539.09	425.98
539.26	479.81
539.43	430.66
539.60	376.83
539.77	374.49
539.94	447.04
540.11	463.43
540.28	465.77
540.44	407.25
540.61	348.74
540.78	409.59
540.95	402.57
541.12	458.74
541.29	423.64
541.46	479.81
541.62	442.36
541.79	449.38
541.96	411.93
542.13	423.64
542.30	407.25
542.47	430.66
542.63	400.23
542.80	486.83
542.97	465.77
543.14	383.85
543.31	353.42
543.48	346.40
543.64	395.55
543.81	416.62
543.98	372.15
544.15	402.57
544.32	526.62
544.48	447.04
544.65	395.55
544.82	407.25
544.99	390.87
545.16	395.55
545.32	442.36
545.49	430.66
545.66	400.23
545.83	411.93
546.00	409.59
546.16	327.68
546.33	409.59
546.50	411.93
546.67	451.72
546.83	397.89
547.00	463.43
547.17	411.93
547.34	379.17
547.50	451.72
547.67	374.49
547.84	346.40
548.00	423.64
548.17	381.51
548.34	414.27
548.51	393.21
548.67	397.89
548.84	437.68
549.01	416.62
549.18	440.02
549.34	411.93
549.51	374.49
549.68	397.89
549.84	449.38
550.01	341.72
550.18	430.66
550.34	514.92
550.51	447.04
550.68	461.09
550.84	402.57
551.01	430.66
551.18	451.72
551.34	425.98
551.51	468.11
551.68	400.23
551.84	463.43
552.01	435.34
552.18	421.30
552.34	449.38
552.51	411.93
552.68	442.36
552.84	379.17
553.01	418.96
553.18	425.98
553.34	416.62
553.51	367.46
553.67	411.93
553.84	458.74
554.01	468.11
554.17	463.43
554.34	418.96
554.51	407.25
554.67	440.02
554.84	472.79
555.00	395.55
555.17	456.40
555.33	433.00
555.50	442.36
555.67	337.04
555.83	386.19
556.00	444.70
556.16	526.62
556.33	465.77
556.50	386.19
556.66	393.21
556.83	421.30
556.99	397.89
557.16	447.04
557.32	440.02
557.49	388.53
557.65	416.62
557.82	472.79
557.98	435.34
558.15	435.34
558.32	425.98
558.48	397.89
558.65	440.02
558.81	430.66
558.98	290.23
559.14	376.83
559.31	489.17
559.47	484.49
559.64	395.55
559.80	449.38
559.97	414.27
560.13	402.57
560.30	374.49
560.46	414.27
560.63	470.45
560.79	411.93
560.96	381.51
561.12	416.62
561.29	444.70
561.45	355.76
561.61	383.85
561.78	430.66
561.94	388.53
562.11	367.46
562.27	416.62
562.44	416.62
562.60	484.49
562.77	407.25
562.93	475.13
563.10	433.00
563.26	454.06
563.42	449.38
563.59	411.93
563.75	411.93
563.92	409.59
564.08	381.51
564.24	423.64
564.41	524.28
564.57	395.55
564.74	451.72
564.90	395.55
565.07	468.11
565.23	435.34
565.39	358.10
565.56	369.80
565.72	458.74
565.88	430.66
566.05	430.66
566.21	435.34
566.38	409.59
566.54	416.62
566.70	493.85
566.87	430.66
567.03	430.66
567.19	477.47
567.36	435.34
567.52	376.83
567.68	425.98
567.85	411.93
568.01	425.98
568.17	449.38
568.34	414.27
568.50	461.09
568.66	430.66
568.83	400.23
568.99	390.87
569.15	421.30
569.32	409.59
569.48	397.89
569.64	433.00
569.81	454.06
569.97	348.74
570.13	423.64
570.30	407.25
570.46	369.80
570.62	411.93
570.78	449.38
570.95	376.83
571.11	449.38
571.27	435.34
571.43	369.80
571.60	402.57
571.76	411.93
571.92	400.23
572.09	411.93
572.25	468.11
572.41	416.62
572.57	418.96
572.74	440.02
572.90	421.30
573.06	425.98
573.22	482.15
573.38	454.06
573.55	388.53
573.71	386.19
573.87	404.91
574.03	411.93
574.20	395.55
574.36	400.23
574.52	482.15
574.68	411.93
574.84	451.72
575.01	416.62
575.17	404.91
575.33	355.76
575.49	421.30
575.65	430.66
575.82	498.53
575.98	411.93
576.14	414.27
576.30	360.44
576.46	418.96
576.62	425.98
576.79	421.30
576.95	418.96
577.11	367.46
577.27	407.25
577.43	416.62
577.59	444.70
577.75	390.87
577.92	428.32
578.08	395.55
578.24	390.87
578.40	425.98
578.56	500.87
578.72	496.19
578.88	379.17
579.04	463.43
579.21	475.13
579.37	454.06
579.53	379.17
579.69	374.49
579.85	454.06
580.01	404.91
580.17	409.59
580.33	386.19
580.49	383.85
580.65	404.91
580.82	395.55
580.98	395.55
581.14	383.85
581.30	442.36
581.46	477.47
581.62	390.87
581.78	458.74
581.94	367.46
582.10	409.59
582.26	456.40
582.42	395.55
582.58	395.55
582.74	486.83
582.90	430.66
583.06	470.45
583.22	414.27
583.38	369.80
583.54	379.17
583.70	456.40
583.86	440.02
584.02	433.00
584.18	435.34
584.34	388.53
584.50	381.51
584.66	386.19
584.82	421.30
584.98	442.36
585.14	421.30
585.30	414.27
585.46	381.51
585.62	400.23
585.78	414.27
585.94	472.79
586.10	414.27
586.26	451.72
586.42	393.21
586.58	498.53
586.74	397.89
586.90	482.15
587.06	393.21
587.22	397.89
587.38	442.36
587.54	409.59
587.70	416.62
587.86	449.38
588.02	423.64
588.18	402.57
588.34	440.02
588.49	404.91
588.65	430.66
588.81	447.04
588.97	313.63
589.13	428.32
589.29	456.40
589.45	521.94
589.61	465.77
589.77	465.77
589.93	486.83
590.08	346.40
590.24	423.64
590.40	388.53
590.56	456.40
590.72	400.23
590.88	409.59
591.04	458.74
591.20	400.23
591.35	447.04
591.51	416.62
591.67	451.72
591.83	442.36
591.99	449.38
592.15	390.87
592.31	451.72
592.46	437.68
592.62	407.25
592.78	337.04
592.94	327.68
593.10	383.85
593.26	428.32
593.41	421.30
593.57	444.70
593.73	451.72
593.89	395.55
594.05	456.40
594.20	468.11
594.36	430.66
594.52	449.38
594.68	435.34
594.84	395.55
594.99	440.02
595.15	463.43
595.31	425.98
595.47	362.78
595.62	390.87
595.78	444.70
595.94	414.27
596.10	423.64
596.25	372.15
596.41	433.00
596.57	351.08
596.73	358.10
596.88	418.96
597.04	416.62
597.20	383.85
597.36	451.72
597.51	411.93
597.67	409.59
597.83	496.19
597.99	447.04
598.14	355.76
598.30	390.87
598.46	447.04
598.61	421.30
598.77	430.66
598.93	454.06
599.09	454.06
599.24	444.70
599.40	468.11
599.56	468.11
599.71	404.91
599.87	376.83
600.03	376.83
600.18	409.59
600.34	421.30
600.50	402.57
600.65	383.85
600.81	402.57
600.97	358.10
601.12	472.79
601.28	381.51
601.44	362.78
601.59	386.19
601.75	423.64
601.91	482.15
602.06	454.06
602.22	454.06
602.37	395.55
602.53	428.32
602.69	479.81
602.84	395.55
603.00	390.87
603.16	332.36
603.31	404.91
603.47	409.59
603.62	362.78
603.78	503.22
603.94	390.87
604.09	409.59
604.25	362.78
604.40	449.38
604.56	442.36
604.71	411.93
604.87	381.51
605.03	486.83
605.18	407.25
605.34	416.62
605.49	416.62
605.65	421.30
605.80	386.19
605.96	433.00
606.12	442.36
606.27	421.30
606.43	416.62
606.58	414.27
606.74	388.53
606.89	334.70
607.05	411.93
607.20	461.09
607.36	418.96
607.51	358.10
607.67	435.34
607.82	425.98
607.98	461.09
608.13	414.27
608.29	411.93
608.44	442.36
608.60	400.23
608.75	409.59
608.91	393.21
609.06	397.89
609.22	372.15
609.37	425.98
609.53	421.30
609.68	393.21
609.84	381.51
609.99	463.43
610.15	400.23
