SpectraSuite Data File
++++++++++++++++++++++++++++++++++++
Date: Fri Oct 25 12:11:41 EDT 2013
User: price-jones
Dark Spectrum Present: No
Reference Spectrum Present: No
Number of Sampled Component Spectra: 1
Spectrometers: USB2+H05261
Integration Time (usec): 100000 (USB2+H05261)
Spectra Averaged: 1 (USB2+H05261)
Boxcar Smoothing: 0 (USB2+H05261)
Correct for Electrical Dark: No (USB2+H05261)
Strobe/Lamp Enabled: No (USB2+H05261)
Correct for Detector Non-linearity: No (USB2+H05261)
Correct for Stray Light: No (USB2+H05261)
Number of Pixels in Processed Spectrum: 2048
>>>>>Begin Processed Spectral Data<<<<<
365.73	292.57
365.92	292.57
366.12	292.57
366.32	177.88
366.52	341.72
366.72	248.10
366.91	250.44
367.11	276.18
367.31	280.86
367.51	227.03
367.70	257.46
367.90	318.31
368.10	252.78
368.30	231.71
368.49	217.67
368.69	217.67
368.89	266.82
369.09	252.78
369.28	250.44
369.48	381.51
369.68	308.95
369.87	313.63
370.07	297.25
370.27	346.40
370.47	414.27
370.66	304.27
370.86	318.31
371.06	386.19
371.25	433.00
371.45	400.23
371.65	397.89
371.84	322.99
372.04	376.83
372.24	353.42
372.44	372.15
372.63	355.76
372.83	372.15
373.03	461.09
373.22	407.25
373.42	358.10
373.62	372.15
373.81	461.09
374.01	470.45
374.21	444.70
374.40	351.08
374.60	461.09
374.79	376.83
374.99	454.06
375.19	409.59
375.38	435.34
375.58	433.00
375.78	425.98
375.97	339.38
376.17	465.77
376.37	400.23
376.56	461.09
376.76	418.96
376.95	414.27
377.15	383.85
377.35	442.36
377.54	379.17
377.74	374.49
377.93	397.89
378.13	360.44
378.33	402.57
378.52	435.34
378.72	435.34
378.91	451.72
379.11	367.46
379.31	369.80
379.50	407.25
379.70	430.66
379.89	386.19
380.09	421.30
380.28	393.21
380.48	425.98
380.68	355.76
380.87	390.87
381.07	414.27
381.26	447.04
381.46	442.36
381.65	421.30
381.85	418.96
382.04	411.93
382.24	390.87
382.43	339.38
382.63	428.32
382.83	395.55
383.02	468.11
383.22	444.70
383.41	369.80
383.61	423.64
383.80	463.43
384.00	430.66
384.19	430.66
384.39	390.87
384.58	374.49
384.78	489.17
384.97	468.11
385.17	365.12
385.36	376.83
385.56	411.93
385.75	339.38
385.95	461.09
386.14	423.64
386.34	369.80
386.53	367.46
386.72	369.80
386.92	435.34
387.11	449.38
387.31	390.87
387.50	383.85
387.70	362.78
387.89	388.53
388.09	367.46
388.28	400.23
388.48	404.91
388.67	428.32
388.86	423.64
389.06	437.68
389.25	388.53
389.45	390.87
389.64	444.70
389.84	425.98
390.03	456.40
390.22	339.38
390.42	376.83
390.61	325.33
390.81	369.80
391.00	334.70
391.19	463.43
391.39	465.77
391.58	379.17
391.78	344.06
391.97	454.06
392.16	404.91
392.36	416.62
392.55	447.04
392.75	393.21
392.94	393.21
393.13	442.36
393.33	430.66
393.52	444.70
393.71	386.19
393.91	414.27
394.10	397.89
394.29	482.15
394.49	390.87
394.68	372.15
394.88	397.89
395.07	400.23
395.26	416.62
395.46	447.04
395.65	463.43
395.84	470.45
396.04	440.02
396.23	393.21
396.42	442.36
396.62	496.19
396.81	411.93
397.00	416.62
397.19	372.15
397.39	411.93
397.58	404.91
397.77	397.89
397.97	381.51
398.16	435.34
398.35	374.49
398.55	407.25
398.74	365.12
398.93	493.85
399.12	386.19
399.32	322.99
399.51	486.83
399.70	388.53
399.90	390.87
400.09	395.55
400.28	416.62
400.47	463.43
400.67	458.74
400.86	400.23
401.05	482.15
401.24	428.32
401.44	454.06
401.63	390.87
401.82	386.19
402.01	383.85
402.21	449.38
402.40	397.89
402.59	454.06
402.78	379.17
402.97	402.57
403.17	411.93
403.36	416.62
403.55	433.00
403.74	395.55
403.93	428.32
404.13	503.22
404.32	428.32
404.51	322.99
404.70	379.17
404.89	411.93
405.09	468.11
405.28	334.70
405.47	425.98
405.66	430.66
405.85	409.59
406.05	327.68
406.24	376.83
406.43	381.51
406.62	435.34
406.81	414.27
407.00	496.19
407.20	479.81
407.39	418.96
407.58	425.98
407.77	442.36
407.96	440.02
408.15	428.32
408.34	393.21
408.54	376.83
408.73	425.98
408.92	428.32
409.11	484.49
409.30	423.64
409.49	456.40
409.68	379.17
409.87	372.15
410.07	440.02
410.26	463.43
410.45	315.97
410.64	447.04
410.83	428.32
411.02	442.36
411.21	416.62
411.40	374.49
411.59	404.91
411.78	362.78
411.98	435.34
412.17	430.66
412.36	353.42
412.55	397.89
412.74	437.68
412.93	390.87
413.12	444.70
413.31	444.70
413.50	402.57
413.69	411.93
413.88	397.89
414.07	442.36
414.26	447.04
414.45	440.02
414.64	416.62
414.83	430.66
415.02	409.59
415.22	416.62
415.41	421.30
415.60	409.59
415.79	348.74
415.98	374.49
416.17	428.32
416.36	425.98
416.55	379.17
416.74	397.89
416.93	451.72
417.12	393.21
417.31	334.70
417.50	407.25
417.69	482.15
417.88	428.32
418.07	404.91
418.26	411.93
418.45	339.38
418.64	423.64
418.83	491.51
419.02	477.47
419.21	440.02
419.39	425.98
419.58	409.59
419.77	379.17
419.96	388.53
420.15	416.62
420.34	433.00
420.53	388.53
420.72	442.36
420.91	414.27
421.10	451.72
421.29	428.32
421.48	365.12
421.67	437.68
421.86	447.04
422.05	458.74
422.24	468.11
422.43	437.68
422.61	440.02
422.80	402.57
422.99	397.89
423.18	440.02
423.37	517.26
423.56	388.53
423.75	458.74
423.94	442.36
424.13	372.15
424.32	454.06
424.50	423.64
424.69	449.38
424.88	461.09
425.07	409.59
425.26	414.27
425.45	449.38
425.64	365.12
425.83	449.38
426.01	411.93
426.20	348.74
426.39	416.62
426.58	346.40
426.77	416.62
426.96	400.23
427.15	334.70
427.33	365.12
427.52	428.32
427.71	407.25
427.90	458.74
428.09	395.55
428.28	297.25
428.46	395.55
428.65	500.87
428.84	409.59
429.03	423.64
429.22	463.43
429.40	404.91
429.59	390.87
429.78	404.91
429.97	409.59
430.16	414.27
430.34	372.15
430.53	388.53
430.72	414.27
430.91	393.21
431.10	411.93
431.28	472.79
431.47	458.74
431.66	442.36
431.85	416.62
432.03	433.00
432.22	456.40
432.41	461.09
432.60	465.77
432.79	390.87
432.97	365.12
433.16	411.93
433.35	449.38
433.54	433.00
433.72	486.83
433.91	454.06
434.10	428.32
434.28	465.77
434.47	411.93
434.66	578.11
434.85	428.32
435.03	500.87
435.22	484.49
435.41	461.09
435.59	360.44
435.78	477.47
435.97	433.00
436.16	442.36
436.34	423.64
436.53	358.10
436.72	374.49
436.90	365.12
437.09	475.13
437.28	423.64
437.46	367.46
437.65	369.80
437.84	402.57
438.02	440.02
438.21	451.72
438.40	414.27
438.58	433.00
438.77	402.57
438.96	428.32
439.14	409.59
439.33	411.93
439.52	404.91
439.70	454.06
439.89	470.45
440.08	449.38
440.26	428.32
440.45	444.70
440.63	409.59
440.82	418.96
441.01	425.98
441.19	416.62
441.38	444.70
441.57	341.72
441.75	409.59
441.94	442.36
442.12	461.09
442.31	390.87
442.50	458.74
442.68	447.04
442.87	449.38
443.05	418.96
443.24	383.85
443.43	402.57
443.61	428.32
443.80	442.36
443.98	437.68
444.17	428.32
444.35	425.98
444.54	386.19
444.73	428.32
444.91	451.72
445.10	428.32
445.28	421.30
445.47	437.68
445.65	425.98
445.84	447.04
446.02	414.27
446.21	397.89
446.39	411.93
446.58	411.93
446.77	414.27
446.95	386.19
447.14	472.79
447.32	479.81
447.51	393.21
447.69	402.57
447.88	395.55
448.06	414.27
448.25	379.17
448.43	383.85
448.62	383.85
448.80	416.62
448.99	416.62
449.17	470.45
449.36	388.53
449.54	414.27
449.73	437.68
449.91	486.83
450.10	491.51
450.28	514.92
450.46	447.04
450.65	416.62
450.83	409.59
451.02	430.66
451.20	425.98
451.39	414.27
451.57	454.06
451.76	454.06
451.94	355.76
452.13	456.40
452.31	433.00
452.49	416.62
452.68	397.89
452.86	386.19
453.05	442.36
453.23	472.79
453.42	414.27
453.60	437.68
453.78	428.32
453.97	383.85
454.15	362.78
454.34	430.66
454.52	388.53
454.70	468.11
454.89	428.32
455.07	418.96
455.26	416.62
455.44	458.74
455.62	444.70
455.81	430.66
455.99	402.57
456.17	451.72
456.36	418.96
456.54	418.96
456.73	393.21
456.91	376.83
457.09	421.30
457.28	369.80
457.46	454.06
457.64	458.74
457.83	470.45
458.01	407.25
458.19	348.74
458.38	472.79
458.56	414.27
458.74	425.98
458.93	367.46
459.11	355.76
459.29	386.19
459.48	454.06
459.66	407.25
459.84	479.81
460.03	533.64
460.21	416.62
460.39	416.62
460.57	465.77
460.76	451.72
460.94	440.02
461.12	458.74
461.31	407.25
461.49	454.06
461.67	433.00
461.85	372.15
462.04	348.74
462.22	748.97
462.40	374.49
462.59	390.87
462.77	430.66
462.95	428.32
463.13	404.91
463.32	390.87
463.50	482.15
463.68	362.78
463.86	418.96
464.05	327.68
464.23	383.85
464.41	374.49
464.59	407.25
464.78	372.15
464.96	372.15
465.14	423.64
465.32	402.57
465.50	421.30
465.69	449.38
465.87	402.57
466.05	395.55
466.23	365.12
466.41	423.64
466.60	475.13
466.78	395.55
466.96	411.93
467.14	484.49
467.32	428.32
467.51	456.40
467.69	421.30
467.87	416.62
468.05	393.21
468.23	482.15
468.41	402.57
468.60	388.53
468.78	470.45
468.96	409.59
469.14	418.96
469.32	418.96
469.50	404.91
469.69	421.30
469.87	447.04
470.05	444.70
470.23	428.32
470.41	358.10
470.59	458.74
470.77	367.46
470.95	435.34
471.14	407.25
471.32	407.25
471.50	435.34
471.68	444.70
471.86	461.09
472.04	468.11
472.22	433.00
472.40	451.72
472.58	381.51
472.77	418.96
472.95	411.93
473.13	519.60
473.31	465.77
473.49	430.66
473.67	461.09
473.85	411.93
474.03	442.36
474.21	442.36
474.39	470.45
474.57	435.34
474.75	461.09
474.93	407.25
475.12	388.53
475.30	327.68
475.48	341.72
475.66	374.49
475.84	486.83
476.02	454.06
476.20	416.62
476.38	397.89
476.56	498.53
476.74	379.17
476.92	381.51
477.10	442.36
477.28	437.68
477.46	411.93
477.64	428.32
477.82	393.21
478.00	458.74
478.18	423.64
478.36	355.76
478.54	472.79
478.72	477.47
478.90	365.12
479.08	409.59
479.26	404.91
479.44	367.46
479.62	397.89
479.80	430.66
479.98	397.89
480.16	388.53
480.34	433.00
480.52	409.59
480.70	423.64
480.88	437.68
481.06	402.57
481.24	388.53
481.41	388.53
481.59	388.53
481.77	376.83
481.95	404.91
482.13	472.79
482.31	386.19
482.49	379.17
482.67	348.74
482.85	407.25
483.03	458.74
483.21	416.62
483.39	386.19
483.57	353.42
483.74	418.96
483.92	458.74
484.10	327.68
484.28	388.53
484.46	475.13
484.64	393.21
484.82	358.10
485.00	369.80
485.18	479.81
485.35	463.43
485.53	440.02
485.71	493.85
485.89	433.00
486.07	365.12
486.25	437.68
486.43	393.21
486.61	482.15
486.78	397.89
486.96	376.83
487.14	397.89
487.32	449.38
487.50	430.66
487.68	482.15
487.85	440.02
488.03	433.00
488.21	442.36
488.39	423.64
488.57	409.59
488.75	407.25
488.92	545.34
489.10	395.55
489.28	430.66
489.46	418.96
489.64	395.55
489.81	442.36
489.99	400.23
490.17	400.23
490.35	447.04
490.53	339.38
490.70	484.49
490.88	468.11
491.06	461.09
491.24	421.30
491.41	489.17
491.59	463.43
491.77	332.36
491.95	433.00
492.13	425.98
492.30	407.25
492.48	400.23
492.66	416.62
492.84	414.27
493.01	444.70
493.19	393.21
493.37	463.43
493.54	374.49
493.72	344.06
493.90	397.89
494.08	421.30
494.25	475.13
494.43	346.40
494.61	383.85
494.79	416.62
494.96	402.57
495.14	407.25
495.32	442.36
495.49	447.04
495.67	461.09
495.85	400.23
496.02	341.72
496.20	404.91
496.38	393.21
496.55	388.53
496.73	451.72
496.91	402.57
497.09	407.25
497.26	409.59
497.44	458.74
497.62	402.57
497.79	421.30
497.97	404.91
498.14	433.00
498.32	461.09
498.50	400.23
498.67	451.72
498.85	351.08
499.03	482.15
499.20	404.91
499.38	421.30
499.56	440.02
499.73	454.06
499.91	397.89
500.08	465.77
500.26	437.68
500.44	393.21
500.61	400.23
500.79	376.83
500.97	472.79
501.14	428.32
501.32	477.47
501.49	430.66
501.67	454.06
501.84	367.46
502.02	376.83
502.20	428.32
502.37	411.93
502.55	433.00
502.72	383.85
502.90	442.36
503.07	414.27
503.25	482.15
503.43	348.74
503.60	360.44
503.78	395.55
503.95	374.49
504.13	404.91
504.30	468.11
504.48	355.76
504.65	463.43
504.83	421.30
505.01	454.06
505.18	397.89
505.36	444.70
505.53	440.02
505.71	325.33
505.88	470.45
506.06	386.19
506.23	397.89
506.41	367.46
506.58	440.02
506.76	404.91
506.93	330.02
507.11	404.91
507.28	390.87
507.46	369.80
507.63	365.12
507.81	381.51
507.98	381.51
508.16	430.66
508.33	367.46
508.50	430.66
508.68	538.32
508.85	416.62
509.03	414.27
509.20	433.00
509.38	337.04
509.55	430.66
509.73	365.12
509.90	395.55
510.08	374.49
510.25	437.68
510.42	383.85
510.60	440.02
510.77	491.51
510.95	437.68
511.12	447.04
511.30	449.38
511.47	465.77
511.64	475.13
511.82	442.36
511.99	409.59
512.17	358.10
512.34	442.36
512.51	404.91
512.69	407.25
512.86	451.72
513.04	397.89
513.21	456.40
513.38	451.72
513.56	454.06
513.73	325.33
513.90	416.62
514.08	341.72
514.25	447.04
514.43	442.36
514.60	404.91
514.77	423.64
514.95	425.98
515.12	386.19
515.29	397.89
515.47	407.25
515.64	393.21
515.81	376.83
515.99	390.87
516.16	528.96
516.33	411.93
516.51	397.89
516.68	341.72
516.85	365.12
517.03	428.32
517.20	365.12
517.37	402.57
517.54	461.09
517.72	428.32
517.89	477.47
518.06	397.89
518.24	374.49
518.41	507.90
518.58	461.09
518.75	454.06
518.93	367.46
519.10	465.77
519.27	472.79
519.45	498.53
519.62	411.93
519.79	418.96
519.96	341.72
520.14	423.64
520.31	458.74
520.48	437.68
520.65	503.22
520.83	442.36
521.00	416.62
521.17	397.89
521.34	372.15
521.52	496.19
521.69	397.89
521.86	416.62
522.03	458.74
522.20	425.98
522.38	433.00
522.55	456.40
522.72	376.83
522.89	423.64
523.07	451.72
523.24	418.96
523.41	404.91
523.58	393.21
523.75	369.80
523.92	433.00
524.10	397.89
524.27	409.59
524.44	447.04
524.61	472.79
524.78	411.93
524.96	465.77
525.13	442.36
525.30	374.49
525.47	421.30
525.64	416.62
525.81	454.06
525.98	449.38
526.16	456.40
526.33	449.38
526.50	393.21
526.67	393.21
526.84	440.02
527.01	468.11
527.18	395.55
527.36	510.24
527.53	423.64
527.70	456.40
527.87	437.68
528.04	418.96
528.21	409.59
528.38	433.00
528.55	449.38
528.72	440.02
528.89	449.38
529.07	393.21
529.24	458.74
529.41	456.40
529.58	442.36
529.75	374.49
529.92	451.72
530.09	442.36
530.26	423.64
530.43	470.45
530.60	418.96
530.77	395.55
530.94	421.30
531.11	395.55
531.28	395.55
531.46	416.62
531.63	463.43
531.80	477.47
531.97	442.36
532.14	451.72
532.31	442.36
532.48	428.32
532.65	451.72
532.82	381.51
532.99	475.13
533.16	482.15
533.33	402.57
533.50	386.19
533.67	383.85
533.84	444.70
534.01	437.68
534.18	372.15
534.35	362.78
534.52	444.70
534.69	386.19
534.86	376.83
535.03	409.59
535.20	447.04
535.37	346.40
535.54	421.30
535.71	416.62
535.88	493.85
536.05	416.62
536.22	409.59
536.38	451.72
536.55	447.04
536.72	397.89
536.89	447.04
537.06	433.00
537.23	395.55
537.40	437.68
537.57	409.59
537.74	437.68
537.91	416.62
538.08	454.06
538.25	421.30
538.42	458.74
538.59	390.87
538.75	414.27
538.92	390.87
539.09	400.23
539.26	428.32
539.43	423.64
539.60	468.11
539.77	486.83
539.94	423.64
540.11	423.64
540.28	393.21
540.44	425.98
540.61	411.93
540.78	388.53
540.95	411.93
541.12	458.74
541.29	379.17
541.46	428.32
541.62	479.81
541.79	458.74
541.96	379.17
542.13	360.44
542.30	416.62
542.47	409.59
542.63	402.57
542.80	428.32
542.97	451.72
543.14	348.74
543.31	404.91
543.48	423.64
543.64	435.34
543.81	428.32
543.98	454.06
544.15	414.27
544.32	355.76
544.48	407.25
544.65	390.87
544.82	365.12
544.99	465.77
545.16	433.00
545.32	465.77
545.49	447.04
545.66	397.89
545.83	444.70
546.00	360.44
546.16	409.59
546.33	491.51
546.50	395.55
546.67	463.43
546.83	353.42
547.00	475.13
547.17	381.51
547.34	416.62
547.50	435.34
547.67	425.98
547.84	461.09
548.00	491.51
548.17	376.83
548.34	414.27
548.51	482.15
548.67	442.36
548.84	447.04
549.01	416.62
549.18	430.66
549.34	400.23
549.51	397.89
549.68	458.74
549.84	407.25
550.01	449.38
550.18	491.51
550.34	517.26
550.51	440.02
550.68	423.64
550.84	465.77
551.01	433.00
551.18	400.23
551.34	397.89
551.51	447.04
551.68	346.40
551.84	447.04
552.01	393.21
552.18	400.23
552.34	365.12
552.51	414.27
552.68	411.93
552.84	416.62
553.01	425.98
553.18	468.11
553.34	409.59
553.51	428.32
553.67	486.83
553.84	461.09
554.01	423.64
554.17	404.91
554.34	388.53
554.51	369.80
554.67	383.85
554.84	451.72
555.00	437.68
555.17	472.79
555.33	451.72
555.50	437.68
555.67	418.96
555.83	465.77
556.00	425.98
556.16	524.28
556.33	505.56
556.50	472.79
556.66	451.72
556.83	418.96
556.99	402.57
557.16	465.77
557.32	479.81
557.49	477.47
557.65	414.27
557.82	423.64
557.98	355.76
558.15	395.55
558.32	475.13
558.48	484.49
558.65	421.30
558.81	470.45
558.98	444.70
559.14	454.06
559.31	411.93
559.47	454.06
559.64	360.44
559.80	402.57
559.97	418.96
560.13	442.36
560.30	425.98
560.46	418.96
560.63	514.92
560.79	454.06
560.96	400.23
561.12	447.04
561.29	440.02
561.45	444.70
561.61	430.66
561.78	465.77
561.94	521.94
562.11	425.98
562.27	475.13
562.44	397.89
562.60	383.85
562.77	418.96
562.93	428.32
563.10	383.85
563.26	477.47
563.42	400.23
563.59	351.08
563.75	358.10
563.92	372.15
564.08	421.30
564.24	397.89
564.41	447.04
564.57	456.40
564.74	461.09
564.90	381.51
565.07	468.11
565.23	475.13
565.39	388.53
565.56	458.74
565.72	386.19
565.88	461.09
566.05	463.43
566.21	379.17
566.38	482.15
566.54	421.30
566.70	440.02
566.87	447.04
567.03	421.30
567.19	463.43
567.36	482.15
567.52	416.62
567.68	437.68
567.85	442.36
568.01	500.87
568.17	418.96
568.34	447.04
568.50	407.25
568.66	458.74
568.83	444.70
568.99	519.60
569.15	493.85
569.32	397.89
569.48	482.15
569.64	400.23
569.81	458.74
569.97	369.80
570.13	442.36
570.30	444.70
570.46	418.96
570.62	421.30
570.78	444.70
570.95	430.66
571.11	437.68
571.27	416.62
571.43	433.00
571.60	465.77
571.76	456.40
571.92	425.98
572.09	451.72
572.25	421.30
572.41	456.40
572.57	367.46
572.74	498.53
572.90	447.04
573.06	402.57
573.22	470.45
573.38	344.06
573.55	421.30
573.71	456.40
573.87	435.34
574.03	367.46
574.20	423.64
574.36	348.74
574.52	365.12
574.68	367.46
574.84	440.02
575.01	386.19
575.17	390.87
575.33	451.72
575.49	472.79
575.65	465.77
575.82	440.02
575.98	440.02
576.14	484.49
576.30	400.23
576.46	402.57
576.62	428.32
576.79	376.83
576.95	416.62
577.11	468.11
577.27	430.66
577.43	386.19
577.59	421.30
577.75	423.64
577.92	442.36
578.08	369.80
578.24	327.68
578.40	465.77
578.56	404.91
578.72	475.13
578.88	449.38
579.04	416.62
579.21	351.08
579.37	435.34
579.53	353.42
579.69	414.27
579.85	383.85
580.01	379.17
580.17	454.06
580.33	393.21
580.49	425.98
580.65	451.72
580.82	440.02
580.98	430.66
581.14	411.93
581.30	407.25
581.46	407.25
581.62	489.17
581.78	472.79
581.94	404.91
582.10	425.98
582.26	454.06
582.42	418.96
582.58	400.23
582.74	393.21
582.90	486.83
583.06	374.49
583.22	402.57
583.38	407.25
583.54	454.06
583.70	437.68
583.86	454.06
584.02	374.49
584.18	531.30
584.34	411.93
584.50	402.57
584.66	379.17
584.82	400.23
584.98	418.96
585.14	416.62
585.30	414.27
585.46	430.66
585.62	386.19
585.78	404.91
585.94	470.45
586.10	383.85
586.26	484.49
586.42	496.19
586.58	421.30
586.74	444.70
586.90	367.46
587.06	449.38
587.22	489.17
587.38	435.34
587.54	353.42
587.70	437.68
587.86	430.66
588.02	379.17
588.18	404.91
588.34	395.55
588.49	376.83
588.65	437.68
588.81	414.27
588.97	442.36
589.13	437.68
589.29	428.32
589.45	456.40
589.61	447.04
589.77	458.74
589.93	425.98
590.08	463.43
590.24	327.68
590.40	322.99
590.56	531.30
590.72	421.30
590.88	404.91
591.04	416.62
591.20	414.27
591.35	414.27
591.51	430.66
591.67	416.62
591.83	463.43
591.99	414.27
592.15	423.64
592.31	435.34
592.46	388.53
592.62	435.34
592.78	400.23
592.94	416.62
593.10	428.32
593.26	388.53
593.41	435.34
593.57	444.70
593.73	365.12
593.89	444.70
594.05	433.00
594.20	386.19
594.36	360.44
594.52	409.59
594.68	374.49
594.84	493.85
594.99	472.79
595.15	397.89
595.31	461.09
595.47	428.32
595.62	425.98
595.78	437.68
595.94	444.70
596.10	430.66
596.25	425.98
596.41	437.68
596.57	475.13
596.73	344.06
596.88	379.17
597.04	428.32
597.20	409.59
597.36	475.13
597.51	397.89
597.67	428.32
597.83	397.89
597.99	465.77
598.14	421.30
598.30	440.02
598.46	369.80
598.61	395.55
598.77	440.02
598.93	397.89
599.09	383.85
599.24	428.32
599.40	404.91
599.56	416.62
599.71	374.49
599.87	428.32
600.03	358.10
600.18	376.83
600.34	437.68
600.50	449.38
600.65	407.25
600.81	407.25
600.97	425.98
601.12	416.62
601.28	388.53
601.44	437.68
601.59	430.66
601.75	479.81
601.91	372.15
602.06	465.77
602.22	430.66
602.37	374.49
602.53	451.72
602.69	437.68
602.84	388.53
603.00	397.89
603.16	372.15
603.31	463.43
603.47	386.19
603.62	435.34
603.78	416.62
603.94	379.17
604.09	430.66
604.25	465.77
604.40	430.66
604.56	444.70
604.71	416.62
604.87	407.25
605.03	411.93
605.18	404.91
605.34	458.74
605.49	379.17
605.65	372.15
605.80	423.64
605.96	397.89
606.12	449.38
606.27	447.04
606.43	456.40
606.58	428.32
606.74	437.68
606.89	437.68
607.05	451.72
607.20	468.11
607.36	414.27
607.51	400.23
607.67	421.30
607.82	379.17
607.98	475.13
608.13	407.25
608.29	395.55
608.44	430.66
608.60	449.38
608.75	465.77
608.91	458.74
609.06	425.98
609.22	397.89
609.37	433.00
609.53	414.27
609.68	458.74
609.84	428.32
609.99	397.89
610.15	376.83
