SpectraSuite Data File
++++++++++++++++++++++++++++++++++++
Date: Fri Oct 25 12:10:43 EDT 2013
User: price-jones
Dark Spectrum Present: No
Reference Spectrum Present: No
Number of Sampled Component Spectra: 1
Spectrometers: USB2+H05261
Integration Time (usec): 100000 (USB2+H05261)
Spectra Averaged: 1 (USB2+H05261)
Boxcar Smoothing: 0 (USB2+H05261)
Correct for Electrical Dark: No (USB2+H05261)
Strobe/Lamp Enabled: No (USB2+H05261)
Correct for Detector Non-linearity: No (USB2+H05261)
Correct for Stray Light: No (USB2+H05261)
Number of Pixels in Processed Spectrum: 2048
>>>>>Begin Processed Spectral Data<<<<<
365.73	332.36
365.92	332.36
366.12	332.36
366.32	234.05
366.52	205.97
366.72	266.82
366.91	166.18
367.11	283.20
367.31	170.86
367.51	220.01
367.70	273.84
367.90	159.16
368.10	278.52
368.30	215.33
368.49	177.88
368.69	224.69
368.89	187.24
369.09	266.82
369.28	287.89
369.48	248.10
369.68	294.91
369.87	259.80
370.07	301.93
370.27	374.49
370.47	330.02
370.66	365.12
370.86	376.83
371.06	376.83
371.25	430.66
371.45	318.31
371.65	341.72
371.84	416.62
372.04	320.65
372.24	428.32
372.44	442.36
372.63	386.19
372.83	472.79
373.03	337.04
373.22	409.59
373.42	404.91
373.62	376.83
373.81	447.04
374.01	503.22
374.21	465.77
374.40	458.74
374.60	463.43
374.79	447.04
374.99	369.80
375.19	376.83
375.38	407.25
375.58	409.59
375.78	526.62
375.97	435.34
376.17	484.49
376.37	407.25
376.56	454.06
376.76	339.38
376.95	425.98
377.15	454.06
377.35	477.47
377.54	381.51
377.74	369.80
377.93	447.04
378.13	418.96
378.33	411.93
378.52	374.49
378.72	395.55
378.91	437.68
379.11	416.62
379.31	379.17
379.50	461.09
379.70	454.06
379.89	428.32
380.09	402.57
380.28	397.89
380.48	346.40
380.68	451.72
380.87	360.44
381.07	400.23
381.26	414.27
381.46	409.59
381.65	367.46
381.85	433.00
382.04	376.83
382.24	435.34
382.43	348.74
382.63	435.34
382.83	397.89
383.02	423.64
383.22	407.25
383.41	374.49
383.61	369.80
383.80	362.78
384.00	421.30
384.19	411.93
384.39	449.38
384.58	358.10
384.78	369.80
384.97	358.10
385.17	444.70
385.36	449.38
385.56	425.98
385.75	437.68
385.95	418.96
386.14	447.04
386.34	470.45
386.53	395.55
386.72	379.17
386.92	407.25
387.11	442.36
387.31	409.59
387.50	400.23
387.70	320.65
387.89	397.89
388.09	353.42
388.28	327.68
388.48	404.91
388.67	388.53
388.86	297.25
389.06	447.04
389.25	383.85
389.45	465.77
389.64	318.31
389.84	444.70
390.03	418.96
390.22	430.66
390.42	395.55
390.61	374.49
390.81	402.57
391.00	388.53
391.19	423.64
391.39	423.64
391.58	442.36
391.78	386.19
391.97	409.59
392.16	423.64
392.36	428.32
392.55	435.34
392.75	428.32
392.94	430.66
393.13	411.93
393.33	362.78
393.52	379.17
393.71	475.13
393.91	381.51
394.10	348.74
394.29	402.57
394.49	362.78
394.68	400.23
394.88	404.91
395.07	440.02
395.26	379.17
395.46	451.72
395.65	477.47
395.84	433.00
396.04	503.22
396.23	442.36
396.42	400.23
396.62	376.83
396.81	407.25
397.00	348.74
397.19	421.30
397.39	348.74
397.58	416.62
397.77	369.80
397.97	383.85
398.16	416.62
398.35	416.62
398.55	341.72
398.74	393.21
398.93	489.17
399.12	430.66
399.32	379.17
399.51	440.02
399.70	353.42
399.90	372.15
400.09	388.53
400.28	451.72
400.47	482.15
400.67	423.64
400.86	379.17
401.05	416.62
401.24	470.45
401.44	411.93
401.63	381.51
401.82	416.62
402.01	358.10
402.21	428.32
402.40	418.96
402.59	414.27
402.78	451.72
402.97	381.51
403.17	362.78
403.36	365.12
403.55	379.17
403.74	386.19
403.93	421.30
404.13	458.74
404.32	437.68
404.51	383.85
404.70	393.21
404.89	416.62
405.09	486.83
405.28	358.10
405.47	418.96
405.66	433.00
405.85	418.96
406.05	416.62
406.24	390.87
406.43	411.93
406.62	404.91
406.81	465.77
407.00	449.38
407.20	463.43
407.39	400.23
407.58	393.21
407.77	423.64
407.96	414.27
408.15	442.36
408.34	376.83
408.54	425.98
408.73	395.55
408.92	381.51
409.11	383.85
409.30	400.23
409.49	479.81
409.68	468.11
409.87	430.66
410.07	372.15
410.26	388.53
410.45	407.25
410.64	447.04
410.83	440.02
411.02	400.23
411.21	360.44
411.40	442.36
411.59	423.64
411.78	369.80
411.98	397.89
412.17	285.55
412.36	383.85
412.55	348.74
412.74	416.62
412.93	423.64
413.12	355.76
413.31	416.62
413.50	449.38
413.69	379.17
413.88	397.89
414.07	372.15
414.26	461.09
414.45	421.30
414.64	355.76
414.83	360.44
415.02	383.85
415.22	437.68
415.41	486.83
415.60	425.98
415.79	379.17
415.98	463.43
416.17	376.83
416.36	404.91
416.55	376.83
416.74	390.87
416.93	440.02
417.12	428.32
417.31	458.74
417.50	344.06
417.69	449.38
417.88	402.57
418.07	379.17
418.26	351.08
418.45	416.62
418.64	421.30
418.83	400.23
419.02	376.83
419.21	404.91
419.39	381.51
419.58	393.21
419.77	404.91
419.96	299.59
420.15	451.72
420.34	341.72
420.53	411.93
420.72	383.85
420.91	379.17
421.10	395.55
421.29	367.46
421.48	404.91
421.67	374.49
421.86	437.68
422.05	430.66
422.24	503.22
422.43	400.23
422.61	402.57
422.80	318.31
422.99	416.62
423.18	414.27
423.37	393.21
423.56	388.53
423.75	447.04
423.94	407.25
424.13	400.23
424.32	493.85
424.50	376.83
424.69	409.59
424.88	411.93
425.07	351.08
425.26	454.06
425.45	463.43
425.64	414.27
425.83	376.83
426.01	430.66
426.20	416.62
426.39	404.91
426.58	461.09
426.77	381.51
426.96	444.70
427.15	510.24
427.33	430.66
427.52	449.38
427.71	461.09
427.90	360.44
428.09	491.51
428.28	472.79
428.46	458.74
428.65	369.80
428.84	386.19
429.03	451.72
429.22	416.62
429.40	411.93
429.59	472.79
429.78	414.27
429.97	388.53
430.16	447.04
430.34	465.77
430.53	341.72
430.72	351.08
430.91	435.34
431.10	388.53
431.28	407.25
431.47	430.66
431.66	465.77
431.85	400.23
432.03	423.64
432.22	463.43
432.41	383.85
432.60	435.34
432.79	407.25
432.97	367.46
433.16	397.89
433.35	381.51
433.54	386.19
433.72	435.34
433.91	470.45
434.10	379.17
434.28	407.25
434.47	400.23
434.66	440.02
434.85	374.49
435.03	470.45
435.22	475.13
435.41	470.45
435.59	463.43
435.78	451.72
435.97	386.19
436.16	430.66
436.34	416.62
436.53	414.27
436.72	493.85
436.90	437.68
437.09	430.66
437.28	463.43
437.46	404.91
437.65	414.27
437.84	430.66
438.02	362.78
438.21	346.40
438.40	414.27
438.58	440.02
438.77	418.96
438.96	409.59
439.14	418.96
439.33	400.23
439.52	442.36
439.70	409.59
439.89	416.62
440.08	409.59
440.26	421.30
440.45	444.70
440.63	447.04
440.82	351.08
441.01	409.59
441.19	395.55
441.38	365.12
441.57	465.77
441.75	454.06
441.94	444.70
442.12	463.43
442.31	337.04
442.50	402.57
442.68	383.85
442.87	407.25
443.05	435.34
443.24	400.23
443.43	355.76
443.61	454.06
443.80	475.13
443.98	421.30
444.17	418.96
444.35	479.81
444.54	393.21
444.73	390.87
444.91	475.13
445.10	367.46
445.28	379.17
445.47	395.55
445.65	358.10
445.84	381.51
446.02	383.85
446.21	341.72
446.39	393.21
446.58	430.66
446.77	332.36
446.95	355.76
447.14	461.09
447.32	458.74
447.51	402.57
447.69	435.34
447.88	393.21
448.06	435.34
448.25	404.91
448.43	428.32
448.62	440.02
448.80	428.32
448.99	388.53
449.17	423.64
449.36	510.24
449.54	465.77
449.73	379.17
449.91	451.72
450.10	348.74
450.28	475.13
450.46	395.55
450.65	486.83
450.83	344.06
451.02	421.30
451.20	421.30
451.39	360.44
451.57	433.00
451.76	400.23
451.94	341.72
452.13	355.76
452.31	379.17
452.49	472.79
452.68	423.64
452.86	433.00
453.05	383.85
453.23	376.83
453.42	360.44
453.60	390.87
453.78	421.30
453.97	430.66
454.15	330.02
454.34	315.97
454.52	433.00
454.70	435.34
454.89	451.72
455.07	346.40
455.26	395.55
455.44	503.22
455.62	404.91
455.81	400.23
455.99	442.36
456.17	428.32
456.36	407.25
456.54	472.79
456.73	383.85
456.91	372.15
457.09	400.23
457.28	447.04
457.46	440.02
457.64	404.91
457.83	416.62
458.01	430.66
458.19	395.55
458.38	374.49
458.56	379.17
458.74	388.53
458.93	428.32
459.11	421.30
459.29	421.30
459.48	395.55
459.66	383.85
459.84	414.27
460.03	458.74
460.21	374.49
460.39	461.09
460.57	388.53
460.76	437.68
460.94	433.00
461.12	407.25
461.31	381.51
461.49	407.25
461.67	388.53
461.85	332.36
462.04	437.68
462.22	774.72
462.40	365.12
462.59	416.62
462.77	428.32
462.95	360.44
463.13	430.66
463.32	376.83
463.50	414.27
463.68	421.30
463.86	423.64
464.05	407.25
464.23	416.62
464.41	447.04
464.59	348.74
464.78	447.04
464.96	337.04
465.14	407.25
465.32	327.68
465.50	430.66
465.69	372.15
465.87	358.10
466.05	374.49
466.23	442.36
466.41	447.04
466.60	496.19
466.78	423.64
466.96	454.06
467.14	430.66
467.32	416.62
467.51	477.47
467.69	376.83
467.87	493.85
468.05	421.30
468.23	447.04
468.41	409.59
468.60	376.83
468.78	402.57
468.96	444.70
469.14	388.53
469.32	425.98
469.50	404.91
469.69	400.23
469.87	386.19
470.05	409.59
470.23	411.93
470.41	397.89
470.59	397.89
470.77	454.06
470.95	447.04
471.14	393.21
471.32	402.57
471.50	433.00
471.68	402.57
471.86	402.57
472.04	416.62
472.22	451.72
472.40	381.51
472.58	433.00
472.77	390.87
472.95	454.06
473.13	407.25
473.31	458.74
473.49	402.57
473.67	313.63
473.85	416.62
474.03	416.62
474.21	442.36
474.39	418.96
474.57	461.09
474.75	388.53
474.93	369.80
475.12	437.68
475.30	409.59
475.48	430.66
475.66	421.30
475.84	425.98
476.02	409.59
476.20	386.19
476.38	458.74
476.56	404.91
476.74	447.04
476.92	395.55
477.10	447.04
477.28	425.98
477.46	393.21
477.64	383.85
477.82	414.27
478.00	447.04
478.18	435.34
478.36	444.70
478.54	435.34
478.72	440.02
478.90	376.83
479.08	339.38
479.26	449.38
479.44	418.96
479.62	395.55
479.80	388.53
479.98	421.30
480.16	397.89
480.34	421.30
480.52	381.51
480.70	346.40
480.88	433.00
481.06	386.19
481.24	360.44
481.41	411.93
481.59	435.34
481.77	348.74
481.95	425.98
482.13	395.55
482.31	395.55
482.49	470.45
482.67	435.34
482.85	430.66
483.03	374.49
483.21	395.55
483.39	362.78
483.57	355.76
483.74	360.44
483.92	442.36
484.10	397.89
484.28	486.83
484.46	512.58
484.64	388.53
484.82	447.04
485.00	376.83
485.18	393.21
485.35	360.44
485.53	386.19
485.71	435.34
485.89	411.93
486.07	383.85
486.25	470.45
486.43	440.02
486.61	465.77
486.78	428.32
486.96	367.46
487.14	440.02
487.32	379.17
487.50	421.30
487.68	358.10
487.85	355.76
488.03	484.49
488.21	477.47
488.39	430.66
488.57	428.32
488.75	425.98
488.92	486.83
489.10	414.27
489.28	475.13
489.46	411.93
489.64	348.74
489.81	454.06
489.99	383.85
490.17	451.72
490.35	407.25
490.53	344.06
490.70	355.76
490.88	489.17
491.06	444.70
491.24	367.46
491.41	428.32
491.59	430.66
491.77	386.19
491.95	386.19
492.13	374.49
492.30	372.15
492.48	372.15
492.66	395.55
492.84	461.09
493.01	463.43
493.19	404.91
493.37	404.91
493.54	435.34
493.72	386.19
493.90	388.53
494.08	379.17
494.25	388.53
494.43	369.80
494.61	381.51
494.79	388.53
494.96	348.74
495.14	430.66
495.32	404.91
495.49	372.15
495.67	428.32
495.85	437.68
496.02	383.85
496.20	428.32
496.38	369.80
496.55	379.17
496.73	465.77
496.91	402.57
497.09	425.98
497.26	395.55
497.44	379.17
497.62	430.66
497.79	374.49
497.97	433.00
498.14	425.98
498.32	519.60
498.50	374.49
498.67	383.85
498.85	486.83
499.03	463.43
499.20	369.80
499.38	425.98
499.56	374.49
499.73	383.85
499.91	470.45
500.08	484.49
500.26	463.43
500.44	440.02
500.61	421.30
500.79	430.66
500.97	507.90
501.14	440.02
501.32	358.10
501.49	465.77
501.67	423.64
501.84	393.21
502.02	386.19
502.20	400.23
502.37	383.85
502.55	423.64
502.72	386.19
502.90	428.32
503.07	475.13
503.25	475.13
503.43	430.66
503.60	404.91
503.78	351.08
503.95	425.98
504.13	435.34
504.30	416.62
504.48	442.36
504.65	348.74
504.83	428.32
505.01	381.51
505.18	348.74
505.36	365.12
505.53	379.17
505.71	381.51
505.88	355.76
506.06	404.91
506.23	367.46
506.41	346.40
506.58	442.36
506.76	400.23
506.93	486.83
507.11	510.24
507.28	395.55
507.46	442.36
507.63	425.98
507.81	404.91
507.98	379.17
508.16	397.89
508.33	472.79
508.50	423.64
508.68	416.62
508.85	393.21
509.03	379.17
509.20	463.43
509.38	475.13
509.55	346.40
509.73	486.83
509.90	409.59
510.08	313.63
510.25	416.62
510.42	409.59
510.60	479.81
510.77	423.64
510.95	330.02
511.12	451.72
511.30	407.25
511.47	444.70
511.64	491.51
511.82	421.30
511.99	407.25
512.17	449.38
512.34	409.59
512.51	390.87
512.69	358.10
512.86	484.49
513.04	416.62
513.21	423.64
513.38	355.76
513.56	360.44
513.73	397.89
513.90	409.59
514.08	402.57
514.25	442.36
514.43	421.30
514.60	425.98
514.77	440.02
514.95	421.30
515.12	454.06
515.29	461.09
515.47	451.72
515.64	454.06
515.81	379.17
515.99	423.64
516.16	428.32
516.33	425.98
516.51	472.79
516.68	458.74
516.85	423.64
517.03	437.68
517.20	458.74
517.37	454.06
517.54	416.62
517.72	468.11
517.89	397.89
518.06	416.62
518.24	407.25
518.41	393.21
518.58	440.02
518.75	440.02
518.93	470.45
519.10	395.55
519.27	374.49
519.45	423.64
519.62	388.53
519.79	400.23
519.96	447.04
520.14	437.68
520.31	477.47
520.48	444.70
520.65	421.30
520.83	489.17
521.00	442.36
521.17	414.27
521.34	393.21
521.52	379.17
521.69	416.62
521.86	409.59
522.03	477.47
522.20	386.19
522.38	409.59
522.55	383.85
522.72	421.30
522.89	411.93
523.07	383.85
523.24	393.21
523.41	435.34
523.58	376.83
523.75	369.80
523.92	418.96
524.10	402.57
524.27	390.87
524.44	351.08
524.61	437.68
524.78	433.00
524.96	430.66
525.13	456.40
525.30	444.70
525.47	388.53
525.64	416.62
525.81	512.58
525.98	440.02
526.16	463.43
526.33	390.87
526.50	507.90
526.67	358.10
526.84	423.64
527.01	353.42
527.18	475.13
527.36	355.76
527.53	330.02
527.70	388.53
527.87	468.11
528.04	451.72
528.21	463.43
528.38	447.04
528.55	425.98
528.72	418.96
528.89	395.55
529.07	379.17
529.24	414.27
529.41	449.38
529.58	489.17
529.75	421.30
529.92	444.70
530.09	397.89
530.26	416.62
530.43	433.00
530.60	449.38
530.77	404.91
530.94	416.62
531.11	465.77
531.28	428.32
531.46	430.66
531.63	395.55
531.80	440.02
531.97	409.59
532.14	440.02
532.31	454.06
532.48	451.72
532.65	390.87
532.82	388.53
532.99	390.87
533.16	339.38
533.33	379.17
533.50	491.51
533.67	416.62
533.84	470.45
534.01	528.96
534.18	470.45
534.35	409.59
534.52	451.72
534.69	383.85
534.86	414.27
535.03	447.04
535.20	461.09
535.37	491.51
535.54	376.83
535.71	376.83
535.88	456.40
536.05	388.53
536.22	388.53
536.38	337.04
536.55	465.77
536.72	433.00
536.89	428.32
537.06	397.89
537.23	402.57
537.40	449.38
537.57	388.53
537.74	458.74
537.91	442.36
538.08	395.55
538.25	442.36
538.42	433.00
538.59	463.43
538.75	404.91
538.92	491.51
539.09	437.68
539.26	407.25
539.43	402.57
539.60	461.09
539.77	493.85
539.94	381.51
540.11	395.55
540.28	500.87
540.44	463.43
540.61	463.43
540.78	430.66
540.95	414.27
541.12	479.81
541.29	414.27
541.46	376.83
541.62	376.83
541.79	444.70
541.96	421.30
542.13	341.72
542.30	463.43
542.47	451.72
542.63	461.09
542.80	421.30
542.97	447.04
543.14	440.02
543.31	482.15
543.48	458.74
543.64	451.72
543.81	418.96
543.98	332.36
544.15	409.59
544.32	440.02
544.48	355.76
544.65	468.11
544.82	456.40
544.99	402.57
545.16	454.06
545.32	433.00
545.49	449.38
545.66	444.70
545.83	475.13
546.00	411.93
546.16	425.98
546.33	386.19
546.50	449.38
546.67	437.68
546.83	496.19
547.00	421.30
547.17	313.63
547.34	411.93
547.50	425.98
547.67	409.59
547.84	411.93
548.00	486.83
548.17	369.80
548.34	425.98
548.51	421.30
548.67	418.96
548.84	400.23
549.01	372.15
549.18	407.25
549.34	451.72
549.51	397.89
549.68	437.68
549.84	360.44
550.01	451.72
550.18	414.27
550.34	486.83
550.51	365.12
550.68	465.77
550.84	442.36
551.01	397.89
551.18	451.72
551.34	358.10
551.51	472.79
551.68	423.64
551.84	442.36
552.01	475.13
552.18	404.91
552.34	388.53
552.51	423.64
552.68	339.38
552.84	362.78
553.01	449.38
553.18	421.30
553.34	386.19
553.51	360.44
553.67	458.74
553.84	458.74
554.01	386.19
554.17	416.62
554.34	433.00
554.51	409.59
554.67	388.53
554.84	491.51
555.00	409.59
555.17	362.78
555.33	475.13
555.50	500.87
555.67	407.25
555.83	404.91
556.00	414.27
556.16	559.39
556.33	440.02
556.50	386.19
556.66	390.87
556.83	430.66
556.99	433.00
557.16	433.00
557.32	433.00
557.49	440.02
557.65	430.66
557.82	407.25
557.98	379.17
558.15	365.12
558.32	433.00
558.48	484.49
558.65	390.87
558.81	423.64
558.98	430.66
559.14	454.06
559.31	447.04
559.47	341.72
559.64	379.17
559.80	433.00
559.97	397.89
560.13	454.06
560.30	411.93
560.46	409.59
560.63	397.89
560.79	435.34
560.96	444.70
561.12	404.91
561.29	428.32
561.45	484.49
561.61	421.30
561.78	489.17
561.94	421.30
562.11	402.57
562.27	482.15
562.44	344.06
562.60	381.51
562.77	456.40
562.93	531.30
563.10	390.87
563.26	440.02
563.42	479.81
563.59	404.91
563.75	397.89
563.92	484.49
564.08	444.70
564.24	472.79
564.41	489.17
564.57	351.08
564.74	341.72
564.90	421.30
565.07	337.04
565.23	409.59
565.39	390.87
565.56	433.00
565.72	386.19
565.88	407.25
566.05	418.96
566.21	418.96
566.38	433.00
566.54	428.32
566.70	475.13
566.87	477.47
567.03	376.83
567.19	437.68
567.36	381.51
567.52	498.53
567.68	367.46
567.85	404.91
568.01	397.89
568.17	433.00
568.34	435.34
568.50	421.30
568.66	458.74
568.83	491.51
568.99	407.25
569.15	435.34
569.32	353.42
569.48	367.46
569.64	402.57
569.81	437.68
569.97	465.77
570.13	484.49
570.30	496.19
570.46	461.09
570.62	428.32
570.78	337.04
570.95	421.30
571.11	447.04
571.27	416.62
571.43	479.81
571.60	442.36
571.76	388.53
571.92	400.23
572.09	404.91
572.25	454.06
572.41	346.40
572.57	416.62
572.74	421.30
572.90	423.64
573.06	454.06
573.22	397.89
573.38	418.96
573.55	463.43
573.71	477.47
573.87	369.80
574.03	397.89
574.20	416.62
574.36	421.30
574.52	348.74
574.68	418.96
574.84	369.80
575.01	458.74
575.17	393.21
575.33	451.72
575.49	435.34
575.65	486.83
575.82	381.51
575.98	365.12
576.14	409.59
576.30	379.17
576.46	355.76
576.62	430.66
576.79	425.98
576.95	402.57
577.11	334.70
577.27	407.25
577.43	479.81
577.59	484.49
577.75	355.76
577.92	423.64
578.08	386.19
578.24	447.04
578.40	418.96
578.56	381.51
578.72	383.85
578.88	430.66
579.04	442.36
579.21	475.13
579.37	493.85
579.53	440.02
579.69	489.17
579.85	425.98
580.01	479.81
580.17	358.10
580.33	414.27
580.49	315.97
580.65	409.59
580.82	433.00
580.98	369.80
581.14	376.83
581.30	423.64
581.46	425.98
581.62	454.06
581.78	383.85
581.94	358.10
582.10	313.63
582.26	409.59
582.42	411.93
582.58	400.23
582.74	388.53
582.90	454.06
583.06	397.89
583.22	402.57
583.38	390.87
583.54	379.17
583.70	430.66
583.86	369.80
584.02	416.62
584.18	468.11
584.34	400.23
584.50	395.55
584.66	400.23
584.82	348.74
584.98	414.27
585.14	433.00
585.30	416.62
585.46	444.70
585.62	351.08
585.78	442.36
585.94	409.59
586.10	418.96
586.26	435.34
586.42	416.62
586.58	379.17
586.74	348.74
586.90	386.19
587.06	425.98
587.22	449.38
587.38	451.72
587.54	320.65
587.70	416.62
587.86	353.42
588.02	411.93
588.18	425.98
588.34	400.23
588.49	400.23
588.65	362.78
588.81	409.59
588.97	416.62
589.13	479.81
589.29	468.11
589.45	379.17
589.61	411.93
589.77	404.91
589.93	425.98
590.08	362.78
590.24	433.00
590.40	463.43
590.56	482.15
590.72	458.74
590.88	388.53
591.04	428.32
591.20	360.44
591.35	489.17
591.51	423.64
591.67	355.76
591.83	423.64
591.99	477.47
592.15	416.62
592.31	400.23
592.46	402.57
592.62	475.13
592.78	379.17
592.94	468.11
593.10	337.04
593.26	437.68
593.41	435.34
593.57	440.02
593.73	440.02
593.89	341.72
594.05	355.76
594.20	362.78
594.36	425.98
594.52	458.74
594.68	435.34
594.84	451.72
594.99	416.62
595.15	395.55
595.31	369.80
595.47	496.19
595.62	449.38
595.78	383.85
595.94	449.38
596.10	409.59
596.25	461.09
596.41	409.59
596.57	440.02
596.73	430.66
596.88	442.36
597.04	442.36
597.20	400.23
597.36	425.98
597.51	418.96
597.67	428.32
597.83	383.85
597.99	447.04
598.14	423.64
598.30	395.55
598.46	454.06
598.61	393.21
598.77	454.06
598.93	423.64
599.09	470.45
599.24	425.98
599.40	400.23
599.56	402.57
599.71	433.00
599.87	428.32
600.03	444.70
600.18	374.49
600.34	425.98
600.50	404.91
600.65	400.23
600.81	397.89
600.97	454.06
601.12	449.38
601.28	463.43
601.44	379.17
601.59	395.55
601.75	402.57
601.91	482.15
602.06	425.98
602.22	496.19
602.37	421.30
602.53	402.57
602.69	433.00
602.84	458.74
603.00	461.09
603.16	416.62
603.31	428.32
603.47	404.91
603.62	348.74
603.78	393.21
603.94	404.91
604.09	404.91
604.25	383.85
604.40	383.85
604.56	402.57
604.71	442.36
604.87	500.87
605.03	475.13
605.18	430.66
605.34	451.72
605.49	423.64
605.65	315.97
605.80	437.68
605.96	379.17
606.12	456.40
606.27	414.27
606.43	468.11
606.58	418.96
606.74	461.09
606.89	390.87
607.05	475.13
607.20	491.51
607.36	381.51
607.51	411.93
607.67	330.02
607.82	402.57
607.98	379.17
608.13	388.53
608.29	400.23
608.44	454.06
608.60	475.13
608.75	444.70
608.91	442.36
609.06	421.30
609.22	479.81
609.37	379.17
609.53	440.02
609.68	433.00
609.84	374.49
609.99	472.79
610.15	416.62
