SpectraSuite Data File
++++++++++++++++++++++++++++++++++++
Date: Fri Oct 25 12:10:23 EDT 2013
User: price-jones
Dark Spectrum Present: No
Reference Spectrum Present: No
Number of Sampled Component Spectra: 1
Spectrometers: USB2+H05261
Integration Time (usec): 100000 (USB2+H05261)
Spectra Averaged: 1 (USB2+H05261)
Boxcar Smoothing: 0 (USB2+H05261)
Correct for Electrical Dark: No (USB2+H05261)
Strobe/Lamp Enabled: No (USB2+H05261)
Correct for Detector Non-linearity: No (USB2+H05261)
Correct for Stray Light: No (USB2+H05261)
Number of Pixels in Processed Spectrum: 2048
>>>>>Begin Processed Spectral Data<<<<<
365.73	304.27
365.92	304.27
366.12	304.27
366.32	222.35
366.52	248.10
366.72	203.63
366.91	142.77
367.11	287.89
367.31	217.67
367.51	236.39
367.70	248.10
367.90	177.88
368.10	220.01
368.30	222.35
368.49	255.12
368.69	184.90
368.89	234.05
369.09	234.05
369.28	262.14
369.48	292.57
369.68	308.95
369.87	294.91
370.07	327.68
370.27	360.44
370.47	339.38
370.66	320.65
370.86	397.89
371.06	369.80
371.25	468.11
371.45	362.78
371.65	388.53
371.84	320.65
372.04	327.68
372.24	379.17
372.44	346.40
372.63	344.06
372.83	437.68
373.03	386.19
373.22	428.32
373.42	414.27
373.62	390.87
373.81	409.59
374.01	411.93
374.21	421.30
374.40	388.53
374.60	404.91
374.79	393.21
374.99	421.30
375.19	437.68
375.38	421.30
375.58	428.32
375.78	402.57
375.97	414.27
376.17	442.36
376.37	397.89
376.56	376.83
376.76	383.85
376.95	407.25
377.15	451.72
377.35	388.53
377.54	341.72
377.74	465.77
377.93	332.36
378.13	414.27
378.33	367.46
378.52	421.30
378.72	407.25
378.91	404.91
379.11	358.10
379.31	390.87
379.50	407.25
379.70	421.30
379.89	489.17
380.09	433.00
380.28	414.27
380.48	447.04
380.68	484.49
380.87	449.38
381.07	400.23
381.26	498.53
381.46	397.89
381.65	407.25
381.85	444.70
382.04	369.80
382.24	414.27
382.43	390.87
382.63	425.98
382.83	367.46
383.02	489.17
383.22	393.21
383.41	418.96
383.61	402.57
383.80	418.96
384.00	383.85
384.19	367.46
384.39	442.36
384.58	355.76
384.78	468.11
384.97	404.91
385.17	418.96
385.36	353.42
385.56	407.25
385.75	397.89
385.95	390.87
386.14	360.44
386.34	362.78
386.53	428.32
386.72	344.06
386.92	386.19
387.11	435.34
387.31	440.02
387.50	433.00
387.70	379.17
387.89	374.49
388.09	379.17
388.28	440.02
388.48	355.76
388.67	486.83
388.86	397.89
389.06	400.23
389.25	482.15
389.45	402.57
389.64	428.32
389.84	395.55
390.03	407.25
390.22	402.57
390.42	404.91
390.61	437.68
390.81	400.23
391.00	393.21
391.19	372.15
391.39	351.08
391.58	430.66
391.78	409.59
391.97	376.83
392.16	376.83
392.36	435.34
392.55	360.44
392.75	451.72
392.94	376.83
393.13	367.46
393.33	442.36
393.52	355.76
393.71	470.45
393.91	444.70
394.10	355.76
394.29	360.44
394.49	362.78
394.68	461.09
394.88	411.93
395.07	489.17
395.26	402.57
395.46	400.23
395.65	447.04
395.84	386.19
396.04	470.45
396.23	374.49
396.42	411.93
396.62	449.38
396.81	477.47
397.00	423.64
397.19	404.91
397.39	346.40
397.58	430.66
397.77	402.57
397.97	355.76
398.16	386.19
398.35	327.68
398.55	442.36
398.74	365.12
398.93	313.63
399.12	337.04
399.32	388.53
399.51	437.68
399.70	390.87
399.90	414.27
400.09	402.57
400.28	442.36
400.47	351.08
400.67	355.76
400.86	358.10
401.05	383.85
401.24	409.59
401.44	416.62
401.63	383.85
401.82	447.04
402.01	372.15
402.21	468.11
402.40	449.38
402.59	418.96
402.78	402.57
402.97	379.17
403.17	320.65
403.36	444.70
403.55	418.96
403.74	383.85
403.93	437.68
404.13	444.70
404.32	376.83
404.51	395.55
404.70	465.77
404.89	327.68
405.09	395.55
405.28	430.66
405.47	339.38
405.66	369.80
405.85	402.57
406.05	381.51
406.24	386.19
406.43	365.12
406.62	362.78
406.81	475.13
407.00	409.59
407.20	400.23
407.39	397.89
407.58	383.85
407.77	393.21
407.96	388.53
408.15	404.91
408.34	369.80
408.54	379.17
408.73	325.33
408.92	409.59
409.11	374.49
409.30	374.49
409.49	355.76
409.68	327.68
409.87	437.68
410.07	456.40
410.26	435.34
410.45	395.55
410.64	416.62
410.83	411.93
411.02	376.83
411.21	519.60
411.40	458.74
411.59	416.62
411.78	503.22
411.98	404.91
412.17	360.44
412.36	404.91
412.55	346.40
412.74	423.64
412.93	381.51
413.12	461.09
413.31	447.04
413.50	402.57
413.69	355.76
413.88	369.80
414.07	507.90
414.26	397.89
414.45	465.77
414.64	397.89
414.83	477.47
415.02	404.91
415.22	433.00
415.41	409.59
415.60	423.64
415.79	421.30
415.98	383.85
416.17	376.83
416.36	435.34
416.55	362.78
416.74	383.85
416.93	402.57
417.12	468.11
417.31	409.59
417.50	376.83
417.69	433.00
417.88	407.25
418.07	383.85
418.26	362.78
418.45	430.66
418.64	463.43
418.83	433.00
419.02	423.64
419.21	425.98
419.39	404.91
419.58	397.89
419.77	388.53
419.96	428.32
420.15	430.66
420.34	374.49
420.53	416.62
420.72	416.62
420.91	444.70
421.10	437.68
421.29	418.96
421.48	397.89
421.67	360.44
421.86	428.32
422.05	430.66
422.24	397.89
422.43	393.21
422.61	435.34
422.80	379.17
422.99	395.55
423.18	421.30
423.37	407.25
423.56	442.36
423.75	402.57
423.94	341.72
424.13	437.68
424.32	374.49
424.50	388.53
424.69	379.17
424.88	425.98
425.07	353.42
425.26	447.04
425.45	374.49
425.64	390.87
425.83	498.53
426.01	475.13
426.20	437.68
426.39	435.34
426.58	402.57
426.77	454.06
426.96	430.66
427.15	456.40
427.33	313.63
427.52	397.89
427.71	402.57
427.90	425.98
428.09	367.46
428.28	322.99
428.46	416.62
428.65	468.11
428.84	388.53
429.03	447.04
429.22	374.49
429.40	402.57
429.59	355.76
429.78	505.56
429.97	416.62
430.16	425.98
430.34	404.91
430.53	418.96
430.72	344.06
430.91	498.53
431.10	362.78
431.28	402.57
431.47	393.21
431.66	414.27
431.85	383.85
432.03	454.06
432.22	379.17
432.41	409.59
432.60	411.93
432.79	360.44
432.97	421.30
433.16	421.30
433.35	372.15
433.54	425.98
433.72	465.77
433.91	465.77
434.10	411.93
434.28	470.45
434.47	388.53
434.66	365.12
434.85	334.70
435.03	379.17
435.22	447.04
435.41	479.81
435.59	493.85
435.78	451.72
435.97	428.32
436.16	428.32
436.34	400.23
436.53	365.12
436.72	393.21
436.90	407.25
437.09	409.59
437.28	365.12
437.46	369.80
437.65	491.51
437.84	411.93
438.02	458.74
438.21	393.21
438.40	360.44
438.58	351.08
438.77	414.27
438.96	425.98
439.14	430.66
439.33	416.62
439.52	351.08
439.70	421.30
439.89	372.15
440.08	465.77
440.26	381.51
440.45	444.70
440.63	428.32
440.82	386.19
441.01	437.68
441.19	421.30
441.38	409.59
441.57	341.72
441.75	512.58
441.94	524.28
442.12	386.19
442.31	416.62
442.50	414.27
442.68	348.74
442.87	425.98
443.05	379.17
443.24	407.25
443.43	425.98
443.61	421.30
443.80	437.68
443.98	407.25
444.17	454.06
444.35	505.56
444.54	435.34
444.73	400.23
444.91	470.45
445.10	397.89
445.28	320.65
445.47	402.57
445.65	472.79
445.84	416.62
446.02	425.98
446.21	416.62
446.39	402.57
446.58	341.72
446.77	386.19
446.95	437.68
447.14	458.74
447.32	435.34
447.51	376.83
447.69	440.02
447.88	421.30
448.06	449.38
448.25	449.38
448.43	428.32
448.62	454.06
448.80	404.91
448.99	367.46
449.17	418.96
449.36	376.83
449.54	458.74
449.73	372.15
449.91	428.32
450.10	400.23
450.28	416.62
450.46	381.51
450.65	397.89
450.83	468.11
451.02	379.17
451.20	365.12
451.39	421.30
451.57	397.89
451.76	461.09
451.94	369.80
452.13	416.62
452.31	397.89
452.49	404.91
452.68	433.00
452.86	411.93
453.05	386.19
453.23	379.17
453.42	409.59
453.60	433.00
453.78	362.78
453.97	421.30
454.15	479.81
454.34	388.53
454.52	411.93
454.70	390.87
454.89	472.79
455.07	379.17
455.26	435.34
455.44	367.46
455.62	416.62
455.81	475.13
455.99	468.11
456.17	332.36
456.36	433.00
456.54	369.80
456.73	402.57
456.91	433.00
457.09	388.53
457.28	379.17
457.46	456.40
457.64	407.25
457.83	423.64
458.01	418.96
458.19	454.06
458.38	402.57
458.56	365.12
458.74	400.23
458.93	362.78
459.11	418.96
459.29	425.98
459.48	409.59
459.66	444.70
459.84	372.15
460.03	496.19
460.21	498.53
460.39	400.23
460.57	381.51
460.76	404.91
460.94	444.70
461.12	437.68
461.31	433.00
461.49	449.38
461.67	395.55
461.85	423.64
462.04	430.66
462.22	819.19
462.40	407.25
462.59	479.81
462.77	433.00
462.95	444.70
463.13	433.00
463.32	404.91
463.50	383.85
463.68	447.04
463.86	505.56
464.05	372.15
464.23	404.91
464.41	395.55
464.59	365.12
464.78	430.66
464.96	383.85
465.14	442.36
465.32	409.59
465.50	416.62
465.69	418.96
465.87	390.87
466.05	421.30
466.23	437.68
466.41	355.76
466.60	397.89
466.78	425.98
466.96	449.38
467.14	430.66
467.32	414.27
467.51	381.51
467.69	437.68
467.87	393.21
468.05	404.91
468.23	458.74
468.41	454.06
468.60	430.66
468.78	379.17
468.96	404.91
469.14	440.02
469.32	411.93
469.50	369.80
469.69	435.34
469.87	477.47
470.05	386.19
470.23	428.32
470.41	367.46
470.59	442.36
470.77	491.51
470.95	383.85
471.14	454.06
471.32	449.38
471.50	472.79
471.68	486.83
471.86	395.55
472.04	346.40
472.22	388.53
472.40	489.17
472.58	463.43
472.77	360.44
472.95	411.93
473.13	440.02
473.31	397.89
473.49	500.87
473.67	440.02
473.85	418.96
474.03	348.74
474.21	475.13
474.39	393.21
474.57	407.25
474.75	411.93
474.93	503.22
475.12	379.17
475.30	444.70
475.48	400.23
475.66	344.06
475.84	423.64
476.02	395.55
476.20	475.13
476.38	475.13
476.56	456.40
476.74	407.25
476.92	397.89
477.10	369.80
477.28	477.47
477.46	393.21
477.64	425.98
477.82	418.96
478.00	381.51
478.18	440.02
478.36	449.38
478.54	400.23
478.72	449.38
478.90	421.30
479.08	444.70
479.26	400.23
479.44	486.83
479.62	428.32
479.80	437.68
479.98	390.87
480.16	407.25
480.34	545.34
480.52	418.96
480.70	395.55
480.88	437.68
481.06	402.57
481.24	362.78
481.41	381.51
481.59	407.25
481.77	404.91
481.95	409.59
482.13	447.04
482.31	411.93
482.49	395.55
482.67	428.32
482.85	388.53
483.03	383.85
483.21	360.44
483.39	442.36
483.57	418.96
483.74	435.34
483.92	433.00
484.10	407.25
484.28	463.43
484.46	477.47
484.64	477.47
484.82	355.76
485.00	402.57
485.18	482.15
485.35	409.59
485.53	428.32
485.71	397.89
485.89	365.12
486.07	477.47
486.25	433.00
486.43	458.74
486.61	465.77
486.78	458.74
486.96	379.17
487.14	334.70
487.32	414.27
487.50	362.78
487.68	440.02
487.85	367.46
488.03	486.83
488.21	454.06
488.39	397.89
488.57	402.57
488.75	402.57
488.92	435.34
489.10	437.68
489.28	442.36
489.46	390.87
489.64	477.47
489.81	416.62
489.99	400.23
490.17	381.51
490.35	372.15
490.53	472.79
490.70	449.38
490.88	442.36
491.06	383.85
491.24	383.85
491.41	390.87
491.59	440.02
491.77	526.62
491.95	393.21
492.13	355.76
492.30	475.13
492.48	388.53
492.66	428.32
492.84	465.77
493.01	404.91
493.19	381.51
493.37	456.40
493.54	372.15
493.72	346.40
493.90	433.00
494.08	442.36
494.25	463.43
494.43	458.74
494.61	430.66
494.79	451.72
494.96	376.83
495.14	418.96
495.32	449.38
495.49	465.77
495.67	440.02
495.85	414.27
496.02	437.68
496.20	400.23
496.38	442.36
496.55	468.11
496.73	458.74
496.91	402.57
497.09	447.04
497.26	407.25
497.44	376.83
497.62	404.91
497.79	433.00
497.97	425.98
498.14	435.34
498.32	386.19
498.50	416.62
498.67	330.02
498.85	430.66
499.03	397.89
499.20	402.57
499.38	362.78
499.56	437.68
499.73	393.21
499.91	360.44
500.08	393.21
500.26	411.93
500.44	418.96
500.61	491.51
500.79	379.17
500.97	367.46
501.14	418.96
501.32	332.36
501.49	421.30
501.67	393.21
501.84	407.25
502.02	388.53
502.20	390.87
502.37	400.23
502.55	397.89
502.72	421.30
502.90	430.66
503.07	423.64
503.25	456.40
503.43	360.44
503.60	402.57
503.78	404.91
503.95	470.45
504.13	444.70
504.30	477.47
504.48	435.34
504.65	381.51
504.83	416.62
505.01	430.66
505.18	341.72
505.36	418.96
505.53	400.23
505.71	416.62
505.88	435.34
506.06	402.57
506.23	376.83
506.41	404.91
506.58	449.38
506.76	372.15
506.93	486.83
507.11	372.15
507.28	451.72
507.46	402.57
507.63	416.62
507.81	433.00
507.98	470.45
508.16	404.91
508.33	393.21
508.50	414.27
508.68	414.27
508.85	449.38
509.03	423.64
509.20	407.25
509.38	444.70
509.55	379.17
509.73	454.06
509.90	440.02
510.08	386.19
510.25	449.38
510.42	379.17
510.60	458.74
510.77	379.17
510.95	425.98
511.12	346.40
511.30	440.02
511.47	421.30
511.64	493.85
511.82	482.15
511.99	381.51
512.17	402.57
512.34	348.74
512.51	468.11
512.69	411.93
512.86	402.57
513.04	332.36
513.21	393.21
513.38	475.13
513.56	379.17
513.73	465.77
513.90	327.68
514.08	433.00
514.25	423.64
514.43	449.38
514.60	360.44
514.77	425.98
514.95	315.97
515.12	423.64
515.29	416.62
515.47	383.85
515.64	402.57
515.81	360.44
515.99	414.27
516.16	482.15
516.33	402.57
516.51	451.72
516.68	433.00
516.85	440.02
517.03	454.06
517.20	421.30
517.37	425.98
517.54	421.30
517.72	358.10
517.89	322.99
518.06	451.72
518.24	433.00
518.41	442.36
518.58	444.70
518.75	400.23
518.93	393.21
519.10	458.74
519.27	433.00
519.45	425.98
519.62	454.06
519.79	503.22
519.96	404.91
520.14	341.72
520.31	407.25
520.48	351.08
520.65	367.46
520.83	430.66
521.00	367.46
521.17	433.00
521.34	372.15
521.52	451.72
521.69	386.19
521.86	475.13
522.03	411.93
522.20	451.72
522.38	407.25
522.55	435.34
522.72	353.42
522.89	451.72
523.07	505.56
523.24	360.44
523.41	486.83
523.58	433.00
523.75	437.68
523.92	374.49
524.10	411.93
524.27	362.78
524.44	411.93
524.61	322.99
524.78	425.98
524.96	372.15
525.13	388.53
525.30	449.38
525.47	372.15
525.64	435.34
525.81	388.53
525.98	395.55
526.16	320.65
526.33	416.62
526.50	327.68
526.67	421.30
526.84	386.19
527.01	395.55
527.18	430.66
527.36	475.13
527.53	318.31
527.70	416.62
527.87	351.08
528.04	430.66
528.21	402.57
528.38	376.83
528.55	484.49
528.72	360.44
528.89	416.62
529.07	386.19
529.24	416.62
529.41	395.55
529.58	367.46
529.75	379.17
529.92	430.66
530.09	397.89
530.26	423.64
530.43	369.80
530.60	365.12
530.77	418.96
530.94	454.06
531.11	456.40
531.28	447.04
531.46	433.00
531.63	433.00
531.80	409.59
531.97	376.83
532.14	379.17
532.31	437.68
532.48	381.51
532.65	348.74
532.82	381.51
532.99	454.06
533.16	430.66
533.33	472.79
533.50	421.30
533.67	468.11
533.84	411.93
534.01	358.10
534.18	449.38
534.35	369.80
534.52	458.74
534.69	386.19
534.86	468.11
535.03	358.10
535.20	393.21
535.37	444.70
535.54	390.87
535.71	435.34
535.88	461.09
536.05	339.38
536.22	437.68
536.38	402.57
536.55	444.70
536.72	465.77
536.89	297.25
537.06	348.74
537.23	447.04
537.40	369.80
537.57	390.87
537.74	433.00
537.91	400.23
538.08	393.21
538.25	374.49
538.42	400.23
538.59	390.87
538.75	341.72
538.92	362.78
539.09	454.06
539.26	397.89
539.43	458.74
539.60	430.66
539.77	454.06
539.94	416.62
540.11	306.61
540.28	395.55
540.44	470.45
540.61	362.78
540.78	383.85
540.95	334.70
541.12	418.96
541.29	428.32
541.46	489.17
541.62	414.27
541.79	386.19
541.96	444.70
542.13	423.64
542.30	393.21
542.47	407.25
542.63	442.36
542.80	360.44
542.97	428.32
543.14	437.68
543.31	458.74
543.48	386.19
543.64	454.06
543.81	407.25
543.98	475.13
544.15	362.78
544.32	404.91
544.48	360.44
544.65	358.10
544.82	397.89
544.99	442.36
545.16	376.83
545.32	337.04
545.49	428.32
545.66	430.66
545.83	440.02
546.00	367.46
546.16	360.44
546.33	472.79
546.50	376.83
546.67	400.23
546.83	440.02
547.00	435.34
547.17	367.46
547.34	447.04
547.50	348.74
547.67	430.66
547.84	393.21
548.00	435.34
548.17	411.93
548.34	362.78
548.51	421.30
548.67	407.25
548.84	409.59
549.01	428.32
549.18	400.23
549.34	437.68
549.51	428.32
549.68	519.60
549.84	386.19
550.01	433.00
550.18	451.72
550.34	425.98
550.51	404.91
550.68	451.72
550.84	454.06
551.01	440.02
551.18	404.91
551.34	465.77
551.51	390.87
551.68	458.74
551.84	348.74
552.01	416.62
552.18	388.53
552.34	407.25
552.51	461.09
552.68	433.00
552.84	454.06
553.01	444.70
553.18	500.87
553.34	444.70
553.51	435.34
553.67	458.74
553.84	489.17
554.01	390.87
554.17	435.34
554.34	376.83
554.51	437.68
554.67	437.68
554.84	465.77
555.00	411.93
555.17	475.13
555.33	454.06
555.50	440.02
555.67	447.04
555.83	428.32
556.00	369.80
556.16	550.03
556.33	461.09
556.50	332.36
556.66	407.25
556.83	400.23
556.99	437.68
557.16	423.64
557.32	339.38
557.49	386.19
557.65	339.38
557.82	458.74
557.98	393.21
558.15	456.40
558.32	458.74
558.48	437.68
558.65	418.96
558.81	400.23
558.98	381.51
559.14	425.98
559.31	456.40
559.47	402.57
559.64	367.46
559.80	433.00
559.97	390.87
560.13	416.62
560.30	425.98
560.46	423.64
560.63	407.25
560.79	409.59
560.96	414.27
561.12	430.66
561.29	393.21
561.45	444.70
561.61	449.38
561.78	498.53
561.94	503.22
562.11	381.51
562.27	393.21
562.44	418.96
562.60	423.64
562.77	526.62
562.93	472.79
563.10	463.43
563.26	477.47
563.42	435.34
563.59	454.06
563.75	381.51
563.92	428.32
564.08	484.49
564.24	418.96
564.41	383.85
564.57	456.40
564.74	411.93
564.90	395.55
565.07	435.34
565.23	374.49
565.39	418.96
565.56	416.62
565.72	407.25
565.88	430.66
566.05	440.02
566.21	397.89
566.38	418.96
566.54	386.19
566.70	421.30
566.87	468.11
567.03	421.30
567.19	430.66
567.36	416.62
567.52	418.96
567.68	416.62
567.85	423.64
568.01	344.06
568.17	386.19
568.34	451.72
568.50	468.11
568.66	337.04
568.83	456.40
568.99	407.25
569.15	404.91
569.32	451.72
569.48	447.04
569.64	393.21
569.81	395.55
569.97	428.32
570.13	447.04
570.30	397.89
570.46	486.83
570.62	454.06
570.78	414.27
570.95	447.04
571.11	433.00
571.27	447.04
571.43	447.04
571.60	442.36
571.76	397.89
571.92	468.11
572.09	484.49
572.25	388.53
572.41	383.85
572.57	360.44
572.74	451.72
572.90	454.06
573.06	421.30
573.22	442.36
573.38	547.69
573.55	416.62
573.71	360.44
573.87	404.91
574.03	365.12
574.20	465.77
574.36	479.81
574.52	393.21
574.68	421.30
574.84	339.38
575.01	440.02
575.17	477.47
575.33	393.21
575.49	402.57
575.65	397.89
575.82	491.51
575.98	477.47
576.14	402.57
576.30	379.17
576.46	400.23
576.62	414.27
576.79	376.83
576.95	463.43
577.11	461.09
577.27	444.70
577.43	423.64
577.59	491.51
577.75	491.51
577.92	390.87
578.08	444.70
578.24	386.19
578.40	400.23
578.56	430.66
578.72	461.09
578.88	479.81
579.04	374.49
579.21	475.13
579.37	390.87
579.53	444.70
579.69	379.17
579.85	414.27
580.01	418.96
580.17	409.59
580.33	388.53
580.49	402.57
580.65	486.83
580.82	418.96
580.98	376.83
581.14	400.23
581.30	433.00
581.46	451.72
581.62	444.70
581.78	381.51
581.94	423.64
582.10	435.34
582.26	416.62
582.42	379.17
582.58	435.34
582.74	404.91
582.90	463.43
583.06	425.98
583.22	404.91
583.38	407.25
583.54	397.89
583.70	468.11
583.86	454.06
584.02	414.27
584.18	454.06
584.34	472.79
584.50	416.62
584.66	447.04
584.82	383.85
584.98	374.49
585.14	461.09
585.30	414.27
585.46	425.98
585.62	414.27
585.78	409.59
585.94	409.59
586.10	421.30
586.26	407.25
586.42	510.24
586.58	306.61
586.74	402.57
586.90	404.91
587.06	416.62
587.22	437.68
587.38	423.64
587.54	365.12
587.70	449.38
587.86	409.59
588.02	444.70
588.18	493.85
588.34	393.21
588.49	418.96
588.65	465.77
588.81	397.89
588.97	379.17
589.13	414.27
589.29	386.19
589.45	475.13
589.61	428.32
589.77	402.57
589.93	379.17
590.08	379.17
590.24	388.53
590.40	447.04
590.56	411.93
590.72	421.30
590.88	472.79
591.04	489.17
591.20	458.74
591.35	505.56
591.51	449.38
591.67	334.70
591.83	379.17
591.99	454.06
592.15	386.19
592.31	365.12
592.46	409.59
592.62	482.15
592.78	468.11
592.94	388.53
593.10	393.21
593.26	407.25
593.41	498.53
593.57	421.30
593.73	435.34
593.89	428.32
594.05	451.72
594.20	430.66
594.36	447.04
594.52	360.44
594.68	444.70
594.84	468.11
594.99	454.06
595.15	418.96
595.31	425.98
595.47	442.36
595.62	454.06
595.78	433.00
595.94	437.68
596.10	425.98
596.25	456.40
596.41	449.38
596.57	451.72
596.73	425.98
596.88	376.83
597.04	346.40
597.20	418.96
597.36	447.04
597.51	430.66
597.67	463.43
597.83	365.12
597.99	423.64
598.14	365.12
598.30	449.38
598.46	447.04
598.61	456.40
598.77	369.80
598.93	440.02
599.09	430.66
599.24	418.96
599.40	374.49
599.56	470.45
599.71	383.85
599.87	386.19
600.03	449.38
600.18	456.40
600.34	463.43
600.50	402.57
600.65	374.49
600.81	397.89
600.97	475.13
601.12	409.59
601.28	475.13
601.44	458.74
601.59	404.91
601.75	369.80
601.91	381.51
602.06	381.51
602.22	510.24
602.37	449.38
602.53	475.13
602.69	414.27
602.84	437.68
603.00	430.66
603.16	458.74
603.31	442.36
603.47	407.25
603.62	346.40
603.78	418.96
603.94	489.17
604.09	437.68
604.25	463.43
604.40	479.81
604.56	437.68
604.71	379.17
604.87	402.57
605.03	458.74
605.18	465.77
605.34	407.25
605.49	435.34
605.65	411.93
605.80	465.77
605.96	381.51
606.12	435.34
606.27	423.64
606.43	433.00
606.58	421.30
606.74	437.68
606.89	407.25
607.05	411.93
607.20	418.96
607.36	468.11
607.51	327.68
607.67	369.80
607.82	346.40
607.98	465.77
608.13	423.64
608.29	390.87
608.44	477.47
608.60	447.04
608.75	425.98
608.91	376.83
609.06	451.72
609.22	428.32
609.37	437.68
609.53	447.04
609.68	437.68
609.84	367.46
609.99	397.89
610.15	409.59
