SpectraSuite Data File
++++++++++++++++++++++++++++++++++++
Date: Fri Oct 25 12:11:13 EDT 2013
User: price-jones
Dark Spectrum Present: No
Reference Spectrum Present: No
Number of Sampled Component Spectra: 1
Spectrometers: USB2+H05261
Integration Time (usec): 100000 (USB2+H05261)
Spectra Averaged: 1 (USB2+H05261)
Boxcar Smoothing: 0 (USB2+H05261)
Correct for Electrical Dark: No (USB2+H05261)
Strobe/Lamp Enabled: No (USB2+H05261)
Correct for Detector Non-linearity: No (USB2+H05261)
Correct for Stray Light: No (USB2+H05261)
Number of Pixels in Processed Spectrum: 2048
>>>>>Begin Processed Spectral Data<<<<<
365.73	388.53
365.92	388.53
366.12	388.53
366.32	234.05
366.52	262.14
366.72	257.46
366.91	252.78
367.11	215.33
367.31	222.35
367.51	292.57
367.70	215.33
367.90	278.52
368.10	217.67
368.30	248.10
368.49	182.56
368.69	278.52
368.89	238.73
369.09	248.10
369.28	346.40
369.48	276.18
369.68	257.46
369.87	278.52
370.07	311.29
370.27	252.78
370.47	318.31
370.66	372.15
370.86	381.51
371.06	390.87
371.25	365.12
371.45	425.98
371.65	397.89
371.84	330.02
372.04	367.46
372.24	383.85
372.44	428.32
372.63	395.55
372.83	327.68
373.03	353.42
373.22	390.87
373.42	379.17
373.62	423.64
373.81	362.78
374.01	500.87
374.21	507.90
374.40	383.85
374.60	421.30
374.79	411.93
374.99	390.87
375.19	402.57
375.38	479.81
375.58	454.06
375.78	456.40
375.97	414.27
376.17	379.17
376.37	404.91
376.56	402.57
376.76	411.93
376.95	404.91
377.15	442.36
377.35	449.38
377.54	379.17
377.74	433.00
377.93	433.00
378.13	397.89
378.33	374.49
378.52	479.81
378.72	421.30
378.91	393.21
379.11	433.00
379.31	425.98
379.50	332.36
379.70	367.46
379.89	390.87
380.09	381.51
380.28	353.42
380.48	463.43
380.68	365.12
380.87	409.59
381.07	365.12
381.26	470.45
381.46	454.06
381.65	386.19
381.85	433.00
382.04	365.12
382.24	442.36
382.43	395.55
382.63	381.51
382.83	367.46
383.02	433.00
383.22	442.36
383.41	388.53
383.61	393.21
383.80	433.00
384.00	472.79
384.19	376.83
384.39	416.62
384.58	404.91
384.78	376.83
384.97	395.55
385.17	442.36
385.36	411.93
385.56	318.31
385.75	421.30
385.95	397.89
386.14	402.57
386.34	372.15
386.53	430.66
386.72	444.70
386.92	351.08
387.11	400.23
387.31	372.15
387.50	379.17
387.70	428.32
387.89	465.77
388.09	381.51
388.28	318.31
388.48	386.19
388.67	423.64
388.86	418.96
389.06	360.44
389.25	442.36
389.45	402.57
389.64	447.04
389.84	372.15
390.03	386.19
390.22	465.77
390.42	423.64
390.61	390.87
390.81	337.04
391.00	430.66
391.19	365.12
391.39	379.17
391.58	409.59
391.78	395.55
391.97	348.74
392.16	344.06
392.36	313.63
392.55	386.19
392.75	416.62
392.94	355.76
393.13	365.12
393.33	409.59
393.52	397.89
393.71	409.59
393.91	402.57
394.10	430.66
394.29	386.19
394.49	383.85
394.68	383.85
394.88	411.93
395.07	414.27
395.26	418.96
395.46	433.00
395.65	414.27
395.84	388.53
396.04	472.79
396.23	397.89
396.42	362.78
396.62	409.59
396.81	355.76
397.00	472.79
397.19	425.98
397.39	332.36
397.58	407.25
397.77	348.74
397.97	397.89
398.16	458.74
398.35	362.78
398.55	421.30
398.74	390.87
398.93	414.27
399.12	379.17
399.32	470.45
399.51	395.55
399.70	440.02
399.90	372.15
400.09	435.34
400.28	388.53
400.47	379.17
400.67	390.87
400.86	425.98
401.05	440.02
401.24	458.74
401.44	428.32
401.63	400.23
401.82	411.93
402.01	433.00
402.21	449.38
402.40	447.04
402.59	367.46
402.78	458.74
402.97	372.15
403.17	400.23
403.36	440.02
403.55	369.80
403.74	393.21
403.93	346.40
404.13	440.02
404.32	465.77
404.51	451.72
404.70	442.36
404.89	346.40
405.09	465.77
405.28	388.53
405.47	393.21
405.66	386.19
405.85	475.13
406.05	400.23
406.24	362.78
406.43	395.55
406.62	430.66
406.81	519.60
407.00	425.98
407.20	418.96
407.39	456.40
407.58	362.78
407.77	430.66
407.96	437.68
408.15	365.12
408.34	388.53
408.54	414.27
408.73	407.25
408.92	456.40
409.11	428.32
409.30	379.17
409.49	479.81
409.68	404.91
409.87	388.53
410.07	322.99
410.26	421.30
410.45	397.89
410.64	292.57
410.83	379.17
411.02	395.55
411.21	477.47
411.40	325.33
411.59	362.78
411.78	327.68
411.98	435.34
412.17	395.55
412.36	393.21
412.55	367.46
412.74	461.09
412.93	435.34
413.12	379.17
413.31	425.98
413.50	383.85
413.69	358.10
413.88	386.19
414.07	451.72
414.26	374.49
414.45	435.34
414.64	433.00
414.83	367.46
415.02	435.34
415.22	390.87
415.41	433.00
415.60	440.02
415.79	416.62
415.98	449.38
416.17	414.27
416.36	444.70
416.55	334.70
416.74	449.38
416.93	411.93
417.12	404.91
417.31	414.27
417.50	449.38
417.69	400.23
417.88	367.46
418.07	430.66
418.26	433.00
418.45	444.70
418.64	428.32
418.83	486.83
419.02	395.55
419.21	430.66
419.39	374.49
419.58	440.02
419.77	390.87
419.96	442.36
420.15	411.93
420.34	477.47
420.53	428.32
420.72	400.23
420.91	449.38
421.10	362.78
421.29	449.38
421.48	461.09
421.67	461.09
421.86	442.36
422.05	381.51
422.24	404.91
422.43	454.06
422.61	381.51
422.80	388.53
422.99	428.32
423.18	411.93
423.37	393.21
423.56	386.19
423.75	416.62
423.94	381.51
424.13	390.87
424.32	376.83
424.50	402.57
424.69	388.53
424.88	468.11
425.07	402.57
425.26	369.80
425.45	414.27
425.64	423.64
425.83	397.89
426.01	468.11
426.20	402.57
426.39	386.19
426.58	402.57
426.77	425.98
426.96	430.66
427.15	393.21
427.33	425.98
427.52	475.13
427.71	416.62
427.90	463.43
428.09	325.33
428.28	334.70
428.46	386.19
428.65	393.21
428.84	353.42
429.03	496.19
429.22	372.15
429.40	407.25
429.59	402.57
429.78	381.51
429.97	416.62
430.16	374.49
430.34	451.72
430.53	461.09
430.72	428.32
430.91	444.70
431.10	397.89
431.28	372.15
431.47	472.79
431.66	381.51
431.85	402.57
432.03	435.34
432.22	414.27
432.41	383.85
432.60	470.45
432.79	482.15
432.97	376.83
433.16	430.66
433.35	449.38
433.54	458.74
433.72	418.96
433.91	505.56
434.10	379.17
434.28	416.62
434.47	395.55
434.66	503.22
434.85	425.98
435.03	395.55
435.22	449.38
435.41	374.49
435.59	442.36
435.78	397.89
435.97	486.83
436.16	449.38
436.34	442.36
436.53	449.38
436.72	393.21
436.90	386.19
437.09	447.04
437.28	404.91
437.46	353.42
437.65	425.98
437.84	362.78
438.02	458.74
438.21	430.66
438.40	416.62
438.58	367.46
438.77	414.27
438.96	383.85
439.14	386.19
439.33	407.25
439.52	404.91
439.70	418.96
439.89	411.93
440.08	430.66
440.26	379.17
440.45	390.87
440.63	437.68
440.82	454.06
441.01	367.46
441.19	397.89
441.38	376.83
441.57	435.34
441.75	395.55
441.94	411.93
442.12	421.30
442.31	477.47
442.50	376.83
442.68	442.36
442.87	358.10
443.05	418.96
443.24	407.25
443.43	465.77
443.61	493.85
443.80	477.47
443.98	386.19
444.17	472.79
444.35	461.09
444.54	365.12
444.73	383.85
444.91	454.06
445.10	386.19
445.28	372.15
445.47	468.11
445.65	437.68
445.84	407.25
446.02	383.85
446.21	444.70
446.39	407.25
446.58	447.04
446.77	409.59
446.95	409.59
447.14	409.59
447.32	472.79
447.51	449.38
447.69	379.17
447.88	423.64
448.06	421.30
448.25	348.74
448.43	402.57
448.62	400.23
448.80	423.64
448.99	428.32
449.17	444.70
449.36	411.93
449.54	458.74
449.73	390.87
449.91	442.36
450.10	358.10
450.28	437.68
450.46	395.55
450.65	395.55
450.83	334.70
451.02	381.51
451.20	418.96
451.39	447.04
451.57	367.46
451.76	365.12
451.94	407.25
452.13	524.28
452.31	451.72
452.49	411.93
452.68	444.70
452.86	533.64
453.05	374.49
453.23	362.78
453.42	379.17
453.60	407.25
453.78	367.46
453.97	402.57
454.15	449.38
454.34	400.23
454.52	425.98
454.70	425.98
454.89	444.70
455.07	456.40
455.26	428.32
455.44	454.06
455.62	423.64
455.81	428.32
455.99	442.36
456.17	442.36
456.36	407.25
456.54	435.34
456.73	404.91
456.91	376.83
457.09	479.81
457.28	477.47
457.46	449.38
457.64	482.15
457.83	397.89
458.01	470.45
458.19	444.70
458.38	365.12
458.56	430.66
458.74	425.98
458.93	395.55
459.11	327.68
459.29	355.76
459.48	425.98
459.66	418.96
459.84	409.59
460.03	468.11
460.21	418.96
460.39	435.34
460.57	393.21
460.76	440.02
460.94	437.68
461.12	470.45
461.31	456.40
461.49	374.49
461.67	381.51
461.85	407.25
462.04	409.59
462.22	777.06
462.40	416.62
462.59	418.96
462.77	425.98
462.95	435.34
463.13	379.17
463.32	414.27
463.50	383.85
463.68	421.30
463.86	397.89
464.05	383.85
464.23	461.09
464.41	386.19
464.59	358.10
464.78	421.30
464.96	482.15
465.14	437.68
465.32	404.91
465.50	425.98
465.69	416.62
465.87	393.21
466.05	418.96
466.23	386.19
466.41	400.23
466.60	376.83
466.78	425.98
466.96	456.40
467.14	386.19
467.32	479.81
467.51	423.64
467.69	414.27
467.87	430.66
468.05	402.57
468.23	430.66
468.41	402.57
468.60	348.74
468.78	383.85
468.96	421.30
469.14	416.62
469.32	407.25
469.50	491.51
469.69	404.91
469.87	379.17
470.05	458.74
470.23	397.89
470.41	458.74
470.59	397.89
470.77	428.32
470.95	425.98
471.14	435.34
471.32	435.34
471.50	428.32
471.68	351.08
471.86	435.34
472.04	381.51
472.22	416.62
472.40	430.66
472.58	454.06
472.77	348.74
472.95	402.57
473.13	456.40
473.31	425.98
473.49	402.57
473.67	360.44
473.85	367.46
474.03	482.15
474.21	444.70
474.39	456.40
474.57	463.43
474.75	404.91
474.93	421.30
475.12	407.25
475.30	383.85
475.48	472.79
475.66	393.21
475.84	358.10
476.02	433.00
476.20	362.78
476.38	386.19
476.56	418.96
476.74	327.68
476.92	395.55
477.10	360.44
477.28	442.36
477.46	376.83
477.64	397.89
477.82	365.12
478.00	400.23
478.18	355.76
478.36	435.34
478.54	351.08
478.72	414.27
478.90	454.06
479.08	423.64
479.26	430.66
479.44	395.55
479.62	402.57
479.80	386.19
479.98	358.10
480.16	423.64
480.34	461.09
480.52	468.11
480.70	393.21
480.88	402.57
481.06	404.91
481.24	374.49
481.41	435.34
481.59	369.80
481.77	402.57
481.95	421.30
482.13	475.13
482.31	428.32
482.49	447.04
482.67	416.62
482.85	388.53
483.03	315.97
483.21	390.87
483.39	381.51
483.57	337.04
483.74	409.59
483.92	435.34
484.10	444.70
484.28	411.93
484.46	449.38
484.64	440.02
484.82	339.38
485.00	437.68
485.18	461.09
485.35	407.25
485.53	449.38
485.71	423.64
485.89	390.87
486.07	379.17
486.25	521.94
486.43	397.89
486.61	407.25
486.78	407.25
486.96	348.74
487.14	437.68
487.32	376.83
487.50	379.17
487.68	397.89
487.85	360.44
488.03	433.00
488.21	433.00
488.39	414.27
488.57	362.78
488.75	353.42
488.92	461.09
489.10	402.57
489.28	465.77
489.46	477.47
489.64	486.83
489.81	395.55
489.99	386.19
490.17	353.42
490.35	456.40
490.53	425.98
490.70	440.02
490.88	447.04
491.06	449.38
491.24	358.10
491.41	449.38
491.59	421.30
491.77	400.23
491.95	489.17
492.13	411.93
492.30	386.19
492.48	341.72
492.66	425.98
492.84	425.98
493.01	458.74
493.19	365.12
493.37	451.72
493.54	425.98
493.72	414.27
493.90	411.93
494.08	402.57
494.25	360.44
494.43	489.17
494.61	428.32
494.79	404.91
494.96	430.66
495.14	404.91
495.32	402.57
495.49	451.72
495.67	444.70
495.85	428.32
496.02	388.53
496.20	493.85
496.38	531.30
496.55	444.70
496.73	418.96
496.91	458.74
497.09	376.83
497.26	400.23
497.44	435.34
497.62	440.02
497.79	388.53
497.97	437.68
498.14	430.66
498.32	456.40
498.50	390.87
498.67	458.74
498.85	428.32
499.03	348.74
499.20	407.25
499.38	379.17
499.56	404.91
499.73	437.68
499.91	362.78
500.08	416.62
500.26	397.89
500.44	421.30
500.61	435.34
500.79	374.49
500.97	404.91
501.14	435.34
501.32	374.49
501.49	472.79
501.67	383.85
501.84	444.70
502.02	327.68
502.20	397.89
502.37	442.36
502.55	411.93
502.72	411.93
502.90	514.92
503.07	402.57
503.25	447.04
503.43	444.70
503.60	433.00
503.78	388.53
503.95	360.44
504.13	421.30
504.30	451.72
504.48	440.02
504.65	407.25
504.83	437.68
505.01	454.06
505.18	454.06
505.36	451.72
505.53	451.72
505.71	428.32
505.88	449.38
506.06	400.23
506.23	404.91
506.41	407.25
506.58	393.21
506.76	444.70
506.93	407.25
507.11	479.81
507.28	348.74
507.46	430.66
507.63	411.93
507.81	400.23
507.98	365.12
508.16	433.00
508.33	325.33
508.50	400.23
508.68	411.93
508.85	421.30
509.03	402.57
509.20	395.55
509.38	425.98
509.55	468.11
509.73	435.34
509.90	414.27
510.08	397.89
510.25	423.64
510.42	379.17
510.60	397.89
510.77	428.32
510.95	383.85
511.12	395.55
511.30	479.81
511.47	475.13
511.64	493.85
511.82	360.44
511.99	402.57
512.17	372.15
512.34	425.98
512.51	472.79
512.69	393.21
512.86	477.47
513.04	379.17
513.21	425.98
513.38	440.02
513.56	360.44
513.73	400.23
513.90	404.91
514.08	367.46
514.25	421.30
514.43	397.89
514.60	435.34
514.77	369.80
514.95	372.15
515.12	395.55
515.29	514.92
515.47	484.49
515.64	461.09
515.81	346.40
515.99	440.02
516.16	472.79
516.33	395.55
516.51	348.74
516.68	425.98
516.85	463.43
517.03	400.23
517.20	397.89
517.37	386.19
517.54	374.49
517.72	374.49
517.89	388.53
518.06	369.80
518.24	433.00
518.41	442.36
518.58	447.04
518.75	362.78
518.93	440.02
519.10	435.34
519.27	404.91
519.45	491.51
519.62	320.65
519.79	407.25
519.96	400.23
520.14	388.53
520.31	470.45
520.48	383.85
520.65	360.44
520.83	372.15
521.00	365.12
521.17	383.85
521.34	425.98
521.52	404.91
521.69	365.12
521.86	465.77
522.03	430.66
522.20	433.00
522.38	355.76
522.55	442.36
522.72	440.02
522.89	482.15
523.07	479.81
523.24	423.64
523.41	379.17
523.58	442.36
523.75	418.96
523.92	386.19
524.10	454.06
524.27	411.93
524.44	454.06
524.61	498.53
524.78	416.62
524.96	449.38
525.13	421.30
525.30	486.83
525.47	381.51
525.64	379.17
525.81	430.66
525.98	428.32
526.16	442.36
526.33	423.64
526.50	421.30
526.67	379.17
526.84	393.21
527.01	374.49
527.18	409.59
527.36	353.42
527.53	402.57
527.70	440.02
527.87	411.93
528.04	430.66
528.21	418.96
528.38	468.11
528.55	388.53
528.72	414.27
528.89	390.87
529.07	444.70
529.24	369.80
529.41	451.72
529.58	411.93
529.75	369.80
529.92	440.02
530.09	454.06
530.26	404.91
530.43	404.91
530.60	463.43
530.77	440.02
530.94	447.04
531.11	397.89
531.28	407.25
531.46	418.96
531.63	411.93
531.80	433.00
531.97	397.89
532.14	461.09
532.31	447.04
532.48	362.78
532.65	458.74
532.82	421.30
532.99	393.21
533.16	367.46
533.33	388.53
533.50	477.47
533.67	444.70
533.84	425.98
534.01	388.53
534.18	437.68
534.35	416.62
534.52	461.09
534.69	397.89
534.86	367.46
535.03	397.89
535.20	358.10
535.37	386.19
535.54	390.87
535.71	409.59
535.88	397.89
536.05	369.80
536.22	433.00
536.38	407.25
536.55	454.06
536.72	470.45
536.89	411.93
537.06	374.49
537.23	381.51
537.40	402.57
537.57	430.66
537.74	465.77
537.91	395.55
538.08	430.66
538.25	388.53
538.42	456.40
538.59	430.66
538.75	442.36
538.92	449.38
539.09	409.59
539.26	358.10
539.43	428.32
539.60	493.85
539.77	376.83
539.94	498.53
540.11	451.72
540.28	339.38
540.44	451.72
540.61	437.68
540.78	421.30
540.95	400.23
541.12	451.72
541.29	449.38
541.46	428.32
541.62	423.64
541.79	414.27
541.96	451.72
542.13	468.11
542.30	369.80
542.47	442.36
542.63	423.64
542.80	411.93
542.97	369.80
543.14	430.66
543.31	433.00
543.48	433.00
543.64	416.62
543.81	372.15
543.98	425.98
544.15	430.66
544.32	386.19
544.48	400.23
544.65	414.27
544.82	456.40
544.99	447.04
545.16	383.85
545.32	397.89
545.49	456.40
545.66	388.53
545.83	397.89
546.00	325.33
546.16	311.29
546.33	411.93
546.50	365.12
546.67	416.62
546.83	442.36
547.00	397.89
547.17	451.72
547.34	472.79
547.50	397.89
547.67	395.55
547.84	372.15
548.00	437.68
548.17	386.19
548.34	409.59
548.51	404.91
548.67	390.87
548.84	470.45
549.01	400.23
549.18	355.76
549.34	468.11
549.51	393.21
549.68	503.22
549.84	440.02
550.01	388.53
550.18	465.77
550.34	430.66
550.51	468.11
550.68	472.79
550.84	437.68
551.01	465.77
551.18	395.55
551.34	325.33
551.51	411.93
551.68	447.04
551.84	510.24
552.01	437.68
552.18	393.21
552.34	365.12
552.51	416.62
552.68	421.30
552.84	416.62
553.01	360.44
553.18	418.96
553.34	365.12
553.51	360.44
553.67	397.89
553.84	498.53
554.01	400.23
554.17	442.36
554.34	442.36
554.51	477.47
554.67	397.89
554.84	486.83
555.00	456.40
555.17	442.36
555.33	365.12
555.50	414.27
555.67	447.04
555.83	451.72
556.00	416.62
556.16	477.47
556.33	456.40
556.50	477.47
556.66	458.74
556.83	435.34
556.99	484.49
557.16	404.91
557.32	409.59
557.49	353.42
557.65	442.36
557.82	409.59
557.98	409.59
558.15	409.59
558.32	404.91
558.48	421.30
558.65	421.30
558.81	493.85
558.98	299.59
559.14	414.27
559.31	367.46
559.47	414.27
559.64	442.36
559.80	454.06
559.97	393.21
560.13	461.09
560.30	440.02
560.46	444.70
560.63	423.64
560.79	465.77
560.96	344.06
561.12	390.87
561.29	404.91
561.45	423.64
561.61	418.96
561.78	550.03
561.94	416.62
562.11	423.64
562.27	425.98
562.44	325.33
562.60	388.53
562.77	376.83
562.93	472.79
563.10	421.30
563.26	381.51
563.42	358.10
563.59	351.08
563.75	425.98
563.92	409.59
564.08	449.38
564.24	468.11
564.41	390.87
564.57	407.25
564.74	444.70
564.90	517.26
565.07	447.04
565.23	421.30
565.39	367.46
565.56	402.57
565.72	437.68
565.88	402.57
566.05	423.64
566.21	465.77
566.38	388.53
566.54	430.66
566.70	381.51
566.87	374.49
567.03	369.80
567.19	468.11
567.36	440.02
567.52	421.30
567.68	505.56
567.85	463.43
568.01	423.64
568.17	369.80
568.34	365.12
568.50	428.32
568.66	397.89
568.83	491.51
568.99	430.66
569.15	404.91
569.32	411.93
569.48	390.87
569.64	365.12
569.81	414.27
569.97	381.51
570.13	402.57
570.30	423.64
570.46	423.64
570.62	454.06
570.78	362.78
570.95	444.70
571.11	456.40
571.27	440.02
571.43	388.53
571.60	351.08
571.76	409.59
571.92	404.91
572.09	425.98
572.25	440.02
572.41	395.55
572.57	390.87
572.74	503.22
572.90	376.83
573.06	440.02
573.22	503.22
573.38	414.27
573.55	428.32
573.71	400.23
573.87	472.79
574.03	430.66
574.20	400.23
574.36	407.25
574.52	320.65
574.68	418.96
574.84	376.83
575.01	402.57
575.17	418.96
575.33	409.59
575.49	500.87
575.65	440.02
575.82	416.62
575.98	397.89
576.14	433.00
576.30	437.68
576.46	421.30
576.62	395.55
576.79	468.11
576.95	444.70
577.11	348.74
577.27	395.55
577.43	454.06
577.59	437.68
577.75	477.47
577.92	393.21
578.08	388.53
578.24	351.08
578.40	472.79
578.56	479.81
578.72	477.47
578.88	409.59
579.04	409.59
579.21	355.76
579.37	351.08
579.53	409.59
579.69	379.17
579.85	353.42
580.01	400.23
580.17	421.30
580.33	421.30
580.49	425.98
580.65	407.25
580.82	463.43
580.98	386.19
581.14	430.66
581.30	470.45
581.46	400.23
581.62	369.80
581.78	409.59
581.94	395.55
582.10	381.51
582.26	418.96
582.42	449.38
582.58	397.89
582.74	376.83
582.90	423.64
583.06	447.04
583.22	330.02
583.38	397.89
583.54	327.68
583.70	414.27
583.86	388.53
584.02	395.55
584.18	397.89
584.34	433.00
584.50	440.02
584.66	444.70
584.82	397.89
584.98	334.70
585.14	402.57
585.30	447.04
585.46	423.64
585.62	369.80
585.78	433.00
585.94	449.38
586.10	416.62
586.26	376.83
586.42	435.34
586.58	421.30
586.74	454.06
586.90	414.27
587.06	430.66
587.22	369.80
587.38	461.09
587.54	472.79
587.70	411.93
587.86	414.27
588.02	451.72
588.18	440.02
588.34	409.59
588.49	365.12
588.65	461.09
588.81	428.32
588.97	400.23
589.13	435.34
589.29	418.96
589.45	458.74
589.61	489.17
589.77	383.85
589.93	372.15
590.08	425.98
590.24	430.66
590.40	463.43
590.56	376.83
590.72	411.93
590.88	395.55
591.04	402.57
591.20	362.78
591.35	486.83
591.51	435.34
591.67	393.21
591.83	435.34
591.99	435.34
592.15	404.91
592.31	383.85
592.46	423.64
592.62	440.02
592.78	393.21
592.94	376.83
593.10	402.57
593.26	381.51
593.41	386.19
593.57	376.83
593.73	440.02
593.89	411.93
594.05	404.91
594.20	435.34
594.36	407.25
594.52	358.10
594.68	327.68
594.84	468.11
594.99	393.21
595.15	395.55
595.31	395.55
595.47	442.36
595.62	449.38
595.78	465.77
595.94	400.23
596.10	512.58
596.25	428.32
596.41	388.53
596.57	407.25
596.73	444.70
596.88	442.36
597.04	425.98
597.20	386.19
597.36	423.64
597.51	381.51
597.67	381.51
597.83	409.59
597.99	416.62
598.14	381.51
598.30	442.36
598.46	451.72
598.61	379.17
598.77	442.36
598.93	449.38
599.09	374.49
599.24	433.00
599.40	454.06
599.56	468.11
599.71	409.59
599.87	416.62
600.03	402.57
600.18	372.15
600.34	444.70
600.50	425.98
600.65	404.91
600.81	404.91
600.97	444.70
601.12	435.34
601.28	425.98
601.44	461.09
601.59	456.40
601.75	421.30
601.91	479.81
602.06	416.62
602.22	428.32
602.37	425.98
602.53	395.55
602.69	440.02
602.84	390.87
603.00	454.06
603.16	479.81
603.31	503.22
603.47	376.83
603.62	325.33
603.78	421.30
603.94	411.93
604.09	421.30
604.25	496.19
604.40	484.49
604.56	362.78
604.71	400.23
604.87	435.34
605.03	435.34
605.18	484.49
605.34	503.22
605.49	402.57
605.65	433.00
605.80	358.10
605.96	383.85
606.12	430.66
606.27	425.98
606.43	379.17
606.58	397.89
606.74	482.15
606.89	337.04
607.05	402.57
607.20	386.19
607.36	451.72
607.51	416.62
607.67	418.96
607.82	369.80
607.98	486.83
608.13	421.30
608.29	390.87
608.44	409.59
608.60	381.51
608.75	390.87
608.91	479.81
609.06	454.06
609.22	479.81
609.37	456.40
609.53	454.06
609.68	444.70
609.84	395.55
609.99	369.80
610.15	407.25
