SpectraSuite Data File
++++++++++++++++++++++++++++++++++++
Date: Fri Oct 25 12:10:16 EDT 2013
User: price-jones
Dark Spectrum Present: No
Reference Spectrum Present: No
Number of Sampled Component Spectra: 1
Spectrometers: USB2+H05261
Integration Time (usec): 100000 (USB2+H05261)
Spectra Averaged: 1 (USB2+H05261)
Boxcar Smoothing: 0 (USB2+H05261)
Correct for Electrical Dark: No (USB2+H05261)
Strobe/Lamp Enabled: No (USB2+H05261)
Correct for Detector Non-linearity: No (USB2+H05261)
Correct for Stray Light: No (USB2+H05261)
Number of Pixels in Processed Spectrum: 2048
>>>>>Begin Processed Spectral Data<<<<<
365.73	341.72
365.92	341.72
366.12	341.72
366.32	306.61
366.52	262.14
366.72	273.84
366.91	203.63
367.11	163.84
367.31	248.10
367.51	236.39
367.70	266.82
367.90	304.27
368.10	243.42
368.30	217.67
368.49	194.26
368.69	252.78
368.89	212.99
369.09	161.50
369.28	262.14
369.48	241.08
369.68	341.72
369.87	308.95
370.07	351.08
370.27	341.72
370.47	273.84
370.66	311.29
370.86	404.91
371.06	379.17
371.25	383.85
371.45	369.80
371.65	383.85
371.84	407.25
372.04	351.08
372.24	428.32
372.44	409.59
372.63	435.34
372.83	397.89
373.03	418.96
373.22	425.98
373.42	444.70
373.62	421.30
373.81	458.74
374.01	360.44
374.21	404.91
374.40	407.25
374.60	376.83
374.79	454.06
374.99	447.04
375.19	383.85
375.38	444.70
375.58	435.34
375.78	416.62
375.97	414.27
376.17	454.06
376.37	330.02
376.56	395.55
376.76	407.25
376.95	365.12
377.15	433.00
377.35	428.32
377.54	440.02
377.74	409.59
377.93	400.23
378.13	433.00
378.33	430.66
378.52	407.25
378.72	395.55
378.91	475.13
379.11	353.42
379.31	407.25
379.50	386.19
379.70	388.53
379.89	330.02
380.09	393.21
380.28	395.55
380.48	409.59
380.68	404.91
380.87	449.38
381.07	463.43
381.26	458.74
381.46	360.44
381.65	407.25
381.85	407.25
382.04	430.66
382.24	444.70
382.43	437.68
382.63	358.10
382.83	374.49
383.02	365.12
383.22	383.85
383.41	376.83
383.61	400.23
383.80	463.43
384.00	358.10
384.19	484.49
384.39	402.57
384.58	416.62
384.78	386.19
384.97	386.19
385.17	425.98
385.36	414.27
385.56	393.21
385.75	440.02
385.95	376.83
386.14	444.70
386.34	404.91
386.53	470.45
386.72	458.74
386.92	479.81
387.11	435.34
387.31	425.98
387.50	367.46
387.70	390.87
387.89	376.83
388.09	346.40
388.28	411.93
388.48	437.68
388.67	514.92
388.86	407.25
389.06	395.55
389.25	379.17
389.45	344.06
389.64	341.72
389.84	395.55
390.03	428.32
390.22	470.45
390.42	428.32
390.61	355.76
390.81	372.15
391.00	407.25
391.19	440.02
391.39	430.66
391.58	425.98
391.78	470.45
391.97	379.17
392.16	402.57
392.36	519.60
392.55	428.32
392.75	458.74
392.94	395.55
393.13	395.55
393.33	435.34
393.52	362.78
393.71	489.17
393.91	381.51
394.10	430.66
394.29	367.46
394.49	386.19
394.68	395.55
394.88	423.64
395.07	465.77
395.26	358.10
395.46	376.83
395.65	388.53
395.84	402.57
396.04	451.72
396.23	418.96
396.42	400.23
396.62	372.15
396.81	416.62
397.00	423.64
397.19	351.08
397.39	327.68
397.58	482.15
397.77	341.72
397.97	376.83
398.16	451.72
398.35	416.62
398.55	407.25
398.74	308.95
398.93	454.06
399.12	353.42
399.32	425.98
399.51	395.55
399.70	425.98
399.90	383.85
400.09	337.04
400.28	400.23
400.47	418.96
400.67	374.49
400.86	447.04
401.05	451.72
401.24	386.19
401.44	397.89
401.63	320.65
401.82	409.59
402.01	362.78
402.21	411.93
402.40	374.49
402.59	409.59
402.78	402.57
402.97	421.30
403.17	372.15
403.36	404.91
403.55	404.91
403.74	402.57
403.93	433.00
404.13	409.59
404.32	437.68
404.51	407.25
404.70	456.40
404.89	376.83
405.09	393.21
405.28	351.08
405.47	360.44
405.66	362.78
405.85	447.04
406.05	456.40
406.24	442.36
406.43	393.21
406.62	388.53
406.81	479.81
407.00	400.23
407.20	327.68
407.39	390.87
407.58	358.10
407.77	358.10
407.96	500.87
408.15	444.70
408.34	435.34
408.54	397.89
408.73	456.40
408.92	351.08
409.11	465.77
409.30	367.46
409.49	393.21
409.68	444.70
409.87	456.40
410.07	379.17
410.26	379.17
410.45	402.57
410.64	383.85
410.83	435.34
411.02	482.15
411.21	430.66
411.40	395.55
411.59	500.87
411.78	407.25
411.98	444.70
412.17	449.38
412.36	444.70
412.55	451.72
412.74	472.79
412.93	435.34
413.12	411.93
413.31	463.43
413.50	379.17
413.69	369.80
413.88	456.40
414.07	404.91
414.26	435.34
414.45	301.93
414.64	409.59
414.83	442.36
415.02	397.89
415.22	423.64
415.41	397.89
415.60	393.21
415.79	374.49
415.98	461.09
416.17	423.64
416.36	425.98
416.55	458.74
416.74	411.93
416.93	475.13
417.12	348.74
417.31	334.70
417.50	404.91
417.69	416.62
417.88	379.17
418.07	418.96
418.26	411.93
418.45	372.15
418.64	428.32
418.83	421.30
419.02	353.42
419.21	451.72
419.39	407.25
419.58	407.25
419.77	463.43
419.96	423.64
420.15	433.00
420.34	395.55
420.53	402.57
420.72	477.47
420.91	365.12
421.10	428.32
421.29	440.02
421.48	475.13
421.67	390.87
421.86	416.62
422.05	416.62
422.24	444.70
422.43	404.91
422.61	440.02
422.80	425.98
422.99	411.93
423.18	430.66
423.37	355.76
423.56	451.72
423.75	423.64
423.94	383.85
424.13	400.23
424.32	433.00
424.50	334.70
424.69	416.62
424.88	418.96
425.07	411.93
425.26	505.56
425.45	440.02
425.64	440.02
425.83	301.93
426.01	407.25
426.20	421.30
426.39	418.96
426.58	372.15
426.77	435.34
426.96	458.74
427.15	390.87
427.33	397.89
427.52	428.32
427.71	451.72
427.90	390.87
428.09	440.02
428.28	367.46
428.46	397.89
428.65	444.70
428.84	383.85
429.03	372.15
429.22	407.25
429.40	360.44
429.59	433.00
429.78	437.68
429.97	374.49
430.16	379.17
430.34	461.09
430.53	386.19
430.72	372.15
430.91	484.49
431.10	372.15
431.28	421.30
431.47	411.93
431.66	376.83
431.85	428.32
432.03	437.68
432.22	496.19
432.41	404.91
432.60	379.17
432.79	367.46
432.97	428.32
433.16	339.38
433.35	365.12
433.54	367.46
433.72	428.32
433.91	440.02
434.10	425.98
434.28	465.77
434.47	374.49
434.66	435.34
434.85	423.64
435.03	402.57
435.22	416.62
435.41	444.70
435.59	416.62
435.78	437.68
435.97	414.27
436.16	388.53
436.34	423.64
436.53	423.64
436.72	475.13
436.90	421.30
437.09	383.85
437.28	428.32
437.46	390.87
437.65	390.87
437.84	484.49
438.02	465.77
438.21	388.53
438.40	376.83
438.58	367.46
438.77	458.74
438.96	451.72
439.14	423.64
439.33	400.23
439.52	381.51
439.70	421.30
439.89	461.09
440.08	404.91
440.26	428.32
440.45	430.66
440.63	404.91
440.82	493.85
441.01	454.06
441.19	358.10
441.38	414.27
441.57	360.44
441.75	423.64
441.94	379.17
442.12	463.43
442.31	500.87
442.50	374.49
442.68	465.77
442.87	491.51
443.05	341.72
443.24	393.21
443.43	404.91
443.61	418.96
443.80	428.32
443.98	411.93
444.17	353.42
444.35	400.23
444.54	414.27
444.73	383.85
444.91	484.49
445.10	449.38
445.28	381.51
445.47	322.99
445.65	423.64
445.84	395.55
446.02	393.21
446.21	433.00
446.39	409.59
446.58	365.12
446.77	355.76
446.95	369.80
447.14	514.92
447.32	428.32
447.51	355.76
447.69	418.96
447.88	404.91
448.06	468.11
448.25	358.10
448.43	362.78
448.62	454.06
448.80	428.32
448.99	425.98
449.17	360.44
449.36	383.85
449.54	465.77
449.73	477.47
449.91	404.91
450.10	351.08
450.28	395.55
450.46	442.36
450.65	461.09
450.83	379.17
451.02	416.62
451.20	425.98
451.39	454.06
451.57	433.00
451.76	423.64
451.94	379.17
452.13	456.40
452.31	437.68
452.49	395.55
452.68	409.59
452.86	433.00
453.05	430.66
453.23	433.00
453.42	421.30
453.60	397.89
453.78	411.93
453.97	379.17
454.15	351.08
454.34	362.78
454.52	454.06
454.70	461.09
454.89	416.62
455.07	409.59
455.26	344.06
455.44	430.66
455.62	318.31
455.81	435.34
455.99	386.19
456.17	444.70
456.36	383.85
456.54	472.79
456.73	486.83
456.91	402.57
457.09	390.87
457.28	425.98
457.46	421.30
457.64	449.38
457.83	430.66
458.01	351.08
458.19	414.27
458.38	369.80
458.56	463.43
458.74	376.83
458.93	411.93
459.11	325.33
459.29	425.98
459.48	365.12
459.66	411.93
459.84	400.23
460.03	425.98
460.21	449.38
460.39	355.76
460.57	409.59
460.76	430.66
460.94	414.27
461.12	402.57
461.31	416.62
461.49	472.79
461.67	416.62
461.85	475.13
462.04	404.91
462.22	748.97
462.40	418.96
462.59	486.83
462.77	390.87
462.95	414.27
463.13	397.89
463.32	491.51
463.50	397.89
463.68	442.36
463.86	404.91
464.05	390.87
464.23	379.17
464.41	397.89
464.59	369.80
464.78	414.27
464.96	456.40
465.14	402.57
465.32	433.00
465.50	449.38
465.69	442.36
465.87	425.98
466.05	374.49
466.23	404.91
466.41	475.13
466.60	362.78
466.78	458.74
466.96	409.59
467.14	404.91
467.32	444.70
467.51	458.74
467.69	402.57
467.87	428.32
468.05	402.57
468.23	414.27
468.41	411.93
468.60	416.62
468.78	435.34
468.96	493.85
469.14	409.59
469.32	362.78
469.50	383.85
469.69	414.27
469.87	437.68
470.05	374.49
470.23	395.55
470.41	402.57
470.59	433.00
470.77	397.89
470.95	402.57
471.14	430.66
471.32	414.27
471.50	456.40
471.68	353.42
471.86	409.59
472.04	416.62
472.22	388.53
472.40	358.10
472.58	397.89
472.77	428.32
472.95	465.77
473.13	437.68
473.31	390.87
473.49	442.36
473.67	407.25
473.85	524.28
474.03	470.45
474.21	477.47
474.39	421.30
474.57	496.19
474.75	484.49
474.93	386.19
475.12	428.32
475.30	386.19
475.48	402.57
475.66	477.47
475.84	428.32
476.02	393.21
476.20	444.70
476.38	458.74
476.56	451.72
476.74	395.55
476.92	404.91
477.10	491.51
477.28	360.44
477.46	337.04
477.64	430.66
477.82	299.59
478.00	461.09
478.18	496.19
478.36	306.61
478.54	409.59
478.72	430.66
478.90	456.40
479.08	447.04
479.26	447.04
479.44	425.98
479.62	395.55
479.80	369.80
479.98	367.46
480.16	388.53
480.34	390.87
480.52	472.79
480.70	353.42
480.88	360.44
481.06	386.19
481.24	404.91
481.41	447.04
481.59	390.87
481.77	346.40
481.95	440.02
482.13	416.62
482.31	393.21
482.49	418.96
482.67	390.87
482.85	475.13
483.03	381.51
483.21	407.25
483.39	451.72
483.57	390.87
483.74	456.40
483.92	376.83
484.10	379.17
484.28	397.89
484.46	458.74
484.64	397.89
484.82	437.68
485.00	400.23
485.18	383.85
485.35	416.62
485.53	411.93
485.71	472.79
485.89	440.02
486.07	322.99
486.25	475.13
486.43	369.80
486.61	423.64
486.78	433.00
486.96	414.27
487.14	372.15
487.32	437.68
487.50	414.27
487.68	456.40
487.85	421.30
488.03	369.80
488.21	425.98
488.39	355.76
488.57	390.87
488.75	440.02
488.92	552.37
489.10	386.19
489.28	435.34
489.46	348.74
489.64	451.72
489.81	423.64
489.99	376.83
490.17	390.87
490.35	472.79
490.53	341.72
490.70	449.38
490.88	416.62
491.06	365.12
491.24	425.98
491.41	514.92
491.59	451.72
491.77	374.49
491.95	355.76
492.13	430.66
492.30	365.12
492.48	411.93
492.66	444.70
492.84	428.32
493.01	519.60
493.19	388.53
493.37	456.40
493.54	421.30
493.72	407.25
493.90	348.74
494.08	395.55
494.25	463.43
494.43	430.66
494.61	390.87
494.79	311.29
494.96	418.96
495.14	428.32
495.32	418.96
495.49	379.17
495.67	369.80
495.85	404.91
496.02	418.96
496.20	444.70
496.38	402.57
496.55	379.17
496.73	428.32
496.91	346.40
497.09	428.32
497.26	440.02
497.44	395.55
497.62	369.80
497.79	369.80
497.97	404.91
498.14	433.00
498.32	402.57
498.50	486.83
498.67	397.89
498.85	372.15
499.03	374.49
499.20	435.34
499.38	404.91
499.56	430.66
499.73	418.96
499.91	442.36
500.08	376.83
500.26	423.64
500.44	444.70
500.61	435.34
500.79	411.93
500.97	395.55
501.14	440.02
501.32	447.04
501.49	456.40
501.67	395.55
501.84	440.02
502.02	447.04
502.20	404.91
502.37	442.36
502.55	416.62
502.72	416.62
502.90	458.74
503.07	393.21
503.25	414.27
503.43	386.19
503.60	430.66
503.78	379.17
503.95	400.23
504.13	404.91
504.30	423.64
504.48	430.66
504.65	409.59
504.83	397.89
505.01	470.45
505.18	414.27
505.36	451.72
505.53	386.19
505.71	472.79
505.88	390.87
506.06	456.40
506.23	435.34
506.41	451.72
506.58	404.91
506.76	353.42
506.93	353.42
507.11	428.32
507.28	367.46
507.46	465.77
507.63	472.79
507.81	383.85
507.98	409.59
508.16	447.04
508.33	442.36
508.50	353.42
508.68	440.02
508.85	388.53
509.03	386.19
509.20	379.17
509.38	461.09
509.55	486.83
509.73	367.46
509.90	397.89
510.08	346.40
510.25	456.40
510.42	341.72
510.60	388.53
510.77	386.19
510.95	393.21
511.12	451.72
511.30	454.06
511.47	425.98
511.64	428.32
511.82	418.96
511.99	365.12
512.17	477.47
512.34	393.21
512.51	477.47
512.69	353.42
512.86	425.98
513.04	444.70
513.21	454.06
513.38	313.63
513.56	374.49
513.73	402.57
513.90	374.49
514.08	379.17
514.25	475.13
514.43	454.06
514.60	416.62
514.77	365.12
514.95	458.74
515.12	381.51
515.29	397.89
515.47	458.74
515.64	353.42
515.81	409.59
515.99	423.64
516.16	416.62
516.33	463.43
516.51	376.83
516.68	425.98
516.85	344.06
517.03	437.68
517.20	470.45
517.37	376.83
517.54	395.55
517.72	451.72
517.89	442.36
518.06	414.27
518.24	454.06
518.41	472.79
518.58	433.00
518.75	409.59
518.93	339.38
519.10	463.43
519.27	430.66
519.45	416.62
519.62	484.49
519.79	421.30
519.96	393.21
520.14	416.62
520.31	456.40
520.48	381.51
520.65	404.91
520.83	381.51
521.00	468.11
521.17	475.13
521.34	435.34
521.52	416.62
521.69	386.19
521.86	397.89
522.03	451.72
522.20	430.66
522.38	418.96
522.55	454.06
522.72	351.08
522.89	365.12
523.07	454.06
523.24	423.64
523.41	388.53
523.58	435.34
523.75	374.49
523.92	395.55
524.10	407.25
524.27	416.62
524.44	374.49
524.61	451.72
524.78	444.70
524.96	456.40
525.13	440.02
525.30	447.04
525.47	451.72
525.64	421.30
525.81	322.99
525.98	404.91
526.16	386.19
526.33	404.91
526.50	397.89
526.67	386.19
526.84	416.62
527.01	367.46
527.18	402.57
527.36	395.55
527.53	365.12
527.70	440.02
527.87	362.78
528.04	435.34
528.21	425.98
528.38	440.02
528.55	428.32
528.72	451.72
528.89	465.77
529.07	414.27
529.24	351.08
529.41	533.64
529.58	447.04
529.75	409.59
529.92	493.85
530.09	407.25
530.26	430.66
530.43	407.25
530.60	456.40
530.77	416.62
530.94	425.98
531.11	425.98
531.28	409.59
531.46	386.19
531.63	444.70
531.80	418.96
531.97	454.06
532.14	407.25
532.31	423.64
532.48	414.27
532.65	395.55
532.82	372.15
532.99	383.85
533.16	395.55
533.33	414.27
533.50	400.23
533.67	402.57
533.84	449.38
534.01	491.51
534.18	449.38
534.35	458.74
534.52	346.40
534.69	479.81
534.86	489.17
535.03	407.25
535.20	395.55
535.37	425.98
535.54	425.98
535.71	418.96
535.88	374.49
536.05	442.36
536.22	383.85
536.38	393.21
536.55	440.02
536.72	456.40
536.89	416.62
537.06	402.57
537.23	369.80
537.40	404.91
537.57	381.51
537.74	461.09
537.91	402.57
538.08	358.10
538.25	468.11
538.42	470.45
538.59	407.25
538.75	451.72
538.92	388.53
539.09	498.53
539.26	421.30
539.43	416.62
539.60	496.19
539.77	475.13
539.94	442.36
540.11	461.09
540.28	409.59
540.44	444.70
540.61	407.25
540.78	458.74
540.95	393.21
541.12	444.70
541.29	402.57
541.46	449.38
541.62	437.68
541.79	397.89
541.96	367.46
542.13	390.87
542.30	414.27
542.47	435.34
542.63	433.00
542.80	404.91
542.97	456.40
543.14	423.64
543.31	447.04
543.48	444.70
543.64	407.25
543.81	409.59
543.98	416.62
544.15	428.32
544.32	496.19
544.48	379.17
544.65	437.68
544.82	369.80
544.99	402.57
545.16	449.38
545.32	421.30
545.49	449.38
545.66	337.04
545.83	372.15
546.00	397.89
546.16	337.04
546.33	416.62
546.50	416.62
546.67	491.51
546.83	425.98
547.00	423.64
547.17	440.02
547.34	386.19
547.50	458.74
547.67	400.23
547.84	372.15
548.00	435.34
548.17	346.40
548.34	409.59
548.51	486.83
548.67	414.27
548.84	491.51
549.01	437.68
549.18	421.30
549.34	428.32
549.51	393.21
549.68	451.72
549.84	365.12
550.01	372.15
550.18	458.74
550.34	458.74
550.51	390.87
550.68	456.40
550.84	402.57
551.01	463.43
551.18	428.32
551.34	418.96
551.51	390.87
551.68	425.98
551.84	416.62
552.01	449.38
552.18	465.77
552.34	430.66
552.51	400.23
552.68	447.04
552.84	416.62
553.01	440.02
553.18	400.23
553.34	395.55
553.51	383.85
553.67	451.72
553.84	489.17
554.01	390.87
554.17	388.53
554.34	404.91
554.51	496.19
554.67	449.38
554.84	498.53
555.00	416.62
555.17	454.06
555.33	376.83
555.50	477.47
555.67	414.27
555.83	402.57
556.00	451.72
556.16	526.62
556.33	423.64
556.50	395.55
556.66	475.13
556.83	456.40
556.99	379.17
557.16	433.00
557.32	355.76
557.49	404.91
557.65	423.64
557.82	444.70
557.98	418.96
558.15	482.15
558.32	395.55
558.48	442.36
558.65	402.57
558.81	425.98
558.98	386.19
559.14	421.30
559.31	402.57
559.47	468.11
559.64	351.08
559.80	374.49
559.97	458.74
560.13	423.64
560.30	407.25
560.46	470.45
560.63	458.74
560.79	383.85
560.96	372.15
561.12	458.74
561.29	437.68
561.45	447.04
561.61	430.66
561.78	454.06
561.94	376.83
562.11	421.30
562.27	386.19
562.44	327.68
562.60	386.19
562.77	379.17
562.93	435.34
563.10	421.30
563.26	416.62
563.42	463.43
563.59	421.30
563.75	407.25
563.92	383.85
564.08	416.62
564.24	543.00
564.41	437.68
564.57	374.49
564.74	379.17
564.90	472.79
565.07	407.25
565.23	397.89
565.39	472.79
565.56	486.83
565.72	402.57
565.88	395.55
566.05	390.87
566.21	374.49
566.38	484.49
566.54	428.32
566.70	407.25
566.87	418.96
567.03	334.70
567.19	421.30
567.36	451.72
567.52	425.98
567.68	421.30
567.85	470.45
568.01	472.79
568.17	388.53
568.34	463.43
568.50	437.68
568.66	386.19
568.83	454.06
568.99	381.51
569.15	500.87
569.32	489.17
569.48	379.17
569.64	442.36
569.81	409.59
569.97	423.64
570.13	397.89
570.30	367.46
570.46	461.09
570.62	430.66
570.78	425.98
570.95	414.27
571.11	444.70
571.27	344.06
571.43	447.04
571.60	437.68
571.76	390.87
571.92	440.02
572.09	367.46
572.25	393.21
572.41	418.96
572.57	414.27
572.74	477.47
572.90	512.58
573.06	449.38
573.22	374.49
573.38	437.68
573.55	454.06
573.71	421.30
573.87	404.91
574.03	470.45
574.20	395.55
574.36	409.59
574.52	440.02
574.68	428.32
574.84	472.79
575.01	390.87
575.17	411.93
575.33	381.51
575.49	414.27
575.65	433.00
575.82	468.11
575.98	442.36
576.14	437.68
576.30	449.38
576.46	407.25
576.62	397.89
576.79	507.90
576.95	381.51
577.11	379.17
577.27	433.00
577.43	454.06
577.59	435.34
577.75	381.51
577.92	421.30
578.08	393.21
578.24	418.96
578.40	472.79
578.56	458.74
578.72	475.13
578.88	397.89
579.04	463.43
579.21	421.30
579.37	379.17
579.53	360.44
579.69	517.26
579.85	402.57
580.01	383.85
580.17	374.49
580.33	381.51
580.49	393.21
580.65	465.77
580.82	421.30
580.98	416.62
581.14	416.62
581.30	435.34
581.46	395.55
581.62	409.59
581.78	414.27
581.94	468.11
582.10	369.80
582.26	390.87
582.42	397.89
582.58	458.74
582.74	451.72
582.90	386.19
583.06	388.53
583.22	397.89
583.38	386.19
583.54	421.30
583.70	367.46
583.86	400.23
584.02	386.19
584.18	444.70
584.34	433.00
584.50	421.30
584.66	395.55
584.82	404.91
584.98	437.68
585.14	470.45
585.30	407.25
585.46	463.43
585.62	440.02
585.78	409.59
585.94	451.72
586.10	454.06
586.26	404.91
586.42	440.02
586.58	425.98
586.74	374.49
586.90	433.00
587.06	418.96
587.22	414.27
587.38	430.66
587.54	421.30
587.70	372.15
587.86	425.98
588.02	409.59
588.18	376.83
588.34	440.02
588.49	411.93
588.65	404.91
588.81	482.15
588.97	409.59
589.13	388.53
589.29	477.47
589.45	472.79
589.61	461.09
589.77	421.30
589.93	414.27
590.08	360.44
590.24	442.36
590.40	498.53
590.56	425.98
590.72	407.25
590.88	388.53
591.04	430.66
591.20	411.93
591.35	449.38
591.51	461.09
591.67	416.62
591.83	402.57
591.99	440.02
592.15	449.38
592.31	425.98
592.46	414.27
592.62	442.36
592.78	388.53
592.94	451.72
593.10	414.27
593.26	362.78
593.41	404.91
593.57	400.23
593.73	353.42
593.89	437.68
594.05	425.98
594.20	444.70
594.36	451.72
594.52	428.32
594.68	379.17
594.84	465.77
594.99	477.47
595.15	421.30
595.31	437.68
595.47	477.47
595.62	435.34
595.78	400.23
595.94	456.40
596.10	369.80
596.25	414.27
596.41	444.70
596.57	379.17
596.73	390.87
596.88	379.17
597.04	334.70
597.20	447.04
597.36	486.83
597.51	451.72
597.67	369.80
597.83	395.55
597.99	428.32
598.14	402.57
598.30	402.57
598.46	411.93
598.61	430.66
598.77	372.15
598.93	435.34
599.09	463.43
599.24	425.98
599.40	470.45
599.56	379.17
599.71	397.89
599.87	433.00
600.03	407.25
600.18	362.78
600.34	409.59
600.50	400.23
600.65	402.57
600.81	451.72
600.97	393.21
601.12	423.64
601.28	414.27
601.44	428.32
601.59	388.53
601.75	416.62
601.91	381.51
602.06	395.55
602.22	482.15
602.37	463.43
602.53	409.59
602.69	444.70
602.84	437.68
603.00	423.64
603.16	411.93
603.31	425.98
603.47	447.04
603.62	383.85
603.78	402.57
603.94	374.49
604.09	365.12
604.25	386.19
604.40	428.32
604.56	475.13
604.71	456.40
604.87	351.08
605.03	365.12
605.18	442.36
605.34	479.81
605.49	437.68
605.65	409.59
605.80	393.21
605.96	440.02
606.12	451.72
606.27	475.13
606.43	456.40
606.58	433.00
606.74	430.66
606.89	362.78
607.05	479.81
607.20	411.93
607.36	355.76
607.51	308.95
607.67	423.64
607.82	388.53
607.98	381.51
608.13	500.87
608.29	440.02
608.44	430.66
608.60	442.36
608.75	444.70
608.91	428.32
609.06	503.22
609.22	416.62
609.37	367.46
609.53	388.53
609.68	425.98
609.84	411.93
609.99	421.30
610.15	442.36
