SpectraSuite Data File
++++++++++++++++++++++++++++++++++++
Date: Fri Oct 25 12:11:38 EDT 2013
User: price-jones
Dark Spectrum Present: No
Reference Spectrum Present: No
Number of Sampled Component Spectra: 1
Spectrometers: USB2+H05261
Integration Time (usec): 100000 (USB2+H05261)
Spectra Averaged: 1 (USB2+H05261)
Boxcar Smoothing: 0 (USB2+H05261)
Correct for Electrical Dark: No (USB2+H05261)
Strobe/Lamp Enabled: No (USB2+H05261)
Correct for Detector Non-linearity: No (USB2+H05261)
Correct for Stray Light: No (USB2+H05261)
Number of Pixels in Processed Spectrum: 2048
>>>>>Begin Processed Spectral Data<<<<<
365.73	313.63
365.92	313.63
366.12	313.63
366.32	241.08
366.52	308.95
366.72	236.39
366.91	264.48
367.11	269.16
367.31	205.97
367.51	201.29
367.70	205.97
367.90	217.67
368.10	210.65
368.30	196.60
368.49	255.12
368.69	236.39
368.89	241.08
369.09	273.84
369.28	231.71
369.48	304.27
369.68	255.12
369.87	325.33
370.07	315.97
370.27	327.68
370.47	313.63
370.66	325.33
370.86	353.42
371.06	395.55
371.25	351.08
371.45	348.74
371.65	411.93
371.84	421.30
372.04	404.91
372.24	407.25
372.44	400.23
372.63	407.25
372.83	383.85
373.03	395.55
373.22	381.51
373.42	402.57
373.62	393.21
373.81	486.83
374.01	449.38
374.21	449.38
374.40	355.76
374.60	442.36
374.79	440.02
374.99	400.23
375.19	489.17
375.38	435.34
375.58	428.32
375.78	421.30
375.97	503.22
376.17	484.49
376.37	479.81
376.56	402.57
376.76	435.34
376.95	346.40
377.15	463.43
377.35	477.47
377.54	414.27
377.74	374.49
377.93	475.13
378.13	479.81
378.33	468.11
378.52	440.02
378.72	524.28
378.91	472.79
379.11	404.91
379.31	402.57
379.50	360.44
379.70	393.21
379.89	433.00
380.09	344.06
380.28	411.93
380.48	374.49
380.68	334.70
380.87	344.06
381.07	393.21
381.26	430.66
381.46	425.98
381.65	456.40
381.85	416.62
382.04	409.59
382.24	421.30
382.43	425.98
382.63	344.06
382.83	407.25
383.02	444.70
383.22	421.30
383.41	322.99
383.61	390.87
383.80	348.74
384.00	381.51
384.19	388.53
384.39	365.12
384.58	397.89
384.78	379.17
384.97	435.34
385.17	442.36
385.36	484.49
385.56	379.17
385.75	416.62
385.95	346.40
386.14	477.47
386.34	430.66
386.53	433.00
386.72	437.68
386.92	383.85
387.11	465.77
387.31	444.70
387.50	402.57
387.70	404.91
387.89	390.87
388.09	376.83
388.28	374.49
388.48	360.44
388.67	479.81
388.86	362.78
389.06	344.06
389.25	433.00
389.45	360.44
389.64	383.85
389.84	433.00
390.03	393.21
390.22	454.06
390.42	440.02
390.61	440.02
390.81	425.98
391.00	437.68
391.19	397.89
391.39	379.17
391.58	369.80
391.78	402.57
391.97	365.12
392.16	402.57
392.36	461.09
392.55	440.02
392.75	475.13
392.94	355.76
393.13	437.68
393.33	433.00
393.52	369.80
393.71	421.30
393.91	456.40
394.10	435.34
394.29	365.12
394.49	395.55
394.68	433.00
394.88	447.04
395.07	409.59
395.26	433.00
395.46	367.46
395.65	444.70
395.84	449.38
396.04	503.22
396.23	433.00
396.42	383.85
396.62	374.49
396.81	435.34
397.00	381.51
397.19	472.79
397.39	416.62
397.58	440.02
397.77	428.32
397.97	409.59
398.16	447.04
398.35	428.32
398.55	386.19
398.74	435.34
398.93	454.06
399.12	437.68
399.32	400.23
399.51	383.85
399.70	425.98
399.90	411.93
400.09	418.96
400.28	451.72
400.47	388.53
400.67	402.57
400.86	400.23
401.05	409.59
401.24	421.30
401.44	421.30
401.63	475.13
401.82	400.23
402.01	416.62
402.21	365.12
402.40	402.57
402.59	383.85
402.78	397.89
402.97	393.21
403.17	367.46
403.36	472.79
403.55	397.89
403.74	346.40
403.93	472.79
404.13	456.40
404.32	411.93
404.51	421.30
404.70	395.55
404.89	407.25
405.09	472.79
405.28	388.53
405.47	433.00
405.66	475.13
405.85	421.30
406.05	451.72
406.24	262.14
406.43	353.42
406.62	407.25
406.81	423.64
407.00	425.98
407.20	393.21
407.39	444.70
407.58	402.57
407.77	472.79
407.96	416.62
408.15	468.11
408.34	423.64
408.54	393.21
408.73	402.57
408.92	360.44
409.11	400.23
409.30	367.46
409.49	421.30
409.68	390.87
409.87	386.19
410.07	386.19
410.26	433.00
410.45	402.57
410.64	393.21
410.83	402.57
411.02	409.59
411.21	416.62
411.40	372.15
411.59	463.43
411.78	440.02
411.98	447.04
412.17	374.49
412.36	409.59
412.55	362.78
412.74	418.96
412.93	477.47
413.12	416.62
413.31	447.04
413.50	397.89
413.69	496.19
413.88	496.19
414.07	390.87
414.26	372.15
414.45	388.53
414.64	425.98
414.83	435.34
415.02	430.66
415.22	402.57
415.41	386.19
415.60	404.91
415.79	458.74
415.98	470.45
416.17	414.27
416.36	433.00
416.55	407.25
416.74	449.38
416.93	395.55
417.12	386.19
417.31	393.21
417.50	435.34
417.69	388.53
417.88	397.89
418.07	365.12
418.26	379.17
418.45	381.51
418.64	465.77
418.83	353.42
419.02	447.04
419.21	372.15
419.39	379.17
419.58	458.74
419.77	353.42
419.96	484.49
420.15	395.55
420.34	393.21
420.53	468.11
420.72	440.02
420.91	475.13
421.10	414.27
421.29	360.44
421.48	407.25
421.67	425.98
421.86	442.36
422.05	393.21
422.24	451.72
422.43	454.06
422.61	423.64
422.80	337.04
422.99	440.02
423.18	362.78
423.37	482.15
423.56	423.64
423.75	372.15
423.94	360.44
424.13	425.98
424.32	449.38
424.50	416.62
424.69	379.17
424.88	386.19
425.07	418.96
425.26	411.93
425.45	470.45
425.64	418.96
425.83	388.53
426.01	416.62
426.20	442.36
426.39	435.34
426.58	376.83
426.77	461.09
426.96	482.15
427.15	418.96
427.33	442.36
427.52	428.32
427.71	388.53
427.90	454.06
428.09	468.11
428.28	388.53
428.46	351.08
428.65	409.59
428.84	402.57
429.03	404.91
429.22	376.83
429.40	409.59
429.59	388.53
429.78	395.55
429.97	369.80
430.16	400.23
430.34	433.00
430.53	381.51
430.72	409.59
430.91	404.91
431.10	442.36
431.28	344.06
431.47	414.27
431.66	472.79
431.85	376.83
432.03	472.79
432.22	440.02
432.41	486.83
432.60	390.87
432.79	491.51
432.97	421.30
433.16	416.62
433.35	411.93
433.54	423.64
433.72	386.19
433.91	493.85
434.10	465.77
434.28	472.79
434.47	372.15
434.66	393.21
434.85	390.87
435.03	369.80
435.22	404.91
435.41	451.72
435.59	397.89
435.78	435.34
435.97	428.32
436.16	449.38
436.34	388.53
436.53	416.62
436.72	437.68
436.90	425.98
437.09	430.66
437.28	416.62
437.46	423.64
437.65	444.70
437.84	393.21
438.02	456.40
438.21	355.76
438.40	425.98
438.58	393.21
438.77	451.72
438.96	440.02
439.14	407.25
439.33	423.64
439.52	428.32
439.70	433.00
439.89	440.02
440.08	425.98
440.26	397.89
440.45	390.87
440.63	482.15
440.82	411.93
441.01	386.19
441.19	437.68
441.38	395.55
441.57	449.38
441.75	479.81
441.94	430.66
442.12	451.72
442.31	409.59
442.50	383.85
442.68	411.93
442.87	444.70
443.05	404.91
443.24	393.21
443.43	447.04
443.61	402.57
443.80	430.66
443.98	395.55
444.17	372.15
444.35	475.13
444.54	425.98
444.73	344.06
444.91	430.66
445.10	425.98
445.28	397.89
445.47	430.66
445.65	409.59
445.84	470.45
446.02	397.89
446.21	440.02
446.39	383.85
446.58	397.89
446.77	418.96
446.95	414.27
447.14	383.85
447.32	447.04
447.51	418.96
447.69	433.00
447.88	414.27
448.06	400.23
448.25	433.00
448.43	404.91
448.62	428.32
448.80	379.17
448.99	458.74
449.17	442.36
449.36	353.42
449.54	477.47
449.73	390.87
449.91	442.36
450.10	447.04
450.28	463.43
450.46	465.77
450.65	435.34
450.83	461.09
451.02	425.98
451.20	430.66
451.39	456.40
451.57	409.59
451.76	414.27
451.94	390.87
452.13	437.68
452.31	428.32
452.49	395.55
452.68	381.51
452.86	339.38
453.05	418.96
453.23	458.74
453.42	358.10
453.60	397.89
453.78	388.53
453.97	355.76
454.15	463.43
454.34	369.80
454.52	430.66
454.70	397.89
454.89	425.98
455.07	418.96
455.26	477.47
455.44	393.21
455.62	442.36
455.81	393.21
455.99	444.70
456.17	461.09
456.36	440.02
456.54	383.85
456.73	393.21
456.91	360.44
457.09	472.79
457.28	386.19
457.46	379.17
457.64	425.98
457.83	435.34
458.01	430.66
458.19	461.09
458.38	402.57
458.56	423.64
458.74	320.65
458.93	449.38
459.11	425.98
459.29	344.06
459.48	393.21
459.66	433.00
459.84	414.27
460.03	454.06
460.21	372.15
460.39	397.89
460.57	402.57
460.76	402.57
460.94	416.62
461.12	486.83
461.31	447.04
461.49	437.68
461.67	433.00
461.85	449.38
462.04	423.64
462.22	779.40
462.40	374.49
462.59	425.98
462.77	435.34
462.95	442.36
463.13	418.96
463.32	486.83
463.50	400.23
463.68	411.93
463.86	447.04
464.05	470.45
464.23	482.15
464.41	411.93
464.59	447.04
464.78	440.02
464.96	313.63
465.14	411.93
465.32	360.44
465.50	465.77
465.69	367.46
465.87	397.89
466.05	407.25
466.23	400.23
466.41	386.19
466.60	411.93
466.78	440.02
466.96	458.74
467.14	376.83
467.32	449.38
467.51	383.85
467.69	379.17
467.87	425.98
468.05	418.96
468.23	454.06
468.41	407.25
468.60	423.64
468.78	383.85
468.96	437.68
469.14	444.70
469.32	374.49
469.50	433.00
469.69	395.55
469.87	353.42
470.05	390.87
470.23	407.25
470.41	428.32
470.59	402.57
470.77	355.76
470.95	390.87
471.14	461.09
471.32	418.96
471.50	388.53
471.68	362.78
471.86	425.98
472.04	418.96
472.22	418.96
472.40	393.21
472.58	414.27
472.77	447.04
472.95	418.96
473.13	416.62
473.31	491.51
473.49	395.55
473.67	365.12
473.85	437.68
474.03	397.89
474.21	503.22
474.39	461.09
474.57	465.77
474.75	428.32
474.93	400.23
475.12	397.89
475.30	414.27
475.48	383.85
475.66	479.81
475.84	444.70
476.02	400.23
476.20	397.89
476.38	390.87
476.56	477.47
476.74	411.93
476.92	376.83
477.10	376.83
477.28	491.51
477.46	421.30
477.64	482.15
477.82	477.47
478.00	433.00
478.18	489.17
478.36	449.38
478.54	416.62
478.72	421.30
478.90	388.53
479.08	376.83
479.26	472.79
479.44	388.53
479.62	383.85
479.80	369.80
479.98	390.87
480.16	418.96
480.34	351.08
480.52	390.87
480.70	421.30
480.88	416.62
481.06	463.43
481.24	463.43
481.41	407.25
481.59	416.62
481.77	472.79
481.95	418.96
482.13	425.98
482.31	414.27
482.49	454.06
482.67	397.89
482.85	428.32
483.03	454.06
483.21	355.76
483.39	376.83
483.57	451.72
483.74	454.06
483.92	407.25
484.10	428.32
484.28	456.40
484.46	486.83
484.64	404.91
484.82	379.17
485.00	411.93
485.18	383.85
485.35	440.02
485.53	447.04
485.71	423.64
485.89	409.59
486.07	442.36
486.25	489.17
486.43	395.55
486.61	402.57
486.78	444.70
486.96	386.19
487.14	423.64
487.32	414.27
487.50	400.23
487.68	444.70
487.85	402.57
488.03	465.77
488.21	479.81
488.39	404.91
488.57	486.83
488.75	358.10
488.92	395.55
489.10	449.38
489.28	425.98
489.46	430.66
489.64	421.30
489.81	447.04
489.99	437.68
490.17	344.06
490.35	451.72
490.53	397.89
490.70	407.25
490.88	404.91
491.06	409.59
491.24	451.72
491.41	489.17
491.59	458.74
491.77	451.72
491.95	388.53
492.13	381.51
492.30	428.32
492.48	465.77
492.66	430.66
492.84	421.30
493.01	437.68
493.19	402.57
493.37	332.36
493.54	418.96
493.72	353.42
493.90	362.78
494.08	425.98
494.25	421.30
494.43	435.34
494.61	421.30
494.79	395.55
494.96	400.23
495.14	463.43
495.32	381.51
495.49	397.89
495.67	400.23
495.85	383.85
496.02	367.46
496.20	421.30
496.38	425.98
496.55	409.59
496.73	433.00
496.91	447.04
497.09	393.21
497.26	435.34
497.44	437.68
497.62	428.32
497.79	386.19
497.97	442.36
498.14	400.23
498.32	440.02
498.50	355.76
498.67	362.78
498.85	444.70
499.03	407.25
499.20	465.77
499.38	402.57
499.56	444.70
499.73	503.22
499.91	435.34
500.08	421.30
500.26	397.89
500.44	388.53
500.61	386.19
500.79	388.53
500.97	449.38
501.14	444.70
501.32	430.66
501.49	500.87
501.67	402.57
501.84	428.32
502.02	365.12
502.20	430.66
502.37	367.46
502.55	393.21
502.72	369.80
502.90	402.57
503.07	465.77
503.25	433.00
503.43	402.57
503.60	437.68
503.78	414.27
503.95	435.34
504.13	444.70
504.30	456.40
504.48	482.15
504.65	458.74
504.83	451.72
505.01	416.62
505.18	367.46
505.36	433.00
505.53	407.25
505.71	395.55
505.88	486.83
506.06	458.74
506.23	339.38
506.41	421.30
506.58	435.34
506.76	393.21
506.93	491.51
507.11	418.96
507.28	372.15
507.46	433.00
507.63	383.85
507.81	430.66
507.98	463.43
508.16	442.36
508.33	440.02
508.50	421.30
508.68	444.70
508.85	458.74
509.03	423.64
509.20	425.98
509.38	346.40
509.55	423.64
509.73	369.80
509.90	440.02
510.08	404.91
510.25	435.34
510.42	311.29
510.60	409.59
510.77	496.19
510.95	449.38
511.12	416.62
511.30	447.04
511.47	440.02
511.64	414.27
511.82	376.83
511.99	444.70
512.17	411.93
512.34	395.55
512.51	348.74
512.69	444.70
512.86	425.98
513.04	454.06
513.21	404.91
513.38	362.78
513.56	430.66
513.73	397.89
513.90	390.87
514.08	402.57
514.25	423.64
514.43	341.72
514.60	456.40
514.77	395.55
514.95	468.11
515.12	463.43
515.29	407.25
515.47	344.06
515.64	500.87
515.81	456.40
515.99	402.57
516.16	414.27
516.33	402.57
516.51	390.87
516.68	428.32
516.85	442.36
517.03	395.55
517.20	451.72
517.37	484.49
517.54	517.26
517.72	418.96
517.89	374.49
518.06	400.23
518.24	449.38
518.41	521.94
518.58	411.93
518.75	409.59
518.93	395.55
519.10	470.45
519.27	444.70
519.45	383.85
519.62	383.85
519.79	458.74
519.96	428.32
520.14	411.93
520.31	444.70
520.48	400.23
520.65	372.15
520.83	423.64
521.00	383.85
521.17	372.15
521.34	383.85
521.52	454.06
521.69	505.56
521.86	409.59
522.03	442.36
522.20	440.02
522.38	414.27
522.55	414.27
522.72	397.89
522.89	484.49
523.07	477.47
523.24	365.12
523.41	337.04
523.58	430.66
523.75	337.04
523.92	430.66
524.10	395.55
524.27	381.51
524.44	383.85
524.61	388.53
524.78	369.80
524.96	430.66
525.13	442.36
525.30	435.34
525.47	409.59
525.64	383.85
525.81	421.30
525.98	400.23
526.16	418.96
526.33	369.80
526.50	381.51
526.67	381.51
526.84	388.53
527.01	388.53
527.18	418.96
527.36	435.34
527.53	360.44
527.70	451.72
527.87	461.09
528.04	442.36
528.21	454.06
528.38	468.11
528.55	400.23
528.72	433.00
528.89	475.13
529.07	447.04
529.24	447.04
529.41	444.70
529.58	475.13
529.75	376.83
529.92	449.38
530.09	449.38
530.26	465.77
530.43	449.38
530.60	423.64
530.77	444.70
530.94	425.98
531.11	442.36
531.28	407.25
531.46	444.70
531.63	353.42
531.80	386.19
531.97	444.70
532.14	421.30
532.31	402.57
532.48	468.11
532.65	421.30
532.82	383.85
532.99	416.62
533.16	355.76
533.33	442.36
533.50	430.66
533.67	421.30
533.84	472.79
534.01	404.91
534.18	449.38
534.35	369.80
534.52	496.19
534.69	451.72
534.86	325.33
535.03	447.04
535.20	376.83
535.37	409.59
535.54	519.60
535.71	463.43
535.88	449.38
536.05	393.21
536.22	416.62
536.38	353.42
536.55	379.17
536.72	374.49
536.89	423.64
537.06	358.10
537.23	369.80
537.40	404.91
537.57	449.38
537.74	428.32
537.91	458.74
538.08	414.27
538.25	461.09
538.42	358.10
538.59	414.27
538.75	451.72
538.92	444.70
539.09	404.91
539.26	376.83
539.43	454.06
539.60	444.70
539.77	475.13
539.94	437.68
540.11	414.27
540.28	456.40
540.44	376.83
540.61	400.23
540.78	411.93
540.95	358.10
541.12	430.66
541.29	489.17
541.46	416.62
541.62	477.47
541.79	458.74
541.96	416.62
542.13	376.83
542.30	395.55
542.47	390.87
542.63	458.74
542.80	461.09
542.97	407.25
543.14	430.66
543.31	470.45
543.48	447.04
543.64	374.49
543.81	451.72
543.98	423.64
544.15	498.53
544.32	430.66
544.48	425.98
544.65	414.27
544.82	383.85
544.99	447.04
545.16	407.25
545.32	416.62
545.49	479.81
545.66	386.19
545.83	400.23
546.00	381.51
546.16	444.70
546.33	465.77
546.50	430.66
546.67	421.30
546.83	374.49
547.00	418.96
547.17	465.77
547.34	430.66
547.50	433.00
547.67	418.96
547.84	337.04
548.00	428.32
548.17	433.00
548.34	386.19
548.51	416.62
548.67	470.45
548.84	456.40
549.01	418.96
549.18	386.19
549.34	477.47
549.51	421.30
549.68	461.09
549.84	433.00
550.01	421.30
550.18	451.72
550.34	493.85
550.51	458.74
550.68	521.94
550.84	383.85
551.01	442.36
551.18	456.40
551.34	341.72
551.51	374.49
551.68	437.68
551.84	414.27
552.01	390.87
552.18	442.36
552.34	423.64
552.51	428.32
552.68	409.59
552.84	402.57
553.01	475.13
553.18	479.81
553.34	433.00
553.51	496.19
553.67	517.26
553.84	458.74
554.01	409.59
554.17	447.04
554.34	397.89
554.51	482.15
554.67	440.02
554.84	512.58
555.00	353.42
555.17	372.15
555.33	519.60
555.50	402.57
555.67	404.91
555.83	425.98
556.00	362.78
556.16	552.37
556.33	477.47
556.50	472.79
556.66	414.27
556.83	353.42
556.99	409.59
557.16	386.19
557.32	414.27
557.49	423.64
557.65	444.70
557.82	458.74
557.98	404.91
558.15	409.59
558.32	505.56
558.48	451.72
558.65	428.32
558.81	423.64
558.98	351.08
559.14	414.27
559.31	407.25
559.47	400.23
559.64	407.25
559.80	454.06
559.97	475.13
560.13	435.34
560.30	395.55
560.46	383.85
560.63	491.51
560.79	484.49
560.96	465.77
561.12	428.32
561.29	465.77
561.45	402.57
561.61	381.51
561.78	451.72
561.94	379.17
562.11	442.36
562.27	388.53
562.44	421.30
562.60	484.49
562.77	414.27
562.93	381.51
563.10	512.58
563.26	437.68
563.42	393.21
563.59	498.53
563.75	367.46
563.92	463.43
564.08	444.70
564.24	355.76
564.41	491.51
564.57	374.49
564.74	486.83
564.90	423.64
565.07	409.59
565.23	475.13
565.39	416.62
565.56	416.62
565.72	374.49
565.88	404.91
566.05	437.68
566.21	458.74
566.38	348.74
566.54	411.93
566.70	351.08
566.87	442.36
567.03	411.93
567.19	411.93
567.36	440.02
567.52	416.62
567.68	383.85
567.85	416.62
568.01	425.98
568.17	407.25
568.34	465.77
568.50	425.98
568.66	430.66
568.83	500.87
568.99	390.87
569.15	400.23
569.32	463.43
569.48	421.30
569.64	451.72
569.81	472.79
569.97	393.21
570.13	395.55
570.30	409.59
570.46	428.32
570.62	402.57
570.78	433.00
570.95	449.38
571.11	395.55
571.27	463.43
571.43	465.77
571.60	362.78
571.76	407.25
571.92	411.93
572.09	428.32
572.25	425.98
572.41	440.02
572.57	374.49
572.74	493.85
572.90	456.40
573.06	393.21
573.22	479.81
573.38	425.98
573.55	454.06
573.71	451.72
573.87	430.66
574.03	456.40
574.20	435.34
574.36	500.87
574.52	418.96
574.68	411.93
574.84	393.21
575.01	388.53
575.17	503.22
575.33	414.27
575.49	414.27
575.65	475.13
575.82	409.59
575.98	444.70
576.14	482.15
576.30	369.80
576.46	430.66
576.62	465.77
576.79	428.32
576.95	397.89
577.11	383.85
577.27	372.15
577.43	388.53
577.59	437.68
577.75	447.04
577.92	458.74
578.08	292.57
578.24	440.02
578.40	372.15
578.56	433.00
578.72	423.64
578.88	454.06
579.04	355.76
579.21	411.93
579.37	404.91
579.53	400.23
579.69	414.27
579.85	428.32
580.01	425.98
580.17	407.25
580.33	433.00
580.49	404.91
580.65	442.36
580.82	440.02
580.98	409.59
581.14	400.23
581.30	411.93
581.46	386.19
581.62	383.85
581.78	428.32
581.94	472.79
582.10	386.19
582.26	383.85
582.42	433.00
582.58	442.36
582.74	407.25
582.90	409.59
583.06	430.66
583.22	442.36
583.38	447.04
583.54	404.91
583.70	449.38
583.86	411.93
584.02	388.53
584.18	451.72
584.34	437.68
584.50	376.83
584.66	418.96
584.82	390.87
584.98	400.23
585.14	395.55
585.30	428.32
585.46	404.91
585.62	418.96
585.78	418.96
585.94	421.30
586.10	461.09
586.26	435.34
586.42	416.62
586.58	379.17
586.74	360.44
586.90	395.55
587.06	348.74
587.22	433.00
587.38	435.34
587.54	444.70
587.70	416.62
587.86	433.00
588.02	465.77
588.18	428.32
588.34	404.91
588.49	437.68
588.65	425.98
588.81	440.02
588.97	451.72
589.13	416.62
589.29	423.64
589.45	409.59
589.61	416.62
589.77	433.00
589.93	451.72
590.08	355.76
590.24	416.62
590.40	440.02
590.56	440.02
590.72	444.70
590.88	374.49
591.04	393.21
591.20	465.77
591.35	458.74
591.51	390.87
591.67	423.64
591.83	372.15
591.99	351.08
592.15	393.21
592.31	435.34
592.46	386.19
592.62	430.66
592.78	360.44
592.94	472.79
593.10	353.42
593.26	451.72
593.41	418.96
593.57	411.93
593.73	416.62
593.89	388.53
594.05	456.40
594.20	393.21
594.36	482.15
594.52	449.38
594.68	428.32
594.84	379.17
594.99	404.91
595.15	388.53
595.31	418.96
595.47	463.43
595.62	397.89
595.78	472.79
595.94	421.30
596.10	519.60
596.25	512.58
596.41	339.38
596.57	393.21
596.73	397.89
596.88	397.89
597.04	451.72
597.20	425.98
597.36	430.66
597.51	376.83
597.67	454.06
597.83	390.87
597.99	444.70
598.14	395.55
598.30	411.93
598.46	425.98
598.61	458.74
598.77	454.06
598.93	437.68
599.09	404.91
599.24	418.96
599.40	465.77
599.56	503.22
599.71	386.19
599.87	409.59
600.03	402.57
600.18	367.46
600.34	372.15
600.50	388.53
600.65	430.66
600.81	404.91
600.97	444.70
601.12	430.66
601.28	496.19
601.44	374.49
601.59	425.98
601.75	437.68
601.91	414.27
602.06	402.57
602.22	484.49
602.37	440.02
602.53	318.31
602.69	428.32
602.84	299.59
603.00	386.19
603.16	411.93
603.31	458.74
603.47	351.08
603.62	381.51
603.78	362.78
603.94	468.11
604.09	442.36
604.25	404.91
604.40	411.93
604.56	369.80
604.71	519.60
604.87	407.25
605.03	355.76
605.18	428.32
605.34	449.38
605.49	383.85
605.65	456.40
605.80	458.74
605.96	407.25
606.12	402.57
606.27	458.74
606.43	374.49
606.58	362.78
606.74	388.53
606.89	407.25
607.05	472.79
607.20	407.25
607.36	418.96
607.51	437.68
607.67	421.30
607.82	414.27
607.98	414.27
608.13	451.72
608.29	404.91
608.44	442.36
608.60	475.13
608.75	400.23
608.91	367.46
609.06	397.89
609.22	418.96
609.37	379.17
609.53	449.38
609.68	369.80
609.84	339.38
609.99	367.46
610.15	374.49
