SpectraSuite Data File
++++++++++++++++++++++++++++++++++++
Date: Fri Oct 25 12:11:03 EDT 2013
User: price-jones
Dark Spectrum Present: No
Reference Spectrum Present: No
Number of Sampled Component Spectra: 1
Spectrometers: USB2+H05261
Integration Time (usec): 100000 (USB2+H05261)
Spectra Averaged: 1 (USB2+H05261)
Boxcar Smoothing: 0 (USB2+H05261)
Correct for Electrical Dark: No (USB2+H05261)
Strobe/Lamp Enabled: No (USB2+H05261)
Correct for Detector Non-linearity: No (USB2+H05261)
Correct for Stray Light: No (USB2+H05261)
Number of Pixels in Processed Spectrum: 2048
>>>>>Begin Processed Spectral Data<<<<<
365.73	381.51
365.92	381.51
366.12	381.51
366.32	203.63
366.52	257.46
366.72	262.14
366.91	250.44
367.11	227.03
367.31	163.84
367.51	180.22
367.70	208.31
367.90	285.55
368.10	264.48
368.30	222.35
368.49	250.44
368.69	266.82
368.89	234.05
369.09	259.80
369.28	234.05
369.48	271.50
369.68	276.18
369.87	276.18
370.07	280.86
370.27	308.95
370.47	292.57
370.66	374.49
370.86	315.97
371.06	386.19
371.25	327.68
371.45	379.17
371.65	421.30
371.84	411.93
372.04	304.27
372.24	400.23
372.44	358.10
372.63	386.19
372.83	400.23
373.03	411.93
373.22	407.25
373.42	409.59
373.62	390.87
373.81	456.40
374.01	423.64
374.21	381.51
374.40	400.23
374.60	533.64
374.79	355.76
374.99	416.62
375.19	348.74
375.38	402.57
375.58	367.46
375.78	416.62
375.97	458.74
376.17	468.11
376.37	425.98
376.56	414.27
376.76	411.93
376.95	381.51
377.15	386.19
377.35	395.55
377.54	395.55
377.74	379.17
377.93	409.59
378.13	491.51
378.33	437.68
378.52	374.49
378.72	500.87
378.91	388.53
379.11	374.49
379.31	461.09
379.50	379.17
379.70	454.06
379.89	447.04
380.09	409.59
380.28	416.62
380.48	348.74
380.68	442.36
380.87	407.25
381.07	442.36
381.26	393.21
381.46	341.72
381.65	388.53
381.85	400.23
382.04	425.98
382.24	442.36
382.43	381.51
382.63	390.87
382.83	414.27
383.02	475.13
383.22	402.57
383.41	374.49
383.61	386.19
383.80	395.55
384.00	435.34
384.19	393.21
384.39	409.59
384.58	421.30
384.78	372.15
384.97	327.68
385.17	362.78
385.36	362.78
385.56	414.27
385.75	379.17
385.95	444.70
386.14	381.51
386.34	421.30
386.53	386.19
386.72	383.85
386.92	414.27
387.11	390.87
387.31	362.78
387.50	358.10
387.70	397.89
387.89	379.17
388.09	407.25
388.28	449.38
388.48	470.45
388.67	402.57
388.86	449.38
389.06	400.23
389.25	425.98
389.45	421.30
389.64	454.06
389.84	496.19
390.03	440.02
390.22	435.34
390.42	423.64
390.61	344.06
390.81	362.78
391.00	369.80
391.19	470.45
391.39	388.53
391.58	440.02
391.78	362.78
391.97	379.17
392.16	388.53
392.36	416.62
392.55	386.19
392.75	353.42
392.94	435.34
393.13	369.80
393.33	372.15
393.52	404.91
393.71	325.33
393.91	435.34
394.10	400.23
394.29	407.25
394.49	353.42
394.68	411.93
394.88	404.91
395.07	430.66
395.26	390.87
395.46	437.68
395.65	451.72
395.84	465.77
396.04	461.09
396.23	451.72
396.42	379.17
396.62	447.04
396.81	435.34
397.00	442.36
397.19	397.89
397.39	454.06
397.58	442.36
397.77	390.87
397.97	437.68
398.16	353.42
398.35	425.98
398.55	344.06
398.74	355.76
398.93	428.32
399.12	423.64
399.32	390.87
399.51	386.19
399.70	402.57
399.90	435.34
400.09	425.98
400.28	381.51
400.47	400.23
400.67	449.38
400.86	341.72
401.05	397.89
401.24	430.66
401.44	313.63
401.63	397.89
401.82	433.00
402.01	456.40
402.21	360.44
402.40	379.17
402.59	365.12
402.78	365.12
402.97	418.96
403.17	414.27
403.36	395.55
403.55	411.93
403.74	411.93
403.93	400.23
404.13	500.87
404.32	430.66
404.51	468.11
404.70	538.32
404.89	425.98
405.09	430.66
405.28	461.09
405.47	369.80
405.66	414.27
405.85	425.98
406.05	421.30
406.24	400.23
406.43	442.36
406.62	402.57
406.81	458.74
407.00	423.64
407.20	369.80
407.39	404.91
407.58	351.08
407.77	376.83
407.96	447.04
408.15	433.00
408.34	418.96
408.54	437.68
408.73	369.80
408.92	374.49
409.11	376.83
409.30	435.34
409.49	416.62
409.68	388.53
409.87	372.15
410.07	341.72
410.26	433.00
410.45	360.44
410.64	327.68
410.83	362.78
411.02	435.34
411.21	430.66
411.40	397.89
411.59	433.00
411.78	472.79
411.98	400.23
412.17	409.59
412.36	407.25
412.55	341.72
412.74	367.46
412.93	341.72
413.12	423.64
413.31	430.66
413.50	442.36
413.69	407.25
413.88	465.77
414.07	409.59
414.26	430.66
414.45	372.15
414.64	416.62
414.83	482.15
415.02	414.27
415.22	400.23
415.41	407.25
415.60	358.10
415.79	397.89
415.98	433.00
416.17	463.43
416.36	461.09
416.55	337.04
416.74	397.89
416.93	433.00
417.12	416.62
417.31	451.72
417.50	395.55
417.69	433.00
417.88	337.04
418.07	355.76
418.26	482.15
418.45	418.96
418.64	484.49
418.83	418.96
419.02	400.23
419.21	355.76
419.39	423.64
419.58	407.25
419.77	379.17
419.96	388.53
420.15	414.27
420.34	402.57
420.53	421.30
420.72	489.17
420.91	369.80
421.10	383.85
421.29	461.09
421.48	360.44
421.67	374.49
421.86	374.49
422.05	404.91
422.24	344.06
422.43	447.04
422.61	393.21
422.80	437.68
422.99	423.64
423.18	395.55
423.37	468.11
423.56	435.34
423.75	402.57
423.94	358.10
424.13	433.00
424.32	362.78
424.50	435.34
424.69	423.64
424.88	409.59
425.07	397.89
425.26	433.00
425.45	367.46
425.64	423.64
425.83	393.21
426.01	454.06
426.20	402.57
426.39	423.64
426.58	428.32
426.77	369.80
426.96	383.85
427.15	468.11
427.33	402.57
427.52	425.98
427.71	407.25
427.90	447.04
428.09	423.64
428.28	381.51
428.46	372.15
428.65	400.23
428.84	351.08
429.03	409.59
429.22	416.62
429.40	397.89
429.59	402.57
429.78	486.83
429.97	402.57
430.16	397.89
430.34	372.15
430.53	355.76
430.72	444.70
430.91	404.91
431.10	341.72
431.28	372.15
431.47	369.80
431.66	421.30
431.85	416.62
432.03	425.98
432.22	437.68
432.41	472.79
432.60	444.70
432.79	374.49
432.97	404.91
433.16	358.10
433.35	407.25
433.54	381.51
433.72	386.19
433.91	461.09
434.10	463.43
434.28	440.02
434.47	402.57
434.66	491.51
434.85	475.13
435.03	388.53
435.22	418.96
435.41	458.74
435.59	435.34
435.78	465.77
435.97	425.98
436.16	386.19
436.34	390.87
436.53	393.21
436.72	444.70
436.90	437.68
437.09	454.06
437.28	374.49
437.46	397.89
437.65	409.59
437.84	428.32
438.02	423.64
438.21	390.87
438.40	407.25
438.58	390.87
438.77	437.68
438.96	390.87
439.14	477.47
439.33	454.06
439.52	402.57
439.70	397.89
439.89	393.21
440.08	397.89
440.26	393.21
440.45	367.46
440.63	477.47
440.82	369.80
441.01	472.79
441.19	395.55
441.38	435.34
441.57	383.85
441.75	447.04
441.94	393.21
442.12	383.85
442.31	407.25
442.50	390.87
442.68	397.89
442.87	470.45
443.05	369.80
443.24	409.59
443.43	451.72
443.61	423.64
443.80	379.17
443.98	386.19
444.17	388.53
444.35	407.25
444.54	400.23
444.73	491.51
444.91	458.74
445.10	351.08
445.28	278.52
445.47	418.96
445.65	372.15
445.84	355.76
446.02	341.72
446.21	472.79
446.39	414.27
446.58	465.77
446.77	390.87
446.95	433.00
447.14	442.36
447.32	381.51
447.51	423.64
447.69	393.21
447.88	479.81
448.06	388.53
448.25	418.96
448.43	374.49
448.62	425.98
448.80	376.83
448.99	400.23
449.17	437.68
449.36	407.25
449.54	379.17
449.73	393.21
449.91	414.27
450.10	409.59
450.28	468.11
450.46	458.74
450.65	383.85
450.83	402.57
451.02	390.87
451.20	388.53
451.39	447.04
451.57	465.77
451.76	407.25
451.94	435.34
452.13	416.62
452.31	458.74
452.49	351.08
452.68	346.40
452.86	383.85
453.05	512.58
453.23	435.34
453.42	456.40
453.60	383.85
453.78	447.04
453.97	376.83
454.15	428.32
454.34	386.19
454.52	442.36
454.70	458.74
454.89	395.55
455.07	416.62
455.26	479.81
455.44	404.91
455.62	397.89
455.81	383.85
455.99	449.38
456.17	374.49
456.36	507.90
456.54	428.32
456.73	383.85
456.91	437.68
457.09	421.30
457.28	400.23
457.46	374.49
457.64	524.28
457.83	433.00
458.01	400.23
458.19	435.34
458.38	360.44
458.56	402.57
458.74	390.87
458.93	451.72
459.11	437.68
459.29	418.96
459.48	337.04
459.66	451.72
459.84	390.87
460.03	517.26
460.21	475.13
460.39	404.91
460.57	383.85
460.76	433.00
460.94	393.21
461.12	468.11
461.31	447.04
461.49	404.91
461.67	416.62
461.85	365.12
462.04	383.85
462.22	770.04
462.40	425.98
462.59	381.51
462.77	407.25
462.95	491.51
463.13	395.55
463.32	433.00
463.50	416.62
463.68	430.66
463.86	505.56
464.05	372.15
464.23	390.87
464.41	376.83
464.59	433.00
464.78	435.34
464.96	409.59
465.14	339.38
465.32	362.78
465.50	498.53
465.69	435.34
465.87	421.30
466.05	409.59
466.23	428.32
466.41	411.93
466.60	404.91
466.78	407.25
466.96	390.87
467.14	475.13
467.32	411.93
467.51	451.72
467.69	430.66
467.87	449.38
468.05	433.00
468.23	386.19
468.41	428.32
468.60	414.27
468.78	425.98
468.96	451.72
469.14	440.02
469.32	409.59
469.50	376.83
469.69	418.96
469.87	475.13
470.05	414.27
470.23	358.10
470.41	388.53
470.59	374.49
470.77	418.96
470.95	435.34
471.14	423.64
471.32	376.83
471.50	397.89
471.68	409.59
471.86	435.34
472.04	444.70
472.22	414.27
472.40	346.40
472.58	404.91
472.77	283.20
472.95	369.80
473.13	491.51
473.31	423.64
473.49	367.46
473.67	414.27
473.85	404.91
474.03	458.74
474.21	315.97
474.39	496.19
474.57	409.59
474.75	451.72
474.93	433.00
475.12	322.99
475.30	379.17
475.48	418.96
475.66	433.00
475.84	449.38
476.02	395.55
476.20	449.38
476.38	395.55
476.56	458.74
476.74	400.23
476.92	407.25
477.10	418.96
477.28	472.79
477.46	456.40
477.64	449.38
477.82	444.70
478.00	433.00
478.18	397.89
478.36	451.72
478.54	425.98
478.72	449.38
478.90	400.23
479.08	383.85
479.26	458.74
479.44	479.81
479.62	344.06
479.80	454.06
479.98	409.59
480.16	379.17
480.34	374.49
480.52	379.17
480.70	442.36
480.88	397.89
481.06	318.31
481.24	414.27
481.41	425.98
481.59	440.02
481.77	390.87
481.95	440.02
482.13	395.55
482.31	421.30
482.49	388.53
482.67	496.19
482.85	461.09
483.03	376.83
483.21	400.23
483.39	388.53
483.57	402.57
483.74	433.00
483.92	440.02
484.10	374.49
484.28	428.32
484.46	447.04
484.64	407.25
484.82	388.53
485.00	411.93
485.18	351.08
485.35	425.98
485.53	390.87
485.71	421.30
485.89	404.91
486.07	362.78
486.25	465.77
486.43	376.83
486.61	491.51
486.78	402.57
486.96	397.89
487.14	416.62
487.32	416.62
487.50	308.95
487.68	435.34
487.85	463.43
488.03	433.00
488.21	411.93
488.39	461.09
488.57	386.19
488.75	458.74
488.92	407.25
489.10	440.02
489.28	447.04
489.46	416.62
489.64	411.93
489.81	376.83
489.99	414.27
490.17	369.80
490.35	407.25
490.53	400.23
490.70	393.21
490.88	486.83
491.06	400.23
491.24	449.38
491.41	524.28
491.59	390.87
491.77	395.55
491.95	409.59
492.13	451.72
492.30	381.51
492.48	437.68
492.66	409.59
492.84	400.23
493.01	433.00
493.19	376.83
493.37	430.66
493.54	425.98
493.72	334.70
493.90	477.47
494.08	355.76
494.25	395.55
494.43	425.98
494.61	465.77
494.79	388.53
494.96	435.34
495.14	407.25
495.32	409.59
495.49	330.02
495.67	456.40
495.85	411.93
496.02	435.34
496.20	442.36
496.38	404.91
496.55	423.64
496.73	390.87
496.91	411.93
497.09	442.36
497.26	418.96
497.44	463.43
497.62	451.72
497.79	395.55
497.97	374.49
498.14	456.40
498.32	414.27
498.50	440.02
498.67	428.32
498.85	393.21
499.03	381.51
499.20	407.25
499.38	507.90
499.56	409.59
499.73	463.43
499.91	379.17
500.08	444.70
500.26	402.57
500.44	381.51
500.61	444.70
500.79	414.27
500.97	411.93
501.14	421.30
501.32	421.30
501.49	376.83
501.67	402.57
501.84	393.21
502.02	411.93
502.20	503.22
502.37	437.68
502.55	397.89
502.72	444.70
502.90	379.17
503.07	414.27
503.25	404.91
503.43	409.59
503.60	367.46
503.78	416.62
503.95	428.32
504.13	440.02
504.30	475.13
504.48	416.62
504.65	416.62
504.83	393.21
505.01	404.91
505.18	440.02
505.36	376.83
505.53	400.23
505.71	339.38
505.88	428.32
506.06	458.74
506.23	402.57
506.41	404.91
506.58	376.83
506.76	400.23
506.93	374.49
507.11	440.02
507.28	470.45
507.46	344.06
507.63	393.21
507.81	369.80
507.98	374.49
508.16	393.21
508.33	407.25
508.50	421.30
508.68	428.32
508.85	421.30
509.03	397.89
509.20	423.64
509.38	411.93
509.55	414.27
509.73	470.45
509.90	421.30
510.08	423.64
510.25	409.59
510.42	510.24
510.60	381.51
510.77	418.96
510.95	442.36
511.12	468.11
511.30	407.25
511.47	486.83
511.64	437.68
511.82	505.56
511.99	421.30
512.17	461.09
512.34	430.66
512.51	388.53
512.69	386.19
512.86	498.53
513.04	344.06
513.21	404.91
513.38	409.59
513.56	407.25
513.73	437.68
513.90	334.70
514.08	444.70
514.25	456.40
514.43	461.09
514.60	421.30
514.77	388.53
514.95	369.80
515.12	383.85
515.29	383.85
515.47	416.62
515.64	320.65
515.81	334.70
515.99	475.13
516.16	451.72
516.33	400.23
516.51	414.27
516.68	351.08
516.85	433.00
517.03	386.19
517.20	414.27
517.37	491.51
517.54	411.93
517.72	402.57
517.89	362.78
518.06	400.23
518.24	533.64
518.41	423.64
518.58	418.96
518.75	351.08
518.93	402.57
519.10	430.66
519.27	341.72
519.45	437.68
519.62	486.83
519.79	433.00
519.96	362.78
520.14	365.12
520.31	475.13
520.48	397.89
520.65	400.23
520.83	444.70
521.00	475.13
521.17	388.53
521.34	322.99
521.52	402.57
521.69	479.81
521.86	507.90
522.03	442.36
522.20	458.74
522.38	418.96
522.55	397.89
522.72	397.89
522.89	388.53
523.07	500.87
523.24	498.53
523.41	456.40
523.58	454.06
523.75	449.38
523.92	416.62
524.10	383.85
524.27	423.64
524.44	449.38
524.61	425.98
524.78	388.53
524.96	425.98
525.13	440.02
525.30	489.17
525.47	381.51
525.64	451.72
525.81	414.27
525.98	442.36
526.16	346.40
526.33	407.25
526.50	440.02
526.67	442.36
526.84	404.91
527.01	337.04
527.18	425.98
527.36	402.57
527.53	353.42
527.70	414.27
527.87	374.49
528.04	416.62
528.21	330.02
528.38	409.59
528.55	433.00
528.72	360.44
528.89	524.28
529.07	365.12
529.24	397.89
529.41	449.38
529.58	414.27
529.75	369.80
529.92	421.30
530.09	372.15
530.26	435.34
530.43	433.00
530.60	440.02
530.77	351.08
530.94	477.47
531.11	463.43
531.28	440.02
531.46	411.93
531.63	500.87
531.80	386.19
531.97	470.45
532.14	428.32
532.31	397.89
532.48	416.62
532.65	416.62
532.82	376.83
532.99	379.17
533.16	440.02
533.33	425.98
533.50	440.02
533.67	458.74
533.84	341.72
534.01	463.43
534.18	414.27
534.35	400.23
534.52	447.04
534.69	407.25
534.86	374.49
535.03	362.78
535.20	421.30
535.37	437.68
535.54	407.25
535.71	451.72
535.88	456.40
536.05	360.44
536.22	421.30
536.38	470.45
536.55	407.25
536.72	454.06
536.89	414.27
537.06	390.87
537.23	395.55
537.40	404.91
537.57	454.06
537.74	435.34
537.91	465.77
538.08	367.46
538.25	397.89
538.42	383.85
538.59	411.93
538.75	456.40
538.92	355.76
539.09	503.22
539.26	465.77
539.43	444.70
539.60	393.21
539.77	447.04
539.94	407.25
540.11	447.04
540.28	423.64
540.44	416.62
540.61	418.96
540.78	451.72
540.95	421.30
541.12	484.49
541.29	433.00
541.46	456.40
541.62	367.46
541.79	400.23
541.96	458.74
542.13	444.70
542.30	430.66
542.47	355.76
542.63	367.46
542.80	428.32
542.97	414.27
543.14	421.30
543.31	386.19
543.48	344.06
543.64	404.91
543.81	418.96
543.98	369.80
544.15	444.70
544.32	404.91
544.48	447.04
544.65	484.49
544.82	386.19
544.99	376.83
545.16	456.40
545.32	376.83
545.49	390.87
545.66	496.19
545.83	444.70
546.00	332.36
546.16	458.74
546.33	418.96
546.50	414.27
546.67	418.96
546.83	400.23
547.00	428.32
547.17	315.97
547.34	454.06
547.50	430.66
547.67	379.17
547.84	411.93
548.00	447.04
548.17	362.78
548.34	362.78
548.51	486.83
548.67	416.62
548.84	444.70
549.01	404.91
549.18	423.64
549.34	404.91
549.51	486.83
549.68	507.90
549.84	379.17
550.01	433.00
550.18	468.11
550.34	482.15
550.51	409.59
550.68	423.64
550.84	400.23
551.01	390.87
551.18	423.64
551.34	458.74
551.51	400.23
551.68	449.38
551.84	425.98
552.01	442.36
552.18	430.66
552.34	351.08
552.51	369.80
552.68	390.87
552.84	437.68
553.01	407.25
553.18	402.57
553.34	425.98
553.51	369.80
553.67	418.96
553.84	472.79
554.01	376.83
554.17	435.34
554.34	390.87
554.51	365.12
554.67	468.11
554.84	390.87
555.00	411.93
555.17	442.36
555.33	463.43
555.50	418.96
555.67	435.34
555.83	414.27
556.00	395.55
556.16	507.90
556.33	451.72
556.50	400.23
556.66	461.09
556.83	367.46
556.99	339.38
557.16	376.83
557.32	449.38
557.49	376.83
557.65	451.72
557.82	365.12
557.98	425.98
558.15	437.68
558.32	381.51
558.48	411.93
558.65	465.77
558.81	437.68
558.98	442.36
559.14	444.70
559.31	379.17
559.47	416.62
559.64	458.74
559.80	421.30
559.97	372.15
560.13	416.62
560.30	390.87
560.46	402.57
560.63	383.85
560.79	440.02
560.96	376.83
561.12	418.96
561.29	456.40
561.45	425.98
561.61	437.68
561.78	484.49
561.94	395.55
562.11	475.13
562.27	400.23
562.44	418.96
562.60	423.64
562.77	425.98
562.93	535.98
563.10	433.00
563.26	402.57
563.42	425.98
563.59	386.19
563.75	388.53
563.92	418.96
564.08	484.49
564.24	500.87
564.41	461.09
564.57	393.21
564.74	390.87
564.90	433.00
565.07	454.06
565.23	463.43
565.39	484.49
565.56	397.89
565.72	395.55
565.88	500.87
566.05	475.13
566.21	383.85
566.38	484.49
566.54	468.11
566.70	458.74
566.87	458.74
567.03	315.97
567.19	402.57
567.36	376.83
567.52	437.68
567.68	451.72
567.85	435.34
568.01	454.06
568.17	451.72
568.34	479.81
568.50	404.91
568.66	414.27
568.83	500.87
568.99	400.23
569.15	472.79
569.32	402.57
569.48	397.89
569.64	423.64
569.81	423.64
569.97	418.96
570.13	372.15
570.30	444.70
570.46	390.87
570.62	425.98
570.78	454.06
570.95	386.19
571.11	435.34
571.27	500.87
571.43	468.11
571.60	411.93
571.76	379.17
571.92	465.77
572.09	447.04
572.25	526.62
572.41	397.89
572.57	479.81
572.74	489.17
572.90	428.32
573.06	418.96
573.22	390.87
573.38	416.62
573.55	423.64
573.71	423.64
573.87	440.02
574.03	379.17
574.20	421.30
574.36	440.02
574.52	374.49
574.68	351.08
574.84	425.98
575.01	430.66
575.17	425.98
575.33	416.62
575.49	482.15
575.65	470.45
575.82	449.38
575.98	397.89
576.14	447.04
576.30	475.13
576.46	433.00
576.62	444.70
576.79	482.15
576.95	379.17
577.11	418.96
577.27	372.15
577.43	517.26
577.59	411.93
577.75	430.66
577.92	306.61
578.08	472.79
578.24	414.27
578.40	454.06
578.56	507.90
578.72	428.32
578.88	451.72
579.04	418.96
579.21	416.62
579.37	395.55
579.53	433.00
579.69	498.53
579.85	463.43
580.01	442.36
580.17	358.10
580.33	463.43
580.49	404.91
580.65	379.17
580.82	407.25
580.98	402.57
581.14	468.11
581.30	425.98
581.46	437.68
581.62	430.66
581.78	374.49
581.94	386.19
582.10	465.77
582.26	463.43
582.42	402.57
582.58	526.62
582.74	397.89
582.90	416.62
583.06	482.15
583.22	444.70
583.38	365.12
583.54	440.02
583.70	465.77
583.86	346.40
584.02	421.30
584.18	390.87
584.34	383.85
584.50	325.33
584.66	423.64
584.82	440.02
584.98	411.93
585.14	486.83
585.30	395.55
585.46	418.96
585.62	477.47
585.78	418.96
585.94	430.66
586.10	461.09
586.26	437.68
586.42	418.96
586.58	388.53
586.74	402.57
586.90	402.57
587.06	400.23
587.22	418.96
587.38	489.17
587.54	386.19
587.70	447.04
587.86	543.00
588.02	386.19
588.18	437.68
588.34	458.74
588.49	397.89
588.65	463.43
588.81	379.17
588.97	402.57
589.13	433.00
589.29	440.02
589.45	458.74
589.61	395.55
589.77	472.79
589.93	458.74
590.08	381.51
590.24	416.62
590.40	351.08
590.56	461.09
590.72	390.87
590.88	437.68
591.04	388.53
591.20	360.44
591.35	493.85
591.51	475.13
591.67	351.08
591.83	390.87
591.99	397.89
592.15	402.57
592.31	435.34
592.46	444.70
592.62	477.47
592.78	386.19
592.94	386.19
593.10	435.34
593.26	393.21
593.41	395.55
593.57	341.72
593.73	393.21
593.89	402.57
594.05	397.89
594.20	388.53
594.36	402.57
594.52	447.04
594.68	411.93
594.84	456.40
594.99	482.15
595.15	456.40
595.31	423.64
595.47	484.49
595.62	360.44
595.78	402.57
595.94	390.87
596.10	435.34
596.25	353.42
596.41	461.09
596.57	407.25
596.73	360.44
596.88	440.02
597.04	458.74
597.20	376.83
597.36	463.43
597.51	397.89
597.67	395.55
597.83	442.36
597.99	416.62
598.14	351.08
598.30	465.77
598.46	351.08
598.61	444.70
598.77	421.30
598.93	381.51
599.09	411.93
599.24	390.87
599.40	341.72
599.56	425.98
599.71	468.11
599.87	397.89
600.03	414.27
600.18	458.74
600.34	365.12
600.50	388.53
600.65	463.43
600.81	428.32
600.97	402.57
601.12	395.55
601.28	491.51
601.44	430.66
601.59	461.09
601.75	416.62
601.91	397.89
602.06	411.93
602.22	526.62
602.37	437.68
602.53	355.76
602.69	440.02
602.84	351.08
603.00	428.32
603.16	416.62
603.31	418.96
603.47	348.74
603.62	367.46
603.78	400.23
603.94	433.00
604.09	376.83
604.25	430.66
604.40	404.91
604.56	421.30
604.71	442.36
604.87	423.64
605.03	379.17
605.18	437.68
605.34	444.70
605.49	383.85
605.65	346.40
605.80	369.80
605.96	372.15
606.12	376.83
606.27	423.64
606.43	435.34
606.58	454.06
606.74	489.17
606.89	362.78
607.05	463.43
607.20	428.32
607.36	344.06
607.51	440.02
607.67	381.51
607.82	409.59
607.98	491.51
608.13	468.11
608.29	404.91
608.44	442.36
608.60	383.85
608.75	318.31
608.91	465.77
609.06	421.30
609.22	437.68
609.37	395.55
609.53	367.46
609.68	334.70
609.84	437.68
609.99	430.66
610.15	423.64
