SpectraSuite Data File
++++++++++++++++++++++++++++++++++++
Date: Fri Oct 25 12:10:38 EDT 2013
User: price-jones
Dark Spectrum Present: No
Reference Spectrum Present: No
Number of Sampled Component Spectra: 1
Spectrometers: USB2+H05261
Integration Time (usec): 100000 (USB2+H05261)
Spectra Averaged: 1 (USB2+H05261)
Boxcar Smoothing: 0 (USB2+H05261)
Correct for Electrical Dark: No (USB2+H05261)
Strobe/Lamp Enabled: No (USB2+H05261)
Correct for Detector Non-linearity: No (USB2+H05261)
Correct for Stray Light: No (USB2+H05261)
Number of Pixels in Processed Spectrum: 2048
>>>>>Begin Processed Spectral Data<<<<<
365.73	320.65
365.92	320.65
366.12	320.65
366.32	245.76
366.52	269.16
366.72	184.90
366.91	212.99
367.11	201.29
367.31	294.91
367.51	283.20
367.70	238.73
367.90	264.48
368.10	243.42
368.30	285.55
368.49	175.54
368.69	264.48
368.89	229.37
369.09	313.63
369.28	304.27
369.48	215.33
369.68	280.86
369.87	255.12
370.07	283.20
370.27	362.78
370.47	299.59
370.66	334.70
370.86	367.46
371.06	376.83
371.25	425.98
371.45	416.62
371.65	358.10
371.84	386.19
372.04	400.23
372.24	376.83
372.44	376.83
372.63	388.53
372.83	437.68
373.03	465.77
373.22	442.36
373.42	374.49
373.62	486.83
373.81	454.06
374.01	503.22
374.21	456.40
374.40	440.02
374.60	479.81
374.79	470.45
374.99	454.06
375.19	444.70
375.38	383.85
375.58	381.51
375.78	428.32
375.97	461.09
376.17	379.17
376.37	456.40
376.56	454.06
376.76	383.85
376.95	330.02
377.15	386.19
377.35	369.80
377.54	437.68
377.74	344.06
377.93	348.74
378.13	388.53
378.33	428.32
378.52	365.12
378.72	440.02
378.91	376.83
379.11	409.59
379.31	404.91
379.50	416.62
379.70	418.96
379.89	425.98
380.09	346.40
380.28	411.93
380.48	402.57
380.68	416.62
380.87	388.53
381.07	456.40
381.26	430.66
381.46	388.53
381.65	421.30
381.85	388.53
382.04	435.34
382.24	390.87
382.43	346.40
382.63	372.15
382.83	440.02
383.02	402.57
383.22	388.53
383.41	411.93
383.61	402.57
383.80	444.70
384.00	418.96
384.19	367.46
384.39	414.27
384.58	447.04
384.78	454.06
384.97	404.91
385.17	337.04
385.36	397.89
385.56	454.06
385.75	416.62
385.95	381.51
386.14	440.02
386.34	353.42
386.53	407.25
386.72	407.25
386.92	456.40
387.11	423.64
387.31	447.04
387.50	416.62
387.70	346.40
387.89	402.57
388.09	362.78
388.28	346.40
388.48	393.21
388.67	425.98
388.86	362.78
389.06	383.85
389.25	463.43
389.45	444.70
389.64	482.15
389.84	493.85
390.03	491.51
390.22	423.64
390.42	430.66
390.61	386.19
390.81	423.64
391.00	393.21
391.19	468.11
391.39	397.89
391.58	440.02
391.78	425.98
391.97	411.93
392.16	430.66
392.36	472.79
392.55	428.32
392.75	470.45
392.94	400.23
393.13	428.32
393.33	369.80
393.52	411.93
393.71	479.81
393.91	355.76
394.10	365.12
394.29	433.00
394.49	367.46
394.68	341.72
394.88	449.38
395.07	442.36
395.26	409.59
395.46	425.98
395.65	444.70
395.84	388.53
396.04	381.51
396.23	418.96
396.42	400.23
396.62	367.46
396.81	397.89
397.00	444.70
397.19	433.00
397.39	388.53
397.58	376.83
397.77	369.80
397.97	454.06
398.16	435.34
398.35	416.62
398.55	449.38
398.74	418.96
398.93	362.78
399.12	440.02
399.32	407.25
399.51	358.10
399.70	395.55
399.90	458.74
400.09	395.55
400.28	397.89
400.47	423.64
400.67	393.21
400.86	383.85
401.05	409.59
401.24	477.47
401.44	411.93
401.63	449.38
401.82	437.68
402.01	353.42
402.21	454.06
402.40	470.45
402.59	463.43
402.78	468.11
402.97	383.85
403.17	447.04
403.36	428.32
403.55	409.59
403.74	393.21
403.93	479.81
404.13	339.38
404.32	383.85
404.51	388.53
404.70	372.15
404.89	430.66
405.09	369.80
405.28	407.25
405.47	404.91
405.66	428.32
405.85	428.32
406.05	397.89
406.24	393.21
406.43	409.59
406.62	517.26
406.81	472.79
407.00	381.51
407.20	411.93
407.39	433.00
407.58	463.43
407.77	421.30
407.96	444.70
408.15	458.74
408.34	463.43
408.54	440.02
408.73	327.68
408.92	411.93
409.11	397.89
409.30	423.64
409.49	423.64
409.68	369.80
409.87	393.21
410.07	409.59
410.26	418.96
410.45	362.78
410.64	435.34
410.83	390.87
411.02	444.70
411.21	463.43
411.40	409.59
411.59	355.76
411.78	365.12
411.98	395.55
412.17	325.33
412.36	376.83
412.55	430.66
412.74	465.77
412.93	461.09
413.12	395.55
413.31	423.64
413.50	423.64
413.69	458.74
413.88	454.06
414.07	414.27
414.26	360.44
414.45	374.49
414.64	421.30
414.83	334.70
415.02	491.51
415.22	449.38
415.41	421.30
415.60	367.46
415.79	423.64
415.98	454.06
416.17	372.15
416.36	414.27
416.55	400.23
416.74	449.38
416.93	430.66
417.12	421.30
417.31	390.87
417.50	376.83
417.69	484.49
417.88	416.62
418.07	365.12
418.26	402.57
418.45	418.96
418.64	449.38
418.83	482.15
419.02	421.30
419.21	351.08
419.39	388.53
419.58	468.11
419.77	444.70
419.96	400.23
420.15	367.46
420.34	348.74
420.53	407.25
420.72	486.83
420.91	512.58
421.10	447.04
421.29	353.42
421.48	449.38
421.67	404.91
421.86	367.46
422.05	416.62
422.24	341.72
422.43	425.98
422.61	355.76
422.80	421.30
422.99	489.17
423.18	379.17
423.37	437.68
423.56	379.17
423.75	461.09
423.94	430.66
424.13	379.17
424.32	421.30
424.50	461.09
424.69	334.70
424.88	409.59
425.07	468.11
425.26	365.12
425.45	444.70
425.64	416.62
425.83	376.83
426.01	409.59
426.20	416.62
426.39	379.17
426.58	447.04
426.77	393.21
426.96	362.78
427.15	374.49
427.33	367.46
427.52	442.36
427.71	496.19
427.90	414.27
428.09	458.74
428.28	381.51
428.46	437.68
428.65	372.15
428.84	433.00
429.03	400.23
429.22	451.72
429.40	393.21
429.59	374.49
429.78	360.44
429.97	358.10
430.16	437.68
430.34	428.32
430.53	411.93
430.72	407.25
430.91	514.92
431.10	486.83
431.28	430.66
431.47	484.49
431.66	355.76
431.85	386.19
432.03	414.27
432.22	425.98
432.41	461.09
432.60	428.32
432.79	444.70
432.97	374.49
433.16	393.21
433.35	383.85
433.54	365.12
433.72	395.55
433.91	365.12
434.10	421.30
434.28	388.53
434.47	409.59
434.66	409.59
434.85	390.87
435.03	423.64
435.22	388.53
435.41	444.70
435.59	388.53
435.78	479.81
435.97	395.55
436.16	402.57
436.34	451.72
436.53	458.74
436.72	397.89
436.90	428.32
437.09	421.30
437.28	437.68
437.46	327.68
437.65	400.23
437.84	440.02
438.02	447.04
438.21	409.59
438.40	337.04
438.58	287.89
438.77	470.45
438.96	456.40
439.14	423.64
439.33	393.21
439.52	411.93
439.70	425.98
439.89	390.87
440.08	421.30
440.26	383.85
440.45	388.53
440.63	437.68
440.82	388.53
441.01	362.78
441.19	320.65
441.38	409.59
441.57	397.89
441.75	407.25
441.94	409.59
442.12	416.62
442.31	416.62
442.50	418.96
442.68	397.89
442.87	411.93
443.05	414.27
443.24	442.36
443.43	449.38
443.61	437.68
443.80	449.38
443.98	383.85
444.17	463.43
444.35	440.02
444.54	411.93
444.73	461.09
444.91	416.62
445.10	416.62
445.28	440.02
445.47	416.62
445.65	395.55
445.84	379.17
446.02	407.25
446.21	447.04
446.39	451.72
446.58	435.34
446.77	402.57
446.95	451.72
447.14	376.83
447.32	416.62
447.51	428.32
447.69	362.78
447.88	449.38
448.06	407.25
448.25	421.30
448.43	388.53
448.62	435.34
448.80	414.27
448.99	531.30
449.17	390.87
449.36	376.83
449.54	414.27
449.73	367.46
449.91	437.68
450.10	428.32
450.28	416.62
450.46	386.19
450.65	423.64
450.83	437.68
451.02	400.23
451.20	440.02
451.39	440.02
451.57	355.76
451.76	367.46
451.94	433.00
452.13	407.25
452.31	341.72
452.49	456.40
452.68	372.15
452.86	409.59
453.05	468.11
453.23	437.68
453.42	430.66
453.60	404.91
453.78	449.38
453.97	430.66
454.15	404.91
454.34	454.06
454.52	449.38
454.70	440.02
454.89	418.96
455.07	423.64
455.26	386.19
455.44	292.57
455.62	381.51
455.81	397.89
455.99	402.57
456.17	416.62
456.36	372.15
456.54	423.64
456.73	440.02
456.91	409.59
457.09	416.62
457.28	411.93
457.46	444.70
457.64	444.70
457.83	393.21
458.01	423.64
458.19	416.62
458.38	393.21
458.56	414.27
458.74	430.66
458.93	372.15
459.11	433.00
459.29	381.51
459.48	444.70
459.66	425.98
459.84	433.00
460.03	540.66
460.21	472.79
460.39	400.23
460.57	479.81
460.76	461.09
460.94	339.38
461.12	472.79
461.31	397.89
461.49	376.83
461.67	465.77
461.85	425.98
462.04	383.85
462.22	725.57
462.40	479.81
462.59	435.34
462.77	355.76
462.95	372.15
463.13	447.04
463.32	418.96
463.50	447.04
463.68	383.85
463.86	369.80
464.05	442.36
464.23	456.40
464.41	433.00
464.59	433.00
464.78	416.62
464.96	369.80
465.14	418.96
465.32	425.98
465.50	404.91
465.69	461.09
465.87	416.62
466.05	360.44
466.23	395.55
466.41	372.15
466.60	376.83
466.78	440.02
466.96	402.57
467.14	456.40
467.32	524.28
467.51	454.06
467.69	435.34
467.87	479.81
468.05	423.64
468.23	435.34
468.41	416.62
468.60	416.62
468.78	444.70
468.96	358.10
469.14	353.42
469.32	444.70
469.50	440.02
469.69	458.74
469.87	344.06
470.05	404.91
470.23	348.74
470.41	411.93
470.59	421.30
470.77	414.27
470.95	491.51
471.14	475.13
471.32	362.78
471.50	472.79
471.68	461.09
471.86	423.64
472.04	334.70
472.22	388.53
472.40	402.57
472.58	386.19
472.77	407.25
472.95	407.25
473.13	428.32
473.31	468.11
473.49	388.53
473.67	411.93
473.85	395.55
474.03	402.57
474.21	430.66
474.39	414.27
474.57	365.12
474.75	430.66
474.93	397.89
475.12	369.80
475.30	418.96
475.48	362.78
475.66	428.32
475.84	463.43
476.02	369.80
476.20	447.04
476.38	355.76
476.56	409.59
476.74	451.72
476.92	390.87
477.10	402.57
477.28	423.64
477.46	376.83
477.64	411.93
477.82	421.30
478.00	400.23
478.18	435.34
478.36	440.02
478.54	386.19
478.72	461.09
478.90	428.32
479.08	421.30
479.26	428.32
479.44	351.08
479.62	365.12
479.80	435.34
479.98	374.49
480.16	411.93
480.34	351.08
480.52	332.36
480.70	372.15
480.88	404.91
481.06	337.04
481.24	337.04
481.41	409.59
481.59	428.32
481.77	383.85
481.95	388.53
482.13	386.19
482.31	444.70
482.49	407.25
482.67	362.78
482.85	393.21
483.03	423.64
483.21	440.02
483.39	351.08
483.57	428.32
483.74	404.91
483.92	414.27
484.10	416.62
484.28	425.98
484.46	435.34
484.64	407.25
484.82	454.06
485.00	337.04
485.18	425.98
485.35	451.72
485.53	477.47
485.71	390.87
485.89	374.49
486.07	402.57
486.25	489.17
486.43	442.36
486.61	451.72
486.78	440.02
486.96	447.04
487.14	418.96
487.32	304.27
487.50	430.66
487.68	348.74
487.85	395.55
488.03	416.62
488.21	376.83
488.39	463.43
488.57	390.87
488.75	339.38
488.92	470.45
489.10	451.72
489.28	472.79
489.46	369.80
489.64	393.21
489.81	425.98
489.99	423.64
490.17	418.96
490.35	414.27
490.53	411.93
490.70	390.87
490.88	346.40
491.06	423.64
491.24	433.00
491.41	437.68
491.59	435.34
491.77	416.62
491.95	348.74
492.13	383.85
492.30	355.76
492.48	362.78
492.66	404.91
492.84	395.55
493.01	360.44
493.19	341.72
493.37	458.74
493.54	447.04
493.72	461.09
493.90	416.62
494.08	409.59
494.25	435.34
494.43	365.12
494.61	351.08
494.79	416.62
494.96	355.76
495.14	465.77
495.32	383.85
495.49	379.17
495.67	449.38
495.85	374.49
496.02	404.91
496.20	461.09
496.38	337.04
496.55	456.40
496.73	367.46
496.91	456.40
497.09	451.72
497.26	358.10
497.44	388.53
497.62	381.51
497.79	351.08
497.97	423.64
498.14	379.17
498.32	440.02
498.50	411.93
498.67	372.15
498.85	383.85
499.03	423.64
499.20	449.38
499.38	381.51
499.56	425.98
499.73	418.96
499.91	416.62
500.08	482.15
500.26	470.45
500.44	475.13
500.61	397.89
500.79	423.64
500.97	421.30
501.14	435.34
501.32	454.06
501.49	416.62
501.67	386.19
501.84	337.04
502.02	421.30
502.20	491.51
502.37	407.25
502.55	468.11
502.72	395.55
502.90	433.00
503.07	362.78
503.25	411.93
503.43	433.00
503.60	376.83
503.78	421.30
503.95	414.27
504.13	433.00
504.30	496.19
504.48	407.25
504.65	430.66
504.83	397.89
505.01	313.63
505.18	447.04
505.36	451.72
505.53	381.51
505.71	390.87
505.88	456.40
506.06	454.06
506.23	351.08
506.41	315.97
506.58	374.49
506.76	486.83
506.93	372.15
507.11	447.04
507.28	447.04
507.46	379.17
507.63	402.57
507.81	472.79
507.98	468.11
508.16	372.15
508.33	425.98
508.50	402.57
508.68	435.34
508.85	433.00
509.03	379.17
509.20	440.02
509.38	388.53
509.55	433.00
509.73	313.63
509.90	423.64
510.08	390.87
510.25	463.43
510.42	442.36
510.60	425.98
510.77	437.68
510.95	435.34
511.12	407.25
511.30	444.70
511.47	393.21
511.64	390.87
511.82	414.27
511.99	479.81
512.17	435.34
512.34	437.68
512.51	393.21
512.69	346.40
512.86	521.94
513.04	465.77
513.21	367.46
513.38	418.96
513.56	400.23
513.73	435.34
513.90	409.59
514.08	360.44
514.25	381.51
514.43	451.72
514.60	374.49
514.77	367.46
514.95	428.32
515.12	358.10
515.29	386.19
515.47	458.74
515.64	447.04
515.81	465.77
515.99	423.64
516.16	482.15
516.33	414.27
516.51	386.19
516.68	381.51
516.85	437.68
517.03	435.34
517.20	411.93
517.37	437.68
517.54	388.53
517.72	376.83
517.89	325.33
518.06	428.32
518.24	465.77
518.41	472.79
518.58	402.57
518.75	397.89
518.93	367.46
519.10	374.49
519.27	428.32
519.45	374.49
519.62	395.55
519.79	437.68
519.96	458.74
520.14	447.04
520.31	421.30
520.48	475.13
520.65	397.89
520.83	409.59
521.00	468.11
521.17	449.38
521.34	425.98
521.52	409.59
521.69	440.02
521.86	449.38
522.03	414.27
522.20	402.57
522.38	430.66
522.55	440.02
522.72	435.34
522.89	479.81
523.07	447.04
523.24	397.89
523.41	421.30
523.58	479.81
523.75	465.77
523.92	428.32
524.10	348.74
524.27	386.19
524.44	397.89
524.61	428.32
524.78	390.87
524.96	418.96
525.13	472.79
525.30	414.27
525.47	397.89
525.64	383.85
525.81	442.36
525.98	447.04
526.16	386.19
526.33	456.40
526.50	479.81
526.67	433.00
526.84	386.19
527.01	447.04
527.18	449.38
527.36	451.72
527.53	470.45
527.70	433.00
527.87	388.53
528.04	507.90
528.21	369.80
528.38	449.38
528.55	484.49
528.72	428.32
528.89	461.09
529.07	414.27
529.24	379.17
529.41	400.23
529.58	423.64
529.75	402.57
529.92	374.49
530.09	386.19
530.26	400.23
530.43	414.27
530.60	435.34
530.77	425.98
530.94	337.04
531.11	428.32
531.28	444.70
531.46	376.83
531.63	379.17
531.80	411.93
531.97	369.80
532.14	409.59
532.31	425.98
532.48	416.62
532.65	479.81
532.82	440.02
532.99	383.85
533.16	470.45
533.33	395.55
533.50	397.89
533.67	463.43
533.84	395.55
534.01	489.17
534.18	421.30
534.35	362.78
534.52	411.93
534.69	468.11
534.86	369.80
535.03	451.72
535.20	428.32
535.37	437.68
535.54	430.66
535.71	414.27
535.88	484.49
536.05	425.98
536.22	451.72
536.38	393.21
536.55	376.83
536.72	486.83
536.89	390.87
537.06	395.55
537.23	393.21
537.40	428.32
537.57	428.32
537.74	376.83
537.91	463.43
538.08	355.76
538.25	449.38
538.42	458.74
538.59	468.11
538.75	416.62
538.92	416.62
539.09	430.66
539.26	395.55
539.43	468.11
539.60	367.46
539.77	421.30
539.94	411.93
540.11	374.49
540.28	376.83
540.44	409.59
540.61	376.83
540.78	341.72
540.95	376.83
541.12	320.65
541.29	437.68
541.46	397.89
541.62	411.93
541.79	440.02
541.96	514.92
542.13	346.40
542.30	372.15
542.47	465.77
542.63	369.80
542.80	428.32
542.97	409.59
543.14	407.25
543.31	482.15
543.48	374.49
543.64	437.68
543.81	402.57
543.98	367.46
544.15	456.40
544.32	386.19
544.48	381.51
544.65	381.51
544.82	454.06
544.99	386.19
545.16	428.32
545.32	388.53
545.49	461.09
545.66	376.83
545.83	355.76
546.00	437.68
546.16	430.66
546.33	465.77
546.50	381.51
546.67	390.87
546.83	456.40
547.00	425.98
547.17	372.15
547.34	407.25
547.50	423.64
547.67	402.57
547.84	318.31
548.00	442.36
548.17	449.38
548.34	423.64
548.51	461.09
548.67	447.04
548.84	416.62
549.01	388.53
549.18	407.25
549.34	400.23
549.51	390.87
549.68	447.04
549.84	458.74
550.01	428.32
550.18	447.04
550.34	489.17
550.51	414.27
550.68	428.32
550.84	418.96
551.01	372.15
551.18	407.25
551.34	477.47
551.51	411.93
551.68	433.00
551.84	414.27
552.01	423.64
552.18	437.68
552.34	418.96
552.51	451.72
552.68	423.64
552.84	367.46
553.01	428.32
553.18	425.98
553.34	407.25
553.51	456.40
553.67	409.59
553.84	470.45
554.01	435.34
554.17	454.06
554.34	440.02
554.51	404.91
554.67	447.04
554.84	491.51
555.00	421.30
555.17	458.74
555.33	421.30
555.50	437.68
555.67	463.43
555.83	414.27
556.00	423.64
556.16	472.79
556.33	393.21
556.50	383.85
556.66	461.09
556.83	428.32
556.99	496.19
557.16	386.19
557.32	430.66
557.49	372.15
557.65	456.40
557.82	461.09
557.98	451.72
558.15	397.89
558.32	397.89
558.48	433.00
558.65	491.51
558.81	451.72
558.98	421.30
559.14	435.34
559.31	442.36
559.47	430.66
559.64	411.93
559.80	491.51
559.97	404.91
560.13	428.32
560.30	414.27
560.46	404.91
560.63	395.55
560.79	465.77
560.96	421.30
561.12	339.38
561.29	468.11
561.45	400.23
561.61	339.38
561.78	440.02
561.94	404.91
562.11	463.43
562.27	428.32
562.44	437.68
562.60	489.17
562.77	411.93
562.93	472.79
563.10	521.94
563.26	374.49
563.42	449.38
563.59	468.11
563.75	454.06
563.92	397.89
564.08	519.60
564.24	482.15
564.41	435.34
564.57	451.72
564.74	393.21
564.90	372.15
565.07	418.96
565.23	442.36
565.39	442.36
565.56	332.36
565.72	360.44
565.88	454.06
566.05	334.70
566.21	365.12
566.38	489.17
566.54	418.96
566.70	521.94
566.87	393.21
567.03	428.32
567.19	362.78
567.36	372.15
567.52	397.89
567.68	423.64
567.85	348.74
568.01	383.85
568.17	437.68
568.34	325.33
568.50	414.27
568.66	440.02
568.83	440.02
568.99	433.00
569.15	470.45
569.32	505.56
569.48	423.64
569.64	376.83
569.81	440.02
569.97	430.66
570.13	423.64
570.30	402.57
570.46	430.66
570.62	425.98
570.78	400.23
570.95	400.23
571.11	444.70
571.27	482.15
571.43	374.49
571.60	430.66
571.76	397.89
571.92	477.47
572.09	468.11
572.25	472.79
572.41	393.21
572.57	425.98
572.74	435.34
572.90	468.11
573.06	428.32
573.22	468.11
573.38	449.38
573.55	465.77
573.71	435.34
573.87	390.87
574.03	411.93
574.20	433.00
574.36	322.99
574.52	425.98
574.68	397.89
574.84	456.40
575.01	397.89
575.17	433.00
575.33	468.11
575.49	430.66
575.65	482.15
575.82	440.02
575.98	435.34
576.14	442.36
576.30	388.53
576.46	479.81
576.62	461.09
576.79	440.02
576.95	437.68
577.11	383.85
577.27	430.66
577.43	447.04
577.59	475.13
577.75	416.62
577.92	379.17
578.08	341.72
578.24	372.15
578.40	451.72
578.56	407.25
578.72	404.91
578.88	470.45
579.04	418.96
579.21	407.25
579.37	524.28
579.53	477.47
579.69	482.15
579.85	351.08
580.01	451.72
580.17	388.53
580.33	414.27
580.49	414.27
580.65	435.34
580.82	414.27
580.98	395.55
581.14	386.19
581.30	489.17
581.46	383.85
581.62	430.66
581.78	440.02
581.94	440.02
582.10	407.25
582.26	416.62
582.42	456.40
582.58	390.87
582.74	404.91
582.90	425.98
583.06	346.40
583.22	423.64
583.38	418.96
583.54	397.89
583.70	437.68
583.86	428.32
584.02	454.06
584.18	360.44
584.34	414.27
584.50	433.00
584.66	423.64
584.82	402.57
584.98	428.32
585.14	386.19
585.30	376.83
585.46	322.99
585.62	425.98
585.78	425.98
585.94	416.62
586.10	402.57
586.26	416.62
586.42	430.66
586.58	451.72
586.74	397.89
586.90	367.46
587.06	440.02
587.22	447.04
587.38	418.96
587.54	416.62
587.70	425.98
587.86	454.06
588.02	430.66
588.18	458.74
588.34	418.96
588.49	428.32
588.65	435.34
588.81	430.66
588.97	418.96
589.13	461.09
589.29	416.62
589.45	479.81
589.61	390.87
589.77	521.94
589.93	470.45
590.08	437.68
590.24	348.74
590.40	475.13
590.56	411.93
590.72	444.70
590.88	390.87
591.04	437.68
591.20	337.04
591.35	463.43
591.51	411.93
591.67	362.78
591.83	358.10
591.99	411.93
592.15	418.96
592.31	404.91
592.46	414.27
592.62	526.62
592.78	470.45
592.94	395.55
593.10	383.85
593.26	435.34
593.41	465.77
593.57	379.17
593.73	428.32
593.89	472.79
594.05	428.32
594.20	437.68
594.36	437.68
594.52	379.17
594.68	442.36
594.84	444.70
594.99	437.68
595.15	444.70
595.31	379.17
595.47	475.13
595.62	386.19
595.78	365.12
595.94	376.83
596.10	442.36
596.25	437.68
596.41	421.30
596.57	416.62
596.73	409.59
596.88	484.49
597.04	348.74
597.20	397.89
597.36	433.00
597.51	386.19
597.67	493.85
597.83	383.85
597.99	444.70
598.14	435.34
598.30	400.23
598.46	475.13
598.61	397.89
598.77	491.51
598.93	437.68
599.09	454.06
599.24	421.30
599.40	395.55
599.56	456.40
599.71	440.02
599.87	423.64
600.03	407.25
600.18	397.89
600.34	430.66
600.50	362.78
600.65	470.45
600.81	414.27
600.97	358.10
601.12	421.30
601.28	440.02
601.44	341.72
601.59	402.57
601.75	425.98
601.91	344.06
602.06	435.34
602.22	538.32
602.37	447.04
602.53	423.64
602.69	418.96
602.84	381.51
603.00	388.53
603.16	416.62
603.31	411.93
603.47	390.87
603.62	376.83
603.78	430.66
603.94	435.34
604.09	465.77
604.25	470.45
604.40	444.70
604.56	444.70
604.71	402.57
604.87	442.36
605.03	278.52
605.18	484.49
605.34	489.17
605.49	383.85
605.65	442.36
605.80	421.30
605.96	390.87
606.12	435.34
606.27	430.66
606.43	381.51
606.58	472.79
606.74	428.32
606.89	423.64
607.05	433.00
607.20	430.66
607.36	409.59
607.51	390.87
607.67	393.21
607.82	416.62
607.98	461.09
608.13	484.49
608.29	374.49
608.44	379.17
608.60	388.53
608.75	404.91
608.91	376.83
609.06	416.62
609.22	423.64
609.37	411.93
609.53	341.72
609.68	409.59
609.84	402.57
609.99	421.30
610.15	395.55
