SpectraSuite Data File
++++++++++++++++++++++++++++++++++++
Date: Fri Oct 25 12:11:35 EDT 2013
User: price-jones
Dark Spectrum Present: No
Reference Spectrum Present: No
Number of Sampled Component Spectra: 1
Spectrometers: USB2+H05261
Integration Time (usec): 100000 (USB2+H05261)
Spectra Averaged: 1 (USB2+H05261)
Boxcar Smoothing: 0 (USB2+H05261)
Correct for Electrical Dark: No (USB2+H05261)
Strobe/Lamp Enabled: No (USB2+H05261)
Correct for Detector Non-linearity: No (USB2+H05261)
Correct for Stray Light: No (USB2+H05261)
Number of Pixels in Processed Spectrum: 2048
>>>>>Begin Processed Spectral Data<<<<<
365.73	334.70
365.92	334.70
366.12	334.70
366.32	264.48
366.52	187.24
366.72	271.50
366.91	187.24
367.11	227.03
367.31	234.05
367.51	227.03
367.70	201.29
367.90	220.01
368.10	301.93
368.30	252.78
368.49	259.80
368.69	243.42
368.89	250.44
369.09	229.37
369.28	271.50
369.48	257.46
369.68	297.25
369.87	320.65
370.07	271.50
370.27	341.72
370.47	271.50
370.66	344.06
370.86	332.36
371.06	369.80
371.25	425.98
371.45	388.53
371.65	386.19
371.84	372.15
372.04	393.21
372.24	444.70
372.44	395.55
372.63	386.19
372.83	444.70
373.03	379.17
373.22	367.46
373.42	451.72
373.62	388.53
373.81	437.68
374.01	482.15
374.21	465.77
374.40	414.27
374.60	430.66
374.79	447.04
374.99	447.04
375.19	454.06
375.38	393.21
375.58	383.85
375.78	411.93
375.97	463.43
376.17	486.83
376.37	465.77
376.56	411.93
376.76	404.91
376.95	470.45
377.15	423.64
377.35	418.96
377.54	442.36
377.74	360.44
377.93	475.13
378.13	404.91
378.33	428.32
378.52	451.72
378.72	423.64
378.91	418.96
379.11	416.62
379.31	463.43
379.50	362.78
379.70	418.96
379.89	435.34
380.09	341.72
380.28	381.51
380.48	393.21
380.68	475.13
380.87	451.72
381.07	423.64
381.26	505.56
381.46	421.30
381.65	435.34
381.85	376.83
382.04	442.36
382.24	393.21
382.43	386.19
382.63	348.74
382.83	358.10
383.02	484.49
383.22	383.85
383.41	388.53
383.61	418.96
383.80	386.19
384.00	418.96
384.19	447.04
384.39	451.72
384.58	425.98
384.78	367.46
384.97	388.53
385.17	416.62
385.36	367.46
385.56	407.25
385.75	430.66
385.95	330.02
386.14	440.02
386.34	430.66
386.53	433.00
386.72	374.49
386.92	428.32
387.11	376.83
387.31	372.15
387.50	358.10
387.70	390.87
387.89	404.91
388.09	346.40
388.28	341.72
388.48	411.93
388.67	400.23
388.86	388.53
389.06	479.81
389.25	411.93
389.45	470.45
389.64	470.45
389.84	395.55
390.03	367.46
390.22	362.78
390.42	339.38
390.61	407.25
390.81	372.15
391.00	393.21
391.19	454.06
391.39	447.04
391.58	395.55
391.78	372.15
391.97	395.55
392.16	332.36
392.36	421.30
392.55	454.06
392.75	440.02
392.94	430.66
393.13	458.74
393.33	402.57
393.52	491.51
393.71	393.21
393.91	388.53
394.10	428.32
394.29	337.04
394.49	362.78
394.68	400.23
394.88	409.59
395.07	440.02
395.26	475.13
395.46	463.43
395.65	414.27
395.84	440.02
396.04	418.96
396.23	409.59
396.42	369.80
396.62	407.25
396.81	470.45
397.00	451.72
397.19	475.13
397.39	395.55
397.58	418.96
397.77	393.21
397.97	454.06
398.16	423.64
398.35	409.59
398.55	397.89
398.74	344.06
398.93	386.19
399.12	381.51
399.32	458.74
399.51	400.23
399.70	435.34
399.90	341.72
400.09	400.23
400.28	461.09
400.47	381.51
400.67	423.64
400.86	374.49
401.05	425.98
401.24	416.62
401.44	374.49
401.63	425.98
401.82	400.23
402.01	365.12
402.21	447.04
402.40	386.19
402.59	411.93
402.78	404.91
402.97	383.85
403.17	437.68
403.36	360.44
403.55	393.21
403.74	386.19
403.93	367.46
404.13	444.70
404.32	376.83
404.51	411.93
404.70	402.57
404.89	393.21
405.09	395.55
405.28	425.98
405.47	414.27
405.66	386.19
405.85	402.57
406.05	440.02
406.24	379.17
406.43	355.76
406.62	308.95
406.81	397.89
407.00	386.19
407.20	358.10
407.39	344.06
407.58	393.21
407.77	482.15
407.96	409.59
408.15	404.91
408.34	428.32
408.54	416.62
408.73	484.49
408.92	425.98
409.11	388.53
409.30	447.04
409.49	383.85
409.68	358.10
409.87	414.27
410.07	400.23
410.26	402.57
410.45	442.36
410.64	388.53
410.83	411.93
411.02	428.32
411.21	449.38
411.40	407.25
411.59	379.17
411.78	395.55
411.98	383.85
412.17	442.36
412.36	440.02
412.55	442.36
412.74	440.02
412.93	449.38
413.12	472.79
413.31	440.02
413.50	395.55
413.69	435.34
413.88	444.70
414.07	409.59
414.26	458.74
414.45	447.04
414.64	435.34
414.83	451.72
415.02	397.89
415.22	437.68
415.41	444.70
415.60	472.79
415.79	395.55
415.98	414.27
416.17	365.12
416.36	304.27
416.55	379.17
416.74	395.55
416.93	416.62
417.12	388.53
417.31	444.70
417.50	477.47
417.69	421.30
417.88	400.23
418.07	397.89
418.26	418.96
418.45	358.10
418.64	447.04
418.83	435.34
419.02	444.70
419.21	353.42
419.39	397.89
419.58	407.25
419.77	442.36
419.96	461.09
420.15	437.68
420.34	428.32
420.53	440.02
420.72	372.15
420.91	444.70
421.10	482.15
421.29	418.96
421.48	360.44
421.67	414.27
421.86	418.96
422.05	388.53
422.24	411.93
422.43	334.70
422.61	351.08
422.80	372.15
422.99	482.15
423.18	353.42
423.37	397.89
423.56	461.09
423.75	472.79
423.94	376.83
424.13	346.40
424.32	381.51
424.50	435.34
424.69	440.02
424.88	442.36
425.07	440.02
425.26	414.27
425.45	362.78
425.64	447.04
425.83	374.49
426.01	358.10
426.20	411.93
426.39	454.06
426.58	447.04
426.77	435.34
426.96	367.46
427.15	411.93
427.33	409.59
427.52	379.17
427.71	390.87
427.90	376.83
428.09	395.55
428.28	425.98
428.46	383.85
428.65	404.91
428.84	409.59
429.03	484.49
429.22	442.36
429.40	404.91
429.59	425.98
429.78	400.23
429.97	437.68
430.16	386.19
430.34	341.72
430.53	393.21
430.72	477.47
430.91	414.27
431.10	423.64
431.28	423.64
431.47	505.56
431.66	409.59
431.85	421.30
432.03	425.98
432.22	411.93
432.41	440.02
432.60	425.98
432.79	358.10
432.97	472.79
433.16	433.00
433.35	376.83
433.54	440.02
433.72	404.91
433.91	430.66
434.10	421.30
434.28	388.53
434.47	430.66
434.66	444.70
434.85	430.66
435.03	388.53
435.22	421.30
435.41	418.96
435.59	374.49
435.78	411.93
435.97	353.42
436.16	393.21
436.34	433.00
436.53	416.62
436.72	475.13
436.90	400.23
437.09	437.68
437.28	442.36
437.46	381.51
437.65	379.17
437.84	456.40
438.02	482.15
438.21	365.12
438.40	428.32
438.58	332.36
438.77	388.53
438.96	407.25
439.14	425.98
439.33	386.19
439.52	386.19
439.70	437.68
439.89	437.68
440.08	411.93
440.26	367.46
440.45	362.78
440.63	472.79
440.82	346.40
441.01	388.53
441.19	353.42
441.38	383.85
441.57	379.17
441.75	451.72
441.94	411.93
442.12	404.91
442.31	491.51
442.50	414.27
442.68	421.30
442.87	444.70
443.05	404.91
443.24	444.70
443.43	362.78
443.61	411.93
443.80	451.72
443.98	383.85
444.17	337.04
444.35	456.40
444.54	365.12
444.73	400.23
444.91	482.15
445.10	433.00
445.28	386.19
445.47	409.59
445.65	407.25
445.84	395.55
446.02	425.98
446.21	325.33
446.39	381.51
446.58	365.12
446.77	358.10
446.95	390.87
447.14	400.23
447.32	407.25
447.51	421.30
447.69	386.19
447.88	421.30
448.06	423.64
448.25	484.49
448.43	447.04
448.62	407.25
448.80	423.64
448.99	458.74
449.17	425.98
449.36	433.00
449.54	402.57
449.73	397.89
449.91	514.92
450.10	337.04
450.28	390.87
450.46	463.43
450.65	425.98
450.83	390.87
451.02	383.85
451.20	381.51
451.39	353.42
451.57	383.85
451.76	362.78
451.94	402.57
452.13	465.77
452.31	414.27
452.49	428.32
452.68	477.47
452.86	390.87
453.05	447.04
453.23	376.83
453.42	353.42
453.60	355.76
453.78	421.30
453.97	421.30
454.15	374.49
454.34	414.27
454.52	407.25
454.70	449.38
454.89	388.53
455.07	332.36
455.26	440.02
455.44	482.15
455.62	355.76
455.81	444.70
455.99	348.74
456.17	386.19
456.36	353.42
456.54	423.64
456.73	423.64
456.91	381.51
457.09	418.96
457.28	440.02
457.46	449.38
457.64	407.25
457.83	411.93
458.01	374.49
458.19	402.57
458.38	442.36
458.56	444.70
458.74	430.66
458.93	411.93
459.11	402.57
459.29	381.51
459.48	430.66
459.66	505.56
459.84	437.68
460.03	486.83
460.21	414.27
460.39	402.57
460.57	482.15
460.76	411.93
460.94	402.57
461.12	418.96
461.31	402.57
461.49	411.93
461.67	430.66
461.85	414.27
462.04	416.62
462.22	725.57
462.40	433.00
462.59	456.40
462.77	400.23
462.95	498.53
463.13	409.59
463.32	402.57
463.50	402.57
463.68	428.32
463.86	442.36
464.05	440.02
464.23	451.72
464.41	444.70
464.59	397.89
464.78	430.66
464.96	451.72
465.14	442.36
465.32	383.85
465.50	416.62
465.69	404.91
465.87	461.09
466.05	447.04
466.23	367.46
466.41	416.62
466.60	409.59
466.78	404.91
466.96	404.91
467.14	414.27
467.32	437.68
467.51	411.93
467.69	484.49
467.87	472.79
468.05	437.68
468.23	369.80
468.41	435.34
468.60	416.62
468.78	404.91
468.96	381.51
469.14	442.36
469.32	430.66
469.50	348.74
469.69	388.53
469.87	451.72
470.05	351.08
470.23	425.98
470.41	418.96
470.59	463.43
470.77	395.55
470.95	404.91
471.14	454.06
471.32	395.55
471.50	374.49
471.68	337.04
471.86	416.62
472.04	353.42
472.22	437.68
472.40	463.43
472.58	463.43
472.77	416.62
472.95	433.00
473.13	435.34
473.31	416.62
473.49	386.19
473.67	418.96
473.85	355.76
474.03	376.83
474.21	414.27
474.39	433.00
474.57	500.87
474.75	433.00
474.93	425.98
475.12	411.93
475.30	369.80
475.48	374.49
475.66	369.80
475.84	381.51
476.02	451.72
476.20	521.94
476.38	461.09
476.56	428.32
476.74	376.83
476.92	449.38
477.10	468.11
477.28	400.23
477.46	418.96
477.64	407.25
477.82	458.74
478.00	411.93
478.18	442.36
478.36	423.64
478.54	376.83
478.72	458.74
478.90	430.66
479.08	409.59
479.26	449.38
479.44	470.45
479.62	381.51
479.80	493.85
479.98	372.15
480.16	451.72
480.34	395.55
480.52	362.78
480.70	383.85
480.88	388.53
481.06	355.76
481.24	449.38
481.41	442.36
481.59	395.55
481.77	397.89
481.95	383.85
482.13	355.76
482.31	423.64
482.49	421.30
482.67	521.94
482.85	451.72
483.03	395.55
483.21	428.32
483.39	390.87
483.57	346.40
483.74	383.85
483.92	369.80
484.10	393.21
484.28	407.25
484.46	440.02
484.64	330.02
484.82	423.64
485.00	372.15
485.18	416.62
485.35	425.98
485.53	353.42
485.71	444.70
485.89	430.66
486.07	418.96
486.25	390.87
486.43	383.85
486.61	449.38
486.78	355.76
486.96	461.09
487.14	444.70
487.32	437.68
487.50	365.12
487.68	414.27
487.85	421.30
488.03	369.80
488.21	425.98
488.39	418.96
488.57	486.83
488.75	390.87
488.92	463.43
489.10	437.68
489.28	444.70
489.46	341.72
489.64	365.12
489.81	437.68
489.99	468.11
490.17	440.02
490.35	372.15
490.53	386.19
490.70	444.70
490.88	414.27
491.06	447.04
491.24	454.06
491.41	451.72
491.59	418.96
491.77	372.15
491.95	402.57
492.13	425.98
492.30	447.04
492.48	372.15
492.66	447.04
492.84	348.74
493.01	447.04
493.19	388.53
493.37	433.00
493.54	404.91
493.72	395.55
493.90	433.00
494.08	433.00
494.25	433.00
494.43	433.00
494.61	449.38
494.79	402.57
494.96	351.08
495.14	430.66
495.32	444.70
495.49	435.34
495.67	383.85
495.85	416.62
496.02	442.36
496.20	402.57
496.38	437.68
496.55	397.89
496.73	372.15
496.91	461.09
497.09	379.17
497.26	423.64
497.44	400.23
497.62	423.64
497.79	418.96
497.97	470.45
498.14	454.06
498.32	416.62
498.50	407.25
498.67	430.66
498.85	430.66
499.03	461.09
499.20	442.36
499.38	437.68
499.56	407.25
499.73	437.68
499.91	400.23
500.08	430.66
500.26	374.49
500.44	397.89
500.61	379.17
500.79	423.64
500.97	430.66
501.14	489.17
501.32	418.96
501.49	449.38
501.67	435.34
501.84	489.17
502.02	395.55
502.20	404.91
502.37	475.13
502.55	454.06
502.72	393.21
502.90	442.36
503.07	320.65
503.25	507.90
503.43	397.89
503.60	456.40
503.78	444.70
503.95	505.56
504.13	376.83
504.30	409.59
504.48	463.43
504.65	451.72
504.83	416.62
505.01	423.64
505.18	334.70
505.36	379.17
505.53	383.85
505.71	430.66
505.88	491.51
506.06	409.59
506.23	400.23
506.41	386.19
506.58	397.89
506.76	461.09
506.93	372.15
507.11	362.78
507.28	397.89
507.46	456.40
507.63	475.13
507.81	411.93
507.98	381.51
508.16	447.04
508.33	409.59
508.50	367.46
508.68	395.55
508.85	425.98
509.03	416.62
509.20	367.46
509.38	468.11
509.55	418.96
509.73	425.98
509.90	407.25
510.08	367.46
510.25	461.09
510.42	456.40
510.60	400.23
510.77	397.89
510.95	414.27
511.12	386.19
511.30	416.62
511.47	418.96
511.64	433.00
511.82	365.12
511.99	404.91
512.17	491.51
512.34	444.70
512.51	416.62
512.69	360.44
512.86	461.09
513.04	437.68
513.21	367.46
513.38	430.66
513.56	393.21
513.73	449.38
513.90	388.53
514.08	379.17
514.25	461.09
514.43	383.85
514.60	397.89
514.77	489.17
514.95	458.74
515.12	442.36
515.29	402.57
515.47	421.30
515.64	407.25
515.81	379.17
515.99	425.98
516.16	409.59
516.33	416.62
516.51	397.89
516.68	390.87
516.85	463.43
517.03	428.32
517.20	430.66
517.37	372.15
517.54	526.62
517.72	402.57
517.89	388.53
518.06	451.72
518.24	435.34
518.41	388.53
518.58	428.32
518.75	402.57
518.93	411.93
519.10	407.25
519.27	440.02
519.45	407.25
519.62	491.51
519.79	442.36
519.96	433.00
520.14	444.70
520.31	395.55
520.48	381.51
520.65	327.68
520.83	458.74
521.00	465.77
521.17	404.91
521.34	416.62
521.52	411.93
521.69	454.06
521.86	486.83
522.03	451.72
522.20	465.77
522.38	411.93
522.55	428.32
522.72	297.25
522.89	416.62
523.07	521.94
523.24	451.72
523.41	369.80
523.58	423.64
523.75	365.12
523.92	407.25
524.10	402.57
524.27	411.93
524.44	369.80
524.61	402.57
524.78	395.55
524.96	402.57
525.13	327.68
525.30	381.51
525.47	430.66
525.64	395.55
525.81	395.55
525.98	395.55
526.16	386.19
526.33	386.19
526.50	402.57
526.67	360.44
526.84	435.34
527.01	423.64
527.18	456.40
527.36	458.74
527.53	433.00
527.70	463.43
527.87	381.51
528.04	414.27
528.21	376.83
528.38	418.96
528.55	440.02
528.72	449.38
528.89	418.96
529.07	358.10
529.24	430.66
529.41	477.47
529.58	470.45
529.75	395.55
529.92	416.62
530.09	430.66
530.26	468.11
530.43	383.85
530.60	442.36
530.77	463.43
530.94	451.72
531.11	409.59
531.28	454.06
531.46	437.68
531.63	444.70
531.80	442.36
531.97	442.36
532.14	449.38
532.31	318.31
532.48	381.51
532.65	400.23
532.82	393.21
532.99	440.02
533.16	421.30
533.33	390.87
533.50	423.64
533.67	461.09
533.84	390.87
534.01	472.79
534.18	486.83
534.35	418.96
534.52	404.91
534.69	482.15
534.86	358.10
535.03	414.27
535.20	465.77
535.37	428.32
535.54	430.66
535.71	367.46
535.88	482.15
536.05	365.12
536.22	425.98
536.38	456.40
536.55	468.11
536.72	472.79
536.89	358.10
537.06	416.62
537.23	414.27
537.40	414.27
537.57	456.40
537.74	458.74
537.91	376.83
538.08	437.68
538.25	428.32
538.42	440.02
538.59	463.43
538.75	414.27
538.92	418.96
539.09	393.21
539.26	395.55
539.43	447.04
539.60	449.38
539.77	479.81
539.94	444.70
540.11	390.87
540.28	418.96
540.44	402.57
540.61	433.00
540.78	428.32
540.95	386.19
541.12	428.32
541.29	400.23
541.46	503.22
541.62	416.62
541.79	440.02
541.96	433.00
542.13	397.89
542.30	477.47
542.47	442.36
542.63	423.64
542.80	437.68
542.97	421.30
543.14	437.68
543.31	500.87
543.48	374.49
543.64	451.72
543.81	463.43
543.98	318.31
544.15	435.34
544.32	386.19
544.48	383.85
544.65	425.98
544.82	423.64
544.99	421.30
545.16	456.40
545.32	421.30
545.49	500.87
545.66	397.89
545.83	390.87
546.00	411.93
546.16	383.85
546.33	402.57
546.50	402.57
546.67	456.40
546.83	496.19
547.00	425.98
547.17	334.70
547.34	400.23
547.50	367.46
547.67	418.96
547.84	428.32
548.00	397.89
548.17	421.30
548.34	379.17
548.51	444.70
548.67	414.27
548.84	418.96
549.01	358.10
549.18	414.27
549.34	425.98
549.51	479.81
549.68	482.15
549.84	313.63
550.01	346.40
550.18	456.40
550.34	468.11
550.51	421.30
550.68	461.09
550.84	423.64
551.01	430.66
551.18	461.09
551.34	433.00
551.51	416.62
551.68	353.42
551.84	407.25
552.01	498.53
552.18	423.64
552.34	458.74
552.51	395.55
552.68	437.68
552.84	416.62
553.01	376.83
553.18	400.23
553.34	374.49
553.51	454.06
553.67	470.45
553.84	498.53
554.01	456.40
554.17	437.68
554.34	327.68
554.51	390.87
554.67	409.59
554.84	437.68
555.00	358.10
555.17	470.45
555.33	484.49
555.50	444.70
555.67	367.46
555.83	365.12
556.00	381.51
556.16	575.77
556.33	517.26
556.50	365.12
556.66	430.66
556.83	381.51
556.99	449.38
557.16	442.36
557.32	397.89
557.49	372.15
557.65	433.00
557.82	409.59
557.98	351.08
558.15	418.96
558.32	411.93
558.48	458.74
558.65	416.62
558.81	428.32
558.98	418.96
559.14	442.36
559.31	341.72
559.47	442.36
559.64	411.93
559.80	463.43
559.97	451.72
560.13	437.68
560.30	362.78
560.46	423.64
560.63	447.04
560.79	416.62
560.96	404.91
561.12	475.13
561.29	437.68
561.45	461.09
561.61	479.81
561.78	514.92
561.94	440.02
562.11	449.38
562.27	475.13
562.44	435.34
562.60	463.43
562.77	489.17
562.93	454.06
563.10	442.36
563.26	397.89
563.42	395.55
563.59	353.42
563.75	423.64
563.92	407.25
564.08	454.06
564.24	486.83
564.41	437.68
564.57	393.21
564.74	355.76
564.90	407.25
565.07	456.40
565.23	444.70
565.39	404.91
565.56	461.09
565.72	428.32
565.88	402.57
566.05	458.74
566.21	388.53
566.38	339.38
566.54	407.25
566.70	390.87
566.87	397.89
567.03	430.66
567.19	400.23
567.36	376.83
567.52	486.83
567.68	475.13
567.85	472.79
568.01	421.30
568.17	437.68
568.34	402.57
568.50	463.43
568.66	454.06
568.83	425.98
568.99	372.15
569.15	484.49
569.32	442.36
569.48	315.97
569.64	444.70
569.81	454.06
569.97	390.87
570.13	407.25
570.30	395.55
570.46	372.15
570.62	390.87
570.78	404.91
570.95	372.15
571.11	461.09
571.27	470.45
571.43	407.25
571.60	369.80
571.76	482.15
571.92	388.53
572.09	404.91
572.25	409.59
572.41	379.17
572.57	376.83
572.74	428.32
572.90	461.09
573.06	437.68
573.22	440.02
573.38	465.77
573.55	418.96
573.71	477.47
573.87	404.91
574.03	416.62
574.20	404.91
574.36	444.70
574.52	433.00
574.68	381.51
574.84	421.30
575.01	383.85
575.17	390.87
575.33	409.59
575.49	416.62
575.65	425.98
575.82	433.00
575.98	444.70
576.14	442.36
576.30	461.09
576.46	355.76
576.62	449.38
576.79	472.79
576.95	451.72
577.11	390.87
577.27	367.46
577.43	442.36
577.59	393.21
577.75	407.25
577.92	433.00
578.08	367.46
578.24	381.51
578.40	374.49
578.56	409.59
578.72	444.70
578.88	461.09
579.04	372.15
579.21	381.51
579.37	400.23
579.53	428.32
579.69	444.70
579.85	337.04
580.01	451.72
580.17	372.15
580.33	409.59
580.49	409.59
580.65	358.10
580.82	428.32
580.98	358.10
581.14	404.91
581.30	482.15
581.46	458.74
581.62	428.32
581.78	383.85
581.94	341.72
582.10	386.19
582.26	400.23
582.42	372.15
582.58	362.78
582.74	433.00
582.90	430.66
583.06	442.36
583.22	365.12
583.38	386.19
583.54	372.15
583.70	437.68
583.86	430.66
584.02	468.11
584.18	475.13
584.34	472.79
584.50	449.38
584.66	390.87
584.82	402.57
584.98	456.40
585.14	362.78
585.30	435.34
585.46	379.17
585.62	416.62
585.78	390.87
585.94	390.87
586.10	383.85
586.26	423.64
586.42	421.30
586.58	400.23
586.74	435.34
586.90	383.85
587.06	418.96
587.22	393.21
587.38	322.99
587.54	444.70
587.70	395.55
587.86	409.59
588.02	430.66
588.18	421.30
588.34	404.91
588.49	395.55
588.65	369.80
588.81	407.25
588.97	381.51
589.13	451.72
589.29	440.02
589.45	500.87
589.61	379.17
589.77	458.74
589.93	339.38
590.08	297.25
590.24	418.96
590.40	355.76
590.56	430.66
590.72	395.55
590.88	367.46
591.04	458.74
591.20	367.46
591.35	449.38
591.51	341.72
591.67	425.98
591.83	454.06
591.99	404.91
592.15	475.13
592.31	407.25
592.46	369.80
592.62	468.11
592.78	456.40
592.94	376.83
593.10	440.02
593.26	421.30
593.41	369.80
593.57	395.55
593.73	360.44
593.89	433.00
594.05	409.59
594.20	444.70
594.36	442.36
594.52	346.40
594.68	383.85
594.84	468.11
594.99	458.74
595.15	463.43
595.31	388.53
595.47	442.36
595.62	451.72
595.78	395.55
595.94	367.46
596.10	430.66
596.25	470.45
596.41	421.30
596.57	400.23
596.73	397.89
596.88	409.59
597.04	444.70
597.20	454.06
597.36	411.93
597.51	437.68
597.67	402.57
597.83	386.19
597.99	376.83
598.14	348.74
598.30	418.96
598.46	456.40
598.61	463.43
598.77	442.36
598.93	449.38
599.09	468.11
599.24	411.93
599.40	444.70
599.56	379.17
599.71	428.32
599.87	388.53
600.03	482.15
600.18	519.60
600.34	390.87
600.50	463.43
600.65	353.42
600.81	414.27
600.97	468.11
601.12	440.02
601.28	409.59
601.44	386.19
601.59	435.34
601.75	402.57
601.91	374.49
602.06	449.38
602.22	454.06
602.37	458.74
602.53	454.06
602.69	388.53
602.84	386.19
603.00	491.51
603.16	484.49
603.31	437.68
603.47	402.57
603.62	421.30
603.78	397.89
603.94	397.89
604.09	397.89
604.25	440.02
604.40	454.06
604.56	344.06
604.71	372.15
604.87	411.93
605.03	414.27
605.18	393.21
605.34	404.91
605.49	461.09
605.65	451.72
605.80	351.08
605.96	472.79
606.12	430.66
606.27	463.43
606.43	360.44
606.58	433.00
606.74	440.02
606.89	337.04
607.05	404.91
607.20	400.23
607.36	400.23
607.51	444.70
607.67	442.36
607.82	374.49
607.98	465.77
608.13	393.21
608.29	400.23
608.44	423.64
608.60	388.53
608.75	416.62
608.91	381.51
609.06	458.74
609.22	475.13
609.37	395.55
609.53	407.25
609.68	433.00
609.84	395.55
609.99	400.23
610.15	390.87
