SpectraSuite Data File
++++++++++++++++++++++++++++++++++++
Date: Fri Oct 25 12:10:48 EDT 2013
User: price-jones
Dark Spectrum Present: No
Reference Spectrum Present: No
Number of Sampled Component Spectra: 1
Spectrometers: USB2+H05261
Integration Time (usec): 100000 (USB2+H05261)
Spectra Averaged: 1 (USB2+H05261)
Boxcar Smoothing: 0 (USB2+H05261)
Correct for Electrical Dark: No (USB2+H05261)
Strobe/Lamp Enabled: No (USB2+H05261)
Correct for Detector Non-linearity: No (USB2+H05261)
Correct for Stray Light: No (USB2+H05261)
Number of Pixels in Processed Spectrum: 2048
>>>>>Begin Processed Spectral Data<<<<<
365.73	337.04
365.92	337.04
366.12	337.04
366.32	252.78
366.52	304.27
366.72	257.46
366.91	273.84
367.11	283.20
367.31	212.99
367.51	276.18
367.70	266.82
367.90	266.82
368.10	266.82
368.30	243.42
368.49	297.25
368.69	290.23
368.89	252.78
369.09	245.76
369.28	238.73
369.48	217.67
369.68	271.50
369.87	269.16
370.07	224.69
370.27	318.31
370.47	325.33
370.66	269.16
370.86	367.46
371.06	437.68
371.25	358.10
371.45	334.70
371.65	400.23
371.84	393.21
372.04	423.64
372.24	393.21
372.44	383.85
372.63	393.21
372.83	369.80
373.03	376.83
373.22	421.30
373.42	425.98
373.62	423.64
373.81	461.09
374.01	461.09
374.21	416.62
374.40	397.89
374.60	442.36
374.79	437.68
374.99	425.98
375.19	404.91
375.38	503.22
375.58	411.93
375.78	444.70
375.97	386.19
376.17	444.70
376.37	538.32
376.56	428.32
376.76	456.40
376.95	404.91
377.15	367.46
377.35	463.43
377.54	381.51
377.74	402.57
377.93	355.76
378.13	407.25
378.33	433.00
378.52	379.17
378.72	421.30
378.91	315.97
379.11	451.72
379.31	418.96
379.50	313.63
379.70	428.32
379.89	437.68
380.09	374.49
380.28	395.55
380.48	315.97
380.68	348.74
380.87	367.46
381.07	390.87
381.26	423.64
381.46	367.46
381.65	383.85
381.85	322.99
382.04	407.25
382.24	374.49
382.43	337.04
382.63	430.66
382.83	400.23
383.02	451.72
383.22	451.72
383.41	367.46
383.61	416.62
383.80	379.17
384.00	372.15
384.19	379.17
384.39	444.70
384.58	442.36
384.78	407.25
384.97	379.17
385.17	421.30
385.36	383.85
385.56	397.89
385.75	355.76
385.95	447.04
386.14	395.55
386.34	315.97
386.53	341.72
386.72	421.30
386.92	463.43
387.11	402.57
387.31	440.02
387.50	421.30
387.70	362.78
387.89	425.98
388.09	393.21
388.28	421.30
388.48	362.78
388.67	376.83
388.86	351.08
389.06	411.93
389.25	372.15
389.45	365.12
389.64	454.06
389.84	404.91
390.03	390.87
390.22	374.49
390.42	468.11
390.61	404.91
390.81	400.23
391.00	339.38
391.19	400.23
391.39	411.93
391.58	421.30
391.78	421.30
391.97	402.57
392.16	414.27
392.36	416.62
392.55	418.96
392.75	390.87
392.94	383.85
393.13	425.98
393.33	442.36
393.52	353.42
393.71	402.57
393.91	381.51
394.10	388.53
394.29	437.68
394.49	367.46
394.68	416.62
394.88	440.02
395.07	372.15
395.26	482.15
395.46	416.62
395.65	430.66
395.84	407.25
396.04	381.51
396.23	365.12
396.42	447.04
396.62	442.36
396.81	379.17
397.00	383.85
397.19	407.25
397.39	430.66
397.58	388.53
397.77	325.33
397.97	383.85
398.16	404.91
398.35	400.23
398.55	404.91
398.74	313.63
398.93	430.66
399.12	311.29
399.32	355.76
399.51	407.25
399.70	397.89
399.90	388.53
400.09	440.02
400.28	402.57
400.47	358.10
400.67	475.13
400.86	365.12
401.05	386.19
401.24	416.62
401.44	437.68
401.63	428.32
401.82	416.62
402.01	346.40
402.21	402.57
402.40	397.89
402.59	465.77
402.78	330.02
402.97	367.46
403.17	456.40
403.36	376.83
403.55	468.11
403.74	402.57
403.93	444.70
404.13	444.70
404.32	383.85
404.51	369.80
404.70	365.12
404.89	423.64
405.09	433.00
405.28	428.32
405.47	341.72
405.66	388.53
405.85	393.21
406.05	437.68
406.24	390.87
406.43	383.85
406.62	362.78
406.81	400.23
407.00	397.89
407.20	475.13
407.39	425.98
407.58	397.89
407.77	421.30
407.96	444.70
408.15	493.85
408.34	411.93
408.54	388.53
408.73	388.53
408.92	367.46
409.11	397.89
409.30	397.89
409.49	411.93
409.68	332.36
409.87	458.74
410.07	447.04
410.26	383.85
410.45	430.66
410.64	397.89
410.83	435.34
411.02	421.30
411.21	388.53
411.40	381.51
411.59	344.06
411.78	414.27
411.98	395.55
412.17	411.93
412.36	404.91
412.55	418.96
412.74	374.49
412.93	449.38
413.12	292.57
413.31	433.00
413.50	395.55
413.69	423.64
413.88	409.59
414.07	407.25
414.26	442.36
414.45	355.76
414.64	468.11
414.83	374.49
415.02	407.25
415.22	465.77
415.41	463.43
415.60	318.31
415.79	435.34
415.98	470.45
416.17	407.25
416.36	442.36
416.55	383.85
416.74	369.80
416.93	475.13
417.12	344.06
417.31	395.55
417.50	454.06
417.69	491.51
417.88	386.19
418.07	454.06
418.26	365.12
418.45	346.40
418.64	458.74
418.83	374.49
419.02	430.66
419.21	362.78
419.39	414.27
419.58	348.74
419.77	372.15
419.96	315.97
420.15	409.59
420.34	458.74
420.53	482.15
420.72	348.74
420.91	444.70
421.10	362.78
421.29	437.68
421.48	442.36
421.67	334.70
421.86	348.74
422.05	388.53
422.24	393.21
422.43	358.10
422.61	379.17
422.80	383.85
422.99	383.85
423.18	404.91
423.37	395.55
423.56	458.74
423.75	362.78
423.94	337.04
424.13	397.89
424.32	400.23
424.50	444.70
424.69	395.55
424.88	425.98
425.07	407.25
425.26	346.40
425.45	390.87
425.64	339.38
425.83	390.87
426.01	500.87
426.20	447.04
426.39	449.38
426.58	416.62
426.77	407.25
426.96	400.23
427.15	433.00
427.33	404.91
427.52	465.77
427.71	404.91
427.90	346.40
428.09	447.04
428.28	393.21
428.46	374.49
428.65	355.76
428.84	386.19
429.03	414.27
429.22	397.89
429.40	360.44
429.59	428.32
429.78	461.09
429.97	433.00
430.16	416.62
430.34	418.96
430.53	386.19
430.72	423.64
430.91	374.49
431.10	411.93
431.28	372.15
431.47	416.62
431.66	489.17
431.85	428.32
432.03	383.85
432.22	463.43
432.41	489.17
432.60	414.27
432.79	348.74
432.97	393.21
433.16	423.64
433.35	339.38
433.54	440.02
433.72	442.36
433.91	418.96
434.10	435.34
434.28	423.64
434.47	430.66
434.66	395.55
434.85	402.57
435.03	402.57
435.22	433.00
435.41	425.98
435.59	334.70
435.78	451.72
435.97	376.83
436.16	440.02
436.34	395.55
436.53	351.08
436.72	404.91
436.90	390.87
437.09	496.19
437.28	482.15
437.46	376.83
437.65	461.09
437.84	428.32
438.02	414.27
438.21	360.44
438.40	367.46
438.58	458.74
438.77	458.74
438.96	458.74
439.14	489.17
439.33	543.00
439.52	386.19
439.70	421.30
439.89	477.47
440.08	423.64
440.26	440.02
440.45	407.25
440.63	383.85
440.82	404.91
441.01	390.87
441.19	388.53
441.38	409.59
441.57	337.04
441.75	362.78
441.94	503.22
442.12	386.19
442.31	463.43
442.50	374.49
442.68	379.17
442.87	444.70
443.05	381.51
443.24	430.66
443.43	461.09
443.61	470.45
443.80	362.78
443.98	383.85
444.17	447.04
444.35	393.21
444.54	411.93
444.73	386.19
444.91	454.06
445.10	435.34
445.28	458.74
445.47	362.78
445.65	479.81
445.84	433.00
446.02	407.25
446.21	388.53
446.39	355.76
446.58	423.64
446.77	360.44
446.95	425.98
447.14	414.27
447.32	402.57
447.51	444.70
447.69	416.62
447.88	421.30
448.06	395.55
448.25	409.59
448.43	372.15
448.62	388.53
448.80	433.00
448.99	442.36
449.17	423.64
449.36	374.49
449.54	369.80
449.73	414.27
449.91	425.98
450.10	418.96
450.28	470.45
450.46	491.51
450.65	454.06
450.83	421.30
451.02	433.00
451.20	381.51
451.39	362.78
451.57	397.89
451.76	374.49
451.94	402.57
452.13	449.38
452.31	404.91
452.49	442.36
452.68	395.55
452.86	489.17
453.05	475.13
453.23	458.74
453.42	322.99
453.60	388.53
453.78	383.85
453.97	402.57
454.15	360.44
454.34	475.13
454.52	369.80
454.70	409.59
454.89	421.30
455.07	400.23
455.26	451.72
455.44	484.49
455.62	418.96
455.81	484.49
455.99	449.38
456.17	386.19
456.36	423.64
456.54	395.55
456.73	484.49
456.91	498.53
457.09	360.44
457.28	477.47
457.46	447.04
457.64	404.91
457.83	365.12
458.01	418.96
458.19	435.34
458.38	362.78
458.56	447.04
458.74	353.42
458.93	477.47
459.11	489.17
459.29	411.93
459.48	430.66
459.66	482.15
459.84	397.89
460.03	496.19
460.21	407.25
460.39	344.06
460.57	440.02
460.76	393.21
460.94	411.93
461.12	449.38
461.31	442.36
461.49	411.93
461.67	456.40
461.85	390.87
462.04	386.19
462.22	795.78
462.40	402.57
462.59	416.62
462.77	423.64
462.95	421.30
463.13	430.66
463.32	365.12
463.50	400.23
463.68	468.11
463.86	411.93
464.05	379.17
464.23	468.11
464.41	423.64
464.59	381.51
464.78	339.38
464.96	397.89
465.14	404.91
465.32	379.17
465.50	456.40
465.69	454.06
465.87	351.08
466.05	435.34
466.23	428.32
466.41	353.42
466.60	435.34
466.78	397.89
466.96	430.66
467.14	442.36
467.32	461.09
467.51	423.64
467.69	437.68
467.87	383.85
468.05	390.87
468.23	454.06
468.41	442.36
468.60	407.25
468.78	472.79
468.96	404.91
469.14	393.21
469.32	430.66
469.50	433.00
469.69	369.80
469.87	421.30
470.05	454.06
470.23	428.32
470.41	365.12
470.59	376.83
470.77	435.34
470.95	390.87
471.14	428.32
471.32	440.02
471.50	505.56
471.68	397.89
471.86	383.85
472.04	348.74
472.22	437.68
472.40	414.27
472.58	395.55
472.77	372.15
472.95	418.96
473.13	447.04
473.31	465.77
473.49	407.25
473.67	430.66
473.85	444.70
474.03	355.76
474.21	472.79
474.39	454.06
474.57	362.78
474.75	388.53
474.93	414.27
475.12	440.02
475.30	482.15
475.48	493.85
475.66	430.66
475.84	421.30
476.02	390.87
476.20	456.40
476.38	433.00
476.56	416.62
476.74	379.17
476.92	418.96
477.10	414.27
477.28	442.36
477.46	332.36
477.64	428.32
477.82	407.25
478.00	402.57
478.18	390.87
478.36	367.46
478.54	430.66
478.72	433.00
478.90	430.66
479.08	454.06
479.26	388.53
479.44	383.85
479.62	479.81
479.80	374.49
479.98	433.00
480.16	365.12
480.34	493.85
480.52	362.78
480.70	376.83
480.88	416.62
481.06	440.02
481.24	327.68
481.41	463.43
481.59	390.87
481.77	463.43
481.95	395.55
482.13	430.66
482.31	381.51
482.49	369.80
482.67	444.70
482.85	496.19
483.03	428.32
483.21	355.76
483.39	383.85
483.57	376.83
483.74	442.36
483.92	512.58
484.10	372.15
484.28	454.06
484.46	458.74
484.64	435.34
484.82	390.87
485.00	374.49
485.18	465.77
485.35	442.36
485.53	428.32
485.71	505.56
485.89	397.89
486.07	428.32
486.25	535.98
486.43	390.87
486.61	379.17
486.78	402.57
486.96	472.79
487.14	437.68
487.32	390.87
487.50	451.72
487.68	425.98
487.85	376.83
488.03	451.72
488.21	346.40
488.39	425.98
488.57	372.15
488.75	430.66
488.92	486.83
489.10	388.53
489.28	435.34
489.46	428.32
489.64	381.51
489.81	433.00
489.99	465.77
490.17	449.38
490.35	538.32
490.53	383.85
490.70	372.15
490.88	428.32
491.06	381.51
491.24	440.02
491.41	482.15
491.59	475.13
491.77	407.25
491.95	369.80
492.13	425.98
492.30	383.85
492.48	409.59
492.66	404.91
492.84	381.51
493.01	411.93
493.19	428.32
493.37	442.36
493.54	437.68
493.72	404.91
493.90	407.25
494.08	402.57
494.25	402.57
494.43	444.70
494.61	369.80
494.79	397.89
494.96	442.36
495.14	444.70
495.32	402.57
495.49	433.00
495.67	418.96
495.85	423.64
496.02	486.83
496.20	433.00
496.38	390.87
496.55	334.70
496.73	402.57
496.91	351.08
497.09	470.45
497.26	437.68
497.44	444.70
497.62	414.27
497.79	468.11
497.97	421.30
498.14	393.21
498.32	386.19
498.50	407.25
498.67	337.04
498.85	440.02
499.03	402.57
499.20	433.00
499.38	395.55
499.56	409.59
499.73	395.55
499.91	388.53
500.08	416.62
500.26	367.46
500.44	383.85
500.61	482.15
500.79	421.30
500.97	397.89
501.14	524.28
501.32	416.62
501.49	376.83
501.67	407.25
501.84	409.59
502.02	493.85
502.20	433.00
502.37	395.55
502.55	351.08
502.72	402.57
502.90	418.96
503.07	390.87
503.25	430.66
503.43	395.55
503.60	447.04
503.78	433.00
503.95	425.98
504.13	454.06
504.30	442.36
504.48	374.49
504.65	447.04
504.83	381.51
505.01	449.38
505.18	449.38
505.36	337.04
505.53	411.93
505.71	456.40
505.88	339.38
506.06	325.33
506.23	388.53
506.41	449.38
506.58	397.89
506.76	402.57
506.93	369.80
507.11	423.64
507.28	351.08
507.46	409.59
507.63	430.66
507.81	386.19
507.98	430.66
508.16	407.25
508.33	416.62
508.50	421.30
508.68	402.57
508.85	454.06
509.03	421.30
509.20	433.00
509.38	437.68
509.55	433.00
509.73	411.93
509.90	440.02
510.08	355.76
510.25	379.17
510.42	341.72
510.60	402.57
510.77	454.06
510.95	400.23
511.12	402.57
511.30	365.12
511.47	430.66
511.64	440.02
511.82	376.83
511.99	440.02
512.17	367.46
512.34	423.64
512.51	411.93
512.69	379.17
512.86	388.53
513.04	404.91
513.21	358.10
513.38	386.19
513.56	381.51
513.73	372.15
513.90	374.49
514.08	390.87
514.25	383.85
514.43	416.62
514.60	381.51
514.77	463.43
514.95	376.83
515.12	376.83
515.29	362.78
515.47	393.21
515.64	407.25
515.81	397.89
515.99	489.17
516.16	428.32
516.33	362.78
516.51	400.23
516.68	543.00
516.85	477.47
517.03	395.55
517.20	454.06
517.37	388.53
517.54	414.27
517.72	418.96
517.89	458.74
518.06	435.34
518.24	418.96
518.41	458.74
518.58	451.72
518.75	440.02
518.93	383.85
519.10	393.21
519.27	442.36
519.45	381.51
519.62	372.15
519.79	397.89
519.96	402.57
520.14	411.93
520.31	461.09
520.48	500.87
520.65	362.78
520.83	330.02
521.00	442.36
521.17	451.72
521.34	409.59
521.52	425.98
521.69	442.36
521.86	374.49
522.03	440.02
522.20	475.13
522.38	397.89
522.55	430.66
522.72	407.25
522.89	507.90
523.07	463.43
523.24	458.74
523.41	367.46
523.58	454.06
523.75	383.85
523.92	428.32
524.10	437.68
524.27	381.51
524.44	454.06
524.61	423.64
524.78	407.25
524.96	444.70
525.13	383.85
525.30	416.62
525.47	404.91
525.64	404.91
525.81	372.15
525.98	440.02
526.16	351.08
526.33	369.80
526.50	456.40
526.67	421.30
526.84	393.21
527.01	379.17
527.18	449.38
527.36	437.68
527.53	395.55
527.70	379.17
527.87	470.45
528.04	444.70
528.21	355.76
528.38	503.22
528.55	468.11
528.72	423.64
528.89	369.80
529.07	423.64
529.24	425.98
529.41	425.98
529.58	451.72
529.75	430.66
529.92	369.80
530.09	365.12
530.26	411.93
530.43	327.68
530.60	425.98
530.77	390.87
530.94	423.64
531.11	486.83
531.28	381.51
531.46	367.46
531.63	435.34
531.80	496.19
531.97	414.27
532.14	468.11
532.31	409.59
532.48	416.62
532.65	484.49
532.82	440.02
532.99	440.02
533.16	440.02
533.33	402.57
533.50	423.64
533.67	404.91
533.84	409.59
534.01	470.45
534.18	461.09
534.35	325.33
534.52	503.22
534.69	470.45
534.86	409.59
535.03	435.34
535.20	482.15
535.37	404.91
535.54	421.30
535.71	442.36
535.88	411.93
536.05	421.30
536.22	402.57
536.38	505.56
536.55	400.23
536.72	451.72
536.89	458.74
537.06	397.89
537.23	425.98
537.40	423.64
537.57	444.70
537.74	456.40
537.91	423.64
538.08	379.17
538.25	402.57
538.42	416.62
538.59	388.53
538.75	344.06
538.92	465.77
539.09	425.98
539.26	465.77
539.43	498.53
539.60	348.74
539.77	409.59
539.94	454.06
540.11	440.02
540.28	447.04
540.44	451.72
540.61	360.44
540.78	365.12
540.95	444.70
541.12	395.55
541.29	416.62
541.46	409.59
541.62	416.62
541.79	440.02
541.96	433.00
542.13	390.87
542.30	388.53
542.47	449.38
542.63	458.74
542.80	437.68
542.97	482.15
543.14	472.79
543.31	444.70
543.48	458.74
543.64	428.32
543.81	475.13
543.98	409.59
544.15	390.87
544.32	433.00
544.48	390.87
544.65	456.40
544.82	430.66
544.99	388.53
545.16	428.32
545.32	374.49
545.49	402.57
545.66	334.70
545.83	395.55
546.00	400.23
546.16	402.57
546.33	400.23
546.50	362.78
546.67	477.47
546.83	498.53
547.00	423.64
547.17	390.87
547.34	409.59
547.50	425.98
547.67	365.12
547.84	425.98
548.00	400.23
548.17	404.91
548.34	374.49
548.51	428.32
548.67	409.59
548.84	407.25
549.01	365.12
549.18	416.62
549.34	414.27
549.51	442.36
549.68	414.27
549.84	355.76
550.01	468.11
550.18	433.00
550.34	437.68
550.51	409.59
550.68	423.64
550.84	414.27
551.01	404.91
551.18	447.04
551.34	447.04
551.51	447.04
551.68	421.30
551.84	397.89
552.01	423.64
552.18	475.13
552.34	423.64
552.51	393.21
552.68	442.36
552.84	418.96
553.01	451.72
553.18	425.98
553.34	421.30
553.51	379.17
553.67	374.49
553.84	353.42
554.01	461.09
554.17	404.91
554.34	383.85
554.51	433.00
554.67	351.08
554.84	372.15
555.00	416.62
555.17	449.38
555.33	463.43
555.50	411.93
555.67	472.79
555.83	397.89
556.00	367.46
556.16	496.19
556.33	475.13
556.50	433.00
556.66	416.62
556.83	379.17
556.99	440.02
557.16	444.70
557.32	475.13
557.49	411.93
557.65	456.40
557.82	395.55
557.98	414.27
558.15	433.00
558.32	407.25
558.48	454.06
558.65	414.27
558.81	451.72
558.98	433.00
559.14	447.04
559.31	489.17
559.47	418.96
559.64	440.02
559.80	390.87
559.97	435.34
560.13	458.74
560.30	395.55
560.46	416.62
560.63	313.63
560.79	374.49
560.96	421.30
561.12	381.51
561.29	367.46
561.45	423.64
561.61	449.38
561.78	521.94
561.94	482.15
562.11	428.32
562.27	393.21
562.44	374.49
562.60	458.74
562.77	414.27
562.93	428.32
563.10	447.04
563.26	376.83
563.42	482.15
563.59	407.25
563.75	395.55
563.92	433.00
564.08	390.87
564.24	442.36
564.41	407.25
564.57	379.17
564.74	372.15
564.90	433.00
565.07	437.68
565.23	503.22
565.39	390.87
565.56	404.91
565.72	332.36
565.88	512.58
566.05	379.17
566.21	421.30
566.38	388.53
566.54	479.81
566.70	355.76
566.87	411.93
567.03	402.57
567.19	486.83
567.36	372.15
567.52	376.83
567.68	461.09
567.85	433.00
568.01	430.66
568.17	409.59
568.34	395.55
568.50	414.27
568.66	367.46
568.83	479.81
568.99	407.25
569.15	395.55
569.32	440.02
569.48	402.57
569.64	444.70
569.81	437.68
569.97	454.06
570.13	421.30
570.30	449.38
570.46	442.36
570.62	484.49
570.78	423.64
570.95	428.32
571.11	454.06
571.27	442.36
571.43	468.11
571.60	456.40
571.76	416.62
571.92	337.04
572.09	430.66
572.25	351.08
572.41	367.46
572.57	416.62
572.74	449.38
572.90	451.72
573.06	461.09
573.22	447.04
573.38	428.32
573.55	489.17
573.71	414.27
573.87	449.38
574.03	402.57
574.20	430.66
574.36	444.70
574.52	348.74
574.68	404.91
574.84	397.89
575.01	388.53
575.17	430.66
575.33	451.72
575.49	411.93
575.65	355.76
575.82	404.91
575.98	442.36
576.14	414.27
576.30	374.49
576.46	421.30
576.62	421.30
576.79	402.57
576.95	472.79
577.11	472.79
577.27	423.64
577.43	372.15
577.59	486.83
577.75	421.30
577.92	440.02
578.08	463.43
578.24	442.36
578.40	451.72
578.56	386.19
578.72	454.06
578.88	442.36
579.04	404.91
579.21	425.98
579.37	400.23
579.53	444.70
579.69	433.00
579.85	395.55
580.01	376.83
580.17	423.64
580.33	491.51
580.49	451.72
580.65	367.46
580.82	400.23
580.98	449.38
581.14	400.23
581.30	454.06
581.46	428.32
581.62	430.66
581.78	339.38
581.94	421.30
582.10	393.21
582.26	409.59
582.42	397.89
582.58	411.93
582.74	369.80
582.90	369.80
583.06	381.51
583.22	414.27
583.38	369.80
583.54	334.70
583.70	475.13
583.86	444.70
584.02	421.30
584.18	407.25
584.34	372.15
584.50	484.49
584.66	353.42
584.82	447.04
584.98	348.74
585.14	416.62
585.30	484.49
585.46	479.81
585.62	395.55
585.78	479.81
585.94	477.47
586.10	383.85
586.26	411.93
586.42	449.38
586.58	465.77
586.74	365.12
586.90	437.68
587.06	451.72
587.22	388.53
587.38	425.98
587.54	433.00
587.70	472.79
587.86	341.72
588.02	425.98
588.18	425.98
588.34	491.51
588.49	442.36
588.65	433.00
588.81	442.36
588.97	362.78
589.13	409.59
589.29	393.21
589.45	400.23
589.61	461.09
589.77	463.43
589.93	449.38
590.08	421.30
590.24	430.66
590.40	397.89
590.56	461.09
590.72	351.08
590.88	393.21
591.04	437.68
591.20	486.83
591.35	425.98
591.51	479.81
591.67	433.00
591.83	402.57
591.99	416.62
592.15	411.93
592.31	418.96
592.46	428.32
592.62	428.32
592.78	379.17
592.94	442.36
593.10	454.06
593.26	362.78
593.41	365.12
593.57	437.68
593.73	388.53
593.89	397.89
594.05	404.91
594.20	355.76
594.36	374.49
594.52	414.27
594.68	409.59
594.84	479.81
594.99	444.70
595.15	461.09
595.31	397.89
595.47	402.57
595.62	414.27
595.78	397.89
595.94	360.44
596.10	409.59
596.25	346.40
596.41	346.40
596.57	372.15
596.73	393.21
596.88	421.30
597.04	374.49
597.20	435.34
597.36	397.89
597.51	397.89
597.67	451.72
597.83	390.87
597.99	461.09
598.14	386.19
598.30	470.45
598.46	468.11
598.61	411.93
598.77	404.91
598.93	369.80
599.09	404.91
599.24	400.23
599.40	479.81
599.56	372.15
599.71	360.44
599.87	369.80
600.03	510.24
600.18	409.59
600.34	437.68
600.50	393.21
600.65	353.42
600.81	416.62
600.97	468.11
601.12	395.55
601.28	465.77
601.44	381.51
601.59	444.70
601.75	423.64
601.91	386.19
602.06	472.79
602.22	447.04
602.37	397.89
602.53	390.87
602.69	395.55
602.84	379.17
603.00	486.83
603.16	437.68
603.31	400.23
603.47	449.38
603.62	383.85
603.78	386.19
603.94	425.98
604.09	437.68
604.25	383.85
604.40	404.91
604.56	393.21
604.71	468.11
604.87	379.17
605.03	402.57
605.18	390.87
605.34	400.23
605.49	379.17
605.65	402.57
605.80	428.32
605.96	409.59
606.12	397.89
606.27	411.93
606.43	451.72
606.58	458.74
606.74	407.25
606.89	423.64
607.05	386.19
607.20	397.89
607.36	456.40
607.51	437.68
607.67	449.38
607.82	451.72
607.98	414.27
608.13	425.98
608.29	383.85
608.44	404.91
608.60	383.85
608.75	470.45
608.91	475.13
609.06	397.89
609.22	353.42
609.37	470.45
609.53	444.70
609.68	458.74
609.84	318.31
609.99	407.25
610.15	414.27
