SpectraSuite Data File
++++++++++++++++++++++++++++++++++++
Date: Fri Oct 25 12:11:05 EDT 2013
User: price-jones
Dark Spectrum Present: No
Reference Spectrum Present: No
Number of Sampled Component Spectra: 1
Spectrometers: USB2+H05261
Integration Time (usec): 100000 (USB2+H05261)
Spectra Averaged: 1 (USB2+H05261)
Boxcar Smoothing: 0 (USB2+H05261)
Correct for Electrical Dark: No (USB2+H05261)
Strobe/Lamp Enabled: No (USB2+H05261)
Correct for Detector Non-linearity: No (USB2+H05261)
Correct for Stray Light: No (USB2+H05261)
Number of Pixels in Processed Spectrum: 2048
>>>>>Begin Processed Spectral Data<<<<<
365.73	306.61
365.92	306.61
366.12	306.61
366.32	257.46
366.52	215.33
366.72	304.27
366.91	222.35
367.11	250.44
367.31	161.50
367.51	234.05
367.70	236.39
367.90	243.42
368.10	201.29
368.30	231.71
368.49	257.46
368.69	280.86
368.89	262.14
369.09	273.84
369.28	245.76
369.48	276.18
369.68	299.59
369.87	306.61
370.07	311.29
370.27	416.62
370.47	330.02
370.66	320.65
370.86	372.15
371.06	327.68
371.25	423.64
371.45	304.27
371.65	369.80
371.84	400.23
372.04	395.55
372.24	372.15
372.44	365.12
372.63	379.17
372.83	442.36
373.03	367.46
373.22	421.30
373.42	421.30
373.62	491.51
373.81	362.78
374.01	437.68
374.21	414.27
374.40	383.85
374.60	512.58
374.79	416.62
374.99	411.93
375.19	332.36
375.38	435.34
375.58	390.87
375.78	360.44
375.97	493.85
376.17	479.81
376.37	383.85
376.56	444.70
376.76	449.38
376.95	418.96
377.15	433.00
377.35	465.77
377.54	400.23
377.74	395.55
377.93	456.40
378.13	369.80
378.33	416.62
378.52	367.46
378.72	421.30
378.91	397.89
379.11	355.76
379.31	383.85
379.50	397.89
379.70	477.47
379.89	386.19
380.09	421.30
380.28	383.85
380.48	355.76
380.68	320.65
380.87	393.21
381.07	390.87
381.26	444.70
381.46	425.98
381.65	400.23
381.85	393.21
382.04	400.23
382.24	381.51
382.43	475.13
382.63	390.87
382.83	402.57
383.02	393.21
383.22	407.25
383.41	425.98
383.61	454.06
383.80	365.12
384.00	414.27
384.19	358.10
384.39	313.63
384.58	379.17
384.78	435.34
384.97	379.17
385.17	400.23
385.36	374.49
385.56	425.98
385.75	397.89
385.95	428.32
386.14	486.83
386.34	369.80
386.53	379.17
386.72	463.43
386.92	454.06
387.11	400.23
387.31	353.42
387.50	365.12
387.70	404.91
387.89	470.45
388.09	404.91
388.28	425.98
388.48	341.72
388.67	440.02
388.86	348.74
389.06	418.96
389.25	351.08
389.45	383.85
389.64	365.12
389.84	397.89
390.03	428.32
390.22	376.83
390.42	404.91
390.61	388.53
390.81	374.49
391.00	421.30
391.19	461.09
391.39	444.70
391.58	433.00
391.78	428.32
391.97	404.91
392.16	437.68
392.36	353.42
392.55	418.96
392.75	414.27
392.94	381.51
393.13	416.62
393.33	444.70
393.52	411.93
393.71	367.46
393.91	397.89
394.10	355.76
394.29	454.06
394.49	383.85
394.68	423.64
394.88	409.59
395.07	437.68
395.26	454.06
395.46	444.70
395.65	482.15
395.84	416.62
396.04	428.32
396.23	414.27
396.42	341.72
396.62	407.25
396.81	447.04
397.00	386.19
397.19	362.78
397.39	367.46
397.58	486.83
397.77	435.34
397.97	334.70
398.16	461.09
398.35	365.12
398.55	397.89
398.74	320.65
398.93	367.46
399.12	344.06
399.32	397.89
399.51	397.89
399.70	332.36
399.90	407.25
400.09	353.42
400.28	428.32
400.47	358.10
400.67	430.66
400.86	472.79
401.05	390.87
401.24	400.23
401.44	423.64
401.63	451.72
401.82	393.21
402.01	414.27
402.21	325.33
402.40	386.19
402.59	365.12
402.78	442.36
402.97	372.15
403.17	383.85
403.36	397.89
403.55	390.87
403.74	407.25
403.93	407.25
404.13	358.10
404.32	397.89
404.51	411.93
404.70	395.55
404.89	400.23
405.09	451.72
405.28	435.34
405.47	400.23
405.66	381.51
405.85	451.72
406.05	433.00
406.24	440.02
406.43	510.24
406.62	484.49
406.81	454.06
407.00	423.64
407.20	351.08
407.39	400.23
407.58	353.42
407.77	423.64
407.96	458.74
408.15	423.64
408.34	423.64
408.54	414.27
408.73	435.34
408.92	465.77
409.11	381.51
409.30	444.70
409.49	411.93
409.68	374.49
409.87	442.36
410.07	374.49
410.26	365.12
410.45	344.06
410.64	341.72
410.83	425.98
411.02	402.57
411.21	418.96
411.40	428.32
411.59	428.32
411.78	397.89
411.98	362.78
412.17	437.68
412.36	395.55
412.55	440.02
412.74	400.23
412.93	393.21
413.12	433.00
413.31	433.00
413.50	451.72
413.69	430.66
413.88	414.27
414.07	454.06
414.26	430.66
414.45	383.85
414.64	451.72
414.83	367.46
415.02	425.98
415.22	444.70
415.41	407.25
415.60	393.21
415.79	425.98
415.98	484.49
416.17	440.02
416.36	353.42
416.55	404.91
416.74	418.96
416.93	447.04
417.12	365.12
417.31	386.19
417.50	351.08
417.69	404.91
417.88	465.77
418.07	461.09
418.26	411.93
418.45	407.25
418.64	498.53
418.83	409.59
419.02	388.53
419.21	451.72
419.39	400.23
419.58	440.02
419.77	444.70
419.96	421.30
420.15	400.23
420.34	395.55
420.53	402.57
420.72	451.72
420.91	425.98
421.10	395.55
421.29	411.93
421.48	360.44
421.67	414.27
421.86	402.57
422.05	463.43
422.24	409.59
422.43	407.25
422.61	294.91
422.80	374.49
422.99	369.80
423.18	421.30
423.37	454.06
423.56	512.58
423.75	430.66
423.94	407.25
424.13	374.49
424.32	472.79
424.50	423.64
424.69	442.36
424.88	416.62
425.07	447.04
425.26	411.93
425.45	388.53
425.64	433.00
425.83	395.55
426.01	411.93
426.20	369.80
426.39	425.98
426.58	402.57
426.77	360.44
426.96	458.74
427.15	395.55
427.33	418.96
427.52	433.00
427.71	397.89
427.90	418.96
428.09	421.30
428.28	435.34
428.46	451.72
428.65	381.51
428.84	447.04
429.03	454.06
429.22	444.70
429.40	388.53
429.59	362.78
429.78	381.51
429.97	428.32
430.16	458.74
430.34	355.76
430.53	411.93
430.72	376.83
430.91	498.53
431.10	463.43
431.28	390.87
431.47	393.21
431.66	465.77
431.85	444.70
432.03	393.21
432.22	454.06
432.41	468.11
432.60	435.34
432.79	372.15
432.97	425.98
433.16	411.93
433.35	458.74
433.54	440.02
433.72	388.53
433.91	393.21
434.10	390.87
434.28	437.68
434.47	409.59
434.66	430.66
434.85	404.91
435.03	449.38
435.22	358.10
435.41	484.49
435.59	379.17
435.78	390.87
435.97	433.00
436.16	435.34
436.34	437.68
436.53	461.09
436.72	430.66
436.90	477.47
437.09	444.70
437.28	482.15
437.46	341.72
437.65	388.53
437.84	503.22
438.02	449.38
438.21	451.72
438.40	400.23
438.58	379.17
438.77	407.25
438.96	386.19
439.14	351.08
439.33	458.74
439.52	360.44
439.70	393.21
439.89	388.53
440.08	416.62
440.26	449.38
440.45	430.66
440.63	402.57
440.82	456.40
441.01	498.53
441.19	416.62
441.38	348.74
441.57	397.89
441.75	442.36
441.94	493.85
442.12	393.21
442.31	458.74
442.50	346.40
442.68	388.53
442.87	383.85
443.05	400.23
443.24	393.21
443.43	388.53
443.61	491.51
443.80	428.32
443.98	482.15
444.17	425.98
444.35	430.66
444.54	383.85
444.73	418.96
444.91	430.66
445.10	337.04
445.28	379.17
445.47	383.85
445.65	435.34
445.84	421.30
446.02	454.06
446.21	365.12
446.39	421.30
446.58	454.06
446.77	397.89
446.95	461.09
447.14	421.30
447.32	425.98
447.51	463.43
447.69	386.19
447.88	430.66
448.06	461.09
448.25	409.59
448.43	362.78
448.62	479.81
448.80	477.47
448.99	491.51
449.17	407.25
449.36	388.53
449.54	437.68
449.73	372.15
449.91	400.23
450.10	369.80
450.28	498.53
450.46	428.32
450.65	414.27
450.83	365.12
451.02	414.27
451.20	397.89
451.39	402.57
451.57	344.06
451.76	425.98
451.94	388.53
452.13	402.57
452.31	421.30
452.49	388.53
452.68	311.29
452.86	402.57
453.05	484.49
453.23	400.23
453.42	318.31
453.60	381.51
453.78	395.55
453.97	320.65
454.15	421.30
454.34	451.72
454.52	430.66
454.70	414.27
454.89	381.51
455.07	346.40
455.26	353.42
455.44	440.02
455.62	433.00
455.81	454.06
455.99	402.57
456.17	402.57
456.36	430.66
456.54	383.85
456.73	367.46
456.91	381.51
457.09	493.85
457.28	461.09
457.46	397.89
457.64	402.57
457.83	447.04
458.01	435.34
458.19	400.23
458.38	435.34
458.56	430.66
458.74	409.59
458.93	407.25
459.11	383.85
459.29	468.11
459.48	409.59
459.66	461.09
459.84	367.46
460.03	491.51
460.21	409.59
460.39	421.30
460.57	435.34
460.76	423.64
460.94	404.91
461.12	395.55
461.31	479.81
461.49	344.06
461.67	397.89
461.85	433.00
462.04	397.89
462.22	727.91
462.40	437.68
462.59	416.62
462.77	418.96
462.95	421.30
463.13	425.98
463.32	362.78
463.50	395.55
463.68	390.87
463.86	411.93
464.05	465.77
464.23	433.00
464.41	383.85
464.59	423.64
464.78	325.33
464.96	395.55
465.14	390.87
465.32	402.57
465.50	418.96
465.69	433.00
465.87	435.34
466.05	428.32
466.23	449.38
466.41	372.15
466.60	409.59
466.78	386.19
466.96	463.43
467.14	409.59
467.32	435.34
467.51	411.93
467.69	433.00
467.87	404.91
468.05	449.38
468.23	454.06
468.41	411.93
468.60	428.32
468.78	409.59
468.96	442.36
469.14	383.85
469.32	409.59
469.50	451.72
469.69	458.74
469.87	383.85
470.05	489.17
470.23	486.83
470.41	440.02
470.59	414.27
470.77	465.77
470.95	440.02
471.14	442.36
471.32	496.19
471.50	449.38
471.68	423.64
471.86	360.44
472.04	444.70
472.22	411.93
472.40	397.89
472.58	379.17
472.77	397.89
472.95	360.44
473.13	451.72
473.31	449.38
473.49	486.83
473.67	404.91
473.85	449.38
474.03	355.76
474.21	353.42
474.39	430.66
474.57	416.62
474.75	411.93
474.93	393.21
475.12	362.78
475.30	423.64
475.48	458.74
475.66	397.89
475.84	299.59
476.02	447.04
476.20	400.23
476.38	409.59
476.56	416.62
476.74	430.66
476.92	433.00
477.10	463.43
477.28	496.19
477.46	400.23
477.64	379.17
477.82	472.79
478.00	365.12
478.18	461.09
478.36	369.80
478.54	418.96
478.72	414.27
478.90	404.91
479.08	447.04
479.26	428.32
479.44	468.11
479.62	379.17
479.80	416.62
479.98	435.34
480.16	440.02
480.34	407.25
480.52	482.15
480.70	404.91
480.88	369.80
481.06	416.62
481.24	369.80
481.41	428.32
481.59	425.98
481.77	477.47
481.95	397.89
482.13	458.74
482.31	351.08
482.49	339.38
482.67	416.62
482.85	470.45
483.03	423.64
483.21	397.89
483.39	425.98
483.57	414.27
483.74	470.45
483.92	475.13
484.10	442.36
484.28	411.93
484.46	397.89
484.64	386.19
484.82	358.10
485.00	379.17
485.18	421.30
485.35	390.87
485.53	395.55
485.71	463.43
485.89	388.53
486.07	475.13
486.25	470.45
486.43	435.34
486.61	418.96
486.78	388.53
486.96	397.89
487.14	484.49
487.32	388.53
487.50	379.17
487.68	484.49
487.85	435.34
488.03	451.72
488.21	454.06
488.39	458.74
488.57	414.27
488.75	458.74
488.92	500.87
489.10	463.43
489.28	437.68
489.46	421.30
489.64	468.11
489.81	400.23
489.99	383.85
490.17	397.89
490.35	503.22
490.53	416.62
490.70	386.19
490.88	484.49
491.06	390.87
491.24	447.04
491.41	454.06
491.59	418.96
491.77	388.53
491.95	379.17
492.13	379.17
492.30	416.62
492.48	374.49
492.66	423.64
492.84	451.72
493.01	454.06
493.19	437.68
493.37	482.15
493.54	468.11
493.72	388.53
493.90	388.53
494.08	463.43
494.25	428.32
494.43	416.62
494.61	360.44
494.79	367.46
494.96	367.46
495.14	435.34
495.32	416.62
495.49	376.83
495.67	409.59
495.85	402.57
496.02	454.06
496.20	404.91
496.38	454.06
496.55	411.93
496.73	491.51
496.91	451.72
497.09	400.23
497.26	358.10
497.44	477.47
497.62	416.62
497.79	444.70
497.97	451.72
498.14	430.66
498.32	421.30
498.50	376.83
498.67	418.96
498.85	390.87
499.03	383.85
499.20	411.93
499.38	358.10
499.56	379.17
499.73	449.38
499.91	437.68
500.08	449.38
500.26	447.04
500.44	468.11
500.61	393.21
500.79	341.72
500.97	437.68
501.14	447.04
501.32	407.25
501.49	418.96
501.67	358.10
501.84	414.27
502.02	425.98
502.20	433.00
502.37	390.87
502.55	435.34
502.72	461.09
502.90	489.17
503.07	430.66
503.25	456.40
503.43	421.30
503.60	407.25
503.78	444.70
503.95	390.87
504.13	421.30
504.30	451.72
504.48	390.87
504.65	440.02
504.83	383.85
505.01	383.85
505.18	440.02
505.36	404.91
505.53	435.34
505.71	414.27
505.88	477.47
506.06	383.85
506.23	442.36
506.41	449.38
506.58	414.27
506.76	461.09
506.93	390.87
507.11	360.44
507.28	435.34
507.46	402.57
507.63	435.34
507.81	411.93
507.98	454.06
508.16	440.02
508.33	395.55
508.50	421.30
508.68	433.00
508.85	383.85
509.03	428.32
509.20	379.17
509.38	444.70
509.55	442.36
509.73	461.09
509.90	411.93
510.08	458.74
510.25	496.19
510.42	404.91
510.60	411.93
510.77	437.68
510.95	440.02
511.12	393.21
511.30	353.42
511.47	358.10
511.64	430.66
511.82	393.21
511.99	346.40
512.17	339.38
512.34	416.62
512.51	411.93
512.69	386.19
512.86	416.62
513.04	442.36
513.21	456.40
513.38	409.59
513.56	404.91
513.73	421.30
513.90	411.93
514.08	287.89
514.25	489.17
514.43	472.79
514.60	383.85
514.77	416.62
514.95	421.30
515.12	409.59
515.29	355.76
515.47	425.98
515.64	444.70
515.81	402.57
515.99	447.04
516.16	470.45
516.33	472.79
516.51	397.89
516.68	393.21
516.85	379.17
517.03	395.55
517.20	465.77
517.37	383.85
517.54	400.23
517.72	472.79
517.89	367.46
518.06	425.98
518.24	447.04
518.41	437.68
518.58	395.55
518.75	379.17
518.93	472.79
519.10	437.68
519.27	386.19
519.45	407.25
519.62	381.51
519.79	418.96
519.96	421.30
520.14	407.25
520.31	416.62
520.48	470.45
520.65	416.62
520.83	491.51
521.00	430.66
521.17	409.59
521.34	461.09
521.52	407.25
521.69	383.85
521.86	402.57
522.03	444.70
522.20	458.74
522.38	407.25
522.55	461.09
522.72	449.38
522.89	425.98
523.07	416.62
523.24	411.93
523.41	433.00
523.58	395.55
523.75	430.66
523.92	339.38
524.10	456.40
524.27	447.04
524.44	456.40
524.61	489.17
524.78	395.55
524.96	456.40
525.13	454.06
525.30	456.40
525.47	454.06
525.64	369.80
525.81	383.85
525.98	423.64
526.16	470.45
526.33	386.19
526.50	367.46
526.67	402.57
526.84	348.74
527.01	369.80
527.18	489.17
527.36	404.91
527.53	414.27
527.70	421.30
527.87	489.17
528.04	472.79
528.21	407.25
528.38	416.62
528.55	442.36
528.72	421.30
528.89	449.38
529.07	461.09
529.24	383.85
529.41	397.89
529.58	369.80
529.75	472.79
529.92	465.77
530.09	411.93
530.26	421.30
530.43	351.08
530.60	400.23
530.77	418.96
530.94	365.12
531.11	416.62
531.28	428.32
531.46	390.87
531.63	475.13
531.80	362.78
531.97	454.06
532.14	486.83
532.31	470.45
532.48	440.02
532.65	421.30
532.82	416.62
532.99	402.57
533.16	449.38
533.33	433.00
533.50	454.06
533.67	428.32
533.84	482.15
534.01	395.55
534.18	416.62
534.35	397.89
534.52	383.85
534.69	470.45
534.86	372.15
535.03	468.11
535.20	416.62
535.37	449.38
535.54	425.98
535.71	475.13
535.88	416.62
536.05	414.27
536.22	367.46
536.38	322.99
536.55	435.34
536.72	339.38
536.89	397.89
537.06	404.91
537.23	437.68
537.40	388.53
537.57	428.32
537.74	510.24
537.91	404.91
538.08	428.32
538.25	409.59
538.42	435.34
538.59	425.98
538.75	411.93
538.92	428.32
539.09	479.81
539.26	463.43
539.43	428.32
539.60	444.70
539.77	477.47
539.94	454.06
540.11	463.43
540.28	442.36
540.44	472.79
540.61	428.32
540.78	404.91
540.95	414.27
541.12	526.62
541.29	397.89
541.46	477.47
541.62	369.80
541.79	395.55
541.96	454.06
542.13	414.27
542.30	404.91
542.47	463.43
542.63	447.04
542.80	503.22
542.97	397.89
543.14	435.34
543.31	407.25
543.48	421.30
543.64	369.80
543.81	418.96
543.98	369.80
544.15	418.96
544.32	428.32
544.48	411.93
544.65	449.38
544.82	369.80
544.99	447.04
545.16	409.59
545.32	358.10
545.49	369.80
545.66	390.87
545.83	341.72
546.00	379.17
546.16	425.98
546.33	428.32
546.50	395.55
546.67	435.34
546.83	402.57
547.00	461.09
547.17	454.06
547.34	388.53
547.50	381.51
547.67	379.17
547.84	355.76
548.00	414.27
548.17	390.87
548.34	402.57
548.51	482.15
548.67	489.17
548.84	386.19
549.01	362.78
549.18	482.15
549.34	428.32
549.51	444.70
549.68	423.64
549.84	435.34
550.01	423.64
550.18	470.45
550.34	550.03
550.51	388.53
550.68	421.30
550.84	351.08
551.01	362.78
551.18	430.66
551.34	437.68
551.51	414.27
551.68	451.72
551.84	421.30
552.01	369.80
552.18	447.04
552.34	463.43
552.51	440.02
552.68	454.06
552.84	482.15
553.01	395.55
553.18	409.59
553.34	463.43
553.51	404.91
553.67	393.21
553.84	484.49
554.01	383.85
554.17	440.02
554.34	407.25
554.51	468.11
554.67	449.38
554.84	376.83
555.00	425.98
555.17	376.83
555.33	449.38
555.50	484.49
555.67	517.26
555.83	425.98
556.00	395.55
556.16	421.30
556.33	402.57
556.50	383.85
556.66	390.87
556.83	388.53
556.99	332.36
557.16	411.93
557.32	465.77
557.49	435.34
557.65	454.06
557.82	379.17
557.98	393.21
558.15	437.68
558.32	451.72
558.48	465.77
558.65	393.21
558.81	454.06
558.98	430.66
559.14	454.06
559.31	449.38
559.47	447.04
559.64	472.79
559.80	383.85
559.97	348.74
560.13	435.34
560.30	437.68
560.46	423.64
560.63	388.53
560.79	458.74
560.96	423.64
561.12	393.21
561.29	465.77
561.45	407.25
561.61	475.13
561.78	444.70
561.94	486.83
562.11	390.87
562.27	461.09
562.44	393.21
562.60	402.57
562.77	360.44
562.93	428.32
563.10	409.59
563.26	409.59
563.42	430.66
563.59	463.43
563.75	421.30
563.92	365.12
564.08	433.00
564.24	456.40
564.41	430.66
564.57	395.55
564.74	416.62
564.90	440.02
565.07	433.00
565.23	386.19
565.39	418.96
565.56	458.74
565.72	351.08
565.88	468.11
566.05	397.89
566.21	416.62
566.38	367.46
566.54	423.64
566.70	407.25
566.87	447.04
567.03	358.10
567.19	402.57
567.36	428.32
567.52	435.34
567.68	461.09
567.85	411.93
568.01	374.49
568.17	381.51
568.34	397.89
568.50	479.81
568.66	437.68
568.83	514.92
568.99	369.80
569.15	402.57
569.32	437.68
569.48	388.53
569.64	423.64
569.81	409.59
569.97	416.62
570.13	402.57
570.30	337.04
570.46	376.83
570.62	435.34
570.78	390.87
570.95	390.87
571.11	416.62
571.27	451.72
571.43	374.49
571.60	320.65
571.76	449.38
571.92	442.36
572.09	379.17
572.25	479.81
572.41	477.47
572.57	400.23
572.74	475.13
572.90	444.70
573.06	365.12
573.22	454.06
573.38	454.06
573.55	414.27
573.71	402.57
573.87	414.27
574.03	372.15
574.20	428.32
574.36	430.66
574.52	315.97
574.68	411.93
574.84	433.00
575.01	400.23
575.17	475.13
575.33	470.45
575.49	390.87
575.65	369.80
575.82	458.74
575.98	393.21
576.14	479.81
576.30	383.85
576.46	337.04
576.62	374.49
576.79	402.57
576.95	440.02
577.11	388.53
577.27	416.62
577.43	465.77
577.59	468.11
577.75	397.89
577.92	414.27
578.08	458.74
578.24	332.36
578.40	409.59
578.56	425.98
578.72	411.93
578.88	472.79
579.04	479.81
579.21	430.66
579.37	421.30
579.53	348.74
579.69	409.59
579.85	433.00
580.01	454.06
580.17	414.27
580.33	379.17
580.49	325.33
580.65	379.17
580.82	411.93
580.98	374.49
581.14	440.02
581.30	433.00
581.46	447.04
581.62	414.27
581.78	376.83
581.94	486.83
582.10	475.13
582.26	430.66
582.42	433.00
582.58	386.19
582.74	454.06
582.90	433.00
583.06	491.51
583.22	435.34
583.38	386.19
583.54	454.06
583.70	475.13
583.86	372.15
584.02	365.12
584.18	416.62
584.34	346.40
584.50	484.49
584.66	360.44
584.82	409.59
584.98	465.77
585.14	451.72
585.30	421.30
585.46	447.04
585.62	360.44
585.78	425.98
585.94	397.89
586.10	369.80
586.26	400.23
586.42	414.27
586.58	491.51
586.74	379.17
586.90	447.04
587.06	376.83
587.22	477.47
587.38	353.42
587.54	362.78
587.70	456.40
587.86	444.70
588.02	456.40
588.18	411.93
588.34	449.38
588.49	435.34
588.65	358.10
588.81	379.17
588.97	423.64
589.13	397.89
589.29	440.02
589.45	489.17
589.61	374.49
589.77	416.62
589.93	334.70
590.08	320.65
590.24	430.66
590.40	468.11
590.56	397.89
590.72	402.57
590.88	477.47
591.04	390.87
591.20	402.57
591.35	442.36
591.51	362.78
591.67	414.27
591.83	449.38
591.99	386.19
592.15	369.80
592.31	337.04
592.46	388.53
592.62	449.38
592.78	491.51
592.94	425.98
593.10	390.87
593.26	421.30
593.41	421.30
593.57	344.06
593.73	341.72
593.89	423.64
594.05	388.53
594.20	433.00
594.36	447.04
594.52	395.55
594.68	425.98
594.84	437.68
594.99	372.15
595.15	409.59
595.31	423.64
595.47	540.66
595.62	395.55
595.78	444.70
595.94	390.87
596.10	493.85
596.25	458.74
596.41	425.98
596.57	411.93
596.73	414.27
596.88	442.36
597.04	402.57
597.20	400.23
597.36	451.72
597.51	440.02
597.67	425.98
597.83	402.57
597.99	475.13
598.14	414.27
598.30	407.25
598.46	402.57
598.61	472.79
598.77	428.32
598.93	423.64
599.09	425.98
599.24	353.42
599.40	416.62
599.56	414.27
599.71	477.47
599.87	425.98
600.03	435.34
600.18	468.11
600.34	409.59
600.50	365.12
600.65	327.68
600.81	383.85
600.97	418.96
601.12	491.51
601.28	433.00
601.44	425.98
601.59	390.87
601.75	461.09
601.91	393.21
602.06	379.17
602.22	482.15
602.37	428.32
602.53	409.59
602.69	395.55
602.84	435.34
603.00	374.49
603.16	421.30
603.31	496.19
603.47	409.59
603.62	369.80
603.78	437.68
603.94	390.87
604.09	447.04
604.25	416.62
604.40	397.89
604.56	372.15
604.71	400.23
604.87	425.98
605.03	351.08
605.18	421.30
605.34	475.13
605.49	421.30
605.65	433.00
605.80	407.25
605.96	400.23
606.12	433.00
606.27	407.25
606.43	374.49
606.58	451.72
606.74	407.25
606.89	430.66
607.05	435.34
607.20	470.45
607.36	381.51
607.51	397.89
607.67	468.11
607.82	409.59
607.98	451.72
608.13	409.59
608.29	393.21
608.44	451.72
608.60	388.53
608.75	418.96
608.91	397.89
609.06	505.56
609.22	416.62
609.37	433.00
609.53	418.96
609.68	365.12
609.84	395.55
609.99	402.57
610.15	365.12
