SpectraSuite Data File
++++++++++++++++++++++++++++++++++++
Date: Fri Oct 25 12:10:37 EDT 2013
User: price-jones
Dark Spectrum Present: No
Reference Spectrum Present: No
Number of Sampled Component Spectra: 1
Spectrometers: USB2+H05261
Integration Time (usec): 100000 (USB2+H05261)
Spectra Averaged: 1 (USB2+H05261)
Boxcar Smoothing: 0 (USB2+H05261)
Correct for Electrical Dark: No (USB2+H05261)
Strobe/Lamp Enabled: No (USB2+H05261)
Correct for Detector Non-linearity: No (USB2+H05261)
Correct for Stray Light: No (USB2+H05261)
Number of Pixels in Processed Spectrum: 2048
>>>>>Begin Processed Spectral Data<<<<<
365.73	332.36
365.92	332.36
366.12	332.36
366.32	161.50
366.52	266.82
366.72	311.29
366.91	287.89
367.11	276.18
367.31	191.92
367.51	215.33
367.70	241.08
367.90	264.48
368.10	304.27
368.30	238.73
368.49	252.78
368.69	238.73
368.89	280.86
369.09	203.63
369.28	304.27
369.48	339.38
369.68	341.72
369.87	257.46
370.07	337.04
370.27	337.04
370.47	264.48
370.66	332.36
370.86	283.20
371.06	397.89
371.25	395.55
371.45	369.80
371.65	355.76
371.84	379.17
372.04	437.68
372.24	423.64
372.44	416.62
372.63	428.32
372.83	308.95
373.03	339.38
373.22	435.34
373.42	400.23
373.62	376.83
373.81	395.55
374.01	449.38
374.21	435.34
374.40	430.66
374.60	393.21
374.79	449.38
374.99	442.36
375.19	451.72
375.38	428.32
375.58	428.32
375.78	470.45
375.97	428.32
376.17	418.96
376.37	360.44
376.56	400.23
376.76	390.87
376.95	402.57
377.15	437.68
377.35	395.55
377.54	433.00
377.74	383.85
377.93	334.70
378.13	461.09
378.33	407.25
378.52	442.36
378.72	461.09
378.91	376.83
379.11	435.34
379.31	451.72
379.50	376.83
379.70	482.15
379.89	423.64
380.09	451.72
380.28	402.57
380.48	379.17
380.68	411.93
380.87	428.32
381.07	386.19
381.26	388.53
381.46	437.68
381.65	416.62
381.85	374.49
382.04	440.02
382.24	381.51
382.43	360.44
382.63	395.55
382.83	383.85
383.02	402.57
383.22	449.38
383.41	318.31
383.61	423.64
383.80	344.06
384.00	414.27
384.19	362.78
384.39	416.62
384.58	423.64
384.78	430.66
384.97	388.53
385.17	435.34
385.36	381.51
385.56	402.57
385.75	376.83
385.95	411.93
386.14	444.70
386.34	383.85
386.53	489.17
386.72	334.70
386.92	402.57
387.11	409.59
387.31	421.30
387.50	402.57
387.70	461.09
387.89	437.68
388.09	372.15
388.28	442.36
388.48	383.85
388.67	404.91
388.86	411.93
389.06	337.04
389.25	437.68
389.45	437.68
389.64	470.45
389.84	507.90
390.03	430.66
390.22	358.10
390.42	365.12
390.61	430.66
390.81	416.62
391.00	367.46
391.19	414.27
391.39	386.19
391.58	393.21
391.78	475.13
391.97	346.40
392.16	369.80
392.36	402.57
392.55	414.27
392.75	381.51
392.94	425.98
393.13	440.02
393.33	367.46
393.52	421.30
393.71	470.45
393.91	465.77
394.10	386.19
394.29	374.49
394.49	393.21
394.68	465.77
394.88	444.70
395.07	393.21
395.26	423.64
395.46	409.59
395.65	470.45
395.84	409.59
396.04	477.47
396.23	433.00
396.42	428.32
396.62	433.00
396.81	444.70
397.00	311.29
397.19	393.21
397.39	421.30
397.58	367.46
397.77	376.83
397.97	353.42
398.16	397.89
398.35	456.40
398.55	435.34
398.74	461.09
398.93	395.55
399.12	381.51
399.32	390.87
399.51	390.87
399.70	482.15
399.90	374.49
400.09	386.19
400.28	449.38
400.47	421.30
400.67	383.85
400.86	397.89
401.05	461.09
401.24	390.87
401.44	435.34
401.63	428.32
401.82	428.32
402.01	344.06
402.21	390.87
402.40	376.83
402.59	351.08
402.78	435.34
402.97	411.93
403.17	409.59
403.36	379.17
403.55	374.49
403.74	360.44
403.93	353.42
404.13	449.38
404.32	341.72
404.51	365.12
404.70	372.15
404.89	379.17
405.09	369.80
405.28	425.98
405.47	367.46
405.66	355.76
405.85	383.85
406.05	421.30
406.24	332.36
406.43	393.21
406.62	348.74
406.81	468.11
407.00	428.32
407.20	346.40
407.39	442.36
407.58	411.93
407.77	425.98
407.96	421.30
408.15	421.30
408.34	435.34
408.54	383.85
408.73	388.53
408.92	402.57
409.11	381.51
409.30	407.25
409.49	409.59
409.68	428.32
409.87	411.93
410.07	360.44
410.26	425.98
410.45	428.32
410.64	386.19
410.83	416.62
411.02	379.17
411.21	402.57
411.40	397.89
411.59	388.53
411.78	400.23
411.98	395.55
412.17	393.21
412.36	402.57
412.55	388.53
412.74	393.21
412.93	409.59
413.12	379.17
413.31	355.76
413.50	414.27
413.69	339.38
413.88	484.49
414.07	411.93
414.26	411.93
414.45	402.57
414.64	381.51
414.83	435.34
415.02	402.57
415.22	435.34
415.41	498.53
415.60	358.10
415.79	393.21
415.98	456.40
416.17	367.46
416.36	374.49
416.55	407.25
416.74	411.93
416.93	318.31
417.12	397.89
417.31	421.30
417.50	393.21
417.69	330.02
417.88	383.85
418.07	383.85
418.26	393.21
418.45	397.89
418.64	332.36
418.83	421.30
419.02	407.25
419.21	416.62
419.39	388.53
419.58	395.55
419.77	348.74
419.96	386.19
420.15	397.89
420.34	425.98
420.53	386.19
420.72	425.98
420.91	411.93
421.10	381.51
421.29	400.23
421.48	430.66
421.67	423.64
421.86	372.15
422.05	393.21
422.24	360.44
422.43	388.53
422.61	386.19
422.80	423.64
422.99	369.80
423.18	395.55
423.37	416.62
423.56	418.96
423.75	414.27
423.94	407.25
424.13	414.27
424.32	430.66
424.50	360.44
424.69	327.68
424.88	479.81
425.07	411.93
425.26	397.89
425.45	437.68
425.64	461.09
425.83	393.21
426.01	475.13
426.20	411.93
426.39	447.04
426.58	416.62
426.77	475.13
426.96	447.04
427.15	400.23
427.33	416.62
427.52	393.21
427.71	454.06
427.90	414.27
428.09	458.74
428.28	430.66
428.46	353.42
428.65	414.27
428.84	379.17
429.03	449.38
429.22	463.43
429.40	379.17
429.59	414.27
429.78	423.64
429.97	440.02
430.16	367.46
430.34	397.89
430.53	418.96
430.72	407.25
430.91	447.04
431.10	430.66
431.28	344.06
431.47	440.02
431.66	369.80
431.85	423.64
432.03	486.83
432.22	479.81
432.41	416.62
432.60	451.72
432.79	430.66
432.97	346.40
433.16	400.23
433.35	416.62
433.54	411.93
433.72	379.17
433.91	472.79
434.10	353.42
434.28	388.53
434.47	397.89
434.66	484.49
434.85	428.32
435.03	381.51
435.22	402.57
435.41	442.36
435.59	416.62
435.78	367.46
435.97	407.25
436.16	388.53
436.34	365.12
436.53	430.66
436.72	318.31
436.90	437.68
437.09	390.87
437.28	395.55
437.46	367.46
437.65	404.91
437.84	386.19
438.02	411.93
438.21	418.96
438.40	433.00
438.58	381.51
438.77	461.09
438.96	346.40
439.14	400.23
439.33	449.38
439.52	365.12
439.70	458.74
439.89	437.68
440.08	360.44
440.26	376.83
440.45	344.06
440.63	404.91
440.82	458.74
441.01	383.85
441.19	407.25
441.38	428.32
441.57	395.55
441.75	397.89
441.94	313.63
442.12	435.34
442.31	400.23
442.50	409.59
442.68	393.21
442.87	416.62
443.05	451.72
443.24	416.62
443.43	379.17
443.61	423.64
443.80	428.32
443.98	423.64
444.17	381.51
444.35	351.08
444.54	372.15
444.73	411.93
444.91	449.38
445.10	362.78
445.28	327.68
445.47	388.53
445.65	416.62
445.84	409.59
446.02	416.62
446.21	407.25
446.39	451.72
446.58	423.64
446.77	454.06
446.95	414.27
447.14	376.83
447.32	444.70
447.51	433.00
447.69	444.70
447.88	442.36
448.06	355.76
448.25	437.68
448.43	379.17
448.62	358.10
448.80	421.30
448.99	503.22
449.17	379.17
449.36	397.89
449.54	451.72
449.73	360.44
449.91	407.25
450.10	330.02
450.28	482.15
450.46	444.70
450.65	461.09
450.83	404.91
451.02	433.00
451.20	442.36
451.39	425.98
451.57	421.30
451.76	414.27
451.94	390.87
452.13	355.76
452.31	437.68
452.49	416.62
452.68	409.59
452.86	386.19
453.05	409.59
453.23	447.04
453.42	428.32
453.60	430.66
453.78	444.70
453.97	402.57
454.15	383.85
454.34	411.93
454.52	442.36
454.70	423.64
454.89	367.46
455.07	360.44
455.26	454.06
455.44	472.79
455.62	447.04
455.81	428.32
455.99	433.00
456.17	367.46
456.36	404.91
456.54	322.99
456.73	461.09
456.91	397.89
457.09	390.87
457.28	388.53
457.46	402.57
457.64	397.89
457.83	489.17
458.01	358.10
458.19	461.09
458.38	334.70
458.56	430.66
458.74	386.19
458.93	451.72
459.11	454.06
459.29	330.02
459.48	383.85
459.66	458.74
459.84	414.27
460.03	463.43
460.21	355.76
460.39	512.58
460.57	505.56
460.76	386.19
460.94	388.53
461.12	493.85
461.31	407.25
461.49	402.57
461.67	402.57
461.85	440.02
462.04	390.87
462.22	774.72
462.40	444.70
462.59	433.00
462.77	461.09
462.95	472.79
463.13	416.62
463.32	402.57
463.50	425.98
463.68	409.59
463.86	355.76
464.05	360.44
464.23	463.43
464.41	451.72
464.59	468.11
464.78	348.74
464.96	402.57
465.14	344.06
465.32	449.38
465.50	437.68
465.69	383.85
465.87	369.80
466.05	383.85
466.23	320.65
466.41	376.83
466.60	397.89
466.78	400.23
466.96	437.68
467.14	498.53
467.32	348.74
467.51	404.91
467.69	390.87
467.87	430.66
468.05	395.55
468.23	442.36
468.41	414.27
468.60	381.51
468.78	440.02
468.96	397.89
469.14	437.68
469.32	418.96
469.50	437.68
469.69	397.89
469.87	360.44
470.05	414.27
470.23	449.38
470.41	367.46
470.59	404.91
470.77	409.59
470.95	418.96
471.14	442.36
471.32	451.72
471.50	421.30
471.68	411.93
471.86	430.66
472.04	386.19
472.22	416.62
472.40	423.64
472.58	435.34
472.77	430.66
472.95	428.32
473.13	423.64
473.31	421.30
473.49	388.53
473.67	440.02
473.85	428.32
474.03	407.25
474.21	400.23
474.39	475.13
474.57	479.81
474.75	489.17
474.93	381.51
475.12	437.68
475.30	379.17
475.48	346.40
475.66	456.40
475.84	404.91
476.02	407.25
476.20	376.83
476.38	393.21
476.56	440.02
476.74	397.89
476.92	433.00
477.10	454.06
477.28	451.72
477.46	393.21
477.64	435.34
477.82	404.91
478.00	425.98
478.18	418.96
478.36	381.51
478.54	374.49
478.72	374.49
478.90	416.62
479.08	440.02
479.26	379.17
479.44	411.93
479.62	449.38
479.80	381.51
479.98	388.53
480.16	414.27
480.34	442.36
480.52	367.46
480.70	404.91
480.88	390.87
481.06	407.25
481.24	367.46
481.41	383.85
481.59	423.64
481.77	447.04
481.95	411.93
482.13	449.38
482.31	390.87
482.49	379.17
482.67	365.12
482.85	402.57
483.03	404.91
483.21	397.89
483.39	447.04
483.57	440.02
483.74	367.46
483.92	402.57
484.10	407.25
484.28	496.19
484.46	458.74
484.64	379.17
484.82	440.02
485.00	421.30
485.18	362.78
485.35	367.46
485.53	416.62
485.71	510.24
485.89	433.00
486.07	430.66
486.25	444.70
486.43	430.66
486.61	458.74
486.78	430.66
486.96	386.19
487.14	355.76
487.32	400.23
487.50	395.55
487.68	435.34
487.85	402.57
488.03	365.12
488.21	367.46
488.39	433.00
488.57	379.17
488.75	395.55
488.92	484.49
489.10	360.44
489.28	418.96
489.46	442.36
489.64	430.66
489.81	400.23
489.99	418.96
490.17	358.10
490.35	411.93
490.53	447.04
490.70	358.10
490.88	461.09
491.06	386.19
491.24	390.87
491.41	423.64
491.59	381.51
491.77	400.23
491.95	428.32
492.13	315.97
492.30	315.97
492.48	411.93
492.66	430.66
492.84	376.83
493.01	423.64
493.19	353.42
493.37	447.04
493.54	367.46
493.72	482.15
493.90	390.87
494.08	388.53
494.25	381.51
494.43	395.55
494.61	337.04
494.79	395.55
494.96	411.93
495.14	451.72
495.32	381.51
495.49	372.15
495.67	524.28
495.85	437.68
496.02	369.80
496.20	397.89
496.38	374.49
496.55	463.43
496.73	404.91
496.91	360.44
497.09	435.34
497.26	425.98
497.44	425.98
497.62	430.66
497.79	390.87
497.97	374.49
498.14	472.79
498.32	353.42
498.50	440.02
498.67	437.68
498.85	468.11
499.03	388.53
499.20	470.45
499.38	372.15
499.56	365.12
499.73	411.93
499.91	428.32
500.08	348.74
500.26	461.09
500.44	383.85
500.61	383.85
500.79	386.19
500.97	388.53
501.14	402.57
501.32	470.45
501.49	355.76
501.67	484.49
501.84	430.66
502.02	418.96
502.20	454.06
502.37	461.09
502.55	496.19
502.72	381.51
502.90	402.57
503.07	397.89
503.25	393.21
503.43	386.19
503.60	416.62
503.78	433.00
503.95	449.38
504.13	407.25
504.30	418.96
504.48	404.91
504.65	435.34
504.83	440.02
505.01	367.46
505.18	407.25
505.36	390.87
505.53	400.23
505.71	362.78
505.88	433.00
506.06	416.62
506.23	458.74
506.41	369.80
506.58	318.31
506.76	440.02
506.93	402.57
507.11	433.00
507.28	344.06
507.46	400.23
507.63	437.68
507.81	461.09
507.98	360.44
508.16	348.74
508.33	388.53
508.50	362.78
508.68	409.59
508.85	402.57
509.03	341.72
509.20	416.62
509.38	440.02
509.55	449.38
509.73	465.77
509.90	465.77
510.08	444.70
510.25	393.21
510.42	423.64
510.60	442.36
510.77	428.32
510.95	430.66
511.12	358.10
511.30	404.91
511.47	456.40
511.64	470.45
511.82	425.98
511.99	486.83
512.17	397.89
512.34	353.42
512.51	395.55
512.69	360.44
512.86	433.00
513.04	454.06
513.21	489.17
513.38	454.06
513.56	470.45
513.73	496.19
513.90	402.57
514.08	386.19
514.25	390.87
514.43	369.80
514.60	358.10
514.77	404.91
514.95	449.38
515.12	376.83
515.29	334.70
515.47	411.93
515.64	428.32
515.81	449.38
515.99	435.34
516.16	435.34
516.33	482.15
516.51	451.72
516.68	482.15
516.85	397.89
517.03	416.62
517.20	433.00
517.37	383.85
517.54	411.93
517.72	430.66
517.89	411.93
518.06	421.30
518.24	397.89
518.41	500.87
518.58	514.92
518.75	395.55
518.93	484.49
519.10	433.00
519.27	440.02
519.45	423.64
519.62	365.12
519.79	362.78
519.96	374.49
520.14	386.19
520.31	449.38
520.48	421.30
520.65	414.27
520.83	451.72
521.00	440.02
521.17	442.36
521.34	421.30
521.52	400.23
521.69	365.12
521.86	449.38
522.03	381.51
522.20	400.23
522.38	425.98
522.55	400.23
522.72	376.83
522.89	353.42
523.07	507.90
523.24	362.78
523.41	411.93
523.58	397.89
523.75	411.93
523.92	421.30
524.10	411.93
524.27	404.91
524.44	433.00
524.61	395.55
524.78	414.27
524.96	390.87
525.13	435.34
525.30	414.27
525.47	468.11
525.64	479.81
525.81	376.83
525.98	409.59
526.16	386.19
526.33	346.40
526.50	376.83
526.67	402.57
526.84	400.23
527.01	430.66
527.18	381.51
527.36	463.43
527.53	442.36
527.70	433.00
527.87	414.27
528.04	433.00
528.21	414.27
528.38	444.70
528.55	376.83
528.72	407.25
528.89	395.55
529.07	409.59
529.24	388.53
529.41	355.76
529.58	355.76
529.75	430.66
529.92	482.15
530.09	414.27
530.26	386.19
530.43	306.61
530.60	383.85
530.77	428.32
530.94	437.68
531.11	383.85
531.28	493.85
531.46	348.74
531.63	346.40
531.80	397.89
531.97	447.04
532.14	425.98
532.31	365.12
532.48	440.02
532.65	505.56
532.82	383.85
532.99	421.30
533.16	428.32
533.33	468.11
533.50	407.25
533.67	376.83
533.84	444.70
534.01	383.85
534.18	332.36
534.35	430.66
534.52	388.53
534.69	428.32
534.86	416.62
535.03	397.89
535.20	353.42
535.37	454.06
535.54	425.98
535.71	440.02
535.88	416.62
536.05	367.46
536.22	461.09
536.38	397.89
536.55	463.43
536.72	430.66
536.89	465.77
537.06	444.70
537.23	465.77
537.40	362.78
537.57	383.85
537.74	479.81
537.91	430.66
538.08	376.83
538.25	425.98
538.42	472.79
538.59	416.62
538.75	409.59
538.92	414.27
539.09	477.47
539.26	386.19
539.43	458.74
539.60	435.34
539.77	475.13
539.94	393.21
540.11	423.64
540.28	404.91
540.44	381.51
540.61	330.02
540.78	428.32
540.95	353.42
541.12	409.59
541.29	393.21
541.46	486.83
541.62	484.49
541.79	397.89
541.96	397.89
542.13	423.64
542.30	425.98
542.47	379.17
542.63	430.66
542.80	423.64
542.97	477.47
543.14	444.70
543.31	397.89
543.48	418.96
543.64	416.62
543.81	458.74
543.98	390.87
544.15	318.31
544.32	421.30
544.48	425.98
544.65	444.70
544.82	454.06
544.99	383.85
545.16	409.59
545.32	416.62
545.49	428.32
545.66	428.32
545.83	414.27
546.00	407.25
546.16	444.70
546.33	362.78
546.50	407.25
546.67	381.51
546.83	355.76
547.00	465.77
547.17	447.04
547.34	404.91
547.50	383.85
547.67	482.15
547.84	414.27
548.00	414.27
548.17	496.19
548.34	423.64
548.51	449.38
548.67	383.85
548.84	390.87
549.01	454.06
549.18	425.98
549.34	482.15
549.51	423.64
549.68	454.06
549.84	346.40
550.01	372.15
550.18	463.43
550.34	514.92
550.51	421.30
550.68	510.24
550.84	458.74
551.01	411.93
551.18	409.59
551.34	376.83
551.51	376.83
551.68	468.11
551.84	425.98
552.01	386.19
552.18	430.66
552.34	414.27
552.51	376.83
552.68	346.40
552.84	351.08
553.01	367.46
553.18	444.70
553.34	414.27
553.51	425.98
553.67	407.25
553.84	414.27
554.01	440.02
554.17	353.42
554.34	402.57
554.51	440.02
554.67	416.62
554.84	423.64
555.00	400.23
555.17	407.25
555.33	477.47
555.50	414.27
555.67	360.44
555.83	367.46
556.00	418.96
556.16	482.15
556.33	400.23
556.50	388.53
556.66	409.59
556.83	451.72
556.99	355.76
557.16	418.96
557.32	397.89
557.49	421.30
557.65	327.68
557.82	351.08
557.98	470.45
558.15	397.89
558.32	332.36
558.48	428.32
558.65	341.72
558.81	390.87
558.98	468.11
559.14	435.34
559.31	416.62
559.47	423.64
559.64	358.10
559.80	440.02
559.97	421.30
560.13	451.72
560.30	421.30
560.46	421.30
560.63	400.23
560.79	458.74
560.96	437.68
561.12	416.62
561.29	472.79
561.45	444.70
561.61	402.57
561.78	472.79
561.94	362.78
562.11	458.74
562.27	395.55
562.44	360.44
562.60	407.25
562.77	433.00
562.93	433.00
563.10	358.10
563.26	458.74
563.42	430.66
563.59	386.19
563.75	397.89
563.92	447.04
564.08	440.02
564.24	437.68
564.41	472.79
564.57	351.08
564.74	418.96
564.90	381.51
565.07	447.04
565.23	358.10
565.39	421.30
565.56	437.68
565.72	355.76
565.88	379.17
566.05	397.89
566.21	418.96
566.38	376.83
566.54	463.43
566.70	416.62
566.87	444.70
567.03	416.62
567.19	348.74
567.36	451.72
567.52	402.57
567.68	456.40
567.85	482.15
568.01	393.21
568.17	400.23
568.34	423.64
568.50	421.30
568.66	442.36
568.83	496.19
568.99	463.43
569.15	437.68
569.32	449.38
569.48	388.53
569.64	397.89
569.81	397.89
569.97	337.04
570.13	447.04
570.30	442.36
570.46	451.72
570.62	409.59
570.78	379.17
570.95	362.78
571.11	454.06
571.27	414.27
571.43	388.53
571.60	472.79
571.76	381.51
571.92	397.89
572.09	393.21
572.25	374.49
572.41	346.40
572.57	451.72
572.74	470.45
572.90	444.70
573.06	411.93
573.22	451.72
573.38	447.04
573.55	430.66
573.71	458.74
573.87	428.32
574.03	409.59
574.20	416.62
574.36	374.49
574.52	344.06
574.68	376.83
574.84	369.80
575.01	435.34
575.17	447.04
575.33	425.98
575.49	418.96
575.65	433.00
575.82	353.42
575.98	402.57
576.14	388.53
576.30	353.42
576.46	428.32
576.62	402.57
576.79	458.74
576.95	416.62
577.11	421.30
577.27	374.49
577.43	379.17
577.59	404.91
577.75	425.98
577.92	465.77
578.08	397.89
578.24	404.91
578.40	430.66
578.56	500.87
578.72	465.77
578.88	416.62
579.04	416.62
579.21	449.38
579.37	454.06
579.53	374.49
579.69	400.23
579.85	367.46
580.01	428.32
580.17	430.66
580.33	486.83
580.49	341.72
580.65	491.51
580.82	383.85
580.98	454.06
581.14	409.59
581.30	397.89
581.46	404.91
581.62	440.02
581.78	402.57
581.94	456.40
582.10	411.93
582.26	454.06
582.42	477.47
582.58	402.57
582.74	395.55
582.90	383.85
583.06	458.74
583.22	444.70
583.38	344.06
583.54	423.64
583.70	444.70
583.86	362.78
584.02	379.17
584.18	430.66
584.34	390.87
584.50	369.80
584.66	374.49
584.82	484.49
584.98	381.51
585.14	421.30
585.30	409.59
585.46	404.91
585.62	435.34
585.78	437.68
585.94	386.19
586.10	463.43
586.26	423.64
586.42	475.13
586.58	379.17
586.74	353.42
586.90	451.72
587.06	383.85
587.22	411.93
587.38	404.91
587.54	393.21
587.70	376.83
587.86	472.79
588.02	433.00
588.18	421.30
588.34	400.23
588.49	400.23
588.65	411.93
588.81	407.25
588.97	435.34
589.13	388.53
589.29	500.87
589.45	465.77
589.61	404.91
589.77	395.55
589.93	339.38
590.08	425.98
590.24	353.42
590.40	425.98
590.56	458.74
590.72	421.30
590.88	409.59
591.04	376.83
591.20	402.57
591.35	428.32
591.51	430.66
591.67	444.70
591.83	456.40
591.99	449.38
592.15	397.89
592.31	358.10
592.46	393.21
592.62	484.49
592.78	451.72
592.94	379.17
593.10	456.40
593.26	332.36
593.41	444.70
593.57	498.53
593.73	414.27
593.89	477.47
594.05	383.85
594.20	428.32
594.36	479.81
594.52	372.15
594.68	337.04
594.84	423.64
594.99	437.68
595.15	393.21
595.31	435.34
595.47	442.36
595.62	407.25
595.78	418.96
595.94	435.34
596.10	423.64
596.25	400.23
596.41	416.62
596.57	409.59
596.73	440.02
596.88	376.83
597.04	421.30
597.20	433.00
597.36	407.25
597.51	276.18
597.67	388.53
597.83	447.04
597.99	472.79
598.14	486.83
598.30	449.38
598.46	463.43
598.61	493.85
598.77	468.11
598.93	489.17
599.09	454.06
599.24	484.49
599.40	379.17
599.56	362.78
599.71	374.49
599.87	390.87
600.03	418.96
600.18	468.11
600.34	418.96
600.50	400.23
600.65	407.25
600.81	451.72
600.97	400.23
601.12	454.06
601.28	444.70
601.44	440.02
601.59	423.64
601.75	407.25
601.91	411.93
602.06	428.32
602.22	444.70
602.37	465.77
602.53	454.06
602.69	416.62
602.84	416.62
603.00	395.55
603.16	484.49
603.31	507.90
603.47	404.91
603.62	468.11
603.78	353.42
603.94	421.30
604.09	372.15
604.25	414.27
604.40	388.53
604.56	379.17
604.71	367.46
604.87	395.55
605.03	400.23
605.18	402.57
605.34	470.45
605.49	423.64
605.65	435.34
605.80	402.57
605.96	374.49
606.12	442.36
606.27	449.38
606.43	411.93
606.58	468.11
606.74	397.89
606.89	353.42
607.05	454.06
607.20	468.11
607.36	428.32
607.51	404.91
607.67	416.62
607.82	390.87
607.98	484.49
608.13	414.27
608.29	416.62
608.44	379.17
608.60	437.68
608.75	425.98
608.91	421.30
609.06	407.25
609.22	425.98
609.37	442.36
609.53	386.19
609.68	386.19
609.84	374.49
609.99	390.87
610.15	386.19
