SpectraSuite Data File
++++++++++++++++++++++++++++++++++++
Date: Fri Oct 25 12:10:06 EDT 2013
User: price-jones
Dark Spectrum Present: No
Reference Spectrum Present: No
Number of Sampled Component Spectra: 1
Spectrometers: USB2+H05261
Integration Time (usec): 100000 (USB2+H05261)
Spectra Averaged: 1 (USB2+H05261)
Boxcar Smoothing: 0 (USB2+H05261)
Correct for Electrical Dark: No (USB2+H05261)
Strobe/Lamp Enabled: No (USB2+H05261)
Correct for Detector Non-linearity: No (USB2+H05261)
Correct for Stray Light: No (USB2+H05261)
Number of Pixels in Processed Spectrum: 2048
>>>>>Begin Processed Spectral Data<<<<<
365.73	365.12
365.92	365.12
366.12	365.12
366.32	208.31
366.52	301.93
366.72	276.18
366.91	194.26
367.11	203.63
367.31	212.99
367.51	191.92
367.70	224.69
367.90	236.39
368.10	283.20
368.30	255.12
368.49	278.52
368.69	367.46
368.89	339.38
369.09	191.92
369.28	280.86
369.48	234.05
369.68	280.86
369.87	285.55
370.07	290.23
370.27	339.38
370.47	325.33
370.66	339.38
370.86	407.25
371.06	383.85
371.25	433.00
371.45	418.96
371.65	437.68
371.84	433.00
372.04	355.76
372.24	341.72
372.44	376.83
372.63	386.19
372.83	411.93
373.03	411.93
373.22	334.70
373.42	348.74
373.62	472.79
373.81	411.93
374.01	454.06
374.21	442.36
374.40	447.04
374.60	456.40
374.79	393.21
374.99	358.10
375.19	435.34
375.38	451.72
375.58	440.02
375.78	409.59
375.97	442.36
376.17	458.74
376.37	444.70
376.56	367.46
376.76	433.00
376.95	397.89
377.15	400.23
377.35	479.81
377.54	418.96
377.74	386.19
377.93	365.12
378.13	381.51
378.33	456.40
378.52	428.32
378.72	489.17
378.91	423.64
379.11	454.06
379.31	390.87
379.50	458.74
379.70	416.62
379.89	414.27
380.09	430.66
380.28	414.27
380.48	407.25
380.68	395.55
380.87	299.59
381.07	376.83
381.26	470.45
381.46	451.72
381.65	390.87
381.85	416.62
382.04	423.64
382.24	430.66
382.43	383.85
382.63	369.80
382.83	388.53
383.02	465.77
383.22	372.15
383.41	416.62
383.61	402.57
383.80	372.15
384.00	458.74
384.19	416.62
384.39	397.89
384.58	395.55
384.78	428.32
384.97	435.34
385.17	496.19
385.36	435.34
385.56	404.91
385.75	402.57
385.95	416.62
386.14	409.59
386.34	425.98
386.53	416.62
386.72	358.10
386.92	393.21
387.11	404.91
387.31	435.34
387.50	397.89
387.70	348.74
387.89	442.36
388.09	365.12
388.28	348.74
388.48	407.25
388.67	484.49
388.86	440.02
389.06	388.53
389.25	367.46
389.45	484.49
389.64	393.21
389.84	351.08
390.03	449.38
390.22	447.04
390.42	433.00
390.61	360.44
390.81	360.44
391.00	360.44
391.19	423.64
391.39	423.64
391.58	421.30
391.78	404.91
391.97	411.93
392.16	421.30
392.36	510.24
392.55	454.06
392.75	383.85
392.94	397.89
393.13	425.98
393.33	383.85
393.52	428.32
393.71	346.40
393.91	411.93
394.10	395.55
394.29	390.87
394.49	386.19
394.68	369.80
394.88	397.89
395.07	433.00
395.26	437.68
395.46	404.91
395.65	447.04
395.84	472.79
396.04	428.32
396.23	428.32
396.42	367.46
396.62	337.04
396.81	440.02
397.00	388.53
397.19	463.43
397.39	454.06
397.58	372.15
397.77	416.62
397.97	421.30
398.16	407.25
398.35	423.64
398.55	475.13
398.74	411.93
398.93	449.38
399.12	416.62
399.32	458.74
399.51	334.70
399.70	463.43
399.90	390.87
400.09	362.78
400.28	407.25
400.47	409.59
400.67	451.72
400.86	372.15
401.05	390.87
401.24	444.70
401.44	423.64
401.63	414.27
401.82	437.68
402.01	421.30
402.21	367.46
402.40	397.89
402.59	444.70
402.78	376.83
402.97	374.49
403.17	388.53
403.36	409.59
403.55	411.93
403.74	397.89
403.93	358.10
404.13	461.09
404.32	360.44
404.51	351.08
404.70	388.53
404.89	362.78
405.09	404.91
405.28	381.51
405.47	442.36
405.66	451.72
405.85	433.00
406.05	468.11
406.24	369.80
406.43	397.89
406.62	374.49
406.81	435.34
407.00	381.51
407.20	472.79
407.39	404.91
407.58	393.21
407.77	433.00
407.96	482.15
408.15	425.98
408.34	409.59
408.54	390.87
408.73	358.10
408.92	433.00
409.11	514.92
409.30	414.27
409.49	390.87
409.68	414.27
409.87	362.78
410.07	344.06
410.26	421.30
410.45	475.13
410.64	425.98
410.83	411.93
411.02	308.95
411.21	547.69
411.40	447.04
411.59	388.53
411.78	355.76
411.98	407.25
412.17	449.38
412.36	372.15
412.55	351.08
412.74	388.53
412.93	409.59
413.12	421.30
413.31	454.06
413.50	461.09
413.69	374.49
413.88	484.49
414.07	435.34
414.26	428.32
414.45	379.17
414.64	386.19
414.83	388.53
415.02	435.34
415.22	395.55
415.41	402.57
415.60	365.12
415.79	444.70
415.98	433.00
416.17	475.13
416.36	430.66
416.55	358.10
416.74	395.55
416.93	395.55
417.12	407.25
417.31	313.63
417.50	409.59
417.69	388.53
417.88	409.59
418.07	397.89
418.26	332.36
418.45	430.66
418.64	482.15
418.83	510.24
419.02	435.34
419.21	395.55
419.39	351.08
419.58	409.59
419.77	395.55
419.96	397.89
420.15	383.85
420.34	369.80
420.53	348.74
420.72	351.08
420.91	360.44
421.10	344.06
421.29	339.38
421.48	414.27
421.67	404.91
421.86	395.55
422.05	393.21
422.24	374.49
422.43	395.55
422.61	461.09
422.80	393.21
422.99	400.23
423.18	428.32
423.37	437.68
423.56	411.93
423.75	437.68
423.94	442.36
424.13	320.65
424.32	400.23
424.50	416.62
424.69	374.49
424.88	456.40
425.07	440.02
425.26	418.96
425.45	411.93
425.64	451.72
425.83	430.66
426.01	477.47
426.20	379.17
426.39	402.57
426.58	463.43
426.77	409.59
426.96	409.59
427.15	383.85
427.33	332.36
427.52	442.36
427.71	362.78
427.90	463.43
428.09	379.17
428.28	372.15
428.46	330.02
428.65	411.93
428.84	425.98
429.03	479.81
429.22	383.85
429.40	414.27
429.59	365.12
429.78	407.25
429.97	362.78
430.16	463.43
430.34	341.72
430.53	409.59
430.72	470.45
430.91	425.98
431.10	407.25
431.28	430.66
431.47	397.89
431.66	397.89
431.85	372.15
432.03	425.98
432.22	414.27
432.41	362.78
432.60	458.74
432.79	348.74
432.97	421.30
433.16	407.25
433.35	404.91
433.54	379.17
433.72	418.96
433.91	358.10
434.10	435.34
434.28	404.91
434.47	409.59
434.66	414.27
434.85	444.70
435.03	395.55
435.22	421.30
435.41	435.34
435.59	393.21
435.78	388.53
435.97	362.78
436.16	451.72
436.34	421.30
436.53	463.43
436.72	423.64
436.90	442.36
437.09	470.45
437.28	393.21
437.46	383.85
437.65	414.27
437.84	402.57
438.02	433.00
438.21	397.89
438.40	404.91
438.58	379.17
438.77	411.93
438.96	379.17
439.14	421.30
439.33	379.17
439.52	440.02
439.70	428.32
439.89	423.64
440.08	411.93
440.26	418.96
440.45	421.30
440.63	454.06
440.82	411.93
441.01	400.23
441.19	409.59
441.38	367.46
441.57	409.59
441.75	430.66
441.94	479.81
442.12	425.98
442.31	470.45
442.50	440.02
442.68	470.45
442.87	409.59
443.05	339.38
443.24	440.02
443.43	351.08
443.61	458.74
443.80	430.66
443.98	437.68
444.17	393.21
444.35	433.00
444.54	395.55
444.73	418.96
444.91	418.96
445.10	414.27
445.28	449.38
445.47	421.30
445.65	404.91
445.84	348.74
446.02	451.72
446.21	437.68
446.39	423.64
446.58	425.98
446.77	393.21
446.95	374.49
447.14	454.06
447.32	444.70
447.51	440.02
447.69	383.85
447.88	447.04
448.06	402.57
448.25	444.70
448.43	435.34
448.62	411.93
448.80	524.28
448.99	444.70
449.17	409.59
449.36	344.06
449.54	465.77
449.73	442.36
449.91	440.02
450.10	358.10
450.28	475.13
450.46	468.11
450.65	519.60
450.83	449.38
451.02	447.04
451.20	400.23
451.39	440.02
451.57	414.27
451.76	358.10
451.94	306.61
452.13	449.38
452.31	456.40
452.49	449.38
452.68	414.27
452.86	414.27
453.05	428.32
453.23	456.40
453.42	358.10
453.60	381.51
453.78	367.46
453.97	360.44
454.15	372.15
454.34	395.55
454.52	435.34
454.70	421.30
454.89	414.27
455.07	400.23
455.26	425.98
455.44	414.27
455.62	456.40
455.81	409.59
455.99	458.74
456.17	442.36
456.36	444.70
456.54	383.85
456.73	444.70
456.91	421.30
457.09	430.66
457.28	440.02
457.46	390.87
457.64	442.36
457.83	484.49
458.01	383.85
458.19	428.32
458.38	461.09
458.56	496.19
458.74	301.93
458.93	369.80
459.11	437.68
459.29	353.42
459.48	465.77
459.66	402.57
459.84	477.47
460.03	479.81
460.21	411.93
460.39	414.27
460.57	442.36
460.76	381.51
460.94	435.34
461.12	468.11
461.31	414.27
461.49	369.80
461.67	440.02
461.85	404.91
462.04	463.43
462.22	809.83
462.40	430.66
462.59	430.66
462.77	407.25
462.95	428.32
463.13	411.93
463.32	386.19
463.50	472.79
463.68	447.04
463.86	435.34
464.05	397.89
464.23	390.87
464.41	470.45
464.59	358.10
464.78	425.98
464.96	447.04
465.14	411.93
465.32	451.72
465.50	404.91
465.69	372.15
465.87	376.83
466.05	407.25
466.23	344.06
466.41	442.36
466.60	423.64
466.78	404.91
466.96	479.81
467.14	425.98
467.32	407.25
467.51	351.08
467.69	447.04
467.87	379.17
468.05	325.33
468.23	451.72
468.41	437.68
468.60	435.34
468.78	386.19
468.96	337.04
469.14	451.72
469.32	346.40
469.50	451.72
469.69	449.38
469.87	393.21
470.05	355.76
470.23	430.66
470.41	358.10
470.59	428.32
470.77	444.70
470.95	451.72
471.14	484.49
471.32	332.36
471.50	521.94
471.68	433.00
471.86	468.11
472.04	381.51
472.22	369.80
472.40	430.66
472.58	369.80
472.77	451.72
472.95	433.00
473.13	479.81
473.31	369.80
473.49	383.85
473.67	383.85
473.85	425.98
474.03	397.89
474.21	435.34
474.39	400.23
474.57	442.36
474.75	411.93
474.93	489.17
475.12	461.09
475.30	390.87
475.48	369.80
475.66	395.55
475.84	435.34
476.02	369.80
476.20	416.62
476.38	404.91
476.56	430.66
476.74	444.70
476.92	440.02
477.10	395.55
477.28	428.32
477.46	362.78
477.64	451.72
477.82	369.80
478.00	383.85
478.18	397.89
478.36	400.23
478.54	369.80
478.72	447.04
478.90	402.57
479.08	411.93
479.26	435.34
479.44	397.89
479.62	418.96
479.80	430.66
479.98	425.98
480.16	369.80
480.34	400.23
480.52	365.12
480.70	395.55
480.88	362.78
481.06	397.89
481.24	404.91
481.41	451.72
481.59	425.98
481.77	395.55
481.95	397.89
482.13	461.09
482.31	468.11
482.49	369.80
482.67	383.85
482.85	365.12
483.03	423.64
483.21	435.34
483.39	372.15
483.57	397.89
483.74	451.72
483.92	468.11
484.10	416.62
484.28	416.62
484.46	484.49
484.64	360.44
484.82	404.91
485.00	409.59
485.18	414.27
485.35	388.53
485.53	301.93
485.71	425.98
485.89	355.76
486.07	402.57
486.25	379.17
486.43	388.53
486.61	461.09
486.78	397.89
486.96	379.17
487.14	358.10
487.32	351.08
487.50	346.40
487.68	390.87
487.85	430.66
488.03	458.74
488.21	393.21
488.39	458.74
488.57	440.02
488.75	397.89
488.92	514.92
489.10	365.12
489.28	463.43
489.46	381.51
489.64	416.62
489.81	400.23
489.99	367.46
490.17	407.25
490.35	472.79
490.53	367.46
490.70	400.23
490.88	451.72
491.06	423.64
491.24	390.87
491.41	397.89
491.59	444.70
491.77	388.53
491.95	425.98
492.13	440.02
492.30	390.87
492.48	388.53
492.66	428.32
492.84	430.66
493.01	353.42
493.19	440.02
493.37	475.13
493.54	421.30
493.72	337.04
493.90	435.34
494.08	416.62
494.25	379.17
494.43	418.96
494.61	421.30
494.79	388.53
494.96	393.21
495.14	421.30
495.32	425.98
495.49	379.17
495.67	381.51
495.85	437.68
496.02	421.30
496.20	430.66
496.38	407.25
496.55	463.43
496.73	418.96
496.91	428.32
497.09	505.56
497.26	397.89
497.44	423.64
497.62	388.53
497.79	437.68
497.97	400.23
498.14	447.04
498.32	369.80
498.50	404.91
498.67	404.91
498.85	465.77
499.03	409.59
499.20	376.83
499.38	400.23
499.56	402.57
499.73	423.64
499.91	500.87
500.08	437.68
500.26	358.10
500.44	372.15
500.61	447.04
500.79	395.55
500.97	435.34
501.14	449.38
501.32	414.27
501.49	496.19
501.67	461.09
501.84	369.80
502.02	346.40
502.20	421.30
502.37	416.62
502.55	372.15
502.72	407.25
502.90	437.68
503.07	447.04
503.25	400.23
503.43	428.32
503.60	411.93
503.78	416.62
503.95	435.34
504.13	379.17
504.30	381.51
504.48	397.89
504.65	435.34
504.83	414.27
505.01	386.19
505.18	496.19
505.36	479.81
505.53	365.12
505.71	367.46
505.88	449.38
506.06	327.68
506.23	407.25
506.41	465.77
506.58	322.99
506.76	360.44
506.93	472.79
507.11	423.64
507.28	411.93
507.46	393.21
507.63	447.04
507.81	435.34
507.98	332.36
508.16	369.80
508.33	437.68
508.50	435.34
508.68	411.93
508.85	433.00
509.03	444.70
509.20	418.96
509.38	442.36
509.55	475.13
509.73	437.68
509.90	456.40
510.08	430.66
510.25	402.57
510.42	376.83
510.60	400.23
510.77	383.85
510.95	444.70
511.12	472.79
511.30	369.80
511.47	369.80
511.64	430.66
511.82	402.57
511.99	372.15
512.17	374.49
512.34	379.17
512.51	355.76
512.69	355.76
512.86	404.91
513.04	416.62
513.21	463.43
513.38	393.21
513.56	447.04
513.73	400.23
513.90	423.64
514.08	433.00
514.25	442.36
514.43	397.89
514.60	386.19
514.77	416.62
514.95	430.66
515.12	472.79
515.29	362.78
515.47	451.72
515.64	421.30
515.81	360.44
515.99	393.21
516.16	428.32
516.33	411.93
516.51	411.93
516.68	421.30
516.85	437.68
517.03	451.72
517.20	393.21
517.37	367.46
517.54	442.36
517.72	470.45
517.89	428.32
518.06	430.66
518.24	393.21
518.41	423.64
518.58	433.00
518.75	461.09
518.93	400.23
519.10	348.74
519.27	400.23
519.45	451.72
519.62	482.15
519.79	369.80
519.96	395.55
520.14	395.55
520.31	332.36
520.48	355.76
520.65	444.70
520.83	395.55
521.00	430.66
521.17	477.47
521.34	409.59
521.52	397.89
521.69	433.00
521.86	358.10
522.03	428.32
522.20	449.38
522.38	435.34
522.55	414.27
522.72	369.80
522.89	423.64
523.07	360.44
523.24	367.46
523.41	493.85
523.58	437.68
523.75	428.32
523.92	369.80
524.10	444.70
524.27	390.87
524.44	449.38
524.61	365.12
524.78	400.23
524.96	409.59
525.13	411.93
525.30	442.36
525.47	463.43
525.64	411.93
525.81	400.23
525.98	486.83
526.16	463.43
526.33	325.33
526.50	395.55
526.67	451.72
526.84	421.30
527.01	353.42
527.18	433.00
527.36	430.66
527.53	437.68
527.70	437.68
527.87	430.66
528.04	423.64
528.21	477.47
528.38	414.27
528.55	470.45
528.72	425.98
528.89	393.21
529.07	369.80
529.24	367.46
529.41	423.64
529.58	454.06
529.75	491.51
529.92	416.62
530.09	404.91
530.26	397.89
530.43	376.83
530.60	470.45
530.77	381.51
530.94	360.44
531.11	388.53
531.28	395.55
531.46	390.87
531.63	461.09
531.80	507.90
531.97	447.04
532.14	386.19
532.31	463.43
532.48	477.47
532.65	437.68
532.82	437.68
532.99	369.80
533.16	447.04
533.33	451.72
533.50	358.10
533.67	418.96
533.84	465.77
534.01	409.59
534.18	365.12
534.35	402.57
534.52	433.00
534.69	491.51
534.86	423.64
535.03	414.27
535.20	449.38
535.37	503.22
535.54	379.17
535.71	409.59
535.88	489.17
536.05	372.15
536.22	433.00
536.38	444.70
536.55	418.96
536.72	496.19
536.89	393.21
537.06	440.02
537.23	332.36
537.40	390.87
537.57	418.96
537.74	425.98
537.91	379.17
538.08	435.34
538.25	383.85
538.42	482.15
538.59	294.91
538.75	440.02
538.92	299.59
539.09	404.91
539.26	411.93
539.43	395.55
539.60	381.51
539.77	404.91
539.94	514.92
540.11	468.11
540.28	444.70
540.44	414.27
540.61	440.02
540.78	407.25
540.95	444.70
541.12	543.00
541.29	486.83
541.46	421.30
541.62	463.43
541.79	407.25
541.96	379.17
542.13	411.93
542.30	355.76
542.47	400.23
542.63	395.55
542.80	418.96
542.97	440.02
543.14	397.89
543.31	393.21
543.48	395.55
543.64	407.25
543.81	327.68
543.98	423.64
544.15	379.17
544.32	433.00
544.48	414.27
544.65	374.49
544.82	355.76
544.99	465.77
545.16	454.06
545.32	397.89
545.49	369.80
545.66	390.87
545.83	421.30
546.00	414.27
546.16	390.87
546.33	409.59
546.50	456.40
546.67	418.96
546.83	458.74
547.00	449.38
547.17	435.34
547.34	407.25
547.50	367.46
547.67	428.32
547.84	421.30
548.00	404.91
548.17	386.19
548.34	437.68
548.51	362.78
548.67	430.66
548.84	409.59
549.01	388.53
549.18	421.30
549.34	348.74
549.51	491.51
549.68	423.64
549.84	437.68
550.01	348.74
550.18	444.70
550.34	395.55
550.51	421.30
550.68	484.49
550.84	386.19
551.01	463.43
551.18	395.55
551.34	416.62
551.51	355.76
551.68	395.55
551.84	477.47
552.01	358.10
552.18	393.21
552.34	386.19
552.51	411.93
552.68	397.89
552.84	390.87
553.01	379.17
553.18	402.57
553.34	402.57
553.51	383.85
553.67	393.21
553.84	416.62
554.01	477.47
554.17	454.06
554.34	386.19
554.51	395.55
554.67	402.57
554.84	440.02
555.00	421.30
555.17	360.44
555.33	411.93
555.50	386.19
555.67	470.45
555.83	379.17
556.00	428.32
556.16	554.71
556.33	440.02
556.50	367.46
556.66	395.55
556.83	393.21
556.99	437.68
557.16	386.19
557.32	304.27
557.49	442.36
557.65	383.85
557.82	381.51
557.98	428.32
558.15	423.64
558.32	444.70
558.48	348.74
558.65	376.83
558.81	456.40
558.98	430.66
559.14	409.59
559.31	423.64
559.47	388.53
559.64	461.09
559.80	470.45
559.97	409.59
560.13	435.34
560.30	381.51
560.46	433.00
560.63	334.70
560.79	299.59
560.96	372.15
561.12	369.80
561.29	367.46
561.45	444.70
561.61	365.12
561.78	444.70
561.94	425.98
562.11	416.62
562.27	397.89
562.44	355.76
562.60	416.62
562.77	468.11
562.93	390.87
563.10	423.64
563.26	449.38
563.42	435.34
563.59	454.06
563.75	355.76
563.92	416.62
564.08	472.79
564.24	451.72
564.41	425.98
564.57	407.25
564.74	381.51
564.90	458.74
565.07	407.25
565.23	423.64
565.39	365.12
565.56	390.87
565.72	421.30
565.88	433.00
566.05	421.30
566.21	416.62
566.38	430.66
566.54	421.30
566.70	437.68
566.87	433.00
567.03	435.34
567.19	454.06
567.36	475.13
567.52	404.91
567.68	454.06
567.85	463.43
568.01	430.66
568.17	407.25
568.34	433.00
568.50	444.70
568.66	379.17
568.83	498.53
568.99	418.96
569.15	470.45
569.32	407.25
569.48	461.09
569.64	465.77
569.81	440.02
569.97	376.83
570.13	442.36
570.30	440.02
570.46	423.64
570.62	411.93
570.78	451.72
570.95	416.62
571.11	433.00
571.27	386.19
571.43	435.34
571.60	463.43
571.76	395.55
571.92	355.76
572.09	315.97
572.25	479.81
572.41	393.21
572.57	444.70
572.74	472.79
572.90	383.85
573.06	388.53
573.22	360.44
573.38	451.72
573.55	433.00
573.71	454.06
573.87	524.28
574.03	463.43
574.20	479.81
574.36	421.30
574.52	390.87
574.68	425.98
574.84	447.04
575.01	437.68
575.17	421.30
575.33	379.17
575.49	449.38
575.65	393.21
575.82	425.98
575.98	416.62
576.14	475.13
576.30	447.04
576.46	388.53
576.62	353.42
576.79	433.00
576.95	404.91
577.11	456.40
577.27	360.44
577.43	409.59
577.59	447.04
577.75	379.17
577.92	409.59
578.08	409.59
578.24	454.06
578.40	449.38
578.56	444.70
578.72	428.32
578.88	463.43
579.04	400.23
579.21	402.57
579.37	470.45
579.53	451.72
579.69	388.53
579.85	372.15
580.01	440.02
580.17	430.66
580.33	470.45
580.49	435.34
580.65	395.55
580.82	498.53
580.98	423.64
581.14	407.25
581.30	449.38
581.46	428.32
581.62	479.81
581.78	421.30
581.94	444.70
582.10	327.68
582.26	458.74
582.42	397.89
582.58	360.44
582.74	430.66
582.90	395.55
583.06	447.04
583.22	379.17
583.38	435.34
583.54	386.19
583.70	465.77
583.86	416.62
584.02	414.27
584.18	416.62
584.34	318.31
584.50	397.89
584.66	418.96
584.82	379.17
584.98	360.44
585.14	402.57
585.30	475.13
585.46	442.36
585.62	437.68
585.78	482.15
585.94	477.47
586.10	456.40
586.26	430.66
586.42	393.21
586.58	437.68
586.74	468.11
586.90	428.32
587.06	351.08
587.22	444.70
587.38	339.38
587.54	353.42
587.70	379.17
587.86	477.47
588.02	407.25
588.18	440.02
588.34	435.34
588.49	388.53
588.65	353.42
588.81	390.87
588.97	330.02
589.13	400.23
589.29	468.11
589.45	449.38
589.61	402.57
589.77	411.93
589.93	374.49
590.08	491.51
590.24	447.04
590.40	362.78
590.56	407.25
590.72	416.62
590.88	397.89
591.04	428.32
591.20	400.23
591.35	468.11
591.51	414.27
591.67	435.34
591.83	435.34
591.99	402.57
592.15	458.74
592.31	414.27
592.46	444.70
592.62	437.68
592.78	442.36
592.94	437.68
593.10	407.25
593.26	353.42
593.41	390.87
593.57	400.23
593.73	402.57
593.89	458.74
594.05	463.43
594.20	423.64
594.36	482.15
594.52	425.98
594.68	374.49
594.84	418.96
594.99	456.40
595.15	458.74
595.31	404.91
595.47	507.90
595.62	411.93
595.78	451.72
595.94	404.91
596.10	493.85
596.25	428.32
596.41	472.79
596.57	421.30
596.73	386.19
596.88	390.87
597.04	372.15
597.20	433.00
597.36	463.43
597.51	454.06
597.67	416.62
597.83	468.11
597.99	416.62
598.14	458.74
598.30	447.04
598.46	411.93
598.61	411.93
598.77	395.55
598.93	428.32
599.09	402.57
599.24	425.98
599.40	465.77
599.56	362.78
599.71	379.17
599.87	397.89
600.03	388.53
600.18	400.23
600.34	435.34
600.50	369.80
600.65	360.44
600.81	421.30
600.97	418.96
601.12	423.64
601.28	451.72
601.44	498.53
601.59	440.02
601.75	465.77
601.91	414.27
602.06	435.34
602.22	418.96
602.37	493.85
602.53	407.25
602.69	353.42
602.84	418.96
603.00	456.40
603.16	514.92
603.31	416.62
603.47	376.83
603.62	395.55
603.78	472.79
603.94	470.45
604.09	479.81
604.25	482.15
604.40	493.85
604.56	423.64
604.71	393.21
604.87	423.64
605.03	454.06
605.18	351.08
605.34	421.30
605.49	351.08
605.65	383.85
605.80	447.04
605.96	430.66
606.12	437.68
606.27	402.57
606.43	458.74
606.58	465.77
606.74	374.49
606.89	411.93
607.05	395.55
607.20	435.34
607.36	381.51
607.51	440.02
607.67	421.30
607.82	437.68
607.98	479.81
608.13	465.77
608.29	376.83
608.44	442.36
608.60	372.15
608.75	449.38
608.91	444.70
609.06	447.04
609.22	507.90
609.37	409.59
609.53	358.10
609.68	414.27
609.84	407.25
609.99	353.42
610.15	475.13
