SpectraSuite Data File
++++++++++++++++++++++++++++++++++++
Date: Fri Oct 25 12:10:45 EDT 2013
User: price-jones
Dark Spectrum Present: No
Reference Spectrum Present: No
Number of Sampled Component Spectra: 1
Spectrometers: USB2+H05261
Integration Time (usec): 100000 (USB2+H05261)
Spectra Averaged: 1 (USB2+H05261)
Boxcar Smoothing: 0 (USB2+H05261)
Correct for Electrical Dark: No (USB2+H05261)
Strobe/Lamp Enabled: No (USB2+H05261)
Correct for Detector Non-linearity: No (USB2+H05261)
Correct for Stray Light: No (USB2+H05261)
Number of Pixels in Processed Spectrum: 2048
>>>>>Begin Processed Spectral Data<<<<<
365.73	285.55
365.92	285.55
366.12	285.55
366.32	304.27
366.52	278.52
366.72	273.84
366.91	255.12
367.11	184.90
367.31	203.63
367.51	163.84
367.70	224.69
367.90	278.52
368.10	243.42
368.30	259.80
368.49	231.71
368.69	278.52
368.89	234.05
369.09	250.44
369.28	255.12
369.48	252.78
369.68	327.68
369.87	271.50
370.07	278.52
370.27	327.68
370.47	301.93
370.66	245.76
370.86	353.42
371.06	397.89
371.25	416.62
371.45	355.76
371.65	362.78
371.84	341.72
372.04	318.31
372.24	369.80
372.44	390.87
372.63	404.91
372.83	442.36
373.03	369.80
373.22	386.19
373.42	507.90
373.62	409.59
373.81	409.59
374.01	388.53
374.21	407.25
374.40	390.87
374.60	461.09
374.79	433.00
374.99	390.87
375.19	358.10
375.38	444.70
375.58	395.55
375.78	430.66
375.97	407.25
376.17	512.58
376.37	402.57
376.56	437.68
376.76	388.53
376.95	395.55
377.15	386.19
377.35	400.23
377.54	461.09
377.74	421.30
377.93	374.49
378.13	383.85
378.33	456.40
378.52	463.43
378.72	430.66
378.91	468.11
379.11	444.70
379.31	369.80
379.50	381.51
379.70	454.06
379.89	397.89
380.09	358.10
380.28	367.46
380.48	465.77
380.68	425.98
380.87	332.36
381.07	409.59
381.26	388.53
381.46	358.10
381.65	318.31
381.85	397.89
382.04	435.34
382.24	437.68
382.43	402.57
382.63	294.91
382.83	327.68
383.02	493.85
383.22	468.11
383.41	425.98
383.61	395.55
383.80	418.96
384.00	468.11
384.19	367.46
384.39	444.70
384.58	341.72
384.78	430.66
384.97	442.36
385.17	360.44
385.36	402.57
385.56	365.12
385.75	376.83
385.95	393.21
386.14	393.21
386.34	421.30
386.53	440.02
386.72	447.04
386.92	444.70
387.11	362.78
387.31	339.38
387.50	411.93
387.70	355.76
387.89	407.25
388.09	454.06
388.28	362.78
388.48	402.57
388.67	418.96
388.86	416.62
389.06	421.30
389.25	458.74
389.45	463.43
389.64	369.80
389.84	461.09
390.03	433.00
390.22	430.66
390.42	372.15
390.61	423.64
390.81	411.93
391.00	435.34
391.19	444.70
391.39	430.66
391.58	418.96
391.78	430.66
391.97	423.64
392.16	477.47
392.36	435.34
392.55	383.85
392.75	491.51
392.94	388.53
393.13	444.70
393.33	390.87
393.52	400.23
393.71	428.32
393.91	484.49
394.10	388.53
394.29	362.78
394.49	355.76
394.68	400.23
394.88	458.74
395.07	400.23
395.26	351.08
395.46	447.04
395.65	386.19
395.84	376.83
396.04	425.98
396.23	440.02
396.42	341.72
396.62	388.53
396.81	449.38
397.00	418.96
397.19	461.09
397.39	421.30
397.58	402.57
397.77	402.57
397.97	397.89
398.16	437.68
398.35	381.51
398.55	505.56
398.74	423.64
398.93	444.70
399.12	367.46
399.32	479.81
399.51	369.80
399.70	379.17
399.90	423.64
400.09	461.09
400.28	383.85
400.47	379.17
400.67	351.08
400.86	400.23
401.05	461.09
401.24	411.93
401.44	400.23
401.63	421.30
401.82	421.30
402.01	409.59
402.21	409.59
402.40	386.19
402.59	451.72
402.78	433.00
402.97	353.42
403.17	374.49
403.36	433.00
403.55	425.98
403.74	346.40
403.93	437.68
404.13	376.83
404.32	383.85
404.51	449.38
404.70	437.68
404.89	409.59
405.09	383.85
405.28	458.74
405.47	402.57
405.66	353.42
405.85	416.62
406.05	430.66
406.24	433.00
406.43	428.32
406.62	355.76
406.81	411.93
407.00	358.10
407.20	388.53
407.39	442.36
407.58	409.59
407.77	433.00
407.96	465.77
408.15	414.27
408.34	348.74
408.54	397.89
408.73	351.08
408.92	414.27
409.11	367.46
409.30	447.04
409.49	334.70
409.68	388.53
409.87	451.72
410.07	400.23
410.26	411.93
410.45	388.53
410.64	404.91
410.83	404.91
411.02	451.72
411.21	409.59
411.40	402.57
411.59	383.85
411.78	435.34
411.98	440.02
412.17	339.38
412.36	397.89
412.55	407.25
412.74	463.43
412.93	444.70
413.12	400.23
413.31	397.89
413.50	428.32
413.69	458.74
413.88	433.00
414.07	430.66
414.26	358.10
414.45	482.15
414.64	322.99
414.83	388.53
415.02	423.64
415.22	435.34
415.41	376.83
415.60	365.12
415.79	395.55
415.98	465.77
416.17	418.96
416.36	404.91
416.55	414.27
416.74	411.93
416.93	465.77
417.12	397.89
417.31	362.78
417.50	365.12
417.69	435.34
417.88	482.15
418.07	411.93
418.26	477.47
418.45	411.93
418.64	376.83
418.83	397.89
419.02	306.61
419.21	381.51
419.39	393.21
419.58	442.36
419.77	386.19
419.96	470.45
420.15	440.02
420.34	327.68
420.53	407.25
420.72	393.21
420.91	388.53
421.10	454.06
421.29	428.32
421.48	381.51
421.67	421.30
421.86	433.00
422.05	433.00
422.24	402.57
422.43	353.42
422.61	489.17
422.80	414.27
422.99	451.72
423.18	339.38
423.37	477.47
423.56	407.25
423.75	442.36
423.94	393.21
424.13	433.00
424.32	442.36
424.50	402.57
424.69	428.32
424.88	404.91
425.07	397.89
425.26	369.80
425.45	496.19
425.64	444.70
425.83	393.21
426.01	454.06
426.20	407.25
426.39	355.76
426.58	374.49
426.77	449.38
426.96	397.89
427.15	425.98
427.33	435.34
427.52	423.64
427.71	404.91
427.90	411.93
428.09	400.23
428.28	421.30
428.46	451.72
428.65	404.91
428.84	397.89
429.03	414.27
429.22	383.85
429.40	397.89
429.59	409.59
429.78	447.04
429.97	386.19
430.16	372.15
430.34	372.15
430.53	374.49
430.72	409.59
430.91	411.93
431.10	505.56
431.28	433.00
431.47	440.02
431.66	411.93
431.85	390.87
432.03	430.66
432.22	421.30
432.41	376.83
432.60	425.98
432.79	372.15
432.97	397.89
433.16	397.89
433.35	381.51
433.54	454.06
433.72	395.55
433.91	414.27
434.10	425.98
434.28	383.85
434.47	304.27
434.66	435.34
434.85	423.64
435.03	437.68
435.22	451.72
435.41	442.36
435.59	444.70
435.78	416.62
435.97	351.08
436.16	451.72
436.34	418.96
436.53	388.53
436.72	416.62
436.90	421.30
437.09	421.30
437.28	425.98
437.46	322.99
437.65	423.64
437.84	444.70
438.02	449.38
438.21	418.96
438.40	400.23
438.58	444.70
438.77	379.17
438.96	437.68
439.14	348.74
439.33	482.15
439.52	400.23
439.70	395.55
439.89	461.09
440.08	447.04
440.26	390.87
440.45	376.83
440.63	374.49
440.82	332.36
441.01	423.64
441.19	332.36
441.38	376.83
441.57	435.34
441.75	411.93
441.94	372.15
442.12	414.27
442.31	409.59
442.50	374.49
442.68	416.62
442.87	395.55
443.05	397.89
443.24	418.96
443.43	503.22
443.61	435.34
443.80	404.91
443.98	407.25
444.17	404.91
444.35	500.87
444.54	409.59
444.73	437.68
444.91	451.72
445.10	390.87
445.28	393.21
445.47	423.64
445.65	386.19
445.84	374.49
446.02	428.32
446.21	421.30
446.39	468.11
446.58	376.83
446.77	416.62
446.95	404.91
447.14	442.36
447.32	491.51
447.51	395.55
447.69	400.23
447.88	381.51
448.06	451.72
448.25	402.57
448.43	433.00
448.62	498.53
448.80	428.32
448.99	411.93
449.17	393.21
449.36	381.51
449.54	388.53
449.73	348.74
449.91	451.72
450.10	493.85
450.28	442.36
450.46	430.66
450.65	404.91
450.83	407.25
451.02	411.93
451.20	393.21
451.39	393.21
451.57	390.87
451.76	430.66
451.94	411.93
452.13	369.80
452.31	458.74
452.49	430.66
452.68	447.04
452.86	440.02
453.05	435.34
453.23	454.06
453.42	353.42
453.60	390.87
453.78	486.83
453.97	414.27
454.15	437.68
454.34	381.51
454.52	381.51
454.70	425.98
454.89	472.79
455.07	402.57
455.26	433.00
455.44	421.30
455.62	449.38
455.81	442.36
455.99	484.49
456.17	479.81
456.36	397.89
456.54	423.64
456.73	433.00
456.91	397.89
457.09	428.32
457.28	383.85
457.46	425.98
457.64	475.13
457.83	456.40
458.01	454.06
458.19	407.25
458.38	416.62
458.56	360.44
458.74	458.74
458.93	418.96
459.11	393.21
459.29	402.57
459.48	407.25
459.66	423.64
459.84	409.59
460.03	521.94
460.21	407.25
460.39	407.25
460.57	489.17
460.76	454.06
460.94	425.98
461.12	484.49
461.31	451.72
461.49	369.80
461.67	423.64
461.85	400.23
462.04	365.12
462.22	770.04
462.40	451.72
462.59	449.38
462.77	362.78
462.95	444.70
463.13	360.44
463.32	416.62
463.50	463.43
463.68	468.11
463.86	425.98
464.05	423.64
464.23	402.57
464.41	433.00
464.59	433.00
464.78	433.00
464.96	388.53
465.14	458.74
465.32	372.15
465.50	409.59
465.69	437.68
465.87	411.93
466.05	365.12
466.23	435.34
466.41	447.04
466.60	402.57
466.78	390.87
466.96	437.68
467.14	409.59
467.32	526.62
467.51	374.49
467.69	503.22
467.87	425.98
468.05	423.64
468.23	447.04
468.41	421.30
468.60	360.44
468.78	423.64
468.96	428.32
469.14	383.85
469.32	397.89
469.50	407.25
469.69	472.79
469.87	449.38
470.05	454.06
470.23	437.68
470.41	425.98
470.59	430.66
470.77	388.53
470.95	468.11
471.14	491.51
471.32	381.51
471.50	449.38
471.68	437.68
471.86	383.85
472.04	374.49
472.22	425.98
472.40	388.53
472.58	421.30
472.77	416.62
472.95	435.34
473.13	444.70
473.31	458.74
473.49	365.12
473.67	358.10
473.85	479.81
474.03	456.40
474.21	397.89
474.39	433.00
474.57	475.13
474.75	425.98
474.93	428.32
475.12	395.55
475.30	395.55
475.48	383.85
475.66	449.38
475.84	447.04
476.02	454.06
476.20	454.06
476.38	372.15
476.56	433.00
476.74	437.68
476.92	451.72
477.10	402.57
477.28	430.66
477.46	372.15
477.64	376.83
477.82	428.32
478.00	421.30
478.18	379.17
478.36	407.25
478.54	355.76
478.72	421.30
478.90	400.23
479.08	482.15
479.26	458.74
479.44	449.38
479.62	437.68
479.80	374.49
479.98	325.33
480.16	390.87
480.34	437.68
480.52	465.77
480.70	444.70
480.88	390.87
481.06	365.12
481.24	390.87
481.41	402.57
481.59	470.45
481.77	393.21
481.95	325.33
482.13	437.68
482.31	440.02
482.49	470.45
482.67	393.21
482.85	397.89
483.03	435.34
483.21	388.53
483.39	390.87
483.57	447.04
483.74	468.11
483.92	451.72
484.10	442.36
484.28	400.23
484.46	437.68
484.64	423.64
484.82	414.27
485.00	425.98
485.18	367.46
485.35	397.89
485.53	400.23
485.71	447.04
485.89	407.25
486.07	407.25
486.25	444.70
486.43	451.72
486.61	440.02
486.78	411.93
486.96	379.17
487.14	344.06
487.32	395.55
487.50	346.40
487.68	503.22
487.85	430.66
488.03	430.66
488.21	456.40
488.39	421.30
488.57	472.79
488.75	386.19
488.92	503.22
489.10	409.59
489.28	437.68
489.46	423.64
489.64	355.76
489.81	383.85
489.99	486.83
490.17	395.55
490.35	482.15
490.53	461.09
490.70	433.00
490.88	465.77
491.06	440.02
491.24	344.06
491.41	442.36
491.59	454.06
491.77	407.25
491.95	416.62
492.13	416.62
492.30	367.46
492.48	383.85
492.66	414.27
492.84	341.72
493.01	418.96
493.19	437.68
493.37	416.62
493.54	428.32
493.72	461.09
493.90	414.27
494.08	477.47
494.25	369.80
494.43	379.17
494.61	388.53
494.79	404.91
494.96	402.57
495.14	372.15
495.32	402.57
495.49	404.91
495.67	397.89
495.85	409.59
496.02	400.23
496.20	397.89
496.38	447.04
496.55	400.23
496.73	444.70
496.91	433.00
497.09	423.64
497.26	411.93
497.44	397.89
497.62	376.83
497.79	449.38
497.97	449.38
498.14	358.10
498.32	449.38
498.50	404.91
498.67	348.74
498.85	379.17
499.03	362.78
499.20	435.34
499.38	447.04
499.56	355.76
499.73	470.45
499.91	454.06
500.08	440.02
500.26	486.83
500.44	362.78
500.61	386.19
500.79	395.55
500.97	418.96
501.14	449.38
501.32	423.64
501.49	402.57
501.67	461.09
501.84	388.53
502.02	390.87
502.20	414.27
502.37	425.98
502.55	376.83
502.72	369.80
502.90	430.66
503.07	421.30
503.25	463.43
503.43	400.23
503.60	358.10
503.78	433.00
503.95	437.68
504.13	416.62
504.30	435.34
504.48	435.34
504.65	423.64
504.83	468.11
505.01	402.57
505.18	451.72
505.36	458.74
505.53	414.27
505.71	425.98
505.88	444.70
506.06	402.57
506.23	367.46
506.41	351.08
506.58	383.85
506.76	465.77
506.93	346.40
507.11	479.81
507.28	404.91
507.46	341.72
507.63	437.68
507.81	447.04
507.98	428.32
508.16	435.34
508.33	437.68
508.50	456.40
508.68	409.59
508.85	430.66
509.03	388.53
509.20	437.68
509.38	458.74
509.55	383.85
509.73	397.89
509.90	447.04
510.08	367.46
510.25	472.79
510.42	428.32
510.60	433.00
510.77	475.13
510.95	470.45
511.12	449.38
511.30	433.00
511.47	451.72
511.64	367.46
511.82	425.98
511.99	376.83
512.17	395.55
512.34	402.57
512.51	383.85
512.69	390.87
512.86	468.11
513.04	334.70
513.21	390.87
513.38	402.57
513.56	447.04
513.73	365.12
513.90	411.93
514.08	400.23
514.25	440.02
514.43	400.23
514.60	325.33
514.77	369.80
514.95	353.42
515.12	440.02
515.29	458.74
515.47	411.93
515.64	428.32
515.81	456.40
515.99	369.80
516.16	411.93
516.33	440.02
516.51	435.34
516.68	395.55
516.85	402.57
517.03	376.83
517.20	411.93
517.37	479.81
517.54	425.98
517.72	372.15
517.89	416.62
518.06	442.36
518.24	451.72
518.41	454.06
518.58	365.12
518.75	367.46
518.93	505.56
519.10	386.19
519.27	379.17
519.45	425.98
519.62	402.57
519.79	397.89
519.96	334.70
520.14	390.87
520.31	414.27
520.48	440.02
520.65	409.59
520.83	409.59
521.00	409.59
521.17	493.85
521.34	423.64
521.52	430.66
521.69	470.45
521.86	409.59
522.03	376.83
522.20	400.23
522.38	379.17
522.55	418.96
522.72	395.55
522.89	414.27
523.07	456.40
523.24	369.80
523.41	379.17
523.58	388.53
523.75	472.79
523.92	421.30
524.10	430.66
524.27	421.30
524.44	414.27
524.61	430.66
524.78	332.36
524.96	437.68
525.13	449.38
525.30	465.77
525.47	461.09
525.64	409.59
525.81	470.45
525.98	411.93
526.16	482.15
526.33	397.89
526.50	409.59
526.67	416.62
526.84	440.02
527.01	449.38
527.18	416.62
527.36	374.49
527.53	407.25
527.70	414.27
527.87	411.93
528.04	430.66
528.21	362.78
528.38	482.15
528.55	404.91
528.72	388.53
528.89	433.00
529.07	486.83
529.24	437.68
529.41	402.57
529.58	433.00
529.75	425.98
529.92	465.77
530.09	472.79
530.26	454.06
530.43	416.62
530.60	383.85
530.77	404.91
530.94	444.70
531.11	440.02
531.28	372.15
531.46	409.59
531.63	407.25
531.80	433.00
531.97	425.98
532.14	369.80
532.31	367.46
532.48	475.13
532.65	437.68
532.82	416.62
532.99	411.93
533.16	362.78
533.33	430.66
533.50	404.91
533.67	414.27
533.84	435.34
534.01	465.77
534.18	449.38
534.35	461.09
534.52	407.25
534.69	397.89
534.86	397.89
535.03	397.89
535.20	374.49
535.37	468.11
535.54	451.72
535.71	374.49
535.88	449.38
536.05	456.40
536.22	433.00
536.38	444.70
536.55	390.87
536.72	470.45
536.89	461.09
537.06	395.55
537.23	383.85
537.40	355.76
537.57	428.32
537.74	393.21
537.91	461.09
538.08	482.15
538.25	489.17
538.42	360.44
538.59	341.72
538.75	418.96
538.92	430.66
539.09	393.21
539.26	418.96
539.43	435.34
539.60	430.66
539.77	418.96
539.94	407.25
540.11	425.98
540.28	447.04
540.44	451.72
540.61	447.04
540.78	395.55
540.95	437.68
541.12	437.68
541.29	407.25
541.46	491.51
541.62	444.70
541.79	442.36
541.96	496.19
542.13	386.19
542.30	386.19
542.47	407.25
542.63	449.38
542.80	430.66
542.97	381.51
543.14	421.30
543.31	440.02
543.48	414.27
543.64	442.36
543.81	325.33
543.98	421.30
544.15	418.96
544.32	390.87
544.48	397.89
544.65	360.44
544.82	440.02
544.99	416.62
545.16	440.02
545.32	402.57
545.49	393.21
545.66	388.53
545.83	372.15
546.00	390.87
546.16	367.46
546.33	416.62
546.50	395.55
546.67	407.25
546.83	418.96
547.00	395.55
547.17	435.34
547.34	388.53
547.50	489.17
547.67	397.89
547.84	397.89
548.00	381.51
548.17	465.77
548.34	442.36
548.51	421.30
548.67	414.27
548.84	360.44
549.01	393.21
549.18	477.47
549.34	435.34
549.51	372.15
549.68	421.30
549.84	381.51
550.01	367.46
550.18	430.66
550.34	470.45
550.51	461.09
550.68	456.40
550.84	400.23
551.01	397.89
551.18	430.66
551.34	440.02
551.51	456.40
551.68	407.25
551.84	400.23
552.01	362.78
552.18	374.49
552.34	395.55
552.51	472.79
552.68	486.83
552.84	411.93
553.01	400.23
553.18	423.64
553.34	367.46
553.51	374.49
553.67	334.70
553.84	449.38
554.01	461.09
554.17	428.32
554.34	390.87
554.51	444.70
554.67	433.00
554.84	458.74
555.00	496.19
555.17	400.23
555.33	339.38
555.50	355.76
555.67	414.27
555.83	397.89
556.00	503.22
556.16	479.81
556.33	423.64
556.50	407.25
556.66	383.85
556.83	397.89
556.99	447.04
557.16	433.00
557.32	365.12
557.49	374.49
557.65	493.85
557.82	425.98
557.98	393.21
558.15	383.85
558.32	381.51
558.48	421.30
558.65	435.34
558.81	437.68
558.98	430.66
559.14	425.98
559.31	346.40
559.47	468.11
559.64	386.19
559.80	465.77
559.97	463.43
560.13	407.25
560.30	372.15
560.46	381.51
560.63	411.93
560.79	386.19
560.96	402.57
561.12	447.04
561.29	479.81
561.45	395.55
561.61	421.30
561.78	472.79
561.94	395.55
562.11	402.57
562.27	367.46
562.44	407.25
562.60	418.96
562.77	320.65
562.93	458.74
563.10	421.30
563.26	360.44
563.42	493.85
563.59	376.83
563.75	390.87
563.92	456.40
564.08	440.02
564.24	400.23
564.41	517.26
564.57	465.77
564.74	348.74
564.90	449.38
565.07	411.93
565.23	409.59
565.39	461.09
565.56	428.32
565.72	393.21
565.88	407.25
566.05	411.93
566.21	369.80
566.38	409.59
566.54	526.62
566.70	416.62
566.87	369.80
567.03	465.77
567.19	404.91
567.36	470.45
567.52	456.40
567.68	400.23
567.85	430.66
568.01	440.02
568.17	397.89
568.34	409.59
568.50	395.55
568.66	374.49
568.83	425.98
568.99	482.15
569.15	449.38
569.32	393.21
569.48	376.83
569.64	379.17
569.81	386.19
569.97	369.80
570.13	486.83
570.30	308.95
570.46	397.89
570.62	451.72
570.78	365.12
570.95	425.98
571.11	393.21
571.27	395.55
571.43	372.15
571.60	397.89
571.76	491.51
571.92	407.25
572.09	407.25
572.25	416.62
572.41	383.85
572.57	414.27
572.74	477.47
572.90	440.02
573.06	442.36
573.22	503.22
573.38	451.72
573.55	489.17
573.71	498.53
573.87	409.59
574.03	482.15
574.20	430.66
574.36	489.17
574.52	421.30
574.68	437.68
574.84	376.83
575.01	411.93
575.17	393.21
575.33	418.96
575.49	449.38
575.65	423.64
575.82	367.46
575.98	435.34
576.14	442.36
576.30	402.57
576.46	351.08
576.62	409.59
576.79	393.21
576.95	423.64
577.11	388.53
577.27	379.17
577.43	351.08
577.59	454.06
577.75	498.53
577.92	454.06
578.08	397.89
578.24	430.66
578.40	468.11
578.56	505.56
578.72	524.28
578.88	351.08
579.04	414.27
579.21	461.09
579.37	444.70
579.53	369.80
579.69	451.72
579.85	451.72
580.01	393.21
580.17	418.96
580.33	447.04
580.49	353.42
580.65	451.72
580.82	381.51
580.98	372.15
581.14	365.12
581.30	418.96
581.46	402.57
581.62	482.15
581.78	390.87
581.94	447.04
582.10	402.57
582.26	365.12
582.42	451.72
582.58	430.66
582.74	362.78
582.90	383.85
583.06	416.62
583.22	400.23
583.38	444.70
583.54	421.30
583.70	376.83
583.86	440.02
584.02	390.87
584.18	433.00
584.34	451.72
584.50	404.91
584.66	421.30
584.82	390.87
584.98	486.83
585.14	440.02
585.30	355.76
585.46	433.00
585.62	475.13
585.78	416.62
585.94	470.45
586.10	472.79
586.26	388.53
586.42	521.94
586.58	423.64
586.74	395.55
586.90	507.90
587.06	369.80
587.22	479.81
587.38	397.89
587.54	442.36
587.70	477.47
587.86	400.23
588.02	449.38
588.18	482.15
588.34	407.25
588.49	454.06
588.65	470.45
588.81	416.62
588.97	383.85
589.13	395.55
589.29	433.00
589.45	447.04
589.61	444.70
589.77	386.19
589.93	435.34
590.08	362.78
590.24	404.91
590.40	367.46
590.56	428.32
590.72	346.40
590.88	362.78
591.04	510.24
591.20	393.21
591.35	437.68
591.51	388.53
591.67	425.98
591.83	407.25
591.99	400.23
592.15	348.74
592.31	489.17
592.46	374.49
592.62	407.25
592.78	411.93
592.94	411.93
593.10	425.98
593.26	444.70
593.41	451.72
593.57	402.57
593.73	442.36
593.89	440.02
594.05	465.77
594.20	402.57
594.36	440.02
594.52	346.40
594.68	418.96
594.84	517.26
594.99	428.32
595.15	421.30
595.31	428.32
595.47	557.05
595.62	369.80
595.78	337.04
595.94	395.55
596.10	433.00
596.25	388.53
596.41	428.32
596.57	383.85
596.73	332.36
596.88	461.09
597.04	346.40
597.20	404.91
597.36	386.19
597.51	374.49
597.67	421.30
597.83	386.19
597.99	402.57
598.14	421.30
598.30	414.27
598.46	425.98
598.61	393.21
598.77	414.27
598.93	402.57
599.09	393.21
599.24	425.98
599.40	435.34
599.56	416.62
599.71	442.36
599.87	388.53
600.03	407.25
600.18	360.44
600.34	390.87
600.50	430.66
600.65	449.38
600.81	477.47
600.97	449.38
601.12	416.62
601.28	454.06
601.44	388.53
601.59	372.15
601.75	444.70
601.91	425.98
602.06	404.91
602.22	489.17
602.37	418.96
602.53	447.04
602.69	400.23
602.84	425.98
603.00	395.55
603.16	402.57
603.31	369.80
603.47	362.78
603.62	411.93
603.78	437.68
603.94	498.53
604.09	390.87
604.25	386.19
604.40	390.87
604.56	414.27
604.71	442.36
604.87	451.72
605.03	435.34
605.18	442.36
605.34	376.83
605.49	367.46
605.65	411.93
605.80	470.45
605.96	437.68
606.12	362.78
606.27	465.77
606.43	411.93
606.58	514.92
606.74	428.32
606.89	433.00
607.05	348.74
607.20	388.53
607.36	402.57
607.51	465.77
607.67	374.49
607.82	423.64
607.98	510.24
608.13	484.49
608.29	344.06
608.44	444.70
608.60	386.19
608.75	456.40
608.91	334.70
609.06	447.04
609.22	463.43
609.37	372.15
609.53	411.93
609.68	374.49
609.84	386.19
609.99	428.32
610.15	433.00
