SpectraSuite Data File
++++++++++++++++++++++++++++++++++++
Date: Fri Oct 25 12:10:12 EDT 2013
User: price-jones
Dark Spectrum Present: No
Reference Spectrum Present: No
Number of Sampled Component Spectra: 1
Spectrometers: USB2+H05261
Integration Time (usec): 100000 (USB2+H05261)
Spectra Averaged: 1 (USB2+H05261)
Boxcar Smoothing: 0 (USB2+H05261)
Correct for Electrical Dark: No (USB2+H05261)
Strobe/Lamp Enabled: No (USB2+H05261)
Correct for Detector Non-linearity: No (USB2+H05261)
Correct for Stray Light: No (USB2+H05261)
Number of Pixels in Processed Spectrum: 2048
>>>>>Begin Processed Spectral Data<<<<<
365.73	318.31
365.92	318.31
366.12	318.31
366.32	231.71
366.52	248.10
366.72	262.14
366.91	236.39
367.11	175.54
367.31	234.05
367.51	194.26
367.70	311.29
367.90	330.02
368.10	238.73
368.30	280.86
368.49	196.60
368.69	262.14
368.89	259.80
369.09	325.33
369.28	248.10
369.48	346.40
369.68	266.82
369.87	320.65
370.07	327.68
370.27	294.91
370.47	355.76
370.66	301.93
370.86	327.68
371.06	330.02
371.25	327.68
371.45	369.80
371.65	325.33
371.84	369.80
372.04	388.53
372.24	386.19
372.44	421.30
372.63	407.25
372.83	423.64
373.03	454.06
373.22	409.59
373.42	386.19
373.62	348.74
373.81	418.96
374.01	397.89
374.21	376.83
374.40	461.09
374.60	327.68
374.79	444.70
374.99	458.74
375.19	393.21
375.38	444.70
375.58	433.00
375.78	423.64
375.97	395.55
376.17	524.28
376.37	411.93
376.56	358.10
376.76	418.96
376.95	390.87
377.15	367.46
377.35	423.64
377.54	440.02
377.74	414.27
377.93	421.30
378.13	416.62
378.33	414.27
378.52	381.51
378.72	374.49
378.91	454.06
379.11	400.23
379.31	388.53
379.50	367.46
379.70	423.64
379.89	447.04
380.09	358.10
380.28	362.78
380.48	397.89
380.68	437.68
380.87	348.74
381.07	404.91
381.26	362.78
381.46	418.96
381.65	402.57
381.85	465.77
382.04	400.23
382.24	365.12
382.43	390.87
382.63	447.04
382.83	418.96
383.02	456.40
383.22	447.04
383.41	362.78
383.61	341.72
383.80	463.43
384.00	416.62
384.19	437.68
384.39	430.66
384.58	517.26
384.78	404.91
384.97	451.72
385.17	372.15
385.36	397.89
385.56	442.36
385.75	358.10
385.95	411.93
386.14	449.38
386.34	404.91
386.53	463.43
386.72	437.68
386.92	547.69
387.11	447.04
387.31	386.19
387.50	430.66
387.70	430.66
387.89	386.19
388.09	327.68
388.28	444.70
388.48	489.17
388.67	388.53
388.86	358.10
389.06	430.66
389.25	458.74
389.45	379.17
389.64	360.44
389.84	367.46
390.03	400.23
390.22	414.27
390.42	463.43
390.61	374.49
390.81	463.43
391.00	447.04
391.19	407.25
391.39	425.98
391.58	435.34
391.78	386.19
391.97	407.25
392.16	430.66
392.36	421.30
392.55	433.00
392.75	374.49
392.94	404.91
393.13	437.68
393.33	339.38
393.52	388.53
393.71	505.56
393.91	388.53
394.10	337.04
394.29	322.99
394.49	493.85
394.68	404.91
394.88	400.23
395.07	461.09
395.26	411.93
395.46	358.10
395.65	442.36
395.84	395.55
396.04	428.32
396.23	451.72
396.42	402.57
396.62	374.49
396.81	409.59
397.00	369.80
397.19	355.76
397.39	386.19
397.58	468.11
397.77	388.53
397.97	393.21
398.16	346.40
398.35	428.32
398.55	433.00
398.74	337.04
398.93	418.96
399.12	407.25
399.32	390.87
399.51	365.12
399.70	404.91
399.90	334.70
400.09	362.78
400.28	482.15
400.47	322.99
400.67	510.24
400.86	386.19
401.05	388.53
401.24	435.34
401.44	423.64
401.63	397.89
401.82	362.78
402.01	306.61
402.21	390.87
402.40	465.77
402.59	400.23
402.78	383.85
402.97	381.51
403.17	411.93
403.36	362.78
403.55	444.70
403.74	388.53
403.93	388.53
404.13	409.59
404.32	451.72
404.51	449.38
404.70	414.27
404.89	367.46
405.09	449.38
405.28	437.68
405.47	376.83
405.66	430.66
405.85	447.04
406.05	458.74
406.24	430.66
406.43	397.89
406.62	477.47
406.81	386.19
407.00	402.57
407.20	425.98
407.39	388.53
407.58	376.83
407.77	428.32
407.96	435.34
408.15	442.36
408.34	425.98
408.54	435.34
408.73	362.78
408.92	407.25
409.11	437.68
409.30	337.04
409.49	491.51
409.68	433.00
409.87	437.68
410.07	433.00
410.26	449.38
410.45	390.87
410.64	383.85
410.83	456.40
411.02	322.99
411.21	402.57
411.40	374.49
411.59	433.00
411.78	395.55
411.98	428.32
412.17	393.21
412.36	470.45
412.55	421.30
412.74	433.00
412.93	430.66
413.12	430.66
413.31	409.59
413.50	440.02
413.69	437.68
413.88	421.30
414.07	440.02
414.26	430.66
414.45	390.87
414.64	449.38
414.83	409.59
415.02	358.10
415.22	447.04
415.41	482.15
415.60	404.91
415.79	372.15
415.98	411.93
416.17	376.83
416.36	337.04
416.55	372.15
416.74	430.66
416.93	416.62
417.12	423.64
417.31	425.98
417.50	484.49
417.69	421.30
417.88	402.57
418.07	376.83
418.26	454.06
418.45	358.10
418.64	454.06
418.83	393.21
419.02	409.59
419.21	428.32
419.39	440.02
419.58	393.21
419.77	456.40
419.96	442.36
420.15	383.85
420.34	376.83
420.53	339.38
420.72	449.38
420.91	388.53
421.10	433.00
421.29	355.76
421.48	414.27
421.67	479.81
421.86	416.62
422.05	397.89
422.24	393.21
422.43	390.87
422.61	421.30
422.80	404.91
422.99	433.00
423.18	435.34
423.37	435.34
423.56	470.45
423.75	409.59
423.94	402.57
424.13	393.21
424.32	353.42
424.50	404.91
424.69	407.25
424.88	416.62
425.07	416.62
425.26	437.68
425.45	454.06
425.64	358.10
425.83	414.27
426.01	421.30
426.20	486.83
426.39	423.64
426.58	433.00
426.77	372.15
426.96	418.96
427.15	414.27
427.33	383.85
427.52	404.91
427.71	351.08
427.90	386.19
428.09	433.00
428.28	327.68
428.46	383.85
428.65	430.66
428.84	369.80
429.03	447.04
429.22	421.30
429.40	407.25
429.59	423.64
429.78	454.06
429.97	374.49
430.16	374.49
430.34	397.89
430.53	440.02
430.72	423.64
430.91	444.70
431.10	332.36
431.28	444.70
431.47	463.43
431.66	465.77
431.85	383.85
432.03	334.70
432.22	444.70
432.41	369.80
432.60	447.04
432.79	430.66
432.97	390.87
433.16	437.68
433.35	402.57
433.54	372.15
433.72	393.21
433.91	346.40
434.10	435.34
434.28	376.83
434.47	402.57
434.66	416.62
434.85	404.91
435.03	409.59
435.22	444.70
435.41	451.72
435.59	390.87
435.78	444.70
435.97	367.46
436.16	388.53
436.34	379.17
436.53	397.89
436.72	397.89
436.90	456.40
437.09	507.90
437.28	379.17
437.46	374.49
437.65	388.53
437.84	411.93
438.02	395.55
438.21	433.00
438.40	395.55
438.58	372.15
438.77	451.72
438.96	397.89
439.14	437.68
439.33	423.64
439.52	386.19
439.70	433.00
439.89	379.17
440.08	353.42
440.26	388.53
440.45	430.66
440.63	374.49
440.82	416.62
441.01	458.74
441.19	381.51
441.38	411.93
441.57	430.66
441.75	456.40
441.94	465.77
442.12	493.85
442.31	407.25
442.50	362.78
442.68	395.55
442.87	449.38
443.05	395.55
443.24	416.62
443.43	365.12
443.61	367.46
443.80	402.57
443.98	393.21
444.17	442.36
444.35	423.64
444.54	397.89
444.73	456.40
444.91	444.70
445.10	451.72
445.28	376.83
445.47	409.59
445.65	484.49
445.84	421.30
446.02	339.38
446.21	393.21
446.39	397.89
446.58	374.49
446.77	440.02
446.95	463.43
447.14	362.78
447.32	386.19
447.51	402.57
447.69	297.25
447.88	416.62
448.06	437.68
448.25	421.30
448.43	388.53
448.62	425.98
448.80	421.30
448.99	524.28
449.17	411.93
449.36	388.53
449.54	407.25
449.73	386.19
449.91	444.70
450.10	407.25
450.28	449.38
450.46	428.32
450.65	421.30
450.83	428.32
451.02	428.32
451.20	407.25
451.39	475.13
451.57	407.25
451.76	421.30
451.94	444.70
452.13	440.02
452.31	472.79
452.49	372.15
452.68	390.87
452.86	400.23
453.05	472.79
453.23	348.74
453.42	315.97
453.60	400.23
453.78	365.12
453.97	421.30
454.15	360.44
454.34	388.53
454.52	379.17
454.70	353.42
454.89	409.59
455.07	400.23
455.26	402.57
455.44	407.25
455.62	402.57
455.81	383.85
455.99	365.12
456.17	418.96
456.36	477.47
456.54	369.80
456.73	423.64
456.91	327.68
457.09	416.62
457.28	397.89
457.46	449.38
457.64	425.98
457.83	407.25
458.01	440.02
458.19	416.62
458.38	395.55
458.56	400.23
458.74	437.68
458.93	400.23
459.11	435.34
459.29	341.72
459.48	367.46
459.66	444.70
459.84	400.23
460.03	484.49
460.21	447.04
460.39	379.17
460.57	423.64
460.76	376.83
460.94	374.49
461.12	390.87
461.31	491.51
461.49	383.85
461.67	428.32
461.85	461.09
462.04	472.79
462.22	809.83
462.40	381.51
462.59	390.87
462.77	393.21
462.95	463.43
463.13	379.17
463.32	463.43
463.50	353.42
463.68	444.70
463.86	374.49
464.05	355.76
464.23	411.93
464.41	407.25
464.59	442.36
464.78	332.36
464.96	390.87
465.14	341.72
465.32	430.66
465.50	418.96
465.69	358.10
465.87	299.59
466.05	407.25
466.23	428.32
466.41	425.98
466.60	449.38
466.78	360.44
466.96	393.21
467.14	482.15
467.32	397.89
467.51	416.62
467.69	444.70
467.87	379.17
468.05	397.89
468.23	402.57
468.41	418.96
468.60	416.62
468.78	397.89
468.96	388.53
469.14	442.36
469.32	444.70
469.50	435.34
469.69	437.68
469.87	430.66
470.05	425.98
470.23	388.53
470.41	395.55
470.59	421.30
470.77	428.32
470.95	456.40
471.14	360.44
471.32	421.30
471.50	491.51
471.68	409.59
471.86	372.15
472.04	444.70
472.22	402.57
472.40	372.15
472.58	390.87
472.77	510.24
472.95	444.70
473.13	437.68
473.31	484.49
473.49	365.12
473.67	397.89
473.85	411.93
474.03	414.27
474.21	421.30
474.39	465.77
474.57	414.27
474.75	383.85
474.93	451.72
475.12	374.49
475.30	435.34
475.48	500.87
475.66	407.25
475.84	360.44
476.02	344.06
476.20	388.53
476.38	440.02
476.56	411.93
476.74	358.10
476.92	393.21
477.10	374.49
477.28	388.53
477.46	451.72
477.64	383.85
477.82	440.02
478.00	386.19
478.18	414.27
478.36	383.85
478.54	315.97
478.72	369.80
478.90	421.30
479.08	458.74
479.26	418.96
479.44	449.38
479.62	418.96
479.80	369.80
479.98	437.68
480.16	393.21
480.34	372.15
480.52	428.32
480.70	418.96
480.88	416.62
481.06	393.21
481.24	414.27
481.41	388.53
481.59	407.25
481.77	433.00
481.95	388.53
482.13	472.79
482.31	472.79
482.49	325.33
482.67	386.19
482.85	437.68
483.03	470.45
483.21	388.53
483.39	374.49
483.57	442.36
483.74	411.93
483.92	400.23
484.10	414.27
484.28	454.06
484.46	430.66
484.64	388.53
484.82	362.78
485.00	374.49
485.18	433.00
485.35	440.02
485.53	381.51
485.71	411.93
485.89	341.72
486.07	503.22
486.25	402.57
486.43	411.93
486.61	416.62
486.78	372.15
486.96	404.91
487.14	454.06
487.32	435.34
487.50	454.06
487.68	418.96
487.85	367.46
488.03	372.15
488.21	514.92
488.39	468.11
488.57	388.53
488.75	409.59
488.92	444.70
489.10	414.27
489.28	486.83
489.46	390.87
489.64	395.55
489.81	449.38
489.99	414.27
490.17	425.98
490.35	465.77
490.53	407.25
490.70	397.89
490.88	444.70
491.06	353.42
491.24	341.72
491.41	475.13
491.59	411.93
491.77	430.66
491.95	369.80
492.13	353.42
492.30	447.04
492.48	416.62
492.66	395.55
492.84	416.62
493.01	428.32
493.19	425.98
493.37	461.09
493.54	395.55
493.72	372.15
493.90	358.10
494.08	383.85
494.25	308.95
494.43	409.59
494.61	395.55
494.79	362.78
494.96	337.04
495.14	421.30
495.32	379.17
495.49	449.38
495.67	379.17
495.85	444.70
496.02	486.83
496.20	521.94
496.38	461.09
496.55	395.55
496.73	479.81
496.91	383.85
497.09	470.45
497.26	411.93
497.44	418.96
497.62	425.98
497.79	482.15
497.97	496.19
498.14	475.13
498.32	430.66
498.50	461.09
498.67	393.21
498.85	390.87
499.03	454.06
499.20	395.55
499.38	498.53
499.56	400.23
499.73	402.57
499.91	360.44
500.08	456.40
500.26	365.12
500.44	421.30
500.61	433.00
500.79	344.06
500.97	386.19
501.14	421.30
501.32	339.38
501.49	409.59
501.67	414.27
501.84	444.70
502.02	351.08
502.20	358.10
502.37	376.83
502.55	397.89
502.72	444.70
502.90	395.55
503.07	496.19
503.25	402.57
503.43	423.64
503.60	376.83
503.78	369.80
503.95	451.72
504.13	383.85
504.30	414.27
504.48	433.00
504.65	411.93
504.83	362.78
505.01	416.62
505.18	383.85
505.36	388.53
505.53	407.25
505.71	430.66
505.88	430.66
506.06	383.85
506.23	395.55
506.41	411.93
506.58	397.89
506.76	458.74
506.93	428.32
507.11	409.59
507.28	402.57
507.46	421.30
507.63	407.25
507.81	444.70
507.98	423.64
508.16	397.89
508.33	418.96
508.50	500.87
508.68	468.11
508.85	395.55
509.03	416.62
509.20	486.83
509.38	447.04
509.55	353.42
509.73	479.81
509.90	409.59
510.08	393.21
510.25	404.91
510.42	395.55
510.60	397.89
510.77	437.68
510.95	470.45
511.12	400.23
511.30	372.15
511.47	444.70
511.64	535.98
511.82	388.53
511.99	416.62
512.17	430.66
512.34	400.23
512.51	409.59
512.69	414.27
512.86	444.70
513.04	447.04
513.21	388.53
513.38	353.42
513.56	407.25
513.73	369.80
513.90	369.80
514.08	365.12
514.25	433.00
514.43	430.66
514.60	442.36
514.77	423.64
514.95	358.10
515.12	456.40
515.29	362.78
515.47	444.70
515.64	404.91
515.81	376.83
515.99	404.91
516.16	440.02
516.33	425.98
516.51	416.62
516.68	414.27
516.85	456.40
517.03	393.21
517.20	404.91
517.37	449.38
517.54	393.21
517.72	475.13
517.89	435.34
518.06	344.06
518.24	407.25
518.41	367.46
518.58	444.70
518.75	376.83
518.93	388.53
519.10	451.72
519.27	404.91
519.45	496.19
519.62	423.64
519.79	425.98
519.96	411.93
520.14	447.04
520.31	430.66
520.48	433.00
520.65	423.64
520.83	425.98
521.00	407.25
521.17	400.23
521.34	414.27
521.52	519.60
521.69	416.62
521.86	388.53
522.03	390.87
522.20	428.32
522.38	435.34
522.55	425.98
522.72	428.32
522.89	421.30
523.07	463.43
523.24	414.27
523.41	369.80
523.58	444.70
523.75	423.64
523.92	447.04
524.10	360.44
524.27	430.66
524.44	386.19
524.61	447.04
524.78	418.96
524.96	414.27
525.13	372.15
525.30	477.47
525.47	409.59
525.64	330.02
525.81	463.43
525.98	365.12
526.16	437.68
526.33	468.11
526.50	395.55
526.67	346.40
526.84	428.32
527.01	362.78
527.18	372.15
527.36	362.78
527.53	346.40
527.70	437.68
527.87	411.93
528.04	454.06
528.21	421.30
528.38	376.83
528.55	428.32
528.72	383.85
528.89	430.66
529.07	355.76
529.24	362.78
529.41	430.66
529.58	379.17
529.75	416.62
529.92	458.74
530.09	463.43
530.26	440.02
530.43	374.49
530.60	423.64
530.77	447.04
530.94	444.70
531.11	486.83
531.28	475.13
531.46	414.27
531.63	421.30
531.80	358.10
531.97	437.68
532.14	416.62
532.31	493.85
532.48	395.55
532.65	379.17
532.82	428.32
532.99	444.70
533.16	395.55
533.33	421.30
533.50	393.21
533.67	451.72
533.84	463.43
534.01	341.72
534.18	418.96
534.35	383.85
534.52	414.27
534.69	442.36
534.86	418.96
535.03	477.47
535.20	421.30
535.37	447.04
535.54	414.27
535.71	344.06
535.88	470.45
536.05	423.64
536.22	397.89
536.38	402.57
536.55	465.77
536.72	458.74
536.89	360.44
537.06	372.15
537.23	372.15
537.40	451.72
537.57	358.10
537.74	428.32
537.91	437.68
538.08	433.00
538.25	454.06
538.42	360.44
538.59	386.19
538.75	383.85
538.92	414.27
539.09	421.30
539.26	313.63
539.43	423.64
539.60	435.34
539.77	461.09
539.94	475.13
540.11	395.55
540.28	393.21
540.44	456.40
540.61	454.06
540.78	388.53
540.95	433.00
541.12	440.02
541.29	308.95
541.46	458.74
541.62	461.09
541.79	435.34
541.96	418.96
542.13	397.89
542.30	386.19
542.47	416.62
542.63	465.77
542.80	400.23
542.97	468.11
543.14	381.51
543.31	390.87
543.48	379.17
543.64	433.00
543.81	461.09
543.98	411.93
544.15	292.57
544.32	430.66
544.48	409.59
544.65	414.27
544.82	411.93
544.99	344.06
545.16	388.53
545.32	386.19
545.49	437.68
545.66	430.66
545.83	362.78
546.00	376.83
546.16	418.96
546.33	454.06
546.50	449.38
546.67	383.85
546.83	458.74
547.00	458.74
547.17	442.36
547.34	421.30
547.50	386.19
547.67	404.91
547.84	430.66
548.00	411.93
548.17	379.17
548.34	430.66
548.51	447.04
548.67	416.62
548.84	386.19
549.01	397.89
549.18	428.32
549.34	433.00
549.51	444.70
549.68	397.89
549.84	437.68
550.01	402.57
550.18	463.43
550.34	489.17
550.51	421.30
550.68	493.85
550.84	353.42
551.01	414.27
551.18	444.70
551.34	416.62
551.51	416.62
551.68	482.15
551.84	430.66
552.01	388.53
552.18	442.36
552.34	425.98
552.51	425.98
552.68	477.47
552.84	442.36
553.01	447.04
553.18	409.59
553.34	482.15
553.51	390.87
553.67	435.34
553.84	456.40
554.01	407.25
554.17	461.09
554.34	411.93
554.51	423.64
554.67	458.74
554.84	454.06
555.00	454.06
555.17	447.04
555.33	390.87
555.50	388.53
555.67	437.68
555.83	383.85
556.00	418.96
556.16	543.00
556.33	465.77
556.50	430.66
556.66	416.62
556.83	437.68
556.99	444.70
557.16	470.45
557.32	416.62
557.49	451.72
557.65	433.00
557.82	416.62
557.98	465.77
558.15	416.62
558.32	428.32
558.48	449.38
558.65	400.23
558.81	442.36
558.98	402.57
559.14	414.27
559.31	386.19
559.47	447.04
559.64	411.93
559.80	449.38
559.97	463.43
560.13	472.79
560.30	418.96
560.46	386.19
560.63	320.65
560.79	423.64
560.96	407.25
561.12	447.04
561.29	463.43
561.45	407.25
561.61	456.40
561.78	505.56
561.94	430.66
562.11	428.32
562.27	430.66
562.44	362.78
562.60	430.66
562.77	383.85
562.93	486.83
563.10	447.04
563.26	418.96
563.42	379.17
563.59	465.77
563.75	404.91
563.92	430.66
564.08	400.23
564.24	418.96
564.41	458.74
564.57	386.19
564.74	395.55
564.90	381.51
565.07	379.17
565.23	458.74
565.39	393.21
565.56	444.70
565.72	435.34
565.88	451.72
566.05	477.47
566.21	451.72
566.38	390.87
566.54	425.98
566.70	435.34
566.87	395.55
567.03	409.59
567.19	437.68
567.36	484.49
567.52	369.80
567.68	437.68
567.85	416.62
568.01	402.57
568.17	388.53
568.34	390.87
568.50	451.72
568.66	365.12
568.83	479.81
568.99	386.19
569.15	411.93
569.32	400.23
569.48	383.85
569.64	414.27
569.81	500.87
569.97	447.04
570.13	421.30
570.30	346.40
570.46	437.68
570.62	447.04
570.78	451.72
570.95	379.17
571.11	491.51
571.27	458.74
571.43	383.85
571.60	421.30
571.76	353.42
571.92	395.55
572.09	395.55
572.25	435.34
572.41	402.57
572.57	376.83
572.74	528.96
572.90	400.23
573.06	425.98
573.22	465.77
573.38	454.06
573.55	444.70
573.71	428.32
573.87	402.57
574.03	395.55
574.20	407.25
574.36	449.38
574.52	468.11
574.68	358.10
574.84	416.62
575.01	393.21
575.17	440.02
575.33	437.68
575.49	397.89
575.65	421.30
575.82	454.06
575.98	496.19
576.14	437.68
576.30	402.57
576.46	383.85
576.62	402.57
576.79	407.25
576.95	447.04
577.11	414.27
577.27	330.02
577.43	411.93
577.59	456.40
577.75	447.04
577.92	421.30
578.08	386.19
578.24	430.66
578.40	372.15
578.56	435.34
578.72	444.70
578.88	454.06
579.04	456.40
579.21	435.34
579.37	374.49
579.53	386.19
579.69	411.93
579.85	407.25
580.01	393.21
580.17	383.85
580.33	397.89
580.49	428.32
580.65	414.27
580.82	465.77
580.98	423.64
581.14	428.32
581.30	437.68
581.46	379.17
581.62	463.43
581.78	421.30
581.94	397.89
582.10	475.13
582.26	407.25
582.42	376.83
582.58	409.59
582.74	423.64
582.90	374.49
583.06	491.51
583.22	465.77
583.38	421.30
583.54	376.83
583.70	393.21
583.86	376.83
584.02	456.40
584.18	489.17
584.34	416.62
584.50	472.79
584.66	421.30
584.82	421.30
584.98	411.93
585.14	444.70
585.30	449.38
585.46	334.70
585.62	397.89
585.78	411.93
585.94	451.72
586.10	402.57
586.26	390.87
586.42	404.91
586.58	465.77
586.74	411.93
586.90	393.21
587.06	362.78
587.22	423.64
587.38	311.29
587.54	416.62
587.70	402.57
587.86	421.30
588.02	435.34
588.18	423.64
588.34	421.30
588.49	411.93
588.65	393.21
588.81	489.17
588.97	418.96
589.13	425.98
589.29	418.96
589.45	400.23
589.61	411.93
589.77	468.11
589.93	418.96
590.08	411.93
590.24	433.00
590.40	425.98
590.56	447.04
590.72	421.30
590.88	435.34
591.04	402.57
591.20	393.21
591.35	437.68
591.51	372.15
591.67	346.40
591.83	425.98
591.99	468.11
592.15	468.11
592.31	374.49
592.46	362.78
592.62	486.83
592.78	425.98
592.94	477.47
593.10	475.13
593.26	449.38
593.41	430.66
593.57	355.76
593.73	411.93
593.89	498.53
594.05	451.72
594.20	428.32
594.36	449.38
594.52	458.74
594.68	465.77
594.84	414.27
594.99	402.57
595.15	379.17
595.31	440.02
595.47	468.11
595.62	409.59
595.78	397.89
595.94	358.10
596.10	411.93
596.25	430.66
596.41	395.55
596.57	367.46
596.73	411.93
596.88	407.25
597.04	496.19
597.20	435.34
597.36	449.38
597.51	428.32
597.67	472.79
597.83	365.12
597.99	388.53
598.14	367.46
598.30	458.74
598.46	402.57
598.61	505.56
598.77	442.36
598.93	428.32
599.09	428.32
599.24	423.64
599.40	486.83
599.56	414.27
599.71	320.65
599.87	395.55
600.03	381.51
600.18	421.30
600.34	414.27
600.50	458.74
600.65	425.98
600.81	456.40
600.97	444.70
601.12	369.80
601.28	468.11
601.44	437.68
601.59	367.46
601.75	362.78
601.91	383.85
602.06	423.64
602.22	447.04
602.37	423.64
602.53	428.32
602.69	440.02
602.84	475.13
603.00	337.04
603.16	418.96
603.31	376.83
603.47	404.91
603.62	341.72
603.78	400.23
603.94	402.57
604.09	330.02
604.25	425.98
604.40	414.27
604.56	428.32
604.71	404.91
604.87	339.38
605.03	463.43
605.18	348.74
605.34	470.45
605.49	435.34
605.65	362.78
605.80	421.30
605.96	409.59
606.12	423.64
606.27	409.59
606.43	430.66
606.58	449.38
606.74	367.46
606.89	360.44
607.05	395.55
607.20	454.06
607.36	383.85
607.51	397.89
607.67	414.27
607.82	402.57
607.98	400.23
608.13	414.27
608.29	414.27
608.44	465.77
608.60	433.00
608.75	449.38
608.91	358.10
609.06	425.98
609.22	383.85
609.37	475.13
609.53	400.23
609.68	484.49
609.84	376.83
609.99	468.11
610.15	465.77
