SpectraSuite Data File
++++++++++++++++++++++++++++++++++++
Date: Fri Oct 25 12:10:54 EDT 2013
User: price-jones
Dark Spectrum Present: No
Reference Spectrum Present: No
Number of Sampled Component Spectra: 1
Spectrometers: USB2+H05261
Integration Time (usec): 100000 (USB2+H05261)
Spectra Averaged: 1 (USB2+H05261)
Boxcar Smoothing: 0 (USB2+H05261)
Correct for Electrical Dark: No (USB2+H05261)
Strobe/Lamp Enabled: No (USB2+H05261)
Correct for Detector Non-linearity: No (USB2+H05261)
Correct for Stray Light: No (USB2+H05261)
Number of Pixels in Processed Spectrum: 2048
>>>>>Begin Processed Spectral Data<<<<<
365.73	339.38
365.92	339.38
366.12	339.38
366.32	269.16
366.52	227.03
366.72	182.56
366.91	215.33
367.11	276.18
367.31	231.71
367.51	234.05
367.70	241.08
367.90	318.31
368.10	210.65
368.30	269.16
368.49	245.76
368.69	273.84
368.89	259.80
369.09	220.01
369.28	327.68
369.48	259.80
369.68	320.65
369.87	341.72
370.07	334.70
370.27	390.87
370.47	355.76
370.66	322.99
370.86	381.51
371.06	470.45
371.25	402.57
371.45	374.49
371.65	402.57
371.84	386.19
372.04	290.23
372.24	402.57
372.44	404.91
372.63	337.04
372.83	404.91
373.03	330.02
373.22	458.74
373.42	337.04
373.62	468.11
373.81	409.59
374.01	456.40
374.21	440.02
374.40	409.59
374.60	437.68
374.79	362.78
374.99	395.55
375.19	409.59
375.38	355.76
375.58	402.57
375.78	430.66
375.97	496.19
376.17	484.49
376.37	444.70
376.56	358.10
376.76	430.66
376.95	411.93
377.15	430.66
377.35	477.47
377.54	395.55
377.74	421.30
377.93	390.87
378.13	360.44
378.33	440.02
378.52	425.98
378.72	379.17
378.91	437.68
379.11	428.32
379.31	397.89
379.50	390.87
379.70	421.30
379.89	430.66
380.09	379.17
380.28	458.74
380.48	465.77
380.68	351.08
380.87	461.09
381.07	397.89
381.26	435.34
381.46	395.55
381.65	325.33
381.85	461.09
382.04	402.57
382.24	397.89
382.43	341.72
382.63	353.42
382.83	360.44
383.02	381.51
383.22	393.21
383.41	353.42
383.61	458.74
383.80	456.40
384.00	435.34
384.19	400.23
384.39	463.43
384.58	376.83
384.78	430.66
384.97	428.32
385.17	372.15
385.36	390.87
385.56	430.66
385.75	365.12
385.95	404.91
386.14	428.32
386.34	454.06
386.53	379.17
386.72	383.85
386.92	425.98
387.11	409.59
387.31	388.53
387.50	381.51
387.70	414.27
387.89	367.46
388.09	320.65
388.28	451.72
388.48	423.64
388.67	381.51
388.86	433.00
389.06	414.27
389.25	465.77
389.45	433.00
389.64	442.36
389.84	442.36
390.03	379.17
390.22	407.25
390.42	390.87
390.61	346.40
390.81	411.93
391.00	425.98
391.19	409.59
391.39	423.64
391.58	390.87
391.78	400.23
391.97	404.91
392.16	369.80
392.36	447.04
392.55	437.68
392.75	362.78
392.94	421.30
393.13	411.93
393.33	414.27
393.52	400.23
393.71	414.27
393.91	304.27
394.10	395.55
394.29	521.94
394.49	330.02
394.68	435.34
394.88	411.93
395.07	397.89
395.26	428.32
395.46	395.55
395.65	428.32
395.84	451.72
396.04	442.36
396.23	440.02
396.42	465.77
396.62	351.08
396.81	433.00
397.00	393.21
397.19	407.25
397.39	374.49
397.58	435.34
397.77	428.32
397.97	421.30
398.16	435.34
398.35	358.10
398.55	411.93
398.74	402.57
398.93	369.80
399.12	404.91
399.32	402.57
399.51	402.57
399.70	372.15
399.90	407.25
400.09	372.15
400.28	407.25
400.47	386.19
400.67	341.72
400.86	433.00
401.05	418.96
401.24	510.24
401.44	411.93
401.63	390.87
401.82	414.27
402.01	435.34
402.21	444.70
402.40	428.32
402.59	374.49
402.78	381.51
402.97	425.98
403.17	334.70
403.36	437.68
403.55	376.83
403.74	386.19
403.93	400.23
404.13	381.51
404.32	383.85
404.51	435.34
404.70	435.34
404.89	344.06
405.09	425.98
405.28	388.53
405.47	402.57
405.66	458.74
405.85	454.06
406.05	388.53
406.24	381.51
406.43	463.43
406.62	496.19
406.81	423.64
407.00	374.49
407.20	402.57
407.39	402.57
407.58	435.34
407.77	402.57
407.96	461.09
408.15	430.66
408.34	428.32
408.54	421.30
408.73	414.27
408.92	383.85
409.11	435.34
409.30	430.66
409.49	409.59
409.68	418.96
409.87	447.04
410.07	423.64
410.26	383.85
410.45	418.96
410.64	418.96
410.83	407.25
411.02	430.66
411.21	428.32
411.40	475.13
411.59	379.17
411.78	320.65
411.98	437.68
412.17	390.87
412.36	433.00
412.55	383.85
412.74	416.62
412.93	395.55
413.12	442.36
413.31	505.56
413.50	360.44
413.69	379.17
413.88	451.72
414.07	374.49
414.26	423.64
414.45	379.17
414.64	421.30
414.83	409.59
415.02	425.98
415.22	409.59
415.41	407.25
415.60	365.12
415.79	330.02
415.98	400.23
416.17	369.80
416.36	444.70
416.55	437.68
416.74	409.59
416.93	425.98
417.12	395.55
417.31	421.30
417.50	381.51
417.69	437.68
417.88	477.47
418.07	383.85
418.26	327.68
418.45	442.36
418.64	428.32
418.83	421.30
419.02	433.00
419.21	388.53
419.39	477.47
419.58	428.32
419.77	332.36
419.96	367.46
420.15	414.27
420.34	418.96
420.53	416.62
420.72	425.98
420.91	353.42
421.10	395.55
421.29	498.53
421.48	435.34
421.67	393.21
421.86	365.12
422.05	447.04
422.24	395.55
422.43	461.09
422.61	355.76
422.80	416.62
422.99	365.12
423.18	425.98
423.37	407.25
423.56	402.57
423.75	447.04
423.94	407.25
424.13	400.23
424.32	472.79
424.50	409.59
424.69	444.70
424.88	393.21
425.07	402.57
425.26	402.57
425.45	437.68
425.64	362.78
425.83	496.19
426.01	416.62
426.20	425.98
426.39	416.62
426.58	423.64
426.77	425.98
426.96	447.04
427.15	320.65
427.33	393.21
427.52	461.09
427.71	402.57
427.90	416.62
428.09	423.64
428.28	332.36
428.46	435.34
428.65	390.87
428.84	402.57
429.03	411.93
429.22	486.83
429.40	425.98
429.59	407.25
429.78	465.77
429.97	362.78
430.16	449.38
430.34	360.44
430.53	437.68
430.72	313.63
430.91	491.51
431.10	421.30
431.28	444.70
431.47	407.25
431.66	421.30
431.85	447.04
432.03	400.23
432.22	430.66
432.41	416.62
432.60	425.98
432.79	386.19
432.97	440.02
433.16	402.57
433.35	381.51
433.54	447.04
433.72	416.62
433.91	407.25
434.10	416.62
434.28	372.15
434.47	421.30
434.66	390.87
434.85	409.59
435.03	433.00
435.22	421.30
435.41	484.49
435.59	421.30
435.78	400.23
435.97	351.08
436.16	388.53
436.34	465.77
436.53	327.68
436.72	400.23
436.90	381.51
437.09	402.57
437.28	379.17
437.46	416.62
437.65	421.30
437.84	433.00
438.02	437.68
438.21	433.00
438.40	500.87
438.58	411.93
438.77	411.93
438.96	463.43
439.14	409.59
439.33	383.85
439.52	411.93
439.70	465.77
439.89	458.74
440.08	477.47
440.26	409.59
440.45	447.04
440.63	430.66
440.82	421.30
441.01	400.23
441.19	465.77
441.38	383.85
441.57	409.59
441.75	416.62
441.94	456.40
442.12	409.59
442.31	425.98
442.50	402.57
442.68	404.91
442.87	435.34
443.05	346.40
443.24	353.42
443.43	390.87
443.61	423.64
443.80	418.96
443.98	435.34
444.17	456.40
444.35	444.70
444.54	421.30
444.73	458.74
444.91	425.98
445.10	374.49
445.28	409.59
445.47	400.23
445.65	400.23
445.84	425.98
446.02	425.98
446.21	379.17
446.39	376.83
446.58	456.40
446.77	421.30
446.95	425.98
447.14	482.15
447.32	458.74
447.51	447.04
447.69	456.40
447.88	433.00
448.06	421.30
448.25	435.34
448.43	428.32
448.62	325.33
448.80	383.85
448.99	428.32
449.17	365.12
449.36	435.34
449.54	430.66
449.73	404.91
449.91	433.00
450.10	437.68
450.28	435.34
450.46	444.70
450.65	404.91
450.83	395.55
451.02	348.74
451.20	404.91
451.39	395.55
451.57	451.72
451.76	395.55
451.94	376.83
452.13	465.77
452.31	428.32
452.49	437.68
452.68	421.30
452.86	435.34
453.05	447.04
453.23	397.89
453.42	433.00
453.60	491.51
453.78	409.59
453.97	414.27
454.15	390.87
454.34	407.25
454.52	444.70
454.70	414.27
454.89	470.45
455.07	435.34
455.26	395.55
455.44	402.57
455.62	416.62
455.81	400.23
455.99	416.62
456.17	397.89
456.36	440.02
456.54	402.57
456.73	395.55
456.91	418.96
457.09	390.87
457.28	418.96
457.46	451.72
457.64	493.85
457.83	397.89
458.01	437.68
458.19	409.59
458.38	400.23
458.56	423.64
458.74	395.55
458.93	435.34
459.11	409.59
459.29	360.44
459.48	484.49
459.66	477.47
459.84	416.62
460.03	535.98
460.21	461.09
460.39	360.44
460.57	411.93
460.76	421.30
460.94	365.12
461.12	411.93
461.31	437.68
461.49	442.36
461.67	418.96
461.85	369.80
462.04	369.80
462.22	765.36
462.40	430.66
462.59	449.38
462.77	418.96
462.95	397.89
463.13	423.64
463.32	414.27
463.50	409.59
463.68	421.30
463.86	447.04
464.05	367.46
464.23	400.23
464.41	456.40
464.59	414.27
464.78	407.25
464.96	390.87
465.14	381.51
465.32	404.91
465.50	440.02
465.69	465.77
465.87	461.09
466.05	388.53
466.23	404.91
466.41	421.30
466.60	423.64
466.78	416.62
466.96	360.44
467.14	365.12
467.32	435.34
467.51	369.80
467.69	332.36
467.87	430.66
468.05	428.32
468.23	498.53
468.41	374.49
468.60	437.68
468.78	386.19
468.96	381.51
469.14	442.36
469.32	369.80
469.50	425.98
469.69	472.79
469.87	383.85
470.05	433.00
470.23	435.34
470.41	423.64
470.59	348.74
470.77	447.04
470.95	421.30
471.14	456.40
471.32	472.79
471.50	414.27
471.68	374.49
471.86	346.40
472.04	381.51
472.22	388.53
472.40	379.17
472.58	322.99
472.77	320.65
472.95	397.89
473.13	369.80
473.31	437.68
473.49	428.32
473.67	407.25
473.85	341.72
474.03	428.32
474.21	402.57
474.39	465.77
474.57	449.38
474.75	397.89
474.93	374.49
475.12	402.57
475.30	402.57
475.48	407.25
475.66	393.21
475.84	390.87
476.02	365.12
476.20	421.30
476.38	428.32
476.56	461.09
476.74	421.30
476.92	458.74
477.10	496.19
477.28	379.17
477.46	449.38
477.64	397.89
477.82	461.09
478.00	390.87
478.18	395.55
478.36	365.12
478.54	465.77
478.72	402.57
478.90	414.27
479.08	519.60
479.26	444.70
479.44	444.70
479.62	430.66
479.80	383.85
479.98	372.15
480.16	390.87
480.34	381.51
480.52	414.27
480.70	444.70
480.88	421.30
481.06	362.78
481.24	395.55
481.41	388.53
481.59	456.40
481.77	393.21
481.95	479.81
482.13	409.59
482.31	428.32
482.49	449.38
482.67	465.77
482.85	454.06
483.03	388.53
483.21	414.27
483.39	465.77
483.57	421.30
483.74	440.02
483.92	440.02
484.10	440.02
484.28	491.51
484.46	514.92
484.64	393.21
484.82	418.96
485.00	425.98
485.18	367.46
485.35	472.79
485.53	379.17
485.71	430.66
485.89	362.78
486.07	388.53
486.25	393.21
486.43	423.64
486.61	442.36
486.78	442.36
486.96	430.66
487.14	470.45
487.32	393.21
487.50	381.51
487.68	409.59
487.85	463.43
488.03	379.17
488.21	421.30
488.39	395.55
488.57	428.32
488.75	444.70
488.92	557.05
489.10	463.43
489.28	404.91
489.46	458.74
489.64	407.25
489.81	479.81
489.99	435.34
490.17	409.59
490.35	358.10
490.53	414.27
490.70	418.96
490.88	414.27
491.06	386.19
491.24	477.47
491.41	428.32
491.59	379.17
491.77	393.21
491.95	440.02
492.13	409.59
492.30	482.15
492.48	435.34
492.66	463.43
492.84	386.19
493.01	341.72
493.19	493.85
493.37	435.34
493.54	360.44
493.72	440.02
493.90	423.64
494.08	376.83
494.25	449.38
494.43	388.53
494.61	423.64
494.79	423.64
494.96	400.23
495.14	409.59
495.32	428.32
495.49	411.93
495.67	458.74
495.85	402.57
496.02	442.36
496.20	388.53
496.38	355.76
496.55	390.87
496.73	435.34
496.91	479.81
497.09	440.02
497.26	425.98
497.44	367.46
497.62	411.93
497.79	365.12
497.97	411.93
498.14	365.12
498.32	365.12
498.50	475.13
498.67	353.42
498.85	435.34
499.03	423.64
499.20	411.93
499.38	423.64
499.56	447.04
499.73	440.02
499.91	400.23
500.08	376.83
500.26	430.66
500.44	395.55
500.61	421.30
500.79	400.23
500.97	447.04
501.14	479.81
501.32	409.59
501.49	428.32
501.67	367.46
501.84	444.70
502.02	395.55
502.20	503.22
502.37	477.47
502.55	393.21
502.72	400.23
502.90	433.00
503.07	451.72
503.25	428.32
503.43	440.02
503.60	437.68
503.78	470.45
503.95	372.15
504.13	395.55
504.30	447.04
504.48	496.19
504.65	468.11
504.83	402.57
505.01	397.89
505.18	486.83
505.36	433.00
505.53	416.62
505.71	409.59
505.88	433.00
506.06	390.87
506.23	440.02
506.41	482.15
506.58	397.89
506.76	435.34
506.93	395.55
507.11	479.81
507.28	390.87
507.46	372.15
507.63	397.89
507.81	390.87
507.98	411.93
508.16	383.85
508.33	437.68
508.50	393.21
508.68	334.70
508.85	414.27
509.03	376.83
509.20	369.80
509.38	402.57
509.55	400.23
509.73	430.66
509.90	458.74
510.08	395.55
510.25	390.87
510.42	411.93
510.60	348.74
510.77	456.40
510.95	414.27
511.12	437.68
511.30	463.43
511.47	444.70
511.64	451.72
511.82	414.27
511.99	397.89
512.17	411.93
512.34	418.96
512.51	390.87
512.69	433.00
512.86	449.38
513.04	442.36
513.21	433.00
513.38	374.49
513.56	404.91
513.73	386.19
513.90	414.27
514.08	369.80
514.25	402.57
514.43	470.45
514.60	372.15
514.77	388.53
514.95	463.43
515.12	440.02
515.29	454.06
515.47	400.23
515.64	346.40
515.81	358.10
515.99	463.43
516.16	437.68
516.33	454.06
516.51	416.62
516.68	421.30
516.85	421.30
517.03	411.93
517.20	418.96
517.37	404.91
517.54	437.68
517.72	402.57
517.89	409.59
518.06	381.51
518.24	454.06
518.41	517.26
518.58	430.66
518.75	369.80
518.93	344.06
519.10	414.27
519.27	411.93
519.45	496.19
519.62	393.21
519.79	379.17
519.96	404.91
520.14	365.12
520.31	461.09
520.48	397.89
520.65	484.49
520.83	437.68
521.00	423.64
521.17	465.77
521.34	402.57
521.52	421.30
521.69	414.27
521.86	447.04
522.03	369.80
522.20	416.62
522.38	421.30
522.55	386.19
522.72	407.25
522.89	376.83
523.07	395.55
523.24	458.74
523.41	437.68
523.58	440.02
523.75	390.87
523.92	519.60
524.10	512.58
524.27	458.74
524.44	435.34
524.61	418.96
524.78	468.11
524.96	435.34
525.13	463.43
525.30	369.80
525.47	479.81
525.64	421.30
525.81	440.02
525.98	440.02
526.16	397.89
526.33	437.68
526.50	386.19
526.67	440.02
526.84	395.55
527.01	430.66
527.18	482.15
527.36	435.34
527.53	414.27
527.70	503.22
527.87	390.87
528.04	428.32
528.21	355.76
528.38	409.59
528.55	351.08
528.72	418.96
528.89	360.44
529.07	386.19
529.24	416.62
529.41	425.98
529.58	456.40
529.75	437.68
529.92	393.21
530.09	463.43
530.26	442.36
530.43	400.23
530.60	390.87
530.77	437.68
530.94	451.72
531.11	451.72
531.28	374.49
531.46	407.25
531.63	414.27
531.80	395.55
531.97	425.98
532.14	411.93
532.31	442.36
532.48	472.79
532.65	351.08
532.82	369.80
532.99	435.34
533.16	468.11
533.33	369.80
533.50	411.93
533.67	512.58
533.84	381.51
534.01	479.81
534.18	404.91
534.35	341.72
534.52	421.30
534.69	479.81
534.86	411.93
535.03	374.49
535.20	397.89
535.37	442.36
535.54	456.40
535.71	437.68
535.88	447.04
536.05	409.59
536.22	447.04
536.38	379.17
536.55	400.23
536.72	543.00
536.89	374.49
537.06	386.19
537.23	393.21
537.40	383.85
537.57	379.17
537.74	402.57
537.91	470.45
538.08	470.45
538.25	402.57
538.42	414.27
538.59	381.51
538.75	491.51
538.92	461.09
539.09	458.74
539.26	425.98
539.43	458.74
539.60	444.70
539.77	442.36
539.94	400.23
540.11	393.21
540.28	465.77
540.44	386.19
540.61	465.77
540.78	414.27
540.95	407.25
541.12	425.98
541.29	442.36
541.46	465.77
541.62	433.00
541.79	414.27
541.96	468.11
542.13	369.80
542.30	423.64
542.47	416.62
542.63	463.43
542.80	447.04
542.97	416.62
543.14	365.12
543.31	402.57
543.48	397.89
543.64	442.36
543.81	444.70
543.98	390.87
544.15	447.04
544.32	435.34
544.48	341.72
544.65	425.98
544.82	358.10
544.99	402.57
545.16	458.74
545.32	440.02
545.49	465.77
545.66	421.30
545.83	451.72
546.00	372.15
546.16	402.57
546.33	369.80
546.50	416.62
546.67	423.64
546.83	414.27
547.00	376.83
547.17	449.38
547.34	428.32
547.50	437.68
547.67	442.36
547.84	470.45
548.00	465.77
548.17	372.15
548.34	388.53
548.51	468.11
548.67	428.32
548.84	395.55
549.01	402.57
549.18	402.57
549.34	482.15
549.51	414.27
549.68	430.66
549.84	386.19
550.01	395.55
550.18	468.11
550.34	409.59
550.51	388.53
550.68	418.96
550.84	435.34
551.01	428.32
551.18	425.98
551.34	423.64
551.51	346.40
551.68	430.66
551.84	393.21
552.01	358.10
552.18	482.15
552.34	437.68
552.51	428.32
552.68	458.74
552.84	404.91
553.01	393.21
553.18	475.13
553.34	444.70
553.51	376.83
553.67	397.89
553.84	390.87
554.01	416.62
554.17	428.32
554.34	421.30
554.51	414.27
554.67	461.09
554.84	416.62
555.00	416.62
555.17	379.17
555.33	402.57
555.50	449.38
555.67	433.00
555.83	397.89
556.00	402.57
556.16	519.60
556.33	468.11
556.50	376.83
556.66	416.62
556.83	376.83
556.99	423.64
557.16	379.17
557.32	376.83
557.49	372.15
557.65	433.00
557.82	442.36
557.98	400.23
558.15	411.93
558.32	414.27
558.48	409.59
558.65	451.72
558.81	407.25
558.98	367.46
559.14	404.91
559.31	430.66
559.47	332.36
559.64	395.55
559.80	397.89
559.97	433.00
560.13	449.38
560.30	390.87
560.46	458.74
560.63	430.66
560.79	475.13
560.96	447.04
561.12	404.91
561.29	435.34
561.45	390.87
561.61	461.09
561.78	477.47
561.94	390.87
562.11	430.66
562.27	430.66
562.44	451.72
562.60	425.98
562.77	362.78
562.93	440.02
563.10	456.40
563.26	421.30
563.42	440.02
563.59	421.30
563.75	390.87
563.92	404.91
564.08	442.36
564.24	414.27
564.41	437.68
564.57	444.70
564.74	423.64
564.90	463.43
565.07	411.93
565.23	358.10
565.39	404.91
565.56	416.62
565.72	362.78
565.88	397.89
566.05	416.62
566.21	449.38
566.38	470.45
566.54	451.72
566.70	383.85
566.87	355.76
567.03	390.87
567.19	451.72
567.36	435.34
567.52	442.36
567.68	468.11
567.85	470.45
568.01	411.93
568.17	407.25
568.34	339.38
568.50	463.43
568.66	421.30
568.83	404.91
568.99	374.49
569.15	409.59
569.32	409.59
569.48	374.49
569.64	351.08
569.81	430.66
569.97	449.38
570.13	486.83
570.30	496.19
570.46	482.15
570.62	423.64
570.78	425.98
570.95	404.91
571.11	484.49
571.27	510.24
571.43	395.55
571.60	526.62
571.76	425.98
571.92	416.62
572.09	440.02
572.25	421.30
572.41	486.83
572.57	414.27
572.74	468.11
572.90	404.91
573.06	404.91
573.22	454.06
573.38	397.89
573.55	433.00
573.71	367.46
573.87	493.85
574.03	465.77
574.20	355.76
574.36	388.53
574.52	454.06
574.68	421.30
574.84	381.51
575.01	379.17
575.17	395.55
575.33	402.57
575.49	407.25
575.65	507.90
575.82	437.68
575.98	437.68
576.14	435.34
576.30	435.34
576.46	463.43
576.62	318.31
576.79	355.76
576.95	447.04
577.11	397.89
577.27	404.91
577.43	444.70
577.59	440.02
577.75	425.98
577.92	315.97
578.08	430.66
578.24	433.00
578.40	477.47
578.56	425.98
578.72	451.72
578.88	440.02
579.04	456.40
579.21	393.21
579.37	351.08
579.53	402.57
579.69	440.02
579.85	435.34
580.01	479.81
580.17	454.06
580.33	456.40
580.49	461.09
580.65	386.19
580.82	411.93
580.98	440.02
581.14	409.59
581.30	486.83
581.46	451.72
581.62	479.81
581.78	397.89
581.94	447.04
582.10	416.62
582.26	374.49
582.42	477.47
582.58	423.64
582.74	320.65
582.90	379.17
583.06	400.23
583.22	531.30
583.38	447.04
583.54	444.70
583.70	447.04
583.86	435.34
584.02	372.15
584.18	428.32
584.34	381.51
584.50	423.64
584.66	442.36
584.82	407.25
584.98	433.00
585.14	454.06
585.30	437.68
585.46	393.21
585.62	402.57
585.78	402.57
585.94	416.62
586.10	540.66
586.26	437.68
586.42	472.79
586.58	383.85
586.74	425.98
586.90	409.59
587.06	472.79
587.22	402.57
587.38	435.34
587.54	416.62
587.70	430.66
587.86	390.87
588.02	428.32
588.18	386.19
588.34	411.93
588.49	451.72
588.65	437.68
588.81	440.02
588.97	465.77
589.13	468.11
589.29	470.45
589.45	402.57
589.61	362.78
589.77	379.17
589.93	395.55
590.08	334.70
590.24	428.32
590.40	444.70
590.56	388.53
590.72	390.87
590.88	456.40
591.04	383.85
591.20	383.85
591.35	400.23
591.51	409.59
591.67	411.93
591.83	360.44
591.99	456.40
592.15	418.96
592.31	400.23
592.46	484.49
592.62	423.64
592.78	414.27
592.94	337.04
593.10	346.40
593.26	381.51
593.41	449.38
593.57	365.12
593.73	381.51
593.89	416.62
594.05	423.64
594.20	400.23
594.36	372.15
594.52	430.66
594.68	383.85
594.84	390.87
594.99	475.13
595.15	393.21
595.31	435.34
595.47	451.72
595.62	383.85
595.78	484.49
595.94	437.68
596.10	447.04
596.25	454.06
596.41	341.72
596.57	388.53
596.73	379.17
596.88	397.89
597.04	346.40
597.20	404.91
597.36	475.13
597.51	421.30
597.67	390.87
597.83	416.62
597.99	425.98
598.14	463.43
598.30	390.87
598.46	395.55
598.61	407.25
598.77	477.47
598.93	402.57
599.09	428.32
599.24	444.70
599.40	409.59
599.56	451.72
599.71	470.45
599.87	400.23
600.03	433.00
600.18	390.87
600.34	458.74
600.50	409.59
600.65	416.62
600.81	479.81
600.97	397.89
601.12	505.56
601.28	433.00
601.44	400.23
601.59	379.17
601.75	435.34
601.91	388.53
602.06	397.89
602.22	550.03
602.37	388.53
602.53	374.49
602.69	479.81
602.84	411.93
603.00	447.04
603.16	477.47
603.31	442.36
603.47	430.66
603.62	493.85
603.78	400.23
603.94	496.19
604.09	468.11
604.25	444.70
604.40	381.51
604.56	402.57
604.71	425.98
604.87	332.36
605.03	348.74
605.18	447.04
605.34	512.58
605.49	379.17
605.65	395.55
605.80	444.70
605.96	447.04
606.12	482.15
606.27	430.66
606.43	425.98
606.58	456.40
606.74	416.62
606.89	428.32
607.05	456.40
607.20	414.27
607.36	458.74
607.51	362.78
607.67	423.64
607.82	400.23
607.98	428.32
608.13	411.93
608.29	425.98
608.44	397.89
608.60	383.85
608.75	482.15
608.91	500.87
609.06	470.45
609.22	444.70
609.37	440.02
609.53	362.78
609.68	393.21
609.84	367.46
609.99	358.10
610.15	444.70
