SpectraSuite Data File
++++++++++++++++++++++++++++++++++++
Date: Fri Oct 25 12:10:52 EDT 2013
User: price-jones
Dark Spectrum Present: No
Reference Spectrum Present: No
Number of Sampled Component Spectra: 1
Spectrometers: USB2+H05261
Integration Time (usec): 100000 (USB2+H05261)
Spectra Averaged: 1 (USB2+H05261)
Boxcar Smoothing: 0 (USB2+H05261)
Correct for Electrical Dark: No (USB2+H05261)
Strobe/Lamp Enabled: No (USB2+H05261)
Correct for Detector Non-linearity: No (USB2+H05261)
Correct for Stray Light: No (USB2+H05261)
Number of Pixels in Processed Spectrum: 2048
>>>>>Begin Processed Spectral Data<<<<<
365.73	348.74
365.92	348.74
366.12	348.74
366.32	271.50
366.52	222.35
366.72	252.78
366.91	301.93
367.11	224.69
367.31	236.39
367.51	222.35
367.70	234.05
367.90	243.42
368.10	248.10
368.30	243.42
368.49	271.50
368.69	217.67
368.89	203.63
369.09	299.59
369.28	248.10
369.48	236.39
369.68	297.25
369.87	311.29
370.07	308.95
370.27	416.62
370.47	292.57
370.66	332.36
370.86	395.55
371.06	407.25
371.25	330.02
371.45	325.33
371.65	379.17
371.84	397.89
372.04	374.49
372.24	369.80
372.44	428.32
372.63	444.70
372.83	477.47
373.03	449.38
373.22	421.30
373.42	400.23
373.62	402.57
373.81	397.89
374.01	437.68
374.21	416.62
374.40	451.72
374.60	472.79
374.79	449.38
374.99	411.93
375.19	461.09
375.38	477.47
375.58	458.74
375.78	379.17
375.97	423.64
376.17	493.85
376.37	379.17
376.56	365.12
376.76	400.23
376.95	395.55
377.15	451.72
377.35	404.91
377.54	435.34
377.74	372.15
377.93	365.12
378.13	393.21
378.33	416.62
378.52	362.78
378.72	454.06
378.91	444.70
379.11	379.17
379.31	435.34
379.50	367.46
379.70	456.40
379.89	433.00
380.09	351.08
380.28	376.83
380.48	397.89
380.68	337.04
380.87	395.55
381.07	409.59
381.26	397.89
381.46	379.17
381.65	369.80
381.85	435.34
382.04	353.42
382.24	409.59
382.43	451.72
382.63	386.19
382.83	428.32
383.02	425.98
383.22	428.32
383.41	372.15
383.61	414.27
383.80	425.98
384.00	454.06
384.19	407.25
384.39	411.93
384.58	414.27
384.78	475.13
384.97	330.02
385.17	430.66
385.36	372.15
385.56	304.27
385.75	416.62
385.95	461.09
386.14	433.00
386.34	430.66
386.53	376.83
386.72	451.72
386.92	395.55
387.11	400.23
387.31	418.96
387.50	433.00
387.70	390.87
387.89	486.83
388.09	430.66
388.28	404.91
388.48	341.72
388.67	472.79
388.86	402.57
389.06	514.92
389.25	411.93
389.45	454.06
389.64	404.91
389.84	397.89
390.03	409.59
390.22	360.44
390.42	325.33
390.61	411.93
390.81	463.43
391.00	475.13
391.19	397.89
391.39	428.32
391.58	454.06
391.78	355.76
391.97	362.78
392.16	425.98
392.36	423.64
392.55	463.43
392.75	416.62
392.94	325.33
393.13	456.40
393.33	409.59
393.52	360.44
393.71	433.00
393.91	402.57
394.10	353.42
394.29	351.08
394.49	423.64
394.68	383.85
394.88	454.06
395.07	379.17
395.26	379.17
395.46	433.00
395.65	468.11
395.84	442.36
396.04	437.68
396.23	458.74
396.42	407.25
396.62	475.13
396.81	442.36
397.00	425.98
397.19	421.30
397.39	418.96
397.58	442.36
397.77	358.10
397.97	418.96
398.16	437.68
398.35	421.30
398.55	383.85
398.74	458.74
398.93	381.51
399.12	372.15
399.32	461.09
399.51	369.80
399.70	395.55
399.90	404.91
400.09	411.93
400.28	451.72
400.47	475.13
400.67	449.38
400.86	388.53
401.05	416.62
401.24	486.83
401.44	433.00
401.63	407.25
401.82	397.89
402.01	365.12
402.21	442.36
402.40	470.45
402.59	442.36
402.78	423.64
402.97	411.93
403.17	404.91
403.36	372.15
403.55	358.10
403.74	397.89
403.93	402.57
404.13	433.00
404.32	393.21
404.51	435.34
404.70	397.89
404.89	386.19
405.09	386.19
405.28	348.74
405.47	472.79
405.66	407.25
405.85	440.02
406.05	454.06
406.24	428.32
406.43	451.72
406.62	409.59
406.81	444.70
407.00	482.15
407.20	421.30
407.39	372.15
407.58	397.89
407.77	397.89
407.96	414.27
408.15	393.21
408.34	393.21
408.54	395.55
408.73	395.55
408.92	447.04
409.11	414.27
409.30	442.36
409.49	430.66
409.68	351.08
409.87	402.57
410.07	374.49
410.26	390.87
410.45	409.59
410.64	360.44
410.83	322.99
411.02	444.70
411.21	397.89
411.40	428.32
411.59	393.21
411.78	425.98
411.98	409.59
412.17	444.70
412.36	458.74
412.55	400.23
412.74	365.12
412.93	423.64
413.12	423.64
413.31	395.55
413.50	407.25
413.69	442.36
413.88	465.77
414.07	386.19
414.26	428.32
414.45	409.59
414.64	456.40
414.83	423.64
415.02	395.55
415.22	418.96
415.41	465.77
415.60	395.55
415.79	404.91
415.98	388.53
416.17	339.38
416.36	433.00
416.55	479.81
416.74	393.21
416.93	407.25
417.12	423.64
417.31	355.76
417.50	353.42
417.69	514.92
417.88	376.83
418.07	437.68
418.26	437.68
418.45	351.08
418.64	489.17
418.83	397.89
419.02	425.98
419.21	355.76
419.39	416.62
419.58	360.44
419.77	393.21
419.96	404.91
420.15	416.62
420.34	444.70
420.53	418.96
420.72	367.46
420.91	400.23
421.10	440.02
421.29	315.97
421.48	374.49
421.67	379.17
421.86	365.12
422.05	360.44
422.24	306.61
422.43	458.74
422.61	395.55
422.80	376.83
422.99	416.62
423.18	344.06
423.37	433.00
423.56	325.33
423.75	423.64
423.94	440.02
424.13	425.98
424.32	381.51
424.50	430.66
424.69	395.55
424.88	454.06
425.07	428.32
425.26	386.19
425.45	425.98
425.64	383.85
425.83	435.34
426.01	393.21
426.20	407.25
426.39	428.32
426.58	395.55
426.77	416.62
426.96	468.11
427.15	449.38
427.33	409.59
427.52	447.04
427.71	388.53
427.90	346.40
428.09	435.34
428.28	510.24
428.46	379.17
428.65	397.89
428.84	339.38
429.03	433.00
429.22	435.34
429.40	409.59
429.59	465.77
429.78	374.49
429.97	479.81
430.16	407.25
430.34	454.06
430.53	470.45
430.72	397.89
430.91	456.40
431.10	477.47
431.28	395.55
431.47	402.57
431.66	395.55
431.85	397.89
432.03	442.36
432.22	428.32
432.41	376.83
432.60	430.66
432.79	325.33
432.97	386.19
433.16	472.79
433.35	393.21
433.54	449.38
433.72	416.62
433.91	465.77
434.10	470.45
434.28	449.38
434.47	390.87
434.66	449.38
434.85	472.79
435.03	421.30
435.22	451.72
435.41	437.68
435.59	470.45
435.78	355.76
435.97	365.12
436.16	376.83
436.34	397.89
436.53	402.57
436.72	409.59
436.90	393.21
437.09	416.62
437.28	430.66
437.46	421.30
437.65	437.68
437.84	461.09
438.02	365.12
438.21	430.66
438.40	451.72
438.58	383.85
438.77	400.23
438.96	409.59
439.14	416.62
439.33	388.53
439.52	393.21
439.70	416.62
439.89	418.96
440.08	365.12
440.26	407.25
440.45	442.36
440.63	423.64
440.82	423.64
441.01	402.57
441.19	395.55
441.38	425.98
441.57	367.46
441.75	444.70
441.94	496.19
442.12	463.43
442.31	440.02
442.50	433.00
442.68	409.59
442.87	372.15
443.05	407.25
443.24	390.87
443.43	461.09
443.61	489.17
443.80	482.15
443.98	383.85
444.17	425.98
444.35	372.15
444.54	390.87
444.73	404.91
444.91	477.47
445.10	430.66
445.28	381.51
445.47	468.11
445.65	440.02
445.84	390.87
446.02	400.23
446.21	397.89
446.39	390.87
446.58	411.93
446.77	395.55
446.95	442.36
447.14	472.79
447.32	414.27
447.51	390.87
447.69	465.77
447.88	395.55
448.06	411.93
448.25	372.15
448.43	428.32
448.62	388.53
448.80	433.00
448.99	360.44
449.17	376.83
449.36	400.23
449.54	416.62
449.73	355.76
449.91	465.77
450.10	369.80
450.28	498.53
450.46	484.49
450.65	428.32
450.83	409.59
451.02	428.32
451.20	451.72
451.39	484.49
451.57	463.43
451.76	393.21
451.94	381.51
452.13	411.93
452.31	397.89
452.49	430.66
452.68	433.00
452.86	493.85
453.05	421.30
453.23	322.99
453.42	372.15
453.60	421.30
453.78	468.11
453.97	386.19
454.15	374.49
454.34	404.91
454.52	395.55
454.70	386.19
454.89	428.32
455.07	383.85
455.26	414.27
455.44	433.00
455.62	404.91
455.81	400.23
455.99	411.93
456.17	379.17
456.36	393.21
456.54	388.53
456.73	416.62
456.91	365.12
457.09	388.53
457.28	489.17
457.46	379.17
457.64	411.93
457.83	386.19
458.01	437.68
458.19	400.23
458.38	409.59
458.56	416.62
458.74	414.27
458.93	360.44
459.11	409.59
459.29	397.89
459.48	482.15
459.66	451.72
459.84	442.36
460.03	449.38
460.21	409.59
460.39	393.21
460.57	440.02
460.76	327.68
460.94	421.30
461.12	472.79
461.31	465.77
461.49	430.66
461.67	442.36
461.85	369.80
462.04	411.93
462.22	779.40
462.40	507.90
462.59	411.93
462.77	435.34
462.95	430.66
463.13	430.66
463.32	400.23
463.50	451.72
463.68	404.91
463.86	383.85
464.05	411.93
464.23	447.04
464.41	400.23
464.59	421.30
464.78	386.19
464.96	435.34
465.14	421.30
465.32	388.53
465.50	402.57
465.69	428.32
465.87	437.68
466.05	358.10
466.23	404.91
466.41	430.66
466.60	423.64
466.78	395.55
466.96	435.34
467.14	327.68
467.32	458.74
467.51	381.51
467.69	444.70
467.87	437.68
468.05	381.51
468.23	360.44
468.41	458.74
468.60	433.00
468.78	489.17
468.96	447.04
469.14	369.80
469.32	379.17
469.50	456.40
469.69	407.25
469.87	409.59
470.05	458.74
470.23	505.56
470.41	402.57
470.59	388.53
470.77	491.51
470.95	404.91
471.14	444.70
471.32	388.53
471.50	362.78
471.68	423.64
471.86	463.43
472.04	383.85
472.22	468.11
472.40	437.68
472.58	409.59
472.77	383.85
472.95	440.02
473.13	479.81
473.31	414.27
473.49	430.66
473.67	388.53
473.85	355.76
474.03	374.49
474.21	461.09
474.39	454.06
474.57	430.66
474.75	393.21
474.93	400.23
475.12	379.17
475.30	404.91
475.48	440.02
475.66	442.36
475.84	526.62
476.02	414.27
476.20	414.27
476.38	416.62
476.56	461.09
476.74	390.87
476.92	411.93
477.10	435.34
477.28	479.81
477.46	402.57
477.64	411.93
477.82	409.59
478.00	376.83
478.18	433.00
478.36	411.93
478.54	381.51
478.72	376.83
478.90	395.55
479.08	451.72
479.26	360.44
479.44	348.74
479.62	437.68
479.80	351.08
479.98	367.46
480.16	369.80
480.34	442.36
480.52	390.87
480.70	418.96
480.88	400.23
481.06	388.53
481.24	379.17
481.41	414.27
481.59	402.57
481.77	416.62
481.95	395.55
482.13	437.68
482.31	425.98
482.49	395.55
482.67	374.49
482.85	379.17
483.03	383.85
483.21	402.57
483.39	447.04
483.57	425.98
483.74	421.30
483.92	411.93
484.10	411.93
484.28	437.68
484.46	461.09
484.64	411.93
484.82	372.15
485.00	397.89
485.18	423.64
485.35	433.00
485.53	407.25
485.71	444.70
485.89	367.46
486.07	456.40
486.25	484.49
486.43	407.25
486.61	447.04
486.78	402.57
486.96	381.51
487.14	440.02
487.32	386.19
487.50	442.36
487.68	421.30
487.85	421.30
488.03	437.68
488.21	449.38
488.39	379.17
488.57	447.04
488.75	409.59
488.92	409.59
489.10	407.25
489.28	479.81
489.46	463.43
489.64	465.77
489.81	440.02
489.99	451.72
490.17	451.72
490.35	451.72
490.53	418.96
490.70	369.80
490.88	451.72
491.06	421.30
491.24	374.49
491.41	379.17
491.59	430.66
491.77	327.68
491.95	372.15
492.13	435.34
492.30	437.68
492.48	437.68
492.66	383.85
492.84	311.29
493.01	433.00
493.19	435.34
493.37	514.92
493.54	416.62
493.72	416.62
493.90	344.06
494.08	456.40
494.25	414.27
494.43	360.44
494.61	327.68
494.79	470.45
494.96	472.79
495.14	444.70
495.32	386.19
495.49	393.21
495.67	440.02
495.85	440.02
496.02	428.32
496.20	458.74
496.38	379.17
496.55	369.80
496.73	418.96
496.91	395.55
497.09	440.02
497.26	369.80
497.44	404.91
497.62	355.76
497.79	355.76
497.97	550.03
498.14	463.43
498.32	461.09
498.50	468.11
498.67	447.04
498.85	461.09
499.03	425.98
499.20	409.59
499.38	468.11
499.56	404.91
499.73	442.36
499.91	428.32
500.08	369.80
500.26	468.11
500.44	388.53
500.61	374.49
500.79	372.15
500.97	404.91
501.14	440.02
501.32	416.62
501.49	440.02
501.67	353.42
501.84	402.57
502.02	416.62
502.20	388.53
502.37	381.51
502.55	379.17
502.72	428.32
502.90	465.77
503.07	374.49
503.25	425.98
503.43	374.49
503.60	402.57
503.78	465.77
503.95	475.13
504.13	421.30
504.30	493.85
504.48	390.87
504.65	447.04
504.83	393.21
505.01	414.27
505.18	482.15
505.36	458.74
505.53	383.85
505.71	428.32
505.88	447.04
506.06	414.27
506.23	437.68
506.41	440.02
506.58	418.96
506.76	409.59
506.93	428.32
507.11	400.23
507.28	433.00
507.46	451.72
507.63	447.04
507.81	430.66
507.98	414.27
508.16	416.62
508.33	421.30
508.50	519.60
508.68	381.51
508.85	451.72
509.03	395.55
509.20	416.62
509.38	416.62
509.55	578.11
509.73	416.62
509.90	421.30
510.08	496.19
510.25	418.96
510.42	421.30
510.60	379.17
510.77	395.55
510.95	447.04
511.12	409.59
511.30	444.70
511.47	402.57
511.64	388.53
511.82	423.64
511.99	411.93
512.17	367.46
512.34	386.19
512.51	433.00
512.69	383.85
512.86	444.70
513.04	421.30
513.21	468.11
513.38	451.72
513.56	388.53
513.73	341.72
513.90	454.06
514.08	308.95
514.25	397.89
514.43	402.57
514.60	397.89
514.77	360.44
514.95	395.55
515.12	397.89
515.29	456.40
515.47	482.15
515.64	444.70
515.81	383.85
515.99	421.30
516.16	444.70
516.33	433.00
516.51	440.02
516.68	440.02
516.85	414.27
517.03	355.76
517.20	416.62
517.37	372.15
517.54	428.32
517.72	360.44
517.89	397.89
518.06	367.46
518.24	472.79
518.41	367.46
518.58	386.19
518.75	379.17
518.93	407.25
519.10	395.55
519.27	372.15
519.45	402.57
519.62	449.38
519.79	449.38
519.96	397.89
520.14	458.74
520.31	531.30
520.48	491.51
520.65	456.40
520.83	409.59
521.00	416.62
521.17	402.57
521.34	418.96
521.52	496.19
521.69	444.70
521.86	418.96
522.03	454.06
522.20	514.92
522.38	414.27
522.55	421.30
522.72	418.96
522.89	395.55
523.07	496.19
523.24	454.06
523.41	433.00
523.58	390.87
523.75	458.74
523.92	425.98
524.10	376.83
524.27	451.72
524.44	411.93
524.61	383.85
524.78	416.62
524.96	440.02
525.13	404.91
525.30	393.21
525.47	414.27
525.64	465.77
525.81	411.93
525.98	376.83
526.16	428.32
526.33	449.38
526.50	451.72
526.67	360.44
526.84	383.85
527.01	397.89
527.18	411.93
527.36	421.30
527.53	367.46
527.70	376.83
527.87	421.30
528.04	409.59
528.21	365.12
528.38	444.70
528.55	482.15
528.72	475.13
528.89	430.66
529.07	407.25
529.24	390.87
529.41	435.34
529.58	416.62
529.75	425.98
529.92	407.25
530.09	437.68
530.26	449.38
530.43	414.27
530.60	414.27
530.77	442.36
530.94	395.55
531.11	440.02
531.28	409.59
531.46	409.59
531.63	388.53
531.80	414.27
531.97	433.00
532.14	360.44
532.31	414.27
532.48	362.78
532.65	414.27
532.82	444.70
532.99	411.93
533.16	402.57
533.33	376.83
533.50	437.68
533.67	383.85
533.84	376.83
534.01	411.93
534.18	360.44
534.35	407.25
534.52	435.34
534.69	383.85
534.86	322.99
535.03	404.91
535.20	411.93
535.37	409.59
535.54	400.23
535.71	397.89
535.88	402.57
536.05	479.81
536.22	461.09
536.38	404.91
536.55	477.47
536.72	440.02
536.89	383.85
537.06	386.19
537.23	395.55
537.40	400.23
537.57	383.85
537.74	505.56
537.91	386.19
538.08	402.57
538.25	472.79
538.42	379.17
538.59	372.15
538.75	425.98
538.92	379.17
539.09	433.00
539.26	400.23
539.43	425.98
539.60	484.49
539.77	369.80
539.94	390.87
540.11	454.06
540.28	393.21
540.44	393.21
540.61	372.15
540.78	379.17
540.95	437.68
541.12	440.02
541.29	416.62
541.46	461.09
541.62	386.19
541.79	353.42
541.96	355.76
542.13	379.17
542.30	430.66
542.47	456.40
542.63	397.89
542.80	383.85
542.97	456.40
543.14	425.98
543.31	421.30
543.48	418.96
543.64	388.53
543.81	421.30
543.98	421.30
544.15	374.49
544.32	430.66
544.48	376.83
544.65	461.09
544.82	423.64
544.99	334.70
545.16	456.40
545.32	421.30
545.49	463.43
545.66	393.21
545.83	372.15
546.00	411.93
546.16	425.98
546.33	442.36
546.50	435.34
546.67	351.08
546.83	433.00
547.00	437.68
547.17	447.04
547.34	433.00
547.50	451.72
547.67	339.38
547.84	430.66
548.00	407.25
548.17	437.68
548.34	397.89
548.51	414.27
548.67	484.49
548.84	358.10
549.01	402.57
549.18	442.36
549.34	365.12
549.51	376.83
549.68	454.06
549.84	425.98
550.01	374.49
550.18	463.43
550.34	472.79
550.51	404.91
550.68	461.09
550.84	461.09
551.01	430.66
551.18	428.32
551.34	440.02
551.51	425.98
551.68	409.59
551.84	407.25
552.01	388.53
552.18	486.83
552.34	524.28
552.51	456.40
552.68	425.98
552.84	367.46
553.01	421.30
553.18	510.24
553.34	437.68
553.51	409.59
553.67	416.62
553.84	358.10
554.01	414.27
554.17	376.83
554.34	496.19
554.51	388.53
554.67	397.89
554.84	360.44
555.00	447.04
555.17	451.72
555.33	407.25
555.50	435.34
555.67	461.09
555.83	449.38
556.00	437.68
556.16	416.62
556.33	400.23
556.50	402.57
556.66	440.02
556.83	428.32
556.99	407.25
557.16	519.60
557.32	461.09
557.49	423.64
557.65	454.06
557.82	397.89
557.98	337.04
558.15	376.83
558.32	400.23
558.48	383.85
558.65	395.55
558.81	353.42
558.98	428.32
559.14	465.77
559.31	381.51
559.47	416.62
559.64	435.34
559.80	400.23
559.97	306.61
560.13	428.32
560.30	411.93
560.46	339.38
560.63	393.21
560.79	400.23
560.96	400.23
561.12	423.64
561.29	421.30
561.45	414.27
561.61	409.59
561.78	531.30
561.94	470.45
562.11	362.78
562.27	404.91
562.44	386.19
562.60	318.31
562.77	456.40
562.93	428.32
563.10	472.79
563.26	404.91
563.42	411.93
563.59	451.72
563.75	423.64
563.92	402.57
564.08	442.36
564.24	404.91
564.41	440.02
564.57	468.11
564.74	421.30
564.90	442.36
565.07	421.30
565.23	454.06
565.39	433.00
565.56	458.74
565.72	379.17
565.88	397.89
566.05	365.12
566.21	428.32
566.38	423.64
566.54	430.66
566.70	447.04
566.87	409.59
567.03	372.15
567.19	437.68
567.36	407.25
567.52	421.30
567.68	381.51
567.85	414.27
568.01	407.25
568.17	454.06
568.34	442.36
568.50	442.36
568.66	397.89
568.83	428.32
568.99	454.06
569.15	503.22
569.32	418.96
569.48	421.30
569.64	425.98
569.81	475.13
569.97	428.32
570.13	475.13
570.30	437.68
570.46	400.23
570.62	444.70
570.78	442.36
570.95	423.64
571.11	444.70
571.27	435.34
571.43	421.30
571.60	374.49
571.76	346.40
571.92	433.00
572.09	433.00
572.25	435.34
572.41	390.87
572.57	428.32
572.74	496.19
572.90	454.06
573.06	423.64
573.22	404.91
573.38	383.85
573.55	437.68
573.71	444.70
573.87	454.06
574.03	388.53
574.20	437.68
574.36	447.04
574.52	388.53
574.68	395.55
574.84	468.11
575.01	411.93
575.17	386.19
575.33	367.46
575.49	500.87
575.65	479.81
575.82	491.51
575.98	465.77
576.14	381.51
576.30	468.11
576.46	433.00
576.62	390.87
576.79	465.77
576.95	491.51
577.11	421.30
577.27	449.38
577.43	433.00
577.59	440.02
577.75	428.32
577.92	414.27
578.08	435.34
578.24	355.76
578.40	418.96
578.56	416.62
578.72	395.55
578.88	447.04
579.04	404.91
579.21	468.11
579.37	395.55
579.53	381.51
579.69	444.70
579.85	367.46
580.01	407.25
580.17	400.23
580.33	404.91
580.49	374.49
580.65	425.98
580.82	365.12
580.98	390.87
581.14	395.55
581.30	421.30
581.46	386.19
581.62	376.83
581.78	451.72
581.94	442.36
582.10	332.36
582.26	425.98
582.42	428.32
582.58	512.58
582.74	430.66
582.90	374.49
583.06	407.25
583.22	376.83
583.38	400.23
583.54	447.04
583.70	395.55
583.86	402.57
584.02	369.80
584.18	470.45
584.34	339.38
584.50	400.23
584.66	390.87
584.82	430.66
584.98	379.17
585.14	407.25
585.30	395.55
585.46	409.59
585.62	447.04
585.78	447.04
585.94	468.11
586.10	402.57
586.26	414.27
586.42	437.68
586.58	425.98
586.74	421.30
586.90	428.32
587.06	423.64
587.22	386.19
587.38	407.25
587.54	397.89
587.70	454.06
587.86	339.38
588.02	423.64
588.18	444.70
588.34	411.93
588.49	339.38
588.65	388.53
588.81	390.87
588.97	271.50
589.13	353.42
589.29	365.12
589.45	447.04
589.61	425.98
589.77	468.11
589.93	477.47
590.08	423.64
590.24	461.09
590.40	451.72
590.56	519.60
590.72	451.72
590.88	393.21
591.04	348.74
591.20	461.09
591.35	423.64
591.51	425.98
591.67	418.96
591.83	395.55
591.99	409.59
592.15	379.17
592.31	428.32
592.46	475.13
592.62	440.02
592.78	409.59
592.94	414.27
593.10	355.76
593.26	440.02
593.41	402.57
593.57	365.12
593.73	355.76
593.89	493.85
594.05	418.96
594.20	440.02
594.36	409.59
594.52	339.38
594.68	444.70
594.84	409.59
594.99	489.17
595.15	418.96
595.31	437.68
595.47	484.49
595.62	428.32
595.78	383.85
595.94	479.81
596.10	418.96
596.25	433.00
596.41	456.40
596.57	397.89
596.73	404.91
596.88	454.06
597.04	428.32
597.20	444.70
597.36	470.45
597.51	517.26
597.67	418.96
597.83	435.34
597.99	348.74
598.14	372.15
598.30	414.27
598.46	454.06
598.61	372.15
598.77	388.53
598.93	365.12
599.09	458.74
599.24	353.42
599.40	416.62
599.56	402.57
599.71	437.68
599.87	465.77
600.03	360.44
600.18	447.04
600.34	381.51
600.50	374.49
600.65	376.83
600.81	444.70
600.97	372.15
601.12	386.19
601.28	388.53
601.44	416.62
601.59	477.47
601.75	423.64
601.91	402.57
602.06	421.30
602.22	442.36
602.37	404.91
602.53	407.25
602.69	372.15
602.84	386.19
603.00	463.43
603.16	402.57
603.31	411.93
603.47	421.30
603.62	379.17
603.78	458.74
603.94	463.43
604.09	390.87
604.25	433.00
604.40	477.47
604.56	418.96
604.71	397.89
604.87	322.99
605.03	402.57
605.18	430.66
605.34	428.32
605.49	416.62
605.65	379.17
605.80	404.91
605.96	400.23
606.12	428.32
606.27	512.58
606.43	348.74
606.58	468.11
606.74	360.44
606.89	449.38
607.05	430.66
607.20	367.46
607.36	463.43
607.51	428.32
607.67	430.66
607.82	367.46
607.98	346.40
608.13	369.80
608.29	351.08
608.44	486.83
608.60	379.17
608.75	482.15
608.91	437.68
609.06	428.32
609.22	430.66
609.37	414.27
609.53	381.51
609.68	367.46
609.84	407.25
609.99	414.27
610.15	454.06
