SpectraSuite Data File
++++++++++++++++++++++++++++++++++++
Date: Fri Oct 25 12:11:06 EDT 2013
User: price-jones
Dark Spectrum Present: No
Reference Spectrum Present: No
Number of Sampled Component Spectra: 1
Spectrometers: USB2+H05261
Integration Time (usec): 100000 (USB2+H05261)
Spectra Averaged: 1 (USB2+H05261)
Boxcar Smoothing: 0 (USB2+H05261)
Correct for Electrical Dark: No (USB2+H05261)
Strobe/Lamp Enabled: No (USB2+H05261)
Correct for Detector Non-linearity: No (USB2+H05261)
Correct for Stray Light: No (USB2+H05261)
Number of Pixels in Processed Spectrum: 2048
>>>>>Begin Processed Spectral Data<<<<<
365.73	334.70
365.92	334.70
366.12	334.70
366.32	276.18
366.52	220.01
366.72	294.91
366.91	166.18
367.11	208.31
367.31	217.67
367.51	248.10
367.70	231.71
367.90	264.48
368.10	224.69
368.30	166.18
368.49	238.73
368.69	287.89
368.89	210.65
369.09	280.86
369.28	269.16
369.48	248.10
369.68	276.18
369.87	273.84
370.07	297.25
370.27	332.36
370.47	365.12
370.66	339.38
370.86	351.08
371.06	337.04
371.25	360.44
371.45	346.40
371.65	367.46
371.84	383.85
372.04	409.59
372.24	486.83
372.44	395.55
372.63	418.96
372.83	355.76
373.03	367.46
373.22	383.85
373.42	430.66
373.62	440.02
373.81	433.00
374.01	444.70
374.21	416.62
374.40	484.49
374.60	421.30
374.79	430.66
374.99	458.74
375.19	358.10
375.38	351.08
375.58	395.55
375.78	472.79
375.97	468.11
376.17	477.47
376.37	449.38
376.56	397.89
376.76	428.32
376.95	397.89
377.15	435.34
377.35	418.96
377.54	407.25
377.74	463.43
377.93	491.51
378.13	402.57
378.33	372.15
378.52	444.70
378.72	358.10
378.91	372.15
379.11	386.19
379.31	379.17
379.50	484.49
379.70	379.17
379.89	449.38
380.09	440.02
380.28	416.62
380.48	351.08
380.68	344.06
380.87	425.98
381.07	404.91
381.26	444.70
381.46	421.30
381.65	393.21
381.85	440.02
382.04	451.72
382.24	395.55
382.43	292.57
382.63	365.12
382.83	416.62
383.02	475.13
383.22	383.85
383.41	383.85
383.61	372.15
383.80	416.62
384.00	491.51
384.19	425.98
384.39	402.57
384.58	355.76
384.78	402.57
384.97	395.55
385.17	358.10
385.36	404.91
385.56	430.66
385.75	416.62
385.95	390.87
386.14	388.53
386.34	395.55
386.53	404.91
386.72	397.89
386.92	404.91
387.11	400.23
387.31	447.04
387.50	411.93
387.70	379.17
387.89	360.44
388.09	404.91
388.28	376.83
388.48	348.74
388.67	402.57
388.86	374.49
389.06	320.65
389.25	418.96
389.45	360.44
389.64	418.96
389.84	355.76
390.03	376.83
390.22	393.21
390.42	400.23
390.61	365.12
390.81	451.72
391.00	355.76
391.19	442.36
391.39	423.64
391.58	372.15
391.78	337.04
391.97	348.74
392.16	418.96
392.36	369.80
392.55	456.40
392.75	411.93
392.94	386.19
393.13	395.55
393.33	428.32
393.52	411.93
393.71	393.21
393.91	449.38
394.10	425.98
394.29	376.83
394.49	437.68
394.68	423.64
394.88	393.21
395.07	367.46
395.26	355.76
395.46	393.21
395.65	346.40
395.84	388.53
396.04	475.13
396.23	369.80
396.42	322.99
396.62	421.30
396.81	388.53
397.00	437.68
397.19	390.87
397.39	456.40
397.58	416.62
397.77	397.89
397.97	411.93
398.16	390.87
398.35	351.08
398.55	395.55
398.74	381.51
398.93	449.38
399.12	358.10
399.32	456.40
399.51	411.93
399.70	418.96
399.90	430.66
400.09	444.70
400.28	425.98
400.47	435.34
400.67	390.87
400.86	461.09
401.05	414.27
401.24	418.96
401.44	449.38
401.63	381.51
401.82	416.62
402.01	386.19
402.21	435.34
402.40	435.34
402.59	400.23
402.78	400.23
402.97	393.21
403.17	383.85
403.36	440.02
403.55	402.57
403.74	395.55
403.93	440.02
404.13	409.59
404.32	418.96
404.51	425.98
404.70	390.87
404.89	355.76
405.09	404.91
405.28	418.96
405.47	393.21
405.66	428.32
405.85	353.42
406.05	367.46
406.24	365.12
406.43	428.32
406.62	351.08
406.81	444.70
407.00	425.98
407.20	397.89
407.39	416.62
407.58	402.57
407.77	386.19
407.96	470.45
408.15	407.25
408.34	421.30
408.54	400.23
408.73	451.72
408.92	395.55
409.11	390.87
409.30	442.36
409.49	383.85
409.68	414.27
409.87	407.25
410.07	449.38
410.26	407.25
410.45	404.91
410.64	397.89
410.83	421.30
411.02	423.64
411.21	458.74
411.40	386.19
411.59	454.06
411.78	386.19
411.98	404.91
412.17	393.21
412.36	397.89
412.55	372.15
412.74	477.47
412.93	416.62
413.12	425.98
413.31	383.85
413.50	440.02
413.69	421.30
413.88	397.89
414.07	475.13
414.26	407.25
414.45	365.12
414.64	397.89
414.83	362.78
415.02	437.68
415.22	369.80
415.41	470.45
415.60	341.72
415.79	393.21
415.98	383.85
416.17	395.55
416.36	463.43
416.55	411.93
416.74	409.59
416.93	451.72
417.12	423.64
417.31	416.62
417.50	416.62
417.69	334.70
417.88	355.76
418.07	428.32
418.26	400.23
418.45	423.64
418.64	430.66
418.83	407.25
419.02	376.83
419.21	430.66
419.39	351.08
419.58	397.89
419.77	388.53
419.96	388.53
420.15	444.70
420.34	418.96
420.53	414.27
420.72	430.66
420.91	358.10
421.10	381.51
421.29	404.91
421.48	421.30
421.67	416.62
421.86	416.62
422.05	404.91
422.24	409.59
422.43	416.62
422.61	360.44
422.80	372.15
422.99	425.98
423.18	320.65
423.37	360.44
423.56	491.51
423.75	470.45
423.94	428.32
424.13	433.00
424.32	379.17
424.50	383.85
424.69	433.00
424.88	437.68
425.07	379.17
425.26	418.96
425.45	423.64
425.64	414.27
425.83	348.74
426.01	425.98
426.20	437.68
426.39	437.68
426.58	447.04
426.77	440.02
426.96	388.53
427.15	421.30
427.33	397.89
427.52	407.25
427.71	390.87
427.90	421.30
428.09	454.06
428.28	456.40
428.46	386.19
428.65	435.34
428.84	433.00
429.03	386.19
429.22	402.57
429.40	421.30
429.59	381.51
429.78	447.04
429.97	468.11
430.16	404.91
430.34	407.25
430.53	365.12
430.72	400.23
430.91	407.25
431.10	447.04
431.28	454.06
431.47	463.43
431.66	458.74
431.85	365.12
432.03	379.17
432.22	397.89
432.41	435.34
432.60	477.47
432.79	386.19
432.97	421.30
433.16	428.32
433.35	454.06
433.54	337.04
433.72	402.57
433.91	477.47
434.10	409.59
434.28	341.72
434.47	486.83
434.66	400.23
434.85	477.47
435.03	421.30
435.22	433.00
435.41	388.53
435.59	400.23
435.78	437.68
435.97	365.12
436.16	355.76
436.34	346.40
436.53	447.04
436.72	386.19
436.90	444.70
437.09	374.49
437.28	365.12
437.46	369.80
437.65	430.66
437.84	458.74
438.02	393.21
438.21	461.09
438.40	444.70
438.58	404.91
438.77	433.00
438.96	390.87
439.14	447.04
439.33	456.40
439.52	402.57
439.70	402.57
439.89	407.25
440.08	416.62
440.26	344.06
440.45	308.95
440.63	390.87
440.82	395.55
441.01	484.49
441.19	433.00
441.38	376.83
441.57	386.19
441.75	395.55
441.94	449.38
442.12	454.06
442.31	346.40
442.50	409.59
442.68	423.64
442.87	379.17
443.05	404.91
443.24	425.98
443.43	409.59
443.61	390.87
443.80	468.11
443.98	355.76
444.17	458.74
444.35	433.00
444.54	463.43
444.73	425.98
444.91	395.55
445.10	416.62
445.28	465.77
445.47	395.55
445.65	372.15
445.84	451.72
446.02	416.62
446.21	465.77
446.39	451.72
446.58	409.59
446.77	374.49
446.95	355.76
447.14	472.79
447.32	454.06
447.51	374.49
447.69	456.40
447.88	423.64
448.06	444.70
448.25	402.57
448.43	458.74
448.62	404.91
448.80	447.04
448.99	400.23
449.17	383.85
449.36	418.96
449.54	444.70
449.73	348.74
449.91	376.83
450.10	346.40
450.28	479.81
450.46	437.68
450.65	402.57
450.83	414.27
451.02	437.68
451.20	437.68
451.39	397.89
451.57	433.00
451.76	440.02
451.94	423.64
452.13	414.27
452.31	458.74
452.49	416.62
452.68	383.85
452.86	402.57
453.05	423.64
453.23	477.47
453.42	397.89
453.60	456.40
453.78	430.66
453.97	325.33
454.15	337.04
454.34	414.27
454.52	404.91
454.70	463.43
454.89	362.78
455.07	362.78
455.26	442.36
455.44	484.49
455.62	451.72
455.81	421.30
455.99	456.40
456.17	430.66
456.36	315.97
456.54	428.32
456.73	433.00
456.91	458.74
457.09	451.72
457.28	416.62
457.46	395.55
457.64	463.43
457.83	484.49
458.01	395.55
458.19	397.89
458.38	341.72
458.56	393.21
458.74	414.27
458.93	402.57
459.11	390.87
459.29	404.91
459.48	411.93
459.66	477.47
459.84	428.32
460.03	498.53
460.21	409.59
460.39	404.91
460.57	449.38
460.76	353.42
460.94	421.30
461.12	468.11
461.31	456.40
461.49	421.30
461.67	395.55
461.85	449.38
462.04	407.25
462.22	765.36
462.40	433.00
462.59	383.85
462.77	334.70
462.95	409.59
463.13	374.49
463.32	425.98
463.50	454.06
463.68	477.47
463.86	390.87
464.05	421.30
464.23	444.70
464.41	456.40
464.59	409.59
464.78	383.85
464.96	369.80
465.14	425.98
465.32	337.04
465.50	330.02
465.69	404.91
465.87	390.87
466.05	479.81
466.23	395.55
466.41	475.13
466.60	437.68
466.78	433.00
466.96	437.68
467.14	365.12
467.32	397.89
467.51	390.87
467.69	407.25
467.87	433.00
468.05	404.91
468.23	463.43
468.41	414.27
468.60	409.59
468.78	379.17
468.96	454.06
469.14	327.68
469.32	374.49
469.50	451.72
469.69	447.04
469.87	400.23
470.05	407.25
470.23	428.32
470.41	505.56
470.59	372.15
470.77	440.02
470.95	395.55
471.14	447.04
471.32	390.87
471.50	428.32
471.68	414.27
471.86	383.85
472.04	451.72
472.22	393.21
472.40	458.74
472.58	411.93
472.77	461.09
472.95	362.78
473.13	440.02
473.31	458.74
473.49	397.89
473.67	425.98
473.85	451.72
474.03	444.70
474.21	418.96
474.39	390.87
474.57	451.72
474.75	500.87
474.93	400.23
475.12	351.08
475.30	416.62
475.48	404.91
475.66	416.62
475.84	374.49
476.02	411.93
476.20	374.49
476.38	461.09
476.56	402.57
476.74	407.25
476.92	418.96
477.10	444.70
477.28	409.59
477.46	447.04
477.64	505.56
477.82	500.87
478.00	411.93
478.18	414.27
478.36	374.49
478.54	475.13
478.72	348.74
478.90	416.62
479.08	379.17
479.26	416.62
479.44	367.46
479.62	430.66
479.80	423.64
479.98	423.64
480.16	376.83
480.34	418.96
480.52	425.98
480.70	440.02
480.88	416.62
481.06	388.53
481.24	435.34
481.41	407.25
481.59	383.85
481.77	442.36
481.95	451.72
482.13	383.85
482.31	454.06
482.49	463.43
482.67	418.96
482.85	472.79
483.03	496.19
483.21	458.74
483.39	388.53
483.57	386.19
483.74	543.00
483.92	447.04
484.10	369.80
484.28	423.64
484.46	390.87
484.64	372.15
484.82	423.64
485.00	397.89
485.18	348.74
485.35	442.36
485.53	449.38
485.71	395.55
485.89	388.53
486.07	430.66
486.25	489.17
486.43	428.32
486.61	463.43
486.78	367.46
486.96	440.02
487.14	472.79
487.32	425.98
487.50	395.55
487.68	472.79
487.85	435.34
488.03	421.30
488.21	355.76
488.39	416.62
488.57	390.87
488.75	348.74
488.92	486.83
489.10	418.96
489.28	458.74
489.46	416.62
489.64	397.89
489.81	383.85
489.99	360.44
490.17	433.00
490.35	510.24
490.53	327.68
490.70	418.96
490.88	411.93
491.06	435.34
491.24	395.55
491.41	475.13
491.59	430.66
491.77	397.89
491.95	386.19
492.13	428.32
492.30	444.70
492.48	456.40
492.66	435.34
492.84	393.21
493.01	416.62
493.19	447.04
493.37	449.38
493.54	458.74
493.72	393.21
493.90	402.57
494.08	425.98
494.25	440.02
494.43	512.58
494.61	372.15
494.79	409.59
494.96	407.25
495.14	465.77
495.32	468.11
495.49	437.68
495.67	442.36
495.85	514.92
496.02	383.85
496.20	454.06
496.38	425.98
496.55	348.74
496.73	400.23
496.91	330.02
497.09	355.76
497.26	447.04
497.44	421.30
497.62	388.53
497.79	423.64
497.97	414.27
498.14	409.59
498.32	461.09
498.50	458.74
498.67	353.42
498.85	486.83
499.03	451.72
499.20	404.91
499.38	416.62
499.56	454.06
499.73	493.85
499.91	379.17
500.08	376.83
500.26	355.76
500.44	402.57
500.61	376.83
500.79	482.15
500.97	418.96
501.14	479.81
501.32	407.25
501.49	461.09
501.67	456.40
501.84	400.23
502.02	395.55
502.20	470.45
502.37	458.74
502.55	442.36
502.72	416.62
502.90	418.96
503.07	369.80
503.25	465.77
503.43	386.19
503.60	372.15
503.78	430.66
503.95	411.93
504.13	397.89
504.30	482.15
504.48	475.13
504.65	463.43
504.83	465.77
505.01	437.68
505.18	442.36
505.36	369.80
505.53	395.55
505.71	407.25
505.88	430.66
506.06	325.33
506.23	468.11
506.41	409.59
506.58	418.96
506.76	395.55
506.93	437.68
507.11	416.62
507.28	376.83
507.46	409.59
507.63	486.83
507.81	369.80
507.98	428.32
508.16	367.46
508.33	397.89
508.50	456.40
508.68	360.44
508.85	397.89
509.03	358.10
509.20	372.15
509.38	442.36
509.55	423.64
509.73	493.85
509.90	437.68
510.08	435.34
510.25	421.30
510.42	372.15
510.60	423.64
510.77	444.70
510.95	390.87
511.12	489.17
511.30	454.06
511.47	388.53
511.64	414.27
511.82	447.04
511.99	447.04
512.17	440.02
512.34	400.23
512.51	339.38
512.69	390.87
512.86	454.06
513.04	386.19
513.21	334.70
513.38	402.57
513.56	503.22
513.73	456.40
513.90	395.55
514.08	348.74
514.25	409.59
514.43	472.79
514.60	390.87
514.77	390.87
514.95	395.55
515.12	435.34
515.29	404.91
515.47	437.68
515.64	421.30
515.81	388.53
515.99	397.89
516.16	367.46
516.33	437.68
516.51	423.64
516.68	397.89
516.85	421.30
517.03	351.08
517.20	531.30
517.37	433.00
517.54	437.68
517.72	423.64
517.89	414.27
518.06	372.15
518.24	454.06
518.41	451.72
518.58	421.30
518.75	348.74
518.93	507.90
519.10	393.21
519.27	440.02
519.45	444.70
519.62	367.46
519.79	477.47
519.96	383.85
520.14	404.91
520.31	421.30
520.48	397.89
520.65	355.76
520.83	454.06
521.00	421.30
521.17	430.66
521.34	456.40
521.52	423.64
521.69	404.91
521.86	423.64
522.03	465.77
522.20	458.74
522.38	402.57
522.55	475.13
522.72	341.72
522.89	409.59
523.07	440.02
523.24	421.30
523.41	425.98
523.58	358.10
523.75	402.57
523.92	409.59
524.10	341.72
524.27	468.11
524.44	463.43
524.61	437.68
524.78	491.51
524.96	416.62
525.13	428.32
525.30	435.34
525.47	418.96
525.64	440.02
525.81	442.36
525.98	409.59
526.16	337.04
526.33	393.21
526.50	365.12
526.67	425.98
526.84	379.17
527.01	407.25
527.18	381.51
527.36	421.30
527.53	358.10
527.70	451.72
527.87	442.36
528.04	435.34
528.21	346.40
528.38	468.11
528.55	428.32
528.72	425.98
528.89	458.74
529.07	407.25
529.24	358.10
529.41	468.11
529.58	430.66
529.75	418.96
529.92	468.11
530.09	360.44
530.26	402.57
530.43	456.40
530.60	402.57
530.77	435.34
530.94	430.66
531.11	402.57
531.28	397.89
531.46	421.30
531.63	440.02
531.80	402.57
531.97	447.04
532.14	416.62
532.31	418.96
532.48	503.22
532.65	423.64
532.82	402.57
532.99	404.91
533.16	404.91
533.33	402.57
533.50	425.98
533.67	491.51
533.84	407.25
534.01	367.46
534.18	390.87
534.35	418.96
534.52	407.25
534.69	440.02
534.86	393.21
535.03	425.98
535.20	374.49
535.37	407.25
535.54	397.89
535.71	430.66
535.88	496.19
536.05	425.98
536.22	451.72
536.38	458.74
536.55	395.55
536.72	400.23
536.89	447.04
537.06	444.70
537.23	390.87
537.40	428.32
537.57	374.49
537.74	456.40
537.91	409.59
538.08	397.89
538.25	437.68
538.42	423.64
538.59	383.85
538.75	472.79
538.92	388.53
539.09	388.53
539.26	400.23
539.43	463.43
539.60	388.53
539.77	418.96
539.94	437.68
540.11	397.89
540.28	503.22
540.44	407.25
540.61	472.79
540.78	397.89
540.95	468.11
541.12	559.39
541.29	341.72
541.46	395.55
541.62	416.62
541.79	388.53
541.96	409.59
542.13	442.36
542.30	369.80
542.47	442.36
542.63	456.40
542.80	444.70
542.97	418.96
543.14	381.51
543.31	351.08
543.48	362.78
543.64	411.93
543.81	451.72
543.98	456.40
544.15	383.85
544.32	374.49
544.48	322.99
544.65	365.12
544.82	404.91
544.99	418.96
545.16	418.96
545.32	418.96
545.49	376.83
545.66	381.51
545.83	407.25
546.00	379.17
546.16	369.80
546.33	477.47
546.50	435.34
546.67	503.22
546.83	376.83
547.00	416.62
547.17	365.12
547.34	444.70
547.50	418.96
547.67	430.66
547.84	383.85
548.00	395.55
548.17	428.32
548.34	482.15
548.51	395.55
548.67	409.59
548.84	397.89
549.01	404.91
549.18	458.74
549.34	451.72
549.51	381.51
549.68	430.66
549.84	400.23
550.01	390.87
550.18	461.09
550.34	428.32
550.51	423.64
550.68	468.11
550.84	416.62
551.01	388.53
551.18	451.72
551.34	341.72
551.51	388.53
551.68	465.77
551.84	395.55
552.01	407.25
552.18	383.85
552.34	472.79
552.51	358.10
552.68	416.62
552.84	362.78
553.01	411.93
553.18	454.06
553.34	458.74
553.51	425.98
553.67	390.87
553.84	442.36
554.01	456.40
554.17	428.32
554.34	362.78
554.51	465.77
554.67	458.74
554.84	430.66
555.00	397.89
555.17	414.27
555.33	428.32
555.50	477.47
555.67	440.02
555.83	435.34
556.00	423.64
556.16	489.17
556.33	442.36
556.50	418.96
556.66	449.38
556.83	407.25
556.99	421.30
557.16	451.72
557.32	477.47
557.49	486.83
557.65	418.96
557.82	374.49
557.98	390.87
558.15	388.53
558.32	423.64
558.48	514.92
558.65	421.30
558.81	383.85
558.98	421.30
559.14	404.91
559.31	433.00
559.47	454.06
559.64	315.97
559.80	447.04
559.97	355.76
560.13	421.30
560.30	383.85
560.46	322.99
560.63	423.64
560.79	355.76
560.96	397.89
561.12	374.49
561.29	423.64
561.45	393.21
561.61	362.78
561.78	456.40
561.94	404.91
562.11	407.25
562.27	355.76
562.44	407.25
562.60	414.27
562.77	430.66
562.93	468.11
563.10	440.02
563.26	472.79
563.42	428.32
563.59	442.36
563.75	444.70
563.92	442.36
564.08	486.83
564.24	418.96
564.41	468.11
564.57	395.55
564.74	397.89
564.90	496.19
565.07	379.17
565.23	386.19
565.39	362.78
565.56	486.83
565.72	468.11
565.88	390.87
566.05	376.83
566.21	435.34
566.38	482.15
566.54	372.15
566.70	395.55
566.87	386.19
567.03	360.44
567.19	369.80
567.36	409.59
567.52	423.64
567.68	409.59
567.85	407.25
568.01	397.89
568.17	440.02
568.34	421.30
568.50	489.17
568.66	461.09
568.83	491.51
568.99	437.68
569.15	402.57
569.32	470.45
569.48	423.64
569.64	414.27
569.81	486.83
569.97	458.74
570.13	428.32
570.30	409.59
570.46	465.77
570.62	444.70
570.78	407.25
570.95	425.98
571.11	409.59
571.27	444.70
571.43	374.49
571.60	456.40
571.76	379.17
571.92	414.27
572.09	395.55
572.25	386.19
572.41	383.85
572.57	404.91
572.74	449.38
572.90	496.19
573.06	416.62
573.22	472.79
573.38	383.85
573.55	428.32
573.71	433.00
573.87	423.64
574.03	500.87
574.20	409.59
574.36	388.53
574.52	486.83
574.68	484.49
574.84	383.85
575.01	400.23
575.17	407.25
575.33	444.70
575.49	386.19
575.65	428.32
575.82	435.34
575.98	468.11
576.14	411.93
576.30	477.47
576.46	372.15
576.62	360.44
576.79	477.47
576.95	444.70
577.11	381.51
577.27	407.25
577.43	437.68
577.59	416.62
577.75	447.04
577.92	463.43
578.08	454.06
578.24	456.40
578.40	454.06
578.56	468.11
578.72	407.25
578.88	470.45
579.04	351.08
579.21	477.47
579.37	393.21
579.53	339.38
579.69	390.87
579.85	458.74
580.01	362.78
580.17	379.17
580.33	386.19
580.49	463.43
580.65	376.83
580.82	475.13
580.98	496.19
581.14	386.19
581.30	442.36
581.46	451.72
581.62	458.74
581.78	402.57
581.94	472.79
582.10	367.46
582.26	442.36
582.42	418.96
582.58	402.57
582.74	358.10
582.90	437.68
583.06	437.68
583.22	404.91
583.38	416.62
583.54	418.96
583.70	449.38
583.86	334.70
584.02	400.23
584.18	475.13
584.34	458.74
584.50	498.53
584.66	428.32
584.82	344.06
584.98	355.76
585.14	421.30
585.30	437.68
585.46	376.83
585.62	376.83
585.78	451.72
585.94	447.04
586.10	397.89
586.26	428.32
586.42	425.98
586.58	430.66
586.74	451.72
586.90	411.93
587.06	444.70
587.22	470.45
587.38	395.55
587.54	500.87
587.70	442.36
587.86	358.10
588.02	369.80
588.18	411.93
588.34	395.55
588.49	407.25
588.65	386.19
588.81	386.19
588.97	430.66
589.13	465.77
589.29	388.53
589.45	461.09
589.61	442.36
589.77	379.17
589.93	433.00
590.08	456.40
590.24	388.53
590.40	353.42
590.56	402.57
590.72	365.12
590.88	428.32
591.04	449.38
591.20	468.11
591.35	379.17
591.51	444.70
591.67	367.46
591.83	442.36
591.99	367.46
592.15	379.17
592.31	348.74
592.46	393.21
592.62	379.17
592.78	404.91
592.94	440.02
593.10	390.87
593.26	397.89
593.41	451.72
593.57	397.89
593.73	358.10
593.89	489.17
594.05	360.44
594.20	367.46
594.36	416.62
594.52	400.23
594.68	390.87
594.84	334.70
594.99	402.57
595.15	435.34
595.31	402.57
595.47	421.30
595.62	407.25
595.78	407.25
595.94	414.27
596.10	500.87
596.25	346.40
596.41	437.68
596.57	411.93
596.73	372.15
596.88	376.83
597.04	433.00
597.20	463.43
597.36	388.53
597.51	442.36
597.67	425.98
597.83	411.93
597.99	465.77
598.14	437.68
598.30	404.91
598.46	468.11
598.61	521.94
598.77	458.74
598.93	365.12
599.09	351.08
599.24	458.74
599.40	425.98
599.56	388.53
599.71	447.04
599.87	437.68
600.03	421.30
600.18	437.68
600.34	461.09
600.50	465.77
600.65	442.36
600.81	503.22
600.97	430.66
601.12	372.15
601.28	416.62
601.44	428.32
601.59	425.98
601.75	383.85
601.91	428.32
602.06	395.55
602.22	430.66
602.37	475.13
602.53	351.08
602.69	423.64
602.84	376.83
603.00	458.74
603.16	416.62
603.31	423.64
603.47	341.72
603.62	369.80
603.78	358.10
603.94	456.40
604.09	521.94
604.25	430.66
604.40	472.79
604.56	372.15
604.71	449.38
604.87	442.36
605.03	482.15
605.18	353.42
605.34	395.55
605.49	372.15
605.65	402.57
605.80	461.09
605.96	449.38
606.12	451.72
606.27	472.79
606.43	447.04
606.58	421.30
606.74	360.44
606.89	353.42
607.05	423.64
607.20	360.44
607.36	428.32
607.51	397.89
607.67	411.93
607.82	430.66
607.98	367.46
608.13	374.49
608.29	449.38
608.44	372.15
608.60	449.38
608.75	430.66
608.91	442.36
609.06	519.60
609.22	479.81
609.37	402.57
609.53	400.23
609.68	334.70
609.84	416.62
609.99	390.87
610.15	395.55
