SpectraSuite Data File
++++++++++++++++++++++++++++++++++++
Date: Fri Oct 25 12:10:06 EDT 2013
User: price-jones
Dark Spectrum Present: No
Reference Spectrum Present: No
Number of Sampled Component Spectra: 1
Spectrometers: USB2+H05261
Integration Time (usec): 100000 (USB2+H05261)
Spectra Averaged: 1 (USB2+H05261)
Boxcar Smoothing: 0 (USB2+H05261)
Correct for Electrical Dark: No (USB2+H05261)
Strobe/Lamp Enabled: No (USB2+H05261)
Correct for Detector Non-linearity: No (USB2+H05261)
Correct for Stray Light: No (USB2+H05261)
Number of Pixels in Processed Spectrum: 2048
>>>>>Begin Processed Spectral Data<<<<<
365.73	374.49
365.92	374.49
366.12	374.49
366.32	273.84
366.52	189.58
366.72	273.84
366.91	234.05
367.11	252.78
367.31	234.05
367.51	252.78
367.70	234.05
367.90	161.50
368.10	229.37
368.30	280.86
368.49	238.73
368.69	231.71
368.89	266.82
369.09	234.05
369.28	276.18
369.48	266.82
369.68	273.84
369.87	285.55
370.07	271.50
370.27	276.18
370.47	388.53
370.66	325.33
370.86	339.38
371.06	411.93
371.25	397.89
371.45	330.02
371.65	390.87
371.84	449.38
372.04	388.53
372.24	372.15
372.44	404.91
372.63	402.57
372.83	442.36
373.03	330.02
373.22	351.08
373.42	411.93
373.62	383.85
373.81	423.64
374.01	465.77
374.21	449.38
374.40	369.80
374.60	376.83
374.79	327.68
374.99	440.02
375.19	404.91
375.38	428.32
375.58	461.09
375.78	458.74
375.97	407.25
376.17	475.13
376.37	407.25
376.56	430.66
376.76	411.93
376.95	407.25
377.15	388.53
377.35	418.96
377.54	355.76
377.74	425.98
377.93	409.59
378.13	358.10
378.33	442.36
378.52	418.96
378.72	393.21
378.91	442.36
379.11	362.78
379.31	386.19
379.50	374.49
379.70	465.77
379.89	416.62
380.09	369.80
380.28	393.21
380.48	346.40
380.68	360.44
380.87	379.17
381.07	449.38
381.26	409.59
381.46	367.46
381.65	404.91
381.85	353.42
382.04	407.25
382.24	411.93
382.43	388.53
382.63	393.21
382.83	379.17
383.02	528.96
383.22	456.40
383.41	421.30
383.61	393.21
383.80	440.02
384.00	393.21
384.19	365.12
384.39	425.98
384.58	421.30
384.78	470.45
384.97	414.27
385.17	402.57
385.36	451.72
385.56	414.27
385.75	423.64
385.95	456.40
386.14	428.32
386.34	470.45
386.53	421.30
386.72	402.57
386.92	493.85
387.11	435.34
387.31	402.57
387.50	383.85
387.70	425.98
387.89	400.23
388.09	386.19
388.28	414.27
388.48	388.53
388.67	418.96
388.86	376.83
389.06	332.36
389.25	423.64
389.45	388.53
389.64	379.17
389.84	463.43
390.03	451.72
390.22	475.13
390.42	425.98
390.61	407.25
390.81	407.25
391.00	411.93
391.19	498.53
391.39	411.93
391.58	374.49
391.78	360.44
391.97	465.77
392.16	425.98
392.36	409.59
392.55	414.27
392.75	489.17
392.94	362.78
393.13	374.49
393.33	322.99
393.52	409.59
393.71	414.27
393.91	411.93
394.10	428.32
394.29	440.02
394.49	421.30
394.68	468.11
394.88	414.27
395.07	425.98
395.26	355.76
395.46	381.51
395.65	425.98
395.84	360.44
396.04	414.27
396.23	423.64
396.42	393.21
396.62	374.49
396.81	393.21
397.00	369.80
397.19	318.31
397.39	444.70
397.58	393.21
397.77	411.93
397.97	423.64
398.16	449.38
398.35	379.17
398.55	437.68
398.74	430.66
398.93	416.62
399.12	409.59
399.32	407.25
399.51	414.27
399.70	397.89
399.90	409.59
400.09	404.91
400.28	468.11
400.47	374.49
400.67	454.06
400.86	425.98
401.05	386.19
401.24	423.64
401.44	430.66
401.63	442.36
401.82	435.34
402.01	433.00
402.21	351.08
402.40	447.04
402.59	381.51
402.78	374.49
402.97	407.25
403.17	440.02
403.36	379.17
403.55	372.15
403.74	407.25
403.93	442.36
404.13	374.49
404.32	416.62
404.51	395.55
404.70	409.59
404.89	437.68
405.09	430.66
405.28	381.51
405.47	360.44
405.66	334.70
405.85	428.32
406.05	374.49
406.24	407.25
406.43	407.25
406.62	484.49
406.81	456.40
407.00	503.22
407.20	376.83
407.39	320.65
407.58	437.68
407.77	393.21
407.96	461.09
408.15	456.40
408.34	383.85
408.54	409.59
408.73	440.02
408.92	374.49
409.11	468.11
409.30	442.36
409.49	397.89
409.68	362.78
409.87	407.25
410.07	411.93
410.26	454.06
410.45	442.36
410.64	393.21
410.83	400.23
411.02	294.91
411.21	374.49
411.40	463.43
411.59	414.27
411.78	400.23
411.98	465.77
412.17	402.57
412.36	344.06
412.55	362.78
412.74	341.72
412.93	475.13
413.12	393.21
413.31	451.72
413.50	423.64
413.69	421.30
413.88	479.81
414.07	456.40
414.26	416.62
414.45	407.25
414.64	414.27
414.83	351.08
415.02	409.59
415.22	407.25
415.41	444.70
415.60	458.74
415.79	454.06
415.98	301.93
416.17	386.19
416.36	360.44
416.55	337.04
416.74	397.89
416.93	372.15
417.12	428.32
417.31	367.46
417.50	423.64
417.69	479.81
417.88	390.87
418.07	355.76
418.26	409.59
418.45	407.25
418.64	351.08
418.83	402.57
419.02	470.45
419.21	491.51
419.39	367.46
419.58	451.72
419.77	346.40
419.96	374.49
420.15	442.36
420.34	355.76
420.53	395.55
420.72	507.90
420.91	416.62
421.10	421.30
421.29	430.66
421.48	367.46
421.67	402.57
421.86	444.70
422.05	407.25
422.24	397.89
422.43	470.45
422.61	355.76
422.80	404.91
422.99	428.32
423.18	402.57
423.37	482.15
423.56	348.74
423.75	400.23
423.94	449.38
424.13	489.17
424.32	400.23
424.50	435.34
424.69	416.62
424.88	393.21
425.07	400.23
425.26	411.93
425.45	428.32
425.64	386.19
425.83	393.21
426.01	440.02
426.20	409.59
426.39	404.91
426.58	414.27
426.77	416.62
426.96	437.68
427.15	437.68
427.33	365.12
427.52	395.55
427.71	386.19
427.90	360.44
428.09	433.00
428.28	379.17
428.46	418.96
428.65	440.02
428.84	358.10
429.03	409.59
429.22	414.27
429.40	376.83
429.59	367.46
429.78	369.80
429.97	428.32
430.16	374.49
430.34	407.25
430.53	383.85
430.72	451.72
430.91	381.51
431.10	383.85
431.28	442.36
431.47	461.09
431.66	397.89
431.85	444.70
432.03	430.66
432.22	470.45
432.41	423.64
432.60	442.36
432.79	421.30
432.97	430.66
433.16	376.83
433.35	379.17
433.54	388.53
433.72	421.30
433.91	461.09
434.10	451.72
434.28	379.17
434.47	475.13
434.66	390.87
434.85	381.51
435.03	447.04
435.22	447.04
435.41	423.64
435.59	390.87
435.78	341.72
435.97	386.19
436.16	404.91
436.34	461.09
436.53	496.19
436.72	423.64
436.90	437.68
437.09	435.34
437.28	407.25
437.46	318.31
437.65	491.51
437.84	393.21
438.02	470.45
438.21	386.19
438.40	414.27
438.58	409.59
438.77	418.96
438.96	423.64
439.14	411.93
439.33	442.36
439.52	355.76
439.70	416.62
439.89	437.68
440.08	433.00
440.26	482.15
440.45	369.80
440.63	402.57
440.82	416.62
441.01	477.47
441.19	379.17
441.38	409.59
441.57	402.57
441.75	458.74
441.94	456.40
442.12	421.30
442.31	285.55
442.50	390.87
442.68	407.25
442.87	369.80
443.05	447.04
443.24	395.55
443.43	395.55
443.61	418.96
443.80	414.27
443.98	330.02
444.17	458.74
444.35	397.89
444.54	430.66
444.73	437.68
444.91	418.96
445.10	381.51
445.28	411.93
445.47	390.87
445.65	407.25
445.84	372.15
446.02	449.38
446.21	395.55
446.39	400.23
446.58	433.00
446.77	442.36
446.95	407.25
447.14	418.96
447.32	416.62
447.51	456.40
447.69	416.62
447.88	461.09
448.06	355.76
448.25	507.90
448.43	355.76
448.62	407.25
448.80	425.98
448.99	372.15
449.17	416.62
449.36	409.59
449.54	388.53
449.73	414.27
449.91	393.21
450.10	379.17
450.28	463.43
450.46	407.25
450.65	395.55
450.83	402.57
451.02	430.66
451.20	341.72
451.39	365.12
451.57	337.04
451.76	362.78
451.94	442.36
452.13	440.02
452.31	440.02
452.49	425.98
452.68	416.62
452.86	346.40
453.05	440.02
453.23	444.70
453.42	411.93
453.60	456.40
453.78	360.44
453.97	365.12
454.15	346.40
454.34	397.89
454.52	428.32
454.70	484.49
454.89	428.32
455.07	449.38
455.26	411.93
455.44	491.51
455.62	397.89
455.81	435.34
455.99	397.89
456.17	397.89
456.36	374.49
456.54	444.70
456.73	376.83
456.91	383.85
457.09	393.21
457.28	423.64
457.46	512.58
457.64	496.19
457.83	489.17
458.01	346.40
458.19	383.85
458.38	369.80
458.56	437.68
458.74	376.83
458.93	390.87
459.11	456.40
459.29	472.79
459.48	355.76
459.66	395.55
459.84	395.55
460.03	421.30
460.21	402.57
460.39	425.98
460.57	372.15
460.76	428.32
460.94	435.34
461.12	376.83
461.31	367.46
461.49	379.17
461.67	369.80
461.85	421.30
462.04	428.32
462.22	784.08
462.40	400.23
462.59	514.92
462.77	433.00
462.95	451.72
463.13	372.15
463.32	423.64
463.50	425.98
463.68	400.23
463.86	421.30
464.05	425.98
464.23	447.04
464.41	402.57
464.59	442.36
464.78	397.89
464.96	381.51
465.14	365.12
465.32	344.06
465.50	393.21
465.69	374.49
465.87	404.91
466.05	400.23
466.23	383.85
466.41	353.42
466.60	360.44
466.78	416.62
466.96	447.04
467.14	365.12
467.32	465.77
467.51	437.68
467.69	386.19
467.87	479.81
468.05	409.59
468.23	440.02
468.41	388.53
468.60	365.12
468.78	423.64
468.96	416.62
469.14	458.74
469.32	397.89
469.50	423.64
469.69	400.23
469.87	416.62
470.05	435.34
470.23	449.38
470.41	360.44
470.59	372.15
470.77	360.44
470.95	390.87
471.14	444.70
471.32	393.21
471.50	362.78
471.68	358.10
471.86	407.25
472.04	397.89
472.22	388.53
472.40	442.36
472.58	411.93
472.77	433.00
472.95	360.44
473.13	479.81
473.31	390.87
473.49	372.15
473.67	388.53
473.85	444.70
474.03	428.32
474.21	416.62
474.39	430.66
474.57	491.51
474.75	411.93
474.93	365.12
475.12	404.91
475.30	430.66
475.48	449.38
475.66	440.02
475.84	402.57
476.02	395.55
476.20	423.64
476.38	393.21
476.56	479.81
476.74	440.02
476.92	407.25
477.10	383.85
477.28	451.72
477.46	409.59
477.64	430.66
477.82	437.68
478.00	409.59
478.18	407.25
478.36	461.09
478.54	423.64
478.72	400.23
478.90	407.25
479.08	400.23
479.26	442.36
479.44	402.57
479.62	383.85
479.80	440.02
479.98	393.21
480.16	386.19
480.34	484.49
480.52	442.36
480.70	404.91
480.88	449.38
481.06	386.19
481.24	461.09
481.41	428.32
481.59	428.32
481.77	397.89
481.95	472.79
482.13	475.13
482.31	355.76
482.49	421.30
482.67	414.27
482.85	376.83
483.03	456.40
483.21	374.49
483.39	383.85
483.57	418.96
483.74	451.72
483.92	381.51
484.10	402.57
484.28	407.25
484.46	400.23
484.64	423.64
484.82	425.98
485.00	327.68
485.18	425.98
485.35	386.19
485.53	421.30
485.71	472.79
485.89	404.91
486.07	397.89
486.25	498.53
486.43	442.36
486.61	440.02
486.78	430.66
486.96	411.93
487.14	397.89
487.32	421.30
487.50	362.78
487.68	416.62
487.85	411.93
488.03	442.36
488.21	390.87
488.39	367.46
488.57	400.23
488.75	372.15
488.92	510.24
489.10	355.76
489.28	418.96
489.46	451.72
489.64	388.53
489.81	414.27
489.99	428.32
490.17	393.21
490.35	369.80
490.53	411.93
490.70	346.40
490.88	400.23
491.06	379.17
491.24	442.36
491.41	440.02
491.59	479.81
491.77	395.55
491.95	430.66
492.13	456.40
492.30	433.00
492.48	411.93
492.66	386.19
492.84	362.78
493.01	461.09
493.19	425.98
493.37	411.93
493.54	468.11
493.72	449.38
493.90	465.77
494.08	463.43
494.25	407.25
494.43	440.02
494.61	421.30
494.79	425.98
494.96	372.15
495.14	393.21
495.32	411.93
495.49	367.46
495.67	407.25
495.85	390.87
496.02	430.66
496.20	475.13
496.38	351.08
496.55	449.38
496.73	409.59
496.91	421.30
497.09	433.00
497.26	463.43
497.44	409.59
497.62	376.83
497.79	379.17
497.97	477.47
498.14	421.30
498.32	479.81
498.50	390.87
498.67	416.62
498.85	463.43
499.03	358.10
499.20	388.53
499.38	390.87
499.56	383.85
499.73	379.17
499.91	414.27
500.08	411.93
500.26	442.36
500.44	393.21
500.61	437.68
500.79	369.80
500.97	449.38
501.14	472.79
501.32	454.06
501.49	418.96
501.67	348.74
501.84	456.40
502.02	425.98
502.20	493.85
502.37	433.00
502.55	428.32
502.72	437.68
502.90	404.91
503.07	442.36
503.25	365.12
503.43	397.89
503.60	386.19
503.78	348.74
503.95	379.17
504.13	393.21
504.30	428.32
504.48	475.13
504.65	402.57
504.83	411.93
505.01	374.49
505.18	435.34
505.36	407.25
505.53	381.51
505.71	425.98
505.88	418.96
506.06	418.96
506.23	388.53
506.41	341.72
506.58	449.38
506.76	447.04
506.93	313.63
507.11	418.96
507.28	388.53
507.46	421.30
507.63	390.87
507.81	348.74
507.98	440.02
508.16	400.23
508.33	379.17
508.50	456.40
508.68	337.04
508.85	374.49
509.03	400.23
509.20	418.96
509.38	411.93
509.55	463.43
509.73	447.04
509.90	404.91
510.08	351.08
510.25	425.98
510.42	388.53
510.60	334.70
510.77	358.10
510.95	423.64
511.12	397.89
511.30	440.02
511.47	458.74
511.64	440.02
511.82	388.53
511.99	437.68
512.17	379.17
512.34	421.30
512.51	400.23
512.69	395.55
512.86	423.64
513.04	421.30
513.21	416.62
513.38	390.87
513.56	451.72
513.73	435.34
513.90	416.62
514.08	425.98
514.25	430.66
514.43	461.09
514.60	421.30
514.77	404.91
514.95	383.85
515.12	376.83
515.29	402.57
515.47	395.55
515.64	414.27
515.81	430.66
515.99	383.85
516.16	379.17
516.33	386.19
516.51	414.27
516.68	379.17
516.85	423.64
517.03	418.96
517.20	369.80
517.37	475.13
517.54	390.87
517.72	358.10
517.89	451.72
518.06	327.68
518.24	444.70
518.41	423.64
518.58	355.76
518.75	442.36
518.93	400.23
519.10	444.70
519.27	344.06
519.45	449.38
519.62	430.66
519.79	388.53
519.96	386.19
520.14	414.27
520.31	407.25
520.48	365.12
520.65	472.79
520.83	423.64
521.00	423.64
521.17	341.72
521.34	409.59
521.52	449.38
521.69	421.30
521.86	409.59
522.03	496.19
522.20	472.79
522.38	475.13
522.55	470.45
522.72	433.00
522.89	376.83
523.07	475.13
523.24	409.59
523.41	409.59
523.58	491.51
523.75	463.43
523.92	416.62
524.10	425.98
524.27	449.38
524.44	435.34
524.61	493.85
524.78	404.91
524.96	444.70
525.13	414.27
525.30	482.15
525.47	376.83
525.64	355.76
525.81	355.76
525.98	383.85
526.16	365.12
526.33	407.25
526.50	425.98
526.67	433.00
526.84	416.62
527.01	430.66
527.18	416.62
527.36	369.80
527.53	379.17
527.70	472.79
527.87	416.62
528.04	461.09
528.21	404.91
528.38	418.96
528.55	339.38
528.72	472.79
528.89	425.98
529.07	409.59
529.24	486.83
529.41	449.38
529.58	442.36
529.75	351.08
529.92	400.23
530.09	411.93
530.26	407.25
530.43	421.30
530.60	454.06
530.77	411.93
530.94	444.70
531.11	470.45
531.28	428.32
531.46	430.66
531.63	425.98
531.80	379.17
531.97	447.04
532.14	423.64
532.31	421.30
532.48	372.15
532.65	470.45
532.82	400.23
532.99	388.53
533.16	416.62
533.33	449.38
533.50	353.42
533.67	409.59
533.84	475.13
534.01	346.40
534.18	433.00
534.35	463.43
534.52	444.70
534.69	437.68
534.86	421.30
535.03	430.66
535.20	355.76
535.37	461.09
535.54	416.62
535.71	393.21
535.88	430.66
536.05	475.13
536.22	458.74
536.38	425.98
536.55	435.34
536.72	475.13
536.89	386.19
537.06	407.25
537.23	423.64
537.40	425.98
537.57	390.87
537.74	472.79
537.91	402.57
538.08	339.38
538.25	421.30
538.42	327.68
538.59	437.68
538.75	365.12
538.92	351.08
539.09	430.66
539.26	379.17
539.43	468.11
539.60	489.17
539.77	418.96
539.94	395.55
540.11	435.34
540.28	416.62
540.44	407.25
540.61	440.02
540.78	468.11
540.95	440.02
541.12	468.11
541.29	372.15
541.46	400.23
541.62	493.85
541.79	383.85
541.96	369.80
542.13	414.27
542.30	379.17
542.47	400.23
542.63	430.66
542.80	418.96
542.97	440.02
543.14	444.70
543.31	416.62
543.48	379.17
543.64	430.66
543.81	425.98
543.98	376.83
544.15	416.62
544.32	440.02
544.48	393.21
544.65	442.36
544.82	383.85
544.99	414.27
545.16	400.23
545.32	407.25
545.49	369.80
545.66	444.70
545.83	320.65
546.00	442.36
546.16	440.02
546.33	411.93
546.50	390.87
546.67	449.38
546.83	493.85
547.00	353.42
547.17	353.42
547.34	404.91
547.50	379.17
547.67	393.21
547.84	416.62
548.00	395.55
548.17	475.13
548.34	397.89
548.51	465.77
548.67	435.34
548.84	479.81
549.01	440.02
549.18	393.21
549.34	430.66
549.51	421.30
549.68	355.76
549.84	423.64
550.01	430.66
550.18	416.62
550.34	447.04
550.51	526.62
550.68	449.38
550.84	421.30
551.01	451.72
551.18	440.02
551.34	411.93
551.51	454.06
551.68	388.53
551.84	386.19
552.01	351.08
552.18	437.68
552.34	451.72
552.51	383.85
552.68	404.91
552.84	374.49
553.01	358.10
553.18	416.62
553.34	435.34
553.51	430.66
553.67	374.49
553.84	442.36
554.01	430.66
554.17	458.74
554.34	341.72
554.51	376.83
554.67	388.53
554.84	451.72
555.00	337.04
555.17	421.30
555.33	421.30
555.50	414.27
555.67	435.34
555.83	404.91
556.00	404.91
556.16	503.22
556.33	475.13
556.50	379.17
556.66	402.57
556.83	456.40
556.99	402.57
557.16	444.70
557.32	369.80
557.49	425.98
557.65	348.74
557.82	374.49
557.98	402.57
558.15	472.79
558.32	393.21
558.48	468.11
558.65	430.66
558.81	414.27
558.98	456.40
559.14	451.72
559.31	416.62
559.47	383.85
559.64	407.25
559.80	442.36
559.97	425.98
560.13	449.38
560.30	411.93
560.46	425.98
560.63	411.93
560.79	414.27
560.96	376.83
561.12	433.00
561.29	449.38
561.45	418.96
561.61	440.02
561.78	496.19
561.94	351.08
562.11	463.43
562.27	404.91
562.44	404.91
562.60	468.11
562.77	390.87
562.93	458.74
563.10	351.08
563.26	468.11
563.42	430.66
563.59	407.25
563.75	395.55
563.92	435.34
564.08	407.25
564.24	397.89
564.41	393.21
564.57	468.11
564.74	449.38
564.90	423.64
565.07	491.51
565.23	440.02
565.39	407.25
565.56	416.62
565.72	418.96
565.88	362.78
566.05	400.23
566.21	435.34
566.38	433.00
566.54	479.81
566.70	325.33
566.87	397.89
567.03	416.62
567.19	470.45
567.36	458.74
567.52	397.89
567.68	395.55
567.85	435.34
568.01	477.47
568.17	407.25
568.34	388.53
568.50	423.64
568.66	372.15
568.83	484.49
568.99	463.43
569.15	465.77
569.32	423.64
569.48	433.00
569.64	430.66
569.81	395.55
569.97	360.44
570.13	437.68
570.30	470.45
570.46	421.30
570.62	367.46
570.78	423.64
570.95	395.55
571.11	454.06
571.27	447.04
571.43	404.91
571.60	489.17
571.76	365.12
571.92	409.59
572.09	447.04
572.25	430.66
572.41	400.23
572.57	430.66
572.74	447.04
572.90	407.25
573.06	400.23
573.22	430.66
573.38	472.79
573.55	395.55
573.71	468.11
573.87	468.11
574.03	449.38
574.20	409.59
574.36	463.43
574.52	505.56
574.68	365.12
574.84	402.57
575.01	440.02
575.17	341.72
575.33	440.02
575.49	451.72
575.65	376.83
575.82	414.27
575.98	442.36
576.14	383.85
576.30	425.98
576.46	381.51
576.62	374.49
576.79	337.04
576.95	444.70
577.11	390.87
577.27	369.80
577.43	376.83
577.59	414.27
577.75	421.30
577.92	365.12
578.08	358.10
578.24	477.47
578.40	451.72
578.56	458.74
578.72	489.17
578.88	388.53
579.04	416.62
579.21	430.66
579.37	437.68
579.53	402.57
579.69	433.00
579.85	346.40
580.01	477.47
580.17	454.06
580.33	416.62
580.49	435.34
580.65	411.93
580.82	444.70
580.98	451.72
581.14	430.66
581.30	463.43
581.46	444.70
581.62	383.85
581.78	369.80
581.94	505.56
582.10	367.46
582.26	365.12
582.42	344.06
582.58	400.23
582.74	444.70
582.90	428.32
583.06	407.25
583.22	355.76
583.38	372.15
583.54	367.46
583.70	414.27
583.86	437.68
584.02	411.93
584.18	409.59
584.34	383.85
584.50	376.83
584.66	400.23
584.82	418.96
584.98	454.06
585.14	519.60
585.30	416.62
585.46	414.27
585.62	395.55
585.78	468.11
585.94	484.49
586.10	486.83
586.26	449.38
586.42	372.15
586.58	308.95
586.74	404.91
586.90	322.99
587.06	416.62
587.22	339.38
587.38	379.17
587.54	383.85
587.70	472.79
587.86	484.49
588.02	395.55
588.18	402.57
588.34	379.17
588.49	341.72
588.65	383.85
588.81	322.99
588.97	346.40
589.13	402.57
589.29	390.87
589.45	362.78
589.61	395.55
589.77	465.77
589.93	463.43
590.08	386.19
590.24	428.32
590.40	451.72
590.56	423.64
590.72	414.27
590.88	402.57
591.04	386.19
591.20	390.87
591.35	360.44
591.51	421.30
591.67	376.83
591.83	428.32
591.99	351.08
592.15	479.81
592.31	393.21
592.46	344.06
592.62	463.43
592.78	381.51
592.94	428.32
593.10	428.32
593.26	390.87
593.41	428.32
593.57	407.25
593.73	472.79
593.89	428.32
594.05	365.12
594.20	425.98
594.36	449.38
594.52	440.02
594.68	447.04
594.84	447.04
594.99	465.77
595.15	428.32
595.31	514.92
595.47	486.83
595.62	397.89
595.78	411.93
595.94	447.04
596.10	500.87
596.25	421.30
596.41	442.36
596.57	351.08
596.73	414.27
596.88	435.34
597.04	358.10
597.20	369.80
597.36	421.30
597.51	409.59
597.67	472.79
597.83	433.00
597.99	479.81
598.14	470.45
598.30	486.83
598.46	477.47
598.61	423.64
598.77	365.12
598.93	489.17
599.09	418.96
599.24	435.34
599.40	440.02
599.56	416.62
599.71	397.89
599.87	367.46
600.03	381.51
600.18	400.23
600.34	407.25
600.50	414.27
600.65	435.34
600.81	463.43
600.97	416.62
601.12	404.91
601.28	428.32
601.44	451.72
601.59	414.27
601.75	402.57
601.91	409.59
602.06	456.40
602.22	440.02
602.37	388.53
602.53	442.36
602.69	397.89
602.84	362.78
603.00	379.17
603.16	416.62
603.31	409.59
603.47	395.55
603.62	444.70
603.78	447.04
603.94	430.66
604.09	395.55
604.25	395.55
604.40	433.00
604.56	418.96
604.71	472.79
604.87	496.19
605.03	423.64
605.18	402.57
605.34	449.38
605.49	397.89
605.65	383.85
605.80	400.23
605.96	355.76
606.12	430.66
606.27	477.47
606.43	421.30
606.58	435.34
606.74	381.51
606.89	379.17
607.05	491.51
607.20	440.02
607.36	388.53
607.51	421.30
607.67	461.09
607.82	458.74
607.98	423.64
608.13	379.17
608.29	376.83
608.44	428.32
608.60	433.00
608.75	484.49
608.91	472.79
609.06	428.32
609.22	475.13
609.37	416.62
609.53	383.85
609.68	428.32
609.84	346.40
609.99	425.98
610.15	456.40
