SpectraSuite Data File
++++++++++++++++++++++++++++++++++++
Date: Fri Oct 25 12:11:40 EDT 2013
User: price-jones
Dark Spectrum Present: No
Reference Spectrum Present: No
Number of Sampled Component Spectra: 1
Spectrometers: USB2+H05261
Integration Time (usec): 100000 (USB2+H05261)
Spectra Averaged: 1 (USB2+H05261)
Boxcar Smoothing: 0 (USB2+H05261)
Correct for Electrical Dark: No (USB2+H05261)
Strobe/Lamp Enabled: No (USB2+H05261)
Correct for Detector Non-linearity: No (USB2+H05261)
Correct for Stray Light: No (USB2+H05261)
Number of Pixels in Processed Spectrum: 2048
>>>>>Begin Processed Spectral Data<<<<<
365.73	294.91
365.92	294.91
366.12	294.91
366.32	322.99
366.52	191.92
366.72	217.67
366.91	224.69
367.11	203.63
367.31	205.97
367.51	208.31
367.70	210.65
367.90	224.69
368.10	229.37
368.30	220.01
368.49	196.60
368.69	297.25
368.89	212.99
369.09	250.44
369.28	318.31
369.48	337.04
369.68	222.35
369.87	285.55
370.07	271.50
370.27	353.42
370.47	262.14
370.66	304.27
370.86	332.36
371.06	428.32
371.25	437.68
371.45	304.27
371.65	409.59
371.84	341.72
372.04	411.93
372.24	449.38
372.44	322.99
372.63	395.55
372.83	437.68
373.03	351.08
373.22	421.30
373.42	402.57
373.62	348.74
373.81	428.32
374.01	353.42
374.21	407.25
374.40	444.70
374.60	386.19
374.79	374.49
374.99	491.51
375.19	444.70
375.38	407.25
375.58	433.00
375.78	454.06
375.97	334.70
376.17	444.70
376.37	454.06
376.56	418.96
376.76	416.62
376.95	393.21
377.15	463.43
377.35	421.30
377.54	402.57
377.74	339.38
377.93	484.49
378.13	390.87
378.33	428.32
378.52	369.80
378.72	414.27
378.91	353.42
379.11	402.57
379.31	367.46
379.50	428.32
379.70	425.98
379.89	397.89
380.09	358.10
380.28	390.87
380.48	400.23
380.68	386.19
380.87	428.32
381.07	365.12
381.26	423.64
381.46	402.57
381.65	395.55
381.85	421.30
382.04	493.85
382.24	353.42
382.43	482.15
382.63	435.34
382.83	355.76
383.02	409.59
383.22	425.98
383.41	400.23
383.61	381.51
383.80	367.46
384.00	386.19
384.19	374.49
384.39	402.57
384.58	388.53
384.78	376.83
384.97	383.85
385.17	397.89
385.36	461.09
385.56	458.74
385.75	486.83
385.95	411.93
386.14	393.21
386.34	353.42
386.53	437.68
386.72	393.21
386.92	456.40
387.11	327.68
387.31	449.38
387.50	421.30
387.70	414.27
387.89	393.21
388.09	404.91
388.28	409.59
388.48	468.11
388.67	498.53
388.86	344.06
389.06	395.55
389.25	322.99
389.45	379.17
389.64	386.19
389.84	393.21
390.03	414.27
390.22	395.55
390.42	425.98
390.61	447.04
390.81	414.27
391.00	367.46
391.19	390.87
391.39	421.30
391.58	463.43
391.78	397.89
391.97	425.98
392.16	440.02
392.36	428.32
392.55	421.30
392.75	400.23
392.94	472.79
393.13	330.02
393.33	393.21
393.52	425.98
393.71	470.45
393.91	503.22
394.10	433.00
394.29	393.21
394.49	423.64
394.68	418.96
394.88	456.40
395.07	416.62
395.26	355.76
395.46	411.93
395.65	491.51
395.84	402.57
396.04	390.87
396.23	456.40
396.42	433.00
396.62	505.56
396.81	407.25
397.00	393.21
397.19	409.59
397.39	390.87
397.58	440.02
397.77	407.25
397.97	397.89
398.16	374.49
398.35	510.24
398.55	372.15
398.74	341.72
398.93	444.70
399.12	463.43
399.32	374.49
399.51	416.62
399.70	407.25
399.90	332.36
400.09	418.96
400.28	418.96
400.47	365.12
400.67	418.96
400.86	414.27
401.05	395.55
401.24	409.59
401.44	447.04
401.63	449.38
401.82	381.51
402.01	386.19
402.21	374.49
402.40	355.76
402.59	433.00
402.78	475.13
402.97	402.57
403.17	407.25
403.36	397.89
403.55	332.36
403.74	393.21
403.93	411.93
404.13	475.13
404.32	437.68
404.51	397.89
404.70	416.62
404.89	433.00
405.09	477.47
405.28	428.32
405.47	407.25
405.66	367.46
405.85	449.38
406.05	372.15
406.24	376.83
406.43	390.87
406.62	416.62
406.81	461.09
407.00	374.49
407.20	418.96
407.39	379.17
407.58	423.64
407.77	421.30
407.96	404.91
408.15	430.66
408.34	402.57
408.54	379.17
408.73	360.44
408.92	348.74
409.11	353.42
409.30	425.98
409.49	390.87
409.68	407.25
409.87	447.04
410.07	407.25
410.26	395.55
410.45	395.55
410.64	383.85
410.83	435.34
411.02	430.66
411.21	447.04
411.40	358.10
411.59	365.12
411.78	388.53
411.98	433.00
412.17	320.65
412.36	386.19
412.55	376.83
412.74	397.89
412.93	360.44
413.12	425.98
413.31	346.40
413.50	337.04
413.69	454.06
413.88	468.11
414.07	447.04
414.26	449.38
414.45	411.93
414.64	449.38
414.83	421.30
415.02	411.93
415.22	416.62
415.41	465.77
415.60	402.57
415.79	367.46
415.98	451.72
416.17	418.96
416.36	369.80
416.55	407.25
416.74	411.93
416.93	447.04
417.12	458.74
417.31	367.46
417.50	430.66
417.69	402.57
417.88	369.80
418.07	442.36
418.26	454.06
418.45	388.53
418.64	334.70
418.83	381.51
419.02	423.64
419.21	423.64
419.39	428.32
419.58	369.80
419.77	411.93
419.96	416.62
420.15	458.74
420.34	339.38
420.53	386.19
420.72	486.83
420.91	418.96
421.10	390.87
421.29	381.51
421.48	421.30
421.67	433.00
421.86	390.87
422.05	433.00
422.24	397.89
422.43	421.30
422.61	374.49
422.80	470.45
422.99	421.30
423.18	376.83
423.37	482.15
423.56	402.57
423.75	423.64
423.94	353.42
424.13	423.64
424.32	379.17
424.50	428.32
424.69	416.62
424.88	454.06
425.07	437.68
425.26	360.44
425.45	489.17
425.64	447.04
425.83	397.89
426.01	430.66
426.20	369.80
426.39	409.59
426.58	470.45
426.77	454.06
426.96	411.93
427.15	456.40
427.33	322.99
427.52	400.23
427.71	428.32
427.90	414.27
428.09	433.00
428.28	437.68
428.46	428.32
428.65	447.04
428.84	433.00
429.03	388.53
429.22	400.23
429.40	423.64
429.59	444.70
429.78	411.93
429.97	449.38
430.16	372.15
430.34	397.89
430.53	383.85
430.72	376.83
430.91	388.53
431.10	428.32
431.28	369.80
431.47	409.59
431.66	409.59
431.85	451.72
432.03	449.38
432.22	475.13
432.41	409.59
432.60	409.59
432.79	397.89
432.97	397.89
433.16	383.85
433.35	411.93
433.54	383.85
433.72	454.06
433.91	407.25
434.10	411.93
434.28	386.19
434.47	472.79
434.66	418.96
434.85	423.64
435.03	407.25
435.22	425.98
435.41	393.21
435.59	425.98
435.78	421.30
435.97	428.32
436.16	428.32
436.34	360.44
436.53	444.70
436.72	395.55
436.90	344.06
437.09	425.98
437.28	461.09
437.46	411.93
437.65	435.34
437.84	411.93
438.02	447.04
438.21	449.38
438.40	402.57
438.58	456.40
438.77	407.25
438.96	444.70
439.14	388.53
439.33	484.49
439.52	416.62
439.70	477.47
439.89	428.32
440.08	451.72
440.26	416.62
440.45	372.15
440.63	440.02
440.82	397.89
441.01	472.79
441.19	449.38
441.38	416.62
441.57	337.04
441.75	409.59
441.94	458.74
442.12	421.30
442.31	362.78
442.50	397.89
442.68	416.62
442.87	430.66
443.05	330.02
443.24	472.79
443.43	365.12
443.61	430.66
443.80	395.55
443.98	362.78
444.17	411.93
444.35	416.62
444.54	367.46
444.73	386.19
444.91	435.34
445.10	348.74
445.28	332.36
445.47	444.70
445.65	383.85
445.84	376.83
446.02	463.43
446.21	379.17
446.39	360.44
446.58	372.15
446.77	397.89
446.95	388.53
447.14	407.25
447.32	447.04
447.51	484.49
447.69	402.57
447.88	430.66
448.06	440.02
448.25	510.24
448.43	341.72
448.62	395.55
448.80	440.02
448.99	418.96
449.17	330.02
449.36	400.23
449.54	447.04
449.73	402.57
449.91	447.04
450.10	353.42
450.28	496.19
450.46	451.72
450.65	447.04
450.83	402.57
451.02	472.79
451.20	376.83
451.39	418.96
451.57	409.59
451.76	463.43
451.94	437.68
452.13	428.32
452.31	409.59
452.49	402.57
452.68	379.17
452.86	479.81
453.05	456.40
453.23	444.70
453.42	451.72
453.60	351.08
453.78	421.30
453.97	388.53
454.15	433.00
454.34	425.98
454.52	421.30
454.70	423.64
454.89	409.59
455.07	388.53
455.26	411.93
455.44	374.49
455.62	386.19
455.81	433.00
455.99	386.19
456.17	423.64
456.36	362.78
456.54	388.53
456.73	421.30
456.91	400.23
457.09	440.02
457.28	458.74
457.46	428.32
457.64	428.32
457.83	486.83
458.01	390.87
458.19	365.12
458.38	430.66
458.56	369.80
458.74	416.62
458.93	383.85
459.11	407.25
459.29	428.32
459.48	372.15
459.66	468.11
459.84	451.72
460.03	468.11
460.21	418.96
460.39	407.25
460.57	454.06
460.76	440.02
460.94	440.02
461.12	407.25
461.31	414.27
461.49	430.66
461.67	397.89
461.85	397.89
462.04	395.55
462.22	777.06
462.40	407.25
462.59	428.32
462.77	367.46
462.95	372.15
463.13	400.23
463.32	447.04
463.50	442.36
463.68	444.70
463.86	334.70
464.05	397.89
464.23	437.68
464.41	484.49
464.59	369.80
464.78	425.98
464.96	404.91
465.14	425.98
465.32	461.09
465.50	442.36
465.69	433.00
465.87	416.62
466.05	390.87
466.23	411.93
466.41	409.59
466.60	461.09
466.78	425.98
466.96	407.25
467.14	407.25
467.32	451.72
467.51	475.13
467.69	442.36
467.87	428.32
468.05	386.19
468.23	468.11
468.41	440.02
468.60	428.32
468.78	521.94
468.96	545.34
469.14	458.74
469.32	355.76
469.50	407.25
469.69	411.93
469.87	437.68
470.05	451.72
470.23	500.87
470.41	435.34
470.59	437.68
470.77	447.04
470.95	404.91
471.14	447.04
471.32	468.11
471.50	435.34
471.68	407.25
471.86	440.02
472.04	428.32
472.22	414.27
472.40	379.17
472.58	425.98
472.77	421.30
472.95	423.64
473.13	507.90
473.31	440.02
473.49	428.32
473.67	418.96
473.85	390.87
474.03	447.04
474.21	475.13
474.39	435.34
474.57	440.02
474.75	423.64
474.93	395.55
475.12	407.25
475.30	430.66
475.48	411.93
475.66	472.79
475.84	376.83
476.02	456.40
476.20	489.17
476.38	381.51
476.56	496.19
476.74	400.23
476.92	386.19
477.10	407.25
477.28	360.44
477.46	388.53
477.64	362.78
477.82	379.17
478.00	358.10
478.18	393.21
478.36	322.99
478.54	435.34
478.72	414.27
478.90	507.90
479.08	430.66
479.26	421.30
479.44	404.91
479.62	388.53
479.80	447.04
479.98	407.25
480.16	388.53
480.34	470.45
480.52	339.38
480.70	475.13
480.88	442.36
481.06	400.23
481.24	468.11
481.41	404.91
481.59	444.70
481.77	388.53
481.95	425.98
482.13	390.87
482.31	409.59
482.49	402.57
482.67	458.74
482.85	493.85
483.03	409.59
483.21	409.59
483.39	402.57
483.57	461.09
483.74	451.72
483.92	479.81
484.10	423.64
484.28	472.79
484.46	514.92
484.64	451.72
484.82	493.85
485.00	472.79
485.18	510.24
485.35	454.06
485.53	383.85
485.71	402.57
485.89	372.15
486.07	393.21
486.25	444.70
486.43	442.36
486.61	437.68
486.78	451.72
486.96	395.55
487.14	437.68
487.32	397.89
487.50	425.98
487.68	358.10
487.85	421.30
488.03	496.19
488.21	505.56
488.39	449.38
488.57	428.32
488.75	458.74
488.92	505.56
489.10	444.70
489.28	416.62
489.46	411.93
489.64	369.80
489.81	461.09
489.99	360.44
490.17	449.38
490.35	496.19
490.53	325.33
490.70	365.12
490.88	451.72
491.06	425.98
491.24	360.44
491.41	372.15
491.59	475.13
491.77	390.87
491.95	404.91
492.13	367.46
492.30	442.36
492.48	456.40
492.66	367.46
492.84	376.83
493.01	425.98
493.19	388.53
493.37	428.32
493.54	404.91
493.72	344.06
493.90	367.46
494.08	472.79
494.25	440.02
494.43	416.62
494.61	416.62
494.79	440.02
494.96	353.42
495.14	369.80
495.32	425.98
495.49	465.77
495.67	400.23
495.85	416.62
496.02	355.76
496.20	407.25
496.38	390.87
496.55	414.27
496.73	435.34
496.91	454.06
497.09	407.25
497.26	381.51
497.44	543.00
497.62	449.38
497.79	330.02
497.97	444.70
498.14	421.30
498.32	414.27
498.50	325.33
498.67	454.06
498.85	395.55
499.03	393.21
499.20	393.21
499.38	418.96
499.56	397.89
499.73	477.47
499.91	425.98
500.08	444.70
500.26	465.77
500.44	351.08
500.61	463.43
500.79	372.15
500.97	458.74
501.14	449.38
501.32	458.74
501.49	411.93
501.67	388.53
501.84	433.00
502.02	430.66
502.20	437.68
502.37	463.43
502.55	397.89
502.72	416.62
502.90	425.98
503.07	374.49
503.25	407.25
503.43	393.21
503.60	374.49
503.78	458.74
503.95	344.06
504.13	327.68
504.30	402.57
504.48	381.51
504.65	514.92
504.83	458.74
505.01	414.27
505.18	355.76
505.36	402.57
505.53	461.09
505.71	397.89
505.88	444.70
506.06	442.36
506.23	383.85
506.41	425.98
506.58	435.34
506.76	470.45
506.93	454.06
507.11	395.55
507.28	372.15
507.46	393.21
507.63	411.93
507.81	362.78
507.98	418.96
508.16	379.17
508.33	430.66
508.50	447.04
508.68	430.66
508.85	421.30
509.03	341.72
509.20	383.85
509.38	451.72
509.55	475.13
509.73	376.83
509.90	379.17
510.08	397.89
510.25	442.36
510.42	337.04
510.60	409.59
510.77	379.17
510.95	500.87
511.12	437.68
511.30	428.32
511.47	414.27
511.64	430.66
511.82	418.96
511.99	437.68
512.17	428.32
512.34	344.06
512.51	428.32
512.69	458.74
512.86	425.98
513.04	393.21
513.21	397.89
513.38	367.46
513.56	374.49
513.73	341.72
513.90	454.06
514.08	416.62
514.25	428.32
514.43	388.53
514.60	470.45
514.77	428.32
514.95	456.40
515.12	374.49
515.29	404.91
515.47	395.55
515.64	381.51
515.81	456.40
515.99	456.40
516.16	379.17
516.33	461.09
516.51	386.19
516.68	442.36
516.85	444.70
517.03	433.00
517.20	411.93
517.37	414.27
517.54	381.51
517.72	435.34
517.89	451.72
518.06	407.25
518.24	444.70
518.41	400.23
518.58	461.09
518.75	437.68
518.93	388.53
519.10	404.91
519.27	362.78
519.45	454.06
519.62	465.77
519.79	397.89
519.96	421.30
520.14	435.34
520.31	418.96
520.48	367.46
520.65	346.40
520.83	430.66
521.00	454.06
521.17	435.34
521.34	428.32
521.52	411.93
521.69	444.70
521.86	379.17
522.03	454.06
522.20	507.90
522.38	400.23
522.55	395.55
522.72	374.49
522.89	475.13
523.07	468.11
523.24	461.09
523.41	407.25
523.58	360.44
523.75	400.23
523.92	416.62
524.10	463.43
524.27	365.12
524.44	496.19
524.61	437.68
524.78	397.89
524.96	433.00
525.13	461.09
525.30	437.68
525.47	362.78
525.64	475.13
525.81	425.98
525.98	477.47
526.16	472.79
526.33	472.79
526.50	416.62
526.67	442.36
526.84	395.55
527.01	369.80
527.18	388.53
527.36	383.85
527.53	404.91
527.70	468.11
527.87	449.38
528.04	449.38
528.21	458.74
528.38	411.93
528.55	376.83
528.72	449.38
528.89	521.94
529.07	423.64
529.24	447.04
529.41	362.78
529.58	479.81
529.75	400.23
529.92	440.02
530.09	339.38
530.26	454.06
530.43	409.59
530.60	428.32
530.77	435.34
530.94	379.17
531.11	407.25
531.28	346.40
531.46	397.89
531.63	411.93
531.80	416.62
531.97	407.25
532.14	414.27
532.31	486.83
532.48	414.27
532.65	421.30
532.82	444.70
532.99	428.32
533.16	428.32
533.33	442.36
533.50	486.83
533.67	421.30
533.84	451.72
534.01	449.38
534.18	404.91
534.35	386.19
534.52	425.98
534.69	409.59
534.86	358.10
535.03	425.98
535.20	437.68
535.37	386.19
535.54	379.17
535.71	449.38
535.88	451.72
536.05	486.83
536.22	421.30
536.38	463.43
536.55	430.66
536.72	341.72
536.89	416.62
537.06	486.83
537.23	414.27
537.40	430.66
537.57	367.46
537.74	456.40
537.91	437.68
538.08	463.43
538.25	381.51
538.42	397.89
538.59	425.98
538.75	383.85
538.92	393.21
539.09	425.98
539.26	395.55
539.43	428.32
539.60	449.38
539.77	430.66
539.94	463.43
540.11	435.34
540.28	463.43
540.44	402.57
540.61	397.89
540.78	440.02
540.95	358.10
541.12	463.43
541.29	388.53
541.46	433.00
541.62	447.04
541.79	440.02
541.96	486.83
542.13	414.27
542.30	402.57
542.47	433.00
542.63	479.81
542.80	365.12
542.97	461.09
543.14	418.96
543.31	493.85
543.48	437.68
543.64	444.70
543.81	475.13
543.98	386.19
544.15	402.57
544.32	360.44
544.48	355.76
544.65	376.83
544.82	395.55
544.99	423.64
545.16	493.85
545.32	437.68
545.49	486.83
545.66	402.57
545.83	372.15
546.00	362.78
546.16	470.45
546.33	414.27
546.50	437.68
546.67	416.62
546.83	470.45
547.00	414.27
547.17	416.62
547.34	421.30
547.50	409.59
547.67	442.36
547.84	404.91
548.00	479.81
548.17	456.40
548.34	416.62
548.51	465.77
548.67	451.72
548.84	386.19
549.01	461.09
549.18	425.98
549.34	435.34
549.51	411.93
549.68	416.62
549.84	372.15
550.01	409.59
550.18	421.30
550.34	425.98
550.51	376.83
550.68	477.47
550.84	360.44
551.01	468.11
551.18	449.38
551.34	404.91
551.51	367.46
551.68	447.04
551.84	407.25
552.01	414.27
552.18	437.68
552.34	421.30
552.51	414.27
552.68	442.36
552.84	409.59
553.01	411.93
553.18	395.55
553.34	381.51
553.51	402.57
553.67	433.00
553.84	418.96
554.01	418.96
554.17	418.96
554.34	334.70
554.51	414.27
554.67	465.77
554.84	421.30
555.00	461.09
555.17	470.45
555.33	456.40
555.50	430.66
555.67	447.04
555.83	362.78
556.00	430.66
556.16	561.73
556.33	482.15
556.50	409.59
556.66	334.70
556.83	404.91
556.99	430.66
557.16	458.74
557.32	397.89
557.49	475.13
557.65	390.87
557.82	388.53
557.98	451.72
558.15	404.91
558.32	456.40
558.48	444.70
558.65	383.85
558.81	479.81
558.98	465.77
559.14	447.04
559.31	416.62
559.47	402.57
559.64	355.76
559.80	447.04
559.97	369.80
560.13	383.85
560.30	404.91
560.46	416.62
560.63	388.53
560.79	402.57
560.96	484.49
561.12	372.15
561.29	411.93
561.45	475.13
561.61	383.85
561.78	433.00
561.94	425.98
562.11	484.49
562.27	444.70
562.44	430.66
562.60	425.98
562.77	404.91
562.93	402.57
563.10	351.08
563.26	491.51
563.42	442.36
563.59	484.49
563.75	444.70
563.92	486.83
564.08	461.09
564.24	381.51
564.41	468.11
564.57	411.93
564.74	395.55
564.90	418.96
565.07	393.21
565.23	383.85
565.39	379.17
565.56	386.19
565.72	435.34
565.88	423.64
566.05	423.64
566.21	409.59
566.38	449.38
566.54	388.53
566.70	365.12
566.87	411.93
567.03	351.08
567.19	468.11
567.36	463.43
567.52	435.34
567.68	475.13
567.85	416.62
568.01	409.59
568.17	440.02
568.34	400.23
568.50	458.74
568.66	397.89
568.83	447.04
568.99	430.66
569.15	372.15
569.32	454.06
569.48	421.30
569.64	421.30
569.81	379.17
569.97	407.25
570.13	418.96
570.30	433.00
570.46	390.87
570.62	423.64
570.78	379.17
570.95	425.98
571.11	479.81
571.27	463.43
571.43	416.62
571.60	411.93
571.76	463.43
571.92	454.06
572.09	379.17
572.25	440.02
572.41	414.27
572.57	461.09
572.74	482.15
572.90	416.62
573.06	388.53
573.22	381.51
573.38	484.49
573.55	304.27
573.71	418.96
573.87	444.70
574.03	409.59
574.20	407.25
574.36	512.58
574.52	390.87
574.68	404.91
574.84	381.51
575.01	379.17
575.17	400.23
575.33	386.19
575.49	397.89
575.65	416.62
575.82	489.17
575.98	421.30
576.14	479.81
576.30	397.89
576.46	402.57
576.62	409.59
576.79	402.57
576.95	444.70
577.11	351.08
577.27	358.10
577.43	519.60
577.59	421.30
577.75	440.02
577.92	425.98
578.08	390.87
578.24	388.53
578.40	505.56
578.56	468.11
578.72	395.55
578.88	454.06
579.04	409.59
579.21	468.11
579.37	313.63
579.53	381.51
579.69	430.66
579.85	456.40
580.01	458.74
580.17	390.87
580.33	407.25
580.49	430.66
580.65	430.66
580.82	458.74
580.98	440.02
581.14	381.51
581.30	430.66
581.46	411.93
581.62	458.74
581.78	402.57
581.94	379.17
582.10	409.59
582.26	477.47
582.42	444.70
582.58	395.55
582.74	402.57
582.90	407.25
583.06	374.49
583.22	414.27
583.38	428.32
583.54	447.04
583.70	484.49
583.86	449.38
584.02	409.59
584.18	393.21
584.34	402.57
584.50	402.57
584.66	390.87
584.82	479.81
584.98	393.21
585.14	421.30
585.30	433.00
585.46	360.44
585.62	454.06
585.78	423.64
585.94	514.92
586.10	468.11
586.26	454.06
586.42	425.98
586.58	447.04
586.74	404.91
586.90	418.96
587.06	397.89
587.22	344.06
587.38	379.17
587.54	430.66
587.70	461.09
587.86	414.27
588.02	374.49
588.18	449.38
588.34	367.46
588.49	369.80
588.65	402.57
588.81	383.85
588.97	388.53
589.13	407.25
589.29	428.32
589.45	393.21
589.61	423.64
589.77	454.06
589.93	468.11
590.08	390.87
590.24	458.74
590.40	423.64
590.56	393.21
590.72	400.23
590.88	346.40
591.04	465.77
591.20	411.93
591.35	407.25
591.51	386.19
591.67	409.59
591.83	433.00
591.99	437.68
592.15	421.30
592.31	437.68
592.46	414.27
592.62	449.38
592.78	433.00
592.94	386.19
593.10	449.38
593.26	386.19
593.41	423.64
593.57	470.45
593.73	402.57
593.89	440.02
594.05	372.15
594.20	451.72
594.36	454.06
594.52	479.81
594.68	414.27
594.84	440.02
594.99	414.27
595.15	449.38
595.31	458.74
595.47	517.26
595.62	433.00
595.78	425.98
595.94	404.91
596.10	449.38
596.25	430.66
596.41	470.45
596.57	407.25
596.73	418.96
596.88	414.27
597.04	414.27
597.20	355.76
597.36	479.81
597.51	482.15
597.67	421.30
597.83	423.64
597.99	456.40
598.14	397.89
598.30	404.91
598.46	437.68
598.61	421.30
598.77	496.19
598.93	402.57
599.09	411.93
599.24	362.78
599.40	491.51
599.56	381.51
599.71	379.17
599.87	376.83
600.03	304.27
600.18	428.32
600.34	433.00
600.50	362.78
600.65	425.98
600.81	402.57
600.97	463.43
601.12	395.55
601.28	468.11
601.44	400.23
601.59	393.21
601.75	454.06
601.91	379.17
602.06	430.66
602.22	447.04
602.37	393.21
602.53	454.06
602.69	461.09
602.84	287.89
603.00	393.21
603.16	458.74
603.31	386.19
603.47	507.90
603.62	423.64
603.78	409.59
603.94	379.17
604.09	507.90
604.25	423.64
604.40	376.83
604.56	404.91
604.71	411.93
604.87	404.91
605.03	428.32
605.18	430.66
605.34	447.04
605.49	418.96
605.65	390.87
605.80	418.96
605.96	369.80
606.12	423.64
606.27	414.27
606.43	372.15
606.58	393.21
606.74	430.66
606.89	472.79
607.05	418.96
607.20	433.00
607.36	440.02
607.51	414.27
607.67	428.32
607.82	360.44
607.98	517.26
608.13	409.59
608.29	430.66
608.44	416.62
608.60	435.34
608.75	440.02
608.91	367.46
609.06	402.57
609.22	423.64
609.37	388.53
609.53	390.87
609.68	372.15
609.84	393.21
609.99	388.53
610.15	486.83
