SpectraSuite Data File
++++++++++++++++++++++++++++++++++++
Date: Fri Oct 25 12:10:18 EDT 2013
User: price-jones
Dark Spectrum Present: No
Reference Spectrum Present: No
Number of Sampled Component Spectra: 1
Spectrometers: USB2+H05261
Integration Time (usec): 100000 (USB2+H05261)
Spectra Averaged: 1 (USB2+H05261)
Boxcar Smoothing: 0 (USB2+H05261)
Correct for Electrical Dark: No (USB2+H05261)
Strobe/Lamp Enabled: No (USB2+H05261)
Correct for Detector Non-linearity: No (USB2+H05261)
Correct for Stray Light: No (USB2+H05261)
Number of Pixels in Processed Spectrum: 2048
>>>>>Begin Processed Spectral Data<<<<<
365.73	290.23
365.92	290.23
366.12	290.23
366.32	241.08
366.52	257.46
366.72	245.76
366.91	191.92
367.11	175.54
367.31	191.92
367.51	182.56
367.70	290.23
367.90	201.29
368.10	250.44
368.30	248.10
368.49	191.92
368.69	257.46
368.89	236.39
369.09	245.76
369.28	227.03
369.48	271.50
369.68	292.57
369.87	341.72
370.07	304.27
370.27	365.12
370.47	313.63
370.66	344.06
370.86	318.31
371.06	386.19
371.25	374.49
371.45	372.15
371.65	404.91
371.84	416.62
372.04	390.87
372.24	351.08
372.44	390.87
372.63	409.59
372.83	421.30
373.03	341.72
373.22	477.47
373.42	475.13
373.62	433.00
373.81	458.74
374.01	430.66
374.21	447.04
374.40	437.68
374.60	489.17
374.79	428.32
374.99	341.72
375.19	425.98
375.38	353.42
375.58	470.45
375.78	383.85
375.97	430.66
376.17	442.36
376.37	421.30
376.56	461.09
376.76	421.30
376.95	379.17
377.15	407.25
377.35	423.64
377.54	442.36
377.74	395.55
377.93	414.27
378.13	425.98
378.33	416.62
378.52	409.59
378.72	461.09
378.91	416.62
379.11	390.87
379.31	423.64
379.50	423.64
379.70	421.30
379.89	409.59
380.09	402.57
380.28	358.10
380.48	468.11
380.68	402.57
380.87	400.23
381.07	367.46
381.26	327.68
381.46	437.68
381.65	458.74
381.85	444.70
382.04	423.64
382.24	465.77
382.43	393.21
382.63	416.62
382.83	421.30
383.02	351.08
383.22	428.32
383.41	418.96
383.61	451.72
383.80	454.06
384.00	444.70
384.19	411.93
384.39	322.99
384.58	395.55
384.78	425.98
384.97	407.25
385.17	454.06
385.36	397.89
385.56	409.59
385.75	318.31
385.95	351.08
386.14	465.77
386.34	383.85
386.53	430.66
386.72	456.40
386.92	337.04
387.11	428.32
387.31	407.25
387.50	379.17
387.70	395.55
387.89	437.68
388.09	393.21
388.28	430.66
388.48	287.89
388.67	409.59
388.86	339.38
389.06	465.77
389.25	404.91
389.45	444.70
389.64	411.93
389.84	428.32
390.03	379.17
390.22	416.62
390.42	404.91
390.61	381.51
390.81	383.85
391.00	358.10
391.19	383.85
391.39	369.80
391.58	407.25
391.78	433.00
391.97	327.68
392.16	346.40
392.36	428.32
392.55	339.38
392.75	421.30
392.94	423.64
393.13	433.00
393.33	402.57
393.52	381.51
393.71	278.52
393.91	397.89
394.10	388.53
394.29	362.78
394.49	409.59
394.68	421.30
394.88	451.72
395.07	510.24
395.26	386.19
395.46	397.89
395.65	425.98
395.84	386.19
396.04	482.15
396.23	388.53
396.42	393.21
396.62	383.85
396.81	404.91
397.00	430.66
397.19	428.32
397.39	414.27
397.58	430.66
397.77	365.12
397.97	449.38
398.16	470.45
398.35	456.40
398.55	414.27
398.74	402.57
398.93	397.89
399.12	461.09
399.32	388.53
399.51	374.49
399.70	416.62
399.90	440.02
400.09	430.66
400.28	362.78
400.47	395.55
400.67	362.78
400.86	304.27
401.05	465.77
401.24	433.00
401.44	430.66
401.63	416.62
401.82	372.15
402.01	369.80
402.21	358.10
402.40	390.87
402.59	454.06
402.78	458.74
402.97	283.20
403.17	395.55
403.36	397.89
403.55	423.64
403.74	376.83
403.93	315.97
404.13	409.59
404.32	372.15
404.51	409.59
404.70	428.32
404.89	428.32
405.09	463.43
405.28	489.17
405.47	414.27
405.66	372.15
405.85	470.45
406.05	423.64
406.24	365.12
406.43	400.23
406.62	454.06
406.81	444.70
407.00	484.49
407.20	379.17
407.39	325.33
407.58	444.70
407.77	376.83
407.96	493.85
408.15	461.09
408.34	423.64
408.54	388.53
408.73	409.59
408.92	372.15
409.11	339.38
409.30	395.55
409.49	409.59
409.68	409.59
409.87	386.19
410.07	393.21
410.26	447.04
410.45	423.64
410.64	451.72
410.83	411.93
411.02	372.15
411.21	400.23
411.40	374.49
411.59	416.62
411.78	433.00
411.98	372.15
412.17	435.34
412.36	423.64
412.55	472.79
412.74	435.34
412.93	444.70
413.12	428.32
413.31	489.17
413.50	414.27
413.69	390.87
413.88	472.79
414.07	358.10
414.26	369.80
414.45	360.44
414.64	451.72
414.83	430.66
415.02	372.15
415.22	479.81
415.41	421.30
415.60	360.44
415.79	477.47
415.98	388.53
416.17	355.76
416.36	395.55
416.55	409.59
416.74	411.93
416.93	404.91
417.12	358.10
417.31	437.68
417.50	498.53
417.69	372.15
417.88	285.55
418.07	344.06
418.26	430.66
418.45	414.27
418.64	425.98
418.83	430.66
419.02	456.40
419.21	358.10
419.39	409.59
419.58	374.49
419.77	369.80
419.96	456.40
420.15	444.70
420.34	395.55
420.53	421.30
420.72	423.64
420.91	428.32
421.10	416.62
421.29	362.78
421.48	428.32
421.67	498.53
421.86	414.27
422.05	397.89
422.24	411.93
422.43	416.62
422.61	482.15
422.80	381.51
422.99	425.98
423.18	423.64
423.37	381.51
423.56	393.21
423.75	425.98
423.94	383.85
424.13	430.66
424.32	416.62
424.50	334.70
424.69	423.64
424.88	411.93
425.07	442.36
425.26	456.40
425.45	425.98
425.64	423.64
425.83	390.87
426.01	423.64
426.20	470.45
426.39	327.68
426.58	395.55
426.77	498.53
426.96	423.64
427.15	369.80
427.33	362.78
427.52	393.21
427.71	444.70
427.90	447.04
428.09	428.32
428.28	337.04
428.46	344.06
428.65	390.87
428.84	423.64
429.03	454.06
429.22	503.22
429.40	386.19
429.59	351.08
429.78	444.70
429.97	402.57
430.16	337.04
430.34	435.34
430.53	486.83
430.72	435.34
430.91	433.00
431.10	416.62
431.28	344.06
431.47	435.34
431.66	341.72
431.85	381.51
432.03	355.76
432.22	435.34
432.41	433.00
432.60	379.17
432.79	395.55
432.97	400.23
433.16	383.85
433.35	414.27
433.54	433.00
433.72	421.30
433.91	442.36
434.10	395.55
434.28	381.51
434.47	313.63
434.66	416.62
434.85	444.70
435.03	404.91
435.22	470.45
435.41	362.78
435.59	332.36
435.78	411.93
435.97	411.93
436.16	451.72
436.34	423.64
436.53	379.17
436.72	442.36
436.90	463.43
437.09	379.17
437.28	435.34
437.46	390.87
437.65	386.19
437.84	475.13
438.02	369.80
438.21	414.27
438.40	428.32
438.58	447.04
438.77	456.40
438.96	369.80
439.14	374.49
439.33	421.30
439.52	351.08
439.70	341.72
439.89	421.30
440.08	456.40
440.26	435.34
440.45	456.40
440.63	428.32
440.82	444.70
441.01	353.42
441.19	362.78
441.38	369.80
441.57	440.02
441.75	374.49
441.94	409.59
442.12	383.85
442.31	423.64
442.50	362.78
442.68	318.31
442.87	468.11
443.05	451.72
443.24	369.80
443.43	376.83
443.61	367.46
443.80	351.08
443.98	411.93
444.17	327.68
444.35	416.62
444.54	397.89
444.73	470.45
444.91	444.70
445.10	416.62
445.28	463.43
445.47	421.30
445.65	425.98
445.84	435.34
446.02	454.06
446.21	400.23
446.39	388.53
446.58	442.36
446.77	386.19
446.95	486.83
447.14	458.74
447.32	409.59
447.51	428.32
447.69	390.87
447.88	374.49
448.06	433.00
448.25	437.68
448.43	482.15
448.62	372.15
448.80	402.57
448.99	428.32
449.17	416.62
449.36	411.93
449.54	390.87
449.73	425.98
449.91	372.15
450.10	367.46
450.28	475.13
450.46	470.45
450.65	463.43
450.83	383.85
451.02	383.85
451.20	416.62
451.39	442.36
451.57	416.62
451.76	407.25
451.94	486.83
452.13	465.77
452.31	454.06
452.49	409.59
452.68	397.89
452.86	367.46
453.05	468.11
453.23	421.30
453.42	461.09
453.60	383.85
453.78	451.72
453.97	383.85
454.15	393.21
454.34	383.85
454.52	400.23
454.70	395.55
454.89	388.53
455.07	437.68
455.26	456.40
455.44	416.62
455.62	355.76
455.81	428.32
455.99	428.32
456.17	379.17
456.36	318.31
456.54	365.12
456.73	393.21
456.91	390.87
457.09	475.13
457.28	409.59
457.46	355.76
457.64	397.89
457.83	365.12
458.01	407.25
458.19	379.17
458.38	395.55
458.56	437.68
458.74	388.53
458.93	358.10
459.11	428.32
459.29	332.36
459.48	433.00
459.66	425.98
459.84	423.64
460.03	475.13
460.21	393.21
460.39	397.89
460.57	376.83
460.76	379.17
460.94	433.00
461.12	456.40
461.31	437.68
461.49	388.53
461.67	374.49
461.85	346.40
462.04	421.30
462.22	732.59
462.40	440.02
462.59	386.19
462.77	449.38
462.95	409.59
463.13	348.74
463.32	402.57
463.50	416.62
463.68	383.85
463.86	440.02
464.05	383.85
464.23	383.85
464.41	491.51
464.59	498.53
464.78	425.98
464.96	409.59
465.14	414.27
465.32	379.17
465.50	409.59
465.69	451.72
465.87	421.30
466.05	437.68
466.23	425.98
466.41	400.23
466.60	411.93
466.78	395.55
466.96	463.43
467.14	402.57
467.32	454.06
467.51	433.00
467.69	416.62
467.87	449.38
468.05	435.34
468.23	423.64
468.41	484.49
468.60	418.96
468.78	409.59
468.96	407.25
469.14	362.78
469.32	397.89
469.50	430.66
469.69	440.02
469.87	430.66
470.05	444.70
470.23	397.89
470.41	411.93
470.59	400.23
470.77	360.44
470.95	423.64
471.14	402.57
471.32	362.78
471.50	475.13
471.68	355.76
471.86	444.70
472.04	376.83
472.22	416.62
472.40	404.91
472.58	362.78
472.77	355.76
472.95	325.33
473.13	442.36
473.31	421.30
473.49	374.49
473.67	369.80
473.85	421.30
474.03	414.27
474.21	365.12
474.39	388.53
474.57	479.81
474.75	416.62
474.93	400.23
475.12	409.59
475.30	437.68
475.48	379.17
475.66	379.17
475.84	400.23
476.02	430.66
476.20	411.93
476.38	451.72
476.56	465.77
476.74	381.51
476.92	423.64
477.10	402.57
477.28	472.79
477.46	428.32
477.64	402.57
477.82	447.04
478.00	414.27
478.18	437.68
478.36	379.17
478.54	400.23
478.72	447.04
478.90	372.15
479.08	430.66
479.26	416.62
479.44	395.55
479.62	407.25
479.80	379.17
479.98	418.96
480.16	376.83
480.34	470.45
480.52	428.32
480.70	479.81
480.88	430.66
481.06	407.25
481.24	447.04
481.41	414.27
481.59	395.55
481.77	393.21
481.95	538.32
482.13	472.79
482.31	411.93
482.49	402.57
482.67	353.42
482.85	475.13
483.03	416.62
483.21	430.66
483.39	428.32
483.57	383.85
483.74	407.25
483.92	362.78
484.10	390.87
484.28	383.85
484.46	489.17
484.64	397.89
484.82	386.19
485.00	395.55
485.18	367.46
485.35	381.51
485.53	402.57
485.71	456.40
485.89	365.12
486.07	360.44
486.25	482.15
486.43	430.66
486.61	461.09
486.78	442.36
486.96	362.78
487.14	465.77
487.32	395.55
487.50	397.89
487.68	479.81
487.85	425.98
488.03	416.62
488.21	416.62
488.39	421.30
488.57	437.68
488.75	407.25
488.92	528.96
489.10	393.21
489.28	489.17
489.46	442.36
489.64	372.15
489.81	325.33
489.99	376.83
490.17	397.89
490.35	491.51
490.53	435.34
490.70	400.23
490.88	397.89
491.06	451.72
491.24	404.91
491.41	428.32
491.59	451.72
491.77	444.70
491.95	369.80
492.13	386.19
492.30	409.59
492.48	393.21
492.66	379.17
492.84	400.23
493.01	493.85
493.19	428.32
493.37	395.55
493.54	442.36
493.72	465.77
493.90	404.91
494.08	381.51
494.25	360.44
494.43	423.64
494.61	435.34
494.79	444.70
494.96	393.21
495.14	393.21
495.32	376.83
495.49	411.93
495.67	390.87
495.85	402.57
496.02	423.64
496.20	454.06
496.38	379.17
496.55	435.34
496.73	433.00
496.91	402.57
497.09	346.40
497.26	381.51
497.44	414.27
497.62	374.49
497.79	456.40
497.97	437.68
498.14	477.47
498.32	397.89
498.50	477.47
498.67	458.74
498.85	400.23
499.03	358.10
499.20	365.12
499.38	409.59
499.56	463.43
499.73	428.32
499.91	465.77
500.08	465.77
500.26	414.27
500.44	365.12
500.61	383.85
500.79	355.76
500.97	418.96
501.14	414.27
501.32	390.87
501.49	433.00
501.67	416.62
501.84	416.62
502.02	369.80
502.20	458.74
502.37	383.85
502.55	416.62
502.72	376.83
502.90	491.51
503.07	365.12
503.25	456.40
503.43	386.19
503.60	489.17
503.78	428.32
503.95	402.57
504.13	468.11
504.30	472.79
504.48	449.38
504.65	451.72
504.83	400.23
505.01	470.45
505.18	430.66
505.36	332.36
505.53	388.53
505.71	402.57
505.88	470.45
506.06	428.32
506.23	463.43
506.41	442.36
506.58	458.74
506.76	414.27
506.93	430.66
507.11	390.87
507.28	372.15
507.46	402.57
507.63	409.59
507.81	383.85
507.98	421.30
508.16	425.98
508.33	379.17
508.50	402.57
508.68	475.13
508.85	491.51
509.03	388.53
509.20	430.66
509.38	402.57
509.55	442.36
509.73	369.80
509.90	442.36
510.08	400.23
510.25	365.12
510.42	386.19
510.60	379.17
510.77	409.59
510.95	433.00
511.12	358.10
511.30	353.42
511.47	402.57
511.64	449.38
511.82	416.62
511.99	430.66
512.17	437.68
512.34	367.46
512.51	395.55
512.69	496.19
512.86	322.99
513.04	400.23
513.21	411.93
513.38	404.91
513.56	411.93
513.73	332.36
513.90	358.10
514.08	381.51
514.25	421.30
514.43	374.49
514.60	397.89
514.77	430.66
514.95	402.57
515.12	407.25
515.29	449.38
515.47	465.77
515.64	451.72
515.81	430.66
515.99	477.47
516.16	491.51
516.33	369.80
516.51	348.74
516.68	433.00
516.85	458.74
517.03	383.85
517.20	428.32
517.37	423.64
517.54	454.06
517.72	369.80
517.89	407.25
518.06	379.17
518.24	411.93
518.41	461.09
518.58	404.91
518.75	472.79
518.93	411.93
519.10	390.87
519.27	470.45
519.45	407.25
519.62	423.64
519.79	402.57
519.96	421.30
520.14	442.36
520.31	425.98
520.48	435.34
520.65	470.45
520.83	468.11
521.00	407.25
521.17	444.70
521.34	465.77
521.52	423.64
521.69	393.21
521.86	358.10
522.03	472.79
522.20	435.34
522.38	428.32
522.55	428.32
522.72	390.87
522.89	390.87
523.07	425.98
523.24	367.46
523.41	425.98
523.58	479.81
523.75	414.27
523.92	430.66
524.10	390.87
524.27	404.91
524.44	447.04
524.61	393.21
524.78	535.98
524.96	388.53
525.13	379.17
525.30	414.27
525.47	437.68
525.64	428.32
525.81	355.76
525.98	386.19
526.16	430.66
526.33	428.32
526.50	456.40
526.67	447.04
526.84	416.62
527.01	425.98
527.18	390.87
527.36	423.64
527.53	416.62
527.70	404.91
527.87	402.57
528.04	451.72
528.21	411.93
528.38	430.66
528.55	498.53
528.72	493.85
528.89	430.66
529.07	435.34
529.24	372.15
529.41	428.32
529.58	428.32
529.75	423.64
529.92	397.89
530.09	388.53
530.26	461.09
530.43	449.38
530.60	444.70
530.77	411.93
530.94	367.46
531.11	414.27
531.28	449.38
531.46	395.55
531.63	433.00
531.80	390.87
531.97	425.98
532.14	454.06
532.31	393.21
532.48	400.23
532.65	463.43
532.82	437.68
532.99	416.62
533.16	421.30
533.33	372.15
533.50	447.04
533.67	428.32
533.84	353.42
534.01	407.25
534.18	388.53
534.35	442.36
534.52	407.25
534.69	428.32
534.86	411.93
535.03	388.53
535.20	433.00
535.37	367.46
535.54	393.21
535.71	400.23
535.88	456.40
536.05	430.66
536.22	383.85
536.38	414.27
536.55	339.38
536.72	390.87
536.89	339.38
537.06	379.17
537.23	451.72
537.40	428.32
537.57	423.64
537.74	414.27
537.91	442.36
538.08	388.53
538.25	402.57
538.42	435.34
538.59	383.85
538.75	414.27
538.92	390.87
539.09	365.12
539.26	409.59
539.43	430.66
539.60	425.98
539.77	461.09
539.94	442.36
540.11	447.04
540.28	461.09
540.44	456.40
540.61	414.27
540.78	393.21
540.95	404.91
541.12	421.30
541.29	376.83
541.46	423.64
541.62	381.51
541.79	381.51
541.96	416.62
542.13	416.62
542.30	435.34
542.47	505.56
542.63	351.08
542.80	397.89
542.97	383.85
543.14	454.06
543.31	395.55
543.48	379.17
543.64	376.83
543.81	409.59
543.98	381.51
544.15	414.27
544.32	414.27
544.48	444.70
544.65	386.19
544.82	428.32
544.99	430.66
545.16	465.77
545.32	393.21
545.49	418.96
545.66	451.72
545.83	390.87
546.00	332.36
546.16	449.38
546.33	414.27
546.50	341.72
546.67	404.91
546.83	442.36
547.00	442.36
547.17	386.19
547.34	425.98
547.50	395.55
547.67	407.25
547.84	449.38
548.00	447.04
548.17	402.57
548.34	393.21
548.51	482.15
548.67	386.19
548.84	423.64
549.01	447.04
549.18	374.49
549.34	369.80
549.51	397.89
549.68	407.25
549.84	442.36
550.01	498.53
550.18	435.34
550.34	454.06
550.51	428.32
550.68	442.36
550.84	393.21
551.01	463.43
551.18	414.27
551.34	390.87
551.51	440.02
551.68	414.27
551.84	376.83
552.01	442.36
552.18	440.02
552.34	416.62
552.51	437.68
552.68	437.68
552.84	369.80
553.01	369.80
553.18	404.91
553.34	376.83
553.51	360.44
553.67	475.13
553.84	468.11
554.01	475.13
554.17	465.77
554.34	461.09
554.51	416.62
554.67	454.06
554.84	437.68
555.00	433.00
555.17	416.62
555.33	393.21
555.50	397.89
555.67	393.21
555.83	437.68
556.00	482.15
556.16	606.20
556.33	376.83
556.50	372.15
556.66	393.21
556.83	386.19
556.99	383.85
557.16	381.51
557.32	437.68
557.49	390.87
557.65	430.66
557.82	409.59
557.98	400.23
558.15	369.80
558.32	416.62
558.48	397.89
558.65	430.66
558.81	482.15
558.98	444.70
559.14	416.62
559.31	491.51
559.47	414.27
559.64	395.55
559.80	360.44
559.97	442.36
560.13	416.62
560.30	372.15
560.46	402.57
560.63	449.38
560.79	444.70
560.96	437.68
561.12	418.96
561.29	479.81
561.45	479.81
561.61	423.64
561.78	503.22
561.94	402.57
562.11	351.08
562.27	421.30
562.44	416.62
562.60	456.40
562.77	393.21
562.93	386.19
563.10	414.27
563.26	376.83
563.42	400.23
563.59	400.23
563.75	528.96
563.92	451.72
564.08	449.38
564.24	322.99
564.41	447.04
564.57	367.46
564.74	444.70
564.90	435.34
565.07	547.69
565.23	428.32
565.39	397.89
565.56	440.02
565.72	402.57
565.88	482.15
566.05	292.57
566.21	425.98
566.38	360.44
566.54	402.57
566.70	425.98
566.87	463.43
567.03	451.72
567.19	444.70
567.36	447.04
567.52	430.66
567.68	433.00
567.85	484.49
568.01	400.23
568.17	386.19
568.34	479.81
568.50	447.04
568.66	458.74
568.83	498.53
568.99	440.02
569.15	411.93
569.32	379.17
569.48	418.96
569.64	395.55
569.81	421.30
569.97	428.32
570.13	463.43
570.30	416.62
570.46	451.72
570.62	433.00
570.78	411.93
570.95	437.68
571.11	479.81
571.27	491.51
571.43	425.98
571.60	468.11
571.76	468.11
571.92	449.38
572.09	428.32
572.25	388.53
572.41	402.57
572.57	358.10
572.74	416.62
572.90	435.34
573.06	388.53
573.22	404.91
573.38	447.04
573.55	489.17
573.71	433.00
573.87	423.64
574.03	421.30
574.20	421.30
574.36	402.57
574.52	393.21
574.68	421.30
574.84	472.79
575.01	435.34
575.17	514.92
575.33	458.74
575.49	428.32
575.65	423.64
575.82	456.40
575.98	416.62
576.14	465.77
576.30	367.46
576.46	400.23
576.62	503.22
576.79	489.17
576.95	486.83
577.11	388.53
577.27	393.21
577.43	444.70
577.59	423.64
577.75	390.87
577.92	404.91
578.08	351.08
578.24	411.93
578.40	437.68
578.56	433.00
578.72	407.25
578.88	456.40
579.04	440.02
579.21	409.59
579.37	447.04
579.53	330.02
579.69	449.38
579.85	414.27
580.01	430.66
580.17	437.68
580.33	395.55
580.49	381.51
580.65	416.62
580.82	365.12
580.98	374.49
581.14	430.66
581.30	430.66
581.46	458.74
581.62	407.25
581.78	411.93
581.94	416.62
582.10	444.70
582.26	461.09
582.42	348.74
582.58	374.49
582.74	397.89
582.90	339.38
583.06	423.64
583.22	376.83
583.38	365.12
583.54	351.08
583.70	360.44
583.86	388.53
584.02	440.02
584.18	379.17
584.34	390.87
584.50	374.49
584.66	358.10
584.82	407.25
584.98	365.12
585.14	416.62
585.30	482.15
585.46	430.66
585.62	362.78
585.78	409.59
585.94	423.64
586.10	388.53
586.26	369.80
586.42	454.06
586.58	456.40
586.74	458.74
586.90	414.27
587.06	470.45
587.22	388.53
587.38	435.34
587.54	390.87
587.70	437.68
587.86	379.17
588.02	430.66
588.18	348.74
588.34	414.27
588.49	365.12
588.65	484.49
588.81	435.34
588.97	407.25
589.13	390.87
589.29	475.13
589.45	449.38
589.61	393.21
589.77	463.43
589.93	374.49
590.08	433.00
590.24	517.26
590.40	447.04
590.56	409.59
590.72	409.59
590.88	404.91
591.04	425.98
591.20	362.78
591.35	451.72
591.51	425.98
591.67	395.55
591.83	369.80
591.99	397.89
592.15	458.74
592.31	425.98
592.46	430.66
592.62	444.70
592.78	444.70
592.94	423.64
593.10	360.44
593.26	458.74
593.41	491.51
593.57	414.27
593.73	327.68
593.89	404.91
594.05	379.17
594.20	404.91
594.36	491.51
594.52	414.27
594.68	348.74
594.84	468.11
594.99	428.32
595.15	468.11
595.31	433.00
595.47	430.66
595.62	397.89
595.78	374.49
595.94	397.89
596.10	454.06
596.25	411.93
596.41	381.51
596.57	461.09
596.73	358.10
596.88	355.76
597.04	362.78
597.20	440.02
597.36	461.09
597.51	428.32
597.67	400.23
597.83	334.70
597.99	435.34
598.14	458.74
598.30	414.27
598.46	388.53
598.61	393.21
598.77	400.23
598.93	374.49
599.09	421.30
599.24	376.83
599.40	461.09
599.56	486.83
599.71	411.93
599.87	440.02
600.03	404.91
600.18	365.12
600.34	416.62
600.50	362.78
600.65	376.83
600.81	440.02
600.97	374.49
601.12	402.57
601.28	397.89
601.44	444.70
601.59	425.98
601.75	440.02
601.91	393.21
602.06	367.46
602.22	458.74
602.37	402.57
602.53	374.49
602.69	388.53
602.84	435.34
603.00	421.30
603.16	428.32
603.31	407.25
603.47	468.11
603.62	318.31
603.78	351.08
603.94	400.23
604.09	433.00
604.25	468.11
604.40	425.98
604.56	451.72
604.71	355.76
604.87	414.27
605.03	402.57
605.18	442.36
605.34	411.93
605.49	390.87
605.65	442.36
605.80	423.64
605.96	477.47
606.12	404.91
606.27	430.66
606.43	409.59
606.58	409.59
606.74	489.17
606.89	442.36
607.05	414.27
607.20	442.36
607.36	358.10
607.51	395.55
607.67	449.38
607.82	465.77
607.98	498.53
608.13	386.19
608.29	414.27
608.44	388.53
608.60	463.43
608.75	489.17
608.91	491.51
609.06	444.70
609.22	447.04
609.37	418.96
609.53	421.30
609.68	360.44
609.84	418.96
609.99	374.49
610.15	421.30
