SpectraSuite Data File
++++++++++++++++++++++++++++++++++++
Date: Fri Oct 25 12:10:23 EDT 2013
User: price-jones
Dark Spectrum Present: No
Reference Spectrum Present: No
Number of Sampled Component Spectra: 1
Spectrometers: USB2+H05261
Integration Time (usec): 100000 (USB2+H05261)
Spectra Averaged: 1 (USB2+H05261)
Boxcar Smoothing: 0 (USB2+H05261)
Correct for Electrical Dark: No (USB2+H05261)
Strobe/Lamp Enabled: No (USB2+H05261)
Correct for Detector Non-linearity: No (USB2+H05261)
Correct for Stray Light: No (USB2+H05261)
Number of Pixels in Processed Spectrum: 2048
>>>>>Begin Processed Spectral Data<<<<<
365.73	299.59
365.92	299.59
366.12	299.59
366.32	311.29
366.52	234.05
366.72	234.05
366.91	208.31
367.11	229.37
367.31	231.71
367.51	224.69
367.70	264.48
367.90	280.86
368.10	187.24
368.30	229.37
368.49	220.01
368.69	278.52
368.89	250.44
369.09	205.97
369.28	280.86
369.48	250.44
369.68	297.25
369.87	299.59
370.07	280.86
370.27	374.49
370.47	337.04
370.66	358.10
370.86	400.23
371.06	355.76
371.25	327.68
371.45	379.17
371.65	456.40
371.84	290.23
372.04	351.08
372.24	379.17
372.44	358.10
372.63	383.85
372.83	493.85
373.03	344.06
373.22	374.49
373.42	388.53
373.62	393.21
373.81	440.02
374.01	444.70
374.21	418.96
374.40	358.10
374.60	463.43
374.79	404.91
374.99	425.98
375.19	351.08
375.38	475.13
375.58	430.66
375.78	425.98
375.97	341.72
376.17	477.47
376.37	390.87
376.56	418.96
376.76	397.89
376.95	341.72
377.15	456.40
377.35	435.34
377.54	430.66
377.74	414.27
377.93	383.85
378.13	428.32
378.33	400.23
378.52	400.23
378.72	386.19
378.91	388.53
379.11	402.57
379.31	381.51
379.50	334.70
379.70	409.59
379.89	470.45
380.09	372.15
380.28	390.87
380.48	418.96
380.68	430.66
380.87	437.68
381.07	411.93
381.26	400.23
381.46	348.74
381.65	322.99
381.85	402.57
382.04	367.46
382.24	390.87
382.43	404.91
382.63	374.49
382.83	512.58
383.02	430.66
383.22	414.27
383.41	376.83
383.61	395.55
383.80	383.85
384.00	416.62
384.19	425.98
384.39	440.02
384.58	369.80
384.78	411.93
384.97	397.89
385.17	397.89
385.36	395.55
385.56	444.70
385.75	348.74
385.95	369.80
386.14	447.04
386.34	393.21
386.53	362.78
386.72	397.89
386.92	411.93
387.11	454.06
387.31	442.36
387.50	365.12
387.70	353.42
387.89	337.04
388.09	400.23
388.28	437.68
388.48	362.78
388.67	390.87
388.86	327.68
389.06	428.32
389.25	451.72
389.45	414.27
389.64	444.70
389.84	430.66
390.03	442.36
390.22	465.77
390.42	360.44
390.61	355.76
390.81	315.97
391.00	383.85
391.19	482.15
391.39	472.79
391.58	400.23
391.78	409.59
391.97	423.64
392.16	449.38
392.36	440.02
392.55	400.23
392.75	351.08
392.94	454.06
393.13	395.55
393.33	379.17
393.52	440.02
393.71	442.36
393.91	428.32
394.10	348.74
394.29	397.89
394.49	411.93
394.68	365.12
394.88	442.36
395.07	433.00
395.26	369.80
395.46	449.38
395.65	404.91
395.84	435.34
396.04	468.11
396.23	393.21
396.42	365.12
396.62	465.77
396.81	449.38
397.00	404.91
397.19	355.76
397.39	376.83
397.58	449.38
397.77	409.59
397.97	440.02
398.16	414.27
398.35	475.13
398.55	393.21
398.74	360.44
398.93	320.65
399.12	404.91
399.32	442.36
399.51	397.89
399.70	433.00
399.90	461.09
400.09	423.64
400.28	425.98
400.47	395.55
400.67	395.55
400.86	360.44
401.05	435.34
401.24	409.59
401.44	383.85
401.63	374.49
401.82	376.83
402.01	379.17
402.21	437.68
402.40	369.80
402.59	510.24
402.78	411.93
402.97	379.17
403.17	386.19
403.36	362.78
403.55	376.83
403.74	393.21
403.93	479.81
404.13	440.02
404.32	447.04
404.51	414.27
404.70	360.44
404.89	365.12
405.09	433.00
405.28	477.47
405.47	365.12
405.66	440.02
405.85	404.91
406.05	383.85
406.24	318.31
406.43	442.36
406.62	334.70
406.81	458.74
407.00	440.02
407.20	360.44
407.39	425.98
407.58	402.57
407.77	360.44
407.96	376.83
408.15	416.62
408.34	369.80
408.54	374.49
408.73	369.80
408.92	425.98
409.11	409.59
409.30	444.70
409.49	388.53
409.68	456.40
409.87	477.47
410.07	425.98
410.26	325.33
410.45	437.68
410.64	348.74
410.83	402.57
411.02	465.77
411.21	339.38
411.40	440.02
411.59	400.23
411.78	376.83
411.98	407.25
412.17	409.59
412.36	425.98
412.55	411.93
412.74	421.30
412.93	404.91
413.12	355.76
413.31	383.85
413.50	374.49
413.69	444.70
413.88	407.25
414.07	456.40
414.26	346.40
414.45	372.15
414.64	425.98
414.83	409.59
415.02	379.17
415.22	433.00
415.41	386.19
415.60	421.30
415.79	416.62
415.98	397.89
416.17	503.22
416.36	393.21
416.55	393.21
416.74	472.79
416.93	475.13
417.12	407.25
417.31	397.89
417.50	397.89
417.69	486.83
417.88	404.91
418.07	322.99
418.26	442.36
418.45	381.51
418.64	454.06
418.83	470.45
419.02	397.89
419.21	390.87
419.39	381.51
419.58	440.02
419.77	421.30
419.96	465.77
420.15	442.36
420.34	390.87
420.53	447.04
420.72	442.36
420.91	463.43
421.10	433.00
421.29	390.87
421.48	344.06
421.67	465.77
421.86	374.49
422.05	365.12
422.24	383.85
422.43	383.85
422.61	358.10
422.80	435.34
422.99	418.96
423.18	409.59
423.37	428.32
423.56	425.98
423.75	425.98
423.94	383.85
424.13	414.27
424.32	367.46
424.50	418.96
424.69	428.32
424.88	444.70
425.07	402.57
425.26	451.72
425.45	444.70
425.64	442.36
425.83	435.34
426.01	454.06
426.20	383.85
426.39	454.06
426.58	451.72
426.77	355.76
426.96	477.47
427.15	416.62
427.33	376.83
427.52	409.59
427.71	454.06
427.90	428.32
428.09	402.57
428.28	390.87
428.46	454.06
428.65	425.98
428.84	454.06
429.03	369.80
429.22	411.93
429.40	442.36
429.59	374.49
429.78	425.98
429.97	430.66
430.16	376.83
430.34	374.49
430.53	367.46
430.72	411.93
430.91	430.66
431.10	395.55
431.28	362.78
431.47	465.77
431.66	430.66
431.85	372.15
432.03	379.17
432.22	416.62
432.41	355.76
432.60	449.38
432.79	348.74
432.97	374.49
433.16	362.78
433.35	365.12
433.54	433.00
433.72	397.89
433.91	430.66
434.10	423.64
434.28	498.53
434.47	416.62
434.66	440.02
434.85	346.40
435.03	435.34
435.22	423.64
435.41	435.34
435.59	421.30
435.78	407.25
435.97	374.49
436.16	486.83
436.34	404.91
436.53	479.81
436.72	477.47
436.90	421.30
437.09	369.80
437.28	411.93
437.46	362.78
437.65	456.40
437.84	458.74
438.02	428.32
438.21	369.80
438.40	454.06
438.58	411.93
438.77	393.21
438.96	421.30
439.14	379.17
439.33	463.43
439.52	348.74
439.70	400.23
439.89	425.98
440.08	433.00
440.26	367.46
440.45	496.19
440.63	365.12
440.82	365.12
441.01	390.87
441.19	397.89
441.38	372.15
441.57	365.12
441.75	411.93
441.94	444.70
442.12	430.66
442.31	444.70
442.50	477.47
442.68	395.55
442.87	404.91
443.05	388.53
443.24	421.30
443.43	372.15
443.61	402.57
443.80	414.27
443.98	353.42
444.17	379.17
444.35	341.72
444.54	430.66
444.73	442.36
444.91	442.36
445.10	351.08
445.28	402.57
445.47	374.49
445.65	433.00
445.84	425.98
446.02	395.55
446.21	402.57
446.39	339.38
446.58	397.89
446.77	374.49
446.95	381.51
447.14	433.00
447.32	400.23
447.51	454.06
447.69	376.83
447.88	365.12
448.06	418.96
448.25	440.02
448.43	425.98
448.62	414.27
448.80	367.46
448.99	411.93
449.17	461.09
449.36	374.49
449.54	381.51
449.73	383.85
449.91	397.89
450.10	313.63
450.28	369.80
450.46	449.38
450.65	449.38
450.83	447.04
451.02	425.98
451.20	362.78
451.39	411.93
451.57	369.80
451.76	458.74
451.94	461.09
452.13	430.66
452.31	437.68
452.49	362.78
452.68	430.66
452.86	463.43
453.05	395.55
453.23	358.10
453.42	407.25
453.60	390.87
453.78	416.62
453.97	334.70
454.15	454.06
454.34	379.17
454.52	411.93
454.70	435.34
454.89	444.70
455.07	383.85
455.26	418.96
455.44	388.53
455.62	390.87
455.81	440.02
455.99	374.49
456.17	393.21
456.36	425.98
456.54	451.72
456.73	388.53
456.91	355.76
457.09	383.85
457.28	395.55
457.46	442.36
457.64	411.93
457.83	304.27
458.01	447.04
458.19	372.15
458.38	388.53
458.56	390.87
458.74	386.19
458.93	411.93
459.11	330.02
459.29	369.80
459.48	493.85
459.66	407.25
459.84	360.44
460.03	514.92
460.21	472.79
460.39	341.72
460.57	418.96
460.76	428.32
460.94	519.60
461.12	400.23
461.31	404.91
461.49	430.66
461.67	411.93
461.85	367.46
462.04	306.61
462.22	695.14
462.40	430.66
462.59	388.53
462.77	381.51
462.95	409.59
463.13	372.15
463.32	470.45
463.50	458.74
463.68	442.36
463.86	440.02
464.05	458.74
464.23	437.68
464.41	376.83
464.59	337.04
464.78	388.53
464.96	461.09
465.14	430.66
465.32	454.06
465.50	416.62
465.69	418.96
465.87	437.68
466.05	437.68
466.23	348.74
466.41	381.51
466.60	390.87
466.78	407.25
466.96	407.25
467.14	423.64
467.32	440.02
467.51	421.30
467.69	437.68
467.87	526.62
468.05	411.93
468.23	461.09
468.41	447.04
468.60	465.77
468.78	388.53
468.96	433.00
469.14	416.62
469.32	397.89
469.50	421.30
469.69	416.62
469.87	479.81
470.05	400.23
470.23	355.76
470.41	374.49
470.59	414.27
470.77	451.72
470.95	344.06
471.14	362.78
471.32	372.15
471.50	451.72
471.68	430.66
471.86	407.25
472.04	418.96
472.22	395.55
472.40	472.79
472.58	423.64
472.77	379.17
472.95	383.85
473.13	428.32
473.31	383.85
473.49	421.30
473.67	449.38
473.85	425.98
474.03	421.30
474.21	458.74
474.39	423.64
474.57	477.47
474.75	411.93
474.93	369.80
475.12	449.38
475.30	423.64
475.48	402.57
475.66	428.32
475.84	454.06
476.02	400.23
476.20	433.00
476.38	402.57
476.56	444.70
476.74	388.53
476.92	463.43
477.10	393.21
477.28	381.51
477.46	418.96
477.64	433.00
477.82	353.42
478.00	369.80
478.18	472.79
478.36	409.59
478.54	339.38
478.72	428.32
478.90	379.17
479.08	465.77
479.26	388.53
479.44	433.00
479.62	383.85
479.80	409.59
479.98	372.15
480.16	397.89
480.34	435.34
480.52	437.68
480.70	470.45
480.88	381.51
481.06	367.46
481.24	440.02
481.41	472.79
481.59	463.43
481.77	411.93
481.95	411.93
482.13	447.04
482.31	386.19
482.49	360.44
482.67	463.43
482.85	400.23
483.03	409.59
483.21	442.36
483.39	404.91
483.57	442.36
483.74	397.89
483.92	430.66
484.10	390.87
484.28	444.70
484.46	416.62
484.64	444.70
484.82	425.98
485.00	388.53
485.18	379.17
485.35	339.38
485.53	365.12
485.71	470.45
485.89	390.87
486.07	381.51
486.25	444.70
486.43	428.32
486.61	409.59
486.78	395.55
486.96	369.80
487.14	395.55
487.32	402.57
487.50	423.64
487.68	454.06
487.85	435.34
488.03	409.59
488.21	512.58
488.39	449.38
488.57	505.56
488.75	381.51
488.92	470.45
489.10	409.59
489.28	491.51
489.46	374.49
489.64	491.51
489.81	423.64
489.99	507.90
490.17	440.02
490.35	510.24
490.53	425.98
490.70	479.81
490.88	362.78
491.06	390.87
491.24	381.51
491.41	414.27
491.59	390.87
491.77	341.72
491.95	360.44
492.13	346.40
492.30	423.64
492.48	404.91
492.66	407.25
492.84	402.57
493.01	440.02
493.19	404.91
493.37	498.53
493.54	409.59
493.72	418.96
493.90	470.45
494.08	388.53
494.25	390.87
494.43	421.30
494.61	442.36
494.79	388.53
494.96	360.44
495.14	348.74
495.32	397.89
495.49	442.36
495.67	465.77
495.85	435.34
496.02	369.80
496.20	456.40
496.38	393.21
496.55	411.93
496.73	461.09
496.91	397.89
497.09	411.93
497.26	388.53
497.44	414.27
497.62	449.38
497.79	402.57
497.97	463.43
498.14	489.17
498.32	416.62
498.50	409.59
498.67	381.51
498.85	437.68
499.03	407.25
499.20	500.87
499.38	477.47
499.56	456.40
499.73	421.30
499.91	425.98
500.08	470.45
500.26	423.64
500.44	425.98
500.61	411.93
500.79	416.62
500.97	463.43
501.14	458.74
501.32	400.23
501.49	437.68
501.67	456.40
501.84	407.25
502.02	358.10
502.20	381.51
502.37	484.49
502.55	505.56
502.72	435.34
502.90	390.87
503.07	414.27
503.25	416.62
503.43	421.30
503.60	381.51
503.78	395.55
503.95	411.93
504.13	437.68
504.30	428.32
504.48	451.72
504.65	393.21
504.83	400.23
505.01	383.85
505.18	461.09
505.36	465.77
505.53	428.32
505.71	386.19
505.88	442.36
506.06	376.83
506.23	423.64
506.41	388.53
506.58	339.38
506.76	428.32
506.93	379.17
507.11	423.64
507.28	334.70
507.46	456.40
507.63	365.12
507.81	437.68
507.98	437.68
508.16	407.25
508.33	425.98
508.50	344.06
508.68	348.74
508.85	327.68
509.03	381.51
509.20	423.64
509.38	416.62
509.55	400.23
509.73	402.57
509.90	409.59
510.08	442.36
510.25	444.70
510.42	409.59
510.60	379.17
510.77	477.47
510.95	447.04
511.12	435.34
511.30	484.49
511.47	458.74
511.64	409.59
511.82	433.00
511.99	390.87
512.17	425.98
512.34	440.02
512.51	383.85
512.69	362.78
512.86	404.91
513.04	423.64
513.21	447.04
513.38	451.72
513.56	449.38
513.73	428.32
513.90	449.38
514.08	411.93
514.25	397.89
514.43	390.87
514.60	449.38
514.77	493.85
514.95	418.96
515.12	351.08
515.29	388.53
515.47	451.72
515.64	348.74
515.81	362.78
515.99	440.02
516.16	449.38
516.33	421.30
516.51	470.45
516.68	418.96
516.85	418.96
517.03	421.30
517.20	341.72
517.37	395.55
517.54	411.93
517.72	325.33
517.89	409.59
518.06	374.49
518.24	479.81
518.41	503.22
518.58	425.98
518.75	440.02
518.93	421.30
519.10	454.06
519.27	421.30
519.45	390.87
519.62	416.62
519.79	411.93
519.96	360.44
520.14	428.32
520.31	491.51
520.48	337.04
520.65	454.06
520.83	425.98
521.00	428.32
521.17	395.55
521.34	421.30
521.52	416.62
521.69	423.64
521.86	360.44
522.03	440.02
522.20	444.70
522.38	423.64
522.55	451.72
522.72	353.42
522.89	423.64
523.07	433.00
523.24	425.98
523.41	454.06
523.58	418.96
523.75	430.66
523.92	440.02
524.10	423.64
524.27	390.87
524.44	381.51
524.61	463.43
524.78	393.21
524.96	360.44
525.13	428.32
525.30	435.34
525.47	468.11
525.64	411.93
525.81	442.36
525.98	397.89
526.16	381.51
526.33	390.87
526.50	442.36
526.67	400.23
526.84	414.27
527.01	409.59
527.18	418.96
527.36	423.64
527.53	374.49
527.70	395.55
527.87	404.91
528.04	411.93
528.21	428.32
528.38	496.19
528.55	503.22
528.72	437.68
528.89	400.23
529.07	423.64
529.24	428.32
529.41	482.15
529.58	353.42
529.75	409.59
529.92	409.59
530.09	449.38
530.26	479.81
530.43	421.30
530.60	416.62
530.77	418.96
530.94	449.38
531.11	390.87
531.28	386.19
531.46	376.83
531.63	437.68
531.80	404.91
531.97	472.79
532.14	379.17
532.31	489.17
532.48	440.02
532.65	395.55
532.82	428.32
532.99	367.46
533.16	402.57
533.33	423.64
533.50	344.06
533.67	449.38
533.84	425.98
534.01	433.00
534.18	381.51
534.35	442.36
534.52	465.77
534.69	430.66
534.86	442.36
535.03	395.55
535.20	428.32
535.37	402.57
535.54	418.96
535.71	423.64
535.88	433.00
536.05	416.62
536.22	472.79
536.38	374.49
536.55	418.96
536.72	461.09
536.89	430.66
537.06	435.34
537.23	397.89
537.40	367.46
537.57	376.83
537.74	430.66
537.91	383.85
538.08	418.96
538.25	386.19
538.42	472.79
538.59	435.34
538.75	407.25
538.92	461.09
539.09	442.36
539.26	404.91
539.43	461.09
539.60	425.98
539.77	407.25
539.94	484.49
540.11	442.36
540.28	454.06
540.44	421.30
540.61	388.53
540.78	365.12
540.95	381.51
541.12	442.36
541.29	418.96
541.46	447.04
541.62	372.15
541.79	344.06
541.96	346.40
542.13	425.98
542.30	433.00
542.47	451.72
542.63	414.27
542.80	383.85
542.97	468.11
543.14	433.00
543.31	482.15
543.48	444.70
543.64	376.83
543.81	433.00
543.98	404.91
544.15	369.80
544.32	458.74
544.48	369.80
544.65	353.42
544.82	447.04
544.99	414.27
545.16	411.93
545.32	428.32
545.49	456.40
545.66	437.68
545.83	421.30
546.00	463.43
546.16	381.51
546.33	428.32
546.50	433.00
546.67	395.55
546.83	400.23
547.00	339.38
547.17	372.15
547.34	433.00
547.50	449.38
547.67	435.34
547.84	418.96
548.00	404.91
548.17	449.38
548.34	348.74
548.51	489.17
548.67	383.85
548.84	421.30
549.01	472.79
549.18	435.34
549.34	416.62
549.51	388.53
549.68	416.62
549.84	486.83
550.01	411.93
550.18	489.17
550.34	479.81
550.51	423.64
550.68	435.34
550.84	388.53
551.01	435.34
551.18	435.34
551.34	416.62
551.51	447.04
551.68	325.33
551.84	397.89
552.01	456.40
552.18	449.38
552.34	369.80
552.51	472.79
552.68	435.34
552.84	437.68
553.01	463.43
553.18	411.93
553.34	416.62
553.51	411.93
553.67	449.38
553.84	458.74
554.01	416.62
554.17	425.98
554.34	372.15
554.51	428.32
554.67	442.36
554.84	454.06
555.00	442.36
555.17	393.21
555.33	411.93
555.50	390.87
555.67	470.45
555.83	351.08
556.00	477.47
556.16	545.34
556.33	484.49
556.50	388.53
556.66	437.68
556.83	365.12
556.99	416.62
557.16	397.89
557.32	461.09
557.49	416.62
557.65	404.91
557.82	430.66
557.98	407.25
558.15	454.06
558.32	402.57
558.48	451.72
558.65	482.15
558.81	444.70
558.98	365.12
559.14	442.36
559.31	411.93
559.47	442.36
559.64	475.13
559.80	418.96
559.97	425.98
560.13	475.13
560.30	393.21
560.46	339.38
560.63	454.06
560.79	381.51
560.96	458.74
561.12	437.68
561.29	430.66
561.45	339.38
561.61	421.30
561.78	491.51
561.94	489.17
562.11	421.30
562.27	332.36
562.44	440.02
562.60	461.09
562.77	362.78
562.93	458.74
563.10	388.53
563.26	358.10
563.42	414.27
563.59	491.51
563.75	451.72
563.92	454.06
564.08	395.55
564.24	454.06
564.41	449.38
564.57	433.00
564.74	507.90
564.90	451.72
565.07	414.27
565.23	423.64
565.39	428.32
565.56	451.72
565.72	484.49
565.88	353.42
566.05	454.06
566.21	468.11
566.38	463.43
566.54	475.13
566.70	440.02
566.87	369.80
567.03	418.96
567.19	493.85
567.36	416.62
567.52	418.96
567.68	374.49
567.85	433.00
568.01	433.00
568.17	365.12
568.34	428.32
568.50	397.89
568.66	437.68
568.83	510.24
568.99	374.49
569.15	472.79
569.32	477.47
569.48	451.72
569.64	463.43
569.81	477.47
569.97	414.27
570.13	409.59
570.30	437.68
570.46	383.85
570.62	390.87
570.78	435.34
570.95	425.98
571.11	437.68
571.27	500.87
571.43	418.96
571.60	461.09
571.76	423.64
571.92	418.96
572.09	414.27
572.25	416.62
572.41	486.83
572.57	486.83
572.74	479.81
572.90	388.53
573.06	456.40
573.22	449.38
573.38	489.17
573.55	430.66
573.71	486.83
573.87	475.13
574.03	423.64
574.20	411.93
574.36	369.80
574.52	507.90
574.68	409.59
574.84	468.11
575.01	465.77
575.17	402.57
575.33	348.74
575.49	496.19
575.65	435.34
575.82	386.19
575.98	416.62
576.14	440.02
576.30	423.64
576.46	433.00
576.62	479.81
576.79	379.17
576.95	423.64
577.11	444.70
577.27	449.38
577.43	430.66
577.59	437.68
577.75	423.64
577.92	468.11
578.08	423.64
578.24	451.72
578.40	444.70
578.56	433.00
578.72	510.24
578.88	435.34
579.04	425.98
579.21	428.32
579.37	355.76
579.53	416.62
579.69	397.89
579.85	435.34
580.01	416.62
580.17	433.00
580.33	400.23
580.49	404.91
580.65	400.23
580.82	409.59
580.98	341.72
581.14	388.53
581.30	465.77
581.46	458.74
581.62	447.04
581.78	397.89
581.94	449.38
582.10	425.98
582.26	437.68
582.42	381.51
582.58	369.80
582.74	390.87
582.90	430.66
583.06	521.94
583.22	390.87
583.38	360.44
583.54	400.23
583.70	449.38
583.86	458.74
584.02	411.93
584.18	489.17
584.34	442.36
584.50	461.09
584.66	461.09
584.82	348.74
584.98	418.96
585.14	411.93
585.30	447.04
585.46	458.74
585.62	421.30
585.78	418.96
585.94	425.98
586.10	475.13
586.26	416.62
586.42	418.96
586.58	451.72
586.74	428.32
586.90	386.19
587.06	409.59
587.22	423.64
587.38	437.68
587.54	440.02
587.70	414.27
587.86	395.55
588.02	381.51
588.18	486.83
588.34	390.87
588.49	449.38
588.65	435.34
588.81	456.40
588.97	369.80
589.13	435.34
589.29	388.53
589.45	447.04
589.61	437.68
589.77	449.38
589.93	456.40
590.08	425.98
590.24	458.74
590.40	444.70
590.56	440.02
590.72	376.83
590.88	379.17
591.04	433.00
591.20	393.21
591.35	447.04
591.51	395.55
591.67	421.30
591.83	440.02
591.99	397.89
592.15	475.13
592.31	388.53
592.46	346.40
592.62	386.19
592.78	400.23
592.94	369.80
593.10	400.23
593.26	409.59
593.41	442.36
593.57	407.25
593.73	451.72
593.89	411.93
594.05	418.96
594.20	308.95
594.36	475.13
594.52	409.59
594.68	418.96
594.84	440.02
594.99	388.53
595.15	447.04
595.31	407.25
595.47	365.12
595.62	430.66
595.78	397.89
595.94	390.87
596.10	444.70
596.25	442.36
596.41	348.74
596.57	395.55
596.73	376.83
596.88	409.59
597.04	449.38
597.20	435.34
597.36	395.55
597.51	409.59
597.67	461.09
597.83	449.38
597.99	447.04
598.14	425.98
598.30	442.36
598.46	475.13
598.61	411.93
598.77	416.62
598.93	407.25
599.09	407.25
599.24	468.11
599.40	440.02
599.56	425.98
599.71	388.53
599.87	411.93
600.03	400.23
600.18	369.80
600.34	475.13
600.50	414.27
600.65	355.76
600.81	444.70
600.97	386.19
601.12	395.55
601.28	449.38
601.44	440.02
601.59	362.78
601.75	461.09
601.91	477.47
602.06	421.30
602.22	470.45
602.37	425.98
602.53	402.57
602.69	442.36
602.84	444.70
603.00	454.06
603.16	400.23
603.31	411.93
603.47	376.83
603.62	379.17
603.78	456.40
603.94	526.62
604.09	472.79
604.25	451.72
604.40	397.89
604.56	341.72
604.71	360.44
604.87	304.27
605.03	435.34
605.18	355.76
605.34	461.09
605.49	362.78
605.65	369.80
605.80	393.21
605.96	395.55
606.12	477.47
606.27	409.59
606.43	348.74
606.58	461.09
606.74	440.02
606.89	428.32
607.05	440.02
607.20	381.51
607.36	456.40
607.51	416.62
607.67	395.55
607.82	421.30
607.98	470.45
608.13	486.83
608.29	454.06
608.44	477.47
608.60	402.57
608.75	376.83
608.91	362.78
609.06	379.17
609.22	430.66
609.37	374.49
609.53	470.45
609.68	358.10
609.84	341.72
609.99	430.66
610.15	458.74
