SpectraSuite Data File
++++++++++++++++++++++++++++++++++++
Date: Fri Oct 25 12:11:24 EDT 2013
User: price-jones
Dark Spectrum Present: No
Reference Spectrum Present: No
Number of Sampled Component Spectra: 1
Spectrometers: USB2+H05261
Integration Time (usec): 100000 (USB2+H05261)
Spectra Averaged: 1 (USB2+H05261)
Boxcar Smoothing: 0 (USB2+H05261)
Correct for Electrical Dark: No (USB2+H05261)
Strobe/Lamp Enabled: No (USB2+H05261)
Correct for Detector Non-linearity: No (USB2+H05261)
Correct for Stray Light: No (USB2+H05261)
Number of Pixels in Processed Spectrum: 2048
>>>>>Begin Processed Spectral Data<<<<<
365.73	325.33
365.92	325.33
366.12	325.33
366.32	322.99
366.52	215.33
366.72	290.23
366.91	229.37
367.11	227.03
367.31	259.80
367.51	241.08
367.70	154.48
367.90	285.55
368.10	203.63
368.30	191.92
368.49	241.08
368.69	276.18
368.89	299.59
369.09	217.67
369.28	248.10
369.48	252.78
369.68	264.48
369.87	283.20
370.07	332.36
370.27	306.61
370.47	388.53
370.66	269.16
370.86	339.38
371.06	383.85
371.25	421.30
371.45	341.72
371.65	386.19
371.84	365.12
372.04	414.27
372.24	407.25
372.44	374.49
372.63	402.57
372.83	397.89
373.03	407.25
373.22	440.02
373.42	451.72
373.62	423.64
373.81	425.98
374.01	372.15
374.21	440.02
374.40	465.77
374.60	402.57
374.79	383.85
374.99	430.66
375.19	404.91
375.38	425.98
375.58	447.04
375.78	400.23
375.97	465.77
376.17	461.09
376.37	491.51
376.56	475.13
376.76	367.46
376.95	353.42
377.15	374.49
377.35	465.77
377.54	425.98
377.74	374.49
377.93	447.04
378.13	456.40
378.33	393.21
378.52	421.30
378.72	425.98
378.91	512.58
379.11	416.62
379.31	320.65
379.50	430.66
379.70	430.66
379.89	411.93
380.09	440.02
380.28	355.76
380.48	360.44
380.68	395.55
380.87	376.83
381.07	369.80
381.26	461.09
381.46	374.49
381.65	390.87
381.85	367.46
382.04	409.59
382.24	411.93
382.43	409.59
382.63	395.55
382.83	428.32
383.02	444.70
383.22	397.89
383.41	280.86
383.61	388.53
383.80	461.09
384.00	411.93
384.19	425.98
384.39	425.98
384.58	416.62
384.78	393.21
384.97	411.93
385.17	411.93
385.36	334.70
385.56	397.89
385.75	388.53
385.95	442.36
386.14	421.30
386.34	414.27
386.53	454.06
386.72	409.59
386.92	351.08
387.11	428.32
387.31	402.57
387.50	407.25
387.70	400.23
387.89	372.15
388.09	416.62
388.28	407.25
388.48	461.09
388.67	430.66
388.86	435.34
389.06	404.91
389.25	355.76
389.45	402.57
389.64	435.34
389.84	400.23
390.03	411.93
390.22	376.83
390.42	386.19
390.61	416.62
390.81	472.79
391.00	409.59
391.19	376.83
391.39	348.74
391.58	404.91
391.78	393.21
391.97	353.42
392.16	372.15
392.36	442.36
392.55	456.40
392.75	376.83
392.94	374.49
393.13	404.91
393.33	430.66
393.52	442.36
393.71	404.91
393.91	376.83
394.10	397.89
394.29	393.21
394.49	430.66
394.68	437.68
394.88	437.68
395.07	397.89
395.26	390.87
395.46	454.06
395.65	435.34
395.84	369.80
396.04	381.51
396.23	404.91
396.42	388.53
396.62	421.30
396.81	397.89
397.00	355.76
397.19	449.38
397.39	404.91
397.58	444.70
397.77	367.46
397.97	409.59
398.16	374.49
398.35	430.66
398.55	425.98
398.74	337.04
398.93	414.27
399.12	397.89
399.32	456.40
399.51	402.57
399.70	409.59
399.90	407.25
400.09	435.34
400.28	360.44
400.47	386.19
400.67	423.64
400.86	400.23
401.05	334.70
401.24	444.70
401.44	414.27
401.63	437.68
401.82	428.32
402.01	425.98
402.21	365.12
402.40	458.74
402.59	360.44
402.78	381.51
402.97	425.98
403.17	465.77
403.36	458.74
403.55	411.93
403.74	390.87
403.93	383.85
404.13	411.93
404.32	360.44
404.51	372.15
404.70	425.98
404.89	479.81
405.09	491.51
405.28	442.36
405.47	369.80
405.66	383.85
405.85	379.17
406.05	407.25
406.24	458.74
406.43	348.74
406.62	449.38
406.81	397.89
407.00	395.55
407.20	437.68
407.39	395.55
407.58	320.65
407.77	395.55
407.96	456.40
408.15	449.38
408.34	402.57
408.54	437.68
408.73	315.97
408.92	386.19
409.11	379.17
409.30	421.30
409.49	386.19
409.68	440.02
409.87	418.96
410.07	367.46
410.26	449.38
410.45	402.57
410.64	381.51
410.83	433.00
411.02	421.30
411.21	393.21
411.40	444.70
411.59	407.25
411.78	454.06
411.98	341.72
412.17	386.19
412.36	430.66
412.55	369.80
412.74	489.17
412.93	433.00
413.12	353.42
413.31	440.02
413.50	397.89
413.69	381.51
413.88	440.02
414.07	400.23
414.26	411.93
414.45	397.89
414.64	411.93
414.83	465.77
415.02	332.36
415.22	433.00
415.41	374.49
415.60	360.44
415.79	346.40
415.98	500.87
416.17	468.11
416.36	440.02
416.55	400.23
416.74	386.19
416.93	341.72
417.12	451.72
417.31	376.83
417.50	440.02
417.69	491.51
417.88	388.53
418.07	451.72
418.26	458.74
418.45	369.80
418.64	365.12
418.83	421.30
419.02	465.77
419.21	409.59
419.39	402.57
419.58	440.02
419.77	402.57
419.96	470.45
420.15	454.06
420.34	479.81
420.53	451.72
420.72	491.51
420.91	327.68
421.10	465.77
421.29	390.87
421.48	383.85
421.67	482.15
421.86	376.83
422.05	411.93
422.24	404.91
422.43	374.49
422.61	397.89
422.80	421.30
422.99	402.57
423.18	458.74
423.37	465.77
423.56	374.49
423.75	374.49
423.94	369.80
424.13	383.85
424.32	470.45
424.50	383.85
424.69	355.76
424.88	372.15
425.07	393.21
425.26	500.87
425.45	437.68
425.64	433.00
425.83	381.51
426.01	442.36
426.20	472.79
426.39	491.51
426.58	423.64
426.77	400.23
426.96	416.62
427.15	369.80
427.33	418.96
427.52	407.25
427.71	353.42
427.90	440.02
428.09	484.49
428.28	404.91
428.46	337.04
428.65	393.21
428.84	430.66
429.03	486.83
429.22	430.66
429.40	430.66
429.59	440.02
429.78	451.72
429.97	379.17
430.16	407.25
430.34	414.27
430.53	365.12
430.72	381.51
430.91	402.57
431.10	411.93
431.28	414.27
431.47	421.30
431.66	472.79
431.85	379.17
432.03	433.00
432.22	458.74
432.41	393.21
432.60	484.49
432.79	390.87
432.97	367.46
433.16	379.17
433.35	449.38
433.54	376.83
433.72	468.11
433.91	416.62
434.10	393.21
434.28	381.51
434.47	454.06
434.66	414.27
434.85	381.51
435.03	360.44
435.22	442.36
435.41	428.32
435.59	430.66
435.78	404.91
435.97	397.89
436.16	437.68
436.34	339.38
436.53	386.19
436.72	470.45
436.90	404.91
437.09	449.38
437.28	381.51
437.46	416.62
437.65	379.17
437.84	538.32
438.02	428.32
438.21	393.21
438.40	390.87
438.58	414.27
438.77	358.10
438.96	433.00
439.14	397.89
439.33	383.85
439.52	395.55
439.70	456.40
439.89	390.87
440.08	376.83
440.26	402.57
440.45	418.96
440.63	374.49
440.82	341.72
441.01	414.27
441.19	393.21
441.38	402.57
441.57	416.62
441.75	416.62
441.94	440.02
442.12	461.09
442.31	433.00
442.50	477.47
442.68	454.06
442.87	383.85
443.05	400.23
443.24	404.91
443.43	486.83
443.61	395.55
443.80	409.59
443.98	449.38
444.17	386.19
444.35	372.15
444.54	428.32
444.73	369.80
444.91	510.24
445.10	425.98
445.28	435.34
445.47	397.89
445.65	416.62
445.84	402.57
446.02	414.27
446.21	388.53
446.39	409.59
446.58	451.72
446.77	400.23
446.95	416.62
447.14	458.74
447.32	390.87
447.51	421.30
447.69	489.17
447.88	447.04
448.06	449.38
448.25	411.93
448.43	416.62
448.62	447.04
448.80	416.62
448.99	402.57
449.17	390.87
449.36	400.23
449.54	472.79
449.73	440.02
449.91	376.83
450.10	437.68
450.28	456.40
450.46	355.76
450.65	440.02
450.83	463.43
451.02	400.23
451.20	418.96
451.39	404.91
451.57	409.59
451.76	395.55
451.94	404.91
452.13	425.98
452.31	451.72
452.49	418.96
452.68	440.02
452.86	374.49
453.05	411.93
453.23	477.47
453.42	482.15
453.60	313.63
453.78	388.53
453.97	320.65
454.15	358.10
454.34	372.15
454.52	411.93
454.70	409.59
454.89	437.68
455.07	458.74
455.26	407.25
455.44	440.02
455.62	407.25
455.81	416.62
455.99	449.38
456.17	325.33
456.36	428.32
456.54	395.55
456.73	479.81
456.91	451.72
457.09	421.30
457.28	442.36
457.46	414.27
457.64	348.74
457.83	418.96
458.01	379.17
458.19	393.21
458.38	348.74
458.56	411.93
458.74	395.55
458.93	416.62
459.11	374.49
459.29	430.66
459.48	421.30
459.66	458.74
459.84	421.30
460.03	479.81
460.21	416.62
460.39	381.51
460.57	433.00
460.76	421.30
460.94	402.57
461.12	374.49
461.31	381.51
461.49	414.27
461.67	409.59
461.85	327.68
462.04	383.85
462.22	760.67
462.40	337.04
462.59	421.30
462.77	393.21
462.95	400.23
463.13	358.10
463.32	411.93
463.50	456.40
463.68	367.46
463.86	393.21
464.05	414.27
464.23	400.23
464.41	425.98
464.59	372.15
464.78	465.77
464.96	402.57
465.14	437.68
465.32	437.68
465.50	442.36
465.69	400.23
465.87	369.80
466.05	463.43
466.23	425.98
466.41	369.80
466.60	442.36
466.78	404.91
466.96	454.06
467.14	407.25
467.32	433.00
467.51	416.62
467.69	418.96
467.87	477.47
468.05	400.23
468.23	461.09
468.41	411.93
468.60	369.80
468.78	430.66
468.96	482.15
469.14	423.64
469.32	402.57
469.50	346.40
469.69	397.89
469.87	458.74
470.05	397.89
470.23	362.78
470.41	362.78
470.59	393.21
470.77	376.83
470.95	430.66
471.14	444.70
471.32	451.72
471.50	449.38
471.68	470.45
471.86	477.47
472.04	486.83
472.22	409.59
472.40	376.83
472.58	416.62
472.77	397.89
472.95	390.87
473.13	507.90
473.31	449.38
473.49	442.36
473.67	444.70
473.85	444.70
474.03	468.11
474.21	404.91
474.39	411.93
474.57	444.70
474.75	477.47
474.93	414.27
475.12	414.27
475.30	414.27
475.48	418.96
475.66	437.68
475.84	381.51
476.02	402.57
476.20	402.57
476.38	425.98
476.56	484.49
476.74	409.59
476.92	454.06
477.10	393.21
477.28	397.89
477.46	404.91
477.64	411.93
477.82	482.15
478.00	353.42
478.18	372.15
478.36	421.30
478.54	395.55
478.72	414.27
478.90	358.10
479.08	353.42
479.26	423.64
479.44	421.30
479.62	461.09
479.80	353.42
479.98	449.38
480.16	414.27
480.34	430.66
480.52	423.64
480.70	381.51
480.88	423.64
481.06	421.30
481.24	388.53
481.41	449.38
481.59	393.21
481.77	351.08
481.95	458.74
482.13	435.34
482.31	484.49
482.49	505.56
482.67	454.06
482.85	430.66
483.03	430.66
483.21	430.66
483.39	374.49
483.57	397.89
483.74	449.38
483.92	477.47
484.10	388.53
484.28	374.49
484.46	468.11
484.64	351.08
484.82	437.68
485.00	421.30
485.18	395.55
485.35	416.62
485.53	430.66
485.71	451.72
485.89	386.19
486.07	458.74
486.25	430.66
486.43	458.74
486.61	388.53
486.78	470.45
486.96	390.87
487.14	428.32
487.32	463.43
487.50	411.93
487.68	369.80
487.85	454.06
488.03	451.72
488.21	404.91
488.39	369.80
488.57	397.89
488.75	360.44
488.92	475.13
489.10	390.87
489.28	557.05
489.46	393.21
489.64	409.59
489.81	458.74
489.99	344.06
490.17	395.55
490.35	470.45
490.53	463.43
490.70	404.91
490.88	454.06
491.06	383.85
491.24	437.68
491.41	479.81
491.59	444.70
491.77	409.59
491.95	383.85
492.13	461.09
492.30	383.85
492.48	411.93
492.66	360.44
492.84	447.04
493.01	414.27
493.19	395.55
493.37	414.27
493.54	386.19
493.72	374.49
493.90	423.64
494.08	414.27
494.25	449.38
494.43	468.11
494.61	414.27
494.79	433.00
494.96	395.55
495.14	404.91
495.32	418.96
495.49	397.89
495.67	409.59
495.85	414.27
496.02	407.25
496.20	393.21
496.38	442.36
496.55	416.62
496.73	465.77
496.91	411.93
497.09	395.55
497.26	409.59
497.44	451.72
497.62	400.23
497.79	393.21
497.97	381.51
498.14	388.53
498.32	451.72
498.50	423.64
498.67	358.10
498.85	425.98
499.03	402.57
499.20	449.38
499.38	411.93
499.56	402.57
499.73	468.11
499.91	433.00
500.08	425.98
500.26	435.34
500.44	454.06
500.61	360.44
500.79	425.98
500.97	449.38
501.14	447.04
501.32	393.21
501.49	383.85
501.67	395.55
501.84	416.62
502.02	339.38
502.20	383.85
502.37	418.96
502.55	376.83
502.72	386.19
502.90	390.87
503.07	442.36
503.25	517.26
503.43	376.83
503.60	442.36
503.78	404.91
503.95	491.51
504.13	477.47
504.30	458.74
504.48	409.59
504.65	409.59
504.83	430.66
505.01	421.30
505.18	411.93
505.36	416.62
505.53	407.25
505.71	470.45
505.88	454.06
506.06	376.83
506.23	440.02
506.41	430.66
506.58	414.27
506.76	402.57
506.93	428.32
507.11	397.89
507.28	362.78
507.46	440.02
507.63	388.53
507.81	418.96
507.98	376.83
508.16	369.80
508.33	421.30
508.50	421.30
508.68	393.21
508.85	461.09
509.03	442.36
509.20	374.49
509.38	435.34
509.55	500.87
509.73	402.57
509.90	369.80
510.08	339.38
510.25	393.21
510.42	381.51
510.60	411.93
510.77	440.02
510.95	393.21
511.12	433.00
511.30	411.93
511.47	430.66
511.64	376.83
511.82	430.66
511.99	337.04
512.17	327.68
512.34	433.00
512.51	353.42
512.69	486.83
512.86	479.81
513.04	444.70
513.21	454.06
513.38	346.40
513.56	376.83
513.73	421.30
513.90	409.59
514.08	442.36
514.25	437.68
514.43	451.72
514.60	386.19
514.77	374.49
514.95	414.27
515.12	423.64
515.29	449.38
515.47	421.30
515.64	376.83
515.81	433.00
515.99	362.78
516.16	390.87
516.33	322.99
516.51	454.06
516.68	404.91
516.85	404.91
517.03	425.98
517.20	447.04
517.37	400.23
517.54	393.21
517.72	416.62
517.89	458.74
518.06	393.21
518.24	482.15
518.41	428.32
518.58	379.17
518.75	341.72
518.93	369.80
519.10	320.65
519.27	468.11
519.45	437.68
519.62	404.91
519.79	407.25
519.96	318.31
520.14	428.32
520.31	514.92
520.48	369.80
520.65	444.70
520.83	470.45
521.00	414.27
521.17	348.74
521.34	395.55
521.52	458.74
521.69	430.66
521.86	404.91
522.03	400.23
522.20	489.17
522.38	393.21
522.55	435.34
522.72	416.62
522.89	482.15
523.07	477.47
523.24	458.74
523.41	409.59
523.58	428.32
523.75	372.15
523.92	409.59
524.10	404.91
524.27	395.55
524.44	386.19
524.61	379.17
524.78	402.57
524.96	454.06
525.13	414.27
525.30	428.32
525.47	456.40
525.64	404.91
525.81	444.70
525.98	318.31
526.16	369.80
526.33	423.64
526.50	337.04
526.67	447.04
526.84	369.80
527.01	397.89
527.18	348.74
527.36	409.59
527.53	344.06
527.70	507.90
527.87	458.74
528.04	414.27
528.21	430.66
528.38	411.93
528.55	468.11
528.72	496.19
528.89	545.34
529.07	470.45
529.24	435.34
529.41	430.66
529.58	409.59
529.75	383.85
529.92	367.46
530.09	414.27
530.26	367.46
530.43	367.46
530.60	404.91
530.77	423.64
530.94	463.43
531.11	465.77
531.28	402.57
531.46	411.93
531.63	402.57
531.80	540.66
531.97	409.59
532.14	381.51
532.31	369.80
532.48	435.34
532.65	444.70
532.82	402.57
532.99	411.93
533.16	404.91
533.33	393.21
533.50	440.02
533.67	402.57
533.84	418.96
534.01	395.55
534.18	341.72
534.35	496.19
534.52	454.06
534.69	411.93
534.86	374.49
535.03	423.64
535.20	423.64
535.37	414.27
535.54	435.34
535.71	425.98
535.88	404.91
536.05	379.17
536.22	402.57
536.38	430.66
536.55	337.04
536.72	414.27
536.89	411.93
537.06	416.62
537.23	423.64
537.40	383.85
537.57	461.09
537.74	463.43
537.91	374.49
538.08	440.02
538.25	418.96
538.42	397.89
538.59	514.92
538.75	458.74
538.92	433.00
539.09	400.23
539.26	390.87
539.43	442.36
539.60	395.55
539.77	404.91
539.94	444.70
540.11	395.55
540.28	358.10
540.44	444.70
540.61	428.32
540.78	451.72
540.95	337.04
541.12	397.89
541.29	409.59
541.46	407.25
541.62	430.66
541.79	428.32
541.96	397.89
542.13	388.53
542.30	395.55
542.47	418.96
542.63	428.32
542.80	369.80
542.97	421.30
543.14	430.66
543.31	433.00
543.48	414.27
543.64	458.74
543.81	395.55
543.98	449.38
544.15	444.70
544.32	416.62
544.48	353.42
544.65	407.25
544.82	486.83
544.99	458.74
545.16	470.45
545.32	376.83
545.49	390.87
545.66	414.27
545.83	442.36
546.00	346.40
546.16	383.85
546.33	433.00
546.50	353.42
546.67	344.06
546.83	472.79
547.00	465.77
547.17	409.59
547.34	437.68
547.50	411.93
547.67	395.55
547.84	428.32
548.00	383.85
548.17	437.68
548.34	409.59
548.51	465.77
548.67	369.80
548.84	400.23
549.01	367.46
549.18	425.98
549.34	454.06
549.51	414.27
549.68	334.70
549.84	514.92
550.01	348.74
550.18	430.66
550.34	489.17
550.51	498.53
550.68	454.06
550.84	397.89
551.01	393.21
551.18	433.00
551.34	447.04
551.51	379.17
551.68	376.83
551.84	414.27
552.01	379.17
552.18	411.93
552.34	486.83
552.51	463.43
552.68	407.25
552.84	381.51
553.01	416.62
553.18	416.62
553.34	341.72
553.51	365.12
553.67	367.46
553.84	433.00
554.01	486.83
554.17	468.11
554.34	407.25
554.51	376.83
554.67	416.62
554.84	414.27
555.00	395.55
555.17	458.74
555.33	418.96
555.50	402.57
555.67	489.17
555.83	402.57
556.00	411.93
556.16	477.47
556.33	454.06
556.50	372.15
556.66	447.04
556.83	449.38
556.99	425.98
557.16	442.36
557.32	437.68
557.49	411.93
557.65	397.89
557.82	351.08
557.98	407.25
558.15	402.57
558.32	440.02
558.48	447.04
558.65	400.23
558.81	465.77
558.98	418.96
559.14	395.55
559.31	418.96
559.47	393.21
559.64	461.09
559.80	362.78
559.97	465.77
560.13	376.83
560.30	404.91
560.46	376.83
560.63	440.02
560.79	367.46
560.96	376.83
561.12	440.02
561.29	458.74
561.45	397.89
561.61	423.64
561.78	456.40
561.94	458.74
562.11	334.70
562.27	496.19
562.44	451.72
562.60	447.04
562.77	454.06
562.93	486.83
563.10	430.66
563.26	440.02
563.42	475.13
563.59	465.77
563.75	393.21
563.92	407.25
564.08	409.59
564.24	418.96
564.41	440.02
564.57	463.43
564.74	411.93
564.90	390.87
565.07	456.40
565.23	465.77
565.39	414.27
565.56	416.62
565.72	339.38
565.88	461.09
566.05	416.62
566.21	418.96
566.38	409.59
566.54	365.12
566.70	374.49
566.87	337.04
567.03	390.87
567.19	344.06
567.36	463.43
567.52	454.06
567.68	454.06
567.85	449.38
568.01	367.46
568.17	388.53
568.34	451.72
568.50	456.40
568.66	388.53
568.83	425.98
568.99	402.57
569.15	383.85
569.32	449.38
569.48	395.55
569.64	386.19
569.81	418.96
569.97	402.57
570.13	388.53
570.30	430.66
570.46	440.02
570.62	374.49
570.78	341.72
570.95	351.08
571.11	430.66
571.27	468.11
571.43	447.04
571.60	435.34
571.76	428.32
571.92	428.32
572.09	418.96
572.25	386.19
572.41	365.12
572.57	458.74
572.74	409.59
572.90	458.74
573.06	496.19
573.22	479.81
573.38	451.72
573.55	390.87
573.71	376.83
573.87	430.66
574.03	407.25
574.20	402.57
574.36	428.32
574.52	376.83
574.68	369.80
574.84	386.19
575.01	376.83
575.17	393.21
575.33	341.72
575.49	465.77
575.65	414.27
575.82	491.51
575.98	404.91
576.14	416.62
576.30	433.00
576.46	437.68
576.62	500.87
576.79	433.00
576.95	430.66
577.11	437.68
577.27	421.30
577.43	505.56
577.59	512.58
577.75	486.83
577.92	503.22
578.08	465.77
578.24	435.34
578.40	465.77
578.56	510.24
578.72	463.43
578.88	489.17
579.04	418.96
579.21	456.40
579.37	393.21
579.53	416.62
579.69	344.06
579.85	369.80
580.01	440.02
580.17	386.19
580.33	386.19
580.49	397.89
580.65	372.15
580.82	379.17
580.98	393.21
581.14	362.78
581.30	411.93
581.46	433.00
581.62	416.62
581.78	421.30
581.94	390.87
582.10	376.83
582.26	465.77
582.42	454.06
582.58	447.04
582.74	411.93
582.90	425.98
583.06	468.11
583.22	442.36
583.38	353.42
583.54	430.66
583.70	479.81
583.86	433.00
584.02	360.44
584.18	414.27
584.34	402.57
584.50	376.83
584.66	442.36
584.82	395.55
584.98	397.89
585.14	393.21
585.30	325.33
585.46	362.78
585.62	395.55
585.78	353.42
585.94	465.77
586.10	402.57
586.26	402.57
586.42	411.93
586.58	397.89
586.74	451.72
586.90	381.51
587.06	461.09
587.22	414.27
587.38	369.80
587.54	433.00
587.70	484.49
587.86	477.47
588.02	430.66
588.18	470.45
588.34	454.06
588.49	395.55
588.65	400.23
588.81	411.93
588.97	362.78
589.13	512.58
589.29	433.00
589.45	456.40
589.61	437.68
589.77	418.96
589.93	451.72
590.08	475.13
590.24	367.46
590.40	430.66
590.56	395.55
590.72	423.64
590.88	418.96
591.04	379.17
591.20	442.36
591.35	416.62
591.51	409.59
591.67	381.51
591.83	440.02
591.99	383.85
592.15	409.59
592.31	313.63
592.46	437.68
592.62	517.26
592.78	442.36
592.94	397.89
593.10	372.15
593.26	372.15
593.41	351.08
593.57	456.40
593.73	388.53
593.89	470.45
594.05	482.15
594.20	421.30
594.36	433.00
594.52	376.83
594.68	409.59
594.84	386.19
594.99	468.11
595.15	409.59
595.31	402.57
595.47	493.85
595.62	442.36
595.78	383.85
595.94	425.98
596.10	404.91
596.25	418.96
596.41	496.19
596.57	381.51
596.73	393.21
596.88	402.57
597.04	472.79
597.20	440.02
597.36	437.68
597.51	423.64
597.67	372.15
597.83	381.51
597.99	435.34
598.14	414.27
598.30	411.93
598.46	376.83
598.61	393.21
598.77	376.83
598.93	421.30
599.09	400.23
599.24	360.44
599.40	433.00
599.56	458.74
599.71	465.77
599.87	355.76
600.03	435.34
600.18	376.83
600.34	437.68
600.50	390.87
600.65	418.96
600.81	423.64
600.97	409.59
601.12	404.91
601.28	458.74
601.44	397.89
601.59	381.51
601.75	461.09
601.91	390.87
602.06	454.06
602.22	552.37
602.37	407.25
602.53	416.62
602.69	421.30
602.84	421.30
603.00	468.11
603.16	360.44
603.31	388.53
603.47	416.62
603.62	433.00
603.78	440.02
603.94	503.22
604.09	435.34
604.25	468.11
604.40	416.62
604.56	449.38
604.71	395.55
604.87	435.34
605.03	402.57
605.18	437.68
605.34	407.25
605.49	447.04
605.65	421.30
605.80	414.27
605.96	409.59
606.12	395.55
606.27	390.87
606.43	411.93
606.58	393.21
606.74	465.77
606.89	381.51
607.05	423.64
607.20	416.62
607.36	369.80
607.51	358.10
607.67	433.00
607.82	388.53
607.98	423.64
608.13	477.47
608.29	435.34
608.44	397.89
608.60	386.19
608.75	407.25
608.91	332.36
609.06	393.21
609.22	430.66
609.37	407.25
609.53	451.72
609.68	393.21
609.84	449.38
609.99	428.32
610.15	390.87
