SpectraSuite Data File
++++++++++++++++++++++++++++++++++++
Date: Fri Oct 25 12:10:43 EDT 2013
User: price-jones
Dark Spectrum Present: No
Reference Spectrum Present: No
Number of Sampled Component Spectra: 1
Spectrometers: USB2+H05261
Integration Time (usec): 100000 (USB2+H05261)
Spectra Averaged: 1 (USB2+H05261)
Boxcar Smoothing: 0 (USB2+H05261)
Correct for Electrical Dark: No (USB2+H05261)
Strobe/Lamp Enabled: No (USB2+H05261)
Correct for Detector Non-linearity: No (USB2+H05261)
Correct for Stray Light: No (USB2+H05261)
Number of Pixels in Processed Spectrum: 2048
>>>>>Begin Processed Spectral Data<<<<<
365.73	374.49
365.92	374.49
366.12	374.49
366.32	273.84
366.52	212.99
366.72	276.18
366.91	224.69
367.11	217.67
367.31	229.37
367.51	220.01
367.70	227.03
367.90	241.08
368.10	208.31
368.30	287.89
368.49	231.71
368.69	189.58
368.89	234.05
369.09	315.97
369.28	313.63
369.48	210.65
369.68	304.27
369.87	271.50
370.07	243.42
370.27	294.91
370.47	278.52
370.66	355.76
370.86	372.15
371.06	369.80
371.25	383.85
371.45	383.85
371.65	421.30
371.84	358.10
372.04	416.62
372.24	381.51
372.44	409.59
372.63	404.91
372.83	411.93
373.03	404.91
373.22	414.27
373.42	395.55
373.62	395.55
373.81	376.83
374.01	440.02
374.21	479.81
374.40	418.96
374.60	477.47
374.79	456.40
374.99	433.00
375.19	416.62
375.38	397.89
375.58	472.79
375.78	414.27
375.97	440.02
376.17	351.08
376.37	341.72
376.56	395.55
376.76	358.10
376.95	383.85
377.15	414.27
377.35	372.15
377.54	362.78
377.74	395.55
377.93	435.34
378.13	360.44
378.33	435.34
378.52	491.51
378.72	395.55
378.91	437.68
379.11	383.85
379.31	376.83
379.50	381.51
379.70	376.83
379.89	381.51
380.09	381.51
380.28	383.85
380.48	400.23
380.68	365.12
380.87	386.19
381.07	386.19
381.26	365.12
381.46	400.23
381.65	402.57
381.85	374.49
382.04	416.62
382.24	423.64
382.43	489.17
382.63	404.91
382.83	351.08
383.02	454.06
383.22	449.38
383.41	451.72
383.61	327.68
383.80	465.77
384.00	402.57
384.19	425.98
384.39	425.98
384.58	395.55
384.78	458.74
384.97	374.49
385.17	395.55
385.36	372.15
385.56	376.83
385.75	449.38
385.95	428.32
386.14	421.30
386.34	400.23
386.53	369.80
386.72	411.93
386.92	369.80
387.11	404.91
387.31	454.06
387.50	379.17
387.70	369.80
387.89	365.12
388.09	442.36
388.28	449.38
388.48	369.80
388.67	409.59
388.86	395.55
389.06	440.02
389.25	461.09
389.45	409.59
389.64	376.83
389.84	393.21
390.03	423.64
390.22	400.23
390.42	407.25
390.61	425.98
390.81	383.85
391.00	358.10
391.19	386.19
391.39	414.27
391.58	425.98
391.78	351.08
391.97	304.27
392.16	423.64
392.36	447.04
392.55	437.68
392.75	379.17
392.94	386.19
393.13	395.55
393.33	332.36
393.52	381.51
393.71	360.44
393.91	393.21
394.10	437.68
394.29	416.62
394.49	376.83
394.68	414.27
394.88	514.92
395.07	386.19
395.26	442.36
395.46	409.59
395.65	498.53
395.84	414.27
396.04	442.36
396.23	376.83
396.42	433.00
396.62	390.87
396.81	498.53
397.00	402.57
397.19	362.78
397.39	376.83
397.58	402.57
397.77	404.91
397.97	337.04
398.16	407.25
398.35	362.78
398.55	360.44
398.74	388.53
398.93	484.49
399.12	435.34
399.32	454.06
399.51	430.66
399.70	334.70
399.90	425.98
400.09	393.21
400.28	524.28
400.47	353.42
400.67	411.93
400.86	404.91
401.05	454.06
401.24	449.38
401.44	444.70
401.63	402.57
401.82	428.32
402.01	383.85
402.21	383.85
402.40	304.27
402.59	369.80
402.78	397.89
402.97	411.93
403.17	390.87
403.36	379.17
403.55	376.83
403.74	355.76
403.93	409.59
404.13	386.19
404.32	379.17
404.51	447.04
404.70	379.17
404.89	437.68
405.09	505.56
405.28	402.57
405.47	465.77
405.66	397.89
405.85	400.23
406.05	386.19
406.24	409.59
406.43	430.66
406.62	407.25
406.81	425.98
407.00	470.45
407.20	407.25
407.39	386.19
407.58	353.42
407.77	383.85
407.96	409.59
408.15	388.53
408.34	344.06
408.54	353.42
408.73	404.91
408.92	325.33
409.11	435.34
409.30	390.87
409.49	383.85
409.68	381.51
409.87	397.89
410.07	402.57
410.26	379.17
410.45	503.22
410.64	472.79
410.83	397.89
411.02	320.65
411.21	461.09
411.40	442.36
411.59	409.59
411.78	402.57
411.98	416.62
412.17	376.83
412.36	404.91
412.55	369.80
412.74	437.68
412.93	447.04
413.12	388.53
413.31	393.21
413.50	388.53
413.69	386.19
413.88	416.62
414.07	379.17
414.26	416.62
414.45	386.19
414.64	402.57
414.83	381.51
415.02	440.02
415.22	407.25
415.41	425.98
415.60	425.98
415.79	383.85
415.98	428.32
416.17	362.78
416.36	451.72
416.55	402.57
416.74	435.34
416.93	411.93
417.12	440.02
417.31	360.44
417.50	402.57
417.69	425.98
417.88	337.04
418.07	367.46
418.26	418.96
418.45	381.51
418.64	374.49
418.83	430.66
419.02	386.19
419.21	463.43
419.39	358.10
419.58	407.25
419.77	437.68
419.96	402.57
420.15	362.78
420.34	360.44
420.53	355.76
420.72	451.72
420.91	418.96
421.10	482.15
421.29	433.00
421.48	418.96
421.67	489.17
421.86	386.19
422.05	451.72
422.24	435.34
422.43	472.79
422.61	388.53
422.80	437.68
422.99	400.23
423.18	463.43
423.37	461.09
423.56	447.04
423.75	418.96
423.94	423.64
424.13	456.40
424.32	409.59
424.50	393.21
424.69	461.09
424.88	421.30
425.07	435.34
425.26	393.21
425.45	440.02
425.64	418.96
425.83	376.83
426.01	472.79
426.20	430.66
426.39	404.91
426.58	383.85
426.77	397.89
426.96	290.23
427.15	475.13
427.33	351.08
427.52	337.04
427.71	425.98
427.90	386.19
428.09	409.59
428.28	383.85
428.46	346.40
428.65	376.83
428.84	454.06
429.03	458.74
429.22	407.25
429.40	386.19
429.59	461.09
429.78	397.89
429.97	411.93
430.16	372.15
430.34	339.38
430.53	437.68
430.72	421.30
430.91	416.62
431.10	428.32
431.28	458.74
431.47	400.23
431.66	430.66
431.85	348.74
432.03	437.68
432.22	475.13
432.41	397.89
432.60	421.30
432.79	348.74
432.97	414.27
433.16	404.91
433.35	411.93
433.54	430.66
433.72	407.25
433.91	463.43
434.10	421.30
434.28	418.96
434.47	496.19
434.66	486.83
434.85	430.66
435.03	423.64
435.22	498.53
435.41	425.98
435.59	379.17
435.78	437.68
435.97	400.23
436.16	447.04
436.34	407.25
436.53	414.27
436.72	418.96
436.90	484.49
437.09	407.25
437.28	479.81
437.46	435.34
437.65	416.62
437.84	362.78
438.02	369.80
438.21	444.70
438.40	435.34
438.58	339.38
438.77	486.83
438.96	423.64
439.14	451.72
439.33	447.04
439.52	402.57
439.70	421.30
439.89	447.04
440.08	421.30
440.26	369.80
440.45	461.09
440.63	421.30
440.82	435.34
441.01	416.62
441.19	442.36
441.38	369.80
441.57	374.49
441.75	386.19
441.94	449.38
442.12	428.32
442.31	376.83
442.50	383.85
442.68	337.04
442.87	372.15
443.05	428.32
443.24	330.02
443.43	423.64
443.61	400.23
443.80	414.27
443.98	383.85
444.17	451.72
444.35	451.72
444.54	404.91
444.73	423.64
444.91	451.72
445.10	500.87
445.28	404.91
445.47	404.91
445.65	482.15
445.84	381.51
446.02	454.06
446.21	400.23
446.39	444.70
446.58	372.15
446.77	463.43
446.95	397.89
447.14	482.15
447.32	465.77
447.51	437.68
447.69	409.59
447.88	409.59
448.06	423.64
448.25	355.76
448.43	400.23
448.62	400.23
448.80	414.27
448.99	461.09
449.17	332.36
449.36	337.04
449.54	414.27
449.73	414.27
449.91	379.17
450.10	381.51
450.28	451.72
450.46	440.02
450.65	449.38
450.83	362.78
451.02	395.55
451.20	381.51
451.39	416.62
451.57	393.21
451.76	402.57
451.94	477.47
452.13	418.96
452.31	409.59
452.49	451.72
452.68	472.79
452.86	390.87
453.05	444.70
453.23	458.74
453.42	369.80
453.60	381.51
453.78	355.76
453.97	374.49
454.15	451.72
454.34	421.30
454.52	367.46
454.70	362.78
454.89	388.53
455.07	390.87
455.26	510.24
455.44	381.51
455.62	430.66
455.81	376.83
455.99	400.23
456.17	447.04
456.36	379.17
456.54	367.46
456.73	383.85
456.91	447.04
457.09	411.93
457.28	433.00
457.46	416.62
457.64	353.42
457.83	395.55
458.01	416.62
458.19	447.04
458.38	383.85
458.56	465.77
458.74	451.72
458.93	447.04
459.11	407.25
459.29	374.49
459.48	409.59
459.66	416.62
459.84	489.17
460.03	533.64
460.21	367.46
460.39	395.55
460.57	418.96
460.76	451.72
460.94	334.70
461.12	428.32
461.31	482.15
461.49	367.46
461.67	425.98
461.85	414.27
462.04	411.93
462.22	788.76
462.40	503.22
462.59	465.77
462.77	411.93
462.95	386.19
463.13	379.17
463.32	437.68
463.50	416.62
463.68	355.76
463.86	425.98
464.05	435.34
464.23	458.74
464.41	451.72
464.59	376.83
464.78	468.11
464.96	414.27
465.14	435.34
465.32	435.34
465.50	397.89
465.69	411.93
465.87	430.66
466.05	376.83
466.23	386.19
466.41	479.81
466.60	461.09
466.78	425.98
466.96	435.34
467.14	388.53
467.32	416.62
467.51	374.49
467.69	395.55
467.87	444.70
468.05	421.30
468.23	428.32
468.41	444.70
468.60	346.40
468.78	433.00
468.96	433.00
469.14	442.36
469.32	337.04
469.50	418.96
469.69	358.10
469.87	414.27
470.05	433.00
470.23	430.66
470.41	388.53
470.59	360.44
470.77	461.09
470.95	360.44
471.14	465.77
471.32	407.25
471.50	447.04
471.68	397.89
471.86	463.43
472.04	430.66
472.22	442.36
472.40	397.89
472.58	348.74
472.77	444.70
472.95	409.59
473.13	402.57
473.31	414.27
473.49	362.78
473.67	404.91
473.85	430.66
474.03	416.62
474.21	479.81
474.39	393.21
474.57	435.34
474.75	437.68
474.93	421.30
475.12	362.78
475.30	369.80
475.48	451.72
475.66	374.49
475.84	395.55
476.02	435.34
476.20	376.83
476.38	402.57
476.56	390.87
476.74	409.59
476.92	489.17
477.10	423.64
477.28	414.27
477.46	458.74
477.64	402.57
477.82	454.06
478.00	351.08
478.18	409.59
478.36	325.33
478.54	374.49
478.72	423.64
478.90	388.53
479.08	435.34
479.26	383.85
479.44	339.38
479.62	334.70
479.80	353.42
479.98	418.96
480.16	423.64
480.34	407.25
480.52	315.97
480.70	442.36
480.88	409.59
481.06	376.83
481.24	365.12
481.41	423.64
481.59	421.30
481.77	411.93
481.95	470.45
482.13	416.62
482.31	346.40
482.49	390.87
482.67	395.55
482.85	379.17
483.03	418.96
483.21	404.91
483.39	388.53
483.57	465.77
483.74	507.90
483.92	395.55
484.10	414.27
484.28	440.02
484.46	456.40
484.64	395.55
484.82	402.57
485.00	369.80
485.18	376.83
485.35	477.47
485.53	409.59
485.71	449.38
485.89	383.85
486.07	327.68
486.25	423.64
486.43	449.38
486.61	524.28
486.78	379.17
486.96	353.42
487.14	313.63
487.32	390.87
487.50	362.78
487.68	430.66
487.85	381.51
488.03	416.62
488.21	409.59
488.39	416.62
488.57	390.87
488.75	388.53
488.92	491.51
489.10	411.93
489.28	444.70
489.46	362.78
489.64	346.40
489.81	442.36
489.99	440.02
490.17	390.87
490.35	395.55
490.53	374.49
490.70	367.46
490.88	437.68
491.06	414.27
491.24	367.46
491.41	505.56
491.59	418.96
491.77	397.89
491.95	393.21
492.13	369.80
492.30	402.57
492.48	369.80
492.66	414.27
492.84	418.96
493.01	404.91
493.19	435.34
493.37	477.47
493.54	425.98
493.72	456.40
493.90	437.68
494.08	451.72
494.25	465.77
494.43	418.96
494.61	430.66
494.79	369.80
494.96	444.70
495.14	440.02
495.32	397.89
495.49	388.53
495.67	414.27
495.85	390.87
496.02	430.66
496.20	465.77
496.38	465.77
496.55	430.66
496.73	477.47
496.91	379.17
497.09	407.25
497.26	425.98
497.44	493.85
497.62	404.91
497.79	430.66
497.97	447.04
498.14	442.36
498.32	437.68
498.50	430.66
498.67	409.59
498.85	440.02
499.03	332.36
499.20	381.51
499.38	407.25
499.56	418.96
499.73	407.25
499.91	400.23
500.08	397.89
500.26	433.00
500.44	381.51
500.61	393.21
500.79	430.66
500.97	404.91
501.14	423.64
501.32	390.87
501.49	491.51
501.67	362.78
501.84	362.78
502.02	346.40
502.20	440.02
502.37	425.98
502.55	430.66
502.72	386.19
502.90	416.62
503.07	442.36
503.25	383.85
503.43	421.30
503.60	444.70
503.78	386.19
503.95	444.70
504.13	383.85
504.30	407.25
504.48	386.19
504.65	444.70
504.83	447.04
505.01	416.62
505.18	442.36
505.36	444.70
505.53	416.62
505.71	341.72
505.88	414.27
506.06	360.44
506.23	447.04
506.41	440.02
506.58	456.40
506.76	423.64
506.93	407.25
507.11	423.64
507.28	435.34
507.46	367.46
507.63	423.64
507.81	358.10
507.98	407.25
508.16	402.57
508.33	358.10
508.50	477.47
508.68	397.89
508.85	409.59
509.03	442.36
509.20	433.00
509.38	407.25
509.55	372.15
509.73	440.02
509.90	442.36
510.08	470.45
510.25	418.96
510.42	458.74
510.60	418.96
510.77	381.51
510.95	367.46
511.12	470.45
511.30	479.81
511.47	416.62
511.64	428.32
511.82	470.45
511.99	355.76
512.17	421.30
512.34	404.91
512.51	388.53
512.69	402.57
512.86	411.93
513.04	442.36
513.21	442.36
513.38	379.17
513.56	355.76
513.73	486.83
513.90	374.49
514.08	423.64
514.25	433.00
514.43	498.53
514.60	425.98
514.77	456.40
514.95	425.98
515.12	433.00
515.29	397.89
515.47	411.93
515.64	447.04
515.81	444.70
515.99	451.72
516.16	456.40
516.33	423.64
516.51	358.10
516.68	397.89
516.85	351.08
517.03	395.55
517.20	458.74
517.37	362.78
517.54	451.72
517.72	393.21
517.89	339.38
518.06	454.06
518.24	465.77
518.41	470.45
518.58	388.53
518.75	369.80
518.93	351.08
519.10	433.00
519.27	468.11
519.45	447.04
519.62	425.98
519.79	402.57
519.96	390.87
520.14	444.70
520.31	379.17
520.48	477.47
520.65	449.38
520.83	411.93
521.00	489.17
521.17	447.04
521.34	353.42
521.52	451.72
521.69	327.68
521.86	407.25
522.03	456.40
522.20	500.87
522.38	428.32
522.55	428.32
522.72	433.00
522.89	449.38
523.07	433.00
523.24	367.46
523.41	428.32
523.58	411.93
523.75	423.64
523.92	395.55
524.10	397.89
524.27	402.57
524.44	428.32
524.61	437.68
524.78	379.17
524.96	409.59
525.13	430.66
525.30	393.21
525.47	454.06
525.64	428.32
525.81	428.32
525.98	423.64
526.16	423.64
526.33	353.42
526.50	348.74
526.67	397.89
526.84	433.00
527.01	367.46
527.18	489.17
527.36	393.21
527.53	409.59
527.70	498.53
527.87	381.51
528.04	428.32
528.21	372.15
528.38	442.36
528.55	447.04
528.72	402.57
528.89	411.93
529.07	334.70
529.24	414.27
529.41	444.70
529.58	414.27
529.75	461.09
529.92	416.62
530.09	418.96
530.26	416.62
530.43	428.32
530.60	386.19
530.77	458.74
530.94	383.85
531.11	475.13
531.28	346.40
531.46	393.21
531.63	383.85
531.80	437.68
531.97	376.83
532.14	451.72
532.31	468.11
532.48	447.04
532.65	430.66
532.82	447.04
532.99	411.93
533.16	367.46
533.33	386.19
533.50	435.34
533.67	468.11
533.84	390.87
534.01	390.87
534.18	397.89
534.35	489.17
534.52	447.04
534.69	484.49
534.86	374.49
535.03	416.62
535.20	365.12
535.37	404.91
535.54	491.51
535.71	442.36
535.88	430.66
536.05	468.11
536.22	400.23
536.38	428.32
536.55	454.06
536.72	428.32
536.89	433.00
537.06	365.12
537.23	390.87
537.40	451.72
537.57	374.49
537.74	493.85
537.91	409.59
538.08	463.43
538.25	472.79
538.42	402.57
538.59	449.38
538.75	433.00
538.92	400.23
539.09	442.36
539.26	381.51
539.43	407.25
539.60	400.23
539.77	454.06
539.94	369.80
540.11	444.70
540.28	423.64
540.44	381.51
540.61	337.04
540.78	388.53
540.95	400.23
541.12	409.59
541.29	428.32
541.46	535.98
541.62	393.21
541.79	430.66
541.96	381.51
542.13	444.70
542.30	418.96
542.47	400.23
542.63	454.06
542.80	428.32
542.97	435.34
543.14	348.74
543.31	376.83
543.48	407.25
543.64	444.70
543.81	337.04
543.98	425.98
544.15	383.85
544.32	414.27
544.48	465.77
544.65	425.98
544.82	374.49
544.99	414.27
545.16	421.30
545.32	447.04
545.49	435.34
545.66	409.59
545.83	381.51
546.00	390.87
546.16	334.70
546.33	374.49
546.50	379.17
546.67	440.02
546.83	425.98
547.00	393.21
547.17	376.83
547.34	444.70
547.50	421.30
547.67	386.19
547.84	423.64
548.00	390.87
548.17	475.13
548.34	411.93
548.51	449.38
548.67	421.30
548.84	360.44
549.01	505.56
549.18	407.25
549.34	374.49
549.51	395.55
549.68	428.32
549.84	447.04
550.01	397.89
550.18	500.87
550.34	376.83
550.51	411.93
550.68	416.62
550.84	435.34
551.01	418.96
551.18	461.09
551.34	418.96
551.51	402.57
551.68	332.36
551.84	428.32
552.01	397.89
552.18	400.23
552.34	423.64
552.51	433.00
552.68	437.68
552.84	404.91
553.01	369.80
553.18	479.81
553.34	367.46
553.51	390.87
553.67	433.00
553.84	348.74
554.01	435.34
554.17	470.45
554.34	414.27
554.51	425.98
554.67	458.74
554.84	470.45
555.00	493.85
555.17	390.87
555.33	440.02
555.50	402.57
555.67	454.06
555.83	402.57
556.00	442.36
556.16	571.09
556.33	461.09
556.50	362.78
556.66	395.55
556.83	402.57
556.99	435.34
557.16	477.47
557.32	308.95
557.49	395.55
557.65	381.51
557.82	425.98
557.98	409.59
558.15	411.93
558.32	440.02
558.48	390.87
558.65	407.25
558.81	484.49
558.98	400.23
559.14	409.59
559.31	461.09
559.47	418.96
559.64	365.12
559.80	362.78
559.97	346.40
560.13	383.85
560.30	365.12
560.46	421.30
560.63	433.00
560.79	353.42
560.96	461.09
561.12	425.98
561.29	367.46
561.45	442.36
561.61	437.68
561.78	533.64
561.94	395.55
562.11	454.06
562.27	372.15
562.44	339.38
562.60	440.02
562.77	430.66
562.93	383.85
563.10	386.19
563.26	435.34
563.42	433.00
563.59	449.38
563.75	454.06
563.92	454.06
564.08	379.17
564.24	449.38
564.41	442.36
564.57	348.74
564.74	393.21
564.90	414.27
565.07	482.15
565.23	447.04
565.39	372.15
565.56	411.93
565.72	379.17
565.88	362.78
566.05	407.25
566.21	376.83
566.38	430.66
566.54	468.11
566.70	411.93
566.87	404.91
567.03	390.87
567.19	451.72
567.36	425.98
567.52	442.36
567.68	425.98
567.85	390.87
568.01	461.09
568.17	339.38
568.34	397.89
568.50	430.66
568.66	435.34
568.83	470.45
568.99	456.40
569.15	440.02
569.32	442.36
569.48	383.85
569.64	372.15
569.81	390.87
569.97	390.87
570.13	456.40
570.30	386.19
570.46	491.51
570.62	397.89
570.78	383.85
570.95	400.23
571.11	489.17
571.27	465.77
571.43	360.44
571.60	362.78
571.76	383.85
571.92	451.72
572.09	390.87
572.25	376.83
572.41	461.09
572.57	379.17
572.74	433.00
572.90	411.93
573.06	351.08
573.22	409.59
573.38	514.92
573.55	449.38
573.71	421.30
573.87	425.98
574.03	379.17
574.20	423.64
574.36	402.57
574.52	400.23
574.68	400.23
574.84	456.40
575.01	430.66
575.17	404.91
575.33	468.11
575.49	428.32
575.65	433.00
575.82	397.89
575.98	425.98
576.14	372.15
576.30	388.53
576.46	404.91
576.62	404.91
576.79	428.32
576.95	400.23
577.11	433.00
577.27	440.02
577.43	386.19
577.59	404.91
577.75	418.96
577.92	414.27
578.08	390.87
578.24	374.49
578.40	449.38
578.56	472.79
578.72	414.27
578.88	425.98
579.04	362.78
579.21	337.04
579.37	409.59
579.53	404.91
579.69	496.19
579.85	386.19
580.01	402.57
580.17	442.36
580.33	381.51
580.49	416.62
580.65	458.74
580.82	519.60
580.98	472.79
581.14	381.51
581.30	482.15
581.46	372.15
581.62	484.49
581.78	381.51
581.94	407.25
582.10	365.12
582.26	463.43
582.42	444.70
582.58	470.45
582.74	454.06
582.90	369.80
583.06	451.72
583.22	334.70
583.38	355.76
583.54	372.15
583.70	386.19
583.86	346.40
584.02	475.13
584.18	451.72
584.34	444.70
584.50	456.40
584.66	388.53
584.82	388.53
584.98	355.76
585.14	440.02
585.30	454.06
585.46	463.43
585.62	369.80
585.78	360.44
585.94	442.36
586.10	400.23
586.26	393.21
586.42	411.93
586.58	423.64
586.74	376.83
586.90	472.79
587.06	428.32
587.22	430.66
587.38	449.38
587.54	437.68
587.70	482.15
587.86	421.30
588.02	397.89
588.18	418.96
588.34	442.36
588.49	458.74
588.65	433.00
588.81	374.49
588.97	407.25
589.13	416.62
589.29	498.53
589.45	430.66
589.61	477.47
589.77	463.43
589.93	491.51
590.08	423.64
590.24	358.10
590.40	390.87
590.56	465.77
590.72	428.32
590.88	341.72
591.04	449.38
591.20	430.66
591.35	512.58
591.51	442.36
591.67	451.72
591.83	362.78
591.99	496.19
592.15	486.83
592.31	447.04
592.46	348.74
592.62	407.25
592.78	388.53
592.94	393.21
593.10	400.23
593.26	341.72
593.41	386.19
593.57	372.15
593.73	433.00
593.89	348.74
594.05	414.27
594.20	416.62
594.36	437.68
594.52	433.00
594.68	372.15
594.84	468.11
594.99	360.44
595.15	414.27
595.31	400.23
595.47	447.04
595.62	425.98
595.78	388.53
595.94	397.89
596.10	383.85
596.25	383.85
596.41	458.74
596.57	407.25
596.73	458.74
596.88	454.06
597.04	430.66
597.20	437.68
597.36	402.57
597.51	477.47
597.67	418.96
597.83	362.78
597.99	369.80
598.14	430.66
598.30	458.74
598.46	404.91
598.61	414.27
598.77	388.53
598.93	404.91
599.09	437.68
599.24	442.36
599.40	418.96
599.56	388.53
599.71	379.17
599.87	397.89
600.03	493.85
600.18	334.70
600.34	416.62
600.50	449.38
600.65	334.70
600.81	428.32
600.97	386.19
601.12	334.70
601.28	425.98
601.44	435.34
601.59	407.25
601.75	367.46
601.91	433.00
602.06	407.25
602.22	425.98
602.37	386.19
602.53	428.32
602.69	456.40
602.84	428.32
603.00	482.15
603.16	491.51
603.31	472.79
603.47	423.64
603.62	449.38
603.78	456.40
603.94	416.62
604.09	369.80
604.25	414.27
604.40	475.13
604.56	482.15
604.71	407.25
604.87	425.98
605.03	447.04
605.18	421.30
605.34	456.40
605.49	362.78
605.65	479.81
605.80	395.55
605.96	409.59
606.12	435.34
606.27	475.13
606.43	379.17
606.58	411.93
606.74	397.89
606.89	409.59
607.05	407.25
607.20	440.02
607.36	461.09
607.51	404.91
607.67	367.46
607.82	430.66
607.98	484.49
608.13	395.55
608.29	475.13
608.44	447.04
608.60	365.12
608.75	442.36
608.91	475.13
609.06	440.02
609.22	475.13
609.37	386.19
609.53	337.04
609.68	407.25
609.84	425.98
609.99	402.57
610.15	491.51
