SpectraSuite Data File
++++++++++++++++++++++++++++++++++++
Date: Fri Oct 25 12:10:36 EDT 2013
User: price-jones
Dark Spectrum Present: No
Reference Spectrum Present: No
Number of Sampled Component Spectra: 1
Spectrometers: USB2+H05261
Integration Time (usec): 100000 (USB2+H05261)
Spectra Averaged: 1 (USB2+H05261)
Boxcar Smoothing: 0 (USB2+H05261)
Correct for Electrical Dark: No (USB2+H05261)
Strobe/Lamp Enabled: No (USB2+H05261)
Correct for Detector Non-linearity: No (USB2+H05261)
Correct for Stray Light: No (USB2+H05261)
Number of Pixels in Processed Spectrum: 2048
>>>>>Begin Processed Spectral Data<<<<<
365.73	362.78
365.92	362.78
366.12	362.78
366.32	264.48
366.52	229.37
366.72	318.31
366.91	236.39
367.11	245.76
367.31	234.05
367.51	250.44
367.70	236.39
367.90	306.61
368.10	177.88
368.30	231.71
368.49	187.24
368.69	297.25
368.89	266.82
369.09	252.78
369.28	294.91
369.48	250.44
369.68	212.99
369.87	325.33
370.07	301.93
370.27	341.72
370.47	346.40
370.66	290.23
370.86	355.76
371.06	358.10
371.25	332.36
371.45	395.55
371.65	411.93
371.84	337.04
372.04	355.76
372.24	423.64
372.44	444.70
372.63	468.11
372.83	414.27
373.03	437.68
373.22	390.87
373.42	435.34
373.62	388.53
373.81	444.70
374.01	423.64
374.21	411.93
374.40	447.04
374.60	428.32
374.79	437.68
374.99	383.85
375.19	390.87
375.38	418.96
375.58	465.77
375.78	442.36
375.97	383.85
376.17	449.38
376.37	433.00
376.56	365.12
376.76	416.62
376.95	383.85
377.15	339.38
377.35	407.25
377.54	475.13
377.74	372.15
377.93	425.98
378.13	395.55
378.33	395.55
378.52	454.06
378.72	468.11
378.91	463.43
379.11	395.55
379.31	379.17
379.50	428.32
379.70	454.06
379.89	430.66
380.09	402.57
380.28	428.32
380.48	449.38
380.68	409.59
380.87	369.80
381.07	386.19
381.26	442.36
381.46	372.15
381.65	421.30
381.85	447.04
382.04	353.42
382.24	376.83
382.43	416.62
382.63	437.68
382.83	433.00
383.02	430.66
383.22	411.93
383.41	367.46
383.61	400.23
383.80	411.93
384.00	379.17
384.19	330.02
384.39	409.59
384.58	449.38
384.78	447.04
384.97	475.13
385.17	421.30
385.36	393.21
385.56	444.70
385.75	404.91
385.95	365.12
386.14	388.53
386.34	407.25
386.53	379.17
386.72	404.91
386.92	369.80
387.11	390.87
387.31	425.98
387.50	411.93
387.70	402.57
387.89	449.38
388.09	440.02
388.28	381.51
388.48	444.70
388.67	437.68
388.86	425.98
389.06	442.36
389.25	337.04
389.45	425.98
389.64	402.57
389.84	404.91
390.03	367.46
390.22	407.25
390.42	376.83
390.61	402.57
390.81	425.98
391.00	440.02
391.19	390.87
391.39	442.36
391.58	430.66
391.78	435.34
391.97	454.06
392.16	341.72
392.36	407.25
392.55	430.66
392.75	437.68
392.94	482.15
393.13	475.13
393.33	395.55
393.52	425.98
393.71	400.23
393.91	393.21
394.10	395.55
394.29	449.38
394.49	369.80
394.68	369.80
394.88	489.17
395.07	367.46
395.26	423.64
395.46	358.10
395.65	442.36
395.84	381.51
396.04	442.36
396.23	362.78
396.42	362.78
396.62	456.40
396.81	395.55
397.00	444.70
397.19	421.30
397.39	465.77
397.58	454.06
397.77	416.62
397.97	461.09
398.16	346.40
398.35	367.46
398.55	411.93
398.74	409.59
398.93	416.62
399.12	395.55
399.32	395.55
399.51	423.64
399.70	407.25
399.90	397.89
400.09	374.49
400.28	463.43
400.47	461.09
400.67	451.72
400.86	344.06
401.05	374.49
401.24	393.21
401.44	454.06
401.63	418.96
401.82	458.74
402.01	428.32
402.21	383.85
402.40	409.59
402.59	402.57
402.78	433.00
402.97	395.55
403.17	430.66
403.36	397.89
403.55	468.11
403.74	393.21
403.93	442.36
404.13	367.46
404.32	414.27
404.51	409.59
404.70	440.02
404.89	477.47
405.09	510.24
405.28	430.66
405.47	442.36
405.66	409.59
405.85	475.13
406.05	414.27
406.24	355.76
406.43	475.13
406.62	449.38
406.81	411.93
407.00	435.34
407.20	477.47
407.39	390.87
407.58	390.87
407.77	411.93
407.96	528.96
408.15	383.85
408.34	493.85
408.54	449.38
408.73	430.66
408.92	358.10
409.11	383.85
409.30	379.17
409.49	390.87
409.68	461.09
409.87	390.87
410.07	372.15
410.26	458.74
410.45	470.45
410.64	395.55
410.83	372.15
411.02	423.64
411.21	381.51
411.40	395.55
411.59	456.40
411.78	470.45
411.98	414.27
412.17	440.02
412.36	404.91
412.55	433.00
412.74	369.80
412.93	383.85
413.12	397.89
413.31	388.53
413.50	449.38
413.69	435.34
413.88	421.30
414.07	400.23
414.26	414.27
414.45	339.38
414.64	372.15
414.83	402.57
415.02	369.80
415.22	395.55
415.41	437.68
415.60	416.62
415.79	386.19
415.98	437.68
416.17	423.64
416.36	425.98
416.55	327.68
416.74	397.89
416.93	404.91
417.12	369.80
417.31	402.57
417.50	433.00
417.69	442.36
417.88	388.53
418.07	383.85
418.26	365.12
418.45	418.96
418.64	414.27
418.83	435.34
419.02	423.64
419.21	444.70
419.39	418.96
419.58	444.70
419.77	428.32
419.96	463.43
420.15	369.80
420.34	404.91
420.53	414.27
420.72	468.11
420.91	334.70
421.10	442.36
421.29	461.09
421.48	418.96
421.67	423.64
421.86	379.17
422.05	435.34
422.24	451.72
422.43	397.89
422.61	475.13
422.80	493.85
422.99	376.83
423.18	341.72
423.37	402.57
423.56	423.64
423.75	397.89
423.94	292.57
424.13	397.89
424.32	367.46
424.50	344.06
424.69	461.09
424.88	369.80
425.07	409.59
425.26	435.34
425.45	404.91
425.64	400.23
425.83	383.85
426.01	367.46
426.20	402.57
426.39	313.63
426.58	414.27
426.77	423.64
426.96	386.19
427.15	386.19
427.33	440.02
427.52	482.15
427.71	379.17
427.90	482.15
428.09	383.85
428.28	353.42
428.46	423.64
428.65	411.93
428.84	383.85
429.03	456.40
429.22	348.74
429.40	416.62
429.59	360.44
429.78	407.25
429.97	365.12
430.16	451.72
430.34	442.36
430.53	463.43
430.72	358.10
430.91	465.77
431.10	355.76
431.28	390.87
431.47	397.89
431.66	423.64
431.85	416.62
432.03	444.70
432.22	498.53
432.41	421.30
432.60	449.38
432.79	454.06
432.97	430.66
433.16	383.85
433.35	423.64
433.54	397.89
433.72	358.10
433.91	362.78
434.10	372.15
434.28	433.00
434.47	454.06
434.66	400.23
434.85	411.93
435.03	353.42
435.22	484.49
435.41	421.30
435.59	440.02
435.78	362.78
435.97	372.15
436.16	430.66
436.34	404.91
436.53	423.64
436.72	372.15
436.90	327.68
437.09	379.17
437.28	327.68
437.46	433.00
437.65	484.49
437.84	440.02
438.02	397.89
438.21	451.72
438.40	411.93
438.58	346.40
438.77	458.74
438.96	402.57
439.14	444.70
439.33	400.23
439.52	360.44
439.70	409.59
439.89	421.30
440.08	369.80
440.26	425.98
440.45	435.34
440.63	435.34
440.82	421.30
441.01	402.57
441.19	421.30
441.38	287.89
441.57	484.49
441.75	475.13
441.94	430.66
442.12	449.38
442.31	397.89
442.50	376.83
442.68	402.57
442.87	362.78
443.05	435.34
443.24	383.85
443.43	416.62
443.61	461.09
443.80	407.25
443.98	400.23
444.17	409.59
444.35	372.15
444.54	472.79
444.73	437.68
444.91	470.45
445.10	449.38
445.28	447.04
445.47	503.22
445.65	423.64
445.84	372.15
446.02	337.04
446.21	376.83
446.39	304.27
446.58	444.70
446.77	407.25
446.95	428.32
447.14	393.21
447.32	451.72
447.51	407.25
447.69	414.27
447.88	386.19
448.06	444.70
448.25	440.02
448.43	414.27
448.62	440.02
448.80	341.72
448.99	404.91
449.17	411.93
449.36	367.46
449.54	351.08
449.73	421.30
449.91	503.22
450.10	414.27
450.28	425.98
450.46	482.15
450.65	423.64
450.83	418.96
451.02	351.08
451.20	383.85
451.39	411.93
451.57	390.87
451.76	376.83
451.94	521.94
452.13	400.23
452.31	433.00
452.49	428.32
452.68	369.80
452.86	442.36
453.05	407.25
453.23	437.68
453.42	383.85
453.60	414.27
453.78	388.53
453.97	334.70
454.15	379.17
454.34	442.36
454.52	393.21
454.70	449.38
454.89	456.40
455.07	414.27
455.26	383.85
455.44	479.81
455.62	374.49
455.81	400.23
455.99	414.27
456.17	435.34
456.36	470.45
456.54	428.32
456.73	393.21
456.91	416.62
457.09	414.27
457.28	383.85
457.46	449.38
457.64	360.44
457.83	428.32
458.01	463.43
458.19	409.59
458.38	414.27
458.56	353.42
458.74	390.87
458.93	454.06
459.11	369.80
459.29	372.15
459.48	395.55
459.66	428.32
459.84	390.87
460.03	479.81
460.21	409.59
460.39	404.91
460.57	451.72
460.76	388.53
460.94	468.11
461.12	430.66
461.31	444.70
461.49	421.30
461.67	407.25
461.85	374.49
462.04	442.36
462.22	837.91
462.40	386.19
462.59	475.13
462.77	390.87
462.95	409.59
463.13	367.46
463.32	435.34
463.50	388.53
463.68	430.66
463.86	386.19
464.05	411.93
464.23	475.13
464.41	444.70
464.59	395.55
464.78	395.55
464.96	407.25
465.14	414.27
465.32	458.74
465.50	407.25
465.69	430.66
465.87	440.02
466.05	456.40
466.23	404.91
466.41	418.96
466.60	407.25
466.78	411.93
466.96	428.32
467.14	458.74
467.32	470.45
467.51	449.38
467.69	472.79
467.87	491.51
468.05	425.98
468.23	503.22
468.41	491.51
468.60	435.34
468.78	421.30
468.96	454.06
469.14	489.17
469.32	360.44
469.50	423.64
469.69	503.22
469.87	458.74
470.05	386.19
470.23	421.30
470.41	456.40
470.59	365.12
470.77	423.64
470.95	404.91
471.14	360.44
471.32	468.11
471.50	451.72
471.68	395.55
471.86	507.90
472.04	381.51
472.22	461.09
472.40	379.17
472.58	411.93
472.77	442.36
472.95	423.64
473.13	407.25
473.31	369.80
473.49	407.25
473.67	390.87
473.85	397.89
474.03	458.74
474.21	400.23
474.39	444.70
474.57	461.09
474.75	416.62
474.93	395.55
475.12	404.91
475.30	404.91
475.48	414.27
475.66	491.51
475.84	341.72
476.02	395.55
476.20	468.11
476.38	444.70
476.56	372.15
476.74	414.27
476.92	430.66
477.10	369.80
477.28	407.25
477.46	390.87
477.64	367.46
477.82	442.36
478.00	407.25
478.18	433.00
478.36	400.23
478.54	367.46
478.72	367.46
478.90	402.57
479.08	390.87
479.26	444.70
479.44	479.81
479.62	435.34
479.80	388.53
479.98	393.21
480.16	475.13
480.34	411.93
480.52	348.74
480.70	411.93
480.88	379.17
481.06	369.80
481.24	430.66
481.41	390.87
481.59	318.31
481.77	491.51
481.95	313.63
482.13	421.30
482.31	470.45
482.49	379.17
482.67	479.81
482.85	472.79
483.03	433.00
483.21	416.62
483.39	451.72
483.57	428.32
483.74	440.02
483.92	381.51
484.10	444.70
484.28	388.53
484.46	484.49
484.64	470.45
484.82	397.89
485.00	404.91
485.18	463.43
485.35	447.04
485.53	451.72
485.71	433.00
485.89	444.70
486.07	376.83
486.25	400.23
486.43	437.68
486.61	409.59
486.78	397.89
486.96	418.96
487.14	447.04
487.32	435.34
487.50	437.68
487.68	440.02
487.85	458.74
488.03	393.21
488.21	341.72
488.39	402.57
488.57	402.57
488.75	416.62
488.92	538.32
489.10	484.49
489.28	430.66
489.46	379.17
489.64	463.43
489.81	379.17
489.99	379.17
490.17	484.49
490.35	482.15
490.53	381.51
490.70	407.25
490.88	372.15
491.06	411.93
491.24	376.83
491.41	409.59
491.59	442.36
491.77	411.93
491.95	386.19
492.13	435.34
492.30	386.19
492.48	428.32
492.66	449.38
492.84	379.17
493.01	444.70
493.19	430.66
493.37	440.02
493.54	407.25
493.72	400.23
493.90	442.36
494.08	397.89
494.25	449.38
494.43	442.36
494.61	393.21
494.79	381.51
494.96	362.78
495.14	437.68
495.32	447.04
495.49	369.80
495.67	444.70
495.85	397.89
496.02	320.65
496.20	402.57
496.38	397.89
496.55	440.02
496.73	433.00
496.91	381.51
497.09	411.93
497.26	447.04
497.44	414.27
497.62	346.40
497.79	411.93
497.97	414.27
498.14	404.91
498.32	465.77
498.50	404.91
498.67	425.98
498.85	484.49
499.03	365.12
499.20	447.04
499.38	400.23
499.56	379.17
499.73	421.30
499.91	397.89
500.08	393.21
500.26	374.49
500.44	451.72
500.61	404.91
500.79	505.56
500.97	409.59
501.14	414.27
501.32	409.59
501.49	414.27
501.67	411.93
501.84	367.46
502.02	461.09
502.20	428.32
502.37	430.66
502.55	397.89
502.72	292.57
502.90	400.23
503.07	407.25
503.25	430.66
503.43	463.43
503.60	479.81
503.78	376.83
503.95	418.96
504.13	437.68
504.30	454.06
504.48	395.55
504.65	482.15
504.83	409.59
505.01	395.55
505.18	482.15
505.36	327.68
505.53	362.78
505.71	334.70
505.88	435.34
506.06	456.40
506.23	465.77
506.41	437.68
506.58	482.15
506.76	449.38
506.93	407.25
507.11	433.00
507.28	444.70
507.46	386.19
507.63	409.59
507.81	397.89
507.98	388.53
508.16	341.72
508.33	369.80
508.50	437.68
508.68	461.09
508.85	423.64
509.03	463.43
509.20	458.74
509.38	456.40
509.55	414.27
509.73	463.43
509.90	449.38
510.08	440.02
510.25	425.98
510.42	327.68
510.60	393.21
510.77	383.85
510.95	456.40
511.12	383.85
511.30	463.43
511.47	400.23
511.64	475.13
511.82	383.85
511.99	379.17
512.17	437.68
512.34	362.78
512.51	372.15
512.69	395.55
512.86	411.93
513.04	393.21
513.21	472.79
513.38	430.66
513.56	440.02
513.73	383.85
513.90	367.46
514.08	425.98
514.25	430.66
514.43	440.02
514.60	433.00
514.77	440.02
514.95	414.27
515.12	418.96
515.29	475.13
515.47	397.89
515.64	416.62
515.81	428.32
515.99	374.49
516.16	458.74
516.33	423.64
516.51	416.62
516.68	472.79
516.85	346.40
517.03	430.66
517.20	437.68
517.37	416.62
517.54	437.68
517.72	430.66
517.89	425.98
518.06	397.89
518.24	449.38
518.41	496.19
518.58	437.68
518.75	339.38
518.93	475.13
519.10	395.55
519.27	388.53
519.45	414.27
519.62	430.66
519.79	351.08
519.96	397.89
520.14	400.23
520.31	489.17
520.48	383.85
520.65	423.64
520.83	458.74
521.00	416.62
521.17	437.68
521.34	428.32
521.52	428.32
521.69	458.74
521.86	461.09
522.03	388.53
522.20	379.17
522.38	379.17
522.55	362.78
522.72	358.10
522.89	440.02
523.07	454.06
523.24	433.00
523.41	351.08
523.58	458.74
523.75	383.85
523.92	395.55
524.10	491.51
524.27	416.62
524.44	360.44
524.61	386.19
524.78	449.38
524.96	500.87
525.13	390.87
525.30	449.38
525.47	421.30
525.64	372.15
525.81	484.49
525.98	411.93
526.16	442.36
526.33	428.32
526.50	404.91
526.67	367.46
526.84	372.15
527.01	374.49
527.18	440.02
527.36	470.45
527.53	374.49
527.70	423.64
527.87	456.40
528.04	468.11
528.21	421.30
528.38	379.17
528.55	376.83
528.72	379.17
528.89	456.40
529.07	514.92
529.24	458.74
529.41	421.30
529.58	421.30
529.75	425.98
529.92	442.36
530.09	386.19
530.26	451.72
530.43	517.26
530.60	355.76
530.77	433.00
530.94	470.45
531.11	470.45
531.28	470.45
531.46	407.25
531.63	449.38
531.80	421.30
531.97	411.93
532.14	425.98
532.31	430.66
532.48	435.34
532.65	395.55
532.82	341.72
532.99	362.78
533.16	437.68
533.33	388.53
533.50	425.98
533.67	383.85
533.84	500.87
534.01	456.40
534.18	454.06
534.35	388.53
534.52	440.02
534.69	430.66
534.86	461.09
535.03	414.27
535.20	451.72
535.37	454.06
535.54	421.30
535.71	393.21
535.88	383.85
536.05	447.04
536.22	442.36
536.38	442.36
536.55	456.40
536.72	463.43
536.89	428.32
537.06	440.02
537.23	390.87
537.40	451.72
537.57	381.51
537.74	449.38
537.91	430.66
538.08	421.30
538.25	421.30
538.42	348.74
538.59	395.55
538.75	353.42
538.92	418.96
539.09	498.53
539.26	369.80
539.43	444.70
539.60	447.04
539.77	395.55
539.94	437.68
540.11	395.55
540.28	470.45
540.44	510.24
540.61	369.80
540.78	402.57
540.95	416.62
541.12	390.87
541.29	374.49
541.46	430.66
541.62	477.47
541.79	404.91
541.96	414.27
542.13	351.08
542.30	388.53
542.47	435.34
542.63	393.21
542.80	365.12
542.97	433.00
543.14	381.51
543.31	463.43
543.48	507.90
543.64	468.11
543.81	407.25
543.98	353.42
544.15	397.89
544.32	341.72
544.48	437.68
544.65	437.68
544.82	376.83
544.99	425.98
545.16	369.80
545.32	360.44
545.49	414.27
545.66	440.02
545.83	411.93
546.00	388.53
546.16	421.30
546.33	404.91
546.50	423.64
546.67	437.68
546.83	479.81
547.00	390.87
547.17	400.23
547.34	358.10
547.50	440.02
547.67	449.38
547.84	442.36
548.00	444.70
548.17	475.13
548.34	390.87
548.51	430.66
548.67	454.06
548.84	411.93
549.01	395.55
549.18	428.32
549.34	395.55
549.51	369.80
549.68	416.62
549.84	416.62
550.01	400.23
550.18	517.26
550.34	470.45
550.51	409.59
550.68	435.34
550.84	430.66
551.01	418.96
551.18	348.74
551.34	386.19
551.51	388.53
551.68	379.17
551.84	400.23
552.01	404.91
552.18	489.17
552.34	465.77
552.51	383.85
552.68	449.38
552.84	461.09
553.01	437.68
553.18	433.00
553.34	337.04
553.51	447.04
553.67	379.17
553.84	454.06
554.01	365.12
554.17	444.70
554.34	379.17
554.51	430.66
554.67	414.27
554.84	393.21
555.00	395.55
555.17	440.02
555.33	512.58
555.50	451.72
555.67	414.27
555.83	503.22
556.00	440.02
556.16	557.05
556.33	395.55
556.50	362.78
556.66	393.21
556.83	416.62
556.99	376.83
557.16	461.09
557.32	468.11
557.49	468.11
557.65	381.51
557.82	430.66
557.98	440.02
558.15	444.70
558.32	477.47
558.48	414.27
558.65	449.38
558.81	351.08
558.98	400.23
559.14	365.12
559.31	456.40
559.47	449.38
559.64	423.64
559.80	407.25
559.97	407.25
560.13	425.98
560.30	351.08
560.46	402.57
560.63	479.81
560.79	404.91
560.96	447.04
561.12	409.59
561.29	437.68
561.45	447.04
561.61	416.62
561.78	538.32
561.94	411.93
562.11	367.46
562.27	407.25
562.44	447.04
562.60	411.93
562.77	341.72
562.93	435.34
563.10	425.98
563.26	386.19
563.42	400.23
563.59	414.27
563.75	379.17
563.92	433.00
564.08	430.66
564.24	444.70
564.41	463.43
564.57	395.55
564.74	428.32
564.90	404.91
565.07	397.89
565.23	437.68
565.39	444.70
565.56	416.62
565.72	404.91
565.88	369.80
566.05	435.34
566.21	465.77
566.38	451.72
566.54	407.25
566.70	407.25
566.87	395.55
567.03	477.47
567.19	449.38
567.36	440.02
567.52	416.62
567.68	400.23
567.85	390.87
568.01	381.51
568.17	461.09
568.34	411.93
568.50	411.93
568.66	425.98
568.83	472.79
568.99	381.51
569.15	468.11
569.32	435.34
569.48	470.45
569.64	465.77
569.81	449.38
569.97	465.77
570.13	409.59
570.30	404.91
570.46	388.53
570.62	346.40
570.78	409.59
570.95	416.62
571.11	500.87
571.27	447.04
571.43	383.85
571.60	442.36
571.76	397.89
571.92	358.10
572.09	423.64
572.25	418.96
572.41	479.81
572.57	454.06
572.74	430.66
572.90	491.51
573.06	353.42
573.22	367.46
573.38	447.04
573.55	493.85
573.71	428.32
573.87	456.40
574.03	430.66
574.20	425.98
574.36	517.26
574.52	383.85
574.68	437.68
574.84	416.62
575.01	409.59
575.17	416.62
575.33	383.85
575.49	437.68
575.65	440.02
575.82	498.53
575.98	447.04
576.14	411.93
576.30	468.11
576.46	421.30
576.62	388.53
576.79	503.22
576.95	411.93
577.11	404.91
577.27	360.44
577.43	456.40
577.59	468.11
577.75	475.13
577.92	395.55
578.08	404.91
578.24	414.27
578.40	418.96
578.56	416.62
578.72	493.85
578.88	461.09
579.04	430.66
579.21	461.09
579.37	493.85
579.53	355.76
579.69	425.98
579.85	402.57
580.01	414.27
580.17	397.89
580.33	444.70
580.49	451.72
580.65	430.66
580.82	395.55
580.98	423.64
581.14	397.89
581.30	461.09
581.46	407.25
581.62	397.89
581.78	407.25
581.94	442.36
582.10	423.64
582.26	418.96
582.42	416.62
582.58	390.87
582.74	428.32
582.90	425.98
583.06	428.32
583.22	411.93
583.38	367.46
583.54	414.27
583.70	456.40
583.86	423.64
584.02	461.09
584.18	440.02
584.34	376.83
584.50	407.25
584.66	393.21
584.82	414.27
584.98	442.36
585.14	390.87
585.30	402.57
585.46	393.21
585.62	311.29
585.78	442.36
585.94	425.98
586.10	411.93
586.26	386.19
586.42	456.40
586.58	365.12
586.74	381.51
586.90	346.40
587.06	428.32
587.22	423.64
587.38	402.57
587.54	428.32
587.70	458.74
587.86	447.04
588.02	425.98
588.18	482.15
588.34	454.06
588.49	430.66
588.65	442.36
588.81	355.76
588.97	355.76
589.13	454.06
589.29	430.66
589.45	484.49
589.61	423.64
589.77	418.96
589.93	400.23
590.08	402.57
590.24	435.34
590.40	437.68
590.56	486.83
590.72	423.64
590.88	367.46
591.04	383.85
591.20	348.74
591.35	461.09
591.51	409.59
591.67	374.49
591.83	440.02
591.99	395.55
592.15	383.85
592.31	365.12
592.46	367.46
592.62	507.90
592.78	369.80
592.94	341.72
593.10	397.89
593.26	409.59
593.41	486.83
593.57	416.62
593.73	365.12
593.89	468.11
594.05	402.57
594.20	381.51
594.36	468.11
594.52	463.43
594.68	400.23
594.84	491.51
594.99	372.15
595.15	486.83
595.31	454.06
595.47	456.40
595.62	381.51
595.78	362.78
595.94	346.40
596.10	484.49
596.25	374.49
596.41	379.17
596.57	407.25
596.73	418.96
596.88	416.62
597.04	374.49
597.20	428.32
597.36	421.30
597.51	365.12
597.67	414.27
597.83	395.55
597.99	465.77
598.14	468.11
598.30	411.93
598.46	451.72
598.61	376.83
598.77	423.64
598.93	386.19
599.09	388.53
599.24	447.04
599.40	362.78
599.56	400.23
599.71	411.93
599.87	404.91
600.03	358.10
600.18	407.25
600.34	376.83
600.50	390.87
600.65	374.49
600.81	468.11
600.97	458.74
601.12	393.21
601.28	444.70
601.44	461.09
601.59	341.72
601.75	425.98
601.91	395.55
602.06	444.70
602.22	552.37
602.37	409.59
602.53	425.98
602.69	425.98
602.84	376.83
603.00	390.87
603.16	437.68
603.31	414.27
603.47	428.32
603.62	407.25
603.78	407.25
603.94	397.89
604.09	444.70
604.25	451.72
604.40	407.25
604.56	435.34
604.71	430.66
604.87	454.06
605.03	388.53
605.18	367.46
605.34	404.91
605.49	468.11
605.65	365.12
605.80	337.04
605.96	454.06
606.12	435.34
606.27	435.34
606.43	397.89
606.58	416.62
606.74	379.17
606.89	456.40
607.05	486.83
607.20	447.04
607.36	456.40
607.51	397.89
607.67	402.57
607.82	390.87
607.98	402.57
608.13	451.72
608.29	381.51
608.44	461.09
608.60	381.51
608.75	386.19
608.91	393.21
609.06	423.64
609.22	447.04
609.37	423.64
609.53	421.30
609.68	355.76
609.84	358.10
609.99	395.55
610.15	416.62
