SpectraSuite Data File
++++++++++++++++++++++++++++++++++++
Date: Fri Oct 25 12:10:47 EDT 2013
User: price-jones
Dark Spectrum Present: No
Reference Spectrum Present: No
Number of Sampled Component Spectra: 1
Spectrometers: USB2+H05261
Integration Time (usec): 100000 (USB2+H05261)
Spectra Averaged: 1 (USB2+H05261)
Boxcar Smoothing: 0 (USB2+H05261)
Correct for Electrical Dark: No (USB2+H05261)
Strobe/Lamp Enabled: No (USB2+H05261)
Correct for Detector Non-linearity: No (USB2+H05261)
Correct for Stray Light: No (USB2+H05261)
Number of Pixels in Processed Spectrum: 2048
>>>>>Begin Processed Spectral Data<<<<<
365.73	351.08
365.92	351.08
366.12	351.08
366.32	304.27
366.52	248.10
366.72	290.23
366.91	215.33
367.11	212.99
367.31	297.25
367.51	271.50
367.70	273.84
367.90	227.03
368.10	308.95
368.30	306.61
368.49	201.29
368.69	315.97
368.89	287.89
369.09	220.01
369.28	285.55
369.48	285.55
369.68	220.01
369.87	217.67
370.07	269.16
370.27	374.49
370.47	332.36
370.66	332.36
370.86	379.17
371.06	442.36
371.25	409.59
371.45	355.76
371.65	379.17
371.84	404.91
372.04	372.15
372.24	430.66
372.44	372.15
372.63	346.40
372.83	397.89
373.03	418.96
373.22	423.64
373.42	402.57
373.62	411.93
373.81	404.91
374.01	414.27
374.21	400.23
374.40	409.59
374.60	421.30
374.79	416.62
374.99	397.89
375.19	355.76
375.38	433.00
375.58	425.98
375.78	409.59
375.97	477.47
376.17	409.59
376.37	386.19
376.56	383.85
376.76	461.09
376.95	308.95
377.15	400.23
377.35	428.32
377.54	339.38
377.74	374.49
377.93	339.38
378.13	400.23
378.33	484.49
378.52	465.77
378.72	447.04
378.91	423.64
379.11	393.21
379.31	360.44
379.50	393.21
379.70	463.43
379.89	428.32
380.09	397.89
380.28	397.89
380.48	346.40
380.68	402.57
380.87	393.21
381.07	351.08
381.26	470.45
381.46	376.83
381.65	386.19
381.85	395.55
382.04	407.25
382.24	409.59
382.43	360.44
382.63	463.43
382.83	444.70
383.02	407.25
383.22	367.46
383.41	437.68
383.61	390.87
383.80	449.38
384.00	423.64
384.19	404.91
384.39	386.19
384.58	447.04
384.78	479.81
384.97	440.02
385.17	428.32
385.36	402.57
385.56	397.89
385.75	402.57
385.95	414.27
386.14	369.80
386.34	386.19
386.53	428.32
386.72	362.78
386.92	451.72
387.11	386.19
387.31	411.93
387.50	402.57
387.70	383.85
387.89	409.59
388.09	407.25
388.28	418.96
388.48	402.57
388.67	437.68
388.86	463.43
389.06	411.93
389.25	383.85
389.45	379.17
389.64	411.93
389.84	411.93
390.03	456.40
390.22	477.47
390.42	390.87
390.61	425.98
390.81	407.25
391.00	456.40
391.19	423.64
391.39	346.40
391.58	430.66
391.78	367.46
391.97	414.27
392.16	418.96
392.36	428.32
392.55	489.17
392.75	407.25
392.94	482.15
393.13	435.34
393.33	346.40
393.52	362.78
393.71	402.57
393.91	339.38
394.10	337.04
394.29	365.12
394.49	393.21
394.68	433.00
394.88	463.43
395.07	465.77
395.26	404.91
395.46	444.70
395.65	425.98
395.84	390.87
396.04	379.17
396.23	430.66
396.42	330.02
396.62	449.38
396.81	374.49
397.00	367.46
397.19	372.15
397.39	365.12
397.58	533.64
397.77	388.53
397.97	416.62
398.16	353.42
398.35	416.62
398.55	365.12
398.74	395.55
398.93	414.27
399.12	379.17
399.32	358.10
399.51	390.87
399.70	402.57
399.90	463.43
400.09	337.04
400.28	400.23
400.47	397.89
400.67	425.98
400.86	479.81
401.05	437.68
401.24	400.23
401.44	449.38
401.63	440.02
401.82	355.76
402.01	330.02
402.21	416.62
402.40	400.23
402.59	383.85
402.78	437.68
402.97	414.27
403.17	433.00
403.36	367.46
403.55	351.08
403.74	374.49
403.93	451.72
404.13	463.43
404.32	414.27
404.51	369.80
404.70	390.87
404.89	437.68
405.09	435.34
405.28	425.98
405.47	362.78
405.66	465.77
405.85	402.57
406.05	381.51
406.24	507.90
406.43	393.21
406.62	383.85
406.81	468.11
407.00	411.93
407.20	374.49
407.39	397.89
407.58	374.49
407.77	407.25
407.96	517.26
408.15	421.30
408.34	362.78
408.54	411.93
408.73	360.44
408.92	397.89
409.11	428.32
409.30	374.49
409.49	393.21
409.68	449.38
409.87	468.11
410.07	358.10
410.26	360.44
410.45	372.15
410.64	360.44
410.83	423.64
411.02	346.40
411.21	395.55
411.40	416.62
411.59	425.98
411.78	411.93
411.98	393.21
412.17	374.49
412.36	442.36
412.55	402.57
412.74	374.49
412.93	447.04
413.12	440.02
413.31	444.70
413.50	423.64
413.69	372.15
413.88	418.96
414.07	435.34
414.26	416.62
414.45	390.87
414.64	393.21
414.83	409.59
415.02	423.64
415.22	404.91
415.41	421.30
415.60	447.04
415.79	423.64
415.98	397.89
416.17	353.42
416.36	388.53
416.55	388.53
416.74	421.30
416.93	381.51
417.12	367.46
417.31	360.44
417.50	381.51
417.69	404.91
417.88	367.46
418.07	435.34
418.26	393.21
418.45	421.30
418.64	491.51
418.83	411.93
419.02	423.64
419.21	414.27
419.39	444.70
419.58	353.42
419.77	451.72
419.96	367.46
420.15	351.08
420.34	308.95
420.53	409.59
420.72	475.13
420.91	484.49
421.10	463.43
421.29	395.55
421.48	390.87
421.67	423.64
421.86	461.09
422.05	472.79
422.24	351.08
422.43	477.47
422.61	360.44
422.80	433.00
422.99	489.17
423.18	388.53
423.37	416.62
423.56	395.55
423.75	400.23
423.94	379.17
424.13	447.04
424.32	435.34
424.50	430.66
424.69	271.50
424.88	402.57
425.07	402.57
425.26	390.87
425.45	423.64
425.64	341.72
425.83	379.17
426.01	376.83
426.20	383.85
426.39	395.55
426.58	421.30
426.77	341.72
426.96	393.21
427.15	400.23
427.33	409.59
427.52	472.79
427.71	395.55
427.90	454.06
428.09	404.91
428.28	423.64
428.46	461.09
428.65	409.59
428.84	444.70
429.03	444.70
429.22	402.57
429.40	330.02
429.59	491.51
429.78	390.87
429.97	411.93
430.16	390.87
430.34	365.12
430.53	402.57
430.72	425.98
430.91	409.59
431.10	407.25
431.28	451.72
431.47	458.74
431.66	346.40
431.85	393.21
432.03	421.30
432.22	477.47
432.41	372.15
432.60	468.11
432.79	397.89
432.97	430.66
433.16	395.55
433.35	381.51
433.54	383.85
433.72	358.10
433.91	430.66
434.10	418.96
434.28	358.10
434.47	407.25
434.66	414.27
434.85	418.96
435.03	470.45
435.22	472.79
435.41	416.62
435.59	430.66
435.78	421.30
435.97	285.55
436.16	425.98
436.34	454.06
436.53	430.66
436.72	442.36
436.90	411.93
437.09	367.46
437.28	351.08
437.46	435.34
437.65	428.32
437.84	456.40
438.02	437.68
438.21	458.74
438.40	409.59
438.58	383.85
438.77	435.34
438.96	409.59
439.14	395.55
439.33	489.17
439.52	449.38
439.70	395.55
439.89	437.68
440.08	435.34
440.26	404.91
440.45	440.02
440.63	458.74
440.82	400.23
441.01	475.13
441.19	444.70
441.38	339.38
441.57	339.38
441.75	496.19
441.94	374.49
442.12	395.55
442.31	386.19
442.50	440.02
442.68	430.66
442.87	334.70
443.05	414.27
443.24	454.06
443.43	461.09
443.61	451.72
443.80	379.17
443.98	374.49
444.17	360.44
444.35	414.27
444.54	493.85
444.73	433.00
444.91	393.21
445.10	397.89
445.28	430.66
445.47	458.74
445.65	423.64
445.84	330.02
446.02	416.62
446.21	416.62
446.39	395.55
446.58	414.27
446.77	435.34
446.95	425.98
447.14	475.13
447.32	433.00
447.51	414.27
447.69	390.87
447.88	451.72
448.06	440.02
448.25	468.11
448.43	435.34
448.62	451.72
448.80	393.21
448.99	463.43
449.17	313.63
449.36	416.62
449.54	397.89
449.73	400.23
449.91	454.06
450.10	313.63
450.28	447.04
450.46	383.85
450.65	409.59
450.83	425.98
451.02	369.80
451.20	409.59
451.39	367.46
451.57	383.85
451.76	437.68
451.94	416.62
452.13	484.49
452.31	409.59
452.49	425.98
452.68	376.83
452.86	325.33
453.05	433.00
453.23	414.27
453.42	409.59
453.60	388.53
453.78	435.34
453.97	456.40
454.15	362.78
454.34	393.21
454.52	395.55
454.70	496.19
454.89	400.23
455.07	440.02
455.26	402.57
455.44	418.96
455.62	376.83
455.81	400.23
455.99	404.91
456.17	393.21
456.36	437.68
456.54	402.57
456.73	451.72
456.91	414.27
457.09	402.57
457.28	379.17
457.46	454.06
457.64	395.55
457.83	444.70
458.01	353.42
458.19	425.98
458.38	376.83
458.56	416.62
458.74	346.40
458.93	428.32
459.11	454.06
459.29	348.74
459.48	498.53
459.66	341.72
459.84	428.32
460.03	470.45
460.21	440.02
460.39	440.02
460.57	407.25
460.76	421.30
460.94	355.76
461.12	430.66
461.31	451.72
461.49	376.83
461.67	397.89
461.85	374.49
462.04	414.27
462.22	746.63
462.40	425.98
462.59	367.46
462.77	379.17
462.95	442.36
463.13	381.51
463.32	442.36
463.50	360.44
463.68	440.02
463.86	496.19
464.05	381.51
464.23	479.81
464.41	404.91
464.59	383.85
464.78	475.13
464.96	479.81
465.14	430.66
465.32	395.55
465.50	395.55
465.69	372.15
465.87	362.78
466.05	423.64
466.23	402.57
466.41	423.64
466.60	409.59
466.78	425.98
466.96	458.74
467.14	451.72
467.32	454.06
467.51	472.79
467.69	433.00
467.87	423.64
468.05	444.70
468.23	418.96
468.41	449.38
468.60	402.57
468.78	465.77
468.96	425.98
469.14	423.64
469.32	337.04
469.50	423.64
469.69	468.11
469.87	407.25
470.05	402.57
470.23	414.27
470.41	423.64
470.59	383.85
470.77	433.00
470.95	367.46
471.14	454.06
471.32	400.23
471.50	444.70
471.68	390.87
471.86	372.15
472.04	421.30
472.22	374.49
472.40	395.55
472.58	402.57
472.77	400.23
472.95	430.66
473.13	472.79
473.31	451.72
473.49	388.53
473.67	482.15
473.85	440.02
474.03	383.85
474.21	507.90
474.39	437.68
474.57	451.72
474.75	449.38
474.93	444.70
475.12	409.59
475.30	330.02
475.48	449.38
475.66	451.72
475.84	444.70
476.02	346.40
476.20	472.79
476.38	400.23
476.56	447.04
476.74	360.44
476.92	421.30
477.10	433.00
477.28	440.02
477.46	372.15
477.64	451.72
477.82	423.64
478.00	404.91
478.18	414.27
478.36	372.15
478.54	425.98
478.72	414.27
478.90	353.42
479.08	397.89
479.26	404.91
479.44	421.30
479.62	383.85
479.80	365.12
479.98	390.87
480.16	430.66
480.34	421.30
480.52	407.25
480.70	440.02
480.88	393.21
481.06	376.83
481.24	411.93
481.41	360.44
481.59	437.68
481.77	362.78
481.95	458.74
482.13	435.34
482.31	402.57
482.49	428.32
482.67	416.62
482.85	381.51
483.03	435.34
483.21	411.93
483.39	425.98
483.57	369.80
483.74	372.15
483.92	409.59
484.10	393.21
484.28	468.11
484.46	458.74
484.64	456.40
484.82	383.85
485.00	461.09
485.18	503.22
485.35	482.15
485.53	397.89
485.71	435.34
485.89	397.89
486.07	381.51
486.25	423.64
486.43	369.80
486.61	407.25
486.78	425.98
486.96	451.72
487.14	444.70
487.32	404.91
487.50	400.23
487.68	411.93
487.85	411.93
488.03	409.59
488.21	482.15
488.39	435.34
488.57	428.32
488.75	435.34
488.92	468.11
489.10	484.49
489.28	444.70
489.46	341.72
489.64	381.51
489.81	362.78
489.99	395.55
490.17	414.27
490.35	425.98
490.53	414.27
490.70	367.46
490.88	404.91
491.06	414.27
491.24	411.93
491.41	442.36
491.59	423.64
491.77	402.57
491.95	423.64
492.13	407.25
492.30	411.93
492.48	330.02
492.66	404.91
492.84	346.40
493.01	407.25
493.19	437.68
493.37	421.30
493.54	383.85
493.72	428.32
493.90	358.10
494.08	369.80
494.25	442.36
494.43	428.32
494.61	344.06
494.79	360.44
494.96	369.80
495.14	376.83
495.32	435.34
495.49	442.36
495.67	479.81
495.85	395.55
496.02	362.78
496.20	442.36
496.38	416.62
496.55	411.93
496.73	355.76
496.91	416.62
497.09	461.09
497.26	425.98
497.44	369.80
497.62	393.21
497.79	411.93
497.97	407.25
498.14	400.23
498.32	404.91
498.50	348.74
498.67	402.57
498.85	444.70
499.03	430.66
499.20	388.53
499.38	435.34
499.56	409.59
499.73	416.62
499.91	491.51
500.08	367.46
500.26	428.32
500.44	416.62
500.61	418.96
500.79	423.64
500.97	435.34
501.14	372.15
501.32	482.15
501.49	414.27
501.67	367.46
501.84	423.64
502.02	430.66
502.20	451.72
502.37	444.70
502.55	440.02
502.72	465.77
502.90	423.64
503.07	425.98
503.25	386.19
503.43	407.25
503.60	407.25
503.78	416.62
503.95	428.32
504.13	430.66
504.30	470.45
504.48	458.74
504.65	440.02
504.83	404.91
505.01	449.38
505.18	442.36
505.36	472.79
505.53	388.53
505.71	388.53
505.88	437.68
506.06	397.89
506.23	444.70
506.41	442.36
506.58	442.36
506.76	444.70
506.93	433.00
507.11	397.89
507.28	433.00
507.46	376.83
507.63	421.30
507.81	437.68
507.98	500.87
508.16	369.80
508.33	449.38
508.50	458.74
508.68	393.21
508.85	463.43
509.03	463.43
509.20	407.25
509.38	358.10
509.55	423.64
509.73	381.51
509.90	416.62
510.08	388.53
510.25	421.30
510.42	397.89
510.60	414.27
510.77	400.23
510.95	444.70
511.12	423.64
511.30	369.80
511.47	407.25
511.64	447.04
511.82	393.21
511.99	433.00
512.17	369.80
512.34	355.76
512.51	390.87
512.69	489.17
512.86	440.02
513.04	437.68
513.21	407.25
513.38	353.42
513.56	322.99
513.73	428.32
513.90	365.12
514.08	374.49
514.25	383.85
514.43	325.33
514.60	299.59
514.77	414.27
514.95	353.42
515.12	402.57
515.29	404.91
515.47	353.42
515.64	440.02
515.81	423.64
515.99	503.22
516.16	425.98
516.33	454.06
516.51	330.02
516.68	440.02
516.85	360.44
517.03	414.27
517.20	444.70
517.37	388.53
517.54	444.70
517.72	374.49
517.89	376.83
518.06	425.98
518.24	411.93
518.41	475.13
518.58	433.00
518.75	386.19
518.93	411.93
519.10	402.57
519.27	381.51
519.45	465.77
519.62	395.55
519.79	411.93
519.96	428.32
520.14	393.21
520.31	435.34
520.48	383.85
520.65	423.64
520.83	472.79
521.00	447.04
521.17	456.40
521.34	404.91
521.52	381.51
521.69	397.89
521.86	381.51
522.03	442.36
522.20	482.15
522.38	353.42
522.55	437.68
522.72	397.89
522.89	442.36
523.07	559.39
523.24	416.62
523.41	435.34
523.58	435.34
523.75	454.06
523.92	428.32
524.10	421.30
524.27	435.34
524.44	388.53
524.61	465.77
524.78	416.62
524.96	444.70
525.13	411.93
525.30	486.83
525.47	407.25
525.64	451.72
525.81	351.08
525.98	456.40
526.16	397.89
526.33	437.68
526.50	383.85
526.67	440.02
526.84	348.74
527.01	393.21
527.18	416.62
527.36	409.59
527.53	379.17
527.70	409.59
527.87	435.34
528.04	489.17
528.21	400.23
528.38	437.68
528.55	454.06
528.72	430.66
528.89	475.13
529.07	458.74
529.24	407.25
529.41	447.04
529.58	423.64
529.75	430.66
529.92	425.98
530.09	397.89
530.26	402.57
530.43	411.93
530.60	400.23
530.77	325.33
530.94	444.70
531.11	458.74
531.28	372.15
531.46	339.38
531.63	372.15
531.80	468.11
531.97	402.57
532.14	447.04
532.31	461.09
532.48	393.21
532.65	430.66
532.82	376.83
532.99	372.15
533.16	442.36
533.33	418.96
533.50	393.21
533.67	404.91
533.84	433.00
534.01	430.66
534.18	421.30
534.35	468.11
534.52	423.64
534.69	414.27
534.86	482.15
535.03	465.77
535.20	367.46
535.37	411.93
535.54	444.70
535.71	404.91
535.88	477.47
536.05	425.98
536.22	482.15
536.38	353.42
536.55	435.34
536.72	461.09
536.89	489.17
537.06	411.93
537.23	423.64
537.40	430.66
537.57	418.96
537.74	397.89
537.91	397.89
538.08	451.72
538.25	397.89
538.42	461.09
538.59	418.96
538.75	395.55
538.92	484.49
539.09	388.53
539.26	390.87
539.43	486.83
539.60	353.42
539.77	440.02
539.94	409.59
540.11	416.62
540.28	479.81
540.44	440.02
540.61	353.42
540.78	402.57
540.95	381.51
541.12	470.45
541.29	355.76
541.46	458.74
541.62	454.06
541.79	472.79
541.96	425.98
542.13	400.23
542.30	334.70
542.47	425.98
542.63	386.19
542.80	425.98
542.97	454.06
543.14	409.59
543.31	416.62
543.48	430.66
543.64	477.47
543.81	407.25
543.98	404.91
544.15	421.30
544.32	468.11
544.48	353.42
544.65	421.30
544.82	437.68
544.99	388.53
545.16	365.12
545.32	433.00
545.49	444.70
545.66	390.87
545.83	365.12
546.00	372.15
546.16	341.72
546.33	355.76
546.50	435.34
546.67	430.66
546.83	461.09
547.00	393.21
547.17	386.19
547.34	379.17
547.50	397.89
547.67	470.45
547.84	390.87
548.00	491.51
548.17	456.40
548.34	423.64
548.51	535.98
548.67	337.04
548.84	430.66
549.01	388.53
549.18	400.23
549.34	397.89
549.51	433.00
549.68	454.06
549.84	430.66
550.01	428.32
550.18	430.66
550.34	386.19
550.51	437.68
550.68	425.98
550.84	376.83
551.01	404.91
551.18	430.66
551.34	444.70
551.51	337.04
551.68	486.83
551.84	475.13
552.01	421.30
552.18	425.98
552.34	468.11
552.51	451.72
552.68	425.98
552.84	461.09
553.01	346.40
553.18	407.25
553.34	425.98
553.51	365.12
553.67	383.85
553.84	484.49
554.01	437.68
554.17	358.10
554.34	369.80
554.51	437.68
554.67	470.45
554.84	472.79
555.00	362.78
555.17	411.93
555.33	395.55
555.50	444.70
555.67	444.70
555.83	444.70
556.00	407.25
556.16	510.24
556.33	414.27
556.50	313.63
556.66	369.80
556.83	355.76
556.99	442.36
557.16	395.55
557.32	461.09
557.49	479.81
557.65	369.80
557.82	369.80
557.98	500.87
558.15	428.32
558.32	503.22
558.48	437.68
558.65	397.89
558.81	402.57
558.98	402.57
559.14	430.66
559.31	407.25
559.47	447.04
559.64	454.06
559.80	428.32
559.97	421.30
560.13	484.49
560.30	458.74
560.46	379.17
560.63	390.87
560.79	374.49
560.96	470.45
561.12	435.34
561.29	383.85
561.45	423.64
561.61	337.04
561.78	423.64
561.94	468.11
562.11	369.80
562.27	383.85
562.44	425.98
562.60	407.25
562.77	409.59
562.93	435.34
563.10	388.53
563.26	409.59
563.42	402.57
563.59	404.91
563.75	339.38
563.92	447.04
564.08	372.15
564.24	351.08
564.41	440.02
564.57	449.38
564.74	437.68
564.90	428.32
565.07	395.55
565.23	395.55
565.39	433.00
565.56	395.55
565.72	362.78
565.88	486.83
566.05	379.17
566.21	456.40
566.38	465.77
566.54	400.23
566.70	451.72
566.87	440.02
567.03	365.12
567.19	360.44
567.36	388.53
567.52	388.53
567.68	437.68
567.85	376.83
568.01	463.43
568.17	416.62
568.34	479.81
568.50	437.68
568.66	433.00
568.83	470.45
568.99	428.32
569.15	421.30
569.32	449.38
569.48	433.00
569.64	425.98
569.81	423.64
569.97	463.43
570.13	430.66
570.30	400.23
570.46	423.64
570.62	430.66
570.78	416.62
570.95	390.87
571.11	430.66
571.27	409.59
571.43	414.27
571.60	440.02
571.76	369.80
571.92	425.98
572.09	393.21
572.25	365.12
572.41	348.74
572.57	407.25
572.74	430.66
572.90	465.77
573.06	393.21
573.22	353.42
573.38	472.79
573.55	451.72
573.71	470.45
573.87	411.93
574.03	339.38
574.20	395.55
574.36	451.72
574.52	425.98
574.68	390.87
574.84	463.43
575.01	374.49
575.17	381.51
575.33	456.40
575.49	416.62
575.65	418.96
575.82	386.19
575.98	404.91
576.14	472.79
576.30	425.98
576.46	344.06
576.62	362.78
576.79	423.64
576.95	381.51
577.11	348.74
577.27	393.21
577.43	454.06
577.59	395.55
577.75	367.46
577.92	409.59
578.08	421.30
578.24	379.17
578.40	423.64
578.56	369.80
578.72	479.81
578.88	360.44
579.04	379.17
579.21	416.62
579.37	423.64
579.53	346.40
579.69	430.66
579.85	407.25
580.01	461.09
580.17	416.62
580.33	409.59
580.49	416.62
580.65	463.43
580.82	369.80
580.98	454.06
581.14	409.59
581.30	489.17
581.46	430.66
581.62	428.32
581.78	465.77
581.94	416.62
582.10	423.64
582.26	414.27
582.42	388.53
582.58	423.64
582.74	482.15
582.90	475.13
583.06	486.83
583.22	397.89
583.38	318.31
583.54	475.13
583.70	365.12
583.86	400.23
584.02	433.00
584.18	458.74
584.34	465.77
584.50	418.96
584.66	393.21
584.82	386.19
584.98	397.89
585.14	451.72
585.30	444.70
585.46	440.02
585.62	395.55
585.78	404.91
585.94	430.66
586.10	402.57
586.26	425.98
586.42	383.85
586.58	409.59
586.74	428.32
586.90	444.70
587.06	386.19
587.22	400.23
587.38	355.76
587.54	351.08
587.70	493.85
587.86	390.87
588.02	372.15
588.18	383.85
588.34	519.60
588.49	374.49
588.65	456.40
588.81	414.27
588.97	379.17
589.13	407.25
589.29	449.38
589.45	425.98
589.61	440.02
589.77	479.81
589.93	365.12
590.08	355.76
590.24	428.32
590.40	395.55
590.56	440.02
590.72	477.47
590.88	393.21
591.04	407.25
591.20	472.79
591.35	437.68
591.51	475.13
591.67	339.38
591.83	402.57
591.99	376.83
592.15	416.62
592.31	402.57
592.46	458.74
592.62	458.74
592.78	447.04
592.94	369.80
593.10	362.78
593.26	409.59
593.41	435.34
593.57	449.38
593.73	411.93
593.89	418.96
594.05	421.30
594.20	414.27
594.36	409.59
594.52	400.23
594.68	372.15
594.84	379.17
594.99	404.91
595.15	353.42
595.31	360.44
595.47	418.96
595.62	386.19
595.78	388.53
595.94	402.57
596.10	423.64
596.25	418.96
596.41	386.19
596.57	360.44
596.73	388.53
596.88	404.91
597.04	353.42
597.20	440.02
597.36	470.45
597.51	425.98
597.67	435.34
597.83	423.64
597.99	428.32
598.14	451.72
598.30	416.62
598.46	344.06
598.61	400.23
598.77	475.13
598.93	423.64
599.09	374.49
599.24	358.10
599.40	418.96
599.56	423.64
599.71	482.15
599.87	372.15
600.03	465.77
600.18	418.96
600.34	402.57
600.50	411.93
600.65	402.57
600.81	397.89
600.97	383.85
601.12	468.11
601.28	472.79
601.44	421.30
601.59	372.15
601.75	344.06
601.91	365.12
602.06	416.62
602.22	456.40
602.37	395.55
602.53	374.49
602.69	454.06
602.84	407.25
603.00	386.19
603.16	381.51
603.31	449.38
603.47	440.02
603.62	430.66
603.78	407.25
603.94	489.17
604.09	388.53
604.25	449.38
604.40	433.00
604.56	435.34
604.71	409.59
604.87	423.64
605.03	411.93
605.18	397.89
605.34	414.27
605.49	430.66
605.65	353.42
605.80	475.13
605.96	423.64
606.12	386.19
606.27	468.11
606.43	442.36
606.58	430.66
606.74	477.47
606.89	470.45
607.05	458.74
607.20	397.89
607.36	365.12
607.51	421.30
607.67	425.98
607.82	372.15
607.98	430.66
608.13	444.70
608.29	449.38
608.44	409.59
608.60	416.62
608.75	442.36
608.91	435.34
609.06	451.72
609.22	374.49
609.37	390.87
609.53	409.59
609.68	414.27
609.84	407.25
609.99	428.32
610.15	456.40
