SpectraSuite Data File
++++++++++++++++++++++++++++++++++++
Date: Fri Oct 25 12:11:01 EDT 2013
User: price-jones
Dark Spectrum Present: No
Reference Spectrum Present: No
Number of Sampled Component Spectra: 1
Spectrometers: USB2+H05261
Integration Time (usec): 100000 (USB2+H05261)
Spectra Averaged: 1 (USB2+H05261)
Boxcar Smoothing: 0 (USB2+H05261)
Correct for Electrical Dark: No (USB2+H05261)
Strobe/Lamp Enabled: No (USB2+H05261)
Correct for Detector Non-linearity: No (USB2+H05261)
Correct for Stray Light: No (USB2+H05261)
Number of Pixels in Processed Spectrum: 2048
>>>>>Begin Processed Spectral Data<<<<<
365.73	367.46
365.92	367.46
366.12	367.46
366.32	318.31
366.52	208.31
366.72	224.69
366.91	212.99
367.11	231.71
367.31	234.05
367.51	229.37
367.70	271.50
367.90	212.99
368.10	159.16
368.30	273.84
368.49	266.82
368.69	250.44
368.89	262.14
369.09	271.50
369.28	234.05
369.48	250.44
369.68	290.23
369.87	238.73
370.07	271.50
370.27	308.95
370.47	318.31
370.66	330.02
370.86	330.02
371.06	367.46
371.25	411.93
371.45	437.68
371.65	393.21
371.84	376.83
372.04	362.78
372.24	414.27
372.44	292.57
372.63	430.66
372.83	369.80
373.03	390.87
373.22	416.62
373.42	400.23
373.62	400.23
373.81	458.74
374.01	400.23
374.21	395.55
374.40	456.40
374.60	449.38
374.79	400.23
374.99	386.19
375.19	388.53
375.38	425.98
375.58	383.85
375.78	503.22
375.97	449.38
376.17	468.11
376.37	409.59
376.56	449.38
376.76	390.87
376.95	379.17
377.15	402.57
377.35	416.62
377.54	468.11
377.74	418.96
377.93	409.59
378.13	423.64
378.33	400.23
378.52	395.55
378.72	400.23
378.91	440.02
379.11	395.55
379.31	449.38
379.50	416.62
379.70	416.62
379.89	440.02
380.09	339.38
380.28	411.93
380.48	433.00
380.68	355.76
380.87	411.93
381.07	360.44
381.26	404.91
381.46	397.89
381.65	425.98
381.85	355.76
382.04	465.77
382.24	416.62
382.43	386.19
382.63	444.70
382.83	400.23
383.02	358.10
383.22	465.77
383.41	337.04
383.61	353.42
383.80	437.68
384.00	393.21
384.19	400.23
384.39	344.06
384.58	341.72
384.78	433.00
384.97	393.21
385.17	341.72
385.36	402.57
385.56	477.47
385.75	386.19
385.95	418.96
386.14	365.12
386.34	400.23
386.53	437.68
386.72	365.12
386.92	491.51
387.11	360.44
387.31	369.80
387.50	407.25
387.70	330.02
387.89	376.83
388.09	430.66
388.28	360.44
388.48	379.17
388.67	362.78
388.86	461.09
389.06	416.62
389.25	402.57
389.45	374.49
389.64	430.66
389.84	404.91
390.03	374.49
390.22	393.21
390.42	348.74
390.61	430.66
390.81	409.59
391.00	374.49
391.19	390.87
391.39	407.25
391.58	430.66
391.78	454.06
391.97	390.87
392.16	386.19
392.36	379.17
392.55	475.13
392.75	353.42
392.94	423.64
393.13	374.49
393.33	390.87
393.52	430.66
393.71	428.32
393.91	435.34
394.10	393.21
394.29	383.85
394.49	379.17
394.68	402.57
394.88	402.57
395.07	421.30
395.26	372.15
395.46	442.36
395.65	430.66
395.84	339.38
396.04	447.04
396.23	381.51
396.42	423.64
396.62	393.21
396.81	430.66
397.00	407.25
397.19	365.12
397.39	479.81
397.58	388.53
397.77	372.15
397.97	372.15
398.16	449.38
398.35	386.19
398.55	421.30
398.74	435.34
398.93	423.64
399.12	374.49
399.32	376.83
399.51	397.89
399.70	376.83
399.90	374.49
400.09	437.68
400.28	437.68
400.47	402.57
400.67	360.44
400.86	386.19
401.05	421.30
401.24	351.08
401.44	442.36
401.63	404.91
401.82	440.02
402.01	379.17
402.21	367.46
402.40	400.23
402.59	400.23
402.78	369.80
402.97	358.10
403.17	395.55
403.36	440.02
403.55	383.85
403.74	365.12
403.93	355.76
404.13	421.30
404.32	320.65
404.51	447.04
404.70	337.04
404.89	433.00
405.09	386.19
405.28	442.36
405.47	411.93
405.66	404.91
405.85	423.64
406.05	435.34
406.24	395.55
406.43	407.25
406.62	470.45
406.81	325.33
407.00	430.66
407.20	428.32
407.39	383.85
407.58	463.43
407.77	468.11
407.96	400.23
408.15	374.49
408.34	463.43
408.54	449.38
408.73	444.70
408.92	458.74
409.11	383.85
409.30	437.68
409.49	360.44
409.68	433.00
409.87	442.36
410.07	397.89
410.26	381.51
410.45	404.91
410.64	318.31
410.83	376.83
411.02	386.19
411.21	353.42
411.40	374.49
411.59	430.66
411.78	397.89
411.98	344.06
412.17	379.17
412.36	341.72
412.55	402.57
412.74	430.66
412.93	395.55
413.12	407.25
413.31	372.15
413.50	407.25
413.69	308.95
413.88	442.36
414.07	425.98
414.26	430.66
414.45	416.62
414.64	423.64
414.83	447.04
415.02	409.59
415.22	428.32
415.41	402.57
415.60	402.57
415.79	418.96
415.98	386.19
416.17	442.36
416.36	379.17
416.55	409.59
416.74	421.30
416.93	435.34
417.12	397.89
417.31	393.21
417.50	418.96
417.69	428.32
417.88	416.62
418.07	416.62
418.26	465.77
418.45	437.68
418.64	418.96
418.83	397.89
419.02	390.87
419.21	334.70
419.39	400.23
419.58	423.64
419.77	367.46
419.96	416.62
420.15	400.23
420.34	421.30
420.53	437.68
420.72	416.62
420.91	463.43
421.10	468.11
421.29	447.04
421.48	379.17
421.67	390.87
421.86	327.68
422.05	381.51
422.24	407.25
422.43	444.70
422.61	411.93
422.80	404.91
422.99	358.10
423.18	383.85
423.37	486.83
423.56	451.72
423.75	421.30
423.94	367.46
424.13	400.23
424.32	477.47
424.50	421.30
424.69	430.66
424.88	402.57
425.07	407.25
425.26	409.59
425.45	337.04
425.64	365.12
425.83	442.36
426.01	430.66
426.20	479.81
426.39	477.47
426.58	411.93
426.77	423.64
426.96	416.62
427.15	421.30
427.33	423.64
427.52	442.36
427.71	430.66
427.90	369.80
428.09	430.66
428.28	402.57
428.46	425.98
428.65	442.36
428.84	451.72
429.03	442.36
429.22	477.47
429.40	416.62
429.59	409.59
429.78	503.22
429.97	390.87
430.16	372.15
430.34	484.49
430.53	381.51
430.72	421.30
430.91	435.34
431.10	362.78
431.28	435.34
431.47	407.25
431.66	369.80
431.85	437.68
432.03	498.53
432.22	514.92
432.41	435.34
432.60	395.55
432.79	437.68
432.97	372.15
433.16	425.98
433.35	451.72
433.54	454.06
433.72	393.21
433.91	444.70
434.10	388.53
434.28	414.27
434.47	418.96
434.66	409.59
434.85	484.49
435.03	372.15
435.22	416.62
435.41	351.08
435.59	484.49
435.78	440.02
435.97	414.27
436.16	421.30
436.34	369.80
436.53	358.10
436.72	447.04
436.90	440.02
437.09	369.80
437.28	379.17
437.46	442.36
437.65	503.22
437.84	435.34
438.02	484.49
438.21	430.66
438.40	421.30
438.58	414.27
438.77	397.89
438.96	400.23
439.14	433.00
439.33	395.55
439.52	386.19
439.70	433.00
439.89	379.17
440.08	407.25
440.26	390.87
440.45	409.59
440.63	407.25
440.82	414.27
441.01	390.87
441.19	407.25
441.38	435.34
441.57	454.06
441.75	440.02
441.94	411.93
442.12	425.98
442.31	327.68
442.50	451.72
442.68	348.74
442.87	400.23
443.05	418.96
443.24	465.77
443.43	484.49
443.61	461.09
443.80	367.46
443.98	369.80
444.17	365.12
444.35	379.17
444.54	348.74
444.73	365.12
444.91	437.68
445.10	414.27
445.28	367.46
445.47	414.27
445.65	437.68
445.84	416.62
446.02	451.72
446.21	374.49
446.39	465.77
446.58	421.30
446.77	430.66
446.95	444.70
447.14	496.19
447.32	447.04
447.51	379.17
447.69	528.96
447.88	390.87
448.06	425.98
448.25	397.89
448.43	360.44
448.62	409.59
448.80	428.32
448.99	437.68
449.17	461.09
449.36	430.66
449.54	404.91
449.73	386.19
449.91	409.59
450.10	407.25
450.28	433.00
450.46	526.62
450.65	437.68
450.83	381.51
451.02	388.53
451.20	440.02
451.39	444.70
451.57	400.23
451.76	390.87
451.94	425.98
452.13	362.78
452.31	491.51
452.49	388.53
452.68	369.80
452.86	374.49
453.05	369.80
453.23	334.70
453.42	400.23
453.60	325.33
453.78	379.17
453.97	400.23
454.15	414.27
454.34	395.55
454.52	386.19
454.70	414.27
454.89	437.68
455.07	397.89
455.26	447.04
455.44	397.89
455.62	388.53
455.81	477.47
455.99	444.70
456.17	435.34
456.36	400.23
456.54	456.40
456.73	409.59
456.91	444.70
457.09	503.22
457.28	414.27
457.46	404.91
457.64	397.89
457.83	322.99
458.01	390.87
458.19	404.91
458.38	386.19
458.56	351.08
458.74	337.04
458.93	468.11
459.11	376.83
459.29	440.02
459.48	395.55
459.66	404.91
459.84	454.06
460.03	484.49
460.21	409.59
460.39	400.23
460.57	409.59
460.76	353.42
460.94	360.44
461.12	400.23
461.31	444.70
461.49	344.06
461.67	416.62
461.85	454.06
462.04	428.32
462.22	491.51
462.40	418.96
462.59	447.04
462.77	388.53
462.95	461.09
463.13	428.32
463.32	374.49
463.50	348.74
463.68	416.62
463.86	447.04
464.05	421.30
464.23	402.57
464.41	430.66
464.59	423.64
464.78	386.19
464.96	360.44
465.14	416.62
465.32	386.19
465.50	379.17
465.69	376.83
465.87	440.02
466.05	332.36
466.23	416.62
466.41	454.06
466.60	376.83
466.78	397.89
466.96	514.92
467.14	430.66
467.32	435.34
467.51	433.00
467.69	468.11
467.87	440.02
468.05	416.62
468.23	428.32
468.41	325.33
468.60	400.23
468.78	397.89
468.96	421.30
469.14	418.96
469.32	393.21
469.50	390.87
469.69	526.62
469.87	470.45
470.05	444.70
470.23	409.59
470.41	372.15
470.59	416.62
470.77	402.57
470.95	423.64
471.14	379.17
471.32	379.17
471.50	414.27
471.68	369.80
471.86	390.87
472.04	383.85
472.22	383.85
472.40	454.06
472.58	449.38
472.77	402.57
472.95	454.06
473.13	395.55
473.31	425.98
473.49	379.17
473.67	395.55
473.85	440.02
474.03	433.00
474.21	430.66
474.39	423.64
474.57	435.34
474.75	365.12
474.93	404.91
475.12	353.42
475.30	461.09
475.48	404.91
475.66	454.06
475.84	400.23
476.02	435.34
476.20	402.57
476.38	433.00
476.56	451.72
476.74	376.83
476.92	339.38
477.10	414.27
477.28	451.72
477.46	447.04
477.64	437.68
477.82	418.96
478.00	372.15
478.18	397.89
478.36	411.93
478.54	383.85
478.72	409.59
478.90	404.91
479.08	365.12
479.26	418.96
479.44	447.04
479.62	442.36
479.80	344.06
479.98	372.15
480.16	433.00
480.34	458.74
480.52	358.10
480.70	395.55
480.88	388.53
481.06	428.32
481.24	369.80
481.41	402.57
481.59	451.72
481.77	421.30
481.95	386.19
482.13	414.27
482.31	411.93
482.49	407.25
482.67	442.36
482.85	404.91
483.03	433.00
483.21	348.74
483.39	351.08
483.57	461.09
483.74	407.25
483.92	379.17
484.10	407.25
484.28	386.19
484.46	423.64
484.64	395.55
484.82	437.68
485.00	433.00
485.18	409.59
485.35	397.89
485.53	447.04
485.71	440.02
485.89	409.59
486.07	475.13
486.25	533.64
486.43	423.64
486.61	397.89
486.78	397.89
486.96	430.66
487.14	360.44
487.32	409.59
487.50	416.62
487.68	383.85
487.85	379.17
488.03	475.13
488.21	390.87
488.39	393.21
488.57	463.43
488.75	444.70
488.92	538.32
489.10	435.34
489.28	388.53
489.46	470.45
489.64	421.30
489.81	369.80
489.99	414.27
490.17	456.40
490.35	475.13
490.53	461.09
490.70	337.04
490.88	430.66
491.06	416.62
491.24	367.46
491.41	430.66
491.59	435.34
491.77	369.80
491.95	416.62
492.13	376.83
492.30	355.76
492.48	376.83
492.66	395.55
492.84	390.87
493.01	428.32
493.19	395.55
493.37	411.93
493.54	449.38
493.72	423.64
493.90	360.44
494.08	362.78
494.25	402.57
494.43	437.68
494.61	456.40
494.79	468.11
494.96	386.19
495.14	411.93
495.32	440.02
495.49	465.77
495.67	437.68
495.85	393.21
496.02	402.57
496.20	365.12
496.38	407.25
496.55	397.89
496.73	390.87
496.91	409.59
497.09	404.91
497.26	447.04
497.44	472.79
497.62	409.59
497.79	449.38
497.97	400.23
498.14	383.85
498.32	423.64
498.50	393.21
498.67	414.27
498.85	407.25
499.03	418.96
499.20	383.85
499.38	463.43
499.56	456.40
499.73	397.89
499.91	451.72
500.08	451.72
500.26	451.72
500.44	433.00
500.61	472.79
500.79	388.53
500.97	369.80
501.14	512.58
501.32	411.93
501.49	367.46
501.67	390.87
501.84	414.27
502.02	416.62
502.20	440.02
502.37	411.93
502.55	397.89
502.72	418.96
502.90	393.21
503.07	390.87
503.25	367.46
503.43	425.98
503.60	393.21
503.78	402.57
503.95	449.38
504.13	414.27
504.30	407.25
504.48	454.06
504.65	421.30
504.83	463.43
505.01	472.79
505.18	423.64
505.36	416.62
505.53	437.68
505.71	425.98
505.88	475.13
506.06	418.96
506.23	456.40
506.41	409.59
506.58	477.47
506.76	454.06
506.93	367.46
507.11	444.70
507.28	341.72
507.46	442.36
507.63	388.53
507.81	444.70
507.98	409.59
508.16	442.36
508.33	416.62
508.50	393.21
508.68	330.02
508.85	456.40
509.03	409.59
509.20	400.23
509.38	465.77
509.55	447.04
509.73	449.38
509.90	433.00
510.08	339.38
510.25	414.27
510.42	433.00
510.60	468.11
510.77	428.32
510.95	383.85
511.12	402.57
511.30	430.66
511.47	463.43
511.64	414.27
511.82	390.87
511.99	451.72
512.17	472.79
512.34	390.87
512.51	409.59
512.69	451.72
512.86	440.02
513.04	447.04
513.21	409.59
513.38	470.45
513.56	386.19
513.73	369.80
513.90	458.74
514.08	409.59
514.25	395.55
514.43	407.25
514.60	404.91
514.77	341.72
514.95	404.91
515.12	418.96
515.29	421.30
515.47	425.98
515.64	334.70
515.81	362.78
515.99	428.32
516.16	458.74
516.33	383.85
516.51	360.44
516.68	393.21
516.85	388.53
517.03	435.34
517.20	379.17
517.37	400.23
517.54	444.70
517.72	418.96
517.89	393.21
518.06	376.83
518.24	444.70
518.41	416.62
518.58	348.74
518.75	482.15
518.93	383.85
519.10	435.34
519.27	402.57
519.45	430.66
519.62	418.96
519.79	400.23
519.96	416.62
520.14	435.34
520.31	451.72
520.48	442.36
520.65	444.70
520.83	461.09
521.00	414.27
521.17	472.79
521.34	444.70
521.52	418.96
521.69	407.25
521.86	402.57
522.03	407.25
522.20	383.85
522.38	325.33
522.55	407.25
522.72	507.90
522.89	435.34
523.07	472.79
523.24	463.43
523.41	442.36
523.58	390.87
523.75	470.45
523.92	346.40
524.10	351.08
524.27	404.91
524.44	390.87
524.61	440.02
524.78	386.19
524.96	477.47
525.13	414.27
525.30	477.47
525.47	433.00
525.64	390.87
525.81	456.40
525.98	404.91
526.16	386.19
526.33	430.66
526.50	339.38
526.67	402.57
526.84	440.02
527.01	388.53
527.18	421.30
527.36	379.17
527.53	407.25
527.70	482.15
527.87	498.53
528.04	470.45
528.21	369.80
528.38	449.38
528.55	435.34
528.72	425.98
528.89	463.43
529.07	425.98
529.24	442.36
529.41	479.81
529.58	461.09
529.75	421.30
529.92	409.59
530.09	397.89
530.26	400.23
530.43	390.87
530.60	433.00
530.77	388.53
530.94	456.40
531.11	456.40
531.28	404.91
531.46	334.70
531.63	440.02
531.80	386.19
531.97	407.25
532.14	454.06
532.31	468.11
532.48	411.93
532.65	409.59
532.82	414.27
532.99	430.66
533.16	407.25
533.33	393.21
533.50	423.64
533.67	444.70
533.84	388.53
534.01	367.46
534.18	390.87
534.35	402.57
534.52	423.64
534.69	461.09
534.86	470.45
535.03	414.27
535.20	447.04
535.37	397.89
535.54	447.04
535.71	383.85
535.88	477.47
536.05	428.32
536.22	484.49
536.38	411.93
536.55	381.51
536.72	400.23
536.89	437.68
537.06	414.27
537.23	409.59
537.40	402.57
537.57	360.44
537.74	447.04
537.91	428.32
538.08	400.23
538.25	369.80
538.42	433.00
538.59	388.53
538.75	402.57
538.92	402.57
539.09	353.42
539.26	374.49
539.43	397.89
539.60	425.98
539.77	449.38
539.94	414.27
540.11	400.23
540.28	451.72
540.44	465.77
540.61	437.68
540.78	451.72
540.95	418.96
541.12	435.34
541.29	411.93
541.46	418.96
541.62	440.02
541.79	411.93
541.96	442.36
542.13	402.57
542.30	388.53
542.47	397.89
542.63	458.74
542.80	428.32
542.97	468.11
543.14	425.98
543.31	433.00
543.48	454.06
543.64	428.32
543.81	421.30
543.98	496.19
544.15	351.08
544.32	442.36
544.48	425.98
544.65	440.02
544.82	351.08
544.99	442.36
545.16	407.25
545.32	437.68
545.49	435.34
545.66	465.77
545.83	409.59
546.00	362.78
546.16	407.25
546.33	461.09
546.50	433.00
546.67	440.02
546.83	430.66
547.00	449.38
547.17	428.32
547.34	435.34
547.50	416.62
547.67	430.66
547.84	423.64
548.00	449.38
548.17	435.34
548.34	365.12
548.51	407.25
548.67	470.45
548.84	407.25
549.01	428.32
549.18	421.30
549.34	440.02
549.51	475.13
549.68	442.36
549.84	369.80
550.01	491.51
550.18	510.24
550.34	475.13
550.51	435.34
550.68	505.56
550.84	397.89
551.01	365.12
551.18	470.45
551.34	388.53
551.51	423.64
551.68	376.83
551.84	437.68
552.01	402.57
552.18	425.98
552.34	397.89
552.51	407.25
552.68	416.62
552.84	318.31
553.01	425.98
553.18	475.13
553.34	416.62
553.51	442.36
553.67	468.11
553.84	388.53
554.01	461.09
554.17	470.45
554.34	418.96
554.51	402.57
554.67	376.83
554.84	409.59
555.00	456.40
555.17	442.36
555.33	500.87
555.50	379.17
555.67	442.36
555.83	374.49
556.00	463.43
556.16	519.60
556.33	489.17
556.50	383.85
556.66	353.42
556.83	383.85
556.99	404.91
557.16	451.72
557.32	372.15
557.49	472.79
557.65	381.51
557.82	430.66
557.98	458.74
558.15	383.85
558.32	475.13
558.48	437.68
558.65	327.68
558.81	428.32
558.98	428.32
559.14	433.00
559.31	456.40
559.47	498.53
559.64	421.30
559.80	425.98
559.97	400.23
560.13	463.43
560.30	393.21
560.46	428.32
560.63	397.89
560.79	402.57
560.96	351.08
561.12	416.62
561.29	517.26
561.45	458.74
561.61	437.68
561.78	561.73
561.94	409.59
562.11	423.64
562.27	404.91
562.44	447.04
562.60	367.46
562.77	402.57
562.93	484.49
563.10	414.27
563.26	449.38
563.42	468.11
563.59	372.15
563.75	379.17
563.92	411.93
564.08	428.32
564.24	397.89
564.41	482.15
564.57	376.83
564.74	395.55
564.90	472.79
565.07	425.98
565.23	355.76
565.39	482.15
565.56	463.43
565.72	411.93
565.88	341.72
566.05	346.40
566.21	402.57
566.38	447.04
566.54	425.98
566.70	409.59
566.87	454.06
567.03	365.12
567.19	388.53
567.36	451.72
567.52	402.57
567.68	507.90
567.85	465.77
568.01	388.53
568.17	376.83
568.34	430.66
568.50	409.59
568.66	400.23
568.83	402.57
568.99	454.06
569.15	402.57
569.32	470.45
569.48	397.89
569.64	437.68
569.81	433.00
569.97	393.21
570.13	470.45
570.30	360.44
570.46	388.53
570.62	402.57
570.78	390.87
570.95	383.85
571.11	369.80
571.27	468.11
571.43	430.66
571.60	440.02
571.76	337.04
571.92	383.85
572.09	461.09
572.25	411.93
572.41	411.93
572.57	451.72
572.74	425.98
572.90	421.30
573.06	451.72
573.22	344.06
573.38	425.98
573.55	461.09
573.71	430.66
573.87	367.46
574.03	351.08
574.20	449.38
574.36	414.27
574.52	475.13
574.68	425.98
574.84	407.25
575.01	425.98
575.17	386.19
575.33	400.23
575.49	414.27
575.65	425.98
575.82	411.93
575.98	421.30
576.14	418.96
576.30	416.62
576.46	416.62
576.62	334.70
576.79	407.25
576.95	409.59
577.11	383.85
577.27	407.25
577.43	418.96
577.59	428.32
577.75	430.66
577.92	479.81
578.08	458.74
578.24	465.77
578.40	437.68
578.56	400.23
578.72	414.27
578.88	454.06
579.04	397.89
579.21	393.21
579.37	479.81
579.53	404.91
579.69	430.66
579.85	402.57
580.01	507.90
580.17	388.53
580.33	339.38
580.49	447.04
580.65	440.02
580.82	435.34
580.98	332.36
581.14	374.49
581.30	489.17
581.46	390.87
581.62	374.49
581.78	411.93
581.94	395.55
582.10	362.78
582.26	451.72
582.42	360.44
582.58	540.66
582.74	437.68
582.90	409.59
583.06	407.25
583.22	421.30
583.38	484.49
583.54	461.09
583.70	505.56
583.86	479.81
584.02	418.96
584.18	447.04
584.34	430.66
584.50	428.32
584.66	423.64
584.82	430.66
584.98	400.23
585.14	498.53
585.30	449.38
585.46	407.25
585.62	376.83
585.78	390.87
585.94	409.59
586.10	337.04
586.26	416.62
586.42	402.57
586.58	454.06
586.74	372.15
586.90	430.66
587.06	468.11
587.22	362.78
587.38	411.93
587.54	416.62
587.70	435.34
587.86	449.38
588.02	418.96
588.18	372.15
588.34	454.06
588.49	416.62
588.65	416.62
588.81	486.83
588.97	379.17
589.13	435.34
589.29	327.68
589.45	437.68
589.61	458.74
589.77	386.19
589.93	369.80
590.08	433.00
590.24	393.21
590.40	423.64
590.56	428.32
590.72	430.66
590.88	348.74
591.04	397.89
591.20	379.17
591.35	477.47
591.51	404.91
591.67	369.80
591.83	404.91
591.99	468.11
592.15	489.17
592.31	440.02
592.46	470.45
592.62	477.47
592.78	414.27
592.94	358.10
593.10	390.87
593.26	402.57
593.41	486.83
593.57	458.74
593.73	390.87
593.89	465.77
594.05	414.27
594.20	390.87
594.36	496.19
594.52	397.89
594.68	444.70
594.84	451.72
594.99	433.00
595.15	449.38
595.31	491.51
595.47	470.45
595.62	409.59
595.78	458.74
595.94	376.83
596.10	491.51
596.25	402.57
596.41	416.62
596.57	374.49
596.73	451.72
596.88	374.49
597.04	393.21
597.20	369.80
597.36	486.83
597.51	407.25
597.67	407.25
597.83	348.74
597.99	425.98
598.14	428.32
598.30	475.13
598.46	355.76
598.61	407.25
598.77	402.57
598.93	444.70
599.09	418.96
599.24	388.53
599.40	421.30
599.56	411.93
599.71	447.04
599.87	390.87
600.03	362.78
600.18	470.45
600.34	397.89
600.50	470.45
600.65	409.59
600.81	372.15
600.97	407.25
601.12	414.27
601.28	482.15
601.44	407.25
601.59	402.57
601.75	463.43
601.91	454.06
602.06	390.87
602.22	505.56
602.37	496.19
602.53	409.59
602.69	397.89
602.84	365.12
603.00	451.72
603.16	444.70
603.31	449.38
603.47	468.11
603.62	365.12
603.78	430.66
603.94	430.66
604.09	475.13
604.25	407.25
604.40	437.68
604.56	404.91
604.71	376.83
604.87	379.17
605.03	437.68
605.18	440.02
605.34	468.11
605.49	409.59
605.65	449.38
605.80	346.40
605.96	360.44
606.12	444.70
606.27	463.43
606.43	519.60
606.58	435.34
606.74	451.72
606.89	388.53
607.05	440.02
607.20	440.02
607.36	447.04
607.51	411.93
607.67	379.17
607.82	407.25
607.98	388.53
608.13	381.51
608.29	381.51
608.44	407.25
608.60	374.49
608.75	447.04
608.91	470.45
609.06	484.49
609.22	465.77
609.37	437.68
609.53	407.25
609.68	456.40
609.84	358.10
609.99	404.91
610.15	388.53
