SpectraSuite Data File
++++++++++++++++++++++++++++++++++++
Date: Fri Oct 25 12:11:43 EDT 2013
User: price-jones
Dark Spectrum Present: No
Reference Spectrum Present: No
Number of Sampled Component Spectra: 1
Spectrometers: USB2+H05261
Integration Time (usec): 100000 (USB2+H05261)
Spectra Averaged: 1 (USB2+H05261)
Boxcar Smoothing: 0 (USB2+H05261)
Correct for Electrical Dark: No (USB2+H05261)
Strobe/Lamp Enabled: No (USB2+H05261)
Correct for Detector Non-linearity: No (USB2+H05261)
Correct for Stray Light: No (USB2+H05261)
Number of Pixels in Processed Spectrum: 2048
>>>>>Begin Processed Spectral Data<<<<<
365.73	346.40
365.92	346.40
366.12	346.40
366.32	257.46
366.52	304.27
366.72	229.37
366.91	259.80
367.11	248.10
367.31	280.86
367.51	180.22
367.70	252.78
367.90	210.65
368.10	269.16
368.30	259.80
368.49	224.69
368.69	255.12
368.89	245.76
369.09	262.14
369.28	301.93
369.48	243.42
369.68	294.91
369.87	313.63
370.07	229.37
370.27	341.72
370.47	402.57
370.66	374.49
370.86	372.15
371.06	362.78
371.25	421.30
371.45	433.00
371.65	414.27
371.84	353.42
372.04	360.44
372.24	388.53
372.44	318.31
372.63	393.21
372.83	386.19
373.03	386.19
373.22	346.40
373.42	486.83
373.62	430.66
373.81	472.79
374.01	489.17
374.21	472.79
374.40	362.78
374.60	390.87
374.79	381.51
374.99	425.98
375.19	433.00
375.38	386.19
375.58	362.78
375.78	454.06
375.97	376.83
376.17	477.47
376.37	400.23
376.56	390.87
376.76	367.46
376.95	414.27
377.15	440.02
377.35	404.91
377.54	440.02
377.74	355.76
377.93	421.30
378.13	425.98
378.33	376.83
378.52	383.85
378.72	411.93
378.91	475.13
379.11	360.44
379.31	482.15
379.50	355.76
379.70	468.11
379.89	461.09
380.09	362.78
380.28	390.87
380.48	365.12
380.68	414.27
380.87	372.15
381.07	468.11
381.26	376.83
381.46	339.38
381.65	407.25
381.85	414.27
382.04	393.21
382.24	458.74
382.43	379.17
382.63	472.79
382.83	414.27
383.02	423.64
383.22	433.00
383.41	381.51
383.61	435.34
383.80	393.21
384.00	376.83
384.19	421.30
384.39	360.44
384.58	390.87
384.78	374.49
384.97	423.64
385.17	374.49
385.36	372.15
385.56	390.87
385.75	344.06
385.95	381.51
386.14	442.36
386.34	397.89
386.53	407.25
386.72	388.53
386.92	414.27
387.11	393.21
387.31	411.93
387.50	411.93
387.70	374.49
387.89	376.83
388.09	428.32
388.28	381.51
388.48	390.87
388.67	447.04
388.86	407.25
389.06	414.27
389.25	468.11
389.45	447.04
389.64	407.25
389.84	451.72
390.03	454.06
390.22	435.34
390.42	475.13
390.61	416.62
390.81	435.34
391.00	332.36
391.19	376.83
391.39	423.64
391.58	472.79
391.78	318.31
391.97	440.02
392.16	402.57
392.36	393.21
392.55	444.70
392.75	414.27
392.94	421.30
393.13	386.19
393.33	379.17
393.52	456.40
393.71	430.66
393.91	416.62
394.10	454.06
394.29	454.06
394.49	334.70
394.68	386.19
394.88	451.72
395.07	400.23
395.26	395.55
395.46	393.21
395.65	479.81
395.84	414.27
396.04	442.36
396.23	353.42
396.42	421.30
396.62	393.21
396.81	402.57
397.00	425.98
397.19	379.17
397.39	400.23
397.58	411.93
397.77	433.00
397.97	440.02
398.16	472.79
398.35	411.93
398.55	402.57
398.74	510.24
398.93	472.79
399.12	421.30
399.32	433.00
399.51	409.59
399.70	456.40
399.90	369.80
400.09	423.64
400.28	421.30
400.47	433.00
400.67	418.96
400.86	423.64
401.05	430.66
401.24	390.87
401.44	409.59
401.63	404.91
401.82	423.64
402.01	425.98
402.21	409.59
402.40	400.23
402.59	407.25
402.78	402.57
402.97	440.02
403.17	407.25
403.36	433.00
403.55	379.17
403.74	341.72
403.93	369.80
404.13	461.09
404.32	379.17
404.51	390.87
404.70	454.06
404.89	400.23
405.09	423.64
405.28	430.66
405.47	423.64
405.66	470.45
405.85	498.53
406.05	393.21
406.24	390.87
406.43	428.32
406.62	512.58
406.81	418.96
407.00	461.09
407.20	449.38
407.39	475.13
407.58	433.00
407.77	381.51
407.96	500.87
408.15	470.45
408.34	414.27
408.54	421.30
408.73	362.78
408.92	463.43
409.11	411.93
409.30	461.09
409.49	416.62
409.68	437.68
409.87	421.30
410.07	440.02
410.26	344.06
410.45	353.42
410.64	372.15
410.83	411.93
411.02	376.83
411.21	369.80
411.40	416.62
411.59	442.36
411.78	463.43
411.98	411.93
412.17	414.27
412.36	437.68
412.55	390.87
412.74	407.25
412.93	414.27
413.12	330.02
413.31	411.93
413.50	423.64
413.69	376.83
413.88	451.72
414.07	383.85
414.26	402.57
414.45	451.72
414.64	437.68
414.83	423.64
415.02	381.51
415.22	341.72
415.41	437.68
415.60	383.85
415.79	393.21
415.98	376.83
416.17	313.63
416.36	444.70
416.55	362.78
416.74	388.53
416.93	414.27
417.12	435.34
417.31	400.23
417.50	425.98
417.69	437.68
417.88	383.85
418.07	360.44
418.26	402.57
418.45	351.08
418.64	379.17
418.83	428.32
419.02	465.77
419.21	465.77
419.39	430.66
419.58	400.23
419.77	411.93
419.96	425.98
420.15	425.98
420.34	348.74
420.53	402.57
420.72	418.96
420.91	395.55
421.10	404.91
421.29	374.49
421.48	418.96
421.67	372.15
421.86	397.89
422.05	414.27
422.24	374.49
422.43	301.93
422.61	362.78
422.80	383.85
422.99	414.27
423.18	421.30
423.37	451.72
423.56	407.25
423.75	437.68
423.94	402.57
424.13	400.23
424.32	404.91
424.50	430.66
424.69	416.62
424.88	400.23
425.07	454.06
425.26	444.70
425.45	454.06
425.64	393.21
425.83	390.87
426.01	451.72
426.20	355.76
426.39	444.70
426.58	388.53
426.77	430.66
426.96	360.44
427.15	491.51
427.33	308.95
427.52	421.30
427.71	472.79
427.90	463.43
428.09	449.38
428.28	416.62
428.46	393.21
428.65	381.51
428.84	449.38
429.03	437.68
429.22	379.17
429.40	365.12
429.59	451.72
429.78	444.70
429.97	339.38
430.16	440.02
430.34	489.17
430.53	388.53
430.72	461.09
430.91	468.11
431.10	379.17
431.28	367.46
431.47	423.64
431.66	493.85
431.85	409.59
432.03	393.21
432.22	437.68
432.41	447.04
432.60	430.66
432.79	414.27
432.97	386.19
433.16	465.77
433.35	425.98
433.54	416.62
433.72	353.42
433.91	416.62
434.10	479.81
434.28	362.78
434.47	423.64
434.66	404.91
434.85	475.13
435.03	397.89
435.22	465.77
435.41	491.51
435.59	402.57
435.78	423.64
435.97	451.72
436.16	463.43
436.34	416.62
436.53	421.30
436.72	461.09
436.90	440.02
437.09	390.87
437.28	393.21
437.46	428.32
437.65	437.68
437.84	484.49
438.02	379.17
438.21	444.70
438.40	454.06
438.58	397.89
438.77	400.23
438.96	421.30
439.14	322.99
439.33	374.49
439.52	379.17
439.70	433.00
439.89	440.02
440.08	472.79
440.26	414.27
440.45	433.00
440.63	376.83
440.82	383.85
441.01	423.64
441.19	360.44
441.38	414.27
441.57	444.70
441.75	428.32
441.94	433.00
442.12	355.76
442.31	407.25
442.50	346.40
442.68	421.30
442.87	395.55
443.05	372.15
443.24	425.98
443.43	454.06
443.61	449.38
443.80	393.21
443.98	421.30
444.17	367.46
444.35	383.85
444.54	458.74
444.73	409.59
444.91	458.74
445.10	440.02
445.28	381.51
445.47	430.66
445.65	404.91
445.84	411.93
446.02	468.11
446.21	433.00
446.39	440.02
446.58	456.40
446.77	423.64
446.95	423.64
447.14	440.02
447.32	444.70
447.51	376.83
447.69	400.23
447.88	414.27
448.06	442.36
448.25	402.57
448.43	390.87
448.62	407.25
448.80	440.02
448.99	433.00
449.17	386.19
449.36	386.19
449.54	397.89
449.73	374.49
449.91	374.49
450.10	402.57
450.28	428.32
450.46	491.51
450.65	393.21
450.83	390.87
451.02	304.27
451.20	376.83
451.39	402.57
451.57	447.04
451.76	461.09
451.94	451.72
452.13	395.55
452.31	437.68
452.49	535.98
452.68	367.46
452.86	397.89
453.05	430.66
453.23	425.98
453.42	414.27
453.60	393.21
453.78	381.51
453.97	407.25
454.15	430.66
454.34	379.17
454.52	402.57
454.70	418.96
454.89	416.62
455.07	491.51
455.26	402.57
455.44	552.37
455.62	421.30
455.81	463.43
455.99	381.51
456.17	418.96
456.36	430.66
456.54	447.04
456.73	461.09
456.91	437.68
457.09	421.30
457.28	271.50
457.46	428.32
457.64	425.98
457.83	451.72
458.01	449.38
458.19	411.93
458.38	381.51
458.56	376.83
458.74	353.42
458.93	407.25
459.11	367.46
459.29	374.49
459.48	430.66
459.66	423.64
459.84	395.55
460.03	535.98
460.21	437.68
460.39	482.15
460.57	435.34
460.76	414.27
460.94	374.49
461.12	423.64
461.31	468.11
461.49	449.38
461.67	393.21
461.85	397.89
462.04	451.72
462.22	800.46
462.40	414.27
462.59	425.98
462.77	465.77
462.95	451.72
463.13	358.10
463.32	409.59
463.50	442.36
463.68	393.21
463.86	416.62
464.05	400.23
464.23	386.19
464.41	428.32
464.59	353.42
464.78	353.42
464.96	386.19
465.14	411.93
465.32	440.02
465.50	400.23
465.69	409.59
465.87	411.93
466.05	491.51
466.23	409.59
466.41	425.98
466.60	421.30
466.78	491.51
466.96	414.27
467.14	486.83
467.32	365.12
467.51	444.70
467.69	472.79
467.87	367.46
468.05	353.42
468.23	444.70
468.41	500.87
468.60	369.80
468.78	449.38
468.96	414.27
469.14	414.27
469.32	332.36
469.50	407.25
469.69	491.51
469.87	397.89
470.05	440.02
470.23	465.77
470.41	388.53
470.59	360.44
470.77	397.89
470.95	470.45
471.14	456.40
471.32	400.23
471.50	430.66
471.68	458.74
471.86	458.74
472.04	440.02
472.22	428.32
472.40	468.11
472.58	421.30
472.77	393.21
472.95	425.98
473.13	437.68
473.31	475.13
473.49	437.68
473.67	437.68
473.85	409.59
474.03	416.62
474.21	454.06
474.39	421.30
474.57	433.00
474.75	402.57
474.93	397.89
475.12	355.76
475.30	383.85
475.48	386.19
475.66	507.90
475.84	465.77
476.02	393.21
476.20	372.15
476.38	440.02
476.56	484.49
476.74	402.57
476.92	458.74
477.10	400.23
477.28	393.21
477.46	440.02
477.64	425.98
477.82	397.89
478.00	348.74
478.18	447.04
478.36	423.64
478.54	390.87
478.72	423.64
478.90	393.21
479.08	433.00
479.26	451.72
479.44	414.27
479.62	330.02
479.80	388.53
479.98	404.91
480.16	407.25
480.34	456.40
480.52	306.61
480.70	449.38
480.88	411.93
481.06	344.06
481.24	421.30
481.41	444.70
481.59	421.30
481.77	351.08
481.95	418.96
482.13	430.66
482.31	362.78
482.49	330.02
482.67	435.34
482.85	414.27
483.03	463.43
483.21	400.23
483.39	390.87
483.57	400.23
483.74	484.49
483.92	383.85
484.10	430.66
484.28	379.17
484.46	472.79
484.64	393.21
484.82	451.72
485.00	376.83
485.18	421.30
485.35	372.15
485.53	411.93
485.71	355.76
485.89	449.38
486.07	404.91
486.25	433.00
486.43	479.81
486.61	447.04
486.78	421.30
486.96	404.91
487.14	423.64
487.32	390.87
487.50	458.74
487.68	372.15
487.85	386.19
488.03	444.70
488.21	465.77
488.39	428.32
488.57	367.46
488.75	372.15
488.92	454.06
489.10	402.57
489.28	484.49
489.46	360.44
489.64	425.98
489.81	421.30
489.99	418.96
490.17	421.30
490.35	433.00
490.53	428.32
490.70	465.77
490.88	451.72
491.06	367.46
491.24	372.15
491.41	500.87
491.59	372.15
491.77	374.49
491.95	416.62
492.13	435.34
492.30	379.17
492.48	437.68
492.66	425.98
492.84	358.10
493.01	358.10
493.19	458.74
493.37	468.11
493.54	440.02
493.72	362.78
493.90	461.09
494.08	365.12
494.25	440.02
494.43	491.51
494.61	402.57
494.79	369.80
494.96	430.66
495.14	505.56
495.32	449.38
495.49	355.76
495.67	423.64
495.85	388.53
496.02	498.53
496.20	430.66
496.38	435.34
496.55	376.83
496.73	411.93
496.91	381.51
497.09	404.91
497.26	433.00
497.44	451.72
497.62	395.55
497.79	475.13
497.97	468.11
498.14	442.36
498.32	421.30
498.50	435.34
498.67	472.79
498.85	442.36
499.03	400.23
499.20	393.21
499.38	435.34
499.56	423.64
499.73	430.66
499.91	519.60
500.08	402.57
500.26	280.86
500.44	404.91
500.61	468.11
500.79	451.72
500.97	418.96
501.14	428.32
501.32	451.72
501.49	449.38
501.67	475.13
501.84	404.91
502.02	372.15
502.20	411.93
502.37	407.25
502.55	449.38
502.72	430.66
502.90	400.23
503.07	433.00
503.25	351.08
503.43	442.36
503.60	458.74
503.78	416.62
503.95	418.96
504.13	444.70
504.30	353.42
504.48	416.62
504.65	404.91
504.83	351.08
505.01	465.77
505.18	489.17
505.36	440.02
505.53	416.62
505.71	393.21
505.88	538.32
506.06	433.00
506.23	444.70
506.41	411.93
506.58	390.87
506.76	421.30
506.93	475.13
507.11	449.38
507.28	411.93
507.46	381.51
507.63	491.51
507.81	376.83
507.98	379.17
508.16	437.68
508.33	372.15
508.50	423.64
508.68	383.85
508.85	404.91
509.03	362.78
509.20	425.98
509.38	456.40
509.55	348.74
509.73	414.27
509.90	358.10
510.08	404.91
510.25	341.72
510.42	383.85
510.60	435.34
510.77	463.43
510.95	468.11
511.12	376.83
511.30	402.57
511.47	461.09
511.64	447.04
511.82	395.55
511.99	447.04
512.17	484.49
512.34	325.33
512.51	397.89
512.69	451.72
512.86	477.47
513.04	470.45
513.21	430.66
513.38	372.15
513.56	418.96
513.73	456.40
513.90	428.32
514.08	433.00
514.25	458.74
514.43	472.79
514.60	414.27
514.77	407.25
514.95	341.72
515.12	383.85
515.29	400.23
515.47	379.17
515.64	407.25
515.81	409.59
515.99	362.78
516.16	428.32
516.33	514.92
516.51	409.59
516.68	433.00
516.85	421.30
517.03	393.21
517.20	425.98
517.37	397.89
517.54	411.93
517.72	423.64
517.89	444.70
518.06	362.78
518.24	433.00
518.41	428.32
518.58	430.66
518.75	362.78
518.93	416.62
519.10	390.87
519.27	442.36
519.45	442.36
519.62	451.72
519.79	465.77
519.96	444.70
520.14	414.27
520.31	484.49
520.48	430.66
520.65	411.93
520.83	421.30
521.00	372.15
521.17	304.27
521.34	372.15
521.52	304.27
521.69	376.83
521.86	407.25
522.03	461.09
522.20	468.11
522.38	435.34
522.55	404.91
522.72	437.68
522.89	461.09
523.07	428.32
523.24	409.59
523.41	435.34
523.58	444.70
523.75	395.55
523.92	402.57
524.10	393.21
524.27	430.66
524.44	390.87
524.61	465.77
524.78	397.89
524.96	428.32
525.13	421.30
525.30	416.62
525.47	435.34
525.64	451.72
525.81	418.96
525.98	411.93
526.16	411.93
526.33	407.25
526.50	472.79
526.67	421.30
526.84	503.22
527.01	437.68
527.18	472.79
527.36	397.89
527.53	435.34
527.70	423.64
527.87	435.34
528.04	468.11
528.21	367.46
528.38	519.60
528.55	444.70
528.72	423.64
528.89	425.98
529.07	409.59
529.24	418.96
529.41	461.09
529.58	423.64
529.75	404.91
529.92	416.62
530.09	440.02
530.26	430.66
530.43	374.49
530.60	482.15
530.77	372.15
530.94	496.19
531.11	442.36
531.28	421.30
531.46	339.38
531.63	337.04
531.80	313.63
531.97	414.27
532.14	430.66
532.31	437.68
532.48	461.09
532.65	332.36
532.82	388.53
532.99	425.98
533.16	435.34
533.33	379.17
533.50	425.98
533.67	423.64
533.84	397.89
534.01	430.66
534.18	409.59
534.35	376.83
534.52	379.17
534.69	423.64
534.86	404.91
535.03	428.32
535.20	404.91
535.37	290.23
535.54	444.70
535.71	374.49
535.88	498.53
536.05	421.30
536.22	463.43
536.38	475.13
536.55	409.59
536.72	447.04
536.89	383.85
537.06	440.02
537.23	388.53
537.40	395.55
537.57	388.53
537.74	472.79
537.91	397.89
538.08	292.57
538.25	454.06
538.42	484.49
538.59	379.17
538.75	435.34
538.92	435.34
539.09	388.53
539.26	454.06
539.43	442.36
539.60	437.68
539.77	440.02
539.94	341.72
540.11	388.53
540.28	458.74
540.44	428.32
540.61	428.32
540.78	433.00
540.95	311.29
541.12	388.53
541.29	383.85
541.46	449.38
541.62	477.47
541.79	402.57
541.96	416.62
542.13	409.59
542.30	440.02
542.47	468.11
542.63	442.36
542.80	468.11
542.97	409.59
543.14	341.72
543.31	397.89
543.48	409.59
543.64	500.87
543.81	433.00
543.98	411.93
544.15	479.81
544.32	416.62
544.48	418.96
544.65	475.13
544.82	379.17
544.99	428.32
545.16	444.70
545.32	297.25
545.49	414.27
545.66	393.21
545.83	360.44
546.00	393.21
546.16	414.27
546.33	332.36
546.50	423.64
546.67	498.53
546.83	376.83
547.00	400.23
547.17	482.15
547.34	407.25
547.50	313.63
547.67	433.00
547.84	449.38
548.00	404.91
548.17	430.66
548.34	390.87
548.51	435.34
548.67	381.51
548.84	449.38
549.01	428.32
549.18	381.51
549.34	390.87
549.51	381.51
549.68	484.49
549.84	402.57
550.01	402.57
550.18	512.58
550.34	456.40
550.51	346.40
550.68	479.81
550.84	461.09
551.01	395.55
551.18	486.83
551.34	425.98
551.51	388.53
551.68	440.02
551.84	433.00
552.01	395.55
552.18	482.15
552.34	416.62
552.51	409.59
552.68	444.70
552.84	381.51
553.01	447.04
553.18	423.64
553.34	470.45
553.51	369.80
553.67	484.49
553.84	430.66
554.01	374.49
554.17	425.98
554.34	355.76
554.51	379.17
554.67	456.40
554.84	383.85
555.00	397.89
555.17	393.21
555.33	484.49
555.50	430.66
555.67	437.68
555.83	418.96
556.00	421.30
556.16	566.41
556.33	517.26
556.50	390.87
556.66	437.68
556.83	449.38
556.99	407.25
557.16	451.72
557.32	407.25
557.49	372.15
557.65	479.81
557.82	463.43
557.98	444.70
558.15	402.57
558.32	374.49
558.48	409.59
558.65	428.32
558.81	430.66
558.98	437.68
559.14	407.25
559.31	451.72
559.47	510.24
559.64	442.36
559.80	379.17
559.97	395.55
560.13	423.64
560.30	414.27
560.46	404.91
560.63	416.62
560.79	353.42
560.96	421.30
561.12	440.02
561.29	404.91
561.45	442.36
561.61	475.13
561.78	381.51
561.94	437.68
562.11	421.30
562.27	409.59
562.44	449.38
562.60	339.38
562.77	418.96
562.93	421.30
563.10	477.47
563.26	376.83
563.42	383.85
563.59	531.30
563.75	437.68
563.92	550.03
564.08	498.53
564.24	444.70
564.41	468.11
564.57	365.12
564.74	423.64
564.90	442.36
565.07	479.81
565.23	409.59
565.39	447.04
565.56	440.02
565.72	407.25
565.88	367.46
566.05	355.76
566.21	414.27
566.38	461.09
566.54	500.87
566.70	435.34
566.87	430.66
567.03	386.19
567.19	456.40
567.36	472.79
567.52	372.15
567.68	451.72
567.85	433.00
568.01	351.08
568.17	397.89
568.34	376.83
568.50	411.93
568.66	397.89
568.83	416.62
568.99	411.93
569.15	470.45
569.32	444.70
569.48	390.87
569.64	397.89
569.81	325.33
569.97	475.13
570.13	461.09
570.30	449.38
570.46	479.81
570.62	465.77
570.78	486.83
570.95	393.21
571.11	444.70
571.27	496.19
571.43	404.91
571.60	421.30
571.76	418.96
571.92	409.59
572.09	411.93
572.25	451.72
572.41	421.30
572.57	402.57
572.74	435.34
572.90	458.74
573.06	428.32
573.22	470.45
573.38	468.11
573.55	451.72
573.71	416.62
573.87	440.02
574.03	437.68
574.20	437.68
574.36	423.64
574.52	402.57
574.68	379.17
574.84	360.44
575.01	362.78
575.17	404.91
575.33	421.30
575.49	491.51
575.65	400.23
575.82	449.38
575.98	402.57
576.14	416.62
576.30	433.00
576.46	461.09
576.62	461.09
576.79	428.32
576.95	517.26
577.11	411.93
577.27	355.76
577.43	402.57
577.59	477.47
577.75	383.85
577.92	414.27
578.08	353.42
578.24	400.23
578.40	454.06
578.56	493.85
578.72	367.46
578.88	498.53
579.04	440.02
579.21	484.49
579.37	407.25
579.53	372.15
579.69	442.36
579.85	376.83
580.01	397.89
580.17	379.17
580.33	383.85
580.49	344.06
580.65	388.53
580.82	451.72
580.98	395.55
581.14	463.43
581.30	407.25
581.46	376.83
581.62	465.77
581.78	402.57
581.94	402.57
582.10	393.21
582.26	390.87
582.42	430.66
582.58	486.83
582.74	383.85
582.90	400.23
583.06	376.83
583.22	416.62
583.38	421.30
583.54	435.34
583.70	433.00
583.86	388.53
584.02	411.93
584.18	381.51
584.34	423.64
584.50	430.66
584.66	388.53
584.82	428.32
584.98	442.36
585.14	458.74
585.30	430.66
585.46	353.42
585.62	386.19
585.78	416.62
585.94	402.57
586.10	400.23
586.26	440.02
586.42	454.06
586.58	433.00
586.74	397.89
586.90	479.81
587.06	430.66
587.22	425.98
587.38	421.30
587.54	393.21
587.70	376.83
587.86	402.57
588.02	470.45
588.18	390.87
588.34	418.96
588.49	393.21
588.65	386.19
588.81	414.27
588.97	416.62
589.13	444.70
589.29	409.59
589.45	435.34
589.61	442.36
589.77	428.32
589.93	421.30
590.08	433.00
590.24	409.59
590.40	428.32
590.56	423.64
590.72	383.85
590.88	414.27
591.04	411.93
591.20	447.04
591.35	435.34
591.51	447.04
591.67	393.21
591.83	411.93
591.99	379.17
592.15	475.13
592.31	416.62
592.46	416.62
592.62	468.11
592.78	327.68
592.94	414.27
593.10	362.78
593.26	411.93
593.41	454.06
593.57	428.32
593.73	437.68
593.89	397.89
594.05	383.85
594.20	411.93
594.36	500.87
594.52	407.25
594.68	376.83
594.84	456.40
594.99	479.81
595.15	386.19
595.31	383.85
595.47	491.51
595.62	376.83
595.78	447.04
595.94	383.85
596.10	407.25
596.25	433.00
596.41	447.04
596.57	400.23
596.73	482.15
596.88	430.66
597.04	547.69
597.20	451.72
597.36	383.85
597.51	430.66
597.67	414.27
597.83	376.83
597.99	435.34
598.14	472.79
598.30	360.44
598.46	430.66
598.61	430.66
598.77	463.43
598.93	381.51
599.09	395.55
599.24	348.74
599.40	388.53
599.56	416.62
599.71	346.40
599.87	451.72
600.03	421.30
600.18	400.23
600.34	442.36
600.50	421.30
600.65	526.62
600.81	437.68
600.97	418.96
601.12	425.98
601.28	395.55
601.44	414.27
601.59	337.04
601.75	374.49
601.91	414.27
602.06	456.40
602.22	433.00
602.37	468.11
602.53	470.45
602.69	428.32
602.84	421.30
603.00	348.74
603.16	402.57
603.31	470.45
603.47	458.74
603.62	374.49
603.78	458.74
603.94	418.96
604.09	402.57
604.25	454.06
604.40	395.55
604.56	428.32
604.71	430.66
604.87	341.72
605.03	409.59
605.18	505.56
605.34	440.02
605.49	461.09
605.65	383.85
605.80	411.93
605.96	435.34
606.12	386.19
606.27	390.87
606.43	418.96
606.58	407.25
606.74	376.83
606.89	411.93
607.05	447.04
607.20	407.25
607.36	411.93
607.51	374.49
607.67	428.32
607.82	470.45
607.98	493.85
608.13	433.00
608.29	428.32
608.44	468.11
608.60	355.76
608.75	442.36
608.91	435.34
609.06	468.11
609.22	437.68
609.37	381.51
609.53	456.40
609.68	393.21
609.84	404.91
609.99	372.15
610.15	433.00
