SpectraSuite Data File
++++++++++++++++++++++++++++++++++++
Date: Fri Oct 25 12:10:50 EDT 2013
User: price-jones
Dark Spectrum Present: No
Reference Spectrum Present: No
Number of Sampled Component Spectra: 1
Spectrometers: USB2+H05261
Integration Time (usec): 100000 (USB2+H05261)
Spectra Averaged: 1 (USB2+H05261)
Boxcar Smoothing: 0 (USB2+H05261)
Correct for Electrical Dark: No (USB2+H05261)
Strobe/Lamp Enabled: No (USB2+H05261)
Correct for Detector Non-linearity: No (USB2+H05261)
Correct for Stray Light: No (USB2+H05261)
Number of Pixels in Processed Spectrum: 2048
>>>>>Begin Processed Spectral Data<<<<<
365.73	327.68
365.92	327.68
366.12	327.68
366.32	245.76
366.52	243.42
366.72	271.50
366.91	215.33
367.11	187.24
367.31	138.09
367.51	205.97
367.70	252.78
367.90	210.65
368.10	271.50
368.30	220.01
368.49	238.73
368.69	332.36
368.89	227.03
369.09	245.76
369.28	257.46
369.48	255.12
369.68	250.44
369.87	337.04
370.07	337.04
370.27	301.93
370.47	269.16
370.66	362.78
370.86	299.59
371.06	280.86
371.25	393.21
371.45	379.17
371.65	421.30
371.84	341.72
372.04	304.27
372.24	379.17
372.44	337.04
372.63	362.78
372.83	421.30
373.03	318.31
373.22	353.42
373.42	407.25
373.62	437.68
373.81	440.02
374.01	411.93
374.21	416.62
374.40	414.27
374.60	451.72
374.79	374.49
374.99	416.62
375.19	437.68
375.38	428.32
375.58	477.47
375.78	500.87
375.97	433.00
376.17	458.74
376.37	505.56
376.56	400.23
376.76	447.04
376.95	414.27
377.15	390.87
377.35	463.43
377.54	428.32
377.74	437.68
377.93	372.15
378.13	388.53
378.33	482.15
378.52	418.96
378.72	386.19
378.91	402.57
379.11	425.98
379.31	400.23
379.50	433.00
379.70	409.59
379.89	435.34
380.09	383.85
380.28	353.42
380.48	397.89
380.68	416.62
380.87	435.34
381.07	397.89
381.26	440.02
381.46	388.53
381.65	423.64
381.85	400.23
382.04	430.66
382.24	388.53
382.43	369.80
382.63	433.00
382.83	456.40
383.02	430.66
383.22	444.70
383.41	372.15
383.61	400.23
383.80	430.66
384.00	372.15
384.19	358.10
384.39	409.59
384.58	404.91
384.78	376.83
384.97	381.51
385.17	360.44
385.36	348.74
385.56	386.19
385.75	320.65
385.95	341.72
386.14	379.17
386.34	332.36
386.53	386.19
386.72	397.89
386.92	475.13
387.11	386.19
387.31	411.93
387.50	411.93
387.70	346.40
387.89	395.55
388.09	456.40
388.28	444.70
388.48	430.66
388.67	372.15
388.86	444.70
389.06	365.12
389.25	404.91
389.45	360.44
389.64	409.59
389.84	437.68
390.03	423.64
390.22	362.78
390.42	425.98
390.61	430.66
390.81	360.44
391.00	472.79
391.19	383.85
391.39	423.64
391.58	388.53
391.78	411.93
391.97	428.32
392.16	360.44
392.36	376.83
392.55	397.89
392.75	465.77
392.94	409.59
393.13	437.68
393.33	376.83
393.52	414.27
393.71	360.44
393.91	442.36
394.10	463.43
394.29	383.85
394.49	390.87
394.68	334.70
394.88	421.30
395.07	449.38
395.26	465.77
395.46	489.17
395.65	463.43
395.84	437.68
396.04	472.79
396.23	388.53
396.42	479.81
396.62	468.11
396.81	461.09
397.00	447.04
397.19	390.87
397.39	428.32
397.58	421.30
397.77	416.62
397.97	451.72
398.16	383.85
398.35	402.57
398.55	355.76
398.74	451.72
398.93	360.44
399.12	367.46
399.32	418.96
399.51	454.06
399.70	430.66
399.90	372.15
400.09	374.49
400.28	395.55
400.47	337.04
400.67	447.04
400.86	425.98
401.05	440.02
401.24	416.62
401.44	388.53
401.63	435.34
401.82	402.57
402.01	437.68
402.21	390.87
402.40	435.34
402.59	454.06
402.78	404.91
402.97	400.23
403.17	440.02
403.36	402.57
403.55	367.46
403.74	407.25
403.93	388.53
404.13	451.72
404.32	360.44
404.51	428.32
404.70	369.80
404.89	362.78
405.09	407.25
405.28	383.85
405.47	369.80
405.66	449.38
405.85	386.19
406.05	435.34
406.24	416.62
406.43	395.55
406.62	418.96
406.81	400.23
407.00	423.64
407.20	402.57
407.39	430.66
407.58	355.76
407.77	393.21
407.96	421.30
408.15	444.70
408.34	381.51
408.54	369.80
408.73	416.62
408.92	442.36
409.11	475.13
409.30	367.46
409.49	409.59
409.68	390.87
409.87	428.32
410.07	365.12
410.26	425.98
410.45	416.62
410.64	437.68
410.83	402.57
411.02	416.62
411.21	428.32
411.40	437.68
411.59	418.96
411.78	348.74
411.98	430.66
412.17	428.32
412.36	418.96
412.55	421.30
412.74	425.98
412.93	458.74
413.12	475.13
413.31	369.80
413.50	395.55
413.69	409.59
413.88	442.36
414.07	411.93
414.26	369.80
414.45	414.27
414.64	423.64
414.83	421.30
415.02	423.64
415.22	400.23
415.41	372.15
415.60	437.68
415.79	423.64
415.98	465.77
416.17	430.66
416.36	416.62
416.55	418.96
416.74	416.62
416.93	353.42
417.12	437.68
417.31	374.49
417.50	381.51
417.69	463.43
417.88	456.40
418.07	404.91
418.26	344.06
418.45	423.64
418.64	444.70
418.83	341.72
419.02	334.70
419.21	369.80
419.39	386.19
419.58	386.19
419.77	463.43
419.96	463.43
420.15	472.79
420.34	351.08
420.53	393.21
420.72	449.38
420.91	369.80
421.10	386.19
421.29	425.98
421.48	379.17
421.67	440.02
421.86	400.23
422.05	468.11
422.24	407.25
422.43	337.04
422.61	423.64
422.80	379.17
422.99	348.74
423.18	379.17
423.37	477.47
423.56	430.66
423.75	358.10
423.94	360.44
424.13	465.77
424.32	421.30
424.50	428.32
424.69	402.57
424.88	447.04
425.07	404.91
425.26	418.96
425.45	440.02
425.64	386.19
425.83	362.78
426.01	388.53
426.20	440.02
426.39	353.42
426.58	463.43
426.77	458.74
426.96	346.40
427.15	390.87
427.33	332.36
427.52	344.06
427.71	379.17
427.90	433.00
428.09	395.55
428.28	421.30
428.46	440.02
428.65	428.32
428.84	449.38
429.03	400.23
429.22	425.98
429.40	425.98
429.59	318.31
429.78	440.02
429.97	376.83
430.16	421.30
430.34	390.87
430.53	351.08
430.72	397.89
430.91	397.89
431.10	390.87
431.28	346.40
431.47	472.79
431.66	383.85
431.85	369.80
432.03	383.85
432.22	402.57
432.41	344.06
432.60	491.51
432.79	397.89
432.97	489.17
433.16	348.74
433.35	447.04
433.54	353.42
433.72	344.06
433.91	477.47
434.10	425.98
434.28	365.12
434.47	435.34
434.66	421.30
434.85	388.53
435.03	362.78
435.22	489.17
435.41	486.83
435.59	437.68
435.78	355.76
435.97	348.74
436.16	440.02
436.34	421.30
436.53	479.81
436.72	376.83
436.90	414.27
437.09	390.87
437.28	313.63
437.46	407.25
437.65	435.34
437.84	416.62
438.02	409.59
438.21	404.91
438.40	428.32
438.58	465.77
438.77	393.21
438.96	447.04
439.14	374.49
439.33	367.46
439.52	358.10
439.70	428.32
439.89	472.79
440.08	353.42
440.26	379.17
440.45	430.66
440.63	404.91
440.82	470.45
441.01	433.00
441.19	404.91
441.38	512.58
441.57	414.27
441.75	449.38
441.94	435.34
442.12	362.78
442.31	428.32
442.50	409.59
442.68	400.23
442.87	437.68
443.05	360.44
443.24	388.53
443.43	456.40
443.61	355.76
443.80	376.83
443.98	442.36
444.17	456.40
444.35	372.15
444.54	400.23
444.73	440.02
444.91	418.96
445.10	421.30
445.28	447.04
445.47	388.53
445.65	400.23
445.84	463.43
446.02	435.34
446.21	411.93
446.39	421.30
446.58	407.25
446.77	428.32
446.95	393.21
447.14	414.27
447.32	437.68
447.51	500.87
447.69	365.12
447.88	451.72
448.06	444.70
448.25	416.62
448.43	468.11
448.62	372.15
448.80	409.59
448.99	470.45
449.17	409.59
449.36	423.64
449.54	458.74
449.73	437.68
449.91	381.51
450.10	388.53
450.28	421.30
450.46	404.91
450.65	456.40
450.83	346.40
451.02	433.00
451.20	395.55
451.39	463.43
451.57	435.34
451.76	397.89
451.94	430.66
452.13	486.83
452.31	496.19
452.49	423.64
452.68	416.62
452.86	456.40
453.05	440.02
453.23	407.25
453.42	437.68
453.60	456.40
453.78	442.36
453.97	374.49
454.15	400.23
454.34	435.34
454.52	360.44
454.70	374.49
454.89	393.21
455.07	365.12
455.26	421.30
455.44	386.19
455.62	400.23
455.81	454.06
455.99	388.53
456.17	461.09
456.36	409.59
456.54	468.11
456.73	358.10
456.91	465.77
457.09	369.80
457.28	475.13
457.46	423.64
457.64	425.98
457.83	470.45
458.01	395.55
458.19	402.57
458.38	411.93
458.56	376.83
458.74	360.44
458.93	416.62
459.11	449.38
459.29	416.62
459.48	360.44
459.66	491.51
459.84	428.32
460.03	447.04
460.21	409.59
460.39	430.66
460.57	409.59
460.76	428.32
460.94	411.93
461.12	514.92
461.31	414.27
461.49	402.57
461.67	367.46
461.85	404.91
462.04	472.79
462.22	781.74
462.40	418.96
462.59	468.11
462.77	414.27
462.95	348.74
463.13	414.27
463.32	461.09
463.50	437.68
463.68	411.93
463.86	416.62
464.05	386.19
464.23	397.89
464.41	418.96
464.59	400.23
464.78	411.93
464.96	395.55
465.14	381.51
465.32	404.91
465.50	463.43
465.69	409.59
465.87	355.76
466.05	433.00
466.23	451.72
466.41	428.32
466.60	411.93
466.78	503.22
466.96	435.34
467.14	477.47
467.32	456.40
467.51	447.04
467.69	388.53
467.87	458.74
468.05	365.12
468.23	447.04
468.41	430.66
468.60	346.40
468.78	409.59
468.96	388.53
469.14	390.87
469.32	386.19
469.50	358.10
469.69	409.59
469.87	397.89
470.05	376.83
470.23	407.25
470.41	407.25
470.59	388.53
470.77	484.49
470.95	416.62
471.14	414.27
471.32	390.87
471.50	463.43
471.68	358.10
471.86	472.79
472.04	428.32
472.22	381.51
472.40	411.93
472.58	397.89
472.77	440.02
472.95	397.89
473.13	414.27
473.31	449.38
473.49	369.80
473.67	344.06
473.85	360.44
474.03	388.53
474.21	451.72
474.39	451.72
474.57	411.93
474.75	444.70
474.93	404.91
475.12	390.87
475.30	311.29
475.48	299.59
475.66	404.91
475.84	421.30
476.02	451.72
476.20	447.04
476.38	383.85
476.56	517.26
476.74	402.57
476.92	400.23
477.10	449.38
477.28	397.89
477.46	421.30
477.64	423.64
477.82	409.59
478.00	482.15
478.18	393.21
478.36	379.17
478.54	409.59
478.72	411.93
478.90	383.85
479.08	451.72
479.26	372.15
479.44	397.89
479.62	416.62
479.80	425.98
479.98	381.51
480.16	416.62
480.34	416.62
480.52	402.57
480.70	437.68
480.88	411.93
481.06	395.55
481.24	390.87
481.41	409.59
481.59	475.13
481.77	409.59
481.95	433.00
482.13	442.36
482.31	390.87
482.49	369.80
482.67	397.89
482.85	411.93
483.03	442.36
483.21	449.38
483.39	390.87
483.57	397.89
483.74	395.55
483.92	425.98
484.10	360.44
484.28	435.34
484.46	444.70
484.64	376.83
484.82	353.42
485.00	458.74
485.18	400.23
485.35	421.30
485.53	458.74
485.71	435.34
485.89	390.87
486.07	409.59
486.25	428.32
486.43	367.46
486.61	407.25
486.78	437.68
486.96	404.91
487.14	414.27
487.32	409.59
487.50	388.53
487.68	400.23
487.85	358.10
488.03	430.66
488.21	447.04
488.39	369.80
488.57	407.25
488.75	449.38
488.92	498.53
489.10	454.06
489.28	463.43
489.46	395.55
489.64	428.32
489.81	428.32
489.99	440.02
490.17	390.87
490.35	402.57
490.53	451.72
490.70	381.51
490.88	430.66
491.06	440.02
491.24	409.59
491.41	411.93
491.59	437.68
491.77	451.72
491.95	393.21
492.13	379.17
492.30	379.17
492.48	395.55
492.66	360.44
492.84	425.98
493.01	468.11
493.19	337.04
493.37	507.90
493.54	425.98
493.72	423.64
493.90	402.57
494.08	353.42
494.25	362.78
494.43	409.59
494.61	395.55
494.79	421.30
494.96	381.51
495.14	416.62
495.32	365.12
495.49	374.49
495.67	346.40
495.85	346.40
496.02	440.02
496.20	472.79
496.38	472.79
496.55	393.21
496.73	376.83
496.91	425.98
497.09	489.17
497.26	409.59
497.44	484.49
497.62	414.27
497.79	482.15
497.97	376.83
498.14	468.11
498.32	400.23
498.50	407.25
498.67	407.25
498.85	367.46
499.03	461.09
499.20	416.62
499.38	390.87
499.56	411.93
499.73	440.02
499.91	402.57
500.08	425.98
500.26	395.55
500.44	416.62
500.61	465.77
500.79	379.17
500.97	482.15
501.14	414.27
501.32	388.53
501.49	451.72
501.67	425.98
501.84	421.30
502.02	390.87
502.20	440.02
502.37	407.25
502.55	367.46
502.72	395.55
502.90	425.98
503.07	428.32
503.25	372.15
503.43	407.25
503.60	512.58
503.78	430.66
503.95	430.66
504.13	437.68
504.30	449.38
504.48	353.42
504.65	456.40
504.83	423.64
505.01	404.91
505.18	449.38
505.36	447.04
505.53	411.93
505.71	435.34
505.88	435.34
506.06	414.27
506.23	402.57
506.41	388.53
506.58	440.02
506.76	397.89
506.93	400.23
507.11	407.25
507.28	379.17
507.46	461.09
507.63	390.87
507.81	477.47
507.98	360.44
508.16	397.89
508.33	442.36
508.50	395.55
508.68	449.38
508.85	440.02
509.03	374.49
509.20	402.57
509.38	346.40
509.55	500.87
509.73	475.13
509.90	454.06
510.08	500.87
510.25	449.38
510.42	402.57
510.60	369.80
510.77	386.19
510.95	433.00
511.12	383.85
511.30	423.64
511.47	477.47
511.64	433.00
511.82	386.19
511.99	383.85
512.17	404.91
512.34	428.32
512.51	421.30
512.69	393.21
512.86	449.38
513.04	430.66
513.21	421.30
513.38	447.04
513.56	383.85
513.73	454.06
513.90	404.91
514.08	360.44
514.25	430.66
514.43	393.21
514.60	454.06
514.77	395.55
514.95	416.62
515.12	367.46
515.29	430.66
515.47	397.89
515.64	414.27
515.81	388.53
515.99	411.93
516.16	397.89
516.33	428.32
516.51	433.00
516.68	402.57
516.85	360.44
517.03	463.43
517.20	388.53
517.37	337.04
517.54	397.89
517.72	421.30
517.89	365.12
518.06	428.32
518.24	416.62
518.41	440.02
518.58	395.55
518.75	369.80
518.93	435.34
519.10	454.06
519.27	423.64
519.45	411.93
519.62	435.34
519.79	449.38
519.96	433.00
520.14	477.47
520.31	411.93
520.48	486.83
520.65	418.96
520.83	440.02
521.00	414.27
521.17	362.78
521.34	348.74
521.52	358.10
521.69	369.80
521.86	400.23
522.03	409.59
522.20	411.93
522.38	418.96
522.55	430.66
522.72	435.34
522.89	418.96
523.07	449.38
523.24	507.90
523.41	365.12
523.58	393.21
523.75	358.10
523.92	365.12
524.10	425.98
524.27	369.80
524.44	379.17
524.61	386.19
524.78	428.32
524.96	451.72
525.13	463.43
525.30	421.30
525.47	416.62
525.64	409.59
525.81	477.47
525.98	348.74
526.16	437.68
526.33	369.80
526.50	416.62
526.67	416.62
526.84	451.72
527.01	416.62
527.18	477.47
527.36	425.98
527.53	330.02
527.70	407.25
527.87	465.77
528.04	486.83
528.21	381.51
528.38	418.96
528.55	416.62
528.72	430.66
528.89	407.25
529.07	416.62
529.24	386.19
529.41	428.32
529.58	402.57
529.75	428.32
529.92	393.21
530.09	461.09
530.26	430.66
530.43	393.21
530.60	348.74
530.77	461.09
530.94	435.34
531.11	383.85
531.28	423.64
531.46	369.80
531.63	409.59
531.80	393.21
531.97	447.04
532.14	423.64
532.31	409.59
532.48	463.43
532.65	482.15
532.82	465.77
532.99	383.85
533.16	496.19
533.33	430.66
533.50	425.98
533.67	381.51
533.84	477.47
534.01	451.72
534.18	395.55
534.35	400.23
534.52	414.27
534.69	374.49
534.86	449.38
535.03	397.89
535.20	404.91
535.37	411.93
535.54	433.00
535.71	372.15
535.88	512.58
536.05	397.89
536.22	416.62
536.38	421.30
536.55	437.68
536.72	477.47
536.89	351.08
537.06	454.06
537.23	428.32
537.40	440.02
537.57	358.10
537.74	482.15
537.91	423.64
538.08	456.40
538.25	503.22
538.42	425.98
538.59	341.72
538.75	400.23
538.92	404.91
539.09	367.46
539.26	376.83
539.43	407.25
539.60	407.25
539.77	468.11
539.94	428.32
540.11	472.79
540.28	360.44
540.44	465.77
540.61	433.00
540.78	451.72
540.95	388.53
541.12	360.44
541.29	477.47
541.46	353.42
541.62	449.38
541.79	388.53
541.96	435.34
542.13	451.72
542.30	374.49
542.47	367.46
542.63	397.89
542.80	421.30
542.97	348.74
543.14	449.38
543.31	507.90
543.48	418.96
543.64	402.57
543.81	379.17
543.98	395.55
544.15	383.85
544.32	386.19
544.48	449.38
544.65	428.32
544.82	379.17
544.99	404.91
545.16	465.77
545.32	442.36
545.49	369.80
545.66	404.91
545.83	456.40
546.00	381.51
546.16	341.72
546.33	442.36
546.50	395.55
546.67	400.23
546.83	421.30
547.00	423.64
547.17	376.83
547.34	416.62
547.50	388.53
547.67	435.34
547.84	496.19
548.00	423.64
548.17	372.15
548.34	322.99
548.51	435.34
548.67	379.17
548.84	379.17
549.01	402.57
549.18	414.27
549.34	428.32
549.51	407.25
549.68	390.87
549.84	430.66
550.01	407.25
550.18	519.60
550.34	472.79
550.51	465.77
550.68	437.68
550.84	421.30
551.01	409.59
551.18	458.74
551.34	407.25
551.51	477.47
551.68	369.80
551.84	423.64
552.01	386.19
552.18	388.53
552.34	400.23
552.51	351.08
552.68	425.98
552.84	465.77
553.01	449.38
553.18	461.09
553.34	418.96
553.51	437.68
553.67	433.00
553.84	449.38
554.01	479.81
554.17	411.93
554.34	390.87
554.51	416.62
554.67	421.30
554.84	369.80
555.00	383.85
555.17	367.46
555.33	416.62
555.50	407.25
555.67	423.64
555.83	393.21
556.00	402.57
556.16	463.43
556.33	428.32
556.50	383.85
556.66	414.27
556.83	411.93
556.99	484.49
557.16	435.34
557.32	425.98
557.49	337.04
557.65	362.78
557.82	482.15
557.98	365.12
558.15	435.34
558.32	360.44
558.48	430.66
558.65	393.21
558.81	477.47
558.98	510.24
559.14	463.43
559.31	400.23
559.47	433.00
559.64	400.23
559.80	451.72
559.97	430.66
560.13	451.72
560.30	388.53
560.46	456.40
560.63	365.12
560.79	400.23
560.96	414.27
561.12	395.55
561.29	447.04
561.45	388.53
561.61	360.44
561.78	444.70
561.94	444.70
562.11	400.23
562.27	442.36
562.44	418.96
562.60	402.57
562.77	414.27
562.93	454.06
563.10	503.22
563.26	411.93
563.42	447.04
563.59	425.98
563.75	461.09
563.92	423.64
564.08	411.93
564.24	430.66
564.41	444.70
564.57	409.59
564.74	402.57
564.90	461.09
565.07	414.27
565.23	414.27
565.39	484.49
565.56	442.36
565.72	482.15
565.88	395.55
566.05	344.06
566.21	383.85
566.38	479.81
566.54	552.37
566.70	447.04
566.87	447.04
567.03	362.78
567.19	358.10
567.36	411.93
567.52	416.62
567.68	393.21
567.85	456.40
568.01	414.27
568.17	456.40
568.34	489.17
568.50	425.98
568.66	379.17
568.83	496.19
568.99	358.10
569.15	470.45
569.32	475.13
569.48	416.62
569.64	362.78
569.81	430.66
569.97	407.25
570.13	418.96
570.30	475.13
570.46	449.38
570.62	433.00
570.78	402.57
570.95	330.02
571.11	477.47
571.27	468.11
571.43	433.00
571.60	435.34
571.76	425.98
571.92	451.72
572.09	435.34
572.25	395.55
572.41	423.64
572.57	397.89
572.74	440.02
572.90	447.04
573.06	470.45
573.22	447.04
573.38	355.76
573.55	402.57
573.71	435.34
573.87	449.38
574.03	461.09
574.20	402.57
574.36	465.77
574.52	440.02
574.68	442.36
574.84	519.60
575.01	409.59
575.17	407.25
575.33	423.64
575.49	435.34
575.65	425.98
575.82	484.49
575.98	437.68
576.14	390.87
576.30	435.34
576.46	418.96
576.62	414.27
576.79	458.74
576.95	442.36
577.11	416.62
577.27	435.34
577.43	388.53
577.59	458.74
577.75	477.47
577.92	428.32
578.08	379.17
578.24	386.19
578.40	395.55
578.56	383.85
578.72	444.70
578.88	421.30
579.04	397.89
579.21	393.21
579.37	456.40
579.53	449.38
579.69	430.66
579.85	418.96
580.01	430.66
580.17	430.66
580.33	421.30
580.49	418.96
580.65	484.49
580.82	458.74
580.98	440.02
581.14	454.06
581.30	423.64
581.46	449.38
581.62	503.22
581.78	397.89
581.94	465.77
582.10	346.40
582.26	379.17
582.42	355.76
582.58	386.19
582.74	372.15
582.90	411.93
583.06	428.32
583.22	418.96
583.38	362.78
583.54	369.80
583.70	444.70
583.86	411.93
584.02	379.17
584.18	449.38
584.34	421.30
584.50	395.55
584.66	428.32
584.82	418.96
584.98	414.27
585.14	479.81
585.30	498.53
585.46	383.85
585.62	433.00
585.78	416.62
585.94	451.72
586.10	388.53
586.26	440.02
586.42	418.96
586.58	428.32
586.74	294.91
586.90	451.72
587.06	402.57
587.22	468.11
587.38	418.96
587.54	425.98
587.70	444.70
587.86	409.59
588.02	491.51
588.18	449.38
588.34	416.62
588.49	383.85
588.65	397.89
588.81	447.04
588.97	423.64
589.13	379.17
589.29	411.93
589.45	444.70
589.61	482.15
589.77	468.11
589.93	409.59
590.08	411.93
590.24	346.40
590.40	393.21
590.56	348.74
590.72	437.68
590.88	400.23
591.04	435.34
591.20	400.23
591.35	442.36
591.51	390.87
591.67	365.12
591.83	379.17
591.99	449.38
592.15	442.36
592.31	442.36
592.46	397.89
592.62	449.38
592.78	397.89
592.94	463.43
593.10	437.68
593.26	360.44
593.41	379.17
593.57	416.62
593.73	355.76
593.89	404.91
594.05	442.36
594.20	430.66
594.36	454.06
594.52	418.96
594.68	444.70
594.84	458.74
594.99	498.53
595.15	362.78
595.31	414.27
595.47	465.77
595.62	386.19
595.78	411.93
595.94	437.68
596.10	433.00
596.25	423.64
596.41	433.00
596.57	383.85
596.73	411.93
596.88	418.96
597.04	390.87
597.20	383.85
597.36	390.87
597.51	386.19
597.67	477.47
597.83	418.96
597.99	404.91
598.14	388.53
598.30	458.74
598.46	414.27
598.61	353.42
598.77	435.34
598.93	416.62
599.09	360.44
599.24	360.44
599.40	451.72
599.56	390.87
599.71	386.19
599.87	341.72
600.03	470.45
600.18	383.85
600.34	433.00
600.50	383.85
600.65	390.87
600.81	355.76
600.97	524.28
601.12	423.64
601.28	428.32
601.44	397.89
601.59	411.93
601.75	400.23
601.91	372.15
602.06	388.53
602.22	472.79
602.37	390.87
602.53	383.85
602.69	404.91
602.84	360.44
603.00	383.85
603.16	449.38
603.31	428.32
603.47	470.45
603.62	390.87
603.78	395.55
603.94	418.96
604.09	461.09
604.25	458.74
604.40	430.66
604.56	440.02
604.71	400.23
604.87	451.72
605.03	435.34
605.18	444.70
605.34	425.98
605.49	430.66
605.65	421.30
605.80	421.30
605.96	397.89
606.12	454.06
606.27	477.47
606.43	437.68
606.58	395.55
606.74	372.15
606.89	374.49
607.05	402.57
607.20	353.42
607.36	421.30
607.51	397.89
607.67	383.85
607.82	386.19
607.98	491.51
608.13	428.32
608.29	447.04
608.44	425.98
608.60	414.27
608.75	507.90
608.91	400.23
609.06	465.77
609.22	421.30
609.37	322.99
609.53	388.53
609.68	367.46
609.84	404.91
609.99	369.80
610.15	400.23
