SpectraSuite Data File
++++++++++++++++++++++++++++++++++++
Date: Fri Oct 25 12:10:18 EDT 2013
User: price-jones
Dark Spectrum Present: No
Reference Spectrum Present: No
Number of Sampled Component Spectra: 1
Spectrometers: USB2+H05261
Integration Time (usec): 100000 (USB2+H05261)
Spectra Averaged: 1 (USB2+H05261)
Boxcar Smoothing: 0 (USB2+H05261)
Correct for Electrical Dark: No (USB2+H05261)
Strobe/Lamp Enabled: No (USB2+H05261)
Correct for Detector Non-linearity: No (USB2+H05261)
Correct for Stray Light: No (USB2+H05261)
Number of Pixels in Processed Spectrum: 2048
>>>>>Begin Processed Spectral Data<<<<<
365.73	383.85
365.92	383.85
366.12	383.85
366.32	271.50
366.52	290.23
366.72	283.20
366.91	238.73
367.11	287.89
367.31	217.67
367.51	255.12
367.70	271.50
367.90	252.78
368.10	292.57
368.30	248.10
368.49	297.25
368.69	264.48
368.89	287.89
369.09	245.76
369.28	271.50
369.48	283.20
369.68	287.89
369.87	320.65
370.07	255.12
370.27	337.04
370.47	355.76
370.66	304.27
370.86	315.97
371.06	404.91
371.25	381.51
371.45	330.02
371.65	369.80
371.84	367.46
372.04	346.40
372.24	416.62
372.44	376.83
372.63	383.85
372.83	388.53
373.03	386.19
373.22	442.36
373.42	334.70
373.62	423.64
373.81	430.66
374.01	381.51
374.21	402.57
374.40	379.17
374.60	393.21
374.79	395.55
374.99	395.55
375.19	423.64
375.38	430.66
375.58	440.02
375.78	449.38
375.97	383.85
376.17	447.04
376.37	444.70
376.56	425.98
376.76	379.17
376.95	402.57
377.15	374.49
377.35	404.91
377.54	404.91
377.74	344.06
377.93	397.89
378.13	404.91
378.33	411.93
378.52	390.87
378.72	372.15
378.91	461.09
379.11	414.27
379.31	330.02
379.50	395.55
379.70	402.57
379.89	433.00
380.09	437.68
380.28	369.80
380.48	430.66
380.68	376.83
380.87	355.76
381.07	421.30
381.26	472.79
381.46	404.91
381.65	414.27
381.85	369.80
382.04	395.55
382.24	390.87
382.43	386.19
382.63	339.38
382.83	409.59
383.02	395.55
383.22	451.72
383.41	416.62
383.61	390.87
383.80	414.27
384.00	374.49
384.19	409.59
384.39	418.96
384.58	409.59
384.78	374.49
384.97	397.89
385.17	348.74
385.36	404.91
385.56	418.96
385.75	421.30
385.95	374.49
386.14	330.02
386.34	390.87
386.53	395.55
386.72	393.21
386.92	482.15
387.11	416.62
387.31	437.68
387.50	379.17
387.70	407.25
387.89	416.62
388.09	376.83
388.28	451.72
388.48	367.46
388.67	390.87
388.86	409.59
389.06	369.80
389.25	390.87
389.45	365.12
389.64	435.34
389.84	418.96
390.03	433.00
390.22	444.70
390.42	369.80
390.61	449.38
390.81	362.78
391.00	442.36
391.19	416.62
391.39	379.17
391.58	388.53
391.78	477.47
391.97	407.25
392.16	428.32
392.36	411.93
392.55	386.19
392.75	390.87
392.94	372.15
393.13	383.85
393.33	388.53
393.52	411.93
393.71	507.90
393.91	421.30
394.10	332.36
394.29	355.76
394.49	447.04
394.68	421.30
394.88	479.81
395.07	409.59
395.26	372.15
395.46	475.13
395.65	390.87
395.84	360.44
396.04	505.56
396.23	468.11
396.42	416.62
396.62	400.23
396.81	355.76
397.00	447.04
397.19	374.49
397.39	437.68
397.58	437.68
397.77	358.10
397.97	369.80
398.16	390.87
398.35	388.53
398.55	449.38
398.74	418.96
398.93	381.51
399.12	379.17
399.32	440.02
399.51	376.83
399.70	400.23
399.90	430.66
400.09	416.62
400.28	425.98
400.47	386.19
400.67	383.85
400.86	353.42
401.05	337.04
401.24	404.91
401.44	458.74
401.63	435.34
401.82	374.49
402.01	393.21
402.21	404.91
402.40	400.23
402.59	383.85
402.78	442.36
402.97	433.00
403.17	330.02
403.36	437.68
403.55	341.72
403.74	393.21
403.93	395.55
404.13	496.19
404.32	339.38
404.51	355.76
404.70	397.89
404.89	360.44
405.09	411.93
405.28	390.87
405.47	407.25
405.66	383.85
405.85	379.17
406.05	390.87
406.24	355.76
406.43	451.72
406.62	416.62
406.81	479.81
407.00	428.32
407.20	437.68
407.39	353.42
407.58	339.38
407.77	369.80
407.96	451.72
408.15	435.34
408.34	418.96
408.54	507.90
408.73	386.19
408.92	435.34
409.11	360.44
409.30	365.12
409.49	400.23
409.68	386.19
409.87	395.55
410.07	308.95
410.26	421.30
410.45	390.87
410.64	358.10
410.83	334.70
411.02	407.25
411.21	409.59
411.40	402.57
411.59	351.08
411.78	358.10
411.98	482.15
412.17	372.15
412.36	437.68
412.55	355.76
412.74	381.51
412.93	393.21
413.12	381.51
413.31	447.04
413.50	440.02
413.69	393.21
413.88	461.09
414.07	437.68
414.26	414.27
414.45	428.32
414.64	418.96
414.83	442.36
415.02	461.09
415.22	423.64
415.41	397.89
415.60	433.00
415.79	341.72
415.98	367.46
416.17	400.23
416.36	393.21
416.55	379.17
416.74	423.64
416.93	367.46
417.12	346.40
417.31	388.53
417.50	425.98
417.69	379.17
417.88	397.89
418.07	416.62
418.26	390.87
418.45	365.12
418.64	386.19
418.83	376.83
419.02	456.40
419.21	327.68
419.39	395.55
419.58	454.06
419.77	379.17
419.96	381.51
420.15	407.25
420.34	407.25
420.53	407.25
420.72	353.42
420.91	428.32
421.10	428.32
421.29	458.74
421.48	416.62
421.67	372.15
421.86	416.62
422.05	430.66
422.24	388.53
422.43	416.62
422.61	409.59
422.80	348.74
422.99	395.55
423.18	400.23
423.37	367.46
423.56	334.70
423.75	374.49
423.94	407.25
424.13	418.96
424.32	428.32
424.50	442.36
424.69	409.59
424.88	468.11
425.07	444.70
425.26	346.40
425.45	388.53
425.64	400.23
425.83	383.85
426.01	425.98
426.20	402.57
426.39	294.91
426.58	355.76
426.77	440.02
426.96	397.89
427.15	404.91
427.33	451.72
427.52	470.45
427.71	421.30
427.90	402.57
428.09	423.64
428.28	437.68
428.46	402.57
428.65	468.11
428.84	390.87
429.03	425.98
429.22	411.93
429.40	330.02
429.59	393.21
429.78	395.55
429.97	395.55
430.16	425.98
430.34	388.53
430.53	374.49
430.72	362.78
430.91	425.98
431.10	430.66
431.28	386.19
431.47	433.00
431.66	454.06
431.85	393.21
432.03	381.51
432.22	482.15
432.41	482.15
432.60	358.10
432.79	344.06
432.97	390.87
433.16	362.78
433.35	454.06
433.54	430.66
433.72	390.87
433.91	404.91
434.10	334.70
434.28	418.96
434.47	355.76
434.66	418.96
434.85	435.34
435.03	376.83
435.22	449.38
435.41	449.38
435.59	447.04
435.78	451.72
435.97	376.83
436.16	435.34
436.34	355.76
436.53	428.32
436.72	461.09
436.90	451.72
437.09	470.45
437.28	425.98
437.46	395.55
437.65	425.98
437.84	397.89
438.02	423.64
438.21	475.13
438.40	367.46
438.58	402.57
438.77	318.31
438.96	390.87
439.14	437.68
439.33	365.12
439.52	440.02
439.70	447.04
439.89	425.98
440.08	332.36
440.26	386.19
440.45	346.40
440.63	437.68
440.82	435.34
441.01	465.77
441.19	400.23
441.38	341.72
441.57	355.76
441.75	381.51
441.94	416.62
442.12	407.25
442.31	425.98
442.50	369.80
442.68	397.89
442.87	421.30
443.05	402.57
443.24	390.87
443.43	442.36
443.61	390.87
443.80	388.53
443.98	367.46
444.17	440.02
444.35	437.68
444.54	402.57
444.73	369.80
444.91	447.04
445.10	400.23
445.28	381.51
445.47	402.57
445.65	409.59
445.84	400.23
446.02	409.59
446.21	393.21
446.39	456.40
446.58	381.51
446.77	414.27
446.95	411.93
447.14	430.66
447.32	449.38
447.51	365.12
447.69	442.36
447.88	374.49
448.06	435.34
448.25	425.98
448.43	388.53
448.62	430.66
448.80	442.36
448.99	411.93
449.17	379.17
449.36	458.74
449.54	486.83
449.73	454.06
449.91	393.21
450.10	379.17
450.28	463.43
450.46	409.59
450.65	489.17
450.83	407.25
451.02	402.57
451.20	402.57
451.39	365.12
451.57	482.15
451.76	383.85
451.94	418.96
452.13	423.64
452.31	468.11
452.49	414.27
452.68	400.23
452.86	428.32
453.05	416.62
453.23	393.21
453.42	411.93
453.60	411.93
453.78	393.21
453.97	332.36
454.15	407.25
454.34	372.15
454.52	442.36
454.70	409.59
454.89	393.21
455.07	404.91
455.26	468.11
455.44	472.79
455.62	416.62
455.81	372.15
455.99	470.45
456.17	442.36
456.36	440.02
456.54	486.83
456.73	447.04
456.91	353.42
457.09	374.49
457.28	421.30
457.46	407.25
457.64	393.21
457.83	437.68
458.01	339.38
458.19	409.59
458.38	325.33
458.56	430.66
458.74	325.33
458.93	454.06
459.11	414.27
459.29	409.59
459.48	430.66
459.66	449.38
459.84	454.06
460.03	411.93
460.21	475.13
460.39	444.70
460.57	423.64
460.76	465.77
460.94	404.91
461.12	430.66
461.31	416.62
461.49	386.19
461.67	386.19
461.85	449.38
462.04	369.80
462.22	744.29
462.40	390.87
462.59	454.06
462.77	437.68
462.95	470.45
463.13	454.06
463.32	482.15
463.50	425.98
463.68	355.76
463.86	376.83
464.05	395.55
464.23	442.36
464.41	491.51
464.59	447.04
464.78	428.32
464.96	437.68
465.14	362.78
465.32	376.83
465.50	351.08
465.69	442.36
465.87	449.38
466.05	339.38
466.23	418.96
466.41	451.72
466.60	379.17
466.78	418.96
466.96	437.68
467.14	315.97
467.32	416.62
467.51	383.85
467.69	423.64
467.87	456.40
468.05	449.38
468.23	365.12
468.41	425.98
468.60	346.40
468.78	440.02
468.96	433.00
469.14	348.74
469.32	360.44
469.50	425.98
469.69	386.19
469.87	444.70
470.05	428.32
470.23	409.59
470.41	404.91
470.59	367.46
470.77	444.70
470.95	435.34
471.14	442.36
471.32	395.55
471.50	465.77
471.68	496.19
471.86	386.19
472.04	397.89
472.22	386.19
472.40	332.36
472.58	435.34
472.77	423.64
472.95	437.68
473.13	435.34
473.31	416.62
473.49	381.51
473.67	362.78
473.85	484.49
474.03	411.93
474.21	435.34
474.39	421.30
474.57	440.02
474.75	414.27
474.93	395.55
475.12	416.62
475.30	397.89
475.48	425.98
475.66	482.15
475.84	393.21
476.02	388.53
476.20	479.81
476.38	461.09
476.56	449.38
476.74	402.57
476.92	395.55
477.10	390.87
477.28	383.85
477.46	411.93
477.64	404.91
477.82	416.62
478.00	407.25
478.18	435.34
478.36	430.66
478.54	451.72
478.72	355.76
478.90	418.96
479.08	416.62
479.26	390.87
479.44	425.98
479.62	428.32
479.80	393.21
479.98	332.36
480.16	346.40
480.34	407.25
480.52	397.89
480.70	388.53
480.88	418.96
481.06	397.89
481.24	449.38
481.41	498.53
481.59	365.12
481.77	400.23
481.95	409.59
482.13	425.98
482.31	409.59
482.49	390.87
482.67	418.96
482.85	355.76
483.03	365.12
483.21	397.89
483.39	362.78
483.57	454.06
483.74	423.64
483.92	407.25
484.10	458.74
484.28	411.93
484.46	418.96
484.64	372.15
484.82	416.62
485.00	386.19
485.18	404.91
485.35	360.44
485.53	402.57
485.71	381.51
485.89	330.02
486.07	411.93
486.25	470.45
486.43	411.93
486.61	472.79
486.78	482.15
486.96	442.36
487.14	379.17
487.32	344.06
487.50	440.02
487.68	440.02
487.85	386.19
488.03	376.83
488.21	449.38
488.39	444.70
488.57	430.66
488.75	442.36
488.92	540.66
489.10	428.32
489.28	463.43
489.46	386.19
489.64	369.80
489.81	440.02
489.99	416.62
490.17	456.40
490.35	489.17
490.53	451.72
490.70	458.74
490.88	404.91
491.06	374.49
491.24	409.59
491.41	444.70
491.59	428.32
491.77	491.51
491.95	451.72
492.13	404.91
492.30	404.91
492.48	463.43
492.66	486.83
492.84	386.19
493.01	477.47
493.19	346.40
493.37	421.30
493.54	447.04
493.72	402.57
493.90	386.19
494.08	411.93
494.25	423.64
494.43	449.38
494.61	423.64
494.79	341.72
494.96	414.27
495.14	421.30
495.32	393.21
495.49	416.62
495.67	397.89
495.85	400.23
496.02	360.44
496.20	449.38
496.38	484.49
496.55	404.91
496.73	346.40
496.91	416.62
497.09	395.55
497.26	320.65
497.44	463.43
497.62	409.59
497.79	369.80
497.97	416.62
498.14	437.68
498.32	423.64
498.50	437.68
498.67	409.59
498.85	388.53
499.03	454.06
499.20	430.66
499.38	379.17
499.56	484.49
499.73	461.09
499.91	425.98
500.08	458.74
500.26	442.36
500.44	423.64
500.61	379.17
500.79	416.62
500.97	458.74
501.14	390.87
501.32	372.15
501.49	456.40
501.67	390.87
501.84	402.57
502.02	442.36
502.20	404.91
502.37	437.68
502.55	395.55
502.72	367.46
502.90	346.40
503.07	425.98
503.25	437.68
503.43	397.89
503.60	407.25
503.78	465.77
503.95	393.21
504.13	395.55
504.30	433.00
504.48	510.24
504.65	447.04
504.83	468.11
505.01	388.53
505.18	444.70
505.36	470.45
505.53	397.89
505.71	402.57
505.88	440.02
506.06	355.76
506.23	369.80
506.41	461.09
506.58	411.93
506.76	402.57
506.93	425.98
507.11	496.19
507.28	433.00
507.46	449.38
507.63	423.64
507.81	381.51
507.98	390.87
508.16	437.68
508.33	414.27
508.50	376.83
508.68	444.70
508.85	409.59
509.03	423.64
509.20	381.51
509.38	404.91
509.55	435.34
509.73	430.66
509.90	440.02
510.08	337.04
510.25	416.62
510.42	376.83
510.60	416.62
510.77	386.19
510.95	437.68
511.12	425.98
511.30	388.53
511.47	437.68
511.64	435.34
511.82	393.21
511.99	421.30
512.17	369.80
512.34	360.44
512.51	397.89
512.69	489.17
512.86	383.85
513.04	454.06
513.21	404.91
513.38	409.59
513.56	346.40
513.73	414.27
513.90	477.47
514.08	451.72
514.25	425.98
514.43	379.17
514.60	404.91
514.77	428.32
514.95	425.98
515.12	411.93
515.29	458.74
515.47	461.09
515.64	369.80
515.81	423.64
515.99	414.27
516.16	484.49
516.33	376.83
516.51	407.25
516.68	397.89
516.85	404.91
517.03	332.36
517.20	404.91
517.37	418.96
517.54	425.98
517.72	358.10
517.89	433.00
518.06	404.91
518.24	425.98
518.41	423.64
518.58	433.00
518.75	379.17
518.93	353.42
519.10	451.72
519.27	379.17
519.45	418.96
519.62	409.59
519.79	425.98
519.96	512.58
520.14	418.96
520.31	418.96
520.48	351.08
520.65	423.64
520.83	407.25
521.00	402.57
521.17	395.55
521.34	341.72
521.52	425.98
521.69	451.72
521.86	416.62
522.03	367.46
522.20	437.68
522.38	362.78
522.55	421.30
522.72	353.42
522.89	442.36
523.07	440.02
523.24	402.57
523.41	383.85
523.58	393.21
523.75	414.27
523.92	496.19
524.10	435.34
524.27	388.53
524.44	348.74
524.61	463.43
524.78	393.21
524.96	454.06
525.13	425.98
525.30	454.06
525.47	437.68
525.64	486.83
525.81	456.40
525.98	435.34
526.16	433.00
526.33	423.64
526.50	409.59
526.67	379.17
526.84	470.45
527.01	386.19
527.18	430.66
527.36	463.43
527.53	418.96
527.70	500.87
527.87	383.85
528.04	479.81
528.21	428.32
528.38	372.15
528.55	428.32
528.72	400.23
528.89	465.77
529.07	416.62
529.24	425.98
529.41	416.62
529.58	437.68
529.75	383.85
529.92	493.85
530.09	447.04
530.26	421.30
530.43	365.12
530.60	379.17
530.77	369.80
530.94	458.74
531.11	332.36
531.28	437.68
531.46	374.49
531.63	418.96
531.80	472.79
531.97	447.04
532.14	444.70
532.31	416.62
532.48	465.77
532.65	376.83
532.82	365.12
532.99	393.21
533.16	374.49
533.33	397.89
533.50	379.17
533.67	355.76
533.84	372.15
534.01	367.46
534.18	437.68
534.35	470.45
534.52	372.15
534.69	416.62
534.86	346.40
535.03	428.32
535.20	423.64
535.37	491.51
535.54	435.34
535.71	393.21
535.88	435.34
536.05	379.17
536.22	418.96
536.38	397.89
536.55	472.79
536.72	433.00
536.89	299.59
537.06	416.62
537.23	344.06
537.40	393.21
537.57	433.00
537.74	470.45
537.91	493.85
538.08	458.74
538.25	367.46
538.42	463.43
538.59	402.57
538.75	477.47
538.92	407.25
539.09	437.68
539.26	442.36
539.43	496.19
539.60	423.64
539.77	468.11
539.94	498.53
540.11	374.49
540.28	397.89
540.44	543.00
540.61	421.30
540.78	330.02
540.95	425.98
541.12	418.96
541.29	404.91
541.46	397.89
541.62	358.10
541.79	423.64
541.96	400.23
542.13	458.74
542.30	386.19
542.47	400.23
542.63	447.04
542.80	411.93
542.97	456.40
543.14	402.57
543.31	425.98
543.48	390.87
543.64	433.00
543.81	376.83
543.98	458.74
544.15	444.70
544.32	411.93
544.48	461.09
544.65	435.34
544.82	421.30
544.99	397.89
545.16	484.49
545.32	442.36
545.49	395.55
545.66	369.80
545.83	425.98
546.00	369.80
546.16	411.93
546.33	416.62
546.50	442.36
546.67	430.66
546.83	458.74
547.00	451.72
547.17	472.79
547.34	374.49
547.50	402.57
547.67	327.68
547.84	404.91
548.00	411.93
548.17	332.36
548.34	425.98
548.51	451.72
548.67	428.32
548.84	428.32
549.01	348.74
549.18	397.89
549.34	414.27
549.51	374.49
549.68	451.72
549.84	458.74
550.01	381.51
550.18	404.91
550.34	437.68
550.51	395.55
550.68	538.32
550.84	383.85
551.01	381.51
551.18	425.98
551.34	442.36
551.51	407.25
551.68	425.98
551.84	409.59
552.01	332.36
552.18	421.30
552.34	404.91
552.51	383.85
552.68	475.13
552.84	393.21
553.01	339.38
553.18	395.55
553.34	393.21
553.51	376.83
553.67	433.00
553.84	425.98
554.01	428.32
554.17	463.43
554.34	381.51
554.51	428.32
554.67	393.21
554.84	430.66
555.00	442.36
555.17	421.30
555.33	472.79
555.50	437.68
555.67	402.57
555.83	435.34
556.00	472.79
556.16	524.28
556.33	367.46
556.50	358.10
556.66	404.91
556.83	393.21
556.99	409.59
557.16	425.98
557.32	409.59
557.49	402.57
557.65	421.30
557.82	484.49
557.98	454.06
558.15	407.25
558.32	433.00
558.48	442.36
558.65	379.17
558.81	393.21
558.98	458.74
559.14	458.74
559.31	367.46
559.47	428.32
559.64	346.40
559.80	425.98
559.97	428.32
560.13	456.40
560.30	376.83
560.46	353.42
560.63	428.32
560.79	416.62
560.96	409.59
561.12	444.70
561.29	409.59
561.45	409.59
561.61	383.85
561.78	505.56
561.94	397.89
562.11	482.15
562.27	386.19
562.44	400.23
562.60	409.59
562.77	421.30
562.93	463.43
563.10	423.64
563.26	512.58
563.42	437.68
563.59	362.78
563.75	449.38
563.92	489.17
564.08	404.91
564.24	442.36
564.41	475.13
564.57	376.83
564.74	433.00
564.90	468.11
565.07	386.19
565.23	402.57
565.39	409.59
565.56	358.10
565.72	444.70
565.88	367.46
566.05	372.15
566.21	395.55
566.38	465.77
566.54	475.13
566.70	458.74
566.87	404.91
567.03	418.96
567.19	433.00
567.36	440.02
567.52	433.00
567.68	346.40
567.85	433.00
568.01	362.78
568.17	447.04
568.34	430.66
568.50	496.19
568.66	372.15
568.83	444.70
568.99	404.91
569.15	442.36
569.32	421.30
569.48	351.08
569.64	411.93
569.81	362.78
569.97	430.66
570.13	362.78
570.30	395.55
570.46	489.17
570.62	358.10
570.78	397.89
570.95	334.70
571.11	491.51
571.27	447.04
571.43	388.53
571.60	468.11
571.76	395.55
571.92	430.66
572.09	383.85
572.25	346.40
572.41	374.49
572.57	449.38
572.74	507.90
572.90	500.87
573.06	496.19
573.22	442.36
573.38	430.66
573.55	458.74
573.71	454.06
573.87	397.89
574.03	358.10
574.20	421.30
574.36	470.45
574.52	433.00
574.68	440.02
574.84	461.09
575.01	390.87
575.17	416.62
575.33	421.30
575.49	395.55
575.65	390.87
575.82	414.27
575.98	484.49
576.14	400.23
576.30	447.04
576.46	397.89
576.62	411.93
576.79	362.78
576.95	496.19
577.11	428.32
577.27	411.93
577.43	449.38
577.59	512.58
577.75	376.83
577.92	418.96
578.08	498.53
578.24	482.15
578.40	430.66
578.56	454.06
578.72	430.66
578.88	461.09
579.04	451.72
579.21	416.62
579.37	465.77
579.53	454.06
579.69	500.87
579.85	355.76
580.01	423.64
580.17	414.27
580.33	390.87
580.49	479.81
580.65	433.00
580.82	440.02
580.98	428.32
581.14	416.62
581.30	440.02
581.46	367.46
581.62	407.25
581.78	393.21
581.94	463.43
582.10	425.98
582.26	397.89
582.42	367.46
582.58	430.66
582.74	409.59
582.90	414.27
583.06	458.74
583.22	425.98
583.38	327.68
583.54	425.98
583.70	465.77
583.86	447.04
584.02	407.25
584.18	407.25
584.34	421.30
584.50	468.11
584.66	435.34
584.82	400.23
584.98	404.91
585.14	428.32
585.30	388.53
585.46	353.42
585.62	360.44
585.78	425.98
585.94	381.51
586.10	421.30
586.26	416.62
586.42	463.43
586.58	421.30
586.74	451.72
586.90	390.87
587.06	390.87
587.22	381.51
587.38	416.62
587.54	449.38
587.70	379.17
587.86	428.32
588.02	465.77
588.18	386.19
588.34	397.89
588.49	425.98
588.65	433.00
588.81	418.96
588.97	411.93
589.13	456.40
589.29	425.98
589.45	425.98
589.61	442.36
589.77	383.85
589.93	428.32
590.08	470.45
590.24	386.19
590.40	393.21
590.56	358.10
590.72	376.83
590.88	402.57
591.04	425.98
591.20	390.87
591.35	358.10
591.51	358.10
591.67	409.59
591.83	407.25
591.99	430.66
592.15	435.34
592.31	390.87
592.46	475.13
592.62	367.46
592.78	390.87
592.94	437.68
593.10	444.70
593.26	299.59
593.41	397.89
593.57	334.70
593.73	348.74
593.89	407.25
594.05	322.99
594.20	360.44
594.36	362.78
594.52	402.57
594.68	315.97
594.84	421.30
594.99	358.10
595.15	421.30
595.31	388.53
595.47	397.89
595.62	404.91
595.78	393.21
595.94	332.36
596.10	397.89
596.25	479.81
596.41	493.85
596.57	444.70
596.73	388.53
596.88	430.66
597.04	409.59
597.20	428.32
597.36	463.43
597.51	451.72
597.67	468.11
597.83	444.70
597.99	409.59
598.14	463.43
598.30	411.93
598.46	435.34
598.61	491.51
598.77	423.64
598.93	519.60
599.09	397.89
599.24	451.72
599.40	430.66
599.56	482.15
599.71	491.51
599.87	365.12
600.03	390.87
600.18	407.25
600.34	397.89
600.50	383.85
600.65	458.74
600.81	510.24
600.97	374.49
601.12	489.17
601.28	400.23
601.44	409.59
601.59	344.06
601.75	390.87
601.91	433.00
602.06	430.66
602.22	463.43
602.37	379.17
602.53	402.57
602.69	400.23
602.84	440.02
603.00	428.32
603.16	416.62
603.31	442.36
603.47	428.32
603.62	367.46
603.78	444.70
603.94	435.34
604.09	397.89
604.25	442.36
604.40	444.70
604.56	425.98
604.71	374.49
604.87	423.64
605.03	447.04
605.18	442.36
605.34	379.17
605.49	393.21
605.65	428.32
605.80	437.68
605.96	482.15
606.12	383.85
606.27	407.25
606.43	493.85
606.58	390.87
606.74	428.32
606.89	411.93
607.05	358.10
607.20	442.36
607.36	489.17
607.51	386.19
607.67	390.87
607.82	407.25
607.98	425.98
608.13	369.80
608.29	423.64
608.44	486.83
608.60	365.12
608.75	463.43
608.91	383.85
609.06	442.36
609.22	442.36
609.37	449.38
609.53	388.53
609.68	414.27
609.84	353.42
609.99	381.51
610.15	484.49
