SpectraSuite Data File
++++++++++++++++++++++++++++++++++++
Date: Fri Oct 25 12:10:44 EDT 2013
User: price-jones
Dark Spectrum Present: No
Reference Spectrum Present: No
Number of Sampled Component Spectra: 1
Spectrometers: USB2+H05261
Integration Time (usec): 100000 (USB2+H05261)
Spectra Averaged: 1 (USB2+H05261)
Boxcar Smoothing: 0 (USB2+H05261)
Correct for Electrical Dark: No (USB2+H05261)
Strobe/Lamp Enabled: No (USB2+H05261)
Correct for Detector Non-linearity: No (USB2+H05261)
Correct for Stray Light: No (USB2+H05261)
Number of Pixels in Processed Spectrum: 2048
>>>>>Begin Processed Spectral Data<<<<<
365.73	315.97
365.92	315.97
366.12	315.97
366.32	318.31
366.52	255.12
366.72	210.65
366.91	208.31
367.11	238.73
367.31	280.86
367.51	245.76
367.70	308.95
367.90	208.31
368.10	201.29
368.30	264.48
368.49	266.82
368.69	304.27
368.89	243.42
369.09	184.90
369.28	252.78
369.48	266.82
369.68	250.44
369.87	264.48
370.07	262.14
370.27	348.74
370.47	344.06
370.66	301.93
370.86	376.83
371.06	407.25
371.25	330.02
371.45	374.49
371.65	435.34
371.84	388.53
372.04	376.83
372.24	442.36
372.44	362.78
372.63	440.02
372.83	393.21
373.03	346.40
373.22	465.77
373.42	414.27
373.62	409.59
373.81	411.93
374.01	444.70
374.21	465.77
374.40	500.87
374.60	421.30
374.79	428.32
374.99	409.59
375.19	414.27
375.38	390.87
375.58	484.49
375.78	379.17
375.97	477.47
376.17	435.34
376.37	416.62
376.56	428.32
376.76	440.02
376.95	381.51
377.15	397.89
377.35	339.38
377.54	430.66
377.74	421.30
377.93	430.66
378.13	402.57
378.33	458.74
378.52	395.55
378.72	454.06
378.91	409.59
379.11	299.59
379.31	440.02
379.50	348.74
379.70	397.89
379.89	395.55
380.09	425.98
380.28	435.34
380.48	411.93
380.68	367.46
380.87	351.08
381.07	402.57
381.26	395.55
381.46	416.62
381.65	447.04
381.85	442.36
382.04	344.06
382.24	437.68
382.43	297.25
382.63	311.29
382.83	397.89
383.02	339.38
383.22	430.66
383.41	327.68
383.61	397.89
383.80	437.68
384.00	360.44
384.19	381.51
384.39	407.25
384.58	428.32
384.78	386.19
384.97	386.19
385.17	437.68
385.36	379.17
385.56	442.36
385.75	411.93
385.95	397.89
386.14	461.09
386.34	388.53
386.53	416.62
386.72	374.49
386.92	472.79
387.11	362.78
387.31	388.53
387.50	449.38
387.70	411.93
387.89	339.38
388.09	320.65
388.28	395.55
388.48	390.87
388.67	451.72
388.86	351.08
389.06	437.68
389.25	374.49
389.45	400.23
389.64	465.77
389.84	397.89
390.03	353.42
390.22	374.49
390.42	341.72
390.61	376.83
390.81	428.32
391.00	353.42
391.19	416.62
391.39	404.91
391.58	463.43
391.78	449.38
391.97	383.85
392.16	411.93
392.36	433.00
392.55	463.43
392.75	390.87
392.94	339.38
393.13	465.77
393.33	339.38
393.52	360.44
393.71	430.66
393.91	348.74
394.10	447.04
394.29	297.25
394.49	402.57
394.68	433.00
394.88	447.04
395.07	397.89
395.26	386.19
395.46	388.53
395.65	449.38
395.84	430.66
396.04	435.34
396.23	351.08
396.42	346.40
396.62	421.30
396.81	374.49
397.00	402.57
397.19	442.36
397.39	397.89
397.58	416.62
397.77	447.04
397.97	472.79
398.16	449.38
398.35	290.23
398.55	393.21
398.74	428.32
398.93	465.77
399.12	433.00
399.32	315.97
399.51	287.89
399.70	397.89
399.90	465.77
400.09	430.66
400.28	498.53
400.47	376.83
400.67	360.44
400.86	379.17
401.05	402.57
401.24	486.83
401.44	381.51
401.63	489.17
401.82	411.93
402.01	353.42
402.21	449.38
402.40	428.32
402.59	428.32
402.78	407.25
402.97	421.30
403.17	365.12
403.36	360.44
403.55	344.06
403.74	409.59
403.93	346.40
404.13	409.59
404.32	407.25
404.51	402.57
404.70	334.70
404.89	428.32
405.09	507.90
405.28	369.80
405.47	355.76
405.66	388.53
405.85	376.83
406.05	330.02
406.24	383.85
406.43	383.85
406.62	491.51
406.81	428.32
407.00	428.32
407.20	367.46
407.39	449.38
407.58	379.17
407.77	393.21
407.96	355.76
408.15	414.27
408.34	386.19
408.54	454.06
408.73	372.15
408.92	444.70
409.11	407.25
409.30	414.27
409.49	341.72
409.68	425.98
409.87	440.02
410.07	437.68
410.26	379.17
410.45	393.21
410.64	416.62
410.83	435.34
411.02	409.59
411.21	425.98
411.40	437.68
411.59	404.91
411.78	393.21
411.98	318.31
412.17	374.49
412.36	447.04
412.55	442.36
412.74	425.98
412.93	435.34
413.12	440.02
413.31	416.62
413.50	430.66
413.69	362.78
413.88	416.62
414.07	386.19
414.26	411.93
414.45	411.93
414.64	437.68
414.83	358.10
415.02	444.70
415.22	449.38
415.41	458.74
415.60	411.93
415.79	376.83
415.98	433.00
416.17	369.80
416.36	404.91
416.55	458.74
416.74	416.62
416.93	418.96
417.12	458.74
417.31	433.00
417.50	351.08
417.69	388.53
417.88	409.59
418.07	341.72
418.26	367.46
418.45	372.15
418.64	360.44
418.83	402.57
419.02	454.06
419.21	435.34
419.39	421.30
419.58	388.53
419.77	390.87
419.96	477.47
420.15	440.02
420.34	414.27
420.53	395.55
420.72	404.91
420.91	423.64
421.10	440.02
421.29	367.46
421.48	369.80
421.67	423.64
421.86	379.17
422.05	491.51
422.24	451.72
422.43	433.00
422.61	365.12
422.80	397.89
422.99	390.87
423.18	397.89
423.37	400.23
423.56	454.06
423.75	409.59
423.94	381.51
424.13	374.49
424.32	390.87
424.50	383.85
424.69	351.08
424.88	458.74
425.07	425.98
425.26	395.55
425.45	344.06
425.64	407.25
425.83	407.25
426.01	496.19
426.20	430.66
426.39	454.06
426.58	393.21
426.77	390.87
426.96	428.32
427.15	428.32
427.33	402.57
427.52	444.70
427.71	414.27
427.90	397.89
428.09	358.10
428.28	430.66
428.46	390.87
428.65	484.49
428.84	437.68
429.03	472.79
429.22	369.80
429.40	360.44
429.59	414.27
429.78	372.15
429.97	400.23
430.16	358.10
430.34	376.83
430.53	355.76
430.72	447.04
430.91	440.02
431.10	332.36
431.28	449.38
431.47	379.17
431.66	334.70
431.85	428.32
432.03	400.23
432.22	449.38
432.41	414.27
432.60	491.51
432.79	360.44
432.97	346.40
433.16	447.04
433.35	428.32
433.54	416.62
433.72	470.45
433.91	386.19
434.10	423.64
434.28	437.68
434.47	395.55
434.66	423.64
434.85	414.27
435.03	339.38
435.22	451.72
435.41	393.21
435.59	482.15
435.78	414.27
435.97	360.44
436.16	379.17
436.34	486.83
436.53	458.74
436.72	435.34
436.90	379.17
437.09	409.59
437.28	407.25
437.46	414.27
437.65	447.04
437.84	397.89
438.02	449.38
438.21	379.17
438.40	433.00
438.58	421.30
438.77	407.25
438.96	365.12
439.14	416.62
439.33	423.64
439.52	355.76
439.70	372.15
439.89	447.04
440.08	507.90
440.26	414.27
440.45	423.64
440.63	409.59
440.82	470.45
441.01	393.21
441.19	435.34
441.38	395.55
441.57	402.57
441.75	421.30
441.94	484.49
442.12	479.81
442.31	346.40
442.50	365.12
442.68	358.10
442.87	425.98
443.05	402.57
443.24	400.23
443.43	332.36
443.61	430.66
443.80	454.06
443.98	482.15
444.17	484.49
444.35	430.66
444.54	397.89
444.73	351.08
444.91	423.64
445.10	353.42
445.28	411.93
445.47	491.51
445.65	447.04
445.84	386.19
446.02	395.55
446.21	381.51
446.39	465.77
446.58	461.09
446.77	397.89
446.95	409.59
447.14	435.34
447.32	416.62
447.51	454.06
447.69	442.36
447.88	430.66
448.06	477.47
448.25	395.55
448.43	393.21
448.62	411.93
448.80	444.70
448.99	388.53
449.17	423.64
449.36	449.38
449.54	369.80
449.73	404.91
449.91	409.59
450.10	395.55
450.28	409.59
450.46	421.30
450.65	393.21
450.83	418.96
451.02	404.91
451.20	433.00
451.39	397.89
451.57	390.87
451.76	409.59
451.94	421.30
452.13	381.51
452.31	430.66
452.49	395.55
452.68	402.57
452.86	456.40
453.05	351.08
453.23	383.85
453.42	440.02
453.60	376.83
453.78	362.78
453.97	360.44
454.15	407.25
454.34	381.51
454.52	315.97
454.70	428.32
454.89	414.27
455.07	402.57
455.26	425.98
455.44	444.70
455.62	344.06
455.81	404.91
455.99	428.32
456.17	376.83
456.36	440.02
456.54	386.19
456.73	379.17
456.91	423.64
457.09	451.72
457.28	442.36
457.46	379.17
457.64	421.30
457.83	447.04
458.01	374.49
458.19	400.23
458.38	423.64
458.56	463.43
458.74	411.93
458.93	386.19
459.11	402.57
459.29	386.19
459.48	374.49
459.66	421.30
459.84	477.47
460.03	447.04
460.21	369.80
460.39	334.70
460.57	454.06
460.76	397.89
460.94	433.00
461.12	440.02
461.31	425.98
461.49	440.02
461.67	407.25
461.85	416.62
462.04	425.98
462.22	732.59
462.40	395.55
462.59	461.09
462.77	407.25
462.95	404.91
463.13	397.89
463.32	437.68
463.50	440.02
463.68	461.09
463.86	461.09
464.05	421.30
464.23	428.32
464.41	447.04
464.59	414.27
464.78	430.66
464.96	437.68
465.14	430.66
465.32	365.12
465.50	472.79
465.69	454.06
465.87	369.80
466.05	388.53
466.23	414.27
466.41	372.15
466.60	442.36
466.78	430.66
466.96	456.40
467.14	440.02
467.32	423.64
467.51	423.64
467.69	444.70
467.87	416.62
468.05	365.12
468.23	437.68
468.41	435.34
468.60	372.15
468.78	393.21
468.96	444.70
469.14	468.11
469.32	404.91
469.50	395.55
469.69	400.23
469.87	456.40
470.05	383.85
470.23	425.98
470.41	435.34
470.59	435.34
470.77	416.62
470.95	409.59
471.14	451.72
471.32	369.80
471.50	437.68
471.68	390.87
471.86	397.89
472.04	454.06
472.22	374.49
472.40	367.46
472.58	360.44
472.77	369.80
472.95	437.68
473.13	430.66
473.31	393.21
473.49	381.51
473.67	435.34
473.85	421.30
474.03	433.00
474.21	418.96
474.39	374.49
474.57	486.83
474.75	491.51
474.93	411.93
475.12	440.02
475.30	374.49
475.48	374.49
475.66	332.36
475.84	414.27
476.02	362.78
476.20	407.25
476.38	386.19
476.56	491.51
476.74	365.12
476.92	381.51
477.10	400.23
477.28	400.23
477.46	496.19
477.64	430.66
477.82	470.45
478.00	315.97
478.18	407.25
478.36	435.34
478.54	379.17
478.72	416.62
478.90	479.81
479.08	367.46
479.26	440.02
479.44	379.17
479.62	416.62
479.80	365.12
479.98	367.46
480.16	421.30
480.34	437.68
480.52	395.55
480.70	404.91
480.88	442.36
481.06	425.98
481.24	456.40
481.41	430.66
481.59	465.77
481.77	437.68
481.95	379.17
482.13	430.66
482.31	442.36
482.49	390.87
482.67	365.12
482.85	507.90
483.03	383.85
483.21	395.55
483.39	430.66
483.57	447.04
483.74	470.45
483.92	425.98
484.10	334.70
484.28	454.06
484.46	470.45
484.64	428.32
484.82	421.30
485.00	374.49
485.18	418.96
485.35	407.25
485.53	416.62
485.71	440.02
485.89	388.53
486.07	379.17
486.25	411.93
486.43	430.66
486.61	395.55
486.78	440.02
486.96	498.53
487.14	358.10
487.32	411.93
487.50	390.87
487.68	437.68
487.85	400.23
488.03	351.08
488.21	411.93
488.39	496.19
488.57	393.21
488.75	402.57
488.92	538.32
489.10	444.70
489.28	388.53
489.46	409.59
489.64	468.11
489.81	367.46
489.99	381.51
490.17	458.74
490.35	479.81
490.53	393.21
490.70	402.57
490.88	440.02
491.06	400.23
491.24	386.19
491.41	428.32
491.59	461.09
491.77	425.98
491.95	374.49
492.13	360.44
492.30	386.19
492.48	416.62
492.66	365.12
492.84	386.19
493.01	461.09
493.19	381.51
493.37	428.32
493.54	402.57
493.72	365.12
493.90	400.23
494.08	402.57
494.25	425.98
494.43	475.13
494.61	428.32
494.79	437.68
494.96	376.83
495.14	428.32
495.32	451.72
495.49	402.57
495.67	425.98
495.85	440.02
496.02	362.78
496.20	365.12
496.38	388.53
496.55	332.36
496.73	400.23
496.91	456.40
497.09	400.23
497.26	454.06
497.44	393.21
497.62	395.55
497.79	456.40
497.97	454.06
498.14	475.13
498.32	386.19
498.50	475.13
498.67	404.91
498.85	397.89
499.03	402.57
499.20	430.66
499.38	414.27
499.56	421.30
499.73	433.00
499.91	397.89
500.08	442.36
500.26	411.93
500.44	404.91
500.61	414.27
500.79	411.93
500.97	435.34
501.14	411.93
501.32	477.47
501.49	447.04
501.67	362.78
501.84	489.17
502.02	425.98
502.20	444.70
502.37	383.85
502.55	444.70
502.72	395.55
502.90	430.66
503.07	458.74
503.25	423.64
503.43	383.85
503.60	418.96
503.78	440.02
503.95	372.15
504.13	374.49
504.30	444.70
504.48	404.91
504.65	458.74
504.83	404.91
505.01	390.87
505.18	337.04
505.36	409.59
505.53	416.62
505.71	358.10
505.88	414.27
506.06	442.36
506.23	411.93
506.41	409.59
506.58	393.21
506.76	447.04
506.93	411.93
507.11	365.12
507.28	416.62
507.46	372.15
507.63	461.09
507.81	411.93
507.98	402.57
508.16	468.11
508.33	379.17
508.50	433.00
508.68	353.42
508.85	404.91
509.03	381.51
509.20	458.74
509.38	383.85
509.55	447.04
509.73	390.87
509.90	437.68
510.08	402.57
510.25	475.13
510.42	381.51
510.60	322.99
510.77	433.00
510.95	416.62
511.12	397.89
511.30	428.32
511.47	428.32
511.64	414.27
511.82	463.43
511.99	330.02
512.17	388.53
512.34	369.80
512.51	435.34
512.69	463.43
512.86	500.87
513.04	458.74
513.21	372.15
513.38	390.87
513.56	491.51
513.73	482.15
513.90	390.87
514.08	376.83
514.25	479.81
514.43	411.93
514.60	372.15
514.77	348.74
514.95	421.30
515.12	454.06
515.29	449.38
515.47	388.53
515.64	411.93
515.81	489.17
515.99	437.68
516.16	484.49
516.33	409.59
516.51	341.72
516.68	454.06
516.85	440.02
517.03	458.74
517.20	395.55
517.37	428.32
517.54	400.23
517.72	374.49
517.89	423.64
518.06	393.21
518.24	400.23
518.41	456.40
518.58	381.51
518.75	409.59
518.93	484.49
519.10	489.17
519.27	390.87
519.45	421.30
519.62	435.34
519.79	386.19
519.96	367.46
520.14	381.51
520.31	447.04
520.48	395.55
520.65	395.55
520.83	430.66
521.00	435.34
521.17	355.76
521.34	355.76
521.52	393.21
521.69	465.77
521.86	428.32
522.03	369.80
522.20	388.53
522.38	425.98
522.55	388.53
522.72	374.49
522.89	430.66
523.07	442.36
523.24	411.93
523.41	465.77
523.58	355.76
523.75	381.51
523.92	437.68
524.10	404.91
524.27	409.59
524.44	383.85
524.61	390.87
524.78	425.98
524.96	404.91
525.13	400.23
525.30	442.36
525.47	390.87
525.64	397.89
525.81	421.30
525.98	402.57
526.16	418.96
526.33	440.02
526.50	402.57
526.67	393.21
526.84	379.17
527.01	402.57
527.18	423.64
527.36	435.34
527.53	507.90
527.70	400.23
527.87	400.23
528.04	407.25
528.21	458.74
528.38	423.64
528.55	425.98
528.72	451.72
528.89	435.34
529.07	379.17
529.24	418.96
529.41	496.19
529.58	510.24
529.75	386.19
529.92	491.51
530.09	346.40
530.26	430.66
530.43	423.64
530.60	416.62
530.77	379.17
530.94	442.36
531.11	414.27
531.28	425.98
531.46	367.46
531.63	383.85
531.80	425.98
531.97	416.62
532.14	454.06
532.31	428.32
532.48	344.06
532.65	456.40
532.82	390.87
532.99	397.89
533.16	411.93
533.33	386.19
533.50	381.51
533.67	411.93
533.84	393.21
534.01	409.59
534.18	376.83
534.35	383.85
534.52	456.40
534.69	433.00
534.86	397.89
535.03	376.83
535.20	418.96
535.37	451.72
535.54	407.25
535.71	423.64
535.88	454.06
536.05	463.43
536.22	430.66
536.38	395.55
536.55	437.68
536.72	503.22
536.89	360.44
537.06	435.34
537.23	440.02
537.40	311.29
537.57	463.43
537.74	468.11
537.91	393.21
538.08	416.62
538.25	430.66
538.42	374.49
538.59	416.62
538.75	477.47
538.92	379.17
539.09	407.25
539.26	428.32
539.43	442.36
539.60	409.59
539.77	479.81
539.94	327.68
540.11	376.83
540.28	472.79
540.44	470.45
540.61	388.53
540.78	437.68
540.95	407.25
541.12	440.02
541.29	407.25
541.46	442.36
541.62	416.62
541.79	425.98
541.96	369.80
542.13	468.11
542.30	360.44
542.47	442.36
542.63	362.78
542.80	440.02
542.97	468.11
543.14	418.96
543.31	461.09
543.48	388.53
543.64	388.53
543.81	362.78
543.98	402.57
544.15	379.17
544.32	355.76
544.48	400.23
544.65	369.80
544.82	337.04
544.99	362.78
545.16	489.17
545.32	444.70
545.49	444.70
545.66	383.85
545.83	444.70
546.00	433.00
546.16	395.55
546.33	379.17
546.50	430.66
546.67	442.36
546.83	449.38
547.00	423.64
547.17	428.32
547.34	367.46
547.50	414.27
547.67	430.66
547.84	400.23
548.00	463.43
548.17	449.38
548.34	463.43
548.51	463.43
548.67	425.98
548.84	386.19
549.01	456.40
549.18	404.91
549.34	390.87
549.51	416.62
549.68	409.59
549.84	367.46
550.01	362.78
550.18	505.56
550.34	430.66
550.51	404.91
550.68	430.66
550.84	421.30
551.01	383.85
551.18	416.62
551.34	428.32
551.51	425.98
551.68	400.23
551.84	449.38
552.01	376.83
552.18	428.32
552.34	404.91
552.51	435.34
552.68	416.62
552.84	461.09
553.01	409.59
553.18	468.11
553.34	386.19
553.51	465.77
553.67	447.04
553.84	451.72
554.01	505.56
554.17	461.09
554.34	374.49
554.51	416.62
554.67	493.85
554.84	451.72
555.00	358.10
555.17	440.02
555.33	468.11
555.50	470.45
555.67	437.68
555.83	383.85
556.00	430.66
556.16	493.85
556.33	458.74
556.50	449.38
556.66	379.17
556.83	440.02
556.99	395.55
557.16	365.12
557.32	418.96
557.49	402.57
557.65	407.25
557.82	388.53
557.98	435.34
558.15	458.74
558.32	423.64
558.48	327.68
558.65	411.93
558.81	437.68
558.98	423.64
559.14	411.93
559.31	414.27
559.47	465.77
559.64	447.04
559.80	449.38
559.97	449.38
560.13	393.21
560.30	397.89
560.46	428.32
560.63	463.43
560.79	386.19
560.96	458.74
561.12	421.30
561.29	423.64
561.45	475.13
561.61	435.34
561.78	512.58
561.94	514.92
562.11	479.81
562.27	430.66
562.44	440.02
562.60	430.66
562.77	409.59
562.93	498.53
563.10	540.66
563.26	425.98
563.42	491.51
563.59	428.32
563.75	395.55
563.92	447.04
564.08	414.27
564.24	393.21
564.41	414.27
564.57	346.40
564.74	437.68
564.90	418.96
565.07	458.74
565.23	472.79
565.39	416.62
565.56	428.32
565.72	395.55
565.88	430.66
566.05	327.68
566.21	449.38
566.38	491.51
566.54	433.00
566.70	402.57
566.87	470.45
567.03	386.19
567.19	418.96
567.36	491.51
567.52	444.70
567.68	423.64
567.85	416.62
568.01	421.30
568.17	383.85
568.34	404.91
568.50	430.66
568.66	411.93
568.83	489.17
568.99	374.49
569.15	433.00
569.32	390.87
569.48	440.02
569.64	381.51
569.81	374.49
569.97	442.36
570.13	414.27
570.30	411.93
570.46	458.74
570.62	479.81
570.78	430.66
570.95	402.57
571.11	437.68
571.27	444.70
571.43	409.59
571.60	372.15
571.76	407.25
571.92	421.30
572.09	369.80
572.25	418.96
572.41	423.64
572.57	454.06
572.74	449.38
572.90	454.06
573.06	423.64
573.22	421.30
573.38	437.68
573.55	449.38
573.71	454.06
573.87	416.62
574.03	400.23
574.20	327.68
574.36	472.79
574.52	449.38
574.68	400.23
574.84	451.72
575.01	383.85
575.17	477.47
575.33	458.74
575.49	463.43
575.65	458.74
575.82	407.25
575.98	472.79
576.14	418.96
576.30	416.62
576.46	386.19
576.62	411.93
576.79	404.91
576.95	425.98
577.11	367.46
577.27	430.66
577.43	421.30
577.59	390.87
577.75	390.87
577.92	489.17
578.08	449.38
578.24	444.70
578.40	423.64
578.56	428.32
578.72	447.04
578.88	451.72
579.04	425.98
579.21	346.40
579.37	416.62
579.53	418.96
579.69	425.98
579.85	465.77
580.01	404.91
580.17	479.81
580.33	404.91
580.49	428.32
580.65	411.93
580.82	409.59
580.98	374.49
581.14	407.25
581.30	454.06
581.46	435.34
581.62	442.36
581.78	339.38
581.94	465.77
582.10	407.25
582.26	409.59
582.42	402.57
582.58	461.09
582.74	447.04
582.90	395.55
583.06	479.81
583.22	442.36
583.38	482.15
583.54	379.17
583.70	390.87
583.86	428.32
584.02	468.11
584.18	521.94
584.34	414.27
584.50	456.40
584.66	449.38
584.82	374.49
584.98	468.11
585.14	374.49
585.30	376.83
585.46	425.98
585.62	397.89
585.78	430.66
585.94	447.04
586.10	409.59
586.26	376.83
586.42	425.98
586.58	435.34
586.74	418.96
586.90	484.49
587.06	407.25
587.22	395.55
587.38	395.55
587.54	449.38
587.70	454.06
587.86	390.87
588.02	383.85
588.18	376.83
588.34	463.43
588.49	458.74
588.65	381.51
588.81	421.30
588.97	414.27
589.13	388.53
589.29	430.66
589.45	461.09
589.61	416.62
589.77	458.74
589.93	475.13
590.08	318.31
590.24	430.66
590.40	437.68
590.56	435.34
590.72	411.93
590.88	404.91
591.04	437.68
591.20	440.02
591.35	404.91
591.51	416.62
591.67	444.70
591.83	425.98
591.99	404.91
592.15	451.72
592.31	491.51
592.46	444.70
592.62	454.06
592.78	433.00
592.94	430.66
593.10	421.30
593.26	447.04
593.41	430.66
593.57	383.85
593.73	411.93
593.89	470.45
594.05	500.87
594.20	374.49
594.36	442.36
594.52	395.55
594.68	454.06
594.84	433.00
594.99	449.38
595.15	414.27
595.31	393.21
595.47	479.81
595.62	383.85
595.78	397.89
595.94	393.21
596.10	442.36
596.25	390.87
596.41	341.72
596.57	400.23
596.73	416.62
596.88	379.17
597.04	362.78
597.20	374.49
597.36	414.27
597.51	379.17
597.67	397.89
597.83	374.49
597.99	402.57
598.14	348.74
598.30	456.40
598.46	407.25
598.61	365.12
598.77	418.96
598.93	407.25
599.09	475.13
599.24	440.02
599.40	454.06
599.56	428.32
599.71	440.02
599.87	367.46
600.03	351.08
600.18	372.15
600.34	416.62
600.50	433.00
600.65	428.32
600.81	416.62
600.97	472.79
601.12	449.38
601.28	416.62
601.44	437.68
601.59	409.59
601.75	372.15
601.91	416.62
602.06	421.30
602.22	498.53
602.37	456.40
602.53	404.91
602.69	437.68
602.84	411.93
603.00	362.78
603.16	491.51
603.31	442.36
603.47	491.51
603.62	458.74
603.78	477.47
603.94	437.68
604.09	440.02
604.25	425.98
604.40	400.23
604.56	456.40
604.71	386.19
604.87	477.47
605.03	430.66
605.18	400.23
605.34	444.70
605.49	433.00
605.65	437.68
605.80	386.19
605.96	381.51
606.12	414.27
606.27	458.74
606.43	437.68
606.58	465.77
606.74	468.11
606.89	440.02
607.05	451.72
607.20	486.83
607.36	433.00
607.51	353.42
607.67	440.02
607.82	416.62
607.98	390.87
608.13	437.68
608.29	421.30
608.44	510.24
608.60	362.78
608.75	395.55
608.91	461.09
609.06	418.96
609.22	395.55
609.37	351.08
609.53	442.36
609.68	381.51
609.84	409.59
609.99	367.46
610.15	409.59
