SpectraSuite Data File
++++++++++++++++++++++++++++++++++++
Date: Fri Oct 25 12:10:25 EDT 2013
User: price-jones
Dark Spectrum Present: No
Reference Spectrum Present: No
Number of Sampled Component Spectra: 1
Spectrometers: USB2+H05261
Integration Time (usec): 100000 (USB2+H05261)
Spectra Averaged: 1 (USB2+H05261)
Boxcar Smoothing: 0 (USB2+H05261)
Correct for Electrical Dark: No (USB2+H05261)
Strobe/Lamp Enabled: No (USB2+H05261)
Correct for Detector Non-linearity: No (USB2+H05261)
Correct for Stray Light: No (USB2+H05261)
Number of Pixels in Processed Spectrum: 2048
>>>>>Begin Processed Spectral Data<<<<<
365.73	297.25
365.92	297.25
366.12	297.25
366.32	250.44
366.52	304.27
366.72	229.37
366.91	252.78
367.11	301.93
367.31	243.42
367.51	227.03
367.70	156.82
367.90	210.65
368.10	248.10
368.30	243.42
368.49	257.46
368.69	299.59
368.89	257.46
369.09	245.76
369.28	255.12
369.48	276.18
369.68	257.46
369.87	297.25
370.07	330.02
370.27	381.51
370.47	257.46
370.66	348.74
370.86	318.31
371.06	346.40
371.25	402.57
371.45	367.46
371.65	353.42
371.84	351.08
372.04	322.99
372.24	362.78
372.44	360.44
372.63	348.74
372.83	339.38
373.03	332.36
373.22	414.27
373.42	447.04
373.62	362.78
373.81	423.64
374.01	435.34
374.21	437.68
374.40	430.66
374.60	440.02
374.79	465.77
374.99	341.72
375.19	379.17
375.38	397.89
375.58	491.51
375.78	393.21
375.97	421.30
376.17	510.24
376.37	381.51
376.56	440.02
376.76	458.74
376.95	351.08
377.15	437.68
377.35	409.59
377.54	425.98
377.74	353.42
377.93	334.70
378.13	407.25
378.33	442.36
378.52	433.00
378.72	381.51
378.91	360.44
379.11	428.32
379.31	433.00
379.50	332.36
379.70	470.45
379.89	416.62
380.09	414.27
380.28	311.29
380.48	369.80
380.68	374.49
380.87	351.08
381.07	381.51
381.26	463.43
381.46	379.17
381.65	369.80
381.85	416.62
382.04	425.98
382.24	477.47
382.43	416.62
382.63	360.44
382.83	461.09
383.02	414.27
383.22	409.59
383.41	463.43
383.61	372.15
383.80	435.34
384.00	395.55
384.19	437.68
384.39	386.19
384.58	383.85
384.78	400.23
384.97	395.55
385.17	430.66
385.36	444.70
385.56	393.21
385.75	376.83
385.95	376.83
386.14	407.25
386.34	383.85
386.53	491.51
386.72	330.02
386.92	404.91
387.11	425.98
387.31	404.91
387.50	383.85
387.70	355.76
387.89	423.64
388.09	365.12
388.28	369.80
388.48	430.66
388.67	400.23
388.86	332.36
389.06	379.17
389.25	386.19
389.45	376.83
389.64	440.02
389.84	461.09
390.03	386.19
390.22	327.68
390.42	463.43
390.61	418.96
390.81	425.98
391.00	451.72
391.19	437.68
391.39	433.00
391.58	449.38
391.78	437.68
391.97	372.15
392.16	339.38
392.36	388.53
392.55	409.59
392.75	454.06
392.94	393.21
393.13	339.38
393.33	358.10
393.52	327.68
393.71	397.89
393.91	322.99
394.10	365.12
394.29	362.78
394.49	358.10
394.68	411.93
394.88	472.79
395.07	383.85
395.26	351.08
395.46	444.70
395.65	411.93
395.84	411.93
396.04	435.34
396.23	435.34
396.42	482.15
396.62	447.04
396.81	477.47
397.00	365.12
397.19	418.96
397.39	393.21
397.58	416.62
397.77	458.74
397.97	437.68
398.16	407.25
398.35	493.85
398.55	416.62
398.74	437.68
398.93	379.17
399.12	355.76
399.32	397.89
399.51	435.34
399.70	477.47
399.90	440.02
400.09	416.62
400.28	395.55
400.47	418.96
400.67	444.70
400.86	393.21
401.05	442.36
401.24	456.40
401.44	449.38
401.63	393.21
401.82	418.96
402.01	425.98
402.21	414.27
402.40	442.36
402.59	327.68
402.78	416.62
402.97	402.57
403.17	442.36
403.36	362.78
403.55	372.15
403.74	437.68
403.93	339.38
404.13	458.74
404.32	407.25
404.51	355.76
404.70	444.70
404.89	360.44
405.09	395.55
405.28	386.19
405.47	414.27
405.66	388.53
405.85	376.83
406.05	409.59
406.24	400.23
406.43	435.34
406.62	388.53
406.81	447.04
407.00	397.89
407.20	390.87
407.39	346.40
407.58	395.55
407.77	372.15
407.96	437.68
408.15	402.57
408.34	416.62
408.54	451.72
408.73	449.38
408.92	437.68
409.11	470.45
409.30	433.00
409.49	407.25
409.68	383.85
409.87	447.04
410.07	346.40
410.26	386.19
410.45	465.77
410.64	379.17
410.83	402.57
411.02	372.15
411.21	416.62
411.40	475.13
411.59	372.15
411.78	379.17
411.98	479.81
412.17	393.21
412.36	444.70
412.55	369.80
412.74	428.32
412.93	442.36
413.12	330.02
413.31	414.27
413.50	411.93
413.69	376.83
413.88	397.89
414.07	433.00
414.26	407.25
414.45	414.27
414.64	353.42
414.83	428.32
415.02	369.80
415.22	386.19
415.41	440.02
415.60	416.62
415.79	486.83
415.98	430.66
416.17	409.59
416.36	332.36
416.55	344.06
416.74	402.57
416.93	351.08
417.12	381.51
417.31	423.64
417.50	376.83
417.69	423.64
417.88	458.74
418.07	475.13
418.26	442.36
418.45	397.89
418.64	470.45
418.83	339.38
419.02	374.49
419.21	411.93
419.39	367.46
419.58	409.59
419.77	414.27
419.96	360.44
420.15	397.89
420.34	430.66
420.53	418.96
420.72	468.11
420.91	472.79
421.10	470.45
421.29	411.93
421.48	461.09
421.67	475.13
421.86	421.30
422.05	425.98
422.24	325.33
422.43	421.30
422.61	360.44
422.80	421.30
422.99	437.68
423.18	421.30
423.37	454.06
423.56	472.79
423.75	454.06
423.94	388.53
424.13	425.98
424.32	428.32
424.50	381.51
424.69	409.59
424.88	425.98
425.07	383.85
425.26	341.72
425.45	444.70
425.64	402.57
425.83	376.83
426.01	428.32
426.20	496.19
426.39	440.02
426.58	414.27
426.77	423.64
426.96	409.59
427.15	407.25
427.33	404.91
427.52	454.06
427.71	407.25
427.90	390.87
428.09	334.70
428.28	348.74
428.46	435.34
428.65	477.47
428.84	397.89
429.03	437.68
429.22	449.38
429.40	367.46
429.59	369.80
429.78	376.83
429.97	409.59
430.16	421.30
430.34	407.25
430.53	458.74
430.72	383.85
430.91	416.62
431.10	418.96
431.28	379.17
431.47	449.38
431.66	322.99
431.85	435.34
432.03	390.87
432.22	465.77
432.41	397.89
432.60	400.23
432.79	442.36
432.97	482.15
433.16	421.30
433.35	493.85
433.54	383.85
433.72	418.96
433.91	369.80
434.10	418.96
434.28	379.17
434.47	430.66
434.66	390.87
434.85	369.80
435.03	400.23
435.22	435.34
435.41	435.34
435.59	418.96
435.78	411.93
435.97	381.51
436.16	517.26
436.34	379.17
436.53	442.36
436.72	348.74
436.90	414.27
437.09	461.09
437.28	346.40
437.46	383.85
437.65	461.09
437.84	454.06
438.02	444.70
438.21	430.66
438.40	404.91
438.58	344.06
438.77	477.47
438.96	437.68
439.14	337.04
439.33	435.34
439.52	411.93
439.70	472.79
439.89	451.72
440.08	409.59
440.26	444.70
440.45	470.45
440.63	388.53
440.82	433.00
441.01	442.36
441.19	423.64
441.38	400.23
441.57	425.98
441.75	407.25
441.94	491.51
442.12	425.98
442.31	374.49
442.50	428.32
442.68	407.25
442.87	358.10
443.05	365.12
443.24	442.36
443.43	388.53
443.61	416.62
443.80	360.44
443.98	365.12
444.17	402.57
444.35	386.19
444.54	454.06
444.73	409.59
444.91	526.62
445.10	355.76
445.28	397.89
445.47	496.19
445.65	376.83
445.84	402.57
446.02	437.68
446.21	414.27
446.39	372.15
446.58	411.93
446.77	404.91
446.95	442.36
447.14	404.91
447.32	414.27
447.51	369.80
447.69	423.64
447.88	463.43
448.06	407.25
448.25	409.59
448.43	388.53
448.62	456.40
448.80	407.25
448.99	435.34
449.17	397.89
449.36	374.49
449.54	367.46
449.73	365.12
449.91	376.83
450.10	433.00
450.28	428.32
450.46	456.40
450.65	444.70
450.83	454.06
451.02	367.46
451.20	395.55
451.39	435.34
451.57	383.85
451.76	404.91
451.94	449.38
452.13	416.62
452.31	484.49
452.49	475.13
452.68	400.23
452.86	416.62
453.05	430.66
453.23	437.68
453.42	360.44
453.60	416.62
453.78	390.87
453.97	397.89
454.15	404.91
454.34	423.64
454.52	315.97
454.70	386.19
454.89	435.34
455.07	402.57
455.26	348.74
455.44	465.77
455.62	407.25
455.81	386.19
455.99	454.06
456.17	425.98
456.36	447.04
456.54	402.57
456.73	351.08
456.91	491.51
457.09	367.46
457.28	442.36
457.46	395.55
457.64	421.30
457.83	414.27
458.01	451.72
458.19	402.57
458.38	400.23
458.56	414.27
458.74	444.70
458.93	421.30
459.11	440.02
459.29	402.57
459.48	435.34
459.66	430.66
459.84	381.51
460.03	496.19
460.21	386.19
460.39	393.21
460.57	386.19
460.76	365.12
460.94	414.27
461.12	421.30
461.31	381.51
461.49	444.70
461.67	418.96
461.85	517.26
462.04	451.72
462.22	779.40
462.40	402.57
462.59	381.51
462.77	430.66
462.95	404.91
463.13	393.21
463.32	447.04
463.50	433.00
463.68	468.11
463.86	365.12
464.05	411.93
464.23	444.70
464.41	348.74
464.59	407.25
464.78	454.06
464.96	358.10
465.14	423.64
465.32	379.17
465.50	425.98
465.69	421.30
465.87	393.21
466.05	447.04
466.23	381.51
466.41	411.93
466.60	367.46
466.78	395.55
466.96	390.87
467.14	411.93
467.32	437.68
467.51	444.70
467.69	390.87
467.87	430.66
468.05	470.45
468.23	423.64
468.41	397.89
468.60	409.59
468.78	388.53
468.96	430.66
469.14	395.55
469.32	423.64
469.50	390.87
469.69	482.15
469.87	376.83
470.05	409.59
470.23	433.00
470.41	381.51
470.59	416.62
470.77	390.87
470.95	374.49
471.14	484.49
471.32	402.57
471.50	397.89
471.68	449.38
471.86	407.25
472.04	346.40
472.22	454.06
472.40	430.66
472.58	353.42
472.77	395.55
472.95	437.68
473.13	447.04
473.31	383.85
473.49	433.00
473.67	383.85
473.85	416.62
474.03	458.74
474.21	444.70
474.39	463.43
474.57	472.79
474.75	372.15
474.93	409.59
475.12	411.93
475.30	374.49
475.48	456.40
475.66	362.78
475.84	369.80
476.02	374.49
476.20	372.15
476.38	381.51
476.56	425.98
476.74	409.59
476.92	442.36
477.10	381.51
477.28	433.00
477.46	400.23
477.64	435.34
477.82	388.53
478.00	463.43
478.18	442.36
478.36	416.62
478.54	362.78
478.72	379.17
478.90	437.68
479.08	454.06
479.26	414.27
479.44	402.57
479.62	433.00
479.80	425.98
479.98	388.53
480.16	397.89
480.34	388.53
480.52	444.70
480.70	409.59
480.88	416.62
481.06	435.34
481.24	353.42
481.41	503.22
481.59	374.49
481.77	393.21
481.95	386.19
482.13	465.77
482.31	435.34
482.49	414.27
482.67	409.59
482.85	465.77
483.03	423.64
483.21	404.91
483.39	409.59
483.57	299.59
483.74	456.40
483.92	444.70
484.10	395.55
484.28	458.74
484.46	475.13
484.64	402.57
484.82	407.25
485.00	477.47
485.18	428.32
485.35	418.96
485.53	383.85
485.71	477.47
485.89	409.59
486.07	365.12
486.25	404.91
486.43	430.66
486.61	456.40
486.78	465.77
486.96	451.72
487.14	390.87
487.32	362.78
487.50	379.17
487.68	360.44
487.85	390.87
488.03	369.80
488.21	393.21
488.39	409.59
488.57	390.87
488.75	376.83
488.92	468.11
489.10	409.59
489.28	400.23
489.46	442.36
489.64	458.74
489.81	397.89
489.99	337.04
490.17	395.55
490.35	517.26
490.53	411.93
490.70	386.19
490.88	416.62
491.06	372.15
491.24	440.02
491.41	409.59
491.59	425.98
491.77	444.70
491.95	407.25
492.13	407.25
492.30	489.17
492.48	409.59
492.66	425.98
492.84	383.85
493.01	381.51
493.19	451.72
493.37	456.40
493.54	411.93
493.72	397.89
493.90	447.04
494.08	418.96
494.25	407.25
494.43	444.70
494.61	512.58
494.79	407.25
494.96	374.49
495.14	503.22
495.32	425.98
495.49	411.93
495.67	372.15
495.85	374.49
496.02	437.68
496.20	440.02
496.38	390.87
496.55	418.96
496.73	423.64
496.91	395.55
497.09	421.30
497.26	435.34
497.44	475.13
497.62	386.19
497.79	451.72
497.97	365.12
498.14	409.59
498.32	386.19
498.50	395.55
498.67	440.02
498.85	465.77
499.03	421.30
499.20	325.33
499.38	374.49
499.56	440.02
499.73	440.02
499.91	404.91
500.08	416.62
500.26	409.59
500.44	402.57
500.61	447.04
500.79	416.62
500.97	369.80
501.14	507.90
501.32	465.77
501.49	409.59
501.67	465.77
501.84	449.38
502.02	388.53
502.20	500.87
502.37	440.02
502.55	369.80
502.72	416.62
502.90	423.64
503.07	430.66
503.25	458.74
503.43	376.83
503.60	386.19
503.78	395.55
503.95	402.57
504.13	416.62
504.30	458.74
504.48	425.98
504.65	484.49
504.83	447.04
505.01	404.91
505.18	327.68
505.36	374.49
505.53	372.15
505.71	397.89
505.88	472.79
506.06	400.23
506.23	344.06
506.41	400.23
506.58	451.72
506.76	425.98
506.93	390.87
507.11	477.47
507.28	437.68
507.46	430.66
507.63	447.04
507.81	381.51
507.98	395.55
508.16	493.85
508.33	449.38
508.50	479.81
508.68	400.23
508.85	456.40
509.03	430.66
509.20	482.15
509.38	479.81
509.55	437.68
509.73	440.02
509.90	444.70
510.08	393.21
510.25	388.53
510.42	411.93
510.60	341.72
510.77	407.25
510.95	362.78
511.12	400.23
511.30	430.66
511.47	402.57
511.64	414.27
511.82	376.83
511.99	404.91
512.17	388.53
512.34	428.32
512.51	440.02
512.69	444.70
512.86	456.40
513.04	351.08
513.21	461.09
513.38	341.72
513.56	435.34
513.73	353.42
513.90	437.68
514.08	416.62
514.25	411.93
514.43	428.32
514.60	346.40
514.77	376.83
514.95	482.15
515.12	444.70
515.29	521.94
515.47	421.30
515.64	440.02
515.81	388.53
515.99	388.53
516.16	449.38
516.33	435.34
516.51	402.57
516.68	407.25
516.85	449.38
517.03	322.99
517.20	444.70
517.37	428.32
517.54	433.00
517.72	444.70
517.89	367.46
518.06	365.12
518.24	458.74
518.41	451.72
518.58	456.40
518.75	486.83
518.93	341.72
519.10	484.49
519.27	379.17
519.45	400.23
519.62	393.21
519.79	372.15
519.96	423.64
520.14	440.02
520.31	461.09
520.48	367.46
520.65	393.21
520.83	430.66
521.00	383.85
521.17	500.87
521.34	440.02
521.52	461.09
521.69	447.04
521.86	355.76
522.03	414.27
522.20	418.96
522.38	421.30
522.55	486.83
522.72	425.98
522.89	433.00
523.07	423.64
523.24	397.89
523.41	409.59
523.58	372.15
523.75	351.08
523.92	409.59
524.10	376.83
524.27	430.66
524.44	400.23
524.61	447.04
524.78	372.15
524.96	423.64
525.13	458.74
525.30	367.46
525.47	402.57
525.64	451.72
525.81	376.83
525.98	451.72
526.16	346.40
526.33	440.02
526.50	451.72
526.67	433.00
526.84	409.59
527.01	463.43
527.18	449.38
527.36	372.15
527.53	407.25
527.70	486.83
527.87	418.96
528.04	461.09
528.21	416.62
528.38	402.57
528.55	414.27
528.72	437.68
528.89	381.51
529.07	407.25
529.24	416.62
529.41	393.21
529.58	421.30
529.75	409.59
529.92	402.57
530.09	444.70
530.26	407.25
530.43	428.32
530.60	444.70
530.77	376.83
530.94	400.23
531.11	430.66
531.28	433.00
531.46	402.57
531.63	461.09
531.80	374.49
531.97	437.68
532.14	393.21
532.31	418.96
532.48	416.62
532.65	442.36
532.82	418.96
532.99	400.23
533.16	472.79
533.33	435.34
533.50	320.65
533.67	395.55
533.84	468.11
534.01	372.15
534.18	416.62
534.35	437.68
534.52	430.66
534.69	444.70
534.86	344.06
535.03	395.55
535.20	339.38
535.37	468.11
535.54	449.38
535.71	402.57
535.88	428.32
536.05	416.62
536.22	430.66
536.38	451.72
536.55	458.74
536.72	486.83
536.89	402.57
537.06	423.64
537.23	334.70
537.40	437.68
537.57	318.31
537.74	451.72
537.91	381.51
538.08	437.68
538.25	372.15
538.42	411.93
538.59	348.74
538.75	425.98
538.92	330.02
539.09	395.55
539.26	470.45
539.43	505.56
539.60	437.68
539.77	435.34
539.94	447.04
540.11	472.79
540.28	498.53
540.44	440.02
540.61	463.43
540.78	372.15
540.95	458.74
541.12	376.83
541.29	472.79
541.46	440.02
541.62	353.42
541.79	388.53
541.96	425.98
542.13	430.66
542.30	407.25
542.47	430.66
542.63	407.25
542.80	407.25
542.97	416.62
543.14	491.51
543.31	360.44
543.48	379.17
543.64	393.21
543.81	402.57
543.98	421.30
544.15	414.27
544.32	381.51
544.48	409.59
544.65	428.32
544.82	358.10
544.99	407.25
545.16	423.64
545.32	475.13
545.49	430.66
545.66	447.04
545.83	376.83
546.00	433.00
546.16	416.62
546.33	393.21
546.50	386.19
546.67	454.06
546.83	493.85
547.00	454.06
547.17	442.36
547.34	409.59
547.50	400.23
547.67	362.78
547.84	430.66
548.00	440.02
548.17	451.72
548.34	386.19
548.51	423.64
548.67	447.04
548.84	444.70
549.01	362.78
549.18	425.98
549.34	367.46
549.51	416.62
549.68	482.15
549.84	433.00
550.01	433.00
550.18	451.72
550.34	440.02
550.51	400.23
550.68	456.40
550.84	433.00
551.01	400.23
551.18	400.23
551.34	418.96
551.51	454.06
551.68	430.66
551.84	482.15
552.01	454.06
552.18	444.70
552.34	362.78
552.51	332.36
552.68	428.32
552.84	418.96
553.01	369.80
553.18	418.96
553.34	411.93
553.51	425.98
553.67	482.15
553.84	440.02
554.01	388.53
554.17	395.55
554.34	332.36
554.51	416.62
554.67	433.00
554.84	470.45
555.00	430.66
555.17	449.38
555.33	489.17
555.50	496.19
555.67	444.70
555.83	395.55
556.00	393.21
556.16	561.73
556.33	425.98
556.50	393.21
556.66	386.19
556.83	437.68
556.99	400.23
557.16	365.12
557.32	397.89
557.49	397.89
557.65	421.30
557.82	381.51
557.98	472.79
558.15	365.12
558.32	416.62
558.48	449.38
558.65	404.91
558.81	430.66
558.98	461.09
559.14	454.06
559.31	379.17
559.47	440.02
559.64	428.32
559.80	372.15
559.97	423.64
560.13	423.64
560.30	390.87
560.46	456.40
560.63	463.43
560.79	344.06
560.96	414.27
561.12	461.09
561.29	437.68
561.45	407.25
561.61	383.85
561.78	528.96
561.94	528.96
562.11	470.45
562.27	416.62
562.44	451.72
562.60	386.19
562.77	425.98
562.93	475.13
563.10	393.21
563.26	374.49
563.42	348.74
563.59	393.21
563.75	433.00
563.92	489.17
564.08	379.17
564.24	362.78
564.41	454.06
564.57	358.10
564.74	388.53
564.90	442.36
565.07	369.80
565.23	404.91
565.39	454.06
565.56	470.45
565.72	388.53
565.88	425.98
566.05	418.96
566.21	409.59
566.38	447.04
566.54	470.45
566.70	414.27
566.87	451.72
567.03	435.34
567.19	407.25
567.36	414.27
567.52	404.91
567.68	449.38
567.85	423.64
568.01	416.62
568.17	421.30
568.34	407.25
568.50	444.70
568.66	388.53
568.83	496.19
568.99	388.53
569.15	423.64
569.32	428.32
569.48	362.78
569.64	386.19
569.81	381.51
569.97	491.51
570.13	411.93
570.30	414.27
570.46	400.23
570.62	414.27
570.78	330.02
570.95	367.46
571.11	449.38
571.27	552.37
571.43	360.44
571.60	428.32
571.76	355.76
571.92	418.96
572.09	402.57
572.25	409.59
572.41	425.98
572.57	383.85
572.74	454.06
572.90	503.22
573.06	367.46
573.22	358.10
573.38	414.27
573.55	411.93
573.71	465.77
573.87	493.85
574.03	397.89
574.20	461.09
574.36	421.30
574.52	451.72
574.68	397.89
574.84	435.34
575.01	454.06
575.17	390.87
575.33	355.76
575.49	454.06
575.65	414.27
575.82	444.70
575.98	400.23
576.14	416.62
576.30	423.64
576.46	379.17
576.62	383.85
576.79	425.98
576.95	402.57
577.11	463.43
577.27	381.51
577.43	444.70
577.59	458.74
577.75	463.43
577.92	369.80
578.08	435.34
578.24	351.08
578.40	458.74
578.56	433.00
578.72	514.92
578.88	400.23
579.04	376.83
579.21	465.77
579.37	500.87
579.53	400.23
579.69	414.27
579.85	407.25
580.01	470.45
580.17	425.98
580.33	411.93
580.49	433.00
580.65	463.43
580.82	456.40
580.98	414.27
581.14	372.15
581.30	449.38
581.46	472.79
581.62	463.43
581.78	397.89
581.94	440.02
582.10	367.46
582.26	421.30
582.42	505.56
582.58	430.66
582.74	404.91
582.90	489.17
583.06	411.93
583.22	404.91
583.38	386.19
583.54	344.06
583.70	454.06
583.86	411.93
584.02	440.02
584.18	376.83
584.34	395.55
584.50	449.38
584.66	404.91
584.82	404.91
584.98	430.66
585.14	482.15
585.30	449.38
585.46	360.44
585.62	365.12
585.78	376.83
585.94	379.17
586.10	423.64
586.26	433.00
586.42	423.64
586.58	449.38
586.74	465.77
586.90	416.62
587.06	308.95
587.22	430.66
587.38	442.36
587.54	411.93
587.70	414.27
587.86	447.04
588.02	433.00
588.18	454.06
588.34	435.34
588.49	449.38
588.65	402.57
588.81	411.93
588.97	456.40
589.13	425.98
589.29	381.51
589.45	468.11
589.61	433.00
589.77	472.79
589.93	470.45
590.08	484.49
590.24	442.36
590.40	524.28
590.56	458.74
590.72	463.43
590.88	381.51
591.04	451.72
591.20	425.98
591.35	383.85
591.51	442.36
591.67	437.68
591.83	414.27
591.99	425.98
592.15	449.38
592.31	390.87
592.46	447.04
592.62	376.83
592.78	435.34
592.94	458.74
593.10	414.27
593.26	416.62
593.41	409.59
593.57	374.49
593.73	461.09
593.89	456.40
594.05	461.09
594.20	421.30
594.36	404.91
594.52	458.74
594.68	463.43
594.84	411.93
594.99	369.80
595.15	433.00
595.31	477.47
595.47	463.43
595.62	407.25
595.78	407.25
595.94	472.79
596.10	397.89
596.25	421.30
596.41	411.93
596.57	435.34
596.73	388.53
596.88	447.04
597.04	306.61
597.20	418.96
597.36	388.53
597.51	435.34
597.67	395.55
597.83	465.77
597.99	435.34
598.14	449.38
598.30	393.21
598.46	351.08
598.61	418.96
598.77	397.89
598.93	418.96
599.09	440.02
599.24	407.25
599.40	440.02
599.56	395.55
599.71	512.58
599.87	482.15
600.03	425.98
600.18	444.70
600.34	393.21
600.50	400.23
600.65	379.17
600.81	418.96
600.97	428.32
601.12	390.87
601.28	454.06
601.44	404.91
601.59	451.72
601.75	416.62
601.91	440.02
602.06	376.83
602.22	423.64
602.37	440.02
602.53	386.19
602.69	430.66
602.84	362.78
603.00	411.93
603.16	435.34
603.31	479.81
603.47	472.79
603.62	372.15
603.78	454.06
603.94	411.93
604.09	433.00
604.25	428.32
604.40	484.49
604.56	388.53
604.71	400.23
604.87	414.27
605.03	397.89
605.18	442.36
605.34	402.57
605.49	390.87
605.65	449.38
605.80	458.74
605.96	470.45
606.12	383.85
606.27	395.55
606.43	449.38
606.58	468.11
606.74	456.40
606.89	447.04
607.05	440.02
607.20	454.06
607.36	449.38
607.51	381.51
607.67	430.66
607.82	458.74
607.98	477.47
608.13	482.15
608.29	430.66
608.44	411.93
608.60	470.45
608.75	430.66
608.91	395.55
609.06	454.06
609.22	437.68
609.37	449.38
609.53	444.70
609.68	372.15
609.84	423.64
609.99	402.57
610.15	395.55
