SpectraSuite Data File
++++++++++++++++++++++++++++++++++++
Date: Fri Oct 25 12:10:54 EDT 2013
User: price-jones
Dark Spectrum Present: No
Reference Spectrum Present: No
Number of Sampled Component Spectra: 1
Spectrometers: USB2+H05261
Integration Time (usec): 100000 (USB2+H05261)
Spectra Averaged: 1 (USB2+H05261)
Boxcar Smoothing: 0 (USB2+H05261)
Correct for Electrical Dark: No (USB2+H05261)
Strobe/Lamp Enabled: No (USB2+H05261)
Correct for Detector Non-linearity: No (USB2+H05261)
Correct for Stray Light: No (USB2+H05261)
Number of Pixels in Processed Spectrum: 2048
>>>>>Begin Processed Spectral Data<<<<<
365.73	351.08
365.92	351.08
366.12	351.08
366.32	299.59
366.52	212.99
366.72	269.16
366.91	161.50
367.11	215.33
367.31	252.78
367.51	189.58
367.70	280.86
367.90	227.03
368.10	266.82
368.30	241.08
368.49	245.76
368.69	205.97
368.89	236.39
369.09	259.80
369.28	257.46
369.48	238.73
369.68	238.73
369.87	304.27
370.07	320.65
370.27	362.78
370.47	369.80
370.66	341.72
370.86	393.21
371.06	397.89
371.25	404.91
371.45	308.95
371.65	372.15
371.84	400.23
372.04	395.55
372.24	428.32
372.44	390.87
372.63	463.43
372.83	388.53
373.03	458.74
373.22	346.40
373.42	393.21
373.62	421.30
373.81	411.93
374.01	400.23
374.21	397.89
374.40	414.27
374.60	402.57
374.79	386.19
374.99	407.25
375.19	475.13
375.38	414.27
375.58	440.02
375.78	435.34
375.97	472.79
376.17	395.55
376.37	414.27
376.56	414.27
376.76	435.34
376.95	400.23
377.15	397.89
377.35	470.45
377.54	430.66
377.74	430.66
377.93	383.85
378.13	440.02
378.33	449.38
378.52	393.21
378.72	423.64
378.91	383.85
379.11	400.23
379.31	388.53
379.50	407.25
379.70	407.25
379.89	369.80
380.09	440.02
380.28	313.63
380.48	414.27
380.68	418.96
380.87	379.17
381.07	393.21
381.26	358.10
381.46	388.53
381.65	367.46
381.85	358.10
382.04	404.91
382.24	337.04
382.43	367.46
382.63	430.66
382.83	367.46
383.02	390.87
383.22	430.66
383.41	416.62
383.61	458.74
383.80	425.98
384.00	407.25
384.19	395.55
384.39	416.62
384.58	407.25
384.78	372.15
384.97	360.44
385.17	358.10
385.36	388.53
385.56	433.00
385.75	428.32
385.95	456.40
386.14	400.23
386.34	334.70
386.53	383.85
386.72	416.62
386.92	514.92
387.11	344.06
387.31	379.17
387.50	400.23
387.70	386.19
387.89	423.64
388.09	409.59
388.28	353.42
388.48	402.57
388.67	418.96
388.86	479.81
389.06	379.17
389.25	442.36
389.45	442.36
389.64	449.38
389.84	430.66
390.03	418.96
390.22	372.15
390.42	388.53
390.61	367.46
390.81	397.89
391.00	386.19
391.19	449.38
391.39	496.19
391.58	390.87
391.78	414.27
391.97	402.57
392.16	414.27
392.36	360.44
392.55	440.02
392.75	430.66
392.94	393.21
393.13	421.30
393.33	390.87
393.52	379.17
393.71	414.27
393.91	442.36
394.10	433.00
394.29	418.96
394.49	379.17
394.68	435.34
394.88	409.59
395.07	395.55
395.26	390.87
395.46	386.19
395.65	416.62
395.84	379.17
396.04	458.74
396.23	418.96
396.42	353.42
396.62	348.74
396.81	383.85
397.00	411.93
397.19	465.77
397.39	395.55
397.58	435.34
397.77	421.30
397.97	454.06
398.16	383.85
398.35	381.51
398.55	447.04
398.74	421.30
398.93	437.68
399.12	383.85
399.32	393.21
399.51	454.06
399.70	372.15
399.90	344.06
400.09	407.25
400.28	411.93
400.47	421.30
400.67	360.44
400.86	376.83
401.05	402.57
401.24	414.27
401.44	388.53
401.63	402.57
401.82	376.83
402.01	381.51
402.21	341.72
402.40	404.91
402.59	386.19
402.78	348.74
402.97	332.36
403.17	416.62
403.36	374.49
403.55	379.17
403.74	404.91
403.93	395.55
404.13	440.02
404.32	365.12
404.51	325.33
404.70	454.06
404.89	390.87
405.09	435.34
405.28	435.34
405.47	383.85
405.66	425.98
405.85	454.06
406.05	355.76
406.24	418.96
406.43	388.53
406.62	456.40
406.81	505.56
407.00	463.43
407.20	425.98
407.39	449.38
407.58	400.23
407.77	409.59
407.96	393.21
408.15	369.80
408.34	418.96
408.54	407.25
408.73	404.91
408.92	372.15
409.11	449.38
409.30	482.15
409.49	390.87
409.68	442.36
409.87	407.25
410.07	414.27
410.26	407.25
410.45	362.78
410.64	362.78
410.83	449.38
411.02	421.30
411.21	447.04
411.40	388.53
411.59	418.96
411.78	486.83
411.98	390.87
412.17	339.38
412.36	358.10
412.55	320.65
412.74	447.04
412.93	437.68
413.12	454.06
413.31	397.89
413.50	428.32
413.69	400.23
413.88	461.09
414.07	433.00
414.26	369.80
414.45	379.17
414.64	400.23
414.83	339.38
415.02	348.74
415.22	337.04
415.41	425.98
415.60	365.12
415.79	451.72
415.98	407.25
416.17	395.55
416.36	418.96
416.55	428.32
416.74	442.36
416.93	346.40
417.12	451.72
417.31	395.55
417.50	367.46
417.69	486.83
417.88	414.27
418.07	425.98
418.26	339.38
418.45	437.68
418.64	365.12
418.83	414.27
419.02	425.98
419.21	407.25
419.39	379.17
419.58	402.57
419.77	393.21
419.96	479.81
420.15	386.19
420.34	376.83
420.53	379.17
420.72	355.76
420.91	353.42
421.10	337.04
421.29	416.62
421.48	440.02
421.67	451.72
421.86	458.74
422.05	454.06
422.24	407.25
422.43	351.08
422.61	437.68
422.80	428.32
422.99	386.19
423.18	358.10
423.37	425.98
423.56	500.87
423.75	390.87
423.94	421.30
424.13	437.68
424.32	355.76
424.50	404.91
424.69	440.02
424.88	454.06
425.07	376.83
425.26	465.77
425.45	411.93
425.64	379.17
425.83	421.30
426.01	400.23
426.20	393.21
426.39	372.15
426.58	437.68
426.77	395.55
426.96	395.55
427.15	454.06
427.33	409.59
427.52	404.91
427.71	421.30
427.90	395.55
428.09	400.23
428.28	404.91
428.46	430.66
428.65	433.00
428.84	355.76
429.03	442.36
429.22	393.21
429.40	409.59
429.59	416.62
429.78	425.98
429.97	369.80
430.16	383.85
430.34	360.44
430.53	411.93
430.72	402.57
430.91	493.85
431.10	409.59
431.28	344.06
431.47	369.80
431.66	435.34
431.85	428.32
432.03	376.83
432.22	416.62
432.41	472.79
432.60	344.06
432.79	416.62
432.97	330.02
433.16	395.55
433.35	451.72
433.54	367.46
433.72	454.06
433.91	353.42
434.10	479.81
434.28	437.68
434.47	423.64
434.66	421.30
434.85	346.40
435.03	435.34
435.22	435.34
435.41	440.02
435.59	407.25
435.78	395.55
435.97	388.53
436.16	489.17
436.34	386.19
436.53	437.68
436.72	407.25
436.90	437.68
437.09	423.64
437.28	376.83
437.46	376.83
437.65	395.55
437.84	418.96
438.02	472.79
438.21	540.66
438.40	376.83
438.58	458.74
438.77	423.64
438.96	444.70
439.14	404.91
439.33	388.53
439.52	397.89
439.70	400.23
439.89	428.32
440.08	397.89
440.26	388.53
440.45	458.74
440.63	465.77
440.82	428.32
441.01	372.15
441.19	407.25
441.38	435.34
441.57	404.91
441.75	411.93
441.94	390.87
442.12	425.98
442.31	369.80
442.50	379.17
442.68	423.64
442.87	423.64
443.05	365.12
443.24	390.87
443.43	425.98
443.61	428.32
443.80	393.21
443.98	393.21
444.17	355.76
444.35	397.89
444.54	339.38
444.73	411.93
444.91	374.49
445.10	507.90
445.28	386.19
445.47	433.00
445.65	425.98
445.84	400.23
446.02	355.76
446.21	468.11
446.39	383.85
446.58	425.98
446.77	400.23
446.95	461.09
447.14	484.49
447.32	458.74
447.51	454.06
447.69	379.17
447.88	465.77
448.06	416.62
448.25	367.46
448.43	381.51
448.62	418.96
448.80	374.49
448.99	482.15
449.17	372.15
449.36	416.62
449.54	411.93
449.73	379.17
449.91	451.72
450.10	381.51
450.28	440.02
450.46	407.25
450.65	397.89
450.83	475.13
451.02	440.02
451.20	360.44
451.39	404.91
451.57	367.46
451.76	355.76
451.94	369.80
452.13	379.17
452.31	447.04
452.49	444.70
452.68	465.77
452.86	500.87
453.05	449.38
453.23	402.57
453.42	444.70
453.60	402.57
453.78	304.27
453.97	388.53
454.15	411.93
454.34	451.72
454.52	442.36
454.70	418.96
454.89	348.74
455.07	430.66
455.26	435.34
455.44	468.11
455.62	362.78
455.81	423.64
455.99	355.76
456.17	486.83
456.36	435.34
456.54	486.83
456.73	402.57
456.91	332.36
457.09	423.64
457.28	388.53
457.46	468.11
457.64	414.27
457.83	395.55
458.01	433.00
458.19	428.32
458.38	383.85
458.56	388.53
458.74	395.55
458.93	414.27
459.11	369.80
459.29	421.30
459.48	402.57
459.66	472.79
459.84	440.02
460.03	517.26
460.21	381.51
460.39	449.38
460.57	381.51
460.76	435.34
460.94	360.44
461.12	498.53
461.31	433.00
461.49	416.62
461.67	425.98
461.85	407.25
462.04	521.94
462.22	805.14
462.40	423.64
462.59	447.04
462.77	372.15
462.95	386.19
463.13	404.91
463.32	456.40
463.50	428.32
463.68	484.49
463.86	458.74
464.05	428.32
464.23	411.93
464.41	444.70
464.59	416.62
464.78	411.93
464.96	369.80
465.14	393.21
465.32	383.85
465.50	407.25
465.69	465.77
465.87	376.83
466.05	416.62
466.23	416.62
466.41	376.83
466.60	423.64
466.78	379.17
466.96	435.34
467.14	393.21
467.32	421.30
467.51	386.19
467.69	393.21
467.87	442.36
468.05	386.19
468.23	376.83
468.41	440.02
468.60	423.64
468.78	425.98
468.96	388.53
469.14	486.83
469.32	416.62
469.50	449.38
469.69	489.17
469.87	409.59
470.05	395.55
470.23	358.10
470.41	395.55
470.59	379.17
470.77	440.02
470.95	365.12
471.14	503.22
471.32	379.17
471.50	400.23
471.68	330.02
471.86	461.09
472.04	447.04
472.22	456.40
472.40	444.70
472.58	383.85
472.77	407.25
472.95	395.55
473.13	395.55
473.31	421.30
473.49	348.74
473.67	414.27
473.85	379.17
474.03	435.34
474.21	435.34
474.39	484.49
474.57	447.04
474.75	395.55
474.93	374.49
475.12	341.72
475.30	383.85
475.48	472.79
475.66	383.85
475.84	454.06
476.02	461.09
476.20	472.79
476.38	379.17
476.56	444.70
476.74	388.53
476.92	475.13
477.10	418.96
477.28	458.74
477.46	435.34
477.64	388.53
477.82	433.00
478.00	407.25
478.18	442.36
478.36	433.00
478.54	428.32
478.72	430.66
478.90	435.34
479.08	388.53
479.26	367.46
479.44	414.27
479.62	386.19
479.80	383.85
479.98	416.62
480.16	435.34
480.34	475.13
480.52	418.96
480.70	454.06
480.88	388.53
481.06	388.53
481.24	470.45
481.41	393.21
481.59	386.19
481.77	463.43
481.95	355.76
482.13	423.64
482.31	407.25
482.49	372.15
482.67	418.96
482.85	416.62
483.03	404.91
483.21	381.51
483.39	414.27
483.57	393.21
483.74	517.26
483.92	376.83
484.10	470.45
484.28	395.55
484.46	430.66
484.64	425.98
484.82	423.64
485.00	358.10
485.18	423.64
485.35	383.85
485.53	372.15
485.71	425.98
485.89	407.25
486.07	409.59
486.25	407.25
486.43	425.98
486.61	456.40
486.78	451.72
486.96	407.25
487.14	463.43
487.32	390.87
487.50	330.02
487.68	416.62
487.85	409.59
488.03	395.55
488.21	442.36
488.39	388.53
488.57	367.46
488.75	397.89
488.92	486.83
489.10	437.68
489.28	503.22
489.46	423.64
489.64	435.34
489.81	454.06
489.99	404.91
490.17	418.96
490.35	475.13
490.53	402.57
490.70	315.97
490.88	411.93
491.06	421.30
491.24	430.66
491.41	444.70
491.59	442.36
491.77	482.15
491.95	402.57
492.13	440.02
492.30	421.30
492.48	383.85
492.66	388.53
492.84	379.17
493.01	521.94
493.19	400.23
493.37	449.38
493.54	482.15
493.72	484.49
493.90	449.38
494.08	374.49
494.25	313.63
494.43	437.68
494.61	402.57
494.79	418.96
494.96	365.12
495.14	400.23
495.32	395.55
495.49	379.17
495.67	528.96
495.85	468.11
496.02	489.17
496.20	374.49
496.38	404.91
496.55	449.38
496.73	454.06
496.91	367.46
497.09	330.02
497.26	456.40
497.44	372.15
497.62	395.55
497.79	353.42
497.97	386.19
498.14	418.96
498.32	418.96
498.50	416.62
498.67	418.96
498.85	411.93
499.03	425.98
499.20	400.23
499.38	435.34
499.56	372.15
499.73	440.02
499.91	395.55
500.08	482.15
500.26	458.74
500.44	297.25
500.61	425.98
500.79	411.93
500.97	435.34
501.14	402.57
501.32	416.62
501.49	421.30
501.67	425.98
501.84	337.04
502.02	390.87
502.20	458.74
502.37	367.46
502.55	404.91
502.72	374.49
502.90	372.15
503.07	442.36
503.25	433.00
503.43	381.51
503.60	425.98
503.78	388.53
503.95	433.00
504.13	421.30
504.30	402.57
504.48	423.64
504.65	402.57
504.83	400.23
505.01	444.70
505.18	475.13
505.36	442.36
505.53	414.27
505.71	444.70
505.88	440.02
506.06	379.17
506.23	475.13
506.41	400.23
506.58	360.44
506.76	423.64
506.93	465.77
507.11	372.15
507.28	430.66
507.46	421.30
507.63	454.06
507.81	400.23
507.98	423.64
508.16	423.64
508.33	440.02
508.50	423.64
508.68	425.98
508.85	411.93
509.03	402.57
509.20	425.98
509.38	397.89
509.55	395.55
509.73	428.32
509.90	477.47
510.08	433.00
510.25	397.89
510.42	442.36
510.60	472.79
510.77	400.23
510.95	423.64
511.12	428.32
511.30	423.64
511.47	463.43
511.64	400.23
511.82	447.04
511.99	397.89
512.17	423.64
512.34	404.91
512.51	362.78
512.69	407.25
512.86	482.15
513.04	425.98
513.21	428.32
513.38	367.46
513.56	482.15
513.73	430.66
513.90	353.42
514.08	447.04
514.25	402.57
514.43	475.13
514.60	386.19
514.77	433.00
514.95	430.66
515.12	407.25
515.29	447.04
515.47	433.00
515.64	414.27
515.81	433.00
515.99	468.11
516.16	367.46
516.33	449.38
516.51	402.57
516.68	409.59
516.85	414.27
517.03	433.00
517.20	425.98
517.37	440.02
517.54	425.98
517.72	421.30
517.89	376.83
518.06	454.06
518.24	496.19
518.41	447.04
518.58	416.62
518.75	395.55
518.93	468.11
519.10	393.21
519.27	440.02
519.45	456.40
519.62	402.57
519.79	470.45
519.96	330.02
520.14	360.44
520.31	461.09
520.48	388.53
520.65	348.74
520.83	404.91
521.00	425.98
521.17	437.68
521.34	430.66
521.52	358.10
521.69	421.30
521.86	435.34
522.03	397.89
522.20	440.02
522.38	435.34
522.55	440.02
522.72	425.98
522.89	404.91
523.07	418.96
523.24	442.36
523.41	421.30
523.58	402.57
523.75	367.46
523.92	425.98
524.10	386.19
524.27	444.70
524.44	372.15
524.61	425.98
524.78	437.68
524.96	390.87
525.13	411.93
525.30	456.40
525.47	458.74
525.64	397.89
525.81	397.89
525.98	365.12
526.16	425.98
526.33	365.12
526.50	491.51
526.67	367.46
526.84	423.64
527.01	400.23
527.18	365.12
527.36	456.40
527.53	421.30
527.70	449.38
527.87	418.96
528.04	470.45
528.21	360.44
528.38	444.70
528.55	475.13
528.72	458.74
528.89	433.00
529.07	425.98
529.24	416.62
529.41	489.17
529.58	411.93
529.75	416.62
529.92	411.93
530.09	383.85
530.26	423.64
530.43	463.43
530.60	404.91
530.77	414.27
530.94	423.64
531.11	423.64
531.28	505.56
531.46	376.83
531.63	404.91
531.80	437.68
531.97	454.06
532.14	454.06
532.31	463.43
532.48	416.62
532.65	369.80
532.82	397.89
532.99	402.57
533.16	449.38
533.33	425.98
533.50	393.21
533.67	358.10
533.84	400.23
534.01	367.46
534.18	458.74
534.35	397.89
534.52	430.66
534.69	468.11
534.86	463.43
535.03	388.53
535.20	454.06
535.37	353.42
535.54	376.83
535.71	400.23
535.88	461.09
536.05	393.21
536.22	451.72
536.38	369.80
536.55	414.27
536.72	423.64
536.89	374.49
537.06	449.38
537.23	332.36
537.40	404.91
537.57	430.66
537.74	430.66
537.91	435.34
538.08	369.80
538.25	489.17
538.42	411.93
538.59	383.85
538.75	465.77
538.92	407.25
539.09	397.89
539.26	409.59
539.43	395.55
539.60	435.34
539.77	386.19
539.94	372.15
540.11	458.74
540.28	390.87
540.44	414.27
540.61	395.55
540.78	372.15
540.95	433.00
541.12	440.02
541.29	393.21
541.46	402.57
541.62	393.21
541.79	458.74
541.96	421.30
542.13	374.49
542.30	346.40
542.47	437.68
542.63	388.53
542.80	425.98
542.97	428.32
543.14	444.70
543.31	440.02
543.48	374.49
543.64	482.15
543.81	421.30
543.98	433.00
544.15	423.64
544.32	355.76
544.48	447.04
544.65	416.62
544.82	449.38
544.99	440.02
545.16	381.51
545.32	461.09
545.49	437.68
545.66	409.59
545.83	470.45
546.00	379.17
546.16	404.91
546.33	484.49
546.50	402.57
546.67	383.85
546.83	397.89
547.00	395.55
547.17	421.30
547.34	421.30
547.50	468.11
547.67	374.49
547.84	400.23
548.00	430.66
548.17	353.42
548.34	507.90
548.51	533.64
548.67	435.34
548.84	416.62
549.01	433.00
549.18	449.38
549.34	388.53
549.51	440.02
549.68	491.51
549.84	372.15
550.01	393.21
550.18	475.13
550.34	451.72
550.51	482.15
550.68	451.72
550.84	407.25
551.01	423.64
551.18	404.91
551.34	430.66
551.51	437.68
551.68	348.74
551.84	461.09
552.01	402.57
552.18	505.56
552.34	411.93
552.51	444.70
552.68	444.70
552.84	409.59
553.01	395.55
553.18	325.33
553.34	362.78
553.51	447.04
553.67	463.43
553.84	388.53
554.01	435.34
554.17	437.68
554.34	421.30
554.51	416.62
554.67	444.70
554.84	454.06
555.00	451.72
555.17	304.27
555.33	454.06
555.50	447.04
555.67	456.40
555.83	421.30
556.00	456.40
556.16	493.85
556.33	465.77
556.50	442.36
556.66	496.19
556.83	423.64
556.99	435.34
557.16	407.25
557.32	372.15
557.49	482.15
557.65	444.70
557.82	397.89
557.98	435.34
558.15	346.40
558.32	425.98
558.48	468.11
558.65	407.25
558.81	505.56
558.98	437.68
559.14	411.93
559.31	414.27
559.47	353.42
559.64	411.93
559.80	437.68
559.97	430.66
560.13	477.47
560.30	393.21
560.46	444.70
560.63	416.62
560.79	435.34
560.96	388.53
561.12	477.47
561.29	449.38
561.45	383.85
561.61	451.72
561.78	461.09
561.94	444.70
562.11	461.09
562.27	416.62
562.44	367.46
562.60	388.53
562.77	400.23
562.93	407.25
563.10	425.98
563.26	433.00
563.42	461.09
563.59	402.57
563.75	379.17
563.92	484.49
564.08	418.96
564.24	472.79
564.41	437.68
564.57	491.51
564.74	358.10
564.90	393.21
565.07	414.27
565.23	395.55
565.39	379.17
565.56	425.98
565.72	430.66
565.88	383.85
566.05	365.12
566.21	374.49
566.38	498.53
566.54	442.36
566.70	369.80
566.87	425.98
567.03	475.13
567.19	407.25
567.36	433.00
567.52	397.89
567.68	428.32
567.85	470.45
568.01	358.10
568.17	376.83
568.34	442.36
568.50	440.02
568.66	360.44
568.83	526.62
568.99	468.11
569.15	444.70
569.32	512.58
569.48	372.15
569.64	447.04
569.81	390.87
569.97	451.72
570.13	402.57
570.30	458.74
570.46	433.00
570.62	353.42
570.78	430.66
570.95	421.30
571.11	418.96
571.27	465.77
571.43	390.87
571.60	402.57
571.76	395.55
571.92	454.06
572.09	411.93
572.25	365.12
572.41	369.80
572.57	482.15
572.74	454.06
572.90	451.72
573.06	404.91
573.22	351.08
573.38	435.34
573.55	440.02
573.71	428.32
573.87	411.93
574.03	355.76
574.20	369.80
574.36	362.78
574.52	416.62
574.68	430.66
574.84	421.30
575.01	470.45
575.17	430.66
575.33	414.27
575.49	383.85
575.65	404.91
575.82	449.38
575.98	411.93
576.14	367.46
576.30	388.53
576.46	374.49
576.62	407.25
576.79	416.62
576.95	477.47
577.11	358.10
577.27	395.55
577.43	479.81
577.59	486.83
577.75	337.04
577.92	409.59
578.08	458.74
578.24	428.32
578.40	421.30
578.56	400.23
578.72	461.09
578.88	503.22
579.04	435.34
579.21	365.12
579.37	402.57
579.53	402.57
579.69	435.34
579.85	461.09
580.01	407.25
580.17	435.34
580.33	388.53
580.49	433.00
580.65	386.19
580.82	402.57
580.98	355.76
581.14	428.32
581.30	484.49
581.46	470.45
581.62	428.32
581.78	442.36
581.94	421.30
582.10	433.00
582.26	449.38
582.42	465.77
582.58	383.85
582.74	407.25
582.90	337.04
583.06	451.72
583.22	372.15
583.38	388.53
583.54	393.21
583.70	428.32
583.86	416.62
584.02	416.62
584.18	447.04
584.34	440.02
584.50	379.17
584.66	341.72
584.82	381.51
584.98	421.30
585.14	409.59
585.30	451.72
585.46	437.68
585.62	451.72
585.78	381.51
585.94	444.70
586.10	404.91
586.26	362.78
586.42	444.70
586.58	381.51
586.74	430.66
586.90	418.96
587.06	470.45
587.22	486.83
587.38	402.57
587.54	479.81
587.70	484.49
587.86	510.24
588.02	362.78
588.18	313.63
588.34	425.98
588.49	423.64
588.65	433.00
588.81	390.87
588.97	383.85
589.13	409.59
589.29	463.43
589.45	386.19
589.61	388.53
589.77	465.77
589.93	400.23
590.08	475.13
590.24	425.98
590.40	402.57
590.56	348.74
590.72	423.64
590.88	367.46
591.04	416.62
591.20	355.76
591.35	409.59
591.51	355.76
591.67	376.83
591.83	407.25
591.99	472.79
592.15	423.64
592.31	461.09
592.46	376.83
592.62	386.19
592.78	390.87
592.94	397.89
593.10	393.21
593.26	393.21
593.41	407.25
593.57	400.23
593.73	440.02
593.89	395.55
594.05	367.46
594.20	433.00
594.36	409.59
594.52	404.91
594.68	341.72
594.84	407.25
594.99	505.56
595.15	442.36
595.31	437.68
595.47	395.55
595.62	411.93
595.78	383.85
595.94	376.83
596.10	437.68
596.25	428.32
596.41	416.62
596.57	447.04
596.73	440.02
596.88	379.17
597.04	435.34
597.20	330.02
597.36	472.79
597.51	428.32
597.67	388.53
597.83	414.27
597.99	449.38
598.14	437.68
598.30	418.96
598.46	451.72
598.61	379.17
598.77	442.36
598.93	344.06
599.09	461.09
599.24	381.51
599.40	484.49
599.56	425.98
599.71	442.36
599.87	411.93
600.03	418.96
600.18	505.56
600.34	451.72
600.50	418.96
600.65	390.87
600.81	421.30
600.97	395.55
601.12	411.93
601.28	440.02
601.44	435.34
601.59	344.06
601.75	423.64
601.91	393.21
602.06	456.40
602.22	414.27
602.37	397.89
602.53	344.06
602.69	360.44
602.84	330.02
603.00	493.85
603.16	416.62
603.31	437.68
603.47	442.36
603.62	383.85
603.78	447.04
603.94	475.13
604.09	395.55
604.25	390.87
604.40	421.30
604.56	383.85
604.71	430.66
604.87	374.49
605.03	416.62
605.18	395.55
605.34	465.77
605.49	468.11
605.65	435.34
605.80	461.09
605.96	461.09
606.12	433.00
606.27	369.80
606.43	407.25
606.58	397.89
606.74	372.15
606.89	379.17
607.05	402.57
607.20	461.09
607.36	423.64
607.51	416.62
607.67	381.51
607.82	479.81
607.98	526.62
608.13	367.46
608.29	458.74
608.44	379.17
608.60	442.36
608.75	440.02
608.91	423.64
609.06	416.62
609.22	395.55
609.37	402.57
609.53	372.15
609.68	428.32
609.84	362.78
609.99	404.91
610.15	367.46
