SpectraSuite Data File
++++++++++++++++++++++++++++++++++++
Date: Fri Oct 25 12:11:45 EDT 2013
User: price-jones
Dark Spectrum Present: No
Reference Spectrum Present: No
Number of Sampled Component Spectra: 1
Spectrometers: USB2+H05261
Integration Time (usec): 100000 (USB2+H05261)
Spectra Averaged: 1 (USB2+H05261)
Boxcar Smoothing: 0 (USB2+H05261)
Correct for Electrical Dark: No (USB2+H05261)
Strobe/Lamp Enabled: No (USB2+H05261)
Correct for Detector Non-linearity: No (USB2+H05261)
Correct for Stray Light: No (USB2+H05261)
Number of Pixels in Processed Spectrum: 2048
>>>>>Begin Processed Spectral Data<<<<<
365.73	360.44
365.92	360.44
366.12	360.44
366.32	315.97
366.52	220.01
366.72	220.01
366.91	243.42
367.11	227.03
367.31	203.63
367.51	238.73
367.70	255.12
367.90	241.08
368.10	269.16
368.30	215.33
368.49	191.92
368.69	177.88
368.89	262.14
369.09	234.05
369.28	271.50
369.48	278.52
369.68	245.76
369.87	299.59
370.07	220.01
370.27	393.21
370.47	348.74
370.66	355.76
370.86	334.70
371.06	362.78
371.25	470.45
371.45	346.40
371.65	433.00
371.84	362.78
372.04	304.27
372.24	339.38
372.44	376.83
372.63	400.23
372.83	442.36
373.03	388.53
373.22	381.51
373.42	411.93
373.62	379.17
373.81	442.36
374.01	428.32
374.21	411.93
374.40	308.95
374.60	411.93
374.79	435.34
374.99	454.06
375.19	440.02
375.38	383.85
375.58	437.68
375.78	440.02
375.97	484.49
376.17	486.83
376.37	414.27
376.56	418.96
376.76	358.10
376.95	362.78
377.15	437.68
377.35	456.40
377.54	440.02
377.74	447.04
377.93	482.15
378.13	407.25
378.33	397.89
378.52	402.57
378.72	353.42
378.91	465.77
379.11	397.89
379.31	484.49
379.50	299.59
379.70	442.36
379.89	369.80
380.09	430.66
380.28	383.85
380.48	341.72
380.68	353.42
380.87	388.53
381.07	428.32
381.26	449.38
381.46	447.04
381.65	395.55
381.85	372.15
382.04	374.49
382.24	390.87
382.43	430.66
382.63	475.13
382.83	400.23
383.02	433.00
383.22	433.00
383.41	397.89
383.61	442.36
383.80	409.59
384.00	332.36
384.19	395.55
384.39	425.98
384.58	381.51
384.78	397.89
384.97	381.51
385.17	433.00
385.36	369.80
385.56	484.49
385.75	475.13
385.95	322.99
386.14	442.36
386.34	374.49
386.53	372.15
386.72	381.51
386.92	393.21
387.11	348.74
387.31	440.02
387.50	353.42
387.70	393.21
387.89	362.78
388.09	383.85
388.28	376.83
388.48	421.30
388.67	435.34
388.86	365.12
389.06	433.00
389.25	418.96
389.45	374.49
389.64	484.49
389.84	402.57
390.03	416.62
390.22	372.15
390.42	400.23
390.61	475.13
390.81	456.40
391.00	383.85
391.19	411.93
391.39	430.66
391.58	411.93
391.78	447.04
391.97	339.38
392.16	428.32
392.36	470.45
392.55	430.66
392.75	423.64
392.94	400.23
393.13	451.72
393.33	409.59
393.52	390.87
393.71	430.66
393.91	456.40
394.10	337.04
394.29	383.85
394.49	397.89
394.68	449.38
394.88	409.59
395.07	463.43
395.26	372.15
395.46	404.91
395.65	444.70
395.84	421.30
396.04	425.98
396.23	465.77
396.42	402.57
396.62	423.64
396.81	433.00
397.00	402.57
397.19	472.79
397.39	381.51
397.58	425.98
397.77	327.68
397.97	447.04
398.16	411.93
398.35	365.12
398.55	411.93
398.74	381.51
398.93	355.76
399.12	353.42
399.32	402.57
399.51	374.49
399.70	451.72
399.90	395.55
400.09	395.55
400.28	433.00
400.47	369.80
400.67	369.80
400.86	470.45
401.05	433.00
401.24	437.68
401.44	447.04
401.63	388.53
401.82	437.68
402.01	365.12
402.21	444.70
402.40	372.15
402.59	416.62
402.78	421.30
402.97	355.76
403.17	376.83
403.36	458.74
403.55	339.38
403.74	355.76
403.93	428.32
404.13	409.59
404.32	407.25
404.51	484.49
404.70	437.68
404.89	418.96
405.09	414.27
405.28	414.27
405.47	414.27
405.66	407.25
405.85	475.13
406.05	409.59
406.24	400.23
406.43	374.49
406.62	444.70
406.81	327.68
407.00	454.06
407.20	416.62
407.39	444.70
407.58	435.34
407.77	442.36
407.96	409.59
408.15	355.76
408.34	388.53
408.54	472.79
408.73	423.64
408.92	395.55
409.11	461.09
409.30	332.36
409.49	402.57
409.68	351.08
409.87	367.46
410.07	395.55
410.26	414.27
410.45	414.27
410.64	444.70
410.83	409.59
411.02	379.17
411.21	437.68
411.40	400.23
411.59	477.47
411.78	416.62
411.98	442.36
412.17	447.04
412.36	470.45
412.55	390.87
412.74	503.22
412.93	449.38
413.12	458.74
413.31	362.78
413.50	341.72
413.69	388.53
413.88	407.25
414.07	435.34
414.26	425.98
414.45	386.19
414.64	444.70
414.83	421.30
415.02	433.00
415.22	430.66
415.41	407.25
415.60	411.93
415.79	435.34
415.98	456.40
416.17	376.83
416.36	369.80
416.55	435.34
416.74	416.62
416.93	489.17
417.12	463.43
417.31	407.25
417.50	383.85
417.69	442.36
417.88	486.83
418.07	339.38
418.26	430.66
418.45	414.27
418.64	486.83
418.83	376.83
419.02	444.70
419.21	423.64
419.39	447.04
419.58	381.51
419.77	386.19
419.96	456.40
420.15	470.45
420.34	440.02
420.53	418.96
420.72	442.36
420.91	416.62
421.10	418.96
421.29	400.23
421.48	458.74
421.67	416.62
421.86	325.33
422.05	421.30
422.24	402.57
422.43	353.42
422.61	456.40
422.80	379.17
422.99	374.49
423.18	372.15
423.37	416.62
423.56	355.76
423.75	355.76
423.94	381.51
424.13	430.66
424.32	372.15
424.50	409.59
424.69	456.40
424.88	409.59
425.07	489.17
425.26	409.59
425.45	381.51
425.64	414.27
425.83	421.30
426.01	493.85
426.20	404.91
426.39	358.10
426.58	425.98
426.77	423.64
426.96	475.13
427.15	458.74
427.33	428.32
427.52	397.89
427.71	376.83
427.90	468.11
428.09	423.64
428.28	341.72
428.46	381.51
428.65	423.64
428.84	414.27
429.03	437.68
429.22	425.98
429.40	360.44
429.59	379.17
429.78	416.62
429.97	383.85
430.16	374.49
430.34	428.32
430.53	470.45
430.72	390.87
430.91	463.43
431.10	418.96
431.28	433.00
431.47	379.17
431.66	327.68
431.85	475.13
432.03	369.80
432.22	397.89
432.41	376.83
432.60	456.40
432.79	449.38
432.97	416.62
433.16	360.44
433.35	444.70
433.54	390.87
433.72	383.85
433.91	440.02
434.10	381.51
434.28	451.72
434.47	425.98
434.66	458.74
434.85	393.21
435.03	425.98
435.22	411.93
435.41	442.36
435.59	465.77
435.78	423.64
435.97	484.49
436.16	482.15
436.34	440.02
436.53	344.06
436.72	400.23
436.90	442.36
437.09	407.25
437.28	360.44
437.46	428.32
437.65	444.70
437.84	416.62
438.02	510.24
438.21	407.25
438.40	418.96
438.58	421.30
438.77	449.38
438.96	369.80
439.14	430.66
439.33	393.21
439.52	351.08
439.70	430.66
439.89	458.74
440.08	479.81
440.26	379.17
440.45	444.70
440.63	400.23
440.82	376.83
441.01	486.83
441.19	402.57
441.38	411.93
441.57	386.19
441.75	390.87
441.94	409.59
442.12	395.55
442.31	442.36
442.50	346.40
442.68	383.85
442.87	454.06
443.05	409.59
443.24	409.59
443.43	386.19
443.61	414.27
443.80	407.25
443.98	418.96
444.17	341.72
444.35	397.89
444.54	421.30
444.73	311.29
444.91	472.79
445.10	395.55
445.28	433.00
445.47	365.12
445.65	468.11
445.84	360.44
446.02	395.55
446.21	397.89
446.39	433.00
446.58	393.21
446.77	416.62
446.95	381.51
447.14	390.87
447.32	437.68
447.51	397.89
447.69	428.32
447.88	425.98
448.06	468.11
448.25	416.62
448.43	421.30
448.62	381.51
448.80	390.87
448.99	477.47
449.17	355.76
449.36	397.89
449.54	425.98
449.73	400.23
449.91	400.23
450.10	461.09
450.28	486.83
450.46	454.06
450.65	463.43
450.83	440.02
451.02	400.23
451.20	440.02
451.39	423.64
451.57	414.27
451.76	402.57
451.94	425.98
452.13	435.34
452.31	407.25
452.49	442.36
452.68	421.30
452.86	468.11
453.05	374.49
453.23	430.66
453.42	395.55
453.60	421.30
453.78	454.06
453.97	395.55
454.15	411.93
454.34	435.34
454.52	339.38
454.70	395.55
454.89	411.93
455.07	437.68
455.26	447.04
455.44	416.62
455.62	463.43
455.81	470.45
455.99	395.55
456.17	456.40
456.36	367.46
456.54	470.45
456.73	458.74
456.91	393.21
457.09	397.89
457.28	442.36
457.46	367.46
457.64	440.02
457.83	416.62
458.01	379.17
458.19	397.89
458.38	395.55
458.56	414.27
458.74	365.12
458.93	400.23
459.11	428.32
459.29	390.87
459.48	369.80
459.66	414.27
459.84	376.83
460.03	465.77
460.21	404.91
460.39	362.78
460.57	428.32
460.76	475.13
460.94	383.85
461.12	484.49
461.31	437.68
461.49	428.32
461.67	409.59
461.85	418.96
462.04	475.13
462.22	758.33
462.40	383.85
462.59	470.45
462.77	379.17
462.95	454.06
463.13	381.51
463.32	411.93
463.50	402.57
463.68	442.36
463.86	425.98
464.05	458.74
464.23	395.55
464.41	444.70
464.59	376.83
464.78	423.64
464.96	397.89
465.14	449.38
465.32	397.89
465.50	482.15
465.69	407.25
465.87	390.87
466.05	322.99
466.23	435.34
466.41	358.10
466.60	411.93
466.78	337.04
466.96	409.59
467.14	407.25
467.32	444.70
467.51	418.96
467.69	477.47
467.87	437.68
468.05	414.27
468.23	454.06
468.41	458.74
468.60	402.57
468.78	386.19
468.96	407.25
469.14	444.70
469.32	435.34
469.50	421.30
469.69	428.32
469.87	428.32
470.05	390.87
470.23	404.91
470.41	533.64
470.59	393.21
470.77	409.59
470.95	484.49
471.14	393.21
471.32	388.53
471.50	451.72
471.68	416.62
471.86	475.13
472.04	351.08
472.22	337.04
472.40	472.79
472.58	334.70
472.77	390.87
472.95	447.04
473.13	423.64
473.31	442.36
473.49	411.93
473.67	390.87
473.85	437.68
474.03	484.49
474.21	395.55
474.39	402.57
474.57	395.55
474.75	390.87
474.93	386.19
475.12	409.59
475.30	372.15
475.48	395.55
475.66	414.27
475.84	444.70
476.02	414.27
476.20	386.19
476.38	416.62
476.56	440.02
476.74	393.21
476.92	437.68
477.10	472.79
477.28	451.72
477.46	407.25
477.64	367.46
477.82	423.64
478.00	353.42
478.18	456.40
478.36	430.66
478.54	376.83
478.72	454.06
478.90	388.53
479.08	416.62
479.26	472.79
479.44	418.96
479.62	454.06
479.80	477.47
479.98	451.72
480.16	395.55
480.34	561.73
480.52	388.53
480.70	416.62
480.88	395.55
481.06	402.57
481.24	390.87
481.41	423.64
481.59	379.17
481.77	458.74
481.95	437.68
482.13	486.83
482.31	416.62
482.49	442.36
482.67	344.06
482.85	416.62
483.03	397.89
483.21	437.68
483.39	376.83
483.57	519.60
483.74	461.09
483.92	442.36
484.10	411.93
484.28	372.15
484.46	449.38
484.64	444.70
484.82	451.72
485.00	388.53
485.18	386.19
485.35	374.49
485.53	463.43
485.71	503.22
485.89	388.53
486.07	367.46
486.25	479.81
486.43	465.77
486.61	428.32
486.78	433.00
486.96	376.83
487.14	397.89
487.32	418.96
487.50	407.25
487.68	442.36
487.85	390.87
488.03	407.25
488.21	430.66
488.39	423.64
488.57	397.89
488.75	437.68
488.92	503.22
489.10	428.32
489.28	425.98
489.46	444.70
489.64	489.17
489.81	395.55
489.99	411.93
490.17	421.30
490.35	524.28
490.53	482.15
490.70	365.12
490.88	428.32
491.06	461.09
491.24	383.85
491.41	414.27
491.59	376.83
491.77	472.79
491.95	402.57
492.13	414.27
492.30	447.04
492.48	362.78
492.66	395.55
492.84	386.19
493.01	475.13
493.19	449.38
493.37	472.79
493.54	381.51
493.72	475.13
493.90	404.91
494.08	372.15
494.25	411.93
494.43	395.55
494.61	393.21
494.79	421.30
494.96	477.47
495.14	402.57
495.32	365.12
495.49	433.00
495.67	458.74
495.85	402.57
496.02	386.19
496.20	451.72
496.38	465.77
496.55	409.59
496.73	503.22
496.91	442.36
497.09	437.68
497.26	397.89
497.44	456.40
497.62	428.32
497.79	498.53
497.97	388.53
498.14	379.17
498.32	418.96
498.50	402.57
498.67	418.96
498.85	402.57
499.03	395.55
499.20	376.83
499.38	402.57
499.56	433.00
499.73	428.32
499.91	397.89
500.08	440.02
500.26	395.55
500.44	425.98
500.61	456.40
500.79	447.04
500.97	458.74
501.14	418.96
501.32	376.83
501.49	440.02
501.67	442.36
501.84	341.72
502.02	451.72
502.20	463.43
502.37	425.98
502.55	458.74
502.72	463.43
502.90	425.98
503.07	435.34
503.25	454.06
503.43	444.70
503.60	390.87
503.78	418.96
503.95	418.96
504.13	437.68
504.30	477.47
504.48	458.74
504.65	430.66
504.83	510.24
505.01	461.09
505.18	421.30
505.36	461.09
505.53	393.21
505.71	355.76
505.88	423.64
506.06	407.25
506.23	468.11
506.41	409.59
506.58	416.62
506.76	374.49
506.93	444.70
507.11	407.25
507.28	383.85
507.46	423.64
507.63	430.66
507.81	444.70
507.98	435.34
508.16	437.68
508.33	367.46
508.50	383.85
508.68	414.27
508.85	418.96
509.03	468.11
509.20	430.66
509.38	383.85
509.55	484.49
509.73	390.87
509.90	421.30
510.08	379.17
510.25	447.04
510.42	386.19
510.60	447.04
510.77	461.09
510.95	423.64
511.12	376.83
511.30	421.30
511.47	454.06
511.64	477.47
511.82	395.55
511.99	433.00
512.17	418.96
512.34	348.74
512.51	430.66
512.69	465.77
512.86	442.36
513.04	409.59
513.21	458.74
513.38	425.98
513.56	454.06
513.73	444.70
513.90	393.21
514.08	379.17
514.25	512.58
514.43	442.36
514.60	428.32
514.77	433.00
514.95	397.89
515.12	447.04
515.29	402.57
515.47	411.93
515.64	393.21
515.81	311.29
515.99	519.60
516.16	477.47
516.33	472.79
516.51	358.10
516.68	477.47
516.85	402.57
517.03	477.47
517.20	449.38
517.37	407.25
517.54	381.51
517.72	423.64
517.89	395.55
518.06	428.32
518.24	451.72
518.41	451.72
518.58	433.00
518.75	442.36
518.93	486.83
519.10	372.15
519.27	407.25
519.45	372.15
519.62	449.38
519.79	383.85
519.96	351.08
520.14	379.17
520.31	451.72
520.48	395.55
520.65	416.62
520.83	425.98
521.00	414.27
521.17	425.98
521.34	388.53
521.52	402.57
521.69	435.34
521.86	409.59
522.03	479.81
522.20	393.21
522.38	386.19
522.55	416.62
522.72	388.53
522.89	538.32
523.07	512.58
523.24	334.70
523.41	425.98
523.58	430.66
523.75	407.25
523.92	402.57
524.10	421.30
524.27	390.87
524.44	355.76
524.61	458.74
524.78	433.00
524.96	416.62
525.13	358.10
525.30	416.62
525.47	416.62
525.64	435.34
525.81	512.58
525.98	425.98
526.16	397.89
526.33	435.34
526.50	390.87
526.67	353.42
526.84	414.27
527.01	353.42
527.18	425.98
527.36	376.83
527.53	475.13
527.70	421.30
527.87	430.66
528.04	489.17
528.21	325.33
528.38	423.64
528.55	418.96
528.72	458.74
528.89	456.40
529.07	421.30
529.24	404.91
529.41	475.13
529.58	465.77
529.75	390.87
529.92	407.25
530.09	407.25
530.26	393.21
530.43	383.85
530.60	409.59
530.77	372.15
530.94	489.17
531.11	381.51
531.28	360.44
531.46	355.76
531.63	339.38
531.80	447.04
531.97	409.59
532.14	430.66
532.31	395.55
532.48	404.91
532.65	376.83
532.82	369.80
532.99	442.36
533.16	365.12
533.33	351.08
533.50	421.30
533.67	383.85
533.84	449.38
534.01	318.31
534.18	421.30
534.35	461.09
534.52	404.91
534.69	463.43
534.86	353.42
535.03	428.32
535.20	355.76
535.37	496.19
535.54	430.66
535.71	418.96
535.88	397.89
536.05	454.06
536.22	470.45
536.38	411.93
536.55	524.28
536.72	451.72
536.89	435.34
537.06	390.87
537.23	418.96
537.40	479.81
537.57	456.40
537.74	428.32
537.91	397.89
538.08	423.64
538.25	428.32
538.42	414.27
538.59	400.23
538.75	435.34
538.92	414.27
539.09	409.59
539.26	369.80
539.43	489.17
539.60	411.93
539.77	440.02
539.94	444.70
540.11	465.77
540.28	416.62
540.44	402.57
540.61	365.12
540.78	386.19
540.95	442.36
541.12	468.11
541.29	395.55
541.46	409.59
541.62	402.57
541.79	449.38
541.96	437.68
542.13	351.08
542.30	334.70
542.47	437.68
542.63	437.68
542.80	423.64
542.97	482.15
543.14	390.87
543.31	461.09
543.48	444.70
543.64	458.74
543.81	393.21
543.98	365.12
544.15	454.06
544.32	468.11
544.48	428.32
544.65	416.62
544.82	496.19
544.99	489.17
545.16	566.41
545.32	428.32
545.49	463.43
545.66	489.17
545.83	362.78
546.00	416.62
546.16	383.85
546.33	383.85
546.50	437.68
546.67	425.98
546.83	404.91
547.00	404.91
547.17	449.38
547.34	397.89
547.50	425.98
547.67	442.36
547.84	435.34
548.00	414.27
548.17	416.62
548.34	486.83
548.51	484.49
548.67	414.27
548.84	397.89
549.01	454.06
549.18	461.09
549.34	437.68
549.51	351.08
549.68	360.44
549.84	407.25
550.01	407.25
550.18	400.23
550.34	507.90
550.51	404.91
550.68	510.24
550.84	409.59
551.01	393.21
551.18	444.70
551.34	454.06
551.51	409.59
551.68	437.68
551.84	418.96
552.01	435.34
552.18	353.42
552.34	330.02
552.51	374.49
552.68	428.32
552.84	482.15
553.01	416.62
553.18	470.45
553.34	440.02
553.51	496.19
553.67	388.53
553.84	503.22
554.01	451.72
554.17	416.62
554.34	376.83
554.51	428.32
554.67	444.70
554.84	393.21
555.00	407.25
555.17	442.36
555.33	461.09
555.50	528.96
555.67	449.38
555.83	496.19
556.00	339.38
556.16	514.92
556.33	442.36
556.50	388.53
556.66	451.72
556.83	444.70
556.99	484.49
557.16	341.72
557.32	355.76
557.49	468.11
557.65	463.43
557.82	360.44
557.98	390.87
558.15	346.40
558.32	458.74
558.48	458.74
558.65	404.91
558.81	390.87
558.98	444.70
559.14	440.02
559.31	440.02
559.47	447.04
559.64	388.53
559.80	423.64
559.97	379.17
560.13	440.02
560.30	414.27
560.46	440.02
560.63	386.19
560.79	374.49
560.96	416.62
561.12	407.25
561.29	435.34
561.45	395.55
561.61	379.17
561.78	472.79
561.94	442.36
562.11	369.80
562.27	407.25
562.44	397.89
562.60	360.44
562.77	442.36
562.93	433.00
563.10	470.45
563.26	444.70
563.42	421.30
563.59	449.38
563.75	437.68
563.92	479.81
564.08	449.38
564.24	458.74
564.41	430.66
564.57	435.34
564.74	468.11
564.90	421.30
565.07	358.10
565.23	388.53
565.39	411.93
565.56	393.21
565.72	404.91
565.88	428.32
566.05	440.02
566.21	395.55
566.38	411.93
566.54	423.64
566.70	409.59
566.87	433.00
567.03	365.12
567.19	449.38
567.36	365.12
567.52	400.23
567.68	444.70
567.85	425.98
568.01	362.78
568.17	365.12
568.34	386.19
568.50	505.56
568.66	493.85
568.83	496.19
568.99	456.40
569.15	435.34
569.32	400.23
569.48	437.68
569.64	444.70
569.81	500.87
569.97	407.25
570.13	411.93
570.30	362.78
570.46	407.25
570.62	397.89
570.78	402.57
570.95	381.51
571.11	440.02
571.27	369.80
571.43	393.21
571.60	503.22
571.76	386.19
571.92	421.30
572.09	470.45
572.25	411.93
572.41	425.98
572.57	430.66
572.74	430.66
572.90	400.23
573.06	423.64
573.22	390.87
573.38	531.30
573.55	393.21
573.71	437.68
573.87	379.17
574.03	386.19
574.20	442.36
574.36	442.36
574.52	355.76
574.68	400.23
574.84	425.98
575.01	433.00
575.17	435.34
575.33	433.00
575.49	489.17
575.65	409.59
575.82	425.98
575.98	416.62
576.14	383.85
576.30	374.49
576.46	458.74
576.62	390.87
576.79	463.43
576.95	379.17
577.11	358.10
577.27	358.10
577.43	440.02
577.59	493.85
577.75	437.68
577.92	402.57
578.08	428.32
578.24	414.27
578.40	421.30
578.56	411.93
578.72	416.62
578.88	400.23
579.04	411.93
579.21	416.62
579.37	407.25
579.53	400.23
579.69	470.45
579.85	430.66
580.01	447.04
580.17	416.62
580.33	397.89
580.49	369.80
580.65	430.66
580.82	388.53
580.98	360.44
581.14	381.51
581.30	463.43
581.46	430.66
581.62	407.25
581.78	397.89
581.94	463.43
582.10	421.30
582.26	421.30
582.42	461.09
582.58	451.72
582.74	430.66
582.90	428.32
583.06	461.09
583.22	397.89
583.38	409.59
583.54	383.85
583.70	433.00
583.86	454.06
584.02	379.17
584.18	421.30
584.34	425.98
584.50	472.79
584.66	402.57
584.82	423.64
584.98	409.59
585.14	397.89
585.30	505.56
585.46	407.25
585.62	428.32
585.78	477.47
585.94	435.34
586.10	418.96
586.26	400.23
586.42	447.04
586.58	388.53
586.74	437.68
586.90	379.17
587.06	430.66
587.22	407.25
587.38	430.66
587.54	386.19
587.70	437.68
587.86	498.53
588.02	454.06
588.18	383.85
588.34	475.13
588.49	367.46
588.65	433.00
588.81	390.87
588.97	437.68
589.13	402.57
589.29	411.93
589.45	437.68
589.61	421.30
589.77	418.96
589.93	451.72
590.08	463.43
590.24	463.43
590.40	447.04
590.56	433.00
590.72	379.17
590.88	346.40
591.04	395.55
591.20	416.62
591.35	456.40
591.51	411.93
591.67	440.02
591.83	454.06
591.99	444.70
592.15	442.36
592.31	470.45
592.46	437.68
592.62	442.36
592.78	407.25
592.94	358.10
593.10	430.66
593.26	454.06
593.41	456.40
593.57	468.11
593.73	369.80
593.89	383.85
594.05	447.04
594.20	358.10
594.36	416.62
594.52	395.55
594.68	409.59
594.84	433.00
594.99	500.87
595.15	423.64
595.31	468.11
595.47	423.64
595.62	409.59
595.78	418.96
595.94	437.68
596.10	465.77
596.25	435.34
596.41	489.17
596.57	416.62
596.73	428.32
596.88	386.19
597.04	388.53
597.20	400.23
597.36	482.15
597.51	472.79
597.67	416.62
597.83	360.44
597.99	456.40
598.14	402.57
598.30	421.30
598.46	416.62
598.61	468.11
598.77	339.38
598.93	449.38
599.09	437.68
599.24	395.55
599.40	383.85
599.56	435.34
599.71	461.09
599.87	447.04
600.03	423.64
600.18	444.70
600.34	437.68
600.50	440.02
600.65	353.42
600.81	416.62
600.97	411.93
601.12	425.98
601.28	411.93
601.44	479.81
601.59	444.70
601.75	400.23
601.91	404.91
602.06	493.85
602.22	486.83
602.37	414.27
602.53	428.32
602.69	414.27
602.84	414.27
603.00	411.93
603.16	416.62
603.31	440.02
603.47	381.51
603.62	430.66
603.78	444.70
603.94	402.57
604.09	365.12
604.25	381.51
604.40	449.38
604.56	416.62
604.71	381.51
604.87	428.32
605.03	456.40
605.18	395.55
605.34	454.06
605.49	435.34
605.65	458.74
605.80	468.11
605.96	421.30
606.12	390.87
606.27	395.55
606.43	444.70
606.58	425.98
606.74	411.93
606.89	402.57
607.05	454.06
607.20	444.70
607.36	383.85
607.51	442.36
607.67	379.17
607.82	440.02
607.98	428.32
608.13	409.59
608.29	409.59
608.44	456.40
608.60	400.23
608.75	411.93
608.91	521.94
609.06	458.74
609.22	468.11
609.37	372.15
609.53	397.89
609.68	444.70
609.84	395.55
609.99	386.19
610.15	451.72
