SpectraSuite Data File
++++++++++++++++++++++++++++++++++++
Date: Fri Oct 25 12:11:00 EDT 2013
User: price-jones
Dark Spectrum Present: No
Reference Spectrum Present: No
Number of Sampled Component Spectra: 1
Spectrometers: USB2+H05261
Integration Time (usec): 100000 (USB2+H05261)
Spectra Averaged: 1 (USB2+H05261)
Boxcar Smoothing: 0 (USB2+H05261)
Correct for Electrical Dark: No (USB2+H05261)
Strobe/Lamp Enabled: No (USB2+H05261)
Correct for Detector Non-linearity: No (USB2+H05261)
Correct for Stray Light: No (USB2+H05261)
Number of Pixels in Processed Spectrum: 2048
>>>>>Begin Processed Spectral Data<<<<<
365.73	362.78
365.92	362.78
366.12	362.78
366.32	163.84
366.52	227.03
366.72	224.69
366.91	262.14
367.11	217.67
367.31	224.69
367.51	198.95
367.70	236.39
367.90	231.71
368.10	243.42
368.30	243.42
368.49	229.37
368.69	252.78
368.89	304.27
369.09	264.48
369.28	255.12
369.48	308.95
369.68	325.33
369.87	341.72
370.07	245.76
370.27	306.61
370.47	320.65
370.66	379.17
370.86	341.72
371.06	292.57
371.25	332.36
371.45	362.78
371.65	388.53
371.84	449.38
372.04	376.83
372.24	393.21
372.44	418.96
372.63	496.19
372.83	400.23
373.03	381.51
373.22	322.99
373.42	435.34
373.62	353.42
373.81	372.15
374.01	402.57
374.21	421.30
374.40	414.27
374.60	437.68
374.79	407.25
374.99	454.06
375.19	454.06
375.38	493.85
375.58	447.04
375.78	465.77
375.97	465.77
376.17	444.70
376.37	456.40
376.56	383.85
376.76	414.27
376.95	404.91
377.15	496.19
377.35	433.00
377.54	416.62
377.74	411.93
377.93	402.57
378.13	376.83
378.33	500.87
378.52	367.46
378.72	404.91
378.91	449.38
379.11	402.57
379.31	414.27
379.50	393.21
379.70	486.83
379.89	475.13
380.09	374.49
380.28	332.36
380.48	381.51
380.68	423.64
380.87	330.02
381.07	395.55
381.26	425.98
381.46	386.19
381.65	421.30
381.85	393.21
382.04	404.91
382.24	390.87
382.43	404.91
382.63	409.59
382.83	423.64
383.02	416.62
383.22	437.68
383.41	386.19
383.61	479.81
383.80	376.83
384.00	454.06
384.19	479.81
384.39	416.62
384.58	372.15
384.78	496.19
384.97	367.46
385.17	400.23
385.36	348.74
385.56	397.89
385.75	353.42
385.95	388.53
386.14	440.02
386.34	386.19
386.53	355.76
386.72	386.19
386.92	421.30
387.11	397.89
387.31	517.26
387.50	395.55
387.70	376.83
387.89	411.93
388.09	374.49
388.28	383.85
388.48	381.51
388.67	425.98
388.86	355.76
389.06	425.98
389.25	447.04
389.45	463.43
389.64	393.21
389.84	428.32
390.03	374.49
390.22	379.17
390.42	465.77
390.61	365.12
390.81	411.93
391.00	444.70
391.19	418.96
391.39	308.95
391.58	447.04
391.78	320.65
391.97	393.21
392.16	367.46
392.36	442.36
392.55	362.78
392.75	440.02
392.94	381.51
393.13	400.23
393.33	376.83
393.52	425.98
393.71	533.64
393.91	400.23
394.10	337.04
394.29	402.57
394.49	444.70
394.68	330.02
394.88	416.62
395.07	339.38
395.26	374.49
395.46	447.04
395.65	390.87
395.84	425.98
396.04	463.43
396.23	451.72
396.42	327.68
396.62	367.46
396.81	416.62
397.00	369.80
397.19	444.70
397.39	444.70
397.58	435.34
397.77	400.23
397.97	425.98
398.16	407.25
398.35	409.59
398.55	348.74
398.74	365.12
398.93	383.85
399.12	367.46
399.32	402.57
399.51	404.91
399.70	447.04
399.90	416.62
400.09	418.96
400.28	442.36
400.47	294.91
400.67	456.40
400.86	404.91
401.05	440.02
401.24	353.42
401.44	372.15
401.63	428.32
401.82	451.72
402.01	383.85
402.21	430.66
402.40	367.46
402.59	433.00
402.78	449.38
402.97	477.47
403.17	414.27
403.36	395.55
403.55	430.66
403.74	423.64
403.93	383.85
404.13	388.53
404.32	435.34
404.51	421.30
404.70	416.62
404.89	505.56
405.09	472.79
405.28	449.38
405.47	383.85
405.66	404.91
405.85	360.44
406.05	409.59
406.24	433.00
406.43	423.64
406.62	437.68
406.81	411.93
407.00	409.59
407.20	365.12
407.39	362.78
407.58	458.74
407.77	421.30
407.96	454.06
408.15	409.59
408.34	461.09
408.54	454.06
408.73	451.72
408.92	395.55
409.11	437.68
409.30	400.23
409.49	348.74
409.68	400.23
409.87	332.36
410.07	397.89
410.26	397.89
410.45	442.36
410.64	332.36
410.83	458.74
411.02	407.25
411.21	404.91
411.40	475.13
411.59	393.21
411.78	472.79
411.98	325.33
412.17	386.19
412.36	397.89
412.55	421.30
412.74	411.93
412.93	407.25
413.12	376.83
413.31	393.21
413.50	379.17
413.69	423.64
413.88	451.72
414.07	374.49
414.26	404.91
414.45	393.21
414.64	425.98
414.83	379.17
415.02	372.15
415.22	411.93
415.41	510.24
415.60	416.62
415.79	404.91
415.98	423.64
416.17	383.85
416.36	479.81
416.55	376.83
416.74	388.53
416.93	437.68
417.12	425.98
417.31	388.53
417.50	428.32
417.69	414.27
417.88	339.38
418.07	344.06
418.26	402.57
418.45	351.08
418.64	358.10
418.83	458.74
419.02	465.77
419.21	374.49
419.39	423.64
419.58	442.36
419.77	386.19
419.96	526.62
420.15	468.11
420.34	468.11
420.53	449.38
420.72	449.38
420.91	433.00
421.10	383.85
421.29	337.04
421.48	468.11
421.67	414.27
421.86	355.76
422.05	428.32
422.24	440.02
422.43	458.74
422.61	367.46
422.80	367.46
422.99	400.23
423.18	381.51
423.37	414.27
423.56	435.34
423.75	416.62
423.94	414.27
424.13	451.72
424.32	409.59
424.50	440.02
424.69	411.93
424.88	444.70
425.07	416.62
425.26	423.64
425.45	418.96
425.64	423.64
425.83	430.66
426.01	444.70
426.20	383.85
426.39	470.45
426.58	409.59
426.77	409.59
426.96	433.00
427.15	411.93
427.33	428.32
427.52	367.46
427.71	411.93
427.90	430.66
428.09	376.83
428.28	433.00
428.46	456.40
428.65	374.49
428.84	372.15
429.03	454.06
429.22	337.04
429.40	407.25
429.59	402.57
429.78	475.13
429.97	407.25
430.16	390.87
430.34	353.42
430.53	383.85
430.72	449.38
430.91	423.64
431.10	388.53
431.28	379.17
431.47	428.32
431.66	369.80
431.85	440.02
432.03	458.74
432.22	416.62
432.41	430.66
432.60	440.02
432.79	402.57
432.97	360.44
433.16	400.23
433.35	437.68
433.54	411.93
433.72	461.09
433.91	376.83
434.10	407.25
434.28	442.36
434.47	449.38
434.66	374.49
434.85	388.53
435.03	475.13
435.22	484.49
435.41	440.02
435.59	423.64
435.78	337.04
435.97	388.53
436.16	411.93
436.34	376.83
436.53	386.19
436.72	458.74
436.90	402.57
437.09	416.62
437.28	358.10
437.46	313.63
437.65	358.10
437.84	444.70
438.02	418.96
438.21	386.19
438.40	353.42
438.58	409.59
438.77	428.32
438.96	425.98
439.14	411.93
439.33	423.64
439.52	332.36
439.70	470.45
439.89	428.32
440.08	414.27
440.26	456.40
440.45	503.22
440.63	465.77
440.82	475.13
441.01	360.44
441.19	306.61
441.38	430.66
441.57	395.55
441.75	461.09
441.94	381.51
442.12	365.12
442.31	437.68
442.50	489.17
442.68	423.64
442.87	393.21
443.05	418.96
443.24	372.15
443.43	379.17
443.61	409.59
443.80	390.87
443.98	421.30
444.17	407.25
444.35	447.04
444.54	449.38
444.73	337.04
444.91	472.79
445.10	477.47
445.28	437.68
445.47	440.02
445.65	376.83
445.84	440.02
446.02	395.55
446.21	344.06
446.39	379.17
446.58	472.79
446.77	442.36
446.95	472.79
447.14	454.06
447.32	458.74
447.51	386.19
447.69	365.12
447.88	465.77
448.06	449.38
448.25	416.62
448.43	397.89
448.62	479.81
448.80	402.57
448.99	372.15
449.17	372.15
449.36	383.85
449.54	386.19
449.73	465.77
449.91	386.19
450.10	383.85
450.28	381.51
450.46	463.43
450.65	444.70
450.83	376.83
451.02	367.46
451.20	440.02
451.39	421.30
451.57	491.51
451.76	423.64
451.94	428.32
452.13	402.57
452.31	393.21
452.49	423.64
452.68	374.49
452.86	433.00
453.05	461.09
453.23	418.96
453.42	372.15
453.60	320.65
453.78	433.00
453.97	395.55
454.15	393.21
454.34	425.98
454.52	381.51
454.70	451.72
454.89	472.79
455.07	411.93
455.26	397.89
455.44	339.38
455.62	393.21
455.81	425.98
455.99	402.57
456.17	351.08
456.36	477.47
456.54	388.53
456.73	447.04
456.91	325.33
457.09	344.06
457.28	425.98
457.46	465.77
457.64	411.93
457.83	353.42
458.01	358.10
458.19	423.64
458.38	397.89
458.56	425.98
458.74	416.62
458.93	381.51
459.11	400.23
459.29	435.34
459.48	383.85
459.66	430.66
459.84	409.59
460.03	540.66
460.21	440.02
460.39	395.55
460.57	454.06
460.76	435.34
460.94	440.02
461.12	470.45
461.31	475.13
461.49	381.51
461.67	430.66
461.85	440.02
462.04	409.59
462.22	416.62
462.40	477.47
462.59	411.93
462.77	367.46
462.95	477.47
463.13	376.83
463.32	433.00
463.50	404.91
463.68	402.57
463.86	393.21
464.05	433.00
464.23	463.43
464.41	395.55
464.59	390.87
464.78	456.40
464.96	409.59
465.14	472.79
465.32	463.43
465.50	568.75
465.69	411.93
465.87	344.06
466.05	325.33
466.23	425.98
466.41	425.98
466.60	461.09
466.78	402.57
466.96	498.53
467.14	421.30
467.32	388.53
467.51	437.68
467.69	449.38
467.87	486.83
468.05	418.96
468.23	400.23
468.41	414.27
468.60	418.96
468.78	425.98
468.96	486.83
469.14	444.70
469.32	390.87
469.50	381.51
469.69	425.98
469.87	404.91
470.05	447.04
470.23	355.76
470.41	430.66
470.59	414.27
470.77	451.72
470.95	421.30
471.14	470.45
471.32	393.21
471.50	444.70
471.68	393.21
471.86	409.59
472.04	425.98
472.22	435.34
472.40	369.80
472.58	416.62
472.77	437.68
472.95	449.38
473.13	355.76
473.31	404.91
473.49	367.46
473.67	454.06
473.85	437.68
474.03	411.93
474.21	414.27
474.39	367.46
474.57	479.81
474.75	433.00
474.93	386.19
475.12	407.25
475.30	344.06
475.48	421.30
475.66	386.19
475.84	430.66
476.02	416.62
476.20	484.49
476.38	414.27
476.56	437.68
476.74	444.70
476.92	454.06
477.10	444.70
477.28	470.45
477.46	395.55
477.64	369.80
477.82	482.15
478.00	416.62
478.18	369.80
478.36	458.74
478.54	365.12
478.72	374.49
478.90	365.12
479.08	386.19
479.26	411.93
479.44	433.00
479.62	425.98
479.80	423.64
479.98	358.10
480.16	414.27
480.34	435.34
480.52	397.89
480.70	418.96
480.88	421.30
481.06	407.25
481.24	437.68
481.41	421.30
481.59	475.13
481.77	414.27
481.95	433.00
482.13	430.66
482.31	386.19
482.49	318.31
482.67	433.00
482.85	402.57
483.03	451.72
483.21	456.40
483.39	425.98
483.57	447.04
483.74	374.49
483.92	400.23
484.10	374.49
484.28	416.62
484.46	437.68
484.64	449.38
484.82	390.87
485.00	461.09
485.18	397.89
485.35	390.87
485.53	395.55
485.71	454.06
485.89	414.27
486.07	430.66
486.25	383.85
486.43	421.30
486.61	437.68
486.78	393.21
486.96	351.08
487.14	489.17
487.32	346.40
487.50	423.64
487.68	395.55
487.85	381.51
488.03	409.59
488.21	451.72
488.39	440.02
488.57	505.56
488.75	451.72
488.92	444.70
489.10	348.74
489.28	418.96
489.46	489.17
489.64	461.09
489.81	409.59
489.99	414.27
490.17	454.06
490.35	489.17
490.53	423.64
490.70	374.49
490.88	414.27
491.06	409.59
491.24	472.79
491.41	447.04
491.59	428.32
491.77	402.57
491.95	430.66
492.13	330.02
492.30	404.91
492.48	477.47
492.66	402.57
492.84	388.53
493.01	393.21
493.19	472.79
493.37	468.11
493.54	407.25
493.72	449.38
493.90	465.77
494.08	388.53
494.25	463.43
494.43	360.44
494.61	423.64
494.79	355.76
494.96	376.83
495.14	491.51
495.32	425.98
495.49	444.70
495.67	383.85
495.85	404.91
496.02	383.85
496.20	383.85
496.38	437.68
496.55	475.13
496.73	407.25
496.91	440.02
497.09	477.47
497.26	390.87
497.44	402.57
497.62	376.83
497.79	451.72
497.97	463.43
498.14	409.59
498.32	390.87
498.50	468.11
498.67	388.53
498.85	416.62
499.03	416.62
499.20	423.64
499.38	402.57
499.56	491.51
499.73	437.68
499.91	388.53
500.08	397.89
500.26	416.62
500.44	418.96
500.61	461.09
500.79	339.38
500.97	465.77
501.14	411.93
501.32	414.27
501.49	458.74
501.67	365.12
501.84	421.30
502.02	440.02
502.20	409.59
502.37	433.00
502.55	404.91
502.72	418.96
502.90	465.77
503.07	404.91
503.25	433.00
503.43	440.02
503.60	374.49
503.78	374.49
503.95	404.91
504.13	444.70
504.30	386.19
504.48	468.11
504.65	437.68
504.83	395.55
505.01	456.40
505.18	430.66
505.36	355.76
505.53	416.62
505.71	444.70
505.88	395.55
506.06	430.66
506.23	339.38
506.41	397.89
506.58	423.64
506.76	390.87
506.93	400.23
507.11	376.83
507.28	402.57
507.46	402.57
507.63	442.36
507.81	433.00
507.98	386.19
508.16	376.83
508.33	376.83
508.50	433.00
508.68	418.96
508.85	407.25
509.03	376.83
509.20	430.66
509.38	421.30
509.55	369.80
509.73	454.06
509.90	442.36
510.08	418.96
510.25	444.70
510.42	451.72
510.60	456.40
510.77	404.91
510.95	430.66
511.12	444.70
511.30	355.76
511.47	437.68
511.64	437.68
511.82	374.49
511.99	425.98
512.17	404.91
512.34	463.43
512.51	425.98
512.69	428.32
512.86	423.64
513.04	465.77
513.21	411.93
513.38	423.64
513.56	376.83
513.73	444.70
513.90	421.30
514.08	379.17
514.25	437.68
514.43	297.25
514.60	442.36
514.77	414.27
514.95	479.81
515.12	442.36
515.29	353.42
515.47	451.72
515.64	407.25
515.81	402.57
515.99	365.12
516.16	355.76
516.33	365.12
516.51	404.91
516.68	402.57
516.85	369.80
517.03	411.93
517.20	390.87
517.37	409.59
517.54	440.02
517.72	421.30
517.89	379.17
518.06	372.15
518.24	416.62
518.41	440.02
518.58	421.30
518.75	374.49
518.93	430.66
519.10	346.40
519.27	388.53
519.45	454.06
519.62	388.53
519.79	423.64
519.96	449.38
520.14	402.57
520.31	435.34
520.48	346.40
520.65	468.11
520.83	416.62
521.00	409.59
521.17	428.32
521.34	433.00
521.52	430.66
521.69	425.98
521.86	430.66
522.03	397.89
522.20	423.64
522.38	386.19
522.55	456.40
522.72	423.64
522.89	451.72
523.07	411.93
523.24	397.89
523.41	430.66
523.58	388.53
523.75	393.21
523.92	334.70
524.10	456.40
524.27	458.74
524.44	421.30
524.61	458.74
524.78	386.19
524.96	355.76
525.13	400.23
525.30	418.96
525.47	442.36
525.64	428.32
525.81	367.46
525.98	433.00
526.16	435.34
526.33	400.23
526.50	440.02
526.67	451.72
526.84	451.72
527.01	468.11
527.18	376.83
527.36	397.89
527.53	414.27
527.70	430.66
527.87	397.89
528.04	451.72
528.21	360.44
528.38	409.59
528.55	416.62
528.72	470.45
528.89	463.43
529.07	353.42
529.24	454.06
529.41	447.04
529.58	395.55
529.75	334.70
529.92	395.55
530.09	447.04
530.26	416.62
530.43	447.04
530.60	390.87
530.77	470.45
530.94	414.27
531.11	454.06
531.28	416.62
531.46	463.43
531.63	451.72
531.80	444.70
531.97	339.38
532.14	444.70
532.31	421.30
532.48	451.72
532.65	421.30
532.82	395.55
532.99	444.70
533.16	444.70
533.33	435.34
533.50	463.43
533.67	341.72
533.84	479.81
534.01	400.23
534.18	379.17
534.35	465.77
534.52	421.30
534.69	393.21
534.86	355.76
535.03	444.70
535.20	458.74
535.37	411.93
535.54	421.30
535.71	418.96
535.88	451.72
536.05	390.87
536.22	449.38
536.38	351.08
536.55	369.80
536.72	379.17
536.89	311.29
537.06	388.53
537.23	393.21
537.40	367.46
537.57	355.76
537.74	409.59
537.91	402.57
538.08	393.21
538.25	479.81
538.42	458.74
538.59	409.59
538.75	425.98
538.92	425.98
539.09	402.57
539.26	360.44
539.43	440.02
539.60	433.00
539.77	458.74
539.94	411.93
540.11	479.81
540.28	461.09
540.44	369.80
540.61	423.64
540.78	437.68
540.95	461.09
541.12	498.53
541.29	437.68
541.46	442.36
541.62	404.91
541.79	360.44
541.96	379.17
542.13	451.72
542.30	381.51
542.47	416.62
542.63	440.02
542.80	423.64
542.97	451.72
543.14	449.38
543.31	440.02
543.48	435.34
543.64	465.77
543.81	355.76
543.98	379.17
544.15	400.23
544.32	381.51
544.48	428.32
544.65	411.93
544.82	444.70
544.99	421.30
545.16	479.81
545.32	402.57
545.49	381.51
545.66	454.06
545.83	348.74
546.00	365.12
546.16	400.23
546.33	376.83
546.50	381.51
546.67	411.93
546.83	447.04
547.00	477.47
547.17	369.80
547.34	430.66
547.50	449.38
547.67	500.87
547.84	346.40
548.00	423.64
548.17	414.27
548.34	402.57
548.51	414.27
548.67	479.81
548.84	423.64
549.01	500.87
549.18	470.45
549.34	440.02
549.51	444.70
549.68	442.36
549.84	397.89
550.01	416.62
550.18	400.23
550.34	468.11
550.51	397.89
550.68	416.62
550.84	440.02
551.01	404.91
551.18	395.55
551.34	414.27
551.51	470.45
551.68	447.04
551.84	482.15
552.01	365.12
552.18	400.23
552.34	393.21
552.51	414.27
552.68	414.27
552.84	425.98
553.01	418.96
553.18	395.55
553.34	465.77
553.51	367.46
553.67	330.02
553.84	479.81
554.01	341.72
554.17	411.93
554.34	393.21
554.51	477.47
554.67	482.15
554.84	442.36
555.00	456.40
555.17	491.51
555.33	447.04
555.50	470.45
555.67	447.04
555.83	379.17
556.00	393.21
556.16	535.98
556.33	365.12
556.50	428.32
556.66	461.09
556.83	458.74
556.99	407.25
557.16	360.44
557.32	444.70
557.49	397.89
557.65	334.70
557.82	379.17
557.98	402.57
558.15	404.91
558.32	409.59
558.48	437.68
558.65	344.06
558.81	472.79
558.98	416.62
559.14	444.70
559.31	411.93
559.47	482.15
559.64	388.53
559.80	411.93
559.97	479.81
560.13	430.66
560.30	407.25
560.46	400.23
560.63	463.43
560.79	393.21
560.96	425.98
561.12	447.04
561.29	442.36
561.45	341.72
561.61	397.89
561.78	397.89
561.94	379.17
562.11	388.53
562.27	341.72
562.44	435.34
562.60	435.34
562.77	409.59
562.93	461.09
563.10	409.59
563.26	390.87
563.42	407.25
563.59	454.06
563.75	440.02
563.92	451.72
564.08	416.62
564.24	489.17
564.41	388.53
564.57	400.23
564.74	451.72
564.90	444.70
565.07	386.19
565.23	451.72
565.39	430.66
565.56	463.43
565.72	421.30
565.88	430.66
566.05	423.64
566.21	428.32
566.38	566.41
566.54	454.06
566.70	397.89
566.87	367.46
567.03	381.51
567.19	433.00
567.36	442.36
567.52	400.23
567.68	407.25
567.85	360.44
568.01	395.55
568.17	360.44
568.34	365.12
568.50	374.49
568.66	402.57
568.83	458.74
568.99	435.34
569.15	454.06
569.32	376.83
569.48	489.17
569.64	482.15
569.81	421.30
569.97	425.98
570.13	477.47
570.30	472.79
570.46	430.66
570.62	428.32
570.78	411.93
570.95	458.74
571.11	367.46
571.27	418.96
571.43	400.23
571.60	402.57
571.76	400.23
571.92	500.87
572.09	379.17
572.25	367.46
572.41	437.68
572.57	402.57
572.74	521.94
572.90	461.09
573.06	414.27
573.22	418.96
573.38	409.59
573.55	414.27
573.71	470.45
573.87	400.23
574.03	433.00
574.20	402.57
574.36	379.17
574.52	355.76
574.68	472.79
574.84	379.17
575.01	451.72
575.17	454.06
575.33	360.44
575.49	430.66
575.65	447.04
575.82	440.02
575.98	416.62
576.14	447.04
576.30	376.83
576.46	423.64
576.62	451.72
576.79	442.36
576.95	362.78
577.11	372.15
577.27	418.96
577.43	461.09
577.59	449.38
577.75	346.40
577.92	484.49
578.08	381.51
578.24	381.51
578.40	484.49
578.56	458.74
578.72	440.02
578.88	425.98
579.04	456.40
579.21	402.57
579.37	404.91
579.53	428.32
579.69	440.02
579.85	463.43
580.01	433.00
580.17	447.04
580.33	346.40
580.49	444.70
580.65	440.02
580.82	458.74
580.98	428.32
581.14	435.34
581.30	456.40
581.46	397.89
581.62	524.28
581.78	447.04
581.94	442.36
582.10	393.21
582.26	454.06
582.42	454.06
582.58	381.51
582.74	416.62
582.90	456.40
583.06	395.55
583.22	381.51
583.38	351.08
583.54	444.70
583.70	468.11
583.86	517.26
584.02	393.21
584.18	442.36
584.34	386.19
584.50	430.66
584.66	465.77
584.82	489.17
584.98	374.49
585.14	402.57
585.30	447.04
585.46	409.59
585.62	348.74
585.78	341.72
585.94	449.38
586.10	447.04
586.26	423.64
586.42	503.22
586.58	461.09
586.74	395.55
586.90	486.83
587.06	449.38
587.22	367.46
587.38	416.62
587.54	416.62
587.70	454.06
587.86	470.45
588.02	416.62
588.18	435.34
588.34	416.62
588.49	365.12
588.65	416.62
588.81	437.68
588.97	379.17
589.13	393.21
589.29	418.96
589.45	454.06
589.61	376.83
589.77	409.59
589.93	367.46
590.08	470.45
590.24	388.53
590.40	428.32
590.56	407.25
590.72	451.72
590.88	374.49
591.04	449.38
591.20	425.98
591.35	475.13
591.51	402.57
591.67	421.30
591.83	447.04
591.99	421.30
592.15	479.81
592.31	388.53
592.46	402.57
592.62	437.68
592.78	430.66
592.94	365.12
593.10	379.17
593.26	437.68
593.41	454.06
593.57	386.19
593.73	421.30
593.89	477.47
594.05	430.66
594.20	423.64
594.36	423.64
594.52	402.57
594.68	447.04
594.84	458.74
594.99	425.98
595.15	411.93
595.31	472.79
595.47	416.62
595.62	407.25
595.78	463.43
595.94	390.87
596.10	451.72
596.25	402.57
596.41	416.62
596.57	409.59
596.73	435.34
596.88	409.59
597.04	451.72
597.20	376.83
597.36	379.17
597.51	365.12
597.67	423.64
597.83	444.70
597.99	423.64
598.14	433.00
598.30	479.81
598.46	456.40
598.61	393.21
598.77	468.11
598.93	425.98
599.09	395.55
599.24	404.91
599.40	505.56
599.56	393.21
599.71	447.04
599.87	447.04
600.03	477.47
600.18	381.51
600.34	381.51
600.50	379.17
600.65	421.30
600.81	402.57
600.97	421.30
601.12	428.32
601.28	369.80
601.44	402.57
601.59	430.66
601.75	383.85
601.91	402.57
602.06	409.59
602.22	500.87
602.37	411.93
602.53	472.79
602.69	477.47
602.84	435.34
603.00	430.66
603.16	402.57
603.31	418.96
603.47	407.25
603.62	421.30
603.78	486.83
603.94	351.08
604.09	428.32
604.25	442.36
604.40	362.78
604.56	379.17
604.71	402.57
604.87	386.19
605.03	416.62
605.18	433.00
605.34	449.38
605.49	358.10
605.65	451.72
605.80	411.93
605.96	414.27
606.12	472.79
606.27	400.23
606.43	428.32
606.58	376.83
606.74	486.83
606.89	449.38
607.05	383.85
607.20	407.25
607.36	423.64
607.51	470.45
607.67	379.17
607.82	369.80
607.98	414.27
608.13	388.53
608.29	341.72
608.44	400.23
608.60	400.23
608.75	383.85
608.91	425.98
609.06	341.72
609.22	444.70
609.37	402.57
609.53	461.09
609.68	442.36
609.84	416.62
609.99	489.17
610.15	491.51
