SpectraSuite Data File
++++++++++++++++++++++++++++++++++++
Date: Fri Oct 25 12:10:21 EDT 2013
User: price-jones
Dark Spectrum Present: No
Reference Spectrum Present: No
Number of Sampled Component Spectra: 1
Spectrometers: USB2+H05261
Integration Time (usec): 100000 (USB2+H05261)
Spectra Averaged: 1 (USB2+H05261)
Boxcar Smoothing: 0 (USB2+H05261)
Correct for Electrical Dark: No (USB2+H05261)
Strobe/Lamp Enabled: No (USB2+H05261)
Correct for Detector Non-linearity: No (USB2+H05261)
Correct for Stray Light: No (USB2+H05261)
Number of Pixels in Processed Spectrum: 2048
>>>>>Begin Processed Spectral Data<<<<<
365.73	351.08
365.92	351.08
366.12	351.08
366.32	208.31
366.52	257.46
366.72	290.23
366.91	306.61
367.11	255.12
367.31	276.18
367.51	212.99
367.70	224.69
367.90	241.08
368.10	276.18
368.30	255.12
368.49	198.95
368.69	318.31
368.89	273.84
369.09	257.46
369.28	250.44
369.48	292.57
369.68	234.05
369.87	273.84
370.07	337.04
370.27	292.57
370.47	315.97
370.66	353.42
370.86	311.29
371.06	372.15
371.25	402.57
371.45	414.27
371.65	461.09
371.84	365.12
372.04	383.85
372.24	423.64
372.44	402.57
372.63	318.31
372.83	425.98
373.03	374.49
373.22	451.72
373.42	393.21
373.62	437.68
373.81	505.56
374.01	486.83
374.21	472.79
374.40	512.58
374.60	402.57
374.79	402.57
374.99	362.78
375.19	482.15
375.38	416.62
375.58	430.66
375.78	402.57
375.97	498.53
376.17	503.22
376.37	360.44
376.56	458.74
376.76	416.62
376.95	369.80
377.15	428.32
377.35	442.36
377.54	369.80
377.74	379.17
377.93	428.32
378.13	390.87
378.33	344.06
378.52	456.40
378.72	393.21
378.91	428.32
379.11	397.89
379.31	400.23
379.50	402.57
379.70	470.45
379.89	390.87
380.09	360.44
380.28	379.17
380.48	362.78
380.68	449.38
380.87	381.51
381.07	449.38
381.26	435.34
381.46	365.12
381.65	390.87
381.85	418.96
382.04	435.34
382.24	423.64
382.43	442.36
382.63	404.91
382.83	428.32
383.02	472.79
383.22	425.98
383.41	344.06
383.61	449.38
383.80	383.85
384.00	383.85
384.19	344.06
384.39	421.30
384.58	306.61
384.78	381.51
384.97	362.78
385.17	407.25
385.36	421.30
385.56	416.62
385.75	334.70
385.95	430.66
386.14	348.74
386.34	400.23
386.53	430.66
386.72	458.74
386.92	414.27
387.11	376.83
387.31	423.64
387.50	388.53
387.70	353.42
387.89	395.55
388.09	381.51
388.28	418.96
388.48	372.15
388.67	472.79
388.86	418.96
389.06	402.57
389.25	425.98
389.45	411.93
389.64	346.40
389.84	409.59
390.03	407.25
390.22	425.98
390.42	421.30
390.61	472.79
390.81	423.64
391.00	421.30
391.19	390.87
391.39	400.23
391.58	451.72
391.78	386.19
391.97	409.59
392.16	355.76
392.36	386.19
392.55	435.34
392.75	470.45
392.94	440.02
393.13	458.74
393.33	416.62
393.52	339.38
393.71	447.04
393.91	442.36
394.10	414.27
394.29	358.10
394.49	423.64
394.68	404.91
394.88	402.57
395.07	416.62
395.26	334.70
395.46	411.93
395.65	442.36
395.84	447.04
396.04	470.45
396.23	472.79
396.42	386.19
396.62	414.27
396.81	348.74
397.00	367.46
397.19	400.23
397.39	447.04
397.58	386.19
397.77	409.59
397.97	423.64
398.16	440.02
398.35	475.13
398.55	414.27
398.74	411.93
398.93	383.85
399.12	365.12
399.32	472.79
399.51	468.11
399.70	395.55
399.90	414.27
400.09	372.15
400.28	437.68
400.47	374.49
400.67	449.38
400.86	355.76
401.05	409.59
401.24	381.51
401.44	421.30
401.63	388.53
401.82	447.04
402.01	402.57
402.21	365.12
402.40	381.51
402.59	463.43
402.78	430.66
402.97	421.30
403.17	435.34
403.36	425.98
403.55	475.13
403.74	376.83
403.93	416.62
404.13	472.79
404.32	425.98
404.51	411.93
404.70	479.81
404.89	353.42
405.09	423.64
405.28	411.93
405.47	360.44
405.66	418.96
405.85	428.32
406.05	421.30
406.24	365.12
406.43	409.59
406.62	451.72
406.81	411.93
407.00	416.62
407.20	442.36
407.39	404.91
407.58	449.38
407.77	388.53
407.96	376.83
408.15	440.02
408.34	454.06
408.54	407.25
408.73	447.04
408.92	367.46
409.11	388.53
409.30	428.32
409.49	479.81
409.68	381.51
409.87	465.77
410.07	397.89
410.26	409.59
410.45	376.83
410.64	447.04
410.83	454.06
411.02	404.91
411.21	477.47
411.40	437.68
411.59	386.19
411.78	437.68
411.98	414.27
412.17	358.10
412.36	358.10
412.55	411.93
412.74	421.30
412.93	498.53
413.12	411.93
413.31	444.70
413.50	489.17
413.69	425.98
413.88	458.74
414.07	451.72
414.26	376.83
414.45	381.51
414.64	397.89
414.83	409.59
415.02	388.53
415.22	423.64
415.41	416.62
415.60	407.25
415.79	409.59
415.98	383.85
416.17	379.17
416.36	374.49
416.55	351.08
416.74	428.32
416.93	444.70
417.12	416.62
417.31	400.23
417.50	369.80
417.69	451.72
417.88	414.27
418.07	376.83
418.26	362.78
418.45	489.17
418.64	433.00
418.83	414.27
419.02	414.27
419.21	372.15
419.39	430.66
419.58	376.83
419.77	414.27
419.96	397.89
420.15	409.59
420.34	404.91
420.53	442.36
420.72	428.32
420.91	374.49
421.10	390.87
421.29	454.06
421.48	360.44
421.67	425.98
421.86	395.55
422.05	402.57
422.24	383.85
422.43	416.62
422.61	411.93
422.80	418.96
422.99	463.43
423.18	454.06
423.37	468.11
423.56	397.89
423.75	440.02
423.94	409.59
424.13	285.55
424.32	390.87
424.50	411.93
424.69	411.93
424.88	421.30
425.07	411.93
425.26	425.98
425.45	484.49
425.64	440.02
425.83	472.79
426.01	440.02
426.20	393.21
426.39	456.40
426.58	407.25
426.77	376.83
426.96	470.45
427.15	451.72
427.33	442.36
427.52	425.98
427.71	383.85
427.90	379.17
428.09	360.44
428.28	379.17
428.46	423.64
428.65	430.66
428.84	414.27
429.03	428.32
429.22	428.32
429.40	444.70
429.59	402.57
429.78	430.66
429.97	400.23
430.16	409.59
430.34	372.15
430.53	376.83
430.72	393.21
430.91	433.00
431.10	365.12
431.28	383.85
431.47	374.49
431.66	390.87
431.85	442.36
432.03	395.55
432.22	540.66
432.41	390.87
432.60	409.59
432.79	360.44
432.97	418.96
433.16	376.83
433.35	416.62
433.54	374.49
433.72	404.91
433.91	402.57
434.10	449.38
434.28	449.38
434.47	390.87
434.66	388.53
434.85	386.19
435.03	447.04
435.22	451.72
435.41	456.40
435.59	421.30
435.78	400.23
435.97	442.36
436.16	430.66
436.34	374.49
436.53	475.13
436.72	404.91
436.90	447.04
437.09	428.32
437.28	447.04
437.46	372.15
437.65	472.79
437.84	379.17
438.02	437.68
438.21	437.68
438.40	456.40
438.58	442.36
438.77	425.98
438.96	442.36
439.14	475.13
439.33	400.23
439.52	407.25
439.70	409.59
439.89	468.11
440.08	390.87
440.26	400.23
440.45	395.55
440.63	477.47
440.82	444.70
441.01	383.85
441.19	454.06
441.38	430.66
441.57	437.68
441.75	379.17
441.94	456.40
442.12	435.34
442.31	395.55
442.50	411.93
442.68	400.23
442.87	299.59
443.05	440.02
443.24	461.09
443.43	381.51
443.61	418.96
443.80	402.57
443.98	367.46
444.17	313.63
444.35	414.27
444.54	369.80
444.73	447.04
444.91	440.02
445.10	376.83
445.28	395.55
445.47	472.79
445.65	449.38
445.84	400.23
446.02	496.19
446.21	451.72
446.39	435.34
446.58	411.93
446.77	341.72
446.95	397.89
447.14	430.66
447.32	465.77
447.51	456.40
447.69	379.17
447.88	491.51
448.06	437.68
448.25	440.02
448.43	425.98
448.62	397.89
448.80	477.47
448.99	402.57
449.17	418.96
449.36	430.66
449.54	442.36
449.73	358.10
449.91	433.00
450.10	461.09
450.28	519.60
450.46	433.00
450.65	400.23
450.83	433.00
451.02	372.15
451.20	379.17
451.39	304.27
451.57	416.62
451.76	444.70
451.94	425.98
452.13	470.45
452.31	414.27
452.49	472.79
452.68	400.23
452.86	374.49
453.05	496.19
453.23	463.43
453.42	414.27
453.60	465.77
453.78	402.57
453.97	423.64
454.15	388.53
454.34	428.32
454.52	421.30
454.70	404.91
454.89	454.06
455.07	379.17
455.26	444.70
455.44	440.02
455.62	393.21
455.81	479.81
455.99	355.76
456.17	440.02
456.36	451.72
456.54	418.96
456.73	381.51
456.91	411.93
457.09	374.49
457.28	416.62
457.46	358.10
457.64	388.53
457.83	374.49
458.01	416.62
458.19	407.25
458.38	390.87
458.56	381.51
458.74	395.55
458.93	433.00
459.11	425.98
459.29	362.78
459.48	449.38
459.66	517.26
459.84	404.91
460.03	472.79
460.21	479.81
460.39	390.87
460.57	346.40
460.76	442.36
460.94	468.11
461.12	395.55
461.31	428.32
461.49	440.02
461.67	390.87
461.85	433.00
462.04	334.70
462.22	767.70
462.40	425.98
462.59	472.79
462.77	386.19
462.95	327.68
463.13	435.34
463.32	386.19
463.50	369.80
463.68	449.38
463.86	451.72
464.05	442.36
464.23	407.25
464.41	376.83
464.59	416.62
464.78	414.27
464.96	407.25
465.14	393.21
465.32	447.04
465.50	379.17
465.69	397.89
465.87	451.72
466.05	470.45
466.23	423.64
466.41	395.55
466.60	414.27
466.78	437.68
466.96	400.23
467.14	421.30
467.32	477.47
467.51	444.70
467.69	479.81
467.87	404.91
468.05	337.04
468.23	468.11
468.41	414.27
468.60	390.87
468.78	416.62
468.96	421.30
469.14	477.47
469.32	430.66
469.50	337.04
469.69	437.68
469.87	374.49
470.05	421.30
470.23	444.70
470.41	416.62
470.59	393.21
470.77	437.68
470.95	418.96
471.14	475.13
471.32	381.51
471.50	465.77
471.68	472.79
471.86	440.02
472.04	470.45
472.22	416.62
472.40	388.53
472.58	341.72
472.77	404.91
472.95	416.62
473.13	444.70
473.31	421.30
473.49	414.27
473.67	388.53
473.85	430.66
474.03	416.62
474.21	388.53
474.39	409.59
474.57	472.79
474.75	423.64
474.93	416.62
475.12	430.66
475.30	437.68
475.48	472.79
475.66	372.15
475.84	367.46
476.02	442.36
476.20	365.12
476.38	386.19
476.56	444.70
476.74	341.72
476.92	454.06
477.10	397.89
477.28	430.66
477.46	447.04
477.64	381.51
477.82	428.32
478.00	402.57
478.18	477.47
478.36	351.08
478.54	435.34
478.72	360.44
478.90	402.57
479.08	353.42
479.26	362.78
479.44	477.47
479.62	444.70
479.80	372.15
479.98	416.62
480.16	411.93
480.34	430.66
480.52	379.17
480.70	407.25
480.88	428.32
481.06	435.34
481.24	433.00
481.41	330.02
481.59	451.72
481.77	447.04
481.95	390.87
482.13	379.17
482.31	449.38
482.49	435.34
482.67	411.93
482.85	393.21
483.03	383.85
483.21	428.32
483.39	423.64
483.57	400.23
483.74	344.06
483.92	437.68
484.10	390.87
484.28	351.08
484.46	465.77
484.64	355.76
484.82	411.93
485.00	362.78
485.18	414.27
485.35	397.89
485.53	409.59
485.71	470.45
485.89	395.55
486.07	379.17
486.25	521.94
486.43	451.72
486.61	484.49
486.78	374.49
486.96	456.40
487.14	451.72
487.32	435.34
487.50	388.53
487.68	428.32
487.85	386.19
488.03	393.21
488.21	458.74
488.39	353.42
488.57	409.59
488.75	430.66
488.92	521.94
489.10	435.34
489.28	416.62
489.46	362.78
489.64	351.08
489.81	355.76
489.99	397.89
490.17	409.59
490.35	519.60
490.53	402.57
490.70	414.27
490.88	440.02
491.06	442.36
491.24	472.79
491.41	407.25
491.59	463.43
491.77	442.36
491.95	463.43
492.13	374.49
492.30	393.21
492.48	437.68
492.66	395.55
492.84	339.38
493.01	365.12
493.19	388.53
493.37	407.25
493.54	407.25
493.72	376.83
493.90	440.02
494.08	423.64
494.25	407.25
494.43	376.83
494.61	374.49
494.79	437.68
494.96	332.36
495.14	407.25
495.32	397.89
495.49	400.23
495.67	407.25
495.85	430.66
496.02	418.96
496.20	325.33
496.38	395.55
496.55	411.93
496.73	442.36
496.91	367.46
497.09	435.34
497.26	409.59
497.44	414.27
497.62	423.64
497.79	367.46
497.97	423.64
498.14	437.68
498.32	365.12
498.50	425.98
498.67	461.09
498.85	458.74
499.03	341.72
499.20	404.91
499.38	390.87
499.56	423.64
499.73	369.80
499.91	430.66
500.08	447.04
500.26	454.06
500.44	383.85
500.61	423.64
500.79	402.57
500.97	416.62
501.14	535.98
501.32	418.96
501.49	535.98
501.67	400.23
501.84	442.36
502.02	440.02
502.20	447.04
502.37	395.55
502.55	451.72
502.72	376.83
502.90	451.72
503.07	451.72
503.25	397.89
503.43	428.32
503.60	421.30
503.78	346.40
503.95	395.55
504.13	397.89
504.30	425.98
504.48	411.93
504.65	491.51
504.83	470.45
505.01	390.87
505.18	397.89
505.36	411.93
505.53	423.64
505.71	383.85
505.88	430.66
506.06	397.89
506.23	454.06
506.41	425.98
506.58	477.47
506.76	437.68
506.93	365.12
507.11	423.64
507.28	454.06
507.46	353.42
507.63	418.96
507.81	503.22
507.98	351.08
508.16	379.17
508.33	404.91
508.50	367.46
508.68	442.36
508.85	353.42
509.03	425.98
509.20	440.02
509.38	416.62
509.55	463.43
509.73	470.45
509.90	414.27
510.08	454.06
510.25	482.15
510.42	465.77
510.60	369.80
510.77	397.89
510.95	461.09
511.12	428.32
511.30	440.02
511.47	421.30
511.64	444.70
511.82	395.55
511.99	456.40
512.17	440.02
512.34	376.83
512.51	433.00
512.69	421.30
512.86	423.64
513.04	400.23
513.21	449.38
513.38	411.93
513.56	430.66
513.73	393.21
513.90	390.87
514.08	369.80
514.25	461.09
514.43	339.38
514.60	418.96
514.77	360.44
514.95	397.89
515.12	454.06
515.29	416.62
515.47	369.80
515.64	416.62
515.81	482.15
515.99	423.64
516.16	423.64
516.33	374.49
516.51	404.91
516.68	395.55
516.85	416.62
517.03	465.77
517.20	386.19
517.37	470.45
517.54	395.55
517.72	433.00
517.89	430.66
518.06	423.64
518.24	470.45
518.41	468.11
518.58	430.66
518.75	402.57
518.93	425.98
519.10	425.98
519.27	423.64
519.45	381.51
519.62	393.21
519.79	376.83
519.96	512.58
520.14	390.87
520.31	451.72
520.48	416.62
520.65	411.93
520.83	411.93
521.00	484.49
521.17	407.25
521.34	365.12
521.52	411.93
521.69	430.66
521.86	409.59
522.03	402.57
522.20	414.27
522.38	315.97
522.55	472.79
522.72	437.68
522.89	461.09
523.07	428.32
523.24	383.85
523.41	437.68
523.58	442.36
523.75	351.08
523.92	320.65
524.10	383.85
524.27	503.22
524.44	400.23
524.61	416.62
524.78	428.32
524.96	383.85
525.13	421.30
525.30	444.70
525.47	404.91
525.64	409.59
525.81	528.96
525.98	409.59
526.16	418.96
526.33	444.70
526.50	362.78
526.67	388.53
526.84	423.64
527.01	411.93
527.18	341.72
527.36	411.93
527.53	388.53
527.70	435.34
527.87	421.30
528.04	442.36
528.21	390.87
528.38	435.34
528.55	411.93
528.72	423.64
528.89	468.11
529.07	334.70
529.24	442.36
529.41	409.59
529.58	409.59
529.75	351.08
529.92	383.85
530.09	388.53
530.26	421.30
530.43	414.27
530.60	395.55
530.77	386.19
530.94	393.21
531.11	393.21
531.28	360.44
531.46	376.83
531.63	409.59
531.80	442.36
531.97	400.23
532.14	393.21
532.31	440.02
532.48	447.04
532.65	423.64
532.82	351.08
532.99	440.02
533.16	362.78
533.33	386.19
533.50	379.17
533.67	402.57
533.84	475.13
534.01	376.83
534.18	468.11
534.35	470.45
534.52	393.21
534.69	395.55
534.86	374.49
535.03	416.62
535.20	423.64
535.37	444.70
535.54	346.40
535.71	433.00
535.88	369.80
536.05	435.34
536.22	456.40
536.38	437.68
536.55	463.43
536.72	418.96
536.89	416.62
537.06	397.89
537.23	383.85
537.40	351.08
537.57	402.57
537.74	430.66
537.91	395.55
538.08	416.62
538.25	388.53
538.42	416.62
538.59	390.87
538.75	362.78
538.92	386.19
539.09	496.19
539.26	402.57
539.43	468.11
539.60	386.19
539.77	376.83
539.94	428.32
540.11	404.91
540.28	402.57
540.44	472.79
540.61	437.68
540.78	383.85
540.95	447.04
541.12	470.45
541.29	421.30
541.46	411.93
541.62	390.87
541.79	498.53
541.96	437.68
542.13	491.51
542.30	477.47
542.47	376.83
542.63	437.68
542.80	372.15
542.97	463.43
543.14	358.10
543.31	414.27
543.48	425.98
543.64	383.85
543.81	404.91
543.98	421.30
544.15	395.55
544.32	435.34
544.48	348.74
544.65	416.62
544.82	341.72
544.99	458.74
545.16	404.91
545.32	435.34
545.49	444.70
545.66	531.30
545.83	322.99
546.00	451.72
546.16	379.17
546.33	381.51
546.50	348.74
546.67	507.90
546.83	409.59
547.00	362.78
547.17	372.15
547.34	388.53
547.50	407.25
547.67	411.93
547.84	449.38
548.00	437.68
548.17	355.76
548.34	360.44
548.51	486.83
548.67	435.34
548.84	369.80
549.01	435.34
549.18	428.32
549.34	395.55
549.51	447.04
549.68	517.26
549.84	458.74
550.01	365.12
550.18	550.03
550.34	465.77
550.51	383.85
550.68	447.04
550.84	374.49
551.01	444.70
551.18	418.96
551.34	376.83
551.51	435.34
551.68	360.44
551.84	421.30
552.01	379.17
552.18	404.91
552.34	407.25
552.51	407.25
552.68	344.06
552.84	388.53
553.01	430.66
553.18	484.49
553.34	421.30
553.51	337.04
553.67	479.81
553.84	428.32
554.01	423.64
554.17	411.93
554.34	433.00
554.51	433.00
554.67	442.36
554.84	449.38
555.00	470.45
555.17	390.87
555.33	433.00
555.50	456.40
555.67	435.34
555.83	360.44
556.00	325.33
556.16	533.64
556.33	416.62
556.50	362.78
556.66	442.36
556.83	425.98
556.99	397.89
557.16	388.53
557.32	409.59
557.49	369.80
557.65	337.04
557.82	372.15
557.98	409.59
558.15	388.53
558.32	433.00
558.48	430.66
558.65	332.36
558.81	447.04
558.98	411.93
559.14	458.74
559.31	414.27
559.47	390.87
559.64	433.00
559.80	440.02
559.97	454.06
560.13	379.17
560.30	395.55
560.46	425.98
560.63	407.25
560.79	344.06
560.96	416.62
561.12	348.74
561.29	442.36
561.45	447.04
561.61	479.81
561.78	503.22
561.94	409.59
562.11	332.36
562.27	435.34
562.44	404.91
562.60	411.93
562.77	428.32
562.93	489.17
563.10	447.04
563.26	400.23
563.42	418.96
563.59	449.38
563.75	423.64
563.92	435.34
564.08	411.93
564.24	390.87
564.41	449.38
564.57	425.98
564.74	372.15
564.90	428.32
565.07	416.62
565.23	409.59
565.39	416.62
565.56	404.91
565.72	430.66
565.88	425.98
566.05	456.40
566.21	435.34
566.38	400.23
566.54	348.74
566.70	369.80
566.87	362.78
567.03	409.59
567.19	447.04
567.36	390.87
567.52	414.27
567.68	423.64
567.85	369.80
568.01	379.17
568.17	409.59
568.34	435.34
568.50	442.36
568.66	416.62
568.83	463.43
568.99	395.55
569.15	465.77
569.32	458.74
569.48	386.19
569.64	472.79
569.81	379.17
569.97	367.46
570.13	472.79
570.30	388.53
570.46	433.00
570.62	512.58
570.78	395.55
570.95	444.70
571.11	444.70
571.27	475.13
571.43	425.98
571.60	449.38
571.76	454.06
571.92	435.34
572.09	376.83
572.25	451.72
572.41	440.02
572.57	374.49
572.74	449.38
572.90	393.21
573.06	407.25
573.22	421.30
573.38	379.17
573.55	430.66
573.71	348.74
573.87	442.36
574.03	388.53
574.20	358.10
574.36	421.30
574.52	386.19
574.68	425.98
574.84	416.62
575.01	388.53
575.17	353.42
575.33	407.25
575.49	440.02
575.65	423.64
575.82	430.66
575.98	393.21
576.14	397.89
576.30	379.17
576.46	444.70
576.62	423.64
576.79	491.51
576.95	454.06
577.11	374.49
577.27	344.06
577.43	470.45
577.59	456.40
577.75	381.51
577.92	451.72
578.08	397.89
578.24	421.30
578.40	390.87
578.56	358.10
578.72	442.36
578.88	425.98
579.04	461.09
579.21	411.93
579.37	395.55
579.53	444.70
579.69	451.72
579.85	334.70
580.01	400.23
580.17	461.09
580.33	365.12
580.49	440.02
580.65	447.04
580.82	374.49
580.98	393.21
581.14	411.93
581.30	463.43
581.46	451.72
581.62	430.66
581.78	400.23
581.94	458.74
582.10	435.34
582.26	346.40
582.42	379.17
582.58	440.02
582.74	388.53
582.90	411.93
583.06	444.70
583.22	411.93
583.38	402.57
583.54	407.25
583.70	430.66
583.86	400.23
584.02	489.17
584.18	493.85
584.34	397.89
584.50	402.57
584.66	376.83
584.82	393.21
584.98	491.51
585.14	376.83
585.30	519.60
585.46	458.74
585.62	369.80
585.78	381.51
585.94	414.27
586.10	421.30
586.26	444.70
586.42	433.00
586.58	365.12
586.74	444.70
586.90	423.64
587.06	390.87
587.22	374.49
587.38	390.87
587.54	451.72
587.70	367.46
587.86	437.68
588.02	395.55
588.18	418.96
588.34	440.02
588.49	418.96
588.65	477.47
588.81	423.64
588.97	409.59
589.13	463.43
589.29	390.87
589.45	425.98
589.61	486.83
589.77	433.00
589.93	397.89
590.08	447.04
590.24	449.38
590.40	372.15
590.56	407.25
590.72	428.32
590.88	393.21
591.04	390.87
591.20	414.27
591.35	383.85
591.51	451.72
591.67	346.40
591.83	461.09
591.99	365.12
592.15	414.27
592.31	444.70
592.46	461.09
592.62	376.83
592.78	367.46
592.94	365.12
593.10	428.32
593.26	479.81
593.41	376.83
593.57	451.72
593.73	322.99
593.89	409.59
594.05	362.78
594.20	379.17
594.36	444.70
594.52	465.77
594.68	472.79
594.84	390.87
594.99	362.78
595.15	463.43
595.31	444.70
595.47	409.59
595.62	407.25
595.78	353.42
595.94	486.83
596.10	461.09
596.25	423.64
596.41	367.46
596.57	362.78
596.73	393.21
596.88	428.32
597.04	449.38
597.20	379.17
597.36	442.36
597.51	383.85
597.67	421.30
597.83	367.46
597.99	393.21
598.14	425.98
598.30	437.68
598.46	456.40
598.61	421.30
598.77	482.15
598.93	388.53
599.09	388.53
599.24	435.34
599.40	456.40
599.56	400.23
599.71	393.21
599.87	458.74
600.03	423.64
600.18	451.72
600.34	435.34
600.50	376.83
600.65	341.72
600.81	400.23
600.97	414.27
601.12	484.49
601.28	421.30
601.44	491.51
601.59	353.42
601.75	468.11
601.91	440.02
602.06	454.06
602.22	451.72
602.37	376.83
602.53	351.08
602.69	454.06
602.84	416.62
603.00	374.49
603.16	449.38
603.31	400.23
603.47	433.00
603.62	374.49
603.78	423.64
603.94	423.64
604.09	475.13
604.25	447.04
604.40	407.25
604.56	341.72
604.71	423.64
604.87	395.55
605.03	447.04
605.18	425.98
605.34	461.09
605.49	423.64
605.65	411.93
605.80	348.74
605.96	423.64
606.12	400.23
606.27	428.32
606.43	433.00
606.58	332.36
606.74	402.57
606.89	468.11
607.05	447.04
607.20	372.15
607.36	332.36
607.51	395.55
607.67	393.21
607.82	355.76
607.98	390.87
608.13	383.85
608.29	402.57
608.44	435.34
608.60	362.78
608.75	407.25
608.91	428.32
609.06	418.96
609.22	402.57
609.37	397.89
609.53	418.96
609.68	411.93
609.84	411.93
609.99	362.78
610.15	362.78
