SpectraSuite Data File
++++++++++++++++++++++++++++++++++++
Date: Fri Oct 25 12:11:22 EDT 2013
User: price-jones
Dark Spectrum Present: No
Reference Spectrum Present: No
Number of Sampled Component Spectra: 1
Spectrometers: USB2+H05261
Integration Time (usec): 100000 (USB2+H05261)
Spectra Averaged: 1 (USB2+H05261)
Boxcar Smoothing: 0 (USB2+H05261)
Correct for Electrical Dark: No (USB2+H05261)
Strobe/Lamp Enabled: No (USB2+H05261)
Correct for Detector Non-linearity: No (USB2+H05261)
Correct for Stray Light: No (USB2+H05261)
Number of Pixels in Processed Spectrum: 2048
>>>>>Begin Processed Spectral Data<<<<<
365.73	407.25
365.92	407.25
366.12	407.25
366.32	236.39
366.52	236.39
366.72	292.57
366.91	222.35
367.11	248.10
367.31	238.73
367.51	163.84
367.70	215.33
367.90	212.99
368.10	194.26
368.30	257.46
368.49	210.65
368.69	271.50
368.89	290.23
369.09	257.46
369.28	283.20
369.48	285.55
369.68	337.04
369.87	285.55
370.07	313.63
370.27	346.40
370.47	369.80
370.66	276.18
370.86	341.72
371.06	400.23
371.25	372.15
371.45	379.17
371.65	414.27
371.84	388.53
372.04	447.04
372.24	444.70
372.44	404.91
372.63	379.17
372.83	404.91
373.03	411.93
373.22	381.51
373.42	437.68
373.62	456.40
373.81	414.27
374.01	500.87
374.21	418.96
374.40	456.40
374.60	463.43
374.79	428.32
374.99	428.32
375.19	463.43
375.38	454.06
375.58	418.96
375.78	421.30
375.97	442.36
376.17	440.02
376.37	430.66
376.56	348.74
376.76	444.70
376.95	418.96
377.15	395.55
377.35	461.09
377.54	440.02
377.74	440.02
377.93	428.32
378.13	414.27
378.33	442.36
378.52	407.25
378.72	414.27
378.91	358.10
379.11	440.02
379.31	388.53
379.50	442.36
379.70	430.66
379.89	400.23
380.09	390.87
380.28	433.00
380.48	416.62
380.68	447.04
380.87	451.72
381.07	437.68
381.26	486.83
381.46	332.36
381.65	444.70
381.85	374.49
382.04	414.27
382.24	416.62
382.43	360.44
382.63	421.30
382.83	442.36
383.02	482.15
383.22	390.87
383.41	367.46
383.61	414.27
383.80	423.64
384.00	404.91
384.19	376.83
384.39	435.34
384.58	327.68
384.78	404.91
384.97	327.68
385.17	372.15
385.36	348.74
385.56	355.76
385.75	390.87
385.95	367.46
386.14	423.64
386.34	456.40
386.53	416.62
386.72	437.68
386.92	332.36
387.11	304.27
387.31	423.64
387.50	414.27
387.70	358.10
387.89	348.74
388.09	376.83
388.28	404.91
388.48	381.51
388.67	430.66
388.86	418.96
389.06	390.87
389.25	440.02
389.45	374.49
389.64	430.66
389.84	395.55
390.03	484.49
390.22	428.32
390.42	421.30
390.61	430.66
390.81	365.12
391.00	388.53
391.19	435.34
391.39	386.19
391.58	404.91
391.78	442.36
391.97	386.19
392.16	402.57
392.36	414.27
392.55	433.00
392.75	428.32
392.94	416.62
393.13	418.96
393.33	397.89
393.52	383.85
393.71	454.06
393.91	425.98
394.10	447.04
394.29	395.55
394.49	479.81
394.68	428.32
394.88	416.62
395.07	458.74
395.26	409.59
395.46	334.70
395.65	402.57
395.84	376.83
396.04	411.93
396.23	411.93
396.42	390.87
396.62	409.59
396.81	435.34
397.00	379.17
397.19	430.66
397.39	428.32
397.58	454.06
397.77	437.68
397.97	414.27
398.16	339.38
398.35	411.93
398.55	386.19
398.74	358.10
398.93	465.77
399.12	442.36
399.32	409.59
399.51	386.19
399.70	416.62
399.90	355.76
400.09	430.66
400.28	369.80
400.47	430.66
400.67	440.02
400.86	390.87
401.05	458.74
401.24	369.80
401.44	425.98
401.63	351.08
401.82	425.98
402.01	395.55
402.21	374.49
402.40	442.36
402.59	423.64
402.78	437.68
402.97	353.42
403.17	411.93
403.36	458.74
403.55	407.25
403.74	428.32
403.93	367.46
404.13	379.17
404.32	416.62
404.51	390.87
404.70	379.17
404.89	386.19
405.09	451.72
405.28	451.72
405.47	346.40
405.66	397.89
405.85	414.27
406.05	461.09
406.24	449.38
406.43	407.25
406.62	430.66
406.81	409.59
407.00	444.70
407.20	468.11
407.39	425.98
407.58	362.78
407.77	423.64
407.96	407.25
408.15	395.55
408.34	435.34
408.54	400.23
408.73	294.91
408.92	425.98
409.11	416.62
409.30	461.09
409.49	428.32
409.68	449.38
409.87	447.04
410.07	402.57
410.26	430.66
410.45	402.57
410.64	458.74
410.83	367.46
411.02	346.40
411.21	442.36
411.40	418.96
411.59	388.53
411.78	395.55
411.98	449.38
412.17	344.06
412.36	367.46
412.55	425.98
412.74	437.68
412.93	386.19
413.12	397.89
413.31	421.30
413.50	421.30
413.69	425.98
413.88	451.72
414.07	433.00
414.26	322.99
414.45	400.23
414.64	447.04
414.83	395.55
415.02	454.06
415.22	423.64
415.41	379.17
415.60	395.55
415.79	418.96
415.98	470.45
416.17	379.17
416.36	379.17
416.55	458.74
416.74	411.93
416.93	416.62
417.12	386.19
417.31	337.04
417.50	437.68
417.69	517.26
417.88	407.25
418.07	355.76
418.26	458.74
418.45	383.85
418.64	397.89
418.83	418.96
419.02	444.70
419.21	444.70
419.39	320.65
419.58	449.38
419.77	414.27
419.96	463.43
420.15	428.32
420.34	297.25
420.53	386.19
420.72	379.17
420.91	388.53
421.10	444.70
421.29	461.09
421.48	400.23
421.67	416.62
421.86	372.15
422.05	425.98
422.24	397.89
422.43	362.78
422.61	393.21
422.80	411.93
422.99	411.93
423.18	407.25
423.37	512.58
423.56	388.53
423.75	449.38
423.94	433.00
424.13	447.04
424.32	381.51
424.50	393.21
424.69	498.53
424.88	451.72
425.07	308.95
425.26	444.70
425.45	355.76
425.64	395.55
425.83	435.34
426.01	353.42
426.20	451.72
426.39	449.38
426.58	421.30
426.77	444.70
426.96	369.80
427.15	344.06
427.33	353.42
427.52	322.99
427.71	393.21
427.90	435.34
428.09	463.43
428.28	437.68
428.46	425.98
428.65	423.64
428.84	411.93
429.03	414.27
429.22	449.38
429.40	379.17
429.59	414.27
429.78	416.62
429.97	435.34
430.16	397.89
430.34	440.02
430.53	388.53
430.72	411.93
430.91	414.27
431.10	425.98
431.28	388.53
431.47	472.79
431.66	374.49
431.85	355.76
432.03	435.34
432.22	442.36
432.41	407.25
432.60	444.70
432.79	376.83
432.97	423.64
433.16	468.11
433.35	388.53
433.54	421.30
433.72	411.93
433.91	388.53
434.10	400.23
434.28	397.89
434.47	379.17
434.66	425.98
434.85	465.77
435.03	409.59
435.22	395.55
435.41	433.00
435.59	449.38
435.78	379.17
435.97	404.91
436.16	395.55
436.34	418.96
436.53	418.96
436.72	491.51
436.90	388.53
437.09	430.66
437.28	400.23
437.46	374.49
437.65	397.89
437.84	451.72
438.02	440.02
438.21	493.85
438.40	383.85
438.58	374.49
438.77	409.59
438.96	374.49
439.14	442.36
439.33	421.30
439.52	454.06
439.70	472.79
439.89	393.21
440.08	365.12
440.26	376.83
440.45	383.85
440.63	393.21
440.82	367.46
441.01	395.55
441.19	353.42
441.38	454.06
441.57	449.38
441.75	421.30
441.94	414.27
442.12	360.44
442.31	468.11
442.50	421.30
442.68	390.87
442.87	379.17
443.05	435.34
443.24	423.64
443.43	437.68
443.61	447.04
443.80	514.92
443.98	351.08
444.17	425.98
444.35	402.57
444.54	451.72
444.73	353.42
444.91	533.64
445.10	484.49
445.28	449.38
445.47	395.55
445.65	404.91
445.84	468.11
446.02	440.02
446.21	416.62
446.39	287.89
446.58	351.08
446.77	395.55
446.95	353.42
447.14	400.23
447.32	454.06
447.51	414.27
447.69	430.66
447.88	390.87
448.06	374.49
448.25	440.02
448.43	386.19
448.62	421.30
448.80	360.44
448.99	465.77
449.17	414.27
449.36	407.25
449.54	463.43
449.73	423.64
449.91	393.21
450.10	433.00
450.28	477.47
450.46	425.98
450.65	444.70
450.83	531.30
451.02	414.27
451.20	379.17
451.39	388.53
451.57	454.06
451.76	423.64
451.94	395.55
452.13	400.23
452.31	416.62
452.49	411.93
452.68	407.25
452.86	428.32
453.05	472.79
453.23	402.57
453.42	421.30
453.60	416.62
453.78	358.10
453.97	395.55
454.15	433.00
454.34	409.59
454.52	437.68
454.70	425.98
454.89	472.79
455.07	383.85
455.26	447.04
455.44	409.59
455.62	407.25
455.81	456.40
455.99	381.51
456.17	425.98
456.36	447.04
456.54	409.59
456.73	402.57
456.91	393.21
457.09	493.85
457.28	435.34
457.46	334.70
457.64	407.25
457.83	353.42
458.01	449.38
458.19	444.70
458.38	411.93
458.56	435.34
458.74	388.53
458.93	390.87
459.11	418.96
459.29	400.23
459.48	433.00
459.66	369.80
459.84	430.66
460.03	486.83
460.21	451.72
460.39	521.94
460.57	456.40
460.76	454.06
460.94	421.30
461.12	484.49
461.31	365.12
461.49	404.91
461.67	325.33
461.85	379.17
462.04	397.89
462.22	739.61
462.40	444.70
462.59	505.56
462.77	360.44
462.95	327.68
463.13	458.74
463.32	409.59
463.50	374.49
463.68	433.00
463.86	360.44
464.05	414.27
464.23	433.00
464.41	449.38
464.59	386.19
464.78	440.02
464.96	428.32
465.14	374.49
465.32	360.44
465.50	397.89
465.69	430.66
465.87	337.04
466.05	327.68
466.23	379.17
466.41	395.55
466.60	409.59
466.78	435.34
466.96	388.53
467.14	482.15
467.32	430.66
467.51	400.23
467.69	475.13
467.87	451.72
468.05	409.59
468.23	442.36
468.41	395.55
468.60	407.25
468.78	423.64
468.96	500.87
469.14	418.96
469.32	472.79
469.50	416.62
469.69	470.45
469.87	360.44
470.05	397.89
470.23	390.87
470.41	330.02
470.59	367.46
470.77	344.06
470.95	425.98
471.14	456.40
471.32	418.96
471.50	393.21
471.68	423.64
471.86	386.19
472.04	407.25
472.22	411.93
472.40	397.89
472.58	423.64
472.77	360.44
472.95	358.10
473.13	449.38
473.31	395.55
473.49	358.10
473.67	395.55
473.85	348.74
474.03	477.47
474.21	437.68
474.39	395.55
474.57	451.72
474.75	395.55
474.93	423.64
475.12	381.51
475.30	458.74
475.48	418.96
475.66	416.62
475.84	475.13
476.02	360.44
476.20	360.44
476.38	390.87
476.56	435.34
476.74	418.96
476.92	358.10
477.10	386.19
477.28	484.49
477.46	393.21
477.64	397.89
477.82	379.17
478.00	440.02
478.18	475.13
478.36	386.19
478.54	409.59
478.72	407.25
478.90	416.62
479.08	449.38
479.26	440.02
479.44	428.32
479.62	341.72
479.80	390.87
479.98	437.68
480.16	414.27
480.34	475.13
480.52	379.17
480.70	379.17
480.88	374.49
481.06	400.23
481.24	397.89
481.41	409.59
481.59	550.03
481.77	454.06
481.95	372.15
482.13	409.59
482.31	456.40
482.49	386.19
482.67	444.70
482.85	447.04
483.03	442.36
483.21	423.64
483.39	330.02
483.57	388.53
483.74	409.59
483.92	402.57
484.10	393.21
484.28	416.62
484.46	479.81
484.64	416.62
484.82	425.98
485.00	381.51
485.18	395.55
485.35	442.36
485.53	449.38
485.71	400.23
485.89	346.40
486.07	425.98
486.25	461.09
486.43	456.40
486.61	425.98
486.78	388.53
486.96	475.13
487.14	416.62
487.32	418.96
487.50	454.06
487.68	425.98
487.85	423.64
488.03	393.21
488.21	440.02
488.39	428.32
488.57	390.87
488.75	416.62
488.92	482.15
489.10	454.06
489.28	416.62
489.46	440.02
489.64	416.62
489.81	348.74
489.99	437.68
490.17	395.55
490.35	503.22
490.53	451.72
490.70	463.43
490.88	395.55
491.06	440.02
491.24	433.00
491.41	428.32
491.59	421.30
491.77	383.85
491.95	344.06
492.13	379.17
492.30	454.06
492.48	409.59
492.66	367.46
492.84	362.78
493.01	397.89
493.19	374.49
493.37	395.55
493.54	383.85
493.72	400.23
493.90	360.44
494.08	430.66
494.25	505.56
494.43	449.38
494.61	421.30
494.79	369.80
494.96	376.83
495.14	409.59
495.32	379.17
495.49	421.30
495.67	390.87
495.85	400.23
496.02	393.21
496.20	376.83
496.38	442.36
496.55	458.74
496.73	381.51
496.91	423.64
497.09	482.15
497.26	425.98
497.44	395.55
497.62	479.81
497.79	456.40
497.97	390.87
498.14	472.79
498.32	435.34
498.50	416.62
498.67	374.49
498.85	442.36
499.03	386.19
499.20	465.77
499.38	447.04
499.56	479.81
499.73	402.57
499.91	425.98
500.08	379.17
500.26	444.70
500.44	386.19
500.61	435.34
500.79	484.49
500.97	472.79
501.14	554.71
501.32	486.83
501.49	517.26
501.67	433.00
501.84	400.23
502.02	418.96
502.20	322.99
502.37	376.83
502.55	395.55
502.72	440.02
502.90	414.27
503.07	430.66
503.25	423.64
503.43	433.00
503.60	379.17
503.78	447.04
503.95	430.66
504.13	400.23
504.30	463.43
504.48	407.25
504.65	461.09
504.83	409.59
505.01	390.87
505.18	355.76
505.36	383.85
505.53	351.08
505.71	435.34
505.88	451.72
506.06	376.83
506.23	400.23
506.41	397.89
506.58	447.04
506.76	451.72
506.93	409.59
507.11	414.27
507.28	365.12
507.46	411.93
507.63	374.49
507.81	421.30
507.98	447.04
508.16	402.57
508.33	411.93
508.50	454.06
508.68	379.17
508.85	395.55
509.03	353.42
509.20	407.25
509.38	442.36
509.55	402.57
509.73	470.45
509.90	416.62
510.08	472.79
510.25	400.23
510.42	372.15
510.60	409.59
510.77	365.12
510.95	425.98
511.12	409.59
511.30	465.77
511.47	449.38
511.64	430.66
511.82	435.34
511.99	397.89
512.17	395.55
512.34	388.53
512.51	381.51
512.69	463.43
512.86	437.68
513.04	421.30
513.21	444.70
513.38	393.21
513.56	388.53
513.73	369.80
513.90	447.04
514.08	414.27
514.25	388.53
514.43	358.10
514.60	433.00
514.77	421.30
514.95	418.96
515.12	416.62
515.29	435.34
515.47	421.30
515.64	437.68
515.81	344.06
515.99	451.72
516.16	458.74
516.33	430.66
516.51	365.12
516.68	423.64
516.85	447.04
517.03	433.00
517.20	402.57
517.37	421.30
517.54	379.17
517.72	383.85
517.89	397.89
518.06	320.65
518.24	496.19
518.41	454.06
518.58	454.06
518.75	362.78
518.93	402.57
519.10	433.00
519.27	433.00
519.45	341.72
519.62	451.72
519.79	355.76
519.96	451.72
520.14	376.83
520.31	407.25
520.48	468.11
520.65	411.93
520.83	409.59
521.00	421.30
521.17	411.93
521.34	447.04
521.52	388.53
521.69	500.87
521.86	486.83
522.03	411.93
522.20	409.59
522.38	388.53
522.55	489.17
522.72	358.10
522.89	517.26
523.07	437.68
523.24	425.98
523.41	358.10
523.58	435.34
523.75	332.36
523.92	395.55
524.10	454.06
524.27	411.93
524.44	428.32
524.61	388.53
524.78	400.23
524.96	397.89
525.13	418.96
525.30	430.66
525.47	425.98
525.64	418.96
525.81	449.38
525.98	428.32
526.16	425.98
526.33	383.85
526.50	397.89
526.67	351.08
526.84	489.17
527.01	444.70
527.18	376.83
527.36	414.27
527.53	421.30
527.70	435.34
527.87	423.64
528.04	472.79
528.21	358.10
528.38	395.55
528.55	479.81
528.72	482.15
528.89	470.45
529.07	489.17
529.24	395.55
529.41	423.64
529.58	400.23
529.75	402.57
529.92	449.38
530.09	421.30
530.26	411.93
530.43	400.23
530.60	379.17
530.77	468.11
530.94	463.43
531.11	369.80
531.28	418.96
531.46	442.36
531.63	442.36
531.80	442.36
531.97	435.34
532.14	409.59
532.31	409.59
532.48	430.66
532.65	386.19
532.82	353.42
532.99	449.38
533.16	437.68
533.33	409.59
533.50	397.89
533.67	447.04
533.84	463.43
534.01	451.72
534.18	414.27
534.35	407.25
534.52	393.21
534.69	430.66
534.86	442.36
535.03	367.46
535.20	421.30
535.37	458.74
535.54	318.31
535.71	458.74
535.88	393.21
536.05	397.89
536.22	425.98
536.38	404.91
536.55	477.47
536.72	454.06
536.89	390.87
537.06	411.93
537.23	421.30
537.40	341.72
537.57	393.21
537.74	437.68
537.91	489.17
538.08	442.36
538.25	451.72
538.42	374.49
538.59	390.87
538.75	428.32
538.92	468.11
539.09	353.42
539.26	362.78
539.43	451.72
539.60	428.32
539.77	486.83
539.94	418.96
540.11	475.13
540.28	423.64
540.44	451.72
540.61	407.25
540.78	418.96
540.95	386.19
541.12	409.59
541.29	484.49
541.46	470.45
541.62	421.30
541.79	355.76
541.96	442.36
542.13	433.00
542.30	390.87
542.47	411.93
542.63	390.87
542.80	416.62
542.97	421.30
543.14	409.59
543.31	414.27
543.48	393.21
543.64	390.87
543.81	409.59
543.98	414.27
544.15	475.13
544.32	425.98
544.48	440.02
544.65	362.78
544.82	411.93
544.99	393.21
545.16	421.30
545.32	395.55
545.49	451.72
545.66	463.43
545.83	428.32
546.00	411.93
546.16	433.00
546.33	374.49
546.50	444.70
546.67	390.87
546.83	425.98
547.00	346.40
547.17	404.91
547.34	428.32
547.50	416.62
547.67	397.89
547.84	404.91
548.00	388.53
548.17	402.57
548.34	407.25
548.51	418.96
548.67	465.77
548.84	379.17
549.01	376.83
549.18	425.98
549.34	383.85
549.51	416.62
549.68	376.83
549.84	404.91
550.01	442.36
550.18	477.47
550.34	540.66
550.51	468.11
550.68	430.66
550.84	491.51
551.01	465.77
551.18	425.98
551.34	461.09
551.51	397.89
551.68	468.11
551.84	409.59
552.01	404.91
552.18	456.40
552.34	440.02
552.51	430.66
552.68	411.93
552.84	463.43
553.01	397.89
553.18	477.47
553.34	367.46
553.51	421.30
553.67	404.91
553.84	444.70
554.01	437.68
554.17	470.45
554.34	496.19
554.51	407.25
554.67	475.13
554.84	463.43
555.00	437.68
555.17	416.62
555.33	430.66
555.50	451.72
555.67	468.11
555.83	402.57
556.00	381.51
556.16	564.07
556.33	458.74
556.50	390.87
556.66	390.87
556.83	379.17
556.99	425.98
557.16	435.34
557.32	416.62
557.49	334.70
557.65	442.36
557.82	411.93
557.98	358.10
558.15	404.91
558.32	470.45
558.48	463.43
558.65	393.21
558.81	418.96
558.98	402.57
559.14	444.70
559.31	468.11
559.47	470.45
559.64	325.33
559.80	400.23
559.97	456.40
560.13	395.55
560.30	409.59
560.46	388.53
560.63	346.40
560.79	442.36
560.96	414.27
561.12	449.38
561.29	491.51
561.45	400.23
561.61	390.87
561.78	472.79
561.94	472.79
562.11	435.34
562.27	477.47
562.44	369.80
562.60	358.10
562.77	425.98
562.93	545.34
563.10	517.26
563.26	456.40
563.42	397.89
563.59	477.47
563.75	454.06
563.92	416.62
564.08	402.57
564.24	535.98
564.41	456.40
564.57	433.00
564.74	407.25
564.90	411.93
565.07	433.00
565.23	430.66
565.39	437.68
565.56	451.72
565.72	435.34
565.88	390.87
566.05	407.25
566.21	444.70
566.38	447.04
566.54	400.23
566.70	428.32
566.87	383.85
567.03	409.59
567.19	437.68
567.36	423.64
567.52	351.08
567.68	407.25
567.85	428.32
568.01	416.62
568.17	365.12
568.34	390.87
568.50	430.66
568.66	407.25
568.83	500.87
568.99	479.81
569.15	355.76
569.32	423.64
569.48	440.02
569.64	365.12
569.81	365.12
569.97	367.46
570.13	407.25
570.30	386.19
570.46	407.25
570.62	386.19
570.78	414.27
570.95	449.38
571.11	482.15
571.27	425.98
571.43	449.38
571.60	421.30
571.76	425.98
571.92	435.34
572.09	435.34
572.25	407.25
572.41	444.70
572.57	402.57
572.74	365.12
572.90	330.02
573.06	379.17
573.22	437.68
573.38	479.81
573.55	505.56
573.71	564.07
573.87	383.85
574.03	390.87
574.20	421.30
574.36	418.96
574.52	341.72
574.68	402.57
574.84	397.89
575.01	397.89
575.17	482.15
575.33	440.02
575.49	449.38
575.65	463.43
575.82	425.98
575.98	437.68
576.14	390.87
576.30	423.64
576.46	355.76
576.62	500.87
576.79	397.89
576.95	383.85
577.11	376.83
577.27	348.74
577.43	489.17
577.59	395.55
577.75	402.57
577.92	397.89
578.08	449.38
578.24	411.93
578.40	428.32
578.56	461.09
578.72	451.72
578.88	444.70
579.04	454.06
579.21	409.59
579.37	388.53
579.53	404.91
579.69	386.19
579.85	437.68
580.01	442.36
580.17	400.23
580.33	404.91
580.49	538.32
580.65	390.87
580.82	407.25
580.98	334.70
581.14	397.89
581.30	421.30
581.46	404.91
581.62	489.17
581.78	390.87
581.94	425.98
582.10	355.76
582.26	465.77
582.42	454.06
582.58	411.93
582.74	465.77
582.90	404.91
583.06	390.87
583.22	390.87
583.38	348.74
583.54	395.55
583.70	458.74
583.86	397.89
584.02	390.87
584.18	451.72
584.34	409.59
584.50	449.38
584.66	402.57
584.82	421.30
584.98	353.42
585.14	407.25
585.30	425.98
585.46	437.68
585.62	421.30
585.78	393.21
585.94	367.46
586.10	409.59
586.26	393.21
586.42	425.98
586.58	409.59
586.74	393.21
586.90	393.21
587.06	463.43
587.22	409.59
587.38	430.66
587.54	407.25
587.70	477.47
587.86	409.59
588.02	376.83
588.18	337.04
588.34	407.25
588.49	400.23
588.65	376.83
588.81	414.27
588.97	440.02
589.13	435.34
589.29	411.93
589.45	421.30
589.61	383.85
589.77	372.15
589.93	433.00
590.08	451.72
590.24	390.87
590.40	458.74
590.56	376.83
590.72	369.80
590.88	360.44
591.04	418.96
591.20	409.59
591.35	397.89
591.51	433.00
591.67	397.89
591.83	428.32
591.99	435.34
592.15	500.87
592.31	376.83
592.46	341.72
592.62	468.11
592.78	381.51
592.94	358.10
593.10	390.87
593.26	414.27
593.41	433.00
593.57	386.19
593.73	367.46
593.89	428.32
594.05	428.32
594.20	383.85
594.36	416.62
594.52	428.32
594.68	402.57
594.84	444.70
594.99	425.98
595.15	395.55
595.31	430.66
595.47	418.96
595.62	454.06
595.78	456.40
595.94	407.25
596.10	500.87
596.25	486.83
596.41	465.77
596.57	341.72
596.73	440.02
596.88	449.38
597.04	404.91
597.20	365.12
597.36	372.15
597.51	486.83
597.67	437.68
597.83	449.38
597.99	435.34
598.14	437.68
598.30	472.79
598.46	341.72
598.61	407.25
598.77	414.27
598.93	416.62
599.09	433.00
599.24	463.43
599.40	486.83
599.56	437.68
599.71	470.45
599.87	353.42
600.03	379.17
600.18	423.64
600.34	421.30
600.50	400.23
600.65	423.64
600.81	386.19
600.97	449.38
601.12	433.00
601.28	493.85
601.44	367.46
601.59	360.44
601.75	444.70
601.91	414.27
602.06	393.21
602.22	428.32
602.37	479.81
602.53	484.49
602.69	454.06
602.84	418.96
603.00	444.70
603.16	425.98
603.31	390.87
603.47	430.66
603.62	374.49
603.78	379.17
603.94	374.49
604.09	395.55
604.25	477.47
604.40	428.32
604.56	367.46
604.71	367.46
604.87	395.55
605.03	379.17
605.18	409.59
605.34	477.47
605.49	397.89
605.65	458.74
605.80	423.64
605.96	409.59
606.12	358.10
606.27	430.66
606.43	381.51
606.58	362.78
606.74	458.74
606.89	449.38
607.05	407.25
607.20	379.17
607.36	404.91
607.51	341.72
607.67	442.36
607.82	418.96
607.98	440.02
608.13	404.91
608.29	433.00
608.44	440.02
608.60	390.87
608.75	454.06
608.91	416.62
609.06	444.70
609.22	456.40
609.37	416.62
609.53	346.40
609.68	416.62
609.84	341.72
609.99	425.98
610.15	454.06
