SpectraSuite Data File
++++++++++++++++++++++++++++++++++++
Date: Fri Oct 25 12:11:02 EDT 2013
User: price-jones
Dark Spectrum Present: No
Reference Spectrum Present: No
Number of Sampled Component Spectra: 1
Spectrometers: USB2+H05261
Integration Time (usec): 100000 (USB2+H05261)
Spectra Averaged: 1 (USB2+H05261)
Boxcar Smoothing: 0 (USB2+H05261)
Correct for Electrical Dark: No (USB2+H05261)
Strobe/Lamp Enabled: No (USB2+H05261)
Correct for Detector Non-linearity: No (USB2+H05261)
Correct for Stray Light: No (USB2+H05261)
Number of Pixels in Processed Spectrum: 2048
>>>>>Begin Processed Spectral Data<<<<<
365.73	374.49
365.92	374.49
366.12	374.49
366.32	273.84
366.52	252.78
366.72	215.33
366.91	262.14
367.11	187.24
367.31	294.91
367.51	191.92
367.70	184.90
367.90	264.48
368.10	198.95
368.30	255.12
368.49	187.24
368.69	259.80
368.89	294.91
369.09	292.57
369.28	227.03
369.48	292.57
369.68	276.18
369.87	355.76
370.07	348.74
370.27	313.63
370.47	346.40
370.66	348.74
370.86	318.31
371.06	372.15
371.25	440.02
371.45	407.25
371.65	320.65
371.84	358.10
372.04	390.87
372.24	428.32
372.44	339.38
372.63	458.74
372.83	395.55
373.03	365.12
373.22	395.55
373.42	437.68
373.62	425.98
373.81	409.59
374.01	395.55
374.21	407.25
374.40	346.40
374.60	393.21
374.79	404.91
374.99	428.32
375.19	433.00
375.38	407.25
375.58	433.00
375.78	421.30
375.97	449.38
376.17	435.34
376.37	496.19
376.56	433.00
376.76	374.49
376.95	442.36
377.15	393.21
377.35	400.23
377.54	437.68
377.74	461.09
377.93	355.76
378.13	442.36
378.33	407.25
378.52	369.80
378.72	486.83
378.91	421.30
379.11	423.64
379.31	381.51
379.50	372.15
379.70	465.77
379.89	390.87
380.09	395.55
380.28	376.83
380.48	411.93
380.68	315.97
380.87	397.89
381.07	395.55
381.26	409.59
381.46	332.36
381.65	367.46
381.85	327.68
382.04	418.96
382.24	393.21
382.43	325.33
382.63	374.49
382.83	365.12
383.02	327.68
383.22	393.21
383.41	416.62
383.61	362.78
383.80	465.77
384.00	433.00
384.19	409.59
384.39	416.62
384.58	393.21
384.78	369.80
384.97	470.45
385.17	449.38
385.36	409.59
385.56	400.23
385.75	409.59
385.95	372.15
386.14	430.66
386.34	425.98
386.53	397.89
386.72	358.10
386.92	416.62
387.11	379.17
387.31	358.10
387.50	461.09
387.70	433.00
387.89	402.57
388.09	388.53
388.28	360.44
388.48	369.80
388.67	365.12
388.86	346.40
389.06	386.19
389.25	425.98
389.45	461.09
389.64	456.40
389.84	376.83
390.03	421.30
390.22	374.49
390.42	369.80
390.61	374.49
390.81	386.19
391.00	388.53
391.19	376.83
391.39	365.12
391.58	379.17
391.78	416.62
391.97	456.40
392.16	468.11
392.36	472.79
392.55	397.89
392.75	390.87
392.94	367.46
393.13	414.27
393.33	421.30
393.52	423.64
393.71	346.40
393.91	407.25
394.10	402.57
394.29	418.96
394.49	409.59
394.68	393.21
394.88	372.15
395.07	468.11
395.26	400.23
395.46	346.40
395.65	421.30
395.84	416.62
396.04	437.68
396.23	477.47
396.42	437.68
396.62	470.45
396.81	407.25
397.00	489.17
397.19	430.66
397.39	442.36
397.58	397.89
397.77	433.00
397.97	409.59
398.16	367.46
398.35	402.57
398.55	418.96
398.74	390.87
398.93	402.57
399.12	407.25
399.32	416.62
399.51	437.68
399.70	400.23
399.90	428.32
400.09	379.17
400.28	409.59
400.47	313.63
400.67	435.34
400.86	456.40
401.05	423.64
401.24	388.53
401.44	395.55
401.63	449.38
401.82	407.25
402.01	407.25
402.21	440.02
402.40	386.19
402.59	360.44
402.78	393.21
402.97	416.62
403.17	353.42
403.36	430.66
403.55	423.64
403.74	414.27
403.93	428.32
404.13	348.74
404.32	376.83
404.51	404.91
404.70	362.78
404.89	397.89
405.09	416.62
405.28	440.02
405.47	418.96
405.66	435.34
405.85	379.17
406.05	407.25
406.24	397.89
406.43	386.19
406.62	390.87
406.81	486.83
407.00	444.70
407.20	430.66
407.39	404.91
407.58	393.21
407.77	433.00
407.96	433.00
408.15	482.15
408.34	454.06
408.54	463.43
408.73	442.36
408.92	348.74
409.11	404.91
409.30	395.55
409.49	416.62
409.68	423.64
409.87	379.17
410.07	433.00
410.26	395.55
410.45	351.08
410.64	395.55
410.83	484.49
411.02	447.04
411.21	482.15
411.40	402.57
411.59	430.66
411.78	404.91
411.98	418.96
412.17	430.66
412.36	376.83
412.55	362.78
412.74	433.00
412.93	449.38
413.12	423.64
413.31	379.17
413.50	456.40
413.69	449.38
413.88	416.62
414.07	407.25
414.26	367.46
414.45	477.47
414.64	388.53
414.83	440.02
415.02	367.46
415.22	383.85
415.41	397.89
415.60	388.53
415.79	433.00
415.98	400.23
416.17	433.00
416.36	454.06
416.55	322.99
416.74	430.66
416.93	358.10
417.12	404.91
417.31	355.76
417.50	435.34
417.69	430.66
417.88	388.53
418.07	393.21
418.26	362.78
418.45	484.49
418.64	411.93
418.83	414.27
419.02	418.96
419.21	428.32
419.39	479.81
419.58	341.72
419.77	390.87
419.96	407.25
420.15	402.57
420.34	461.09
420.53	383.85
420.72	433.00
420.91	332.36
421.10	369.80
421.29	414.27
421.48	454.06
421.67	320.65
421.86	386.19
422.05	355.76
422.24	351.08
422.43	393.21
422.61	322.99
422.80	367.46
422.99	414.27
423.18	461.09
423.37	454.06
423.56	477.47
423.75	386.19
423.94	383.85
424.13	418.96
424.32	402.57
424.50	402.57
424.69	386.19
424.88	430.66
425.07	423.64
425.26	404.91
425.45	428.32
425.64	360.44
425.83	414.27
426.01	449.38
426.20	334.70
426.39	379.17
426.58	383.85
426.77	435.34
426.96	390.87
427.15	456.40
427.33	411.93
427.52	390.87
427.71	423.64
427.90	421.30
428.09	390.87
428.28	395.55
428.46	430.66
428.65	381.51
428.84	409.59
429.03	407.25
429.22	372.15
429.40	416.62
429.59	393.21
429.78	386.19
429.97	418.96
430.16	393.21
430.34	402.57
430.53	362.78
430.72	447.04
430.91	376.83
431.10	468.11
431.28	484.49
431.47	444.70
431.66	339.38
431.85	437.68
432.03	414.27
432.22	442.36
432.41	451.72
432.60	456.40
432.79	411.93
432.97	437.68
433.16	407.25
433.35	395.55
433.54	379.17
433.72	383.85
433.91	409.59
434.10	447.04
434.28	463.43
434.47	376.83
434.66	463.43
434.85	463.43
435.03	430.66
435.22	449.38
435.41	433.00
435.59	386.19
435.78	404.91
435.97	386.19
436.16	449.38
436.34	353.42
436.53	477.47
436.72	444.70
436.90	461.09
437.09	472.79
437.28	400.23
437.46	418.96
437.65	383.85
437.84	442.36
438.02	428.32
438.21	421.30
438.40	414.27
438.58	386.19
438.77	383.85
438.96	372.15
439.14	411.93
439.33	428.32
439.52	458.74
439.70	369.80
439.89	395.55
440.08	456.40
440.26	465.77
440.45	409.59
440.63	374.49
440.82	390.87
441.01	355.76
441.19	390.87
441.38	372.15
441.57	503.22
441.75	402.57
441.94	409.59
442.12	430.66
442.31	397.89
442.50	444.70
442.68	416.62
442.87	348.74
443.05	344.06
443.24	444.70
443.43	402.57
443.61	409.59
443.80	442.36
443.98	390.87
444.17	407.25
444.35	435.34
444.54	386.19
444.73	435.34
444.91	416.62
445.10	421.30
445.28	379.17
445.47	404.91
445.65	442.36
445.84	428.32
446.02	383.85
446.21	325.33
446.39	360.44
446.58	395.55
446.77	414.27
446.95	433.00
447.14	372.15
447.32	402.57
447.51	402.57
447.69	369.80
447.88	421.30
448.06	468.11
448.25	330.02
448.43	362.78
448.62	395.55
448.80	435.34
448.99	442.36
449.17	437.68
449.36	430.66
449.54	428.32
449.73	362.78
449.91	428.32
450.10	395.55
450.28	503.22
450.46	388.53
450.65	458.74
450.83	414.27
451.02	365.12
451.20	414.27
451.39	320.65
451.57	402.57
451.76	388.53
451.94	386.19
452.13	517.26
452.31	475.13
452.49	400.23
452.68	461.09
452.86	416.62
453.05	402.57
453.23	454.06
453.42	374.49
453.60	414.27
453.78	411.93
453.97	397.89
454.15	449.38
454.34	400.23
454.52	409.59
454.70	437.68
454.89	421.30
455.07	447.04
455.26	470.45
455.44	454.06
455.62	404.91
455.81	496.19
455.99	472.79
456.17	409.59
456.36	351.08
456.54	465.77
456.73	402.57
456.91	468.11
457.09	381.51
457.28	404.91
457.46	428.32
457.64	437.68
457.83	440.02
458.01	355.76
458.19	449.38
458.38	393.21
458.56	374.49
458.74	393.21
458.93	458.74
459.11	404.91
459.29	400.23
459.48	346.40
459.66	428.32
459.84	442.36
460.03	486.83
460.21	418.96
460.39	383.85
460.57	451.72
460.76	444.70
460.94	468.11
461.12	386.19
461.31	435.34
461.49	449.38
461.67	416.62
461.85	379.17
462.04	425.98
462.22	477.47
462.40	369.80
462.59	500.87
462.77	416.62
462.95	388.53
463.13	372.15
463.32	400.23
463.50	444.70
463.68	407.25
463.86	362.78
464.05	395.55
464.23	440.02
464.41	400.23
464.59	416.62
464.78	372.15
464.96	414.27
465.14	339.38
465.32	437.68
465.50	411.93
465.69	409.59
465.87	376.83
466.05	458.74
466.23	423.64
466.41	435.34
466.60	411.93
466.78	428.32
466.96	463.43
467.14	484.49
467.32	493.85
467.51	414.27
467.69	447.04
467.87	444.70
468.05	383.85
468.23	533.64
468.41	463.43
468.60	374.49
468.78	395.55
468.96	409.59
469.14	430.66
469.32	416.62
469.50	425.98
469.69	402.57
469.87	358.10
470.05	327.68
470.23	442.36
470.41	407.25
470.59	458.74
470.77	407.25
470.95	379.17
471.14	402.57
471.32	351.08
471.50	383.85
471.68	418.96
471.86	334.70
472.04	369.80
472.22	400.23
472.40	395.55
472.58	407.25
472.77	390.87
472.95	442.36
473.13	486.83
473.31	440.02
473.49	418.96
473.67	416.62
473.85	362.78
474.03	454.06
474.21	411.93
474.39	374.49
474.57	404.91
474.75	379.17
474.93	437.68
475.12	383.85
475.30	421.30
475.48	383.85
475.66	358.10
475.84	341.72
476.02	454.06
476.20	400.23
476.38	440.02
476.56	498.53
476.74	463.43
476.92	397.89
477.10	407.25
477.28	421.30
477.46	355.76
477.64	365.12
477.82	409.59
478.00	404.91
478.18	407.25
478.36	440.02
478.54	418.96
478.72	379.17
478.90	444.70
479.08	421.30
479.26	437.68
479.44	442.36
479.62	442.36
479.80	381.51
479.98	372.15
480.16	397.89
480.34	416.62
480.52	346.40
480.70	386.19
480.88	397.89
481.06	386.19
481.24	451.72
481.41	372.15
481.59	425.98
481.77	461.09
481.95	379.17
482.13	430.66
482.31	414.27
482.49	400.23
482.67	449.38
482.85	416.62
483.03	418.96
483.21	390.87
483.39	404.91
483.57	470.45
483.74	447.04
483.92	379.17
484.10	383.85
484.28	437.68
484.46	479.81
484.64	428.32
484.82	451.72
485.00	416.62
485.18	390.87
485.35	418.96
485.53	393.21
485.71	449.38
485.89	421.30
486.07	386.19
486.25	505.56
486.43	456.40
486.61	388.53
486.78	470.45
486.96	386.19
487.14	358.10
487.32	505.56
487.50	411.93
487.68	425.98
487.85	463.43
488.03	451.72
488.21	337.04
488.39	334.70
488.57	411.93
488.75	383.85
488.92	470.45
489.10	491.51
489.28	472.79
489.46	369.80
489.64	489.17
489.81	409.59
489.99	470.45
490.17	416.62
490.35	479.81
490.53	395.55
490.70	334.70
490.88	461.09
491.06	449.38
491.24	383.85
491.41	433.00
491.59	355.76
491.77	395.55
491.95	447.04
492.13	379.17
492.30	428.32
492.48	454.06
492.66	411.93
492.84	451.72
493.01	400.23
493.19	381.51
493.37	430.66
493.54	421.30
493.72	395.55
493.90	404.91
494.08	404.91
494.25	362.78
494.43	416.62
494.61	468.11
494.79	472.79
494.96	425.98
495.14	458.74
495.32	447.04
495.49	425.98
495.67	381.51
495.85	395.55
496.02	402.57
496.20	475.13
496.38	465.77
496.55	365.12
496.73	465.77
496.91	411.93
497.09	440.02
497.26	362.78
497.44	421.30
497.62	341.72
497.79	423.64
497.97	369.80
498.14	395.55
498.32	411.93
498.50	484.49
498.67	425.98
498.85	447.04
499.03	388.53
499.20	416.62
499.38	421.30
499.56	386.19
499.73	402.57
499.91	414.27
500.08	454.06
500.26	428.32
500.44	421.30
500.61	381.51
500.79	367.46
500.97	404.91
501.14	493.85
501.32	409.59
501.49	449.38
501.67	421.30
501.84	362.78
502.02	383.85
502.20	447.04
502.37	437.68
502.55	430.66
502.72	437.68
502.90	433.00
503.07	458.74
503.25	458.74
503.43	369.80
503.60	435.34
503.78	402.57
503.95	416.62
504.13	447.04
504.30	449.38
504.48	425.98
504.65	393.21
504.83	381.51
505.01	411.93
505.18	489.17
505.36	341.72
505.53	407.25
505.71	362.78
505.88	383.85
506.06	388.53
506.23	383.85
506.41	362.78
506.58	358.10
506.76	386.19
506.93	393.21
507.11	472.79
507.28	383.85
507.46	414.27
507.63	437.68
507.81	386.19
507.98	458.74
508.16	430.66
508.33	425.98
508.50	451.72
508.68	425.98
508.85	447.04
509.03	374.49
509.20	456.40
509.38	409.59
509.55	372.15
509.73	428.32
509.90	360.44
510.08	388.53
510.25	435.34
510.42	374.49
510.60	425.98
510.77	397.89
510.95	402.57
511.12	458.74
511.30	418.96
511.47	374.49
511.64	451.72
511.82	440.02
511.99	404.91
512.17	372.15
512.34	404.91
512.51	353.42
512.69	379.17
512.86	418.96
513.04	449.38
513.21	411.93
513.38	414.27
513.56	381.51
513.73	362.78
513.90	372.15
514.08	369.80
514.25	477.47
514.43	425.98
514.60	334.70
514.77	435.34
514.95	430.66
515.12	411.93
515.29	409.59
515.47	381.51
515.64	444.70
515.81	421.30
515.99	411.93
516.16	411.93
516.33	433.00
516.51	423.64
516.68	383.85
516.85	365.12
517.03	482.15
517.20	416.62
517.37	360.44
517.54	482.15
517.72	362.78
517.89	386.19
518.06	362.78
518.24	484.49
518.41	465.77
518.58	489.17
518.75	402.57
518.93	425.98
519.10	383.85
519.27	449.38
519.45	416.62
519.62	454.06
519.79	461.09
519.96	449.38
520.14	390.87
520.31	423.64
520.48	400.23
520.65	458.74
520.83	388.53
521.00	451.72
521.17	425.98
521.34	447.04
521.52	395.55
521.69	376.83
521.86	421.30
522.03	468.11
522.20	435.34
522.38	470.45
522.55	372.15
522.72	360.44
522.89	367.46
523.07	425.98
523.24	376.83
523.41	456.40
523.58	425.98
523.75	477.47
523.92	442.36
524.10	486.83
524.27	411.93
524.44	414.27
524.61	479.81
524.78	367.46
524.96	358.10
525.13	442.36
525.30	423.64
525.47	423.64
525.64	411.93
525.81	397.89
525.98	374.49
526.16	404.91
526.33	402.57
526.50	362.78
526.67	425.98
526.84	465.77
527.01	346.40
527.18	430.66
527.36	451.72
527.53	484.49
527.70	402.57
527.87	440.02
528.04	456.40
528.21	400.23
528.38	428.32
528.55	475.13
528.72	472.79
528.89	397.89
529.07	386.19
529.24	440.02
529.41	395.55
529.58	435.34
529.75	440.02
529.92	428.32
530.09	472.79
530.26	390.87
530.43	400.23
530.60	381.51
530.77	360.44
530.94	484.49
531.11	421.30
531.28	461.09
531.46	407.25
531.63	400.23
531.80	428.32
531.97	409.59
532.14	437.68
532.31	451.72
532.48	388.53
532.65	395.55
532.82	461.09
532.99	428.32
533.16	402.57
533.33	425.98
533.50	451.72
533.67	477.47
533.84	397.89
534.01	381.51
534.18	435.34
534.35	437.68
534.52	442.36
534.69	416.62
534.86	454.06
535.03	421.30
535.20	447.04
535.37	416.62
535.54	440.02
535.71	435.34
535.88	416.62
536.05	409.59
536.22	437.68
536.38	381.51
536.55	379.17
536.72	355.76
536.89	409.59
537.06	442.36
537.23	465.77
537.40	425.98
537.57	440.02
537.74	458.74
537.91	465.77
538.08	404.91
538.25	428.32
538.42	339.38
538.59	402.57
538.75	440.02
538.92	416.62
539.09	458.74
539.26	383.85
539.43	407.25
539.60	411.93
539.77	402.57
539.94	379.17
540.11	433.00
540.28	449.38
540.44	407.25
540.61	433.00
540.78	411.93
540.95	362.78
541.12	447.04
541.29	430.66
541.46	470.45
541.62	451.72
541.79	334.70
541.96	404.91
542.13	365.12
542.30	372.15
542.47	489.17
542.63	442.36
542.80	433.00
542.97	472.79
543.14	416.62
543.31	430.66
543.48	390.87
543.64	397.89
543.81	416.62
543.98	358.10
544.15	444.70
544.32	430.66
544.48	447.04
544.65	402.57
544.82	440.02
544.99	351.08
545.16	383.85
545.32	360.44
545.49	458.74
545.66	421.30
545.83	425.98
546.00	374.49
546.16	388.53
546.33	407.25
546.50	442.36
546.67	414.27
546.83	430.66
547.00	437.68
547.17	379.17
547.34	379.17
547.50	390.87
547.67	402.57
547.84	379.17
548.00	407.25
548.17	388.53
548.34	437.68
548.51	421.30
548.67	381.51
548.84	433.00
549.01	477.47
549.18	447.04
549.34	437.68
549.51	428.32
549.68	447.04
549.84	463.43
550.01	414.27
550.18	528.96
550.34	430.66
550.51	512.58
550.68	524.28
550.84	440.02
551.01	400.23
551.18	482.15
551.34	421.30
551.51	437.68
551.68	449.38
551.84	468.11
552.01	379.17
552.18	351.08
552.34	381.51
552.51	409.59
552.68	430.66
552.84	470.45
553.01	388.53
553.18	477.47
553.34	470.45
553.51	425.98
553.67	479.81
553.84	447.04
554.01	447.04
554.17	374.49
554.34	442.36
554.51	435.34
554.67	468.11
554.84	430.66
555.00	425.98
555.17	395.55
555.33	404.91
555.50	435.34
555.67	440.02
555.83	374.49
556.00	379.17
556.16	528.96
556.33	465.77
556.50	395.55
556.66	416.62
556.83	468.11
556.99	416.62
557.16	430.66
557.32	360.44
557.49	379.17
557.65	383.85
557.82	341.72
557.98	404.91
558.15	351.08
558.32	465.77
558.48	486.83
558.65	454.06
558.81	486.83
558.98	386.19
559.14	451.72
559.31	400.23
559.47	430.66
559.64	402.57
559.80	395.55
559.97	397.89
560.13	456.40
560.30	433.00
560.46	320.65
560.63	435.34
560.79	395.55
560.96	449.38
561.12	358.10
561.29	411.93
561.45	421.30
561.61	472.79
561.78	526.62
561.94	411.93
562.11	482.15
562.27	418.96
562.44	397.89
562.60	416.62
562.77	430.66
562.93	430.66
563.10	395.55
563.26	440.02
563.42	479.81
563.59	409.59
563.75	414.27
563.92	463.43
564.08	402.57
564.24	531.30
564.41	428.32
564.57	468.11
564.74	400.23
564.90	423.64
565.07	367.46
565.23	390.87
565.39	360.44
565.56	402.57
565.72	395.55
565.88	425.98
566.05	365.12
566.21	388.53
566.38	379.17
566.54	379.17
566.70	383.85
566.87	428.32
567.03	383.85
567.19	390.87
567.36	430.66
567.52	465.77
567.68	383.85
567.85	416.62
568.01	416.62
568.17	404.91
568.34	318.31
568.50	425.98
568.66	362.78
568.83	463.43
568.99	416.62
569.15	402.57
569.32	402.57
569.48	433.00
569.64	430.66
569.81	397.89
569.97	475.13
570.13	362.78
570.30	482.15
570.46	451.72
570.62	416.62
570.78	409.59
570.95	376.83
571.11	461.09
571.27	447.04
571.43	430.66
571.60	383.85
571.76	428.32
571.92	388.53
572.09	433.00
572.25	416.62
572.41	418.96
572.57	360.44
572.74	449.38
572.90	404.91
573.06	507.90
573.22	437.68
573.38	440.02
573.55	472.79
573.71	435.34
573.87	433.00
574.03	407.25
574.20	407.25
574.36	428.32
574.52	465.77
574.68	397.89
574.84	414.27
575.01	456.40
575.17	440.02
575.33	407.25
575.49	400.23
575.65	428.32
575.82	400.23
575.98	404.91
576.14	397.89
576.30	435.34
576.46	456.40
576.62	444.70
576.79	390.87
576.95	468.11
577.11	400.23
577.27	404.91
577.43	339.38
577.59	416.62
577.75	477.47
577.92	360.44
578.08	407.25
578.24	374.49
578.40	486.83
578.56	470.45
578.72	369.80
578.88	463.43
579.04	463.43
579.21	365.12
579.37	454.06
579.53	402.57
579.69	510.24
579.85	397.89
580.01	437.68
580.17	425.98
580.33	433.00
580.49	397.89
580.65	442.36
580.82	425.98
580.98	397.89
581.14	360.44
581.30	440.02
581.46	414.27
581.62	437.68
581.78	454.06
581.94	451.72
582.10	381.51
582.26	383.85
582.42	365.12
582.58	390.87
582.74	407.25
582.90	414.27
583.06	454.06
583.22	428.32
583.38	423.64
583.54	458.74
583.70	411.93
583.86	447.04
584.02	404.91
584.18	425.98
584.34	388.53
584.50	428.32
584.66	437.68
584.82	393.21
584.98	369.80
585.14	458.74
585.30	390.87
585.46	390.87
585.62	496.19
585.78	444.70
585.94	390.87
586.10	416.62
586.26	451.72
586.42	456.40
586.58	360.44
586.74	444.70
586.90	379.17
587.06	475.13
587.22	365.12
587.38	374.49
587.54	447.04
587.70	428.32
587.86	393.21
588.02	425.98
588.18	442.36
588.34	496.19
588.49	435.34
588.65	440.02
588.81	414.27
588.97	381.51
589.13	437.68
589.29	404.91
589.45	454.06
589.61	428.32
589.77	454.06
589.93	430.66
590.08	433.00
590.24	365.12
590.40	367.46
590.56	409.59
590.72	428.32
590.88	407.25
591.04	390.87
591.20	355.76
591.35	365.12
591.51	383.85
591.67	425.98
591.83	421.30
591.99	430.66
592.15	402.57
592.31	386.19
592.46	388.53
592.62	423.64
592.78	418.96
592.94	465.77
593.10	330.02
593.26	411.93
593.41	458.74
593.57	433.00
593.73	425.98
593.89	433.00
594.05	374.49
594.20	440.02
594.36	433.00
594.52	355.76
594.68	404.91
594.84	421.30
594.99	433.00
595.15	519.60
595.31	437.68
595.47	430.66
595.62	360.44
595.78	404.91
595.94	348.74
596.10	470.45
596.25	411.93
596.41	395.55
596.57	440.02
596.73	433.00
596.88	461.09
597.04	435.34
597.20	397.89
597.36	526.62
597.51	433.00
597.67	440.02
597.83	411.93
597.99	454.06
598.14	440.02
598.30	477.47
598.46	353.42
598.61	440.02
598.77	395.55
598.93	451.72
599.09	409.59
599.24	428.32
599.40	444.70
599.56	383.85
599.71	404.91
599.87	456.40
600.03	430.66
600.18	517.26
600.34	440.02
600.50	367.46
600.65	433.00
600.81	404.91
600.97	463.43
601.12	430.66
601.28	491.51
601.44	421.30
601.59	360.44
601.75	386.19
601.91	482.15
602.06	423.64
602.22	449.38
602.37	503.22
602.53	381.51
602.69	351.08
602.84	507.90
603.00	395.55
603.16	475.13
603.31	421.30
603.47	463.43
603.62	374.49
603.78	428.32
603.94	433.00
604.09	414.27
604.25	418.96
604.40	430.66
604.56	447.04
604.71	381.51
604.87	461.09
605.03	421.30
605.18	442.36
605.34	498.53
605.49	397.89
605.65	388.53
605.80	393.21
605.96	437.68
606.12	451.72
606.27	407.25
606.43	414.27
606.58	472.79
606.74	449.38
606.89	404.91
607.05	470.45
607.20	468.11
607.36	407.25
607.51	418.96
607.67	416.62
607.82	404.91
607.98	493.85
608.13	409.59
608.29	402.57
608.44	428.32
608.60	444.70
608.75	423.64
608.91	428.32
609.06	402.57
609.22	409.59
609.37	416.62
609.53	486.83
609.68	355.76
609.84	325.33
609.99	414.27
610.15	456.40
