SpectraSuite Data File
++++++++++++++++++++++++++++++++++++
Date: Fri Oct 25 12:11:34 EDT 2013
User: price-jones
Dark Spectrum Present: No
Reference Spectrum Present: No
Number of Sampled Component Spectra: 1
Spectrometers: USB2+H05261
Integration Time (usec): 100000 (USB2+H05261)
Spectra Averaged: 1 (USB2+H05261)
Boxcar Smoothing: 0 (USB2+H05261)
Correct for Electrical Dark: No (USB2+H05261)
Strobe/Lamp Enabled: No (USB2+H05261)
Correct for Detector Non-linearity: No (USB2+H05261)
Correct for Stray Light: No (USB2+H05261)
Number of Pixels in Processed Spectrum: 2048
>>>>>Begin Processed Spectral Data<<<<<
365.73	292.57
365.92	292.57
366.12	292.57
366.32	299.59
366.52	273.84
366.72	229.37
366.91	245.76
367.11	269.16
367.31	290.23
367.51	252.78
367.70	163.84
367.90	243.42
368.10	248.10
368.30	203.63
368.49	210.65
368.69	306.61
368.89	252.78
369.09	259.80
369.28	241.08
369.48	217.67
369.68	320.65
369.87	278.52
370.07	411.93
370.27	341.72
370.47	292.57
370.66	383.85
370.86	339.38
371.06	348.74
371.25	400.23
371.45	294.91
371.65	383.85
371.84	372.15
372.04	411.93
372.24	421.30
372.44	454.06
372.63	418.96
372.83	409.59
373.03	404.91
373.22	337.04
373.42	344.06
373.62	411.93
373.81	416.62
374.01	411.93
374.21	411.93
374.40	395.55
374.60	409.59
374.79	404.91
374.99	330.02
375.19	425.98
375.38	430.66
375.58	433.00
375.78	454.06
375.97	325.33
376.17	449.38
376.37	440.02
376.56	414.27
376.76	433.00
376.95	388.53
377.15	442.36
377.35	435.34
377.54	470.45
377.74	486.83
377.93	456.40
378.13	402.57
378.33	402.57
378.52	465.77
378.72	430.66
378.91	447.04
379.11	402.57
379.31	425.98
379.50	358.10
379.70	376.83
379.89	374.49
380.09	409.59
380.28	358.10
380.48	414.27
380.68	386.19
380.87	430.66
381.07	456.40
381.26	381.51
381.46	421.30
381.65	416.62
381.85	435.34
382.04	367.46
382.24	458.74
382.43	313.63
382.63	400.23
382.83	400.23
383.02	425.98
383.22	423.64
383.41	447.04
383.61	388.53
383.80	425.98
384.00	416.62
384.19	379.17
384.39	433.00
384.58	407.25
384.78	402.57
384.97	367.46
385.17	383.85
385.36	397.89
385.56	390.87
385.75	400.23
385.95	339.38
386.14	390.87
386.34	393.21
386.53	386.19
386.72	395.55
386.92	444.70
387.11	400.23
387.31	346.40
387.50	341.72
387.70	395.55
387.89	397.89
388.09	414.27
388.28	411.93
388.48	472.79
388.67	435.34
388.86	358.10
389.06	360.44
389.25	386.19
389.45	411.93
389.64	435.34
389.84	414.27
390.03	411.93
390.22	395.55
390.42	308.95
390.61	425.98
390.81	397.89
391.00	374.49
391.19	369.80
391.39	423.64
391.58	465.77
391.78	418.96
391.97	411.93
392.16	414.27
392.36	440.02
392.55	397.89
392.75	416.62
392.94	411.93
393.13	402.57
393.33	395.55
393.52	393.21
393.71	383.85
393.91	334.70
394.10	402.57
394.29	479.81
394.49	395.55
394.68	421.30
394.88	407.25
395.07	475.13
395.26	320.65
395.46	362.78
395.65	414.27
395.84	395.55
396.04	500.87
396.23	397.89
396.42	402.57
396.62	416.62
396.81	367.46
397.00	449.38
397.19	390.87
397.39	388.53
397.58	421.30
397.77	381.51
397.97	418.96
398.16	365.12
398.35	386.19
398.55	341.72
398.74	365.12
398.93	416.62
399.12	395.55
399.32	428.32
399.51	372.15
399.70	411.93
399.90	433.00
400.09	395.55
400.28	404.91
400.47	346.40
400.67	442.36
400.86	374.49
401.05	374.49
401.24	372.15
401.44	451.72
401.63	465.77
401.82	447.04
402.01	447.04
402.21	388.53
402.40	458.74
402.59	425.98
402.78	437.68
402.97	383.85
403.17	355.76
403.36	395.55
403.55	369.80
403.74	433.00
403.93	400.23
404.13	477.47
404.32	423.64
404.51	421.30
404.70	407.25
404.89	416.62
405.09	437.68
405.28	390.87
405.47	301.93
405.66	463.43
405.85	414.27
406.05	414.27
406.24	390.87
406.43	423.64
406.62	449.38
406.81	442.36
407.00	454.06
407.20	351.08
407.39	416.62
407.58	322.99
407.77	402.57
407.96	444.70
408.15	435.34
408.34	367.46
408.54	435.34
408.73	395.55
408.92	409.59
409.11	393.21
409.30	428.32
409.49	365.12
409.68	411.93
409.87	430.66
410.07	404.91
410.26	416.62
410.45	411.93
410.64	400.23
410.83	407.25
411.02	341.72
411.21	393.21
411.40	404.91
411.59	416.62
411.78	360.44
411.98	388.53
412.17	397.89
412.36	341.72
412.55	285.55
412.74	414.27
412.93	409.59
413.12	416.62
413.31	386.19
413.50	388.53
413.69	430.66
413.88	463.43
414.07	449.38
414.26	388.53
414.45	407.25
414.64	358.10
414.83	465.77
415.02	407.25
415.22	433.00
415.41	489.17
415.60	386.19
415.79	353.42
415.98	369.80
416.17	374.49
416.36	383.85
416.55	437.68
416.74	381.51
416.93	435.34
417.12	376.83
417.31	353.42
417.50	407.25
417.69	379.17
417.88	353.42
418.07	337.04
418.26	444.70
418.45	365.12
418.64	442.36
418.83	461.09
419.02	386.19
419.21	435.34
419.39	409.59
419.58	444.70
419.77	341.72
419.96	390.87
420.15	374.49
420.34	407.25
420.53	472.79
420.72	409.59
420.91	437.68
421.10	365.12
421.29	369.80
421.48	461.09
421.67	421.30
421.86	421.30
422.05	437.68
422.24	397.89
422.43	421.30
422.61	383.85
422.80	402.57
422.99	395.55
423.18	397.89
423.37	402.57
423.56	425.98
423.75	454.06
423.94	388.53
424.13	386.19
424.32	414.27
424.50	458.74
424.69	374.49
424.88	433.00
425.07	447.04
425.26	465.77
425.45	372.15
425.64	365.12
425.83	332.36
426.01	444.70
426.20	423.64
426.39	374.49
426.58	376.83
426.77	454.06
426.96	425.98
427.15	437.68
427.33	456.40
427.52	388.53
427.71	355.76
427.90	383.85
428.09	351.08
428.28	397.89
428.46	402.57
428.65	461.09
428.84	407.25
429.03	468.11
429.22	477.47
429.40	524.28
429.59	402.57
429.78	472.79
429.97	402.57
430.16	379.17
430.34	383.85
430.53	383.85
430.72	435.34
430.91	463.43
431.10	381.51
431.28	442.36
431.47	484.49
431.66	402.57
431.85	386.19
432.03	358.10
432.22	393.21
432.41	386.19
432.60	404.91
432.79	402.57
432.97	463.43
433.16	395.55
433.35	418.96
433.54	416.62
433.72	418.96
433.91	468.11
434.10	442.36
434.28	430.66
434.47	386.19
434.66	444.70
434.85	393.21
435.03	379.17
435.22	360.44
435.41	383.85
435.59	379.17
435.78	388.53
435.97	402.57
436.16	421.30
436.34	416.62
436.53	365.12
436.72	447.04
436.90	461.09
437.09	435.34
437.28	418.96
437.46	430.66
437.65	411.93
437.84	503.22
438.02	482.15
438.21	395.55
438.40	409.59
438.58	423.64
438.77	421.30
438.96	414.27
439.14	421.30
439.33	395.55
439.52	414.27
439.70	383.85
439.89	414.27
440.08	416.62
440.26	493.85
440.45	470.45
440.63	433.00
440.82	400.23
441.01	407.25
441.19	442.36
441.38	395.55
441.57	463.43
441.75	397.89
441.94	449.38
442.12	465.77
442.31	451.72
442.50	409.59
442.68	437.68
442.87	414.27
443.05	379.17
443.24	379.17
443.43	449.38
443.61	393.21
443.80	447.04
443.98	407.25
444.17	353.42
444.35	390.87
444.54	362.78
444.73	468.11
444.91	475.13
445.10	346.40
445.28	418.96
445.47	376.83
445.65	421.30
445.84	386.19
446.02	395.55
446.21	390.87
446.39	404.91
446.58	435.34
446.77	386.19
446.95	477.47
447.14	418.96
447.32	407.25
447.51	339.38
447.69	489.17
447.88	486.83
448.06	402.57
448.25	409.59
448.43	306.61
448.62	402.57
448.80	400.23
448.99	454.06
449.17	505.56
449.36	367.46
449.54	447.04
449.73	442.36
449.91	400.23
450.10	414.27
450.28	435.34
450.46	449.38
450.65	407.25
450.83	491.51
451.02	409.59
451.20	435.34
451.39	386.19
451.57	444.70
451.76	425.98
451.94	411.93
452.13	498.53
452.31	444.70
452.49	479.81
452.68	315.97
452.86	444.70
453.05	397.89
453.23	400.23
453.42	409.59
453.60	411.93
453.78	409.59
453.97	379.17
454.15	393.21
454.34	418.96
454.52	409.59
454.70	409.59
454.89	409.59
455.07	372.15
455.26	407.25
455.44	414.27
455.62	362.78
455.81	435.34
455.99	348.74
456.17	500.87
456.36	489.17
456.54	402.57
456.73	388.53
456.91	402.57
457.09	416.62
457.28	353.42
457.46	423.64
457.64	475.13
457.83	418.96
458.01	444.70
458.19	444.70
458.38	341.72
458.56	404.91
458.74	386.19
458.93	362.78
459.11	393.21
459.29	435.34
459.48	447.04
459.66	470.45
459.84	358.10
460.03	491.51
460.21	402.57
460.39	435.34
460.57	479.81
460.76	402.57
460.94	395.55
461.12	498.53
461.31	440.02
461.49	437.68
461.67	402.57
461.85	458.74
462.04	390.87
462.22	772.38
462.40	393.21
462.59	404.91
462.77	372.15
462.95	454.06
463.13	341.72
463.32	376.83
463.50	369.80
463.68	402.57
463.86	421.30
464.05	454.06
464.23	409.59
464.41	425.98
464.59	346.40
464.78	423.64
464.96	381.51
465.14	386.19
465.32	430.66
465.50	381.51
465.69	423.64
465.87	369.80
466.05	461.09
466.23	451.72
466.41	449.38
466.60	470.45
466.78	409.59
466.96	482.15
467.14	414.27
467.32	397.89
467.51	411.93
467.69	477.47
467.87	407.25
468.05	416.62
468.23	477.47
468.41	383.85
468.60	447.04
468.78	447.04
468.96	456.40
469.14	411.93
469.32	404.91
469.50	458.74
469.69	400.23
469.87	409.59
470.05	461.09
470.23	428.32
470.41	411.93
470.59	411.93
470.77	454.06
470.95	414.27
471.14	393.21
471.32	421.30
471.50	491.51
471.68	437.68
471.86	479.81
472.04	444.70
472.22	402.57
472.40	461.09
472.58	409.59
472.77	320.65
472.95	388.53
473.13	456.40
473.31	395.55
473.49	383.85
473.67	428.32
473.85	407.25
474.03	444.70
474.21	442.36
474.39	360.44
474.57	416.62
474.75	451.72
474.93	472.79
475.12	372.15
475.30	407.25
475.48	421.30
475.66	386.19
475.84	433.00
476.02	451.72
476.20	421.30
476.38	475.13
476.56	379.17
476.74	369.80
476.92	407.25
477.10	404.91
477.28	390.87
477.46	390.87
477.64	376.83
477.82	411.93
478.00	379.17
478.18	444.70
478.36	351.08
478.54	383.85
478.72	416.62
478.90	442.36
479.08	362.78
479.26	400.23
479.44	465.77
479.62	369.80
479.80	416.62
479.98	465.77
480.16	430.66
480.34	430.66
480.52	341.72
480.70	360.44
480.88	407.25
481.06	428.32
481.24	395.55
481.41	463.43
481.59	351.08
481.77	428.32
481.95	339.38
482.13	475.13
482.31	433.00
482.49	414.27
482.67	388.53
482.85	344.06
483.03	367.46
483.21	447.04
483.39	386.19
483.57	507.90
483.74	465.77
483.92	468.11
484.10	388.53
484.28	449.38
484.46	500.87
484.64	362.78
484.82	463.43
485.00	365.12
485.18	449.38
485.35	456.40
485.53	411.93
485.71	500.87
485.89	397.89
486.07	416.62
486.25	461.09
486.43	409.59
486.61	503.22
486.78	468.11
486.96	369.80
487.14	440.02
487.32	484.49
487.50	409.59
487.68	386.19
487.85	386.19
488.03	423.64
488.21	475.13
488.39	353.42
488.57	421.30
488.75	425.98
488.92	472.79
489.10	390.87
489.28	514.92
489.46	442.36
489.64	451.72
489.81	402.57
489.99	383.85
490.17	407.25
490.35	475.13
490.53	418.96
490.70	454.06
490.88	421.30
491.06	407.25
491.24	435.34
491.41	414.27
491.59	423.64
491.77	491.51
491.95	416.62
492.13	369.80
492.30	477.47
492.48	400.23
492.66	407.25
492.84	381.51
493.01	409.59
493.19	348.74
493.37	402.57
493.54	505.56
493.72	376.83
493.90	411.93
494.08	414.27
494.25	430.66
494.43	393.21
494.61	386.19
494.79	393.21
494.96	390.87
495.14	418.96
495.32	404.91
495.49	449.38
495.67	318.31
495.85	435.34
496.02	404.91
496.20	465.77
496.38	437.68
496.55	362.78
496.73	444.70
496.91	395.55
497.09	433.00
497.26	435.34
497.44	400.23
497.62	433.00
497.79	463.43
497.97	430.66
498.14	416.62
498.32	442.36
498.50	383.85
498.67	463.43
498.85	421.30
499.03	374.49
499.20	334.70
499.38	383.85
499.56	472.79
499.73	430.66
499.91	386.19
500.08	372.15
500.26	421.30
500.44	376.83
500.61	475.13
500.79	468.11
500.97	444.70
501.14	416.62
501.32	397.89
501.49	484.49
501.67	407.25
501.84	454.06
502.02	411.93
502.20	411.93
502.37	475.13
502.55	493.85
502.72	458.74
502.90	421.30
503.07	472.79
503.25	404.91
503.43	379.17
503.60	409.59
503.78	428.32
503.95	381.51
504.13	386.19
504.30	430.66
504.48	440.02
504.65	435.34
504.83	456.40
505.01	353.42
505.18	390.87
505.36	388.53
505.53	402.57
505.71	442.36
505.88	411.93
506.06	365.12
506.23	358.10
506.41	407.25
506.58	416.62
506.76	383.85
506.93	407.25
507.11	507.90
507.28	376.83
507.46	397.89
507.63	386.19
507.81	435.34
507.98	447.04
508.16	454.06
508.33	381.51
508.50	390.87
508.68	489.17
508.85	454.06
509.03	404.91
509.20	430.66
509.38	397.89
509.55	479.81
509.73	425.98
509.90	416.62
510.08	414.27
510.25	421.30
510.42	402.57
510.60	381.51
510.77	468.11
510.95	409.59
511.12	451.72
511.30	397.89
511.47	444.70
511.64	414.27
511.82	430.66
511.99	315.97
512.17	388.53
512.34	365.12
512.51	397.89
512.69	430.66
512.86	433.00
513.04	428.32
513.21	414.27
513.38	411.93
513.56	379.17
513.73	451.72
513.90	444.70
514.08	475.13
514.25	454.06
514.43	451.72
514.60	332.36
514.77	451.72
514.95	355.76
515.12	390.87
515.29	390.87
515.47	404.91
515.64	383.85
515.81	379.17
515.99	428.32
516.16	456.40
516.33	463.43
516.51	414.27
516.68	374.49
516.85	395.55
517.03	479.81
517.20	489.17
517.37	330.02
517.54	433.00
517.72	395.55
517.89	383.85
518.06	418.96
518.24	461.09
518.41	418.96
518.58	418.96
518.75	390.87
518.93	402.57
519.10	365.12
519.27	383.85
519.45	437.68
519.62	421.30
519.79	470.45
519.96	395.55
520.14	437.68
520.31	390.87
520.48	491.51
520.65	430.66
520.83	409.59
521.00	486.83
521.17	454.06
521.34	454.06
521.52	388.53
521.69	440.02
521.86	433.00
522.03	430.66
522.20	442.36
522.38	397.89
522.55	341.72
522.72	475.13
522.89	383.85
523.07	449.38
523.24	496.19
523.41	388.53
523.58	463.43
523.75	393.21
523.92	423.64
524.10	421.30
524.27	383.85
524.44	374.49
524.61	514.92
524.78	468.11
524.96	416.62
525.13	402.57
525.30	402.57
525.47	456.40
525.64	400.23
525.81	404.91
525.98	376.83
526.16	379.17
526.33	381.51
526.50	402.57
526.67	451.72
526.84	421.30
527.01	430.66
527.18	393.21
527.36	416.62
527.53	435.34
527.70	407.25
527.87	442.36
528.04	461.09
528.21	379.17
528.38	421.30
528.55	447.04
528.72	388.53
528.89	425.98
529.07	428.32
529.24	393.21
529.41	447.04
529.58	365.12
529.75	346.40
529.92	461.09
530.09	381.51
530.26	442.36
530.43	355.76
530.60	440.02
530.77	411.93
530.94	456.40
531.11	465.77
531.28	390.87
531.46	407.25
531.63	428.32
531.80	341.72
531.97	430.66
532.14	421.30
532.31	428.32
532.48	472.79
532.65	430.66
532.82	461.09
532.99	407.25
533.16	447.04
533.33	388.53
533.50	456.40
533.67	346.40
533.84	388.53
534.01	423.64
534.18	423.64
534.35	425.98
534.52	435.34
534.69	428.32
534.86	409.59
535.03	510.24
535.20	360.44
535.37	374.49
535.54	437.68
535.71	447.04
535.88	472.79
536.05	456.40
536.22	425.98
536.38	418.96
536.55	409.59
536.72	376.83
536.89	400.23
537.06	470.45
537.23	437.68
537.40	402.57
537.57	395.55
537.74	430.66
537.91	421.30
538.08	374.49
538.25	393.21
538.42	411.93
538.59	425.98
538.75	383.85
538.92	381.51
539.09	397.89
539.26	458.74
539.43	484.49
539.60	400.23
539.77	425.98
539.94	442.36
540.11	397.89
540.28	491.51
540.44	376.83
540.61	388.53
540.78	433.00
540.95	470.45
541.12	486.83
541.29	407.25
541.46	386.19
541.62	374.49
541.79	393.21
541.96	449.38
542.13	372.15
542.30	362.78
542.47	355.76
542.63	393.21
542.80	397.89
542.97	376.83
543.14	425.98
543.31	367.46
543.48	402.57
543.64	376.83
543.81	435.34
543.98	346.40
544.15	416.62
544.32	409.59
544.48	463.43
544.65	390.87
544.82	418.96
544.99	397.89
545.16	461.09
545.32	414.27
545.49	402.57
545.66	353.42
545.83	379.17
546.00	414.27
546.16	421.30
546.33	442.36
546.50	442.36
546.67	449.38
546.83	468.11
547.00	400.23
547.17	334.70
547.34	397.89
547.50	383.85
547.67	433.00
547.84	421.30
548.00	468.11
548.17	454.06
548.34	418.96
548.51	402.57
548.67	414.27
548.84	454.06
549.01	447.04
549.18	409.59
549.34	400.23
549.51	447.04
549.68	400.23
549.84	404.91
550.01	444.70
550.18	414.27
550.34	507.90
550.51	395.55
550.68	444.70
550.84	461.09
551.01	411.93
551.18	456.40
551.34	425.98
551.51	435.34
551.68	418.96
551.84	505.56
552.01	388.53
552.18	393.21
552.34	376.83
552.51	414.27
552.68	444.70
552.84	386.19
553.01	479.81
553.18	395.55
553.34	365.12
553.51	379.17
553.67	404.91
553.84	423.64
554.01	397.89
554.17	425.98
554.34	365.12
554.51	421.30
554.67	440.02
554.84	397.89
555.00	379.17
555.17	367.46
555.33	430.66
555.50	465.77
555.67	463.43
555.83	411.93
556.00	393.21
556.16	552.37
556.33	496.19
556.50	418.96
556.66	411.93
556.83	423.64
556.99	374.49
557.16	428.32
557.32	430.66
557.49	346.40
557.65	407.25
557.82	461.09
557.98	374.49
558.15	339.38
558.32	315.97
558.48	461.09
558.65	461.09
558.81	472.79
558.98	376.83
559.14	400.23
559.31	484.49
559.47	447.04
559.64	416.62
559.80	433.00
559.97	465.77
560.13	407.25
560.30	393.21
560.46	435.34
560.63	348.74
560.79	393.21
560.96	465.77
561.12	440.02
561.29	500.87
561.45	442.36
561.61	400.23
561.78	528.96
561.94	425.98
562.11	397.89
562.27	358.10
562.44	458.74
562.60	409.59
562.77	430.66
562.93	486.83
563.10	402.57
563.26	374.49
563.42	383.85
563.59	475.13
563.75	393.21
563.92	402.57
564.08	449.38
564.24	418.96
564.41	465.77
564.57	395.55
564.74	383.85
564.90	397.89
565.07	496.19
565.23	376.83
565.39	388.53
565.56	397.89
565.72	454.06
565.88	449.38
566.05	461.09
566.21	416.62
566.38	479.81
566.54	451.72
566.70	402.57
566.87	393.21
567.03	348.74
567.19	402.57
567.36	400.23
567.52	348.74
567.68	425.98
567.85	442.36
568.01	400.23
568.17	435.34
568.34	428.32
568.50	414.27
568.66	397.89
568.83	463.43
568.99	458.74
569.15	475.13
569.32	428.32
569.48	418.96
569.64	393.21
569.81	425.98
569.97	421.30
570.13	393.21
570.30	428.32
570.46	418.96
570.62	360.44
570.78	435.34
570.95	411.93
571.11	437.68
571.27	430.66
571.43	479.81
571.60	477.47
571.76	376.83
571.92	402.57
572.09	397.89
572.25	376.83
572.41	430.66
572.57	510.24
572.74	383.85
572.90	461.09
573.06	416.62
573.22	484.49
573.38	395.55
573.55	414.27
573.71	416.62
573.87	367.46
574.03	416.62
574.20	442.36
574.36	397.89
574.52	447.04
574.68	369.80
574.84	383.85
575.01	437.68
575.17	465.77
575.33	461.09
575.49	409.59
575.65	407.25
575.82	367.46
575.98	421.30
576.14	482.15
576.30	451.72
576.46	423.64
576.62	400.23
576.79	435.34
576.95	411.93
577.11	407.25
577.27	437.68
577.43	397.89
577.59	463.43
577.75	402.57
577.92	425.98
578.08	393.21
578.24	381.51
578.40	407.25
578.56	503.22
578.72	470.45
578.88	421.30
579.04	423.64
579.21	390.87
579.37	383.85
579.53	437.68
579.69	428.32
579.85	404.91
580.01	425.98
580.17	404.91
580.33	433.00
580.49	390.87
580.65	400.23
580.82	393.21
580.98	386.19
581.14	489.17
581.30	482.15
581.46	337.04
581.62	442.36
581.78	421.30
581.94	372.15
582.10	435.34
582.26	425.98
582.42	430.66
582.58	353.42
582.74	402.57
582.90	486.83
583.06	425.98
583.22	376.83
583.38	355.76
583.54	477.47
583.70	409.59
583.86	351.08
584.02	351.08
584.18	379.17
584.34	414.27
584.50	435.34
584.66	367.46
584.82	461.09
584.98	386.19
585.14	458.74
585.30	477.47
585.46	449.38
585.62	369.80
585.78	318.31
585.94	388.53
586.10	383.85
586.26	458.74
586.42	418.96
586.58	423.64
586.74	451.72
586.90	348.74
587.06	421.30
587.22	437.68
587.38	376.83
587.54	418.96
587.70	475.13
587.86	407.25
588.02	358.10
588.18	400.23
588.34	484.49
588.49	416.62
588.65	393.21
588.81	411.93
588.97	355.76
589.13	435.34
589.29	484.49
589.45	500.87
589.61	521.94
589.77	440.02
589.93	348.74
590.08	428.32
590.24	472.79
590.40	379.17
590.56	533.64
590.72	379.17
590.88	365.12
591.04	402.57
591.20	421.30
591.35	505.56
591.51	381.51
591.67	404.91
591.83	411.93
591.99	409.59
592.15	428.32
592.31	447.04
592.46	411.93
592.62	421.30
592.78	365.12
592.94	397.89
593.10	430.66
593.26	358.10
593.41	393.21
593.57	381.51
593.73	365.12
593.89	430.66
594.05	428.32
594.20	435.34
594.36	409.59
594.52	397.89
594.68	383.85
594.84	393.21
594.99	411.93
595.15	407.25
595.31	369.80
595.47	411.93
595.62	337.04
595.78	362.78
595.94	463.43
596.10	510.24
596.25	491.51
596.41	461.09
596.57	456.40
596.73	486.83
596.88	470.45
597.04	486.83
597.20	437.68
597.36	393.21
597.51	428.32
597.67	444.70
597.83	390.87
597.99	414.27
598.14	484.49
598.30	390.87
598.46	386.19
598.61	486.83
598.77	381.51
598.93	475.13
599.09	491.51
599.24	461.09
599.40	507.90
599.56	465.77
599.71	435.34
599.87	404.91
600.03	365.12
600.18	421.30
600.34	468.11
600.50	397.89
600.65	421.30
600.81	468.11
600.97	379.17
601.12	421.30
601.28	510.24
601.44	395.55
601.59	365.12
601.75	409.59
601.91	374.49
602.06	397.89
602.22	435.34
602.37	418.96
602.53	425.98
602.69	369.80
602.84	358.10
603.00	444.70
603.16	400.23
603.31	402.57
603.47	475.13
603.62	433.00
603.78	425.98
603.94	402.57
604.09	348.74
604.25	477.47
604.40	428.32
604.56	458.74
604.71	386.19
604.87	390.87
605.03	440.02
605.18	451.72
605.34	496.19
605.49	449.38
605.65	383.85
605.80	414.27
605.96	430.66
606.12	458.74
606.27	416.62
606.43	409.59
606.58	430.66
606.74	437.68
606.89	411.93
607.05	430.66
607.20	428.32
607.36	437.68
607.51	365.12
607.67	456.40
607.82	444.70
607.98	421.30
608.13	409.59
608.29	388.53
608.44	437.68
608.60	435.34
608.75	489.17
608.91	407.25
609.06	461.09
609.22	475.13
609.37	411.93
609.53	353.42
609.68	362.78
609.84	388.53
609.99	395.55
610.15	390.87
