SpectraSuite Data File
++++++++++++++++++++++++++++++++++++
Date: Fri Oct 25 12:11:08 EDT 2013
User: price-jones
Dark Spectrum Present: No
Reference Spectrum Present: No
Number of Sampled Component Spectra: 1
Spectrometers: USB2+H05261
Integration Time (usec): 100000 (USB2+H05261)
Spectra Averaged: 1 (USB2+H05261)
Boxcar Smoothing: 0 (USB2+H05261)
Correct for Electrical Dark: No (USB2+H05261)
Strobe/Lamp Enabled: No (USB2+H05261)
Correct for Detector Non-linearity: No (USB2+H05261)
Correct for Stray Light: No (USB2+H05261)
Number of Pixels in Processed Spectrum: 2048
>>>>>Begin Processed Spectral Data<<<<<
365.73	376.83
365.92	376.83
366.12	376.83
366.32	257.46
366.52	234.05
366.72	245.76
366.91	243.42
367.11	156.82
367.31	168.52
367.51	198.95
367.70	243.42
367.90	273.84
368.10	344.06
368.30	234.05
368.49	205.97
368.69	304.27
368.89	325.33
369.09	297.25
369.28	248.10
369.48	308.95
369.68	262.14
369.87	248.10
370.07	280.86
370.27	397.89
370.47	334.70
370.66	362.78
370.86	358.10
371.06	369.80
371.25	381.51
371.45	390.87
371.65	308.95
371.84	411.93
372.04	344.06
372.24	395.55
372.44	367.46
372.63	339.38
372.83	402.57
373.03	433.00
373.22	365.12
373.42	437.68
373.62	388.53
373.81	428.32
374.01	416.62
374.21	454.06
374.40	383.85
374.60	407.25
374.79	421.30
374.99	395.55
375.19	397.89
375.38	418.96
375.58	411.93
375.78	456.40
375.97	475.13
376.17	437.68
376.37	416.62
376.56	416.62
376.76	428.32
376.95	465.77
377.15	475.13
377.35	397.89
377.54	365.12
377.74	423.64
377.93	381.51
378.13	414.27
378.33	407.25
378.52	414.27
378.72	374.49
378.91	486.83
379.11	358.10
379.31	418.96
379.50	454.06
379.70	465.77
379.89	416.62
380.09	397.89
380.28	458.74
380.48	393.21
380.68	351.08
380.87	418.96
381.07	346.40
381.26	454.06
381.46	425.98
381.65	334.70
381.85	433.00
382.04	386.19
382.24	479.81
382.43	341.72
382.63	428.32
382.83	339.38
383.02	442.36
383.22	437.68
383.41	395.55
383.61	421.30
383.80	458.74
384.00	372.15
384.19	381.51
384.39	334.70
384.58	411.93
384.78	479.81
384.97	433.00
385.17	379.17
385.36	390.87
385.56	395.55
385.75	367.46
385.95	337.04
386.14	383.85
386.34	425.98
386.53	400.23
386.72	400.23
386.92	365.12
387.11	388.53
387.31	421.30
387.50	386.19
387.70	348.74
387.89	411.93
388.09	376.83
388.28	337.04
388.48	367.46
388.67	430.66
388.86	372.15
389.06	390.87
389.25	430.66
389.45	383.85
389.64	421.30
389.84	479.81
390.03	409.59
390.22	381.51
390.42	381.51
390.61	447.04
390.81	409.59
391.00	393.21
391.19	451.72
391.39	395.55
391.58	435.34
391.78	402.57
391.97	407.25
392.16	447.04
392.36	393.21
392.55	458.74
392.75	486.83
392.94	397.89
393.13	456.40
393.33	386.19
393.52	437.68
393.71	355.76
393.91	433.00
394.10	430.66
394.29	379.17
394.49	456.40
394.68	372.15
394.88	449.38
395.07	491.51
395.26	362.78
395.46	341.72
395.65	393.21
395.84	365.12
396.04	456.40
396.23	341.72
396.42	367.46
396.62	402.57
396.81	519.60
397.00	388.53
397.19	395.55
397.39	376.83
397.58	421.30
397.77	397.89
397.97	416.62
398.16	407.25
398.35	425.98
398.55	339.38
398.74	409.59
398.93	395.55
399.12	367.46
399.32	362.78
399.51	437.68
399.70	430.66
399.90	430.66
400.09	449.38
400.28	367.46
400.47	369.80
400.67	428.32
400.86	482.15
401.05	442.36
401.24	486.83
401.44	374.49
401.63	461.09
401.82	379.17
402.01	383.85
402.21	400.23
402.40	411.93
402.59	414.27
402.78	433.00
402.97	414.27
403.17	430.66
403.36	454.06
403.55	411.93
403.74	301.93
403.93	369.80
404.13	421.30
404.32	390.87
404.51	402.57
404.70	435.34
404.89	369.80
405.09	425.98
405.28	418.96
405.47	376.83
405.66	447.04
405.85	421.30
406.05	339.38
406.24	444.70
406.43	332.36
406.62	444.70
406.81	458.74
407.00	425.98
407.20	409.59
407.39	358.10
407.58	407.25
407.77	330.02
407.96	444.70
408.15	433.00
408.34	475.13
408.54	465.77
408.73	428.32
408.92	428.32
409.11	414.27
409.30	315.97
409.49	449.38
409.68	369.80
409.87	383.85
410.07	393.21
410.26	372.15
410.45	463.43
410.64	404.91
410.83	468.11
411.02	430.66
411.21	390.87
411.40	447.04
411.59	470.45
411.78	383.85
411.98	407.25
412.17	374.49
412.36	463.43
412.55	435.34
412.74	402.57
412.93	369.80
413.12	404.91
413.31	465.77
413.50	416.62
413.69	383.85
413.88	451.72
414.07	411.93
414.26	418.96
414.45	383.85
414.64	479.81
414.83	386.19
415.02	435.34
415.22	465.77
415.41	461.09
415.60	386.19
415.79	365.12
415.98	407.25
416.17	489.17
416.36	404.91
416.55	414.27
416.74	411.93
416.93	421.30
417.12	421.30
417.31	383.85
417.50	390.87
417.69	435.34
417.88	491.51
418.07	402.57
418.26	456.40
418.45	374.49
418.64	360.44
418.83	393.21
419.02	451.72
419.21	393.21
419.39	414.27
419.58	442.36
419.77	477.47
419.96	433.00
420.15	383.85
420.34	358.10
420.53	409.59
420.72	475.13
420.91	381.51
421.10	402.57
421.29	454.06
421.48	456.40
421.67	383.85
421.86	402.57
422.05	416.62
422.24	433.00
422.43	355.76
422.61	423.64
422.80	400.23
422.99	369.80
423.18	374.49
423.37	386.19
423.56	425.98
423.75	379.17
423.94	454.06
424.13	433.00
424.32	430.66
424.50	383.85
424.69	435.34
424.88	425.98
425.07	409.59
425.26	465.77
425.45	411.93
425.64	400.23
425.83	365.12
426.01	376.83
426.20	414.27
426.39	365.12
426.58	369.80
426.77	379.17
426.96	456.40
427.15	421.30
427.33	404.91
427.52	348.74
427.71	379.17
427.90	397.89
428.09	435.34
428.28	421.30
428.46	433.00
428.65	428.32
428.84	362.78
429.03	416.62
429.22	451.72
429.40	367.46
429.59	449.38
429.78	379.17
429.97	409.59
430.16	440.02
430.34	390.87
430.53	435.34
430.72	414.27
430.91	470.45
431.10	367.46
431.28	388.53
431.47	411.93
431.66	505.56
431.85	447.04
432.03	386.19
432.22	442.36
432.41	437.68
432.60	421.30
432.79	423.64
432.97	381.51
433.16	409.59
433.35	400.23
433.54	381.51
433.72	341.72
433.91	393.21
434.10	440.02
434.28	447.04
434.47	428.32
434.66	451.72
434.85	402.57
435.03	454.06
435.22	339.38
435.41	468.11
435.59	428.32
435.78	463.43
435.97	393.21
436.16	456.40
436.34	430.66
436.53	475.13
436.72	482.15
436.90	444.70
437.09	397.89
437.28	337.04
437.46	437.68
437.65	477.47
437.84	414.27
438.02	362.78
438.21	477.47
438.40	463.43
438.58	353.42
438.77	463.43
438.96	440.02
439.14	372.15
439.33	442.36
439.52	355.76
439.70	395.55
439.89	425.98
440.08	442.36
440.26	449.38
440.45	393.21
440.63	351.08
440.82	458.74
441.01	461.09
441.19	421.30
441.38	465.77
441.57	421.30
441.75	463.43
441.94	393.21
442.12	486.83
442.31	414.27
442.50	367.46
442.68	388.53
442.87	411.93
443.05	393.21
443.24	440.02
443.43	369.80
443.61	395.55
443.80	341.72
443.98	383.85
444.17	428.32
444.35	404.91
444.54	360.44
444.73	425.98
444.91	397.89
445.10	416.62
445.28	458.74
445.47	423.64
445.65	468.11
445.84	327.68
446.02	440.02
446.21	369.80
446.39	411.93
446.58	468.11
446.77	463.43
446.95	440.02
447.14	393.21
447.32	461.09
447.51	447.04
447.69	365.12
447.88	437.68
448.06	374.49
448.25	425.98
448.43	421.30
448.62	402.57
448.80	435.34
448.99	440.02
449.17	461.09
449.36	449.38
449.54	388.53
449.73	430.66
449.91	397.89
450.10	379.17
450.28	407.25
450.46	447.04
450.65	355.76
450.83	400.23
451.02	465.77
451.20	458.74
451.39	416.62
451.57	449.38
451.76	454.06
451.94	444.70
452.13	404.91
452.31	442.36
452.49	437.68
452.68	411.93
452.86	409.59
453.05	472.79
453.23	383.85
453.42	360.44
453.60	367.46
453.78	407.25
453.97	367.46
454.15	381.51
454.34	388.53
454.52	465.77
454.70	381.51
454.89	425.98
455.07	458.74
455.26	409.59
455.44	454.06
455.62	414.27
455.81	421.30
455.99	365.12
456.17	409.59
456.36	411.93
456.54	365.12
456.73	315.97
456.91	456.40
457.09	454.06
457.28	404.91
457.46	430.66
457.64	407.25
457.83	353.42
458.01	428.32
458.19	374.49
458.38	388.53
458.56	390.87
458.74	414.27
458.93	449.38
459.11	423.64
459.29	421.30
459.48	416.62
459.66	435.34
459.84	430.66
460.03	489.17
460.21	395.55
460.39	421.30
460.57	411.93
460.76	418.96
460.94	458.74
461.12	491.51
461.31	465.77
461.49	430.66
461.67	468.11
461.85	381.51
462.04	463.43
462.22	774.72
462.40	437.68
462.59	433.00
462.77	351.08
462.95	428.32
463.13	355.76
463.32	400.23
463.50	395.55
463.68	397.89
463.86	388.53
464.05	351.08
464.23	404.91
464.41	386.19
464.59	407.25
464.78	416.62
464.96	395.55
465.14	425.98
465.32	484.49
465.50	444.70
465.69	407.25
465.87	325.33
466.05	362.78
466.23	447.04
466.41	418.96
466.60	451.72
466.78	376.83
466.96	430.66
467.14	414.27
467.32	388.53
467.51	407.25
467.69	418.96
467.87	458.74
468.05	451.72
468.23	411.93
468.41	470.45
468.60	386.19
468.78	421.30
468.96	458.74
469.14	402.57
469.32	369.80
469.50	444.70
469.69	425.98
469.87	437.68
470.05	465.77
470.23	503.22
470.41	351.08
470.59	383.85
470.77	444.70
470.95	376.83
471.14	468.11
471.32	428.32
471.50	458.74
471.68	444.70
471.86	433.00
472.04	369.80
472.22	348.74
472.40	374.49
472.58	346.40
472.77	381.51
472.95	416.62
473.13	468.11
473.31	409.59
473.49	395.55
473.67	353.42
473.85	402.57
474.03	458.74
474.21	383.85
474.39	496.19
474.57	444.70
474.75	507.90
474.93	388.53
475.12	421.30
475.30	430.66
475.48	376.83
475.66	388.53
475.84	414.27
476.02	423.64
476.20	458.74
476.38	332.36
476.56	421.30
476.74	486.83
476.92	353.42
477.10	416.62
477.28	447.04
477.46	437.68
477.64	397.89
477.82	409.59
478.00	407.25
478.18	379.17
478.36	430.66
478.54	418.96
478.72	393.21
478.90	355.76
479.08	397.89
479.26	409.59
479.44	456.40
479.62	409.59
479.80	353.42
479.98	376.83
480.16	423.64
480.34	538.32
480.52	388.53
480.70	400.23
480.88	409.59
481.06	400.23
481.24	402.57
481.41	388.53
481.59	435.34
481.77	472.79
481.95	386.19
482.13	444.70
482.31	421.30
482.49	390.87
482.67	374.49
482.85	416.62
483.03	435.34
483.21	397.89
483.39	416.62
483.57	334.70
483.74	454.06
483.92	458.74
484.10	433.00
484.28	489.17
484.46	451.72
484.64	475.13
484.82	442.36
485.00	433.00
485.18	440.02
485.35	468.11
485.53	397.89
485.71	430.66
485.89	442.36
486.07	362.78
486.25	451.72
486.43	447.04
486.61	456.40
486.78	414.27
486.96	430.66
487.14	376.83
487.32	388.53
487.50	437.68
487.68	367.46
487.85	400.23
488.03	505.56
488.21	425.98
488.39	334.70
488.57	465.77
488.75	425.98
488.92	503.22
489.10	407.25
489.28	475.13
489.46	386.19
489.64	409.59
489.81	418.96
489.99	416.62
490.17	404.91
490.35	444.70
490.53	435.34
490.70	414.27
490.88	479.81
491.06	358.10
491.24	477.47
491.41	437.68
491.59	477.47
491.77	395.55
491.95	411.93
492.13	430.66
492.30	449.38
492.48	386.19
492.66	393.21
492.84	425.98
493.01	383.85
493.19	393.21
493.37	428.32
493.54	381.51
493.72	437.68
493.90	365.12
494.08	444.70
494.25	437.68
494.43	395.55
494.61	369.80
494.79	428.32
494.96	416.62
495.14	421.30
495.32	465.77
495.49	451.72
495.67	418.96
495.85	381.51
496.02	407.25
496.20	416.62
496.38	418.96
496.55	397.89
496.73	393.21
496.91	409.59
497.09	421.30
497.26	407.25
497.44	376.83
497.62	383.85
497.79	465.77
497.97	437.68
498.14	404.91
498.32	435.34
498.50	395.55
498.67	325.33
498.85	313.63
499.03	414.27
499.20	458.74
499.38	447.04
499.56	334.70
499.73	475.13
499.91	409.59
500.08	465.77
500.26	393.21
500.44	418.96
500.61	454.06
500.79	423.64
500.97	416.62
501.14	479.81
501.32	400.23
501.49	435.34
501.67	468.11
501.84	409.59
502.02	444.70
502.20	451.72
502.37	489.17
502.55	498.53
502.72	379.17
502.90	463.43
503.07	433.00
503.25	470.45
503.43	418.96
503.60	341.72
503.78	433.00
503.95	463.43
504.13	397.89
504.30	381.51
504.48	463.43
504.65	458.74
504.83	421.30
505.01	423.64
505.18	433.00
505.36	458.74
505.53	428.32
505.71	435.34
505.88	425.98
506.06	402.57
506.23	362.78
506.41	414.27
506.58	383.85
506.76	400.23
506.93	390.87
507.11	489.17
507.28	428.32
507.46	404.91
507.63	475.13
507.81	351.08
507.98	395.55
508.16	411.93
508.33	402.57
508.50	376.83
508.68	454.06
508.85	430.66
509.03	393.21
509.20	365.12
509.38	428.32
509.55	404.91
509.73	365.12
509.90	524.28
510.08	337.04
510.25	400.23
510.42	411.93
510.60	381.51
510.77	372.15
510.95	447.04
511.12	367.46
511.30	456.40
511.47	393.21
511.64	461.09
511.82	395.55
511.99	390.87
512.17	306.61
512.34	365.12
512.51	362.78
512.69	381.51
512.86	393.21
513.04	381.51
513.21	376.83
513.38	353.42
513.56	433.00
513.73	372.15
513.90	507.90
514.08	374.49
514.25	461.09
514.43	449.38
514.60	320.65
514.77	475.13
514.95	437.68
515.12	470.45
515.29	369.80
515.47	386.19
515.64	430.66
515.81	451.72
515.99	390.87
516.16	479.81
516.33	381.51
516.51	386.19
516.68	393.21
516.85	430.66
517.03	339.38
517.20	458.74
517.37	442.36
517.54	430.66
517.72	409.59
517.89	395.55
518.06	449.38
518.24	358.10
518.41	496.19
518.58	444.70
518.75	397.89
518.93	365.12
519.10	421.30
519.27	381.51
519.45	468.11
519.62	374.49
519.79	468.11
519.96	451.72
520.14	425.98
520.31	437.68
520.48	402.57
520.65	468.11
520.83	381.51
521.00	414.27
521.17	362.78
521.34	447.04
521.52	348.74
521.69	402.57
521.86	418.96
522.03	437.68
522.20	484.49
522.38	414.27
522.55	433.00
522.72	437.68
522.89	402.57
523.07	421.30
523.24	411.93
523.41	437.68
523.58	425.98
523.75	386.19
523.92	425.98
524.10	379.17
524.27	444.70
524.44	430.66
524.61	386.19
524.78	414.27
524.96	451.72
525.13	388.53
525.30	454.06
525.47	425.98
525.64	397.89
525.81	397.89
525.98	416.62
526.16	395.55
526.33	435.34
526.50	430.66
526.67	353.42
526.84	428.32
527.01	458.74
527.18	414.27
527.36	421.30
527.53	404.91
527.70	372.15
527.87	390.87
528.04	444.70
528.21	395.55
528.38	337.04
528.55	463.43
528.72	550.03
528.89	456.40
529.07	418.96
529.24	383.85
529.41	430.66
529.58	430.66
529.75	449.38
529.92	421.30
530.09	449.38
530.26	447.04
530.43	397.89
530.60	411.93
530.77	395.55
530.94	428.32
531.11	414.27
531.28	402.57
531.46	339.38
531.63	454.06
531.80	435.34
531.97	458.74
532.14	351.08
532.31	402.57
532.48	393.21
532.65	458.74
532.82	470.45
532.99	440.02
533.16	463.43
533.33	393.21
533.50	435.34
533.67	409.59
533.84	423.64
534.01	372.15
534.18	402.57
534.35	484.49
534.52	484.49
534.69	489.17
534.86	400.23
535.03	465.77
535.20	440.02
535.37	489.17
535.54	409.59
535.71	463.43
535.88	484.49
536.05	360.44
536.22	414.27
536.38	425.98
536.55	407.25
536.72	425.98
536.89	388.53
537.06	423.64
537.23	454.06
537.40	463.43
537.57	425.98
537.74	540.66
537.91	379.17
538.08	425.98
538.25	430.66
538.42	369.80
538.59	425.98
538.75	423.64
538.92	491.51
539.09	468.11
539.26	447.04
539.43	435.34
539.60	442.36
539.77	358.10
539.94	369.80
540.11	416.62
540.28	470.45
540.44	491.51
540.61	421.30
540.78	463.43
540.95	411.93
541.12	404.91
541.29	402.57
541.46	484.49
541.62	400.23
541.79	383.85
541.96	428.32
542.13	472.79
542.30	418.96
542.47	374.49
542.63	456.40
542.80	456.40
542.97	414.27
543.14	430.66
543.31	440.02
543.48	365.12
543.64	463.43
543.81	416.62
543.98	425.98
544.15	400.23
544.32	402.57
544.48	423.64
544.65	402.57
544.82	414.27
544.99	355.76
545.16	423.64
545.32	379.17
545.49	365.12
545.66	374.49
545.83	428.32
546.00	411.93
546.16	461.09
546.33	433.00
546.50	362.78
546.67	411.93
546.83	421.30
547.00	400.23
547.17	379.17
547.34	482.15
547.50	390.87
547.67	416.62
547.84	404.91
548.00	447.04
548.17	400.23
548.34	344.06
548.51	425.98
548.67	397.89
548.84	437.68
549.01	407.25
549.18	386.19
549.34	482.15
549.51	433.00
549.68	407.25
549.84	318.31
550.01	374.49
550.18	395.55
550.34	435.34
550.51	468.11
550.68	461.09
550.84	458.74
551.01	463.43
551.18	423.64
551.34	369.80
551.51	397.89
551.68	421.30
551.84	409.59
552.01	393.21
552.18	400.23
552.34	414.27
552.51	400.23
552.68	517.26
552.84	365.12
553.01	433.00
553.18	395.55
553.34	339.38
553.51	348.74
553.67	435.34
553.84	428.32
554.01	421.30
554.17	407.25
554.34	440.02
554.51	379.17
554.67	451.72
554.84	428.32
555.00	447.04
555.17	463.43
555.33	374.49
555.50	440.02
555.67	440.02
555.83	395.55
556.00	458.74
556.16	578.11
556.33	451.72
556.50	404.91
556.66	409.59
556.83	344.06
556.99	388.53
557.16	381.51
557.32	451.72
557.49	458.74
557.65	402.57
557.82	360.44
557.98	409.59
558.15	425.98
558.32	428.32
558.48	493.85
558.65	433.00
558.81	402.57
558.98	344.06
559.14	379.17
559.31	402.57
559.47	416.62
559.64	397.89
559.80	444.70
559.97	447.04
560.13	435.34
560.30	383.85
560.46	447.04
560.63	465.77
560.79	440.02
560.96	437.68
561.12	458.74
561.29	411.93
561.45	402.57
561.61	425.98
561.78	498.53
561.94	458.74
562.11	484.49
562.27	383.85
562.44	397.89
562.60	479.81
562.77	407.25
562.93	442.36
563.10	395.55
563.26	411.93
563.42	421.30
563.59	440.02
563.75	388.53
563.92	416.62
564.08	479.81
564.24	458.74
564.41	454.06
564.57	383.85
564.74	400.23
564.90	393.21
565.07	449.38
565.23	372.15
565.39	463.43
565.56	423.64
565.72	416.62
565.88	505.56
566.05	456.40
566.21	381.51
566.38	475.13
566.54	425.98
566.70	425.98
566.87	444.70
567.03	477.47
567.19	365.12
567.36	430.66
567.52	339.38
567.68	456.40
567.85	402.57
568.01	379.17
568.17	407.25
568.34	423.64
568.50	418.96
568.66	409.59
568.83	407.25
568.99	344.06
569.15	428.32
569.32	435.34
569.48	458.74
569.64	367.46
569.81	404.91
569.97	442.36
570.13	381.51
570.30	433.00
570.46	374.49
570.62	404.91
570.78	496.19
570.95	425.98
571.11	386.19
571.27	468.11
571.43	425.98
571.60	386.19
571.76	500.87
571.92	482.15
572.09	369.80
572.25	442.36
572.41	411.93
572.57	400.23
572.74	465.77
572.90	428.32
573.06	381.51
573.22	461.09
573.38	393.21
573.55	400.23
573.71	447.04
573.87	383.85
574.03	351.08
574.20	430.66
574.36	376.83
574.52	390.87
574.68	486.83
574.84	379.17
575.01	355.76
575.17	435.34
575.33	407.25
575.49	437.68
575.65	442.36
575.82	486.83
575.98	423.64
576.14	475.13
576.30	397.89
576.46	388.53
576.62	421.30
576.79	463.43
576.95	463.43
577.11	451.72
577.27	425.98
577.43	395.55
577.59	517.26
577.75	395.55
577.92	425.98
578.08	395.55
578.24	395.55
578.40	451.72
578.56	423.64
578.72	360.44
578.88	411.93
579.04	294.91
579.21	414.27
579.37	376.83
579.53	388.53
579.69	444.70
579.85	437.68
580.01	428.32
580.17	416.62
580.33	393.21
580.49	353.42
580.65	423.64
580.82	379.17
580.98	390.87
581.14	475.13
581.30	449.38
581.46	472.79
581.62	486.83
581.78	493.85
581.94	444.70
582.10	414.27
582.26	365.12
582.42	376.83
582.58	407.25
582.74	400.23
582.90	390.87
583.06	402.57
583.22	397.89
583.38	440.02
583.54	411.93
583.70	435.34
583.86	472.79
584.02	454.06
584.18	397.89
584.34	449.38
584.50	496.19
584.66	400.23
584.82	444.70
584.98	444.70
585.14	379.17
585.30	388.53
585.46	404.91
585.62	355.76
585.78	395.55
585.94	393.21
586.10	395.55
586.26	346.40
586.42	470.45
586.58	468.11
586.74	311.29
586.90	388.53
587.06	440.02
587.22	386.19
587.38	472.79
587.54	465.77
587.70	454.06
587.86	447.04
588.02	409.59
588.18	442.36
588.34	421.30
588.49	416.62
588.65	489.17
588.81	444.70
588.97	360.44
589.13	421.30
589.29	463.43
589.45	484.49
589.61	454.06
589.77	414.27
589.93	449.38
590.08	433.00
590.24	468.11
590.40	341.72
590.56	477.47
590.72	440.02
590.88	367.46
591.04	416.62
591.20	470.45
591.35	437.68
591.51	430.66
591.67	337.04
591.83	444.70
591.99	416.62
592.15	421.30
592.31	334.70
592.46	386.19
592.62	416.62
592.78	393.21
592.94	379.17
593.10	379.17
593.26	409.59
593.41	437.68
593.57	423.64
593.73	442.36
593.89	388.53
594.05	433.00
594.20	447.04
594.36	418.96
594.52	428.32
594.68	383.85
594.84	465.77
594.99	411.93
595.15	395.55
595.31	463.43
595.47	489.17
595.62	440.02
595.78	404.91
595.94	454.06
596.10	428.32
596.25	512.58
596.41	491.51
596.57	395.55
596.73	442.36
596.88	386.19
597.04	442.36
597.20	465.77
597.36	477.47
597.51	470.45
597.67	416.62
597.83	428.32
597.99	365.12
598.14	400.23
598.30	390.87
598.46	416.62
598.61	372.15
598.77	440.02
598.93	435.34
599.09	407.25
599.24	421.30
599.40	407.25
599.56	423.64
599.71	372.15
599.87	393.21
600.03	388.53
600.18	416.62
600.34	449.38
600.50	395.55
600.65	367.46
600.81	449.38
600.97	393.21
601.12	397.89
601.28	404.91
601.44	482.15
601.59	379.17
601.75	496.19
601.91	421.30
602.06	454.06
602.22	449.38
602.37	416.62
602.53	425.98
602.69	444.70
602.84	374.49
603.00	433.00
603.16	444.70
603.31	388.53
603.47	435.34
603.62	425.98
603.78	397.89
603.94	416.62
604.09	435.34
604.25	393.21
604.40	451.72
604.56	330.02
604.71	479.81
604.87	423.64
605.03	365.12
605.18	386.19
605.34	425.98
605.49	442.36
605.65	414.27
605.80	414.27
605.96	404.91
606.12	428.32
606.27	409.59
606.43	454.06
606.58	414.27
606.74	411.93
606.89	503.22
607.05	395.55
607.20	395.55
607.36	423.64
607.51	416.62
607.67	442.36
607.82	444.70
607.98	491.51
608.13	374.49
608.29	402.57
608.44	475.13
608.60	330.02
608.75	423.64
608.91	411.93
609.06	428.32
609.22	456.40
609.37	442.36
609.53	423.64
609.68	430.66
609.84	479.81
609.99	386.19
610.15	437.68
