SpectraSuite Data File
++++++++++++++++++++++++++++++++++++
Date: Fri Oct 25 12:11:44 EDT 2013
User: price-jones
Dark Spectrum Present: No
Reference Spectrum Present: No
Number of Sampled Component Spectra: 1
Spectrometers: USB2+H05261
Integration Time (usec): 100000 (USB2+H05261)
Spectra Averaged: 1 (USB2+H05261)
Boxcar Smoothing: 0 (USB2+H05261)
Correct for Electrical Dark: No (USB2+H05261)
Strobe/Lamp Enabled: No (USB2+H05261)
Correct for Detector Non-linearity: No (USB2+H05261)
Correct for Stray Light: No (USB2+H05261)
Number of Pixels in Processed Spectrum: 2048
>>>>>Begin Processed Spectral Data<<<<<
365.73	388.53
365.92	388.53
366.12	388.53
366.32	365.12
366.52	248.10
366.72	266.82
366.91	227.03
367.11	208.31
367.31	236.39
367.51	287.89
367.70	189.58
367.90	215.33
368.10	315.97
368.30	273.84
368.49	313.63
368.69	250.44
368.89	358.10
369.09	238.73
369.28	287.89
369.48	290.23
369.68	248.10
369.87	294.91
370.07	308.95
370.27	332.36
370.47	325.33
370.66	374.49
370.86	376.83
371.06	395.55
371.25	461.09
371.45	259.80
371.65	332.36
371.84	360.44
372.04	355.76
372.24	360.44
372.44	404.91
372.63	447.04
372.83	447.04
373.03	379.17
373.22	351.08
373.42	395.55
373.62	425.98
373.81	437.68
374.01	421.30
374.21	449.38
374.40	442.36
374.60	414.27
374.79	454.06
374.99	381.51
375.19	428.32
375.38	428.32
375.58	386.19
375.78	465.77
375.97	425.98
376.17	477.47
376.37	348.74
376.56	358.10
376.76	346.40
376.95	430.66
377.15	393.21
377.35	435.34
377.54	430.66
377.74	365.12
377.93	430.66
378.13	421.30
378.33	423.64
378.52	397.89
378.72	461.09
378.91	479.81
379.11	367.46
379.31	362.78
379.50	491.51
379.70	404.91
379.89	400.23
380.09	390.87
380.28	472.79
380.48	383.85
380.68	327.68
380.87	397.89
381.07	465.77
381.26	435.34
381.46	402.57
381.65	383.85
381.85	451.72
382.04	381.51
382.24	454.06
382.43	397.89
382.63	489.17
382.83	334.70
383.02	395.55
383.22	440.02
383.41	320.65
383.61	456.40
383.80	440.02
384.00	372.15
384.19	388.53
384.39	376.83
384.58	428.32
384.78	388.53
384.97	440.02
385.17	404.91
385.36	458.74
385.56	458.74
385.75	430.66
385.95	337.04
386.14	397.89
386.34	372.15
386.53	430.66
386.72	411.93
386.92	465.77
387.11	414.27
387.31	414.27
387.50	355.76
387.70	425.98
387.89	437.68
388.09	423.64
388.28	379.17
388.48	322.99
388.67	461.09
388.86	353.42
389.06	425.98
389.25	418.96
389.45	414.27
389.64	411.93
389.84	472.79
390.03	379.17
390.22	461.09
390.42	449.38
390.61	435.34
390.81	360.44
391.00	423.64
391.19	379.17
391.39	423.64
391.58	416.62
391.78	430.66
391.97	376.83
392.16	383.85
392.36	416.62
392.55	449.38
392.75	414.27
392.94	337.04
393.13	433.00
393.33	365.12
393.52	437.68
393.71	404.91
393.91	447.04
394.10	400.23
394.29	440.02
394.49	402.57
394.68	430.66
394.88	463.43
395.07	463.43
395.26	456.40
395.46	376.83
395.65	351.08
395.84	395.55
396.04	512.58
396.23	444.70
396.42	407.25
396.62	404.91
396.81	409.59
397.00	362.78
397.19	372.15
397.39	430.66
397.58	418.96
397.77	418.96
397.97	404.91
398.16	376.83
398.35	402.57
398.55	369.80
398.74	428.32
398.93	479.81
399.12	425.98
399.32	430.66
399.51	365.12
399.70	463.43
399.90	367.46
400.09	393.21
400.28	470.45
400.47	442.36
400.67	388.53
400.86	351.08
401.05	442.36
401.24	421.30
401.44	465.77
401.63	440.02
401.82	383.85
402.01	388.53
402.21	421.30
402.40	428.32
402.59	421.30
402.78	376.83
402.97	416.62
403.17	437.68
403.36	468.11
403.55	344.06
403.74	425.98
403.93	402.57
404.13	454.06
404.32	386.19
404.51	418.96
404.70	381.51
404.89	440.02
405.09	435.34
405.28	430.66
405.47	395.55
405.66	510.24
405.85	468.11
406.05	440.02
406.24	503.22
406.43	411.93
406.62	318.31
406.81	414.27
407.00	503.22
407.20	407.25
407.39	367.46
407.58	397.89
407.77	397.89
407.96	339.38
408.15	552.37
408.34	411.93
408.54	421.30
408.73	414.27
408.92	393.21
409.11	407.25
409.30	367.46
409.49	362.78
409.68	315.97
409.87	341.72
410.07	414.27
410.26	416.62
410.45	379.17
410.64	454.06
410.83	402.57
411.02	400.23
411.21	456.40
411.40	433.00
411.59	369.80
411.78	365.12
411.98	404.91
412.17	447.04
412.36	404.91
412.55	411.93
412.74	353.42
412.93	449.38
413.12	458.74
413.31	442.36
413.50	346.40
413.69	397.89
413.88	383.85
414.07	468.11
414.26	416.62
414.45	442.36
414.64	451.72
414.83	437.68
415.02	458.74
415.22	407.25
415.41	416.62
415.60	451.72
415.79	304.27
415.98	437.68
416.17	444.70
416.36	379.17
416.55	418.96
416.74	444.70
416.93	386.19
417.12	397.89
417.31	477.47
417.50	360.44
417.69	458.74
417.88	414.27
418.07	393.21
418.26	411.93
418.45	477.47
418.64	468.11
418.83	330.02
419.02	395.55
419.21	430.66
419.39	407.25
419.58	411.93
419.77	383.85
419.96	404.91
420.15	472.79
420.34	425.98
420.53	374.49
420.72	444.70
420.91	454.06
421.10	447.04
421.29	404.91
421.48	362.78
421.67	404.91
421.86	418.96
422.05	388.53
422.24	374.49
422.43	458.74
422.61	418.96
422.80	344.06
422.99	376.83
423.18	365.12
423.37	482.15
423.56	351.08
423.75	388.53
423.94	444.70
424.13	444.70
424.32	554.71
424.50	386.19
424.69	348.74
424.88	433.00
425.07	381.51
425.26	372.15
425.45	383.85
425.64	362.78
425.83	440.02
426.01	383.85
426.20	397.89
426.39	411.93
426.58	374.49
426.77	425.98
426.96	440.02
427.15	428.32
427.33	411.93
427.52	388.53
427.71	407.25
427.90	362.78
428.09	428.32
428.28	390.87
428.46	383.85
428.65	479.81
428.84	430.66
429.03	479.81
429.22	411.93
429.40	358.10
429.59	404.91
429.78	484.49
429.97	393.21
430.16	348.74
430.34	376.83
430.53	435.34
430.72	418.96
430.91	414.27
431.10	421.30
431.28	393.21
431.47	414.27
431.66	383.85
431.85	421.30
432.03	418.96
432.22	475.13
432.41	430.66
432.60	383.85
432.79	433.00
432.97	379.17
433.16	423.64
433.35	425.98
433.54	358.10
433.72	416.62
433.91	344.06
434.10	404.91
434.28	449.38
434.47	402.57
434.66	493.85
434.85	433.00
435.03	374.49
435.22	510.24
435.41	440.02
435.59	414.27
435.78	430.66
435.97	381.51
436.16	330.02
436.34	388.53
436.53	365.12
436.72	440.02
436.90	407.25
437.09	407.25
437.28	407.25
437.46	337.04
437.65	472.79
437.84	451.72
438.02	390.87
438.21	447.04
438.40	430.66
438.58	442.36
438.77	447.04
438.96	379.17
439.14	447.04
439.33	449.38
439.52	353.42
439.70	425.98
439.89	444.70
440.08	390.87
440.26	418.96
440.45	440.02
440.63	402.57
440.82	416.62
441.01	418.96
441.19	435.34
441.38	440.02
441.57	433.00
441.75	465.77
441.94	484.49
442.12	390.87
442.31	428.32
442.50	353.42
442.68	444.70
442.87	400.23
443.05	430.66
443.24	463.43
443.43	372.15
443.61	402.57
443.80	379.17
443.98	395.55
444.17	355.76
444.35	393.21
444.54	423.64
444.73	463.43
444.91	433.00
445.10	397.89
445.28	400.23
445.47	428.32
445.65	498.53
445.84	437.68
446.02	386.19
446.21	433.00
446.39	444.70
446.58	407.25
446.77	428.32
446.95	409.59
447.14	421.30
447.32	489.17
447.51	409.59
447.69	393.21
447.88	397.89
448.06	407.25
448.25	416.62
448.43	388.53
448.62	395.55
448.80	397.89
448.99	390.87
449.17	470.45
449.36	414.27
449.54	414.27
449.73	437.68
449.91	465.77
450.10	304.27
450.28	437.68
450.46	465.77
450.65	407.25
450.83	374.49
451.02	451.72
451.20	468.11
451.39	407.25
451.57	379.17
451.76	437.68
451.94	393.21
452.13	470.45
452.31	458.74
452.49	404.91
452.68	407.25
452.86	346.40
453.05	414.27
453.23	397.89
453.42	390.87
453.60	386.19
453.78	339.38
453.97	374.49
454.15	404.91
454.34	430.66
454.52	400.23
454.70	493.85
454.89	456.40
455.07	409.59
455.26	386.19
455.44	444.70
455.62	369.80
455.81	390.87
455.99	435.34
456.17	447.04
456.36	433.00
456.54	346.40
456.73	449.38
456.91	472.79
457.09	334.70
457.28	374.49
457.46	367.46
457.64	454.06
457.83	369.80
458.01	458.74
458.19	388.53
458.38	435.34
458.56	402.57
458.74	451.72
458.93	465.77
459.11	390.87
459.29	383.85
459.48	458.74
459.66	440.02
459.84	456.40
460.03	411.93
460.21	437.68
460.39	414.27
460.57	433.00
460.76	493.85
460.94	498.53
461.12	463.43
461.31	437.68
461.49	353.42
461.67	418.96
461.85	386.19
462.04	472.79
462.22	760.67
462.40	475.13
462.59	477.47
462.77	416.62
462.95	472.79
463.13	423.64
463.32	430.66
463.50	433.00
463.68	409.59
463.86	395.55
464.05	425.98
464.23	437.68
464.41	440.02
464.59	418.96
464.78	454.06
464.96	454.06
465.14	381.51
465.32	365.12
465.50	388.53
465.69	425.98
465.87	442.36
466.05	407.25
466.23	344.06
466.41	435.34
466.60	409.59
466.78	454.06
466.96	496.19
467.14	379.17
467.32	416.62
467.51	437.68
467.69	390.87
467.87	451.72
468.05	360.44
468.23	433.00
468.41	468.11
468.60	348.74
468.78	498.53
468.96	482.15
469.14	484.49
469.32	425.98
469.50	416.62
469.69	468.11
469.87	493.85
470.05	442.36
470.23	430.66
470.41	353.42
470.59	414.27
470.77	437.68
470.95	421.30
471.14	423.64
471.32	428.32
471.50	447.04
471.68	428.32
471.86	393.21
472.04	416.62
472.22	360.44
472.40	388.53
472.58	430.66
472.77	367.46
472.95	341.72
473.13	437.68
473.31	461.09
473.49	449.38
473.67	393.21
473.85	407.25
474.03	425.98
474.21	456.40
474.39	458.74
474.57	421.30
474.75	376.83
474.93	416.62
475.12	444.70
475.30	360.44
475.48	414.27
475.66	376.83
475.84	468.11
476.02	372.15
476.20	388.53
476.38	484.49
476.56	545.34
476.74	428.32
476.92	379.17
477.10	437.68
477.28	425.98
477.46	411.93
477.64	386.19
477.82	404.91
478.00	461.09
478.18	442.36
478.36	379.17
478.54	353.42
478.72	330.02
478.90	465.77
479.08	339.38
479.26	400.23
479.44	475.13
479.62	423.64
479.80	416.62
479.98	355.76
480.16	379.17
480.34	477.47
480.52	430.66
480.70	409.59
480.88	433.00
481.06	402.57
481.24	421.30
481.41	435.34
481.59	418.96
481.77	411.93
481.95	465.77
482.13	468.11
482.31	440.02
482.49	390.87
482.67	411.93
482.85	423.64
483.03	475.13
483.21	404.91
483.39	407.25
483.57	358.10
483.74	507.90
483.92	482.15
484.10	400.23
484.28	472.79
484.46	475.13
484.64	283.20
484.82	461.09
485.00	337.04
485.18	423.64
485.35	435.34
485.53	402.57
485.71	449.38
485.89	365.12
486.07	362.78
486.25	528.96
486.43	449.38
486.61	486.83
486.78	491.51
486.96	383.85
487.14	372.15
487.32	360.44
487.50	372.15
487.68	447.04
487.85	425.98
488.03	386.19
488.21	437.68
488.39	416.62
488.57	390.87
488.75	430.66
488.92	496.19
489.10	482.15
489.28	425.98
489.46	386.19
489.64	479.81
489.81	332.36
489.99	416.62
490.17	428.32
490.35	491.51
490.53	386.19
490.70	414.27
490.88	409.59
491.06	395.55
491.24	402.57
491.41	510.24
491.59	465.77
491.77	337.04
491.95	386.19
492.13	437.68
492.30	461.09
492.48	416.62
492.66	414.27
492.84	369.80
493.01	437.68
493.19	423.64
493.37	411.93
493.54	440.02
493.72	416.62
493.90	346.40
494.08	411.93
494.25	491.51
494.43	437.68
494.61	393.21
494.79	416.62
494.96	390.87
495.14	355.76
495.32	344.06
495.49	428.32
495.67	428.32
495.85	379.17
496.02	388.53
496.20	430.66
496.38	430.66
496.55	416.62
496.73	433.00
496.91	390.87
497.09	423.64
497.26	395.55
497.44	379.17
497.62	444.70
497.79	390.87
497.97	351.08
498.14	362.78
498.32	411.93
498.50	435.34
498.67	339.38
498.85	421.30
499.03	400.23
499.20	388.53
499.38	425.98
499.56	400.23
499.73	449.38
499.91	353.42
500.08	400.23
500.26	367.46
500.44	435.34
500.61	444.70
500.79	400.23
500.97	411.93
501.14	470.45
501.32	444.70
501.49	465.77
501.67	353.42
501.84	435.34
502.02	355.76
502.20	402.57
502.37	447.04
502.55	367.46
502.72	512.58
502.90	400.23
503.07	477.47
503.25	449.38
503.43	470.45
503.60	383.85
503.78	416.62
503.95	423.64
504.13	393.21
504.30	456.40
504.48	468.11
504.65	458.74
504.83	379.17
505.01	367.46
505.18	472.79
505.36	437.68
505.53	433.00
505.71	444.70
505.88	489.17
506.06	458.74
506.23	416.62
506.41	404.91
506.58	458.74
506.76	395.55
506.93	348.74
507.11	386.19
507.28	351.08
507.46	383.85
507.63	381.51
507.81	437.68
507.98	475.13
508.16	407.25
508.33	437.68
508.50	428.32
508.68	393.21
508.85	433.00
509.03	454.06
509.20	447.04
509.38	503.22
509.55	444.70
509.73	428.32
509.90	465.77
510.08	404.91
510.25	468.11
510.42	400.23
510.60	332.36
510.77	456.40
510.95	433.00
511.12	498.53
511.30	393.21
511.47	454.06
511.64	451.72
511.82	416.62
511.99	379.17
512.17	362.78
512.34	433.00
512.51	395.55
512.69	400.23
512.86	437.68
513.04	393.21
513.21	444.70
513.38	440.02
513.56	337.04
513.73	425.98
513.90	411.93
514.08	404.91
514.25	418.96
514.43	386.19
514.60	365.12
514.77	407.25
514.95	351.08
515.12	409.59
515.29	381.51
515.47	414.27
515.64	428.32
515.81	465.77
515.99	526.62
516.16	404.91
516.33	437.68
516.51	358.10
516.68	374.49
516.85	400.23
517.03	369.80
517.20	400.23
517.37	442.36
517.54	440.02
517.72	489.17
517.89	444.70
518.06	320.65
518.24	461.09
518.41	463.43
518.58	447.04
518.75	433.00
518.93	437.68
519.10	433.00
519.27	407.25
519.45	524.28
519.62	421.30
519.79	381.51
519.96	404.91
520.14	374.49
520.31	416.62
520.48	404.91
520.65	379.17
520.83	447.04
521.00	416.62
521.17	409.59
521.34	404.91
521.52	395.55
521.69	395.55
521.86	367.46
522.03	386.19
522.20	454.06
522.38	496.19
522.55	381.51
522.72	358.10
522.89	402.57
523.07	416.62
523.24	379.17
523.41	444.70
523.58	372.15
523.75	430.66
523.92	388.53
524.10	360.44
524.27	444.70
524.44	407.25
524.61	428.32
524.78	435.34
524.96	444.70
525.13	423.64
525.30	465.77
525.47	433.00
525.64	381.51
525.81	414.27
525.98	470.45
526.16	430.66
526.33	465.77
526.50	409.59
526.67	451.72
526.84	376.83
527.01	386.19
527.18	507.90
527.36	463.43
527.53	397.89
527.70	484.49
527.87	444.70
528.04	472.79
528.21	430.66
528.38	428.32
528.55	465.77
528.72	402.57
528.89	444.70
529.07	409.59
529.24	346.40
529.41	411.93
529.58	397.89
529.75	367.46
529.92	447.04
530.09	451.72
530.26	407.25
530.43	386.19
530.60	402.57
530.77	500.87
530.94	360.44
531.11	400.23
531.28	379.17
531.46	425.98
531.63	463.43
531.80	358.10
531.97	383.85
532.14	442.36
532.31	425.98
532.48	433.00
532.65	395.55
532.82	425.98
532.99	325.33
533.16	397.89
533.33	451.72
533.50	388.53
533.67	451.72
533.84	440.02
534.01	367.46
534.18	409.59
534.35	404.91
534.52	421.30
534.69	425.98
534.86	461.09
535.03	428.32
535.20	402.57
535.37	418.96
535.54	418.96
535.71	404.91
535.88	433.00
536.05	435.34
536.22	463.43
536.38	390.87
536.55	451.72
536.72	449.38
536.89	451.72
537.06	461.09
537.23	442.36
537.40	421.30
537.57	411.93
537.74	500.87
537.91	461.09
538.08	397.89
538.25	402.57
538.42	414.27
538.59	447.04
538.75	423.64
538.92	294.91
539.09	393.21
539.26	397.89
539.43	479.81
539.60	430.66
539.77	374.49
539.94	407.25
540.11	465.77
540.28	395.55
540.44	421.30
540.61	447.04
540.78	456.40
540.95	423.64
541.12	315.97
541.29	437.68
541.46	437.68
541.62	421.30
541.79	433.00
541.96	461.09
542.13	447.04
542.30	423.64
542.47	482.15
542.63	430.66
542.80	344.06
542.97	376.83
543.14	437.68
543.31	503.22
543.48	418.96
543.64	407.25
543.81	461.09
543.98	407.25
544.15	386.19
544.32	440.02
544.48	411.93
544.65	437.68
544.82	379.17
544.99	418.96
545.16	421.30
545.32	346.40
545.49	360.44
545.66	372.15
545.83	416.62
546.00	365.12
546.16	379.17
546.33	374.49
546.50	430.66
546.67	404.91
546.83	430.66
547.00	416.62
547.17	407.25
547.34	421.30
547.50	458.74
547.67	456.40
547.84	423.64
548.00	400.23
548.17	435.34
548.34	374.49
548.51	435.34
548.67	404.91
548.84	409.59
549.01	447.04
549.18	461.09
549.34	437.68
549.51	437.68
549.68	421.30
549.84	503.22
550.01	411.93
550.18	484.49
550.34	475.13
550.51	435.34
550.68	519.60
550.84	435.34
551.01	402.57
551.18	430.66
551.34	491.51
551.51	423.64
551.68	346.40
551.84	451.72
552.01	418.96
552.18	517.26
552.34	463.43
552.51	418.96
552.68	376.83
552.84	360.44
553.01	397.89
553.18	447.04
553.34	411.93
553.51	374.49
553.67	404.91
553.84	477.47
554.01	407.25
554.17	472.79
554.34	421.30
554.51	437.68
554.67	341.72
554.84	477.47
555.00	372.15
555.17	442.36
555.33	475.13
555.50	477.47
555.67	393.21
555.83	421.30
556.00	320.65
556.16	442.36
556.33	365.12
556.50	479.81
556.66	472.79
556.83	388.53
556.99	507.90
557.16	447.04
557.32	372.15
557.49	447.04
557.65	367.46
557.82	418.96
557.98	463.43
558.15	482.15
558.32	510.24
558.48	353.42
558.65	458.74
558.81	425.98
558.98	430.66
559.14	381.51
559.31	416.62
559.47	416.62
559.64	400.23
559.80	404.91
559.97	337.04
560.13	416.62
560.30	386.19
560.46	433.00
560.63	442.36
560.79	444.70
560.96	435.34
561.12	449.38
561.29	383.85
561.45	421.30
561.61	468.11
561.78	538.32
561.94	411.93
562.11	404.91
562.27	395.55
562.44	444.70
562.60	421.30
562.77	449.38
562.93	477.47
563.10	418.96
563.26	447.04
563.42	430.66
563.59	418.96
563.75	421.30
563.92	381.51
564.08	393.21
564.24	409.59
564.41	449.38
564.57	423.64
564.74	400.23
564.90	411.93
565.07	383.85
565.23	533.64
565.39	423.64
565.56	411.93
565.72	418.96
565.88	418.96
566.05	425.98
566.21	395.55
566.38	470.45
566.54	421.30
566.70	411.93
566.87	440.02
567.03	386.19
567.19	411.93
567.36	390.87
567.52	367.46
567.68	435.34
567.85	468.11
568.01	369.80
568.17	402.57
568.34	407.25
568.50	421.30
568.66	400.23
568.83	411.93
568.99	386.19
569.15	449.38
569.32	341.72
569.48	369.80
569.64	355.76
569.81	367.46
569.97	458.74
570.13	358.10
570.30	341.72
570.46	402.57
570.62	386.19
570.78	393.21
570.95	418.96
571.11	463.43
571.27	533.64
571.43	414.27
571.60	433.00
571.76	383.85
571.92	428.32
572.09	411.93
572.25	421.30
572.41	449.38
572.57	433.00
572.74	402.57
572.90	454.06
573.06	358.10
573.22	425.98
573.38	566.41
573.55	381.51
573.71	411.93
573.87	367.46
574.03	400.23
574.20	411.93
574.36	404.91
574.52	416.62
574.68	421.30
574.84	407.25
575.01	440.02
575.17	416.62
575.33	402.57
575.49	421.30
575.65	437.68
575.82	414.27
575.98	482.15
576.14	390.87
576.30	407.25
576.46	468.11
576.62	484.49
576.79	428.32
576.95	423.64
577.11	402.57
577.27	433.00
577.43	484.49
577.59	470.45
577.75	491.51
577.92	400.23
578.08	374.49
578.24	449.38
578.40	442.36
578.56	346.40
578.72	470.45
578.88	505.56
579.04	372.15
579.21	388.53
579.37	442.36
579.53	416.62
579.69	463.43
579.85	388.53
580.01	435.34
580.17	383.85
580.33	414.27
580.49	390.87
580.65	435.34
580.82	411.93
580.98	414.27
581.14	458.74
581.30	416.62
581.46	465.77
581.62	454.06
581.78	458.74
581.94	437.68
582.10	400.23
582.26	421.30
582.42	374.49
582.58	407.25
582.74	402.57
582.90	414.27
583.06	430.66
583.22	454.06
583.38	418.96
583.54	411.93
583.70	440.02
583.86	365.12
584.02	456.40
584.18	456.40
584.34	444.70
584.50	362.78
584.66	416.62
584.82	411.93
584.98	379.17
585.14	402.57
585.30	489.17
585.46	372.15
585.62	351.08
585.78	393.21
585.94	400.23
586.10	400.23
586.26	447.04
586.42	435.34
586.58	393.21
586.74	395.55
586.90	390.87
587.06	440.02
587.22	458.74
587.38	440.02
587.54	383.85
587.70	475.13
587.86	440.02
588.02	423.64
588.18	444.70
588.34	416.62
588.49	421.30
588.65	400.23
588.81	472.79
588.97	365.12
589.13	362.78
589.29	435.34
589.45	416.62
589.61	447.04
589.77	437.68
589.93	390.87
590.08	404.91
590.24	425.98
590.40	430.66
590.56	433.00
590.72	393.21
590.88	428.32
591.04	430.66
591.20	409.59
591.35	463.43
591.51	477.47
591.67	365.12
591.83	372.15
591.99	411.93
592.15	428.32
592.31	433.00
592.46	388.53
592.62	383.85
592.78	407.25
592.94	423.64
593.10	337.04
593.26	440.02
593.41	414.27
593.57	407.25
593.73	510.24
593.89	421.30
594.05	372.15
594.20	365.12
594.36	451.72
594.52	365.12
594.68	348.74
594.84	451.72
594.99	472.79
595.15	351.08
595.31	397.89
595.47	416.62
595.62	376.83
595.78	451.72
595.94	369.80
596.10	449.38
596.25	531.30
596.41	461.09
596.57	388.53
596.73	418.96
596.88	437.68
597.04	440.02
597.20	496.19
597.36	428.32
597.51	433.00
597.67	376.83
597.83	383.85
597.99	430.66
598.14	442.36
598.30	475.13
598.46	447.04
598.61	381.51
598.77	423.64
598.93	458.74
599.09	489.17
599.24	482.15
599.40	411.93
599.56	477.47
599.71	411.93
599.87	440.02
600.03	435.34
600.18	468.11
600.34	447.04
600.50	372.15
600.65	416.62
600.81	451.72
600.97	451.72
601.12	491.51
601.28	472.79
601.44	348.74
601.59	409.59
601.75	447.04
601.91	386.19
602.06	437.68
602.22	493.85
602.37	409.59
602.53	409.59
602.69	430.66
602.84	411.93
603.00	428.32
603.16	440.02
603.31	433.00
603.47	355.76
603.62	341.72
603.78	388.53
603.94	381.51
604.09	418.96
604.25	433.00
604.40	386.19
604.56	416.62
604.71	433.00
604.87	395.55
605.03	407.25
605.18	430.66
605.34	470.45
605.49	421.30
605.65	442.36
605.80	449.38
605.96	444.70
606.12	381.51
606.27	404.91
606.43	430.66
606.58	400.23
606.74	486.83
606.89	465.77
607.05	376.83
607.20	395.55
607.36	395.55
607.51	395.55
607.67	458.74
607.82	468.11
607.98	397.89
608.13	440.02
608.29	428.32
608.44	407.25
608.60	468.11
608.75	409.59
608.91	454.06
609.06	430.66
609.22	428.32
609.37	383.85
609.53	433.00
609.68	428.32
609.84	423.64
609.99	386.19
610.15	397.89
