SpectraSuite Data File
++++++++++++++++++++++++++++++++++++
Date: Fri Oct 25 12:10:41 EDT 2013
User: price-jones
Dark Spectrum Present: No
Reference Spectrum Present: No
Number of Sampled Component Spectra: 1
Spectrometers: USB2+H05261
Integration Time (usec): 100000 (USB2+H05261)
Spectra Averaged: 1 (USB2+H05261)
Boxcar Smoothing: 0 (USB2+H05261)
Correct for Electrical Dark: No (USB2+H05261)
Strobe/Lamp Enabled: No (USB2+H05261)
Correct for Detector Non-linearity: No (USB2+H05261)
Correct for Stray Light: No (USB2+H05261)
Number of Pixels in Processed Spectrum: 2048
>>>>>Begin Processed Spectral Data<<<<<
365.73	355.76
365.92	355.76
366.12	355.76
366.32	259.80
366.52	241.08
366.72	259.80
366.91	255.12
367.11	250.44
367.31	266.82
367.51	220.01
367.70	227.03
367.90	189.58
368.10	222.35
368.30	205.97
368.49	231.71
368.69	271.50
368.89	217.67
369.09	264.48
369.28	285.55
369.48	262.14
369.68	269.16
369.87	290.23
370.07	276.18
370.27	332.36
370.47	376.83
370.66	400.23
370.86	404.91
371.06	339.38
371.25	404.91
371.45	337.04
371.65	395.55
371.84	351.08
372.04	351.08
372.24	362.78
372.44	402.57
372.63	423.64
372.83	428.32
373.03	367.46
373.22	386.19
373.42	360.44
373.62	414.27
373.81	379.17
374.01	489.17
374.21	512.58
374.40	416.62
374.60	440.02
374.79	428.32
374.99	477.47
375.19	358.10
375.38	423.64
375.58	465.77
375.78	435.34
375.97	393.21
376.17	402.57
376.37	430.66
376.56	416.62
376.76	402.57
376.95	381.51
377.15	409.59
377.35	418.96
377.54	381.51
377.74	369.80
377.93	418.96
378.13	428.32
378.33	433.00
378.52	390.87
378.72	440.02
378.91	451.72
379.11	428.32
379.31	416.62
379.50	386.19
379.70	461.09
379.89	360.44
380.09	369.80
380.28	402.57
380.48	360.44
380.68	369.80
380.87	390.87
381.07	381.51
381.26	423.64
381.46	388.53
381.65	423.64
381.85	311.29
382.04	355.76
382.24	440.02
382.43	400.23
382.63	358.10
382.83	454.06
383.02	390.87
383.22	397.89
383.41	367.46
383.61	414.27
383.80	386.19
384.00	404.91
384.19	407.25
384.39	400.23
384.58	353.42
384.78	463.43
384.97	414.27
385.17	404.91
385.36	479.81
385.56	449.38
385.75	341.72
385.95	437.68
386.14	418.96
386.34	390.87
386.53	418.96
386.72	381.51
386.92	428.32
387.11	369.80
387.31	423.64
387.50	425.98
387.70	393.21
387.89	393.21
388.09	383.85
388.28	400.23
388.48	351.08
388.67	409.59
388.86	411.93
389.06	374.49
389.25	411.93
389.45	451.72
389.64	421.30
389.84	414.27
390.03	407.25
390.22	393.21
390.42	379.17
390.61	315.97
390.81	435.34
391.00	421.30
391.19	372.15
391.39	458.74
391.58	367.46
391.78	374.49
391.97	425.98
392.16	360.44
392.36	390.87
392.55	390.87
392.75	440.02
392.94	397.89
393.13	402.57
393.33	360.44
393.52	330.02
393.71	421.30
393.91	451.72
394.10	407.25
394.29	332.36
394.49	362.78
394.68	388.53
394.88	376.83
395.07	416.62
395.26	454.06
395.46	404.91
395.65	440.02
395.84	341.72
396.04	465.77
396.23	365.12
396.42	362.78
396.62	388.53
396.81	365.12
397.00	430.66
397.19	402.57
397.39	421.30
397.58	475.13
397.77	444.70
397.97	404.91
398.16	407.25
398.35	404.91
398.55	386.19
398.74	444.70
398.93	381.51
399.12	418.96
399.32	367.46
399.51	414.27
399.70	433.00
399.90	477.47
400.09	418.96
400.28	447.04
400.47	407.25
400.67	465.77
400.86	367.46
401.05	362.78
401.24	433.00
401.44	411.93
401.63	397.89
401.82	409.59
402.01	386.19
402.21	393.21
402.40	433.00
402.59	435.34
402.78	334.70
402.97	346.40
403.17	440.02
403.36	355.76
403.55	423.64
403.74	437.68
403.93	393.21
404.13	402.57
404.32	374.49
404.51	379.17
404.70	440.02
404.89	407.25
405.09	493.85
405.28	362.78
405.47	397.89
405.66	400.23
405.85	435.34
406.05	397.89
406.24	337.04
406.43	437.68
406.62	409.59
406.81	400.23
407.00	402.57
407.20	355.76
407.39	407.25
407.58	442.36
407.77	461.09
407.96	351.08
408.15	465.77
408.34	486.83
408.54	414.27
408.73	440.02
408.92	449.38
409.11	458.74
409.30	393.21
409.49	430.66
409.68	358.10
409.87	430.66
410.07	397.89
410.26	351.08
410.45	430.66
410.64	409.59
410.83	393.21
411.02	383.85
411.21	428.32
411.40	423.64
411.59	404.91
411.78	327.68
411.98	430.66
412.17	447.04
412.36	447.04
412.55	407.25
412.74	449.38
412.93	451.72
413.12	376.83
413.31	390.87
413.50	390.87
413.69	421.30
413.88	411.93
414.07	421.30
414.26	463.43
414.45	423.64
414.64	395.55
414.83	365.12
415.02	374.49
415.22	437.68
415.41	456.40
415.60	416.62
415.79	454.06
415.98	449.38
416.17	395.55
416.36	456.40
416.55	437.68
416.74	404.91
416.93	414.27
417.12	367.46
417.31	404.91
417.50	442.36
417.69	442.36
417.88	444.70
418.07	449.38
418.26	339.38
418.45	437.68
418.64	421.30
418.83	372.15
419.02	463.43
419.21	369.80
419.39	379.17
419.58	507.90
419.77	470.45
419.96	397.89
420.15	334.70
420.34	409.59
420.53	430.66
420.72	454.06
420.91	381.51
421.10	458.74
421.29	428.32
421.48	418.96
421.67	390.87
421.86	465.77
422.05	353.42
422.24	315.97
422.43	430.66
422.61	348.74
422.80	372.15
422.99	465.77
423.18	402.57
423.37	484.49
423.56	383.85
423.75	388.53
423.94	404.91
424.13	463.43
424.32	407.25
424.50	421.30
424.69	433.00
424.88	477.47
425.07	409.59
425.26	311.29
425.45	463.43
425.64	318.31
425.83	407.25
426.01	454.06
426.20	463.43
426.39	407.25
426.58	404.91
426.77	381.51
426.96	416.62
427.15	381.51
427.33	381.51
427.52	451.72
427.71	458.74
427.90	379.17
428.09	376.83
428.28	372.15
428.46	472.79
428.65	416.62
428.84	369.80
429.03	444.70
429.22	379.17
429.40	397.89
429.59	397.89
429.78	418.96
429.97	421.30
430.16	397.89
430.34	360.44
430.53	381.51
430.72	430.66
430.91	372.15
431.10	468.11
431.28	411.93
431.47	411.93
431.66	418.96
431.85	425.98
432.03	397.89
432.22	428.32
432.41	397.89
432.60	428.32
432.79	313.63
432.97	372.15
433.16	332.36
433.35	353.42
433.54	379.17
433.72	416.62
433.91	416.62
434.10	402.57
434.28	388.53
434.47	418.96
434.66	465.77
434.85	428.32
435.03	374.49
435.22	425.98
435.41	404.91
435.59	341.72
435.78	425.98
435.97	386.19
436.16	440.02
436.34	306.61
436.53	308.95
436.72	400.23
436.90	374.49
437.09	404.91
437.28	358.10
437.46	365.12
437.65	449.38
437.84	461.09
438.02	379.17
438.21	425.98
438.40	433.00
438.58	451.72
438.77	442.36
438.96	404.91
439.14	430.66
439.33	374.49
439.52	468.11
439.70	442.36
439.89	411.93
440.08	465.77
440.26	430.66
440.45	425.98
440.63	407.25
440.82	449.38
441.01	383.85
441.19	418.96
441.38	367.46
441.57	447.04
441.75	421.30
441.94	458.74
442.12	362.78
442.31	447.04
442.50	440.02
442.68	355.76
442.87	400.23
443.05	414.27
443.24	433.00
443.43	465.77
443.61	418.96
443.80	372.15
443.98	456.40
444.17	381.51
444.35	397.89
444.54	374.49
444.73	367.46
444.91	433.00
445.10	461.09
445.28	407.25
445.47	407.25
445.65	430.66
445.84	374.49
446.02	404.91
446.21	388.53
446.39	372.15
446.58	454.06
446.77	381.51
446.95	414.27
447.14	341.72
447.32	454.06
447.51	418.96
447.69	423.64
447.88	393.21
448.06	468.11
448.25	388.53
448.43	416.62
448.62	421.30
448.80	400.23
448.99	442.36
449.17	425.98
449.36	440.02
449.54	376.83
449.73	409.59
449.91	442.36
450.10	411.93
450.28	411.93
450.46	468.11
450.65	330.02
450.83	409.59
451.02	383.85
451.20	416.62
451.39	437.68
451.57	447.04
451.76	372.15
451.94	390.87
452.13	425.98
452.31	463.43
452.49	489.17
452.68	365.12
452.86	428.32
453.05	395.55
453.23	386.19
453.42	416.62
453.60	383.85
453.78	465.77
453.97	407.25
454.15	411.93
454.34	416.62
454.52	437.68
454.70	418.96
454.89	416.62
455.07	355.76
455.26	414.27
455.44	404.91
455.62	463.43
455.81	383.85
455.99	374.49
456.17	433.00
456.36	400.23
456.54	383.85
456.73	444.70
456.91	425.98
457.09	395.55
457.28	390.87
457.46	395.55
457.64	402.57
457.83	353.42
458.01	433.00
458.19	418.96
458.38	362.78
458.56	395.55
458.74	322.99
458.93	402.57
459.11	433.00
459.29	379.17
459.48	435.34
459.66	449.38
459.84	416.62
460.03	430.66
460.21	362.78
460.39	360.44
460.57	449.38
460.76	461.09
460.94	496.19
461.12	383.85
461.31	437.68
461.49	353.42
461.67	367.46
461.85	465.77
462.04	414.27
462.22	798.12
462.40	402.57
462.59	458.74
462.77	388.53
462.95	409.59
463.13	425.98
463.32	411.93
463.50	374.49
463.68	433.00
463.86	435.34
464.05	388.53
464.23	397.89
464.41	444.70
464.59	421.30
464.78	468.11
464.96	400.23
465.14	407.25
465.32	409.59
465.50	367.46
465.69	365.12
465.87	414.27
466.05	395.55
466.23	407.25
466.41	404.91
466.60	458.74
466.78	411.93
466.96	449.38
467.14	425.98
467.32	404.91
467.51	409.59
467.69	400.23
467.87	414.27
468.05	409.59
468.23	451.72
468.41	456.40
468.60	337.04
468.78	397.89
468.96	505.56
469.14	416.62
469.32	341.72
469.50	332.36
469.69	428.32
469.87	521.94
470.05	482.15
470.23	362.78
470.41	348.74
470.59	395.55
470.77	430.66
470.95	376.83
471.14	411.93
471.32	360.44
471.50	337.04
471.68	362.78
471.86	346.40
472.04	367.46
472.22	341.72
472.40	351.08
472.58	491.51
472.77	365.12
472.95	407.25
473.13	472.79
473.31	397.89
473.49	374.49
473.67	454.06
473.85	454.06
474.03	470.45
474.21	440.02
474.39	383.85
474.57	393.21
474.75	388.53
474.93	379.17
475.12	358.10
475.30	435.34
475.48	458.74
475.66	386.19
475.84	449.38
476.02	437.68
476.20	409.59
476.38	402.57
476.56	454.06
476.74	407.25
476.92	397.89
477.10	397.89
477.28	447.04
477.46	386.19
477.64	386.19
477.82	381.51
478.00	409.59
478.18	381.51
478.36	468.11
478.54	404.91
478.72	461.09
478.90	409.59
479.08	451.72
479.26	505.56
479.44	409.59
479.62	365.12
479.80	344.06
479.98	395.55
480.16	430.66
480.34	454.06
480.52	395.55
480.70	444.70
480.88	414.27
481.06	383.85
481.24	454.06
481.41	404.91
481.59	372.15
481.77	425.98
481.95	428.32
482.13	514.92
482.31	437.68
482.49	376.83
482.67	325.33
482.85	322.99
483.03	400.23
483.21	386.19
483.39	407.25
483.57	386.19
483.74	468.11
483.92	414.27
484.10	397.89
484.28	418.96
484.46	458.74
484.64	369.80
484.82	400.23
485.00	390.87
485.18	456.40
485.35	447.04
485.53	463.43
485.71	376.83
485.89	423.64
486.07	395.55
486.25	425.98
486.43	416.62
486.61	430.66
486.78	390.87
486.96	376.83
487.14	491.51
487.32	407.25
487.50	428.32
487.68	463.43
487.85	362.78
488.03	414.27
488.21	444.70
488.39	390.87
488.57	433.00
488.75	444.70
488.92	468.11
489.10	456.40
489.28	472.79
489.46	411.93
489.64	447.04
489.81	400.23
489.99	390.87
490.17	400.23
490.35	465.77
490.53	379.17
490.70	486.83
490.88	491.51
491.06	395.55
491.24	416.62
491.41	418.96
491.59	414.27
491.77	374.49
491.95	397.89
492.13	362.78
492.30	386.19
492.48	423.64
492.66	339.38
492.84	409.59
493.01	397.89
493.19	430.66
493.37	433.00
493.54	416.62
493.72	437.68
493.90	355.76
494.08	372.15
494.25	416.62
494.43	428.32
494.61	330.02
494.79	411.93
494.96	372.15
495.14	444.70
495.32	369.80
495.49	390.87
495.67	400.23
495.85	428.32
496.02	402.57
496.20	414.27
496.38	376.83
496.55	395.55
496.73	433.00
496.91	411.93
497.09	430.66
497.26	425.98
497.44	407.25
497.62	451.72
497.79	437.68
497.97	440.02
498.14	425.98
498.32	425.98
498.50	454.06
498.67	423.64
498.85	425.98
499.03	430.66
499.20	344.06
499.38	414.27
499.56	407.25
499.73	404.91
499.91	475.13
500.08	400.23
500.26	437.68
500.44	414.27
500.61	414.27
500.79	388.53
500.97	325.33
501.14	390.87
501.32	458.74
501.49	416.62
501.67	454.06
501.84	421.30
502.02	383.85
502.20	454.06
502.37	461.09
502.55	414.27
502.72	372.15
502.90	470.45
503.07	414.27
503.25	376.83
503.43	383.85
503.60	435.34
503.78	346.40
503.95	428.32
504.13	358.10
504.30	449.38
504.48	493.85
504.65	416.62
504.83	411.93
505.01	404.91
505.18	388.53
505.36	409.59
505.53	362.78
505.71	348.74
505.88	374.49
506.06	365.12
506.23	407.25
506.41	362.78
506.58	376.83
506.76	447.04
506.93	386.19
507.11	451.72
507.28	376.83
507.46	430.66
507.63	362.78
507.81	388.53
507.98	442.36
508.16	388.53
508.33	409.59
508.50	449.38
508.68	440.02
508.85	458.74
509.03	454.06
509.20	416.62
509.38	409.59
509.55	388.53
509.73	440.02
509.90	447.04
510.08	407.25
510.25	461.09
510.42	442.36
510.60	367.46
510.77	468.11
510.95	411.93
511.12	379.17
511.30	430.66
511.47	404.91
511.64	479.81
511.82	397.89
511.99	444.70
512.17	425.98
512.34	454.06
512.51	449.38
512.69	386.19
512.86	418.96
513.04	425.98
513.21	386.19
513.38	418.96
513.56	447.04
513.73	418.96
513.90	393.21
514.08	475.13
514.25	454.06
514.43	465.77
514.60	353.42
514.77	447.04
514.95	393.21
515.12	397.89
515.29	465.77
515.47	369.80
515.64	365.12
515.81	418.96
515.99	435.34
516.16	428.32
516.33	423.64
516.51	397.89
516.68	376.83
516.85	353.42
517.03	425.98
517.20	437.68
517.37	339.38
517.54	437.68
517.72	437.68
517.89	468.11
518.06	376.83
518.24	484.49
518.41	463.43
518.58	463.43
518.75	411.93
518.93	351.08
519.10	365.12
519.27	348.74
519.45	449.38
519.62	451.72
519.79	416.62
519.96	414.27
520.14	435.34
520.31	433.00
520.48	421.30
520.65	379.17
520.83	442.36
521.00	407.25
521.17	442.36
521.34	484.49
521.52	463.43
521.69	423.64
521.86	421.30
522.03	447.04
522.20	479.81
522.38	393.21
522.55	454.06
522.72	442.36
522.89	404.91
523.07	470.45
523.24	348.74
523.41	404.91
523.58	437.68
523.75	402.57
523.92	386.19
524.10	397.89
524.27	374.49
524.44	369.80
524.61	423.64
524.78	437.68
524.96	451.72
525.13	393.21
525.30	449.38
525.47	353.42
525.64	397.89
525.81	381.51
525.98	458.74
526.16	428.32
526.33	416.62
526.50	414.27
526.67	479.81
526.84	386.19
527.01	433.00
527.18	425.98
527.36	404.91
527.53	472.79
527.70	435.34
527.87	468.11
528.04	526.62
528.21	388.53
528.38	440.02
528.55	374.49
528.72	454.06
528.89	519.60
529.07	372.15
529.24	414.27
529.41	355.76
529.58	358.10
529.75	421.30
529.92	444.70
530.09	430.66
530.26	449.38
530.43	447.04
530.60	402.57
530.77	423.64
530.94	346.40
531.11	402.57
531.28	468.11
531.46	425.98
531.63	423.64
531.80	421.30
531.97	379.17
532.14	440.02
532.31	400.23
532.48	479.81
532.65	402.57
532.82	458.74
532.99	437.68
533.16	404.91
533.33	468.11
533.50	440.02
533.67	381.51
533.84	442.36
534.01	451.72
534.18	381.51
534.35	458.74
534.52	421.30
534.69	433.00
534.86	416.62
535.03	390.87
535.20	381.51
535.37	475.13
535.54	400.23
535.71	369.80
535.88	447.04
536.05	330.02
536.22	416.62
536.38	411.93
536.55	393.21
536.72	393.21
536.89	400.23
537.06	407.25
537.23	390.87
537.40	369.80
537.57	428.32
537.74	470.45
537.91	500.87
538.08	411.93
538.25	411.93
538.42	451.72
538.59	411.93
538.75	362.78
538.92	421.30
539.09	447.04
539.26	423.64
539.43	521.94
539.60	425.98
539.77	465.77
539.94	440.02
540.11	477.47
540.28	451.72
540.44	386.19
540.61	421.30
540.78	421.30
540.95	395.55
541.12	393.21
541.29	334.70
541.46	421.30
541.62	414.27
541.79	425.98
541.96	423.64
542.13	449.38
542.30	372.15
542.47	440.02
542.63	440.02
542.80	402.57
542.97	465.77
543.14	430.66
543.31	383.85
543.48	444.70
543.64	470.45
543.81	454.06
543.98	428.32
544.15	339.38
544.32	402.57
544.48	404.91
544.65	383.85
544.82	433.00
544.99	379.17
545.16	442.36
545.32	388.53
545.49	430.66
545.66	421.30
545.83	491.51
546.00	423.64
546.16	404.91
546.33	355.76
546.50	381.51
546.67	395.55
546.83	416.62
547.00	360.44
547.17	393.21
547.34	447.04
547.50	372.15
547.67	369.80
547.84	395.55
548.00	437.68
548.17	409.59
548.34	416.62
548.51	454.06
548.67	414.27
548.84	390.87
549.01	425.98
549.18	358.10
549.34	409.59
549.51	400.23
549.68	425.98
549.84	421.30
550.01	468.11
550.18	461.09
550.34	416.62
550.51	386.19
550.68	468.11
550.84	472.79
551.01	491.51
551.18	418.96
551.34	362.78
551.51	430.66
551.68	463.43
551.84	421.30
552.01	404.91
552.18	411.93
552.34	418.96
552.51	425.98
552.68	409.59
552.84	395.55
553.01	418.96
553.18	367.46
553.34	407.25
553.51	428.32
553.67	463.43
553.84	433.00
554.01	477.47
554.17	397.89
554.34	402.57
554.51	358.10
554.67	430.66
554.84	496.19
555.00	372.15
555.17	423.64
555.33	374.49
555.50	383.85
555.67	421.30
555.83	369.80
556.00	411.93
556.16	571.09
556.33	454.06
556.50	395.55
556.66	421.30
556.83	416.62
556.99	437.68
557.16	496.19
557.32	421.30
557.49	390.87
557.65	395.55
557.82	353.42
557.98	379.17
558.15	418.96
558.32	383.85
558.48	470.45
558.65	416.62
558.81	447.04
558.98	404.91
559.14	428.32
559.31	411.93
559.47	514.92
559.64	414.27
559.80	418.96
559.97	390.87
560.13	325.33
560.30	346.40
560.46	421.30
560.63	463.43
560.79	400.23
560.96	374.49
561.12	402.57
561.29	360.44
561.45	425.98
561.61	440.02
561.78	482.15
561.94	433.00
562.11	468.11
562.27	435.34
562.44	430.66
562.60	465.77
562.77	383.85
562.93	393.21
563.10	442.36
563.26	421.30
563.42	442.36
563.59	407.25
563.75	409.59
563.92	444.70
564.08	437.68
564.24	468.11
564.41	447.04
564.57	407.25
564.74	411.93
564.90	362.78
565.07	397.89
565.23	430.66
565.39	454.06
565.56	430.66
565.72	407.25
565.88	449.38
566.05	477.47
566.21	404.91
566.38	437.68
566.54	404.91
566.70	397.89
566.87	383.85
567.03	428.32
567.19	440.02
567.36	397.89
567.52	393.21
567.68	365.12
567.85	430.66
568.01	395.55
568.17	444.70
568.34	388.53
568.50	400.23
568.66	379.17
568.83	486.83
568.99	428.32
569.15	393.21
569.32	433.00
569.48	376.83
569.64	416.62
569.81	407.25
569.97	470.45
570.13	456.40
570.30	418.96
570.46	440.02
570.62	409.59
570.78	404.91
570.95	355.76
571.11	400.23
571.27	414.27
571.43	414.27
571.60	388.53
571.76	444.70
571.92	428.32
572.09	461.09
572.25	407.25
572.41	458.74
572.57	374.49
572.74	365.12
572.90	437.68
573.06	421.30
573.22	421.30
573.38	404.91
573.55	465.77
573.71	388.53
573.87	351.08
574.03	397.89
574.20	440.02
574.36	402.57
574.52	454.06
574.68	416.62
574.84	444.70
575.01	418.96
575.17	423.64
575.33	428.32
575.49	442.36
575.65	447.04
575.82	372.15
575.98	379.17
576.14	425.98
576.30	416.62
576.46	351.08
576.62	444.70
576.79	393.21
576.95	489.17
577.11	458.74
577.27	416.62
577.43	433.00
577.59	428.32
577.75	437.68
577.92	418.96
578.08	416.62
578.24	411.93
578.40	425.98
578.56	435.34
578.72	451.72
578.88	351.08
579.04	390.87
579.21	444.70
579.37	423.64
579.53	374.49
579.69	411.93
579.85	369.80
580.01	360.44
580.17	379.17
580.33	440.02
580.49	383.85
580.65	421.30
580.82	416.62
580.98	411.93
581.14	463.43
581.30	346.40
581.46	461.09
581.62	428.32
581.78	475.13
581.94	456.40
582.10	301.93
582.26	463.43
582.42	458.74
582.58	482.15
582.74	388.53
582.90	491.51
583.06	407.25
583.22	407.25
583.38	395.55
583.54	428.32
583.70	451.72
583.86	409.59
584.02	397.89
584.18	470.45
584.34	367.46
584.50	437.68
584.66	437.68
584.82	428.32
584.98	418.96
585.14	414.27
585.30	454.06
585.46	470.45
585.62	421.30
585.78	409.59
585.94	470.45
586.10	456.40
586.26	465.77
586.42	351.08
586.58	414.27
586.74	386.19
586.90	430.66
587.06	470.45
587.22	386.19
587.38	428.32
587.54	411.93
587.70	353.42
587.86	414.27
588.02	400.23
588.18	472.79
588.34	470.45
588.49	444.70
588.65	362.78
588.81	379.17
588.97	409.59
589.13	430.66
589.29	360.44
589.45	470.45
589.61	388.53
589.77	435.34
589.93	461.09
590.08	411.93
590.24	421.30
590.40	447.04
590.56	486.83
590.72	444.70
590.88	365.12
591.04	477.47
591.20	367.46
591.35	348.74
591.51	418.96
591.67	355.76
591.83	407.25
591.99	400.23
592.15	414.27
592.31	416.62
592.46	461.09
592.62	545.34
592.78	423.64
592.94	428.32
593.10	442.36
593.26	491.51
593.41	456.40
593.57	428.32
593.73	355.76
593.89	388.53
594.05	402.57
594.20	416.62
594.36	435.34
594.52	430.66
594.68	376.83
594.84	454.06
594.99	400.23
595.15	461.09
595.31	433.00
595.47	442.36
595.62	433.00
595.78	442.36
595.94	351.08
596.10	409.59
596.25	409.59
596.41	463.43
596.57	330.02
596.73	386.19
596.88	423.64
597.04	409.59
597.20	433.00
597.36	416.62
597.51	379.17
597.67	402.57
597.83	458.74
597.99	386.19
598.14	458.74
598.30	444.70
598.46	404.91
598.61	386.19
598.77	468.11
598.93	440.02
599.09	386.19
599.24	456.40
599.40	393.21
599.56	505.56
599.71	402.57
599.87	388.53
600.03	393.21
600.18	475.13
600.34	395.55
600.50	381.51
600.65	433.00
600.81	437.68
600.97	362.78
601.12	416.62
601.28	416.62
601.44	463.43
601.59	360.44
601.75	381.51
601.91	372.15
602.06	435.34
602.22	454.06
602.37	458.74
602.53	423.64
602.69	418.96
602.84	418.96
603.00	367.46
603.16	433.00
603.31	461.09
603.47	409.59
603.62	421.30
603.78	411.93
603.94	418.96
604.09	418.96
604.25	468.11
604.40	414.27
604.56	360.44
604.71	376.83
604.87	430.66
605.03	395.55
605.18	414.27
605.34	423.64
605.49	433.00
605.65	433.00
605.80	414.27
605.96	414.27
606.12	383.85
606.27	395.55
606.43	393.21
606.58	390.87
606.74	409.59
606.89	414.27
607.05	447.04
607.20	425.98
607.36	435.34
607.51	393.21
607.67	400.23
607.82	407.25
607.98	386.19
608.13	400.23
608.29	423.64
608.44	461.09
608.60	395.55
608.75	402.57
608.91	482.15
609.06	475.13
609.22	451.72
609.37	468.11
609.53	402.57
609.68	425.98
609.84	425.98
609.99	395.55
610.15	390.87
