SpectraSuite Data File
++++++++++++++++++++++++++++++++++++
Date: Fri Oct 25 12:10:39 EDT 2013
User: price-jones
Dark Spectrum Present: No
Reference Spectrum Present: No
Number of Sampled Component Spectra: 1
Spectrometers: USB2+H05261
Integration Time (usec): 100000 (USB2+H05261)
Spectra Averaged: 1 (USB2+H05261)
Boxcar Smoothing: 0 (USB2+H05261)
Correct for Electrical Dark: No (USB2+H05261)
Strobe/Lamp Enabled: No (USB2+H05261)
Correct for Detector Non-linearity: No (USB2+H05261)
Correct for Stray Light: No (USB2+H05261)
Number of Pixels in Processed Spectrum: 2048
>>>>>Begin Processed Spectral Data<<<<<
365.73	353.42
365.92	353.42
366.12	353.42
366.32	248.10
366.52	245.76
366.72	252.78
366.91	196.60
367.11	163.84
367.31	191.92
367.51	238.73
367.70	262.14
367.90	264.48
368.10	245.76
368.30	224.69
368.49	177.88
368.69	234.05
368.89	222.35
369.09	245.76
369.28	290.23
369.48	182.56
369.68	327.68
369.87	287.89
370.07	243.42
370.27	358.10
370.47	294.91
370.66	327.68
370.86	334.70
371.06	358.10
371.25	404.91
371.45	376.83
371.65	358.10
371.84	358.10
372.04	341.72
372.24	353.42
372.44	344.06
372.63	337.04
372.83	355.76
373.03	386.19
373.22	400.23
373.42	355.76
373.62	484.49
373.81	423.64
374.01	355.76
374.21	381.51
374.40	411.93
374.60	400.23
374.79	386.19
374.99	388.53
375.19	463.43
375.38	400.23
375.58	440.02
375.78	393.21
375.97	418.96
376.17	484.49
376.37	414.27
376.56	397.89
376.76	390.87
376.95	409.59
377.15	381.51
377.35	421.30
377.54	393.21
377.74	472.79
377.93	411.93
378.13	400.23
378.33	416.62
378.52	400.23
378.72	397.89
378.91	376.83
379.11	376.83
379.31	390.87
379.50	416.62
379.70	388.53
379.89	437.68
380.09	395.55
380.28	463.43
380.48	437.68
380.68	442.36
380.87	365.12
381.07	407.25
381.26	416.62
381.46	407.25
381.65	428.32
381.85	400.23
382.04	367.46
382.24	365.12
382.43	411.93
382.63	374.49
382.83	458.74
383.02	358.10
383.22	402.57
383.41	425.98
383.61	440.02
383.80	430.66
384.00	428.32
384.19	437.68
384.39	397.89
384.58	435.34
384.78	482.15
384.97	351.08
385.17	388.53
385.36	451.72
385.56	409.59
385.75	477.47
385.95	411.93
386.14	437.68
386.34	344.06
386.53	456.40
386.72	444.70
386.92	404.91
387.11	397.89
387.31	461.09
387.50	355.76
387.70	440.02
387.89	463.43
388.09	393.21
388.28	320.65
388.48	372.15
388.67	444.70
388.86	465.77
389.06	416.62
389.25	479.81
389.45	409.59
389.64	388.53
389.84	449.38
390.03	332.36
390.22	393.21
390.42	465.77
390.61	482.15
390.81	367.46
391.00	365.12
391.19	493.85
391.39	409.59
391.58	418.96
391.78	362.78
391.97	381.51
392.16	395.55
392.36	477.47
392.55	409.59
392.75	468.11
392.94	379.17
393.13	440.02
393.33	404.91
393.52	332.36
393.71	430.66
393.91	388.53
394.10	348.74
394.29	393.21
394.49	442.36
394.68	442.36
394.88	388.53
395.07	386.19
395.26	362.78
395.46	365.12
395.65	386.19
395.84	404.91
396.04	379.17
396.23	468.11
396.42	400.23
396.62	372.15
396.81	444.70
397.00	292.57
397.19	358.10
397.39	442.36
397.58	442.36
397.77	386.19
397.97	393.21
398.16	367.46
398.35	383.85
398.55	355.76
398.74	358.10
398.93	468.11
399.12	440.02
399.32	355.76
399.51	451.72
399.70	355.76
399.90	395.55
400.09	381.51
400.28	433.00
400.47	365.12
400.67	414.27
400.86	374.49
401.05	411.93
401.24	423.64
401.44	454.06
401.63	402.57
401.82	435.34
402.01	444.70
402.21	472.79
402.40	430.66
402.59	383.85
402.78	414.27
402.97	404.91
403.17	411.93
403.36	489.17
403.55	360.44
403.74	430.66
403.93	374.49
404.13	414.27
404.32	327.68
404.51	433.00
404.70	404.91
404.89	444.70
405.09	461.09
405.28	383.85
405.47	440.02
405.66	447.04
405.85	421.30
406.05	390.87
406.24	435.34
406.43	388.53
406.62	435.34
406.81	421.30
407.00	402.57
407.20	369.80
407.39	362.78
407.58	393.21
407.77	353.42
407.96	507.90
408.15	449.38
408.34	414.27
408.54	381.51
408.73	411.93
408.92	388.53
409.11	421.30
409.30	369.80
409.49	358.10
409.68	386.19
409.87	425.98
410.07	456.40
410.26	390.87
410.45	402.57
410.64	388.53
410.83	379.17
411.02	409.59
411.21	454.06
411.40	447.04
411.59	425.98
411.78	374.49
411.98	428.32
412.17	341.72
412.36	447.04
412.55	348.74
412.74	425.98
412.93	440.02
413.12	409.59
413.31	449.38
413.50	341.72
413.69	407.25
413.88	440.02
414.07	437.68
414.26	369.80
414.45	393.21
414.64	458.74
414.83	444.70
415.02	374.49
415.22	416.62
415.41	360.44
415.60	372.15
415.79	402.57
415.98	442.36
416.17	393.21
416.36	367.46
416.55	390.87
416.74	411.93
416.93	360.44
417.12	362.78
417.31	390.87
417.50	369.80
417.69	393.21
417.88	411.93
418.07	355.76
418.26	351.08
418.45	440.02
418.64	390.87
418.83	479.81
419.02	360.44
419.21	437.68
419.39	428.32
419.58	353.42
419.77	425.98
419.96	451.72
420.15	470.45
420.34	411.93
420.53	358.10
420.72	369.80
420.91	477.47
421.10	435.34
421.29	381.51
421.48	430.66
421.67	400.23
421.86	397.89
422.05	430.66
422.24	404.91
422.43	451.72
422.61	414.27
422.80	414.27
422.99	404.91
423.18	409.59
423.37	475.13
423.56	383.85
423.75	386.19
423.94	383.85
424.13	451.72
424.32	437.68
424.50	376.83
424.69	383.85
424.88	428.32
425.07	339.38
425.26	360.44
425.45	383.85
425.64	421.30
425.83	400.23
426.01	416.62
426.20	409.59
426.39	388.53
426.58	369.80
426.77	376.83
426.96	442.36
427.15	407.25
427.33	372.15
427.52	397.89
427.71	383.85
427.90	416.62
428.09	421.30
428.28	393.21
428.46	390.87
428.65	458.74
428.84	383.85
429.03	449.38
429.22	369.80
429.40	421.30
429.59	369.80
429.78	376.83
429.97	440.02
430.16	477.47
430.34	442.36
430.53	400.23
430.72	451.72
430.91	482.15
431.10	416.62
431.28	437.68
431.47	451.72
431.66	418.96
431.85	409.59
432.03	379.17
432.22	477.47
432.41	449.38
432.60	461.09
432.79	395.55
432.97	465.77
433.16	433.00
433.35	421.30
433.54	400.23
433.72	376.83
433.91	372.15
434.10	341.72
434.28	423.64
434.47	411.93
434.66	482.15
434.85	430.66
435.03	414.27
435.22	482.15
435.41	461.09
435.59	491.51
435.78	500.87
435.97	454.06
436.16	472.79
436.34	332.36
436.53	390.87
436.72	397.89
436.90	454.06
437.09	379.17
437.28	376.83
437.46	358.10
437.65	458.74
437.84	454.06
438.02	416.62
438.21	351.08
438.40	388.53
438.58	369.80
438.77	409.59
438.96	388.53
439.14	397.89
439.33	442.36
439.52	463.43
439.70	379.17
439.89	451.72
440.08	430.66
440.26	404.91
440.45	430.66
440.63	376.83
440.82	421.30
441.01	400.23
441.19	353.42
441.38	297.25
441.57	393.21
441.75	358.10
441.94	454.06
442.12	393.21
442.31	486.83
442.50	425.98
442.68	397.89
442.87	367.46
443.05	425.98
443.24	421.30
443.43	404.91
443.61	479.81
443.80	411.93
443.98	383.85
444.17	395.55
444.35	461.09
444.54	360.44
444.73	433.00
444.91	433.00
445.10	402.57
445.28	444.70
445.47	386.19
445.65	360.44
445.84	365.12
446.02	454.06
446.21	407.25
446.39	397.89
446.58	437.68
446.77	358.10
446.95	423.64
447.14	418.96
447.32	472.79
447.51	379.17
447.69	341.72
447.88	425.98
448.06	395.55
448.25	416.62
448.43	440.02
448.62	416.62
448.80	433.00
448.99	444.70
449.17	437.68
449.36	369.80
449.54	402.57
449.73	400.23
449.91	468.11
450.10	386.19
450.28	425.98
450.46	470.45
450.65	390.87
450.83	435.34
451.02	416.62
451.20	435.34
451.39	425.98
451.57	388.53
451.76	374.49
451.94	428.32
452.13	400.23
452.31	433.00
452.49	353.42
452.68	425.98
452.86	423.64
453.05	442.36
453.23	449.38
453.42	400.23
453.60	393.21
453.78	400.23
453.97	418.96
454.15	416.62
454.34	379.17
454.52	456.40
454.70	493.85
454.89	470.45
455.07	386.19
455.26	463.43
455.44	486.83
455.62	402.57
455.81	414.27
455.99	379.17
456.17	433.00
456.36	407.25
456.54	421.30
456.73	461.09
456.91	322.99
457.09	447.04
457.28	348.74
457.46	358.10
457.64	374.49
457.83	423.64
458.01	402.57
458.19	444.70
458.38	404.91
458.56	437.68
458.74	383.85
458.93	407.25
459.11	393.21
459.29	425.98
459.48	423.64
459.66	484.49
459.84	388.53
460.03	449.38
460.21	442.36
460.39	369.80
460.57	451.72
460.76	376.83
460.94	395.55
461.12	402.57
461.31	440.02
461.49	400.23
461.67	447.04
461.85	482.15
462.04	416.62
462.22	788.76
462.40	517.26
462.59	447.04
462.77	458.74
462.95	397.89
463.13	355.76
463.32	409.59
463.50	353.42
463.68	404.91
463.86	423.64
464.05	332.36
464.23	458.74
464.41	414.27
464.59	381.51
464.78	423.64
464.96	369.80
465.14	437.68
465.32	365.12
465.50	358.10
465.69	489.17
465.87	351.08
466.05	348.74
466.23	409.59
466.41	393.21
466.60	430.66
466.78	409.59
466.96	362.78
467.14	374.49
467.32	519.60
467.51	425.98
467.69	454.06
467.87	381.51
468.05	440.02
468.23	465.77
468.41	442.36
468.60	386.19
468.78	360.44
468.96	404.91
469.14	390.87
469.32	416.62
469.50	428.32
469.69	414.27
469.87	470.45
470.05	348.74
470.23	411.93
470.41	348.74
470.59	442.36
470.77	496.19
470.95	369.80
471.14	447.04
471.32	440.02
471.50	444.70
471.68	381.51
471.86	440.02
472.04	444.70
472.22	393.21
472.40	362.78
472.58	421.30
472.77	355.76
472.95	362.78
473.13	435.34
473.31	381.51
473.49	322.99
473.67	447.04
473.85	435.34
474.03	435.34
474.21	425.98
474.39	411.93
474.57	430.66
474.75	440.02
474.93	351.08
475.12	416.62
475.30	390.87
475.48	395.55
475.66	369.80
475.84	346.40
476.02	440.02
476.20	400.23
476.38	369.80
476.56	451.72
476.74	449.38
476.92	365.12
477.10	454.06
477.28	425.98
477.46	418.96
477.64	411.93
477.82	376.83
478.00	360.44
478.18	400.23
478.36	461.09
478.54	397.89
478.72	318.31
478.90	390.87
479.08	435.34
479.26	402.57
479.44	428.32
479.62	388.53
479.80	379.17
479.98	372.15
480.16	404.91
480.34	365.12
480.52	409.59
480.70	463.43
480.88	468.11
481.06	440.02
481.24	454.06
481.41	435.34
481.59	421.30
481.77	367.46
481.95	414.27
482.13	500.87
482.31	404.91
482.49	456.40
482.67	435.34
482.85	451.72
483.03	479.81
483.21	369.80
483.39	418.96
483.57	367.46
483.74	486.83
483.92	337.04
484.10	454.06
484.28	421.30
484.46	437.68
484.64	416.62
484.82	301.93
485.00	440.02
485.18	418.96
485.35	444.70
485.53	421.30
485.71	489.17
485.89	402.57
486.07	402.57
486.25	468.11
486.43	416.62
486.61	442.36
486.78	421.30
486.96	409.59
487.14	456.40
487.32	482.15
487.50	379.17
487.68	383.85
487.85	444.70
488.03	491.51
488.21	397.89
488.39	407.25
488.57	362.78
488.75	435.34
488.92	540.66
489.10	519.60
489.28	390.87
489.46	442.36
489.64	409.59
489.81	379.17
489.99	360.44
490.17	414.27
490.35	425.98
490.53	465.77
490.70	418.96
490.88	447.04
491.06	440.02
491.24	390.87
491.41	470.45
491.59	437.68
491.77	400.23
491.95	425.98
492.13	463.43
492.30	407.25
492.48	383.85
492.66	425.98
492.84	472.79
493.01	468.11
493.19	379.17
493.37	402.57
493.54	463.43
493.72	449.38
493.90	393.21
494.08	409.59
494.25	404.91
494.43	451.72
494.61	409.59
494.79	411.93
494.96	362.78
495.14	390.87
495.32	397.89
495.49	381.51
495.67	397.89
495.85	451.72
496.02	409.59
496.20	447.04
496.38	461.09
496.55	435.34
496.73	386.19
496.91	402.57
497.09	318.31
497.26	411.93
497.44	442.36
497.62	414.27
497.79	400.23
497.97	440.02
498.14	444.70
498.32	416.62
498.50	430.66
498.67	414.27
498.85	395.55
499.03	339.38
499.20	381.51
499.38	404.91
499.56	372.15
499.73	440.02
499.91	430.66
500.08	414.27
500.26	428.32
500.44	388.53
500.61	407.25
500.79	461.09
500.97	461.09
501.14	414.27
501.32	430.66
501.49	451.72
501.67	379.17
501.84	379.17
502.02	407.25
502.20	423.64
502.37	484.49
502.55	484.49
502.72	411.93
502.90	411.93
503.07	381.51
503.25	433.00
503.43	365.12
503.60	402.57
503.78	423.64
503.95	461.09
504.13	390.87
504.30	393.21
504.48	440.02
504.65	461.09
504.83	451.72
505.01	353.42
505.18	423.64
505.36	435.34
505.53	442.36
505.71	449.38
505.88	463.43
506.06	393.21
506.23	430.66
506.41	358.10
506.58	428.32
506.76	390.87
506.93	393.21
507.11	442.36
507.28	386.19
507.46	386.19
507.63	402.57
507.81	390.87
507.98	390.87
508.16	351.08
508.33	423.64
508.50	449.38
508.68	440.02
508.85	344.06
509.03	400.23
509.20	383.85
509.38	369.80
509.55	514.92
509.73	409.59
509.90	449.38
510.08	414.27
510.25	442.36
510.42	440.02
510.60	470.45
510.77	470.45
510.95	458.74
511.12	503.22
511.30	414.27
511.47	435.34
511.64	484.49
511.82	418.96
511.99	456.40
512.17	374.49
512.34	374.49
512.51	400.23
512.69	409.59
512.86	524.28
513.04	407.25
513.21	379.17
513.38	421.30
513.56	374.49
513.73	425.98
513.90	493.85
514.08	440.02
514.25	381.51
514.43	433.00
514.60	397.89
514.77	463.43
514.95	400.23
515.12	414.27
515.29	381.51
515.47	355.76
515.64	421.30
515.81	423.64
515.99	369.80
516.16	447.04
516.33	402.57
516.51	430.66
516.68	400.23
516.85	393.21
517.03	421.30
517.20	400.23
517.37	414.27
517.54	414.27
517.72	472.79
517.89	442.36
518.06	444.70
518.24	465.77
518.41	433.00
518.58	447.04
518.75	414.27
518.93	421.30
519.10	386.19
519.27	418.96
519.45	442.36
519.62	411.93
519.79	440.02
519.96	322.99
520.14	402.57
520.31	430.66
520.48	414.27
520.65	454.06
520.83	442.36
521.00	468.11
521.17	435.34
521.34	351.08
521.52	395.55
521.69	418.96
521.86	400.23
522.03	425.98
522.20	470.45
522.38	409.59
522.55	355.76
522.72	404.91
522.89	418.96
523.07	496.19
523.24	454.06
523.41	397.89
523.58	512.58
523.75	500.87
523.92	374.49
524.10	395.55
524.27	393.21
524.44	472.79
524.61	435.34
524.78	390.87
524.96	433.00
525.13	433.00
525.30	451.72
525.47	351.08
525.64	414.27
525.81	428.32
525.98	442.36
526.16	393.21
526.33	404.91
526.50	479.81
526.67	437.68
526.84	416.62
527.01	411.93
527.18	409.59
527.36	379.17
527.53	423.64
527.70	440.02
527.87	397.89
528.04	430.66
528.21	461.09
528.38	416.62
528.55	421.30
528.72	353.42
528.89	510.24
529.07	404.91
529.24	383.85
529.41	418.96
529.58	472.79
529.75	423.64
529.92	425.98
530.09	437.68
530.26	421.30
530.43	355.76
530.60	463.43
530.77	440.02
530.94	465.77
531.11	418.96
531.28	449.38
531.46	383.85
531.63	433.00
531.80	341.72
531.97	451.72
532.14	407.25
532.31	379.17
532.48	376.83
532.65	411.93
532.82	404.91
532.99	365.12
533.16	386.19
533.33	503.22
533.50	346.40
533.67	325.33
533.84	313.63
534.01	393.21
534.18	348.74
534.35	456.40
534.52	428.32
534.69	468.11
534.86	402.57
535.03	388.53
535.20	451.72
535.37	437.68
535.54	383.85
535.71	430.66
535.88	407.25
536.05	433.00
536.22	435.34
536.38	367.46
536.55	395.55
536.72	428.32
536.89	397.89
537.06	444.70
537.23	433.00
537.40	451.72
537.57	428.32
537.74	442.36
537.91	451.72
538.08	376.83
538.25	437.68
538.42	393.21
538.59	393.21
538.75	388.53
538.92	358.10
539.09	472.79
539.26	395.55
539.43	414.27
539.60	414.27
539.77	421.30
539.94	418.96
540.11	327.68
540.28	470.45
540.44	411.93
540.61	358.10
540.78	404.91
540.95	395.55
541.12	437.68
541.29	390.87
541.46	444.70
541.62	404.91
541.79	421.30
541.96	414.27
542.13	454.06
542.30	367.46
542.47	409.59
542.63	367.46
542.80	435.34
542.97	442.36
543.14	374.49
543.31	433.00
543.48	428.32
543.64	423.64
543.81	409.59
543.98	358.10
544.15	386.19
544.32	433.00
544.48	351.08
544.65	421.30
544.82	374.49
544.99	461.09
545.16	435.34
545.32	397.89
545.49	393.21
545.66	444.70
545.83	393.21
546.00	360.44
546.16	423.64
546.33	379.17
546.50	444.70
546.67	468.11
546.83	514.92
547.00	491.51
547.17	456.40
547.34	470.45
547.50	447.04
547.67	386.19
547.84	418.96
548.00	418.96
548.17	381.51
548.34	428.32
548.51	458.74
548.67	416.62
548.84	428.32
549.01	456.40
549.18	418.96
549.34	372.15
549.51	400.23
549.68	500.87
549.84	437.68
550.01	411.93
550.18	470.45
550.34	507.90
550.51	430.66
550.68	421.30
550.84	414.27
551.01	442.36
551.18	433.00
551.34	416.62
551.51	351.08
551.68	430.66
551.84	407.25
552.01	407.25
552.18	388.53
552.34	425.98
552.51	404.91
552.68	383.85
552.84	416.62
553.01	416.62
553.18	414.27
553.34	390.87
553.51	393.21
553.67	458.74
553.84	521.94
554.01	379.17
554.17	463.43
554.34	421.30
554.51	411.93
554.67	367.46
554.84	463.43
555.00	430.66
555.17	365.12
555.33	423.64
555.50	468.11
555.67	430.66
555.83	344.06
556.00	416.62
556.16	603.86
556.33	402.57
556.50	433.00
556.66	351.08
556.83	414.27
556.99	421.30
557.16	428.32
557.32	372.15
557.49	416.62
557.65	372.15
557.82	444.70
557.98	489.17
558.15	454.06
558.32	451.72
558.48	393.21
558.65	372.15
558.81	486.83
558.98	400.23
559.14	430.66
559.31	456.40
559.47	393.21
559.64	442.36
559.80	468.11
559.97	376.83
560.13	372.15
560.30	409.59
560.46	395.55
560.63	451.72
560.79	425.98
560.96	386.19
561.12	425.98
561.29	430.66
561.45	458.74
561.61	500.87
561.78	449.38
561.94	458.74
562.11	484.49
562.27	421.30
562.44	440.02
562.60	433.00
562.77	407.25
562.93	454.06
563.10	416.62
563.26	425.98
563.42	418.96
563.59	458.74
563.75	421.30
563.92	430.66
564.08	428.32
564.24	442.36
564.41	507.90
564.57	386.19
564.74	388.53
564.90	425.98
565.07	411.93
565.23	444.70
565.39	414.27
565.56	437.68
565.72	402.57
565.88	425.98
566.05	369.80
566.21	397.89
566.38	421.30
566.54	472.79
566.70	472.79
566.87	461.09
567.03	418.96
567.19	524.28
567.36	428.32
567.52	433.00
567.68	390.87
567.85	395.55
568.01	383.85
568.17	397.89
568.34	346.40
568.50	484.49
568.66	365.12
568.83	447.04
568.99	395.55
569.15	470.45
569.32	430.66
569.48	418.96
569.64	428.32
569.81	423.64
569.97	369.80
570.13	454.06
570.30	440.02
570.46	440.02
570.62	454.06
570.78	407.25
570.95	402.57
571.11	421.30
571.27	535.98
571.43	437.68
571.60	442.36
571.76	456.40
571.92	416.62
572.09	521.94
572.25	454.06
572.41	404.91
572.57	397.89
572.74	372.15
572.90	404.91
573.06	416.62
573.22	475.13
573.38	428.32
573.55	447.04
573.71	414.27
573.87	454.06
574.03	395.55
574.20	421.30
574.36	440.02
574.52	390.87
574.68	428.32
574.84	435.34
575.01	411.93
575.17	442.36
575.33	428.32
575.49	442.36
575.65	440.02
575.82	465.77
575.98	386.19
576.14	458.74
576.30	435.34
576.46	407.25
576.62	463.43
576.79	407.25
576.95	423.64
577.11	416.62
577.27	390.87
577.43	440.02
577.59	409.59
577.75	358.10
577.92	407.25
578.08	365.12
578.24	376.83
578.40	477.47
578.56	330.02
578.72	444.70
578.88	486.83
579.04	400.23
579.21	388.53
579.37	437.68
579.53	383.85
579.69	430.66
579.85	409.59
580.01	447.04
580.17	463.43
580.33	383.85
580.49	449.38
580.65	437.68
580.82	433.00
580.98	414.27
581.14	400.23
581.30	437.68
581.46	423.64
581.62	454.06
581.78	379.17
581.94	486.83
582.10	379.17
582.26	430.66
582.42	414.27
582.58	402.57
582.74	411.93
582.90	428.32
583.06	451.72
583.22	411.93
583.38	442.36
583.54	315.97
583.70	348.74
583.86	475.13
584.02	402.57
584.18	386.19
584.34	404.91
584.50	451.72
584.66	437.68
584.82	454.06
584.98	397.89
585.14	414.27
585.30	414.27
585.46	414.27
585.62	367.46
585.78	351.08
585.94	444.70
586.10	402.57
586.26	435.34
586.42	397.89
586.58	351.08
586.74	430.66
586.90	458.74
587.06	461.09
587.22	444.70
587.38	407.25
587.54	404.91
587.70	400.23
587.86	411.93
588.02	414.27
588.18	444.70
588.34	381.51
588.49	454.06
588.65	411.93
588.81	395.55
588.97	402.57
589.13	430.66
589.29	358.10
589.45	447.04
589.61	411.93
589.77	393.21
589.93	374.49
590.08	430.66
590.24	428.32
590.40	409.59
590.56	463.43
590.72	456.40
590.88	440.02
591.04	301.93
591.20	440.02
591.35	451.72
591.51	456.40
591.67	397.89
591.83	372.15
591.99	395.55
592.15	442.36
592.31	386.19
592.46	416.62
592.62	444.70
592.78	425.98
592.94	407.25
593.10	372.15
593.26	428.32
593.41	407.25
593.57	381.51
593.73	369.80
593.89	449.38
594.05	386.19
594.20	409.59
594.36	402.57
594.52	421.30
594.68	393.21
594.84	418.96
594.99	416.62
595.15	437.68
595.31	451.72
595.47	489.17
595.62	458.74
595.78	402.57
595.94	414.27
596.10	444.70
596.25	388.53
596.41	468.11
596.57	437.68
596.73	416.62
596.88	442.36
597.04	470.45
597.20	365.12
597.36	411.93
597.51	440.02
597.67	372.15
597.83	447.04
597.99	486.83
598.14	421.30
598.30	423.64
598.46	346.40
598.61	409.59
598.77	468.11
598.93	435.34
599.09	456.40
599.24	500.87
599.40	475.13
599.56	440.02
599.71	390.87
599.87	369.80
600.03	451.72
600.18	454.06
600.34	393.21
600.50	411.93
600.65	433.00
600.81	482.15
600.97	451.72
601.12	418.96
601.28	428.32
601.44	444.70
601.59	404.91
601.75	400.23
601.91	442.36
602.06	409.59
602.22	430.66
602.37	397.89
602.53	367.46
602.69	397.89
602.84	400.23
603.00	402.57
603.16	390.87
603.31	451.72
603.47	393.21
603.62	372.15
603.78	376.83
603.94	505.56
604.09	507.90
604.25	400.23
604.40	449.38
604.56	433.00
604.71	414.27
604.87	386.19
605.03	425.98
605.18	395.55
605.34	388.53
605.49	372.15
605.65	381.51
605.80	376.83
605.96	374.49
606.12	472.79
606.27	449.38
606.43	379.17
606.58	444.70
606.74	411.93
606.89	425.98
607.05	414.27
607.20	367.46
607.36	477.47
607.51	458.74
607.67	353.42
607.82	395.55
607.98	421.30
608.13	395.55
608.29	404.91
608.44	491.51
608.60	416.62
608.75	367.46
608.91	493.85
609.06	440.02
609.22	325.33
609.37	423.64
609.53	346.40
609.68	449.38
609.84	411.93
609.99	465.77
610.15	428.32
