SpectraSuite Data File
++++++++++++++++++++++++++++++++++++
Date: Fri Oct 25 12:10:57 EDT 2013
User: price-jones
Dark Spectrum Present: No
Reference Spectrum Present: No
Number of Sampled Component Spectra: 1
Spectrometers: USB2+H05261
Integration Time (usec): 100000 (USB2+H05261)
Spectra Averaged: 1 (USB2+H05261)
Boxcar Smoothing: 0 (USB2+H05261)
Correct for Electrical Dark: No (USB2+H05261)
Strobe/Lamp Enabled: No (USB2+H05261)
Correct for Detector Non-linearity: No (USB2+H05261)
Correct for Stray Light: No (USB2+H05261)
Number of Pixels in Processed Spectrum: 2048
>>>>>Begin Processed Spectral Data<<<<<
365.73	346.40
365.92	346.40
366.12	346.40
366.32	231.71
366.52	191.92
366.72	198.95
366.91	287.89
367.11	299.59
367.31	276.18
367.51	255.12
367.70	264.48
367.90	262.14
368.10	238.73
368.30	215.33
368.49	306.61
368.69	257.46
368.89	236.39
369.09	236.39
369.28	308.95
369.48	257.46
369.68	266.82
369.87	313.63
370.07	306.61
370.27	313.63
370.47	294.91
370.66	278.52
370.86	369.80
371.06	404.91
371.25	346.40
371.45	351.08
371.65	376.83
371.84	355.76
372.04	358.10
372.24	379.17
372.44	428.32
372.63	472.79
372.83	411.93
373.03	437.68
373.22	369.80
373.42	486.83
373.62	416.62
373.81	423.64
374.01	421.30
374.21	477.47
374.40	397.89
374.60	379.17
374.79	404.91
374.99	447.04
375.19	444.70
375.38	421.30
375.58	451.72
375.78	442.36
375.97	477.47
376.17	435.34
376.37	449.38
376.56	376.83
376.76	381.51
376.95	454.06
377.15	435.34
377.35	416.62
377.54	390.87
377.74	463.43
377.93	463.43
378.13	355.76
378.33	423.64
378.52	383.85
378.72	414.27
378.91	351.08
379.11	351.08
379.31	421.30
379.50	341.72
379.70	379.17
379.89	409.59
380.09	425.98
380.28	423.64
380.48	409.59
380.68	393.21
380.87	409.59
381.07	388.53
381.26	458.74
381.46	383.85
381.65	423.64
381.85	447.04
382.04	414.27
382.24	456.40
382.43	344.06
382.63	360.44
382.83	428.32
383.02	475.13
383.22	409.59
383.41	456.40
383.61	458.74
383.80	402.57
384.00	479.81
384.19	411.93
384.39	454.06
384.58	421.30
384.78	409.59
384.97	402.57
385.17	428.32
385.36	386.19
385.56	489.17
385.75	379.17
385.95	397.89
386.14	447.04
386.34	409.59
386.53	414.27
386.72	468.11
386.92	388.53
387.11	440.02
387.31	423.64
387.50	409.59
387.70	428.32
387.89	433.00
388.09	409.59
388.28	477.47
388.48	339.38
388.67	465.77
388.86	386.19
389.06	425.98
389.25	428.32
389.45	374.49
389.64	339.38
389.84	435.34
390.03	468.11
390.22	402.57
390.42	341.72
390.61	451.72
390.81	367.46
391.00	402.57
391.19	395.55
391.39	402.57
391.58	402.57
391.78	390.87
391.97	440.02
392.16	374.49
392.36	362.78
392.55	486.83
392.75	358.10
392.94	418.96
393.13	376.83
393.33	414.27
393.52	369.80
393.71	400.23
393.91	414.27
394.10	444.70
394.29	421.30
394.49	416.62
394.68	365.12
394.88	440.02
395.07	397.89
395.26	442.36
395.46	447.04
395.65	397.89
395.84	482.15
396.04	489.17
396.23	444.70
396.42	360.44
396.62	397.89
396.81	425.98
397.00	451.72
397.19	456.40
397.39	442.36
397.58	440.02
397.77	374.49
397.97	414.27
398.16	372.15
398.35	416.62
398.55	435.34
398.74	425.98
398.93	390.87
399.12	320.65
399.32	475.13
399.51	365.12
399.70	428.32
399.90	437.68
400.09	334.70
400.28	407.25
400.47	330.02
400.67	500.87
400.86	407.25
401.05	440.02
401.24	414.27
401.44	421.30
401.63	379.17
401.82	468.11
402.01	374.49
402.21	444.70
402.40	383.85
402.59	433.00
402.78	433.00
402.97	444.70
403.17	395.55
403.36	421.30
403.55	461.09
403.74	458.74
403.93	351.08
404.13	421.30
404.32	360.44
404.51	433.00
404.70	458.74
404.89	428.32
405.09	425.98
405.28	433.00
405.47	376.83
405.66	376.83
405.85	435.34
406.05	454.06
406.24	355.76
406.43	437.68
406.62	468.11
406.81	416.62
407.00	393.21
407.20	456.40
407.39	379.17
407.58	367.46
407.77	475.13
407.96	437.68
408.15	463.43
408.34	505.56
408.54	409.59
408.73	395.55
408.92	430.66
409.11	444.70
409.30	400.23
409.49	484.49
409.68	390.87
409.87	442.36
410.07	397.89
410.26	358.10
410.45	491.51
410.64	402.57
410.83	409.59
411.02	447.04
411.21	402.57
411.40	388.53
411.59	411.93
411.78	411.93
411.98	388.53
412.17	416.62
412.36	360.44
412.55	397.89
412.74	395.55
412.93	449.38
413.12	400.23
413.31	421.30
413.50	430.66
413.69	425.98
413.88	409.59
414.07	493.85
414.26	390.87
414.45	423.64
414.64	435.34
414.83	421.30
415.02	465.77
415.22	369.80
415.41	411.93
415.60	308.95
415.79	372.15
415.98	430.66
416.17	393.21
416.36	435.34
416.55	449.38
416.74	379.17
416.93	449.38
417.12	521.94
417.31	379.17
417.50	409.59
417.69	451.72
417.88	372.15
418.07	386.19
418.26	393.21
418.45	372.15
418.64	395.55
418.83	435.34
419.02	493.85
419.21	369.80
419.39	479.81
419.58	440.02
419.77	393.21
419.96	344.06
420.15	344.06
420.34	430.66
420.53	470.45
420.72	395.55
420.91	381.51
421.10	397.89
421.29	411.93
421.48	447.04
421.67	418.96
421.86	447.04
422.05	472.79
422.24	444.70
422.43	407.25
422.61	440.02
422.80	411.93
422.99	416.62
423.18	358.10
423.37	390.87
423.56	374.49
423.75	339.38
423.94	360.44
424.13	409.59
424.32	430.66
424.50	393.21
424.69	367.46
424.88	430.66
425.07	381.51
425.26	390.87
425.45	430.66
425.64	395.55
425.83	330.02
426.01	411.93
426.20	414.27
426.39	414.27
426.58	402.57
426.77	414.27
426.96	397.89
427.15	381.51
427.33	440.02
427.52	428.32
427.71	414.27
427.90	381.51
428.09	423.64
428.28	372.15
428.46	416.62
428.65	493.85
428.84	390.87
429.03	496.19
429.22	444.70
429.40	500.87
429.59	400.23
429.78	358.10
429.97	421.30
430.16	402.57
430.34	393.21
430.53	468.11
430.72	418.96
430.91	358.10
431.10	346.40
431.28	442.36
431.47	430.66
431.66	383.85
431.85	341.72
432.03	320.65
432.22	486.83
432.41	423.64
432.60	414.27
432.79	360.44
432.97	435.34
433.16	379.17
433.35	313.63
433.54	362.78
433.72	393.21
433.91	395.55
434.10	379.17
434.28	390.87
434.47	418.96
434.66	440.02
434.85	400.23
435.03	421.30
435.22	505.56
435.41	411.93
435.59	381.51
435.78	397.89
435.97	440.02
436.16	428.32
436.34	421.30
436.53	414.27
436.72	484.49
436.90	388.53
437.09	386.19
437.28	433.00
437.46	411.93
437.65	428.32
437.84	498.53
438.02	440.02
438.21	374.49
438.40	390.87
438.58	395.55
438.77	393.21
438.96	397.89
439.14	451.72
439.33	479.81
439.52	400.23
439.70	411.93
439.89	400.23
440.08	428.32
440.26	395.55
440.45	444.70
440.63	404.91
440.82	428.32
441.01	470.45
441.19	414.27
441.38	407.25
441.57	353.42
441.75	444.70
441.94	440.02
442.12	414.27
442.31	397.89
442.50	393.21
442.68	430.66
442.87	416.62
443.05	407.25
443.24	526.62
443.43	437.68
443.61	493.85
443.80	379.17
443.98	463.43
444.17	411.93
444.35	423.64
444.54	444.70
444.73	341.72
444.91	440.02
445.10	430.66
445.28	395.55
445.47	386.19
445.65	437.68
445.84	418.96
446.02	374.49
446.21	395.55
446.39	500.87
446.58	425.98
446.77	442.36
446.95	444.70
447.14	386.19
447.32	461.09
447.51	393.21
447.69	390.87
447.88	437.68
448.06	437.68
448.25	440.02
448.43	458.74
448.62	409.59
448.80	418.96
448.99	479.81
449.17	400.23
449.36	327.68
449.54	418.96
449.73	390.87
449.91	442.36
450.10	360.44
450.28	482.15
450.46	465.77
450.65	458.74
450.83	332.36
451.02	407.25
451.20	437.68
451.39	360.44
451.57	381.51
451.76	407.25
451.94	437.68
452.13	421.30
452.31	470.45
452.49	435.34
452.68	348.74
452.86	344.06
453.05	444.70
453.23	440.02
453.42	393.21
453.60	423.64
453.78	351.08
453.97	381.51
454.15	390.87
454.34	388.53
454.52	395.55
454.70	461.09
454.89	411.93
455.07	390.87
455.26	416.62
455.44	433.00
455.62	444.70
455.81	468.11
455.99	416.62
456.17	456.40
456.36	440.02
456.54	379.17
456.73	425.98
456.91	440.02
457.09	463.43
457.28	444.70
457.46	477.47
457.64	428.32
457.83	416.62
458.01	409.59
458.19	433.00
458.38	444.70
458.56	411.93
458.74	393.21
458.93	440.02
459.11	348.74
459.29	407.25
459.48	386.19
459.66	418.96
459.84	519.60
460.03	428.32
460.21	393.21
460.39	365.12
460.57	507.90
460.76	449.38
460.94	463.43
461.12	433.00
461.31	416.62
461.49	418.96
461.67	468.11
461.85	407.25
462.04	465.77
462.22	809.83
462.40	402.57
462.59	360.44
462.77	383.85
462.95	449.38
463.13	433.00
463.32	421.30
463.50	440.02
463.68	414.27
463.86	526.62
464.05	374.49
464.23	388.53
464.41	411.93
464.59	407.25
464.78	372.15
464.96	437.68
465.14	400.23
465.32	351.08
465.50	425.98
465.69	472.79
465.87	416.62
466.05	402.57
466.23	444.70
466.41	479.81
466.60	440.02
466.78	386.19
466.96	454.06
467.14	381.51
467.32	465.77
467.51	407.25
467.69	435.34
467.87	390.87
468.05	355.76
468.23	402.57
468.41	425.98
468.60	397.89
468.78	470.45
468.96	524.28
469.14	468.11
469.32	386.19
469.50	430.66
469.69	428.32
469.87	425.98
470.05	407.25
470.23	468.11
470.41	414.27
470.59	463.43
470.77	521.94
470.95	390.87
471.14	407.25
471.32	381.51
471.50	482.15
471.68	402.57
471.86	404.91
472.04	397.89
472.22	381.51
472.40	393.21
472.58	440.02
472.77	409.59
472.95	433.00
473.13	451.72
473.31	451.72
473.49	381.51
473.67	404.91
473.85	463.43
474.03	454.06
474.21	425.98
474.39	393.21
474.57	409.59
474.75	414.27
474.93	414.27
475.12	395.55
475.30	447.04
475.48	468.11
475.66	433.00
475.84	451.72
476.02	369.80
476.20	395.55
476.38	390.87
476.56	411.93
476.74	428.32
476.92	442.36
477.10	444.70
477.28	404.91
477.46	376.83
477.64	470.45
477.82	435.34
478.00	407.25
478.18	442.36
478.36	477.47
478.54	454.06
478.72	444.70
478.90	423.64
479.08	470.45
479.26	437.68
479.44	346.40
479.62	461.09
479.80	409.59
479.98	447.04
480.16	416.62
480.34	416.62
480.52	416.62
480.70	386.19
480.88	496.19
481.06	404.91
481.24	400.23
481.41	440.02
481.59	507.90
481.77	416.62
481.95	402.57
482.13	425.98
482.31	430.66
482.49	423.64
482.67	411.93
482.85	430.66
483.03	369.80
483.21	423.64
483.39	454.06
483.57	365.12
483.74	477.47
483.92	425.98
484.10	407.25
484.28	421.30
484.46	540.66
484.64	416.62
484.82	428.32
485.00	353.42
485.18	435.34
485.35	383.85
485.53	428.32
485.71	395.55
485.89	430.66
486.07	423.64
486.25	456.40
486.43	475.13
486.61	507.90
486.78	393.21
486.96	348.74
487.14	423.64
487.32	465.77
487.50	465.77
487.68	458.74
487.85	381.51
488.03	409.59
488.21	334.70
488.39	423.64
488.57	440.02
488.75	435.34
488.92	484.49
489.10	397.89
489.28	440.02
489.46	367.46
489.64	425.98
489.81	468.11
489.99	379.17
490.17	433.00
490.35	428.32
490.53	430.66
490.70	395.55
490.88	468.11
491.06	435.34
491.24	430.66
491.41	468.11
491.59	475.13
491.77	428.32
491.95	447.04
492.13	430.66
492.30	416.62
492.48	433.00
492.66	437.68
492.84	325.33
493.01	458.74
493.19	428.32
493.37	423.64
493.54	447.04
493.72	437.68
493.90	411.93
494.08	374.49
494.25	435.34
494.43	411.93
494.61	393.21
494.79	470.45
494.96	430.66
495.14	365.12
495.32	435.34
495.49	400.23
495.67	456.40
495.85	383.85
496.02	414.27
496.20	475.13
496.38	451.72
496.55	367.46
496.73	428.32
496.91	456.40
497.09	393.21
497.26	437.68
497.44	393.21
497.62	402.57
497.79	477.47
497.97	393.21
498.14	416.62
498.32	383.85
498.50	423.64
498.67	472.79
498.85	449.38
499.03	479.81
499.20	416.62
499.38	411.93
499.56	409.59
499.73	493.85
499.91	451.72
500.08	388.53
500.26	407.25
500.44	322.99
500.61	397.89
500.79	423.64
500.97	355.76
501.14	390.87
501.32	430.66
501.49	447.04
501.67	463.43
501.84	433.00
502.02	425.98
502.20	409.59
502.37	463.43
502.55	430.66
502.72	428.32
502.90	465.77
503.07	402.57
503.25	374.49
503.43	416.62
503.60	409.59
503.78	435.34
503.95	374.49
504.13	425.98
504.30	332.36
504.48	482.15
504.65	451.72
504.83	461.09
505.01	358.10
505.18	437.68
505.36	425.98
505.53	404.91
505.71	444.70
505.88	498.53
506.06	414.27
506.23	465.77
506.41	346.40
506.58	428.32
506.76	353.42
506.93	346.40
507.11	503.22
507.28	409.59
507.46	458.74
507.63	400.23
507.81	414.27
507.98	470.45
508.16	353.42
508.33	477.47
508.50	369.80
508.68	458.74
508.85	449.38
509.03	430.66
509.20	435.34
509.38	440.02
509.55	456.40
509.73	458.74
509.90	463.43
510.08	526.62
510.25	416.62
510.42	440.02
510.60	493.85
510.77	463.43
510.95	470.45
511.12	456.40
511.30	440.02
511.47	454.06
511.64	484.49
511.82	456.40
511.99	393.21
512.17	411.93
512.34	428.32
512.51	465.77
512.69	428.32
512.86	442.36
513.04	365.12
513.21	416.62
513.38	409.59
513.56	470.45
513.73	390.87
513.90	395.55
514.08	423.64
514.25	402.57
514.43	379.17
514.60	344.06
514.77	472.79
514.95	411.93
515.12	393.21
515.29	505.56
515.47	379.17
515.64	451.72
515.81	418.96
515.99	393.21
516.16	397.89
516.33	454.06
516.51	409.59
516.68	407.25
516.85	521.94
517.03	395.55
517.20	360.44
517.37	388.53
517.54	435.34
517.72	381.51
517.89	320.65
518.06	447.04
518.24	493.85
518.41	507.90
518.58	524.28
518.75	454.06
518.93	430.66
519.10	496.19
519.27	411.93
519.45	376.83
519.62	409.59
519.79	395.55
519.96	472.79
520.14	470.45
520.31	428.32
520.48	421.30
520.65	442.36
520.83	451.72
521.00	435.34
521.17	411.93
521.34	374.49
521.52	402.57
521.69	449.38
521.86	386.19
522.03	411.93
522.20	479.81
522.38	374.49
522.55	409.59
522.72	484.49
522.89	447.04
523.07	409.59
523.24	416.62
523.41	381.51
523.58	379.17
523.75	386.19
523.92	461.09
524.10	449.38
524.27	369.80
524.44	411.93
524.61	374.49
524.78	400.23
524.96	437.68
525.13	404.91
525.30	451.72
525.47	440.02
525.64	470.45
525.81	402.57
525.98	465.77
526.16	390.87
526.33	461.09
526.50	360.44
526.67	468.11
526.84	390.87
527.01	379.17
527.18	463.43
527.36	465.77
527.53	388.53
527.70	465.77
527.87	449.38
528.04	423.64
528.21	425.98
528.38	477.47
528.55	463.43
528.72	402.57
528.89	430.66
529.07	437.68
529.24	374.49
529.41	447.04
529.58	461.09
529.75	458.74
529.92	402.57
530.09	372.15
530.26	461.09
530.43	454.06
530.60	425.98
530.77	472.79
530.94	458.74
531.11	428.32
531.28	367.46
531.46	468.11
531.63	449.38
531.80	414.27
531.97	402.57
532.14	383.85
532.31	353.42
532.48	367.46
532.65	456.40
532.82	407.25
532.99	442.36
533.16	425.98
533.33	388.53
533.50	482.15
533.67	482.15
533.84	381.51
534.01	425.98
534.18	451.72
534.35	458.74
534.52	414.27
534.69	414.27
534.86	425.98
535.03	376.83
535.20	477.47
535.37	442.36
535.54	428.32
535.71	376.83
535.88	454.06
536.05	395.55
536.22	444.70
536.38	458.74
536.55	404.91
536.72	456.40
536.89	421.30
537.06	348.74
537.23	341.72
537.40	463.43
537.57	360.44
537.74	477.47
537.91	421.30
538.08	440.02
538.25	416.62
538.42	440.02
538.59	407.25
538.75	428.32
538.92	437.68
539.09	416.62
539.26	421.30
539.43	505.56
539.60	507.90
539.77	421.30
539.94	423.64
540.11	369.80
540.28	461.09
540.44	388.53
540.61	393.21
540.78	423.64
540.95	451.72
541.12	407.25
541.29	360.44
541.46	416.62
541.62	428.32
541.79	374.49
541.96	339.38
542.13	418.96
542.30	381.51
542.47	430.66
542.63	470.45
542.80	458.74
542.97	470.45
543.14	411.93
543.31	411.93
543.48	428.32
543.64	435.34
543.81	440.02
543.98	351.08
544.15	442.36
544.32	433.00
544.48	414.27
544.65	461.09
544.82	393.21
544.99	433.00
545.16	418.96
545.32	416.62
545.49	409.59
545.66	416.62
545.83	390.87
546.00	444.70
546.16	418.96
546.33	433.00
546.50	402.57
546.67	440.02
546.83	397.89
547.00	411.93
547.17	337.04
547.34	449.38
547.50	379.17
547.67	372.15
547.84	437.68
548.00	433.00
548.17	437.68
548.34	409.59
548.51	409.59
548.67	458.74
548.84	425.98
549.01	411.93
549.18	416.62
549.34	416.62
549.51	409.59
549.68	423.64
549.84	388.53
550.01	496.19
550.18	463.43
550.34	472.79
550.51	416.62
550.68	463.43
550.84	468.11
551.01	418.96
551.18	425.98
551.34	461.09
551.51	393.21
551.68	376.83
551.84	390.87
552.01	407.25
552.18	407.25
552.34	390.87
552.51	400.23
552.68	409.59
552.84	414.27
553.01	395.55
553.18	411.93
553.34	397.89
553.51	404.91
553.67	423.64
553.84	468.11
554.01	470.45
554.17	393.21
554.34	383.85
554.51	381.51
554.67	456.40
554.84	365.12
555.00	437.68
555.17	337.04
555.33	383.85
555.50	395.55
555.67	430.66
555.83	407.25
556.00	461.09
556.16	463.43
556.33	458.74
556.50	451.72
556.66	491.51
556.83	372.15
556.99	423.64
557.16	325.33
557.32	390.87
557.49	390.87
557.65	297.25
557.82	414.27
557.98	393.21
558.15	393.21
558.32	437.68
558.48	365.12
558.65	397.89
558.81	409.59
558.98	437.68
559.14	416.62
559.31	451.72
559.47	463.43
559.64	437.68
559.80	397.89
559.97	496.19
560.13	411.93
560.30	428.32
560.46	414.27
560.63	416.62
560.79	390.87
560.96	449.38
561.12	440.02
561.29	465.77
561.45	388.53
561.61	409.59
561.78	524.28
561.94	440.02
562.11	409.59
562.27	330.02
562.44	374.49
562.60	428.32
562.77	435.34
562.93	430.66
563.10	374.49
563.26	372.15
563.42	407.25
563.59	383.85
563.75	461.09
563.92	433.00
564.08	507.90
564.24	510.24
564.41	411.93
564.57	393.21
564.74	470.45
564.90	428.32
565.07	475.13
565.23	435.34
565.39	379.17
565.56	465.77
565.72	440.02
565.88	449.38
566.05	430.66
566.21	458.74
566.38	414.27
566.54	388.53
566.70	402.57
566.87	395.55
567.03	451.72
567.19	433.00
567.36	393.21
567.52	425.98
567.68	411.93
567.85	379.17
568.01	409.59
568.17	369.80
568.34	451.72
568.50	339.38
568.66	402.57
568.83	437.68
568.99	440.02
569.15	484.49
569.32	341.72
569.48	383.85
569.64	407.25
569.81	411.93
569.97	421.30
570.13	454.06
570.30	411.93
570.46	454.06
570.62	456.40
570.78	456.40
570.95	423.64
571.11	386.19
571.27	397.89
571.43	397.89
571.60	468.11
571.76	433.00
571.92	351.08
572.09	390.87
572.25	369.80
572.41	409.59
572.57	425.98
572.74	479.81
572.90	447.04
573.06	407.25
573.22	393.21
573.38	437.68
573.55	463.43
573.71	482.15
573.87	390.87
574.03	447.04
574.20	440.02
574.36	528.96
574.52	458.74
574.68	372.15
574.84	395.55
575.01	337.04
575.17	418.96
575.33	374.49
575.49	486.83
575.65	442.36
575.82	444.70
575.98	477.47
576.14	425.98
576.30	437.68
576.46	400.23
576.62	482.15
576.79	451.72
576.95	470.45
577.11	402.57
577.27	418.96
577.43	470.45
577.59	437.68
577.75	425.98
577.92	468.11
578.08	416.62
578.24	409.59
578.40	486.83
578.56	454.06
578.72	393.21
578.88	442.36
579.04	435.34
579.21	449.38
579.37	468.11
579.53	456.40
579.69	447.04
579.85	491.51
580.01	463.43
580.17	472.79
580.33	423.64
580.49	351.08
580.65	435.34
580.82	421.30
580.98	435.34
581.14	411.93
581.30	435.34
581.46	447.04
581.62	416.62
581.78	454.06
581.94	458.74
582.10	407.25
582.26	407.25
582.42	414.27
582.58	447.04
582.74	421.30
582.90	421.30
583.06	393.21
583.22	451.72
583.38	423.64
583.54	411.93
583.70	433.00
583.86	449.38
584.02	411.93
584.18	442.36
584.34	414.27
584.50	451.72
584.66	421.30
584.82	372.15
584.98	444.70
585.14	409.59
585.30	425.98
585.46	475.13
585.62	414.27
585.78	404.91
585.94	362.78
586.10	400.23
586.26	430.66
586.42	388.53
586.58	463.43
586.74	433.00
586.90	383.85
587.06	393.21
587.22	390.87
587.38	386.19
587.54	428.32
587.70	454.06
587.86	470.45
588.02	444.70
588.18	407.25
588.34	463.43
588.49	437.68
588.65	416.62
588.81	379.17
588.97	360.44
589.13	318.31
589.29	407.25
589.45	409.59
589.61	372.15
589.77	407.25
589.93	416.62
590.08	367.46
590.24	360.44
590.40	400.23
590.56	400.23
590.72	320.65
590.88	393.21
591.04	465.77
591.20	393.21
591.35	362.78
591.51	484.49
591.67	435.34
591.83	311.29
591.99	479.81
592.15	475.13
592.31	411.93
592.46	435.34
592.62	433.00
592.78	437.68
592.94	477.47
593.10	421.30
593.26	362.78
593.41	404.91
593.57	414.27
593.73	402.57
593.89	400.23
594.05	369.80
594.20	421.30
594.36	433.00
594.52	416.62
594.68	421.30
594.84	423.64
594.99	475.13
595.15	496.19
595.31	477.47
595.47	524.28
595.62	454.06
595.78	461.09
595.94	402.57
596.10	444.70
596.25	444.70
596.41	472.79
596.57	404.91
596.73	421.30
596.88	383.85
597.04	362.78
597.20	388.53
597.36	442.36
597.51	447.04
597.67	397.89
597.83	449.38
597.99	435.34
598.14	409.59
598.30	472.79
598.46	416.62
598.61	416.62
598.77	437.68
598.93	470.45
599.09	425.98
599.24	430.66
599.40	482.15
599.56	454.06
599.71	381.51
599.87	421.30
600.03	402.57
600.18	454.06
600.34	421.30
600.50	435.34
600.65	381.51
600.81	411.93
600.97	374.49
601.12	447.04
601.28	451.72
601.44	388.53
601.59	400.23
601.75	416.62
601.91	362.78
602.06	428.32
602.22	507.90
602.37	393.21
602.53	451.72
602.69	402.57
602.84	381.51
603.00	425.98
603.16	456.40
603.31	507.90
603.47	360.44
603.62	400.23
603.78	409.59
603.94	447.04
604.09	411.93
604.25	418.96
604.40	416.62
604.56	477.47
604.71	390.87
604.87	379.17
605.03	423.64
605.18	411.93
605.34	435.34
605.49	374.49
605.65	528.96
605.80	355.76
605.96	465.77
606.12	430.66
606.27	425.98
606.43	425.98
606.58	461.09
606.74	418.96
606.89	369.80
607.05	428.32
607.20	449.38
607.36	379.17
607.51	376.83
607.67	458.74
607.82	463.43
607.98	418.96
608.13	421.30
608.29	388.53
608.44	465.77
608.60	430.66
608.75	418.96
608.91	433.00
609.06	458.74
609.22	428.32
609.37	383.85
609.53	325.33
609.68	397.89
609.84	449.38
609.99	451.72
610.15	397.89
