SpectraSuite Data File
++++++++++++++++++++++++++++++++++++
Date: Fri Oct 25 12:11:19 EDT 2013
User: price-jones
Dark Spectrum Present: No
Reference Spectrum Present: No
Number of Sampled Component Spectra: 1
Spectrometers: USB2+H05261
Integration Time (usec): 100000 (USB2+H05261)
Spectra Averaged: 1 (USB2+H05261)
Boxcar Smoothing: 0 (USB2+H05261)
Correct for Electrical Dark: No (USB2+H05261)
Strobe/Lamp Enabled: No (USB2+H05261)
Correct for Detector Non-linearity: No (USB2+H05261)
Correct for Stray Light: No (USB2+H05261)
Number of Pixels in Processed Spectrum: 2048
>>>>>Begin Processed Spectral Data<<<<<
365.73	315.97
365.92	315.97
366.12	315.97
366.32	234.05
366.52	201.29
366.72	238.73
366.91	163.84
367.11	290.23
367.31	152.13
367.51	262.14
367.70	290.23
367.90	194.26
368.10	238.73
368.30	215.33
368.49	231.71
368.69	297.25
368.89	273.84
369.09	262.14
369.28	304.27
369.48	187.24
369.68	257.46
369.87	280.86
370.07	292.57
370.27	315.97
370.47	379.17
370.66	388.53
370.86	320.65
371.06	327.68
371.25	404.91
371.45	390.87
371.65	376.83
371.84	355.76
372.04	367.46
372.24	397.89
372.44	425.98
372.63	421.30
372.83	381.51
373.03	491.51
373.22	468.11
373.42	348.74
373.62	416.62
373.81	372.15
374.01	535.98
374.21	433.00
374.40	421.30
374.60	456.40
374.79	425.98
374.99	449.38
375.19	433.00
375.38	435.34
375.58	442.36
375.78	456.40
375.97	458.74
376.17	407.25
376.37	407.25
376.56	351.08
376.76	463.43
376.95	348.74
377.15	461.09
377.35	351.08
377.54	414.27
377.74	435.34
377.93	374.49
378.13	402.57
378.33	311.29
378.52	440.02
378.72	369.80
378.91	442.36
379.11	395.55
379.31	425.98
379.50	402.57
379.70	397.89
379.89	402.57
380.09	411.93
380.28	477.47
380.48	421.30
380.68	390.87
380.87	433.00
381.07	388.53
381.26	404.91
381.46	341.72
381.65	404.91
381.85	397.89
382.04	428.32
382.24	416.62
382.43	421.30
382.63	440.02
382.83	404.91
383.02	404.91
383.22	447.04
383.41	360.44
383.61	416.62
383.80	500.87
384.00	447.04
384.19	374.49
384.39	444.70
384.58	379.17
384.78	402.57
384.97	421.30
385.17	421.30
385.36	355.76
385.56	393.21
385.75	409.59
385.95	390.87
386.14	339.38
386.34	374.49
386.53	369.80
386.72	348.74
386.92	423.64
387.11	407.25
387.31	421.30
387.50	313.63
387.70	400.23
387.89	411.93
388.09	388.53
388.28	447.04
388.48	393.21
388.67	482.15
388.86	423.64
389.06	397.89
389.25	416.62
389.45	351.08
389.64	416.62
389.84	456.40
390.03	404.91
390.22	430.66
390.42	411.93
390.61	318.31
390.81	376.83
391.00	386.19
391.19	451.72
391.39	407.25
391.58	395.55
391.78	428.32
391.97	390.87
392.16	402.57
392.36	451.72
392.55	451.72
392.75	402.57
392.94	390.87
393.13	482.15
393.33	425.98
393.52	451.72
393.71	365.12
393.91	425.98
394.10	435.34
394.29	447.04
394.49	397.89
394.68	430.66
394.88	386.19
395.07	390.87
395.26	379.17
395.46	447.04
395.65	351.08
395.84	381.51
396.04	498.53
396.23	407.25
396.42	379.17
396.62	397.89
396.81	404.91
397.00	339.38
397.19	320.65
397.39	390.87
397.58	451.72
397.77	365.12
397.97	374.49
398.16	428.32
398.35	374.49
398.55	397.89
398.74	374.49
398.93	376.83
399.12	409.59
399.32	423.64
399.51	397.89
399.70	425.98
399.90	430.66
400.09	383.85
400.28	428.32
400.47	330.02
400.67	463.43
400.86	409.59
401.05	409.59
401.24	390.87
401.44	442.36
401.63	414.27
401.82	447.04
402.01	330.02
402.21	449.38
402.40	388.53
402.59	395.55
402.78	404.91
402.97	479.81
403.17	442.36
403.36	470.45
403.55	418.96
403.74	395.55
403.93	428.32
404.13	414.27
404.32	423.64
404.51	444.70
404.70	376.83
404.89	475.13
405.09	320.65
405.28	409.59
405.47	365.12
405.66	430.66
405.85	433.00
406.05	407.25
406.24	407.25
406.43	477.47
406.62	470.45
406.81	379.17
407.00	404.91
407.20	390.87
407.39	397.89
407.58	414.27
407.77	428.32
407.96	489.17
408.15	451.72
408.34	346.40
408.54	451.72
408.73	362.78
408.92	433.00
409.11	402.57
409.30	475.13
409.49	374.49
409.68	395.55
409.87	421.30
410.07	418.96
410.26	428.32
410.45	367.46
410.64	421.30
410.83	376.83
411.02	358.10
411.21	383.85
411.40	421.30
411.59	388.53
411.78	362.78
411.98	409.59
412.17	353.42
412.36	433.00
412.55	454.06
412.74	400.23
412.93	313.63
413.12	430.66
413.31	428.32
413.50	362.78
413.69	411.93
413.88	454.06
414.07	386.19
414.26	402.57
414.45	442.36
414.64	416.62
414.83	451.72
415.02	383.85
415.22	456.40
415.41	447.04
415.60	358.10
415.79	355.76
415.98	423.64
416.17	418.96
416.36	451.72
416.55	421.30
416.74	355.76
416.93	463.43
417.12	311.29
417.31	374.49
417.50	407.25
417.69	447.04
417.88	353.42
418.07	402.57
418.26	400.23
418.45	355.76
418.64	465.77
418.83	411.93
419.02	388.53
419.21	397.89
419.39	498.53
419.58	418.96
419.77	369.80
419.96	444.70
420.15	320.65
420.34	482.15
420.53	454.06
420.72	484.49
420.91	421.30
421.10	341.72
421.29	341.72
421.48	433.00
421.67	454.06
421.86	423.64
422.05	397.89
422.24	425.98
422.43	433.00
422.61	411.93
422.80	414.27
422.99	482.15
423.18	475.13
423.37	486.83
423.56	425.98
423.75	458.74
423.94	379.17
424.13	388.53
424.32	390.87
424.50	437.68
424.69	454.06
424.88	458.74
425.07	278.52
425.26	346.40
425.45	383.85
425.64	376.83
425.83	458.74
426.01	358.10
426.20	404.91
426.39	367.46
426.58	423.64
426.77	386.19
426.96	433.00
427.15	355.76
427.33	404.91
427.52	454.06
427.71	372.15
427.90	435.34
428.09	332.36
428.28	409.59
428.46	414.27
428.65	388.53
428.84	421.30
429.03	461.09
429.22	454.06
429.40	477.47
429.59	435.34
429.78	449.38
429.97	353.42
430.16	458.74
430.34	475.13
430.53	472.79
430.72	447.04
430.91	362.78
431.10	447.04
431.28	402.57
431.47	411.93
431.66	407.25
431.85	409.59
432.03	456.40
432.22	512.58
432.41	383.85
432.60	447.04
432.79	362.78
432.97	418.96
433.16	381.51
433.35	423.64
433.54	376.83
433.72	437.68
433.91	411.93
434.10	404.91
434.28	414.27
434.47	388.53
434.66	498.53
434.85	367.46
435.03	360.44
435.22	416.62
435.41	355.76
435.59	430.66
435.78	409.59
435.97	463.43
436.16	493.85
436.34	484.49
436.53	409.59
436.72	477.47
436.90	407.25
437.09	428.32
437.28	451.72
437.46	416.62
437.65	374.49
437.84	346.40
438.02	374.49
438.21	440.02
438.40	381.51
438.58	390.87
438.77	381.51
438.96	393.21
439.14	376.83
439.33	365.12
439.52	442.36
439.70	332.36
439.89	395.55
440.08	376.83
440.26	444.70
440.45	397.89
440.63	365.12
440.82	428.32
441.01	381.51
441.19	341.72
441.38	442.36
441.57	449.38
441.75	472.79
441.94	461.09
442.12	365.12
442.31	416.62
442.50	475.13
442.68	421.30
442.87	418.96
443.05	393.21
443.24	409.59
443.43	397.89
443.61	374.49
443.80	491.51
443.98	393.21
444.17	458.74
444.35	402.57
444.54	346.40
444.73	418.96
444.91	442.36
445.10	353.42
445.28	418.96
445.47	421.30
445.65	393.21
445.84	418.96
446.02	423.64
446.21	421.30
446.39	447.04
446.58	409.59
446.77	442.36
446.95	365.12
447.14	442.36
447.32	477.47
447.51	407.25
447.69	472.79
447.88	425.98
448.06	456.40
448.25	425.98
448.43	416.62
448.62	461.09
448.80	386.19
448.99	433.00
449.17	404.91
449.36	411.93
449.54	414.27
449.73	358.10
449.91	395.55
450.10	463.43
450.28	395.55
450.46	489.17
450.65	421.30
450.83	433.00
451.02	395.55
451.20	344.06
451.39	390.87
451.57	449.38
451.76	390.87
451.94	433.00
452.13	437.68
452.31	456.40
452.49	365.12
452.68	463.43
452.86	393.21
453.05	498.53
453.23	421.30
453.42	393.21
453.60	423.64
453.78	374.49
453.97	383.85
454.15	362.78
454.34	397.89
454.52	369.80
454.70	421.30
454.89	421.30
455.07	475.13
455.26	327.68
455.44	299.59
455.62	451.72
455.81	400.23
455.99	425.98
456.17	362.78
456.36	440.02
456.54	388.53
456.73	437.68
456.91	461.09
457.09	463.43
457.28	402.57
457.46	416.62
457.64	465.77
457.83	468.11
458.01	376.83
458.19	456.40
458.38	379.17
458.56	463.43
458.74	409.59
458.93	463.43
459.11	376.83
459.29	348.74
459.48	421.30
459.66	510.24
459.84	428.32
460.03	519.60
460.21	435.34
460.39	369.80
460.57	442.36
460.76	454.06
460.94	468.11
461.12	470.45
461.31	451.72
461.49	418.96
461.67	383.85
461.85	514.92
462.04	397.89
462.22	786.42
462.40	416.62
462.59	435.34
462.77	383.85
462.95	425.98
463.13	433.00
463.32	435.34
463.50	430.66
463.68	418.96
463.86	386.19
464.05	393.21
464.23	421.30
464.41	414.27
464.59	437.68
464.78	418.96
464.96	440.02
465.14	437.68
465.32	409.59
465.50	393.21
465.69	437.68
465.87	421.30
466.05	372.15
466.23	372.15
466.41	411.93
466.60	395.55
466.78	358.10
466.96	479.81
467.14	430.66
467.32	388.53
467.51	451.72
467.69	437.68
467.87	400.23
468.05	372.15
468.23	475.13
468.41	395.55
468.60	395.55
468.78	442.36
468.96	486.83
469.14	358.10
469.32	409.59
469.50	409.59
469.69	421.30
469.87	418.96
470.05	402.57
470.23	437.68
470.41	477.47
470.59	390.87
470.77	379.17
470.95	423.64
471.14	444.70
471.32	421.30
471.50	435.34
471.68	440.02
471.86	491.51
472.04	388.53
472.22	491.51
472.40	444.70
472.58	400.23
472.77	451.72
472.95	416.62
473.13	456.40
473.31	430.66
473.49	404.91
473.67	411.93
473.85	421.30
474.03	414.27
474.21	496.19
474.39	437.68
474.57	400.23
474.75	414.27
474.93	381.51
475.12	400.23
475.30	355.76
475.48	393.21
475.66	444.70
475.84	337.04
476.02	454.06
476.20	388.53
476.38	458.74
476.56	454.06
476.74	372.15
476.92	465.77
477.10	444.70
477.28	409.59
477.46	372.15
477.64	442.36
477.82	395.55
478.00	393.21
478.18	414.27
478.36	379.17
478.54	344.06
478.72	376.83
478.90	442.36
479.08	411.93
479.26	388.53
479.44	372.15
479.62	395.55
479.80	454.06
479.98	374.49
480.16	379.17
480.34	409.59
480.52	409.59
480.70	428.32
480.88	437.68
481.06	395.55
481.24	332.36
481.41	440.02
481.59	463.43
481.77	418.96
481.95	435.34
482.13	430.66
482.31	402.57
482.49	470.45
482.67	404.91
482.85	362.78
483.03	444.70
483.21	423.64
483.39	407.25
483.57	395.55
483.74	482.15
483.92	400.23
484.10	447.04
484.28	465.77
484.46	465.77
484.64	383.85
484.82	390.87
485.00	388.53
485.18	449.38
485.35	451.72
485.53	386.19
485.71	463.43
485.89	395.55
486.07	306.61
486.25	461.09
486.43	430.66
486.61	404.91
486.78	418.96
486.96	447.04
487.14	465.77
487.32	367.46
487.50	379.17
487.68	486.83
487.85	393.21
488.03	372.15
488.21	409.59
488.39	498.53
488.57	414.27
488.75	360.44
488.92	519.60
489.10	388.53
489.28	386.19
489.46	320.65
489.64	418.96
489.81	416.62
489.99	421.30
490.17	425.98
490.35	468.11
490.53	388.53
490.70	461.09
490.88	390.87
491.06	418.96
491.24	425.98
491.41	465.77
491.59	496.19
491.77	409.59
491.95	433.00
492.13	449.38
492.30	358.10
492.48	472.79
492.66	388.53
492.84	468.11
493.01	416.62
493.19	369.80
493.37	454.06
493.54	416.62
493.72	458.74
493.90	390.87
494.08	376.83
494.25	458.74
494.43	461.09
494.61	418.96
494.79	425.98
494.96	428.32
495.14	423.64
495.32	383.85
495.49	451.72
495.67	402.57
495.85	341.72
496.02	425.98
496.20	433.00
496.38	428.32
496.55	330.02
496.73	444.70
496.91	428.32
497.09	503.22
497.26	383.85
497.44	407.25
497.62	447.04
497.79	409.59
497.97	414.27
498.14	435.34
498.32	458.74
498.50	442.36
498.67	449.38
498.85	484.49
499.03	447.04
499.20	409.59
499.38	362.78
499.56	440.02
499.73	418.96
499.91	407.25
500.08	360.44
500.26	395.55
500.44	428.32
500.61	400.23
500.79	468.11
500.97	381.51
501.14	503.22
501.32	395.55
501.49	402.57
501.67	484.49
501.84	475.13
502.02	418.96
502.20	444.70
502.37	397.89
502.55	425.98
502.72	400.23
502.90	376.83
503.07	383.85
503.25	348.74
503.43	374.49
503.60	416.62
503.78	395.55
503.95	425.98
504.13	465.77
504.30	400.23
504.48	454.06
504.65	411.93
504.83	475.13
505.01	421.30
505.18	346.40
505.36	421.30
505.53	344.06
505.71	423.64
505.88	510.24
506.06	468.11
506.23	334.70
506.41	369.80
506.58	418.96
506.76	421.30
506.93	397.89
507.11	332.36
507.28	358.10
507.46	437.68
507.63	397.89
507.81	367.46
507.98	365.12
508.16	400.23
508.33	416.62
508.50	458.74
508.68	414.27
508.85	386.19
509.03	486.83
509.20	484.49
509.38	442.36
509.55	428.32
509.73	428.32
509.90	444.70
510.08	444.70
510.25	444.70
510.42	454.06
510.60	322.99
510.77	414.27
510.95	400.23
511.12	404.91
511.30	470.45
511.47	409.59
511.64	414.27
511.82	465.77
511.99	400.23
512.17	416.62
512.34	374.49
512.51	367.46
512.69	449.38
512.86	449.38
513.04	367.46
513.21	507.90
513.38	444.70
513.56	465.77
513.73	397.89
513.90	421.30
514.08	367.46
514.25	402.57
514.43	407.25
514.60	418.96
514.77	447.04
514.95	397.89
515.12	383.85
515.29	428.32
515.47	500.87
515.64	468.11
515.81	451.72
515.99	393.21
516.16	428.32
516.33	454.06
516.51	388.53
516.68	397.89
516.85	341.72
517.03	414.27
517.20	444.70
517.37	411.93
517.54	421.30
517.72	400.23
517.89	308.95
518.06	421.30
518.24	477.47
518.41	369.80
518.58	430.66
518.75	526.62
518.93	430.66
519.10	468.11
519.27	468.11
519.45	421.30
519.62	414.27
519.79	430.66
519.96	393.21
520.14	409.59
520.31	425.98
520.48	407.25
520.65	421.30
520.83	381.51
521.00	416.62
521.17	423.64
521.34	330.02
521.52	393.21
521.69	458.74
521.86	381.51
522.03	430.66
522.20	425.98
522.38	421.30
522.55	423.64
522.72	348.74
522.89	407.25
523.07	397.89
523.24	418.96
523.41	390.87
523.58	428.32
523.75	402.57
523.92	388.53
524.10	339.38
524.27	369.80
524.44	402.57
524.61	411.93
524.78	425.98
524.96	465.77
525.13	400.23
525.30	407.25
525.47	381.51
525.64	367.46
525.81	344.06
525.98	454.06
526.16	500.87
526.33	393.21
526.50	395.55
526.67	416.62
526.84	428.32
527.01	409.59
527.18	421.30
527.36	404.91
527.53	381.51
527.70	423.64
527.87	496.19
528.04	449.38
528.21	461.09
528.38	451.72
528.55	458.74
528.72	503.22
528.89	472.79
529.07	395.55
529.24	393.21
529.41	376.83
529.58	430.66
529.75	416.62
529.92	454.06
530.09	437.68
530.26	468.11
530.43	444.70
530.60	369.80
530.77	418.96
530.94	411.93
531.11	402.57
531.28	435.34
531.46	418.96
531.63	461.09
531.80	421.30
531.97	418.96
532.14	475.13
532.31	365.12
532.48	475.13
532.65	379.17
532.82	458.74
532.99	393.21
533.16	458.74
533.33	374.49
533.50	430.66
533.67	358.10
533.84	423.64
534.01	416.62
534.18	433.00
534.35	409.59
534.52	444.70
534.69	484.49
534.86	390.87
535.03	463.43
535.20	435.34
535.37	463.43
535.54	456.40
535.71	430.66
535.88	489.17
536.05	433.00
536.22	435.34
536.38	418.96
536.55	440.02
536.72	461.09
536.89	360.44
537.06	365.12
537.23	411.93
537.40	346.40
537.57	430.66
537.74	470.45
537.91	435.34
538.08	362.78
538.25	444.70
538.42	346.40
538.59	454.06
538.75	414.27
538.92	407.25
539.09	433.00
539.26	393.21
539.43	423.64
539.60	416.62
539.77	393.21
539.94	402.57
540.11	479.81
540.28	475.13
540.44	451.72
540.61	409.59
540.78	402.57
540.95	348.74
541.12	433.00
541.29	351.08
541.46	444.70
541.62	416.62
541.79	400.23
541.96	334.70
542.13	414.27
542.30	372.15
542.47	421.30
542.63	433.00
542.80	489.17
542.97	418.96
543.14	376.83
543.31	442.36
543.48	414.27
543.64	367.46
543.81	409.59
543.98	425.98
544.15	404.91
544.32	404.91
544.48	430.66
544.65	404.91
544.82	351.08
544.99	430.66
545.16	421.30
545.32	447.04
545.49	355.76
545.66	404.91
545.83	477.47
546.00	355.76
546.16	435.34
546.33	451.72
546.50	482.15
546.67	404.91
546.83	402.57
547.00	409.59
547.17	374.49
547.34	411.93
547.50	369.80
547.67	379.17
547.84	376.83
548.00	482.15
548.17	393.21
548.34	496.19
548.51	468.11
548.67	409.59
548.84	416.62
549.01	416.62
549.18	465.77
549.34	440.02
549.51	430.66
549.68	421.30
549.84	425.98
550.01	407.25
550.18	507.90
550.34	393.21
550.51	442.36
550.68	461.09
550.84	400.23
551.01	383.85
551.18	433.00
551.34	456.40
551.51	421.30
551.68	402.57
551.84	404.91
552.01	400.23
552.18	379.17
552.34	355.76
552.51	465.77
552.68	470.45
552.84	411.93
553.01	430.66
553.18	376.83
553.34	505.56
553.51	418.96
553.67	372.15
553.84	528.96
554.01	437.68
554.17	451.72
554.34	416.62
554.51	418.96
554.67	458.74
554.84	437.68
555.00	425.98
555.17	400.23
555.33	367.46
555.50	425.98
555.67	435.34
555.83	390.87
556.00	404.91
556.16	608.54
556.33	428.32
556.50	386.19
556.66	386.19
556.83	407.25
556.99	421.30
557.16	414.27
557.32	507.90
557.49	372.15
557.65	397.89
557.82	330.02
557.98	400.23
558.15	407.25
558.32	414.27
558.48	376.83
558.65	440.02
558.81	397.89
558.98	395.55
559.14	397.89
559.31	404.91
559.47	409.59
559.64	423.64
559.80	451.72
559.97	421.30
560.13	435.34
560.30	447.04
560.46	414.27
560.63	414.27
560.79	425.98
560.96	402.57
561.12	407.25
561.29	461.09
561.45	376.83
561.61	451.72
561.78	484.49
561.94	416.62
562.11	400.23
562.27	372.15
562.44	411.93
562.60	430.66
562.77	461.09
562.93	564.07
563.10	449.38
563.26	451.72
563.42	463.43
563.59	423.64
563.75	411.93
563.92	430.66
564.08	433.00
564.24	435.34
564.41	465.77
564.57	383.85
564.74	404.91
564.90	390.87
565.07	444.70
565.23	376.83
565.39	362.78
565.56	425.98
565.72	428.32
565.88	404.91
566.05	402.57
566.21	421.30
566.38	428.32
566.54	468.11
566.70	486.83
566.87	479.81
567.03	395.55
567.19	468.11
567.36	381.51
567.52	390.87
567.68	407.25
567.85	416.62
568.01	503.22
568.17	402.57
568.34	351.08
568.50	491.51
568.66	393.21
568.83	472.79
568.99	372.15
569.15	477.47
569.32	486.83
569.48	477.47
569.64	355.76
569.81	451.72
569.97	381.51
570.13	461.09
570.30	395.55
570.46	402.57
570.62	500.87
570.78	505.56
570.95	393.21
571.11	472.79
571.27	449.38
571.43	414.27
571.60	409.59
571.76	458.74
571.92	411.93
572.09	388.53
572.25	435.34
572.41	395.55
572.57	430.66
572.74	407.25
572.90	435.34
573.06	433.00
573.22	411.93
573.38	454.06
573.55	454.06
573.71	379.17
573.87	423.64
574.03	367.46
574.20	397.89
574.36	400.23
574.52	304.27
574.68	454.06
574.84	421.30
575.01	470.45
575.17	451.72
575.33	362.78
575.49	451.72
575.65	423.64
575.82	456.40
575.98	400.23
576.14	428.32
576.30	421.30
576.46	409.59
576.62	442.36
576.79	433.00
576.95	479.81
577.11	397.89
577.27	393.21
577.43	461.09
577.59	472.79
577.75	454.06
577.92	330.02
578.08	425.98
578.24	418.96
578.40	381.51
578.56	437.68
578.72	416.62
578.88	468.11
579.04	533.64
579.21	512.58
579.37	376.83
579.53	404.91
579.69	496.19
579.85	390.87
580.01	444.70
580.17	470.45
580.33	411.93
580.49	397.89
580.65	416.62
580.82	465.77
580.98	376.83
581.14	491.51
581.30	395.55
581.46	362.78
581.62	381.51
581.78	376.83
581.94	447.04
582.10	404.91
582.26	489.17
582.42	383.85
582.58	376.83
582.74	402.57
582.90	362.78
583.06	386.19
583.22	411.93
583.38	379.17
583.54	362.78
583.70	440.02
583.86	414.27
584.02	416.62
584.18	447.04
584.34	407.25
584.50	369.80
584.66	395.55
584.82	369.80
584.98	475.13
585.14	393.21
585.30	397.89
585.46	470.45
585.62	456.40
585.78	407.25
585.94	447.04
586.10	442.36
586.26	374.49
586.42	491.51
586.58	351.08
586.74	444.70
586.90	447.04
587.06	386.19
587.22	440.02
587.38	484.49
587.54	414.27
587.70	463.43
587.86	465.77
588.02	454.06
588.18	376.83
588.34	409.59
588.49	461.09
588.65	437.68
588.81	409.59
588.97	388.53
589.13	447.04
589.29	395.55
589.45	404.91
589.61	489.17
589.77	428.32
589.93	472.79
590.08	444.70
590.24	500.87
590.40	468.11
590.56	430.66
590.72	367.46
590.88	362.78
591.04	437.68
591.20	397.89
591.35	451.72
591.51	400.23
591.67	353.42
591.83	442.36
591.99	397.89
592.15	484.49
592.31	461.09
592.46	407.25
592.62	437.68
592.78	374.49
592.94	428.32
593.10	411.93
593.26	367.46
593.41	388.53
593.57	425.98
593.73	400.23
593.89	440.02
594.05	444.70
594.20	409.59
594.36	437.68
594.52	440.02
594.68	346.40
594.84	451.72
594.99	421.30
595.15	407.25
595.31	400.23
595.47	475.13
595.62	395.55
595.78	416.62
595.94	400.23
596.10	402.57
596.25	411.93
596.41	472.79
596.57	418.96
596.73	493.85
596.88	404.91
597.04	468.11
597.20	411.93
597.36	430.66
597.51	423.64
597.67	386.19
597.83	428.32
597.99	383.85
598.14	414.27
598.30	395.55
598.46	416.62
598.61	428.32
598.77	383.85
598.93	353.42
599.09	475.13
599.24	440.02
599.40	463.43
599.56	451.72
599.71	386.19
599.87	390.87
600.03	428.32
600.18	372.15
600.34	395.55
600.50	407.25
600.65	374.49
600.81	454.06
600.97	381.51
601.12	444.70
601.28	437.68
601.44	451.72
601.59	435.34
601.75	468.11
601.91	409.59
602.06	423.64
602.22	435.34
602.37	498.53
602.53	318.31
602.69	517.26
602.84	409.59
603.00	454.06
603.16	379.17
603.31	468.11
603.47	444.70
603.62	393.21
603.78	379.17
603.94	456.40
604.09	355.76
604.25	435.34
604.40	440.02
604.56	433.00
604.71	341.72
604.87	369.80
605.03	418.96
605.18	400.23
605.34	449.38
605.49	344.06
605.65	369.80
605.80	369.80
605.96	402.57
606.12	491.51
606.27	437.68
606.43	442.36
606.58	470.45
606.74	376.83
606.89	393.21
607.05	449.38
607.20	355.76
607.36	367.46
607.51	353.42
607.67	477.47
607.82	402.57
607.98	397.89
608.13	353.42
608.29	404.91
608.44	402.57
608.60	437.68
608.75	449.38
608.91	440.02
609.06	430.66
609.22	440.02
609.37	372.15
609.53	402.57
609.68	390.87
609.84	433.00
609.99	376.83
610.15	409.59
