SpectraSuite Data File
++++++++++++++++++++++++++++++++++++
Date: Fri Oct 25 12:10:08 EDT 2013
User: price-jones
Dark Spectrum Present: No
Reference Spectrum Present: No
Number of Sampled Component Spectra: 1
Spectrometers: USB2+H05261
Integration Time (usec): 100000 (USB2+H05261)
Spectra Averaged: 1 (USB2+H05261)
Boxcar Smoothing: 0 (USB2+H05261)
Correct for Electrical Dark: No (USB2+H05261)
Strobe/Lamp Enabled: No (USB2+H05261)
Correct for Detector Non-linearity: No (USB2+H05261)
Correct for Stray Light: No (USB2+H05261)
Number of Pixels in Processed Spectrum: 2048
>>>>>Begin Processed Spectral Data<<<<<
365.73	318.31
365.92	318.31
366.12	318.31
366.32	250.44
366.52	245.76
366.72	175.54
366.91	210.65
367.11	241.08
367.31	208.31
367.51	184.90
367.70	187.24
367.90	250.44
368.10	301.93
368.30	145.11
368.49	217.67
368.69	353.42
368.89	271.50
369.09	238.73
369.28	269.16
369.48	250.44
369.68	266.82
369.87	327.68
370.07	198.95
370.27	318.31
370.47	297.25
370.66	320.65
370.86	327.68
371.06	458.74
371.25	353.42
371.45	332.36
371.65	367.46
371.84	456.40
372.04	297.25
372.24	395.55
372.44	322.99
372.63	425.98
372.83	449.38
373.03	388.53
373.22	388.53
373.42	428.32
373.62	437.68
373.81	395.55
374.01	414.27
374.21	428.32
374.40	400.23
374.60	430.66
374.79	393.21
374.99	411.93
375.19	411.93
375.38	444.70
375.58	395.55
375.78	404.91
375.97	425.98
376.17	482.15
376.37	308.95
376.56	404.91
376.76	416.62
376.95	463.43
377.15	407.25
377.35	451.72
377.54	383.85
377.74	447.04
377.93	393.21
378.13	461.09
378.33	397.89
378.52	440.02
378.72	400.23
378.91	454.06
379.11	402.57
379.31	353.42
379.50	376.83
379.70	351.08
379.89	433.00
380.09	395.55
380.28	416.62
380.48	411.93
380.68	379.17
380.87	418.96
381.07	346.40
381.26	369.80
381.46	428.32
381.65	353.42
381.85	425.98
382.04	339.38
382.24	393.21
382.43	315.97
382.63	402.57
382.83	383.85
383.02	388.53
383.22	395.55
383.41	395.55
383.61	435.34
383.80	430.66
384.00	376.83
384.19	407.25
384.39	482.15
384.58	372.15
384.78	358.10
384.97	433.00
385.17	477.47
385.36	402.57
385.56	404.91
385.75	416.62
385.95	433.00
386.14	411.93
386.34	386.19
386.53	383.85
386.72	397.89
386.92	409.59
387.11	414.27
387.31	365.12
387.50	437.68
387.70	404.91
387.89	416.62
388.09	383.85
388.28	440.02
388.48	369.80
388.67	360.44
388.86	383.85
389.06	369.80
389.25	409.59
389.45	404.91
389.64	430.66
389.84	503.22
390.03	355.76
390.22	400.23
390.42	414.27
390.61	447.04
390.81	454.06
391.00	402.57
391.19	355.76
391.39	402.57
391.58	383.85
391.78	381.51
391.97	458.74
392.16	339.38
392.36	372.15
392.55	402.57
392.75	376.83
392.94	358.10
393.13	451.72
393.33	390.87
393.52	362.78
393.71	470.45
393.91	407.25
394.10	423.64
394.29	430.66
394.49	393.21
394.68	341.72
394.88	409.59
395.07	395.55
395.26	425.98
395.46	390.87
395.65	442.36
395.84	421.30
396.04	388.53
396.23	379.17
396.42	407.25
396.62	395.55
396.81	369.80
397.00	353.42
397.19	461.09
397.39	400.23
397.58	433.00
397.77	397.89
397.97	390.87
398.16	416.62
398.35	348.74
398.55	416.62
398.74	390.87
398.93	339.38
399.12	360.44
399.32	411.93
399.51	409.59
399.70	390.87
399.90	409.59
400.09	442.36
400.28	393.21
400.47	358.10
400.67	334.70
400.86	386.19
401.05	458.74
401.24	411.93
401.44	365.12
401.63	409.59
401.82	334.70
402.01	433.00
402.21	411.93
402.40	435.34
402.59	404.91
402.78	472.79
402.97	400.23
403.17	416.62
403.36	402.57
403.55	404.91
403.74	407.25
403.93	447.04
404.13	425.98
404.32	409.59
404.51	414.27
404.70	407.25
404.89	365.12
405.09	440.02
405.28	444.70
405.47	397.89
405.66	433.00
405.85	449.38
406.05	425.98
406.24	435.34
406.43	461.09
406.62	402.57
406.81	372.15
407.00	411.93
407.20	411.93
407.39	369.80
407.58	414.27
407.77	402.57
407.96	491.51
408.15	472.79
408.34	395.55
408.54	367.46
408.73	379.17
408.92	393.21
409.11	360.44
409.30	472.79
409.49	353.42
409.68	454.06
409.87	423.64
410.07	418.96
410.26	397.89
410.45	374.49
410.64	404.91
410.83	421.30
411.02	374.49
411.21	376.83
411.40	360.44
411.59	376.83
411.78	411.93
411.98	411.93
412.17	346.40
412.36	379.17
412.55	358.10
412.74	423.64
412.93	472.79
413.12	386.19
413.31	358.10
413.50	435.34
413.69	390.87
413.88	449.38
414.07	449.38
414.26	416.62
414.45	388.53
414.64	395.55
414.83	435.34
415.02	367.46
415.22	416.62
415.41	400.23
415.60	393.21
415.79	414.27
415.98	367.46
416.17	376.83
416.36	386.19
416.55	423.64
416.74	414.27
416.93	388.53
417.12	400.23
417.31	381.51
417.50	362.78
417.69	430.66
417.88	423.64
418.07	346.40
418.26	447.04
418.45	425.98
418.64	463.43
418.83	454.06
419.02	393.21
419.21	388.53
419.39	425.98
419.58	358.10
419.77	430.66
419.96	463.43
420.15	442.36
420.34	367.46
420.53	496.19
420.72	444.70
420.91	411.93
421.10	374.49
421.29	440.02
421.48	416.62
421.67	437.68
421.86	358.10
422.05	437.68
422.24	468.11
422.43	472.79
422.61	449.38
422.80	390.87
422.99	454.06
423.18	341.72
423.37	437.68
423.56	416.62
423.75	428.32
423.94	390.87
424.13	402.57
424.32	461.09
424.50	447.04
424.69	407.25
424.88	428.32
425.07	440.02
425.26	428.32
425.45	418.96
425.64	383.85
425.83	428.32
426.01	433.00
426.20	444.70
426.39	390.87
426.58	437.68
426.77	430.66
426.96	465.77
427.15	440.02
427.33	489.17
427.52	404.91
427.71	400.23
427.90	477.47
428.09	362.78
428.28	369.80
428.46	388.53
428.65	458.74
428.84	407.25
429.03	397.89
429.22	475.13
429.40	383.85
429.59	362.78
429.78	449.38
429.97	409.59
430.16	397.89
430.34	341.72
430.53	395.55
430.72	351.08
430.91	449.38
431.10	379.17
431.28	418.96
431.47	437.68
431.66	435.34
431.85	404.91
432.03	379.17
432.22	454.06
432.41	463.43
432.60	414.27
432.79	409.59
432.97	421.30
433.16	430.66
433.35	416.62
433.54	411.93
433.72	372.15
433.91	390.87
434.10	449.38
434.28	411.93
434.47	386.19
434.66	409.59
434.85	421.30
435.03	365.12
435.22	425.98
435.41	393.21
435.59	355.76
435.78	430.66
435.97	372.15
436.16	416.62
436.34	397.89
436.53	470.45
436.72	416.62
436.90	409.59
437.09	397.89
437.28	440.02
437.46	421.30
437.65	360.44
437.84	400.23
438.02	393.21
438.21	414.27
438.40	423.64
438.58	386.19
438.77	365.12
438.96	379.17
439.14	327.68
439.33	430.66
439.52	379.17
439.70	388.53
439.89	334.70
440.08	400.23
440.26	365.12
440.45	386.19
440.63	475.13
440.82	425.98
441.01	421.30
441.19	430.66
441.38	374.49
441.57	402.57
441.75	386.19
441.94	414.27
442.12	425.98
442.31	416.62
442.50	273.84
442.68	325.33
442.87	320.65
443.05	365.12
443.24	468.11
443.43	440.02
443.61	435.34
443.80	442.36
443.98	454.06
444.17	400.23
444.35	355.76
444.54	449.38
444.73	414.27
444.91	461.09
445.10	435.34
445.28	388.53
445.47	337.04
445.65	437.68
445.84	376.83
446.02	440.02
446.21	416.62
446.39	430.66
446.58	479.81
446.77	435.34
446.95	442.36
447.14	404.91
447.32	414.27
447.51	409.59
447.69	386.19
447.88	409.59
448.06	416.62
448.25	386.19
448.43	362.78
448.62	421.30
448.80	416.62
448.99	454.06
449.17	451.72
449.36	388.53
449.54	498.53
449.73	393.21
449.91	404.91
450.10	383.85
450.28	463.43
450.46	447.04
450.65	395.55
450.83	414.27
451.02	393.21
451.20	379.17
451.39	390.87
451.57	425.98
451.76	461.09
451.94	491.51
452.13	451.72
452.31	423.64
452.49	444.70
452.68	358.10
452.86	395.55
453.05	428.32
453.23	447.04
453.42	416.62
453.60	423.64
453.78	461.09
453.97	362.78
454.15	290.23
454.34	435.34
454.52	402.57
454.70	442.36
454.89	440.02
455.07	376.83
455.26	381.51
455.44	493.85
455.62	386.19
455.81	409.59
455.99	407.25
456.17	416.62
456.36	414.27
456.54	390.87
456.73	404.91
456.91	418.96
457.09	411.93
457.28	425.98
457.46	409.59
457.64	472.79
457.83	346.40
458.01	423.64
458.19	442.36
458.38	386.19
458.56	381.51
458.74	344.06
458.93	400.23
459.11	418.96
459.29	444.70
459.48	381.51
459.66	421.30
459.84	411.93
460.03	402.57
460.21	393.21
460.39	468.11
460.57	393.21
460.76	479.81
460.94	383.85
461.12	451.72
461.31	411.93
461.49	386.19
461.67	400.23
461.85	437.68
462.04	458.74
462.22	823.87
462.40	479.81
462.59	390.87
462.77	360.44
462.95	437.68
463.13	425.98
463.32	442.36
463.50	423.64
463.68	351.08
463.86	435.34
464.05	390.87
464.23	388.53
464.41	414.27
464.59	428.32
464.78	397.89
464.96	383.85
465.14	414.27
465.32	444.70
465.50	440.02
465.69	365.12
465.87	386.19
466.05	388.53
466.23	411.93
466.41	447.04
466.60	433.00
466.78	358.10
466.96	425.98
467.14	351.08
467.32	358.10
467.51	414.27
467.69	418.96
467.87	411.93
468.05	444.70
468.23	397.89
468.41	451.72
468.60	479.81
468.78	454.06
468.96	409.59
469.14	372.15
469.32	430.66
469.50	348.74
469.69	477.47
469.87	379.17
470.05	484.49
470.23	393.21
470.41	407.25
470.59	440.02
470.77	440.02
470.95	395.55
471.14	433.00
471.32	418.96
471.50	416.62
471.68	395.55
471.86	463.43
472.04	388.53
472.22	318.31
472.40	365.12
472.58	388.53
472.77	362.78
472.95	418.96
473.13	393.21
473.31	521.94
473.49	465.77
473.67	428.32
473.85	500.87
474.03	414.27
474.21	383.85
474.39	444.70
474.57	449.38
474.75	428.32
474.93	430.66
475.12	404.91
475.30	402.57
475.48	447.04
475.66	482.15
475.84	404.91
476.02	325.33
476.20	468.11
476.38	437.68
476.56	407.25
476.74	407.25
476.92	430.66
477.10	381.51
477.28	440.02
477.46	430.66
477.64	421.30
477.82	379.17
478.00	465.77
478.18	465.77
478.36	472.79
478.54	414.27
478.72	400.23
478.90	440.02
479.08	416.62
479.26	383.85
479.44	379.17
479.62	447.04
479.80	425.98
479.98	486.83
480.16	376.83
480.34	393.21
480.52	360.44
480.70	451.72
480.88	367.46
481.06	383.85
481.24	362.78
481.41	348.74
481.59	400.23
481.77	383.85
481.95	395.55
482.13	425.98
482.31	433.00
482.49	402.57
482.67	428.32
482.85	430.66
483.03	435.34
483.21	500.87
483.39	404.91
483.57	451.72
483.74	484.49
483.92	425.98
484.10	383.85
484.28	449.38
484.46	435.34
484.64	414.27
484.82	341.72
485.00	454.06
485.18	468.11
485.35	435.34
485.53	407.25
485.71	393.21
485.89	402.57
486.07	339.38
486.25	428.32
486.43	400.23
486.61	449.38
486.78	374.49
486.96	430.66
487.14	409.59
487.32	425.98
487.50	313.63
487.68	414.27
487.85	379.17
488.03	409.59
488.21	456.40
488.39	421.30
488.57	430.66
488.75	355.76
488.92	517.26
489.10	369.80
489.28	482.15
489.46	372.15
489.64	425.98
489.81	388.53
489.99	468.11
490.17	369.80
490.35	479.81
490.53	388.53
490.70	355.76
490.88	418.96
491.06	418.96
491.24	454.06
491.41	472.79
491.59	458.74
491.77	461.09
491.95	414.27
492.13	407.25
492.30	407.25
492.48	402.57
492.66	346.40
492.84	461.09
493.01	435.34
493.19	411.93
493.37	423.64
493.54	411.93
493.72	423.64
493.90	402.57
494.08	383.85
494.25	400.23
494.43	440.02
494.61	341.72
494.79	383.85
494.96	411.93
495.14	430.66
495.32	477.47
495.49	376.83
495.67	379.17
495.85	409.59
496.02	463.43
496.20	409.59
496.38	409.59
496.55	449.38
496.73	414.27
496.91	358.10
497.09	447.04
497.26	418.96
497.44	374.49
497.62	353.42
497.79	362.78
497.97	339.38
498.14	461.09
498.32	411.93
498.50	442.36
498.67	428.32
498.85	440.02
499.03	393.21
499.20	482.15
499.38	402.57
499.56	330.02
499.73	472.79
499.91	451.72
500.08	395.55
500.26	379.17
500.44	416.62
500.61	367.46
500.79	388.53
500.97	400.23
501.14	421.30
501.32	461.09
501.49	454.06
501.67	449.38
501.84	440.02
502.02	449.38
502.20	435.34
502.37	449.38
502.55	407.25
502.72	437.68
502.90	475.13
503.07	428.32
503.25	325.33
503.43	447.04
503.60	402.57
503.78	428.32
503.95	440.02
504.13	418.96
504.30	498.53
504.48	442.36
504.65	500.87
504.83	449.38
505.01	376.83
505.18	442.36
505.36	423.64
505.53	416.62
505.71	444.70
505.88	400.23
506.06	430.66
506.23	414.27
506.41	381.51
506.58	477.47
506.76	353.42
506.93	425.98
507.11	409.59
507.28	379.17
507.46	421.30
507.63	404.91
507.81	486.83
507.98	435.34
508.16	418.96
508.33	400.23
508.50	395.55
508.68	456.40
508.85	421.30
509.03	421.30
509.20	381.51
509.38	461.09
509.55	465.77
509.73	388.53
509.90	440.02
510.08	386.19
510.25	465.77
510.42	334.70
510.60	386.19
510.77	425.98
510.95	400.23
511.12	397.89
511.30	451.72
511.47	411.93
511.64	395.55
511.82	397.89
511.99	475.13
512.17	374.49
512.34	362.78
512.51	442.36
512.69	472.79
512.86	442.36
513.04	404.91
513.21	388.53
513.38	383.85
513.56	402.57
513.73	442.36
513.90	313.63
514.08	418.96
514.25	383.85
514.43	306.61
514.60	411.93
514.77	470.45
514.95	397.89
515.12	395.55
515.29	395.55
515.47	379.17
515.64	465.77
515.81	428.32
515.99	444.70
516.16	414.27
516.33	409.59
516.51	369.80
516.68	463.43
516.85	416.62
517.03	374.49
517.20	470.45
517.37	437.68
517.54	435.34
517.72	468.11
517.89	418.96
518.06	418.96
518.24	468.11
518.41	468.11
518.58	418.96
518.75	407.25
518.93	479.81
519.10	339.38
519.27	339.38
519.45	454.06
519.62	390.87
519.79	334.70
519.96	414.27
520.14	486.83
520.31	437.68
520.48	484.49
520.65	449.38
520.83	479.81
521.00	451.72
521.17	402.57
521.34	428.32
521.52	341.72
521.69	362.78
521.86	437.68
522.03	402.57
522.20	496.19
522.38	355.76
522.55	489.17
522.72	395.55
522.89	400.23
523.07	489.17
523.24	393.21
523.41	369.80
523.58	451.72
523.75	351.08
523.92	383.85
524.10	425.98
524.27	381.51
524.44	468.11
524.61	447.04
524.78	421.30
524.96	428.32
525.13	411.93
525.30	358.10
525.47	442.36
525.64	433.00
525.81	404.91
525.98	451.72
526.16	428.32
526.33	390.87
526.50	435.34
526.67	369.80
526.84	407.25
527.01	393.21
527.18	355.76
527.36	416.62
527.53	376.83
527.70	367.46
527.87	390.87
528.04	451.72
528.21	388.53
528.38	393.21
528.55	418.96
528.72	470.45
528.89	463.43
529.07	472.79
529.24	409.59
529.41	489.17
529.58	435.34
529.75	421.30
529.92	400.23
530.09	465.77
530.26	477.47
530.43	351.08
530.60	404.91
530.77	454.06
530.94	482.15
531.11	400.23
531.28	437.68
531.46	447.04
531.63	379.17
531.80	397.89
531.97	397.89
532.14	414.27
532.31	414.27
532.48	416.62
532.65	444.70
532.82	395.55
532.99	421.30
533.16	430.66
533.33	381.51
533.50	388.53
533.67	348.74
533.84	402.57
534.01	482.15
534.18	362.78
534.35	482.15
534.52	416.62
534.69	435.34
534.86	433.00
535.03	395.55
535.20	407.25
535.37	404.91
535.54	379.17
535.71	311.29
535.88	493.85
536.05	414.27
536.22	376.83
536.38	425.98
536.55	395.55
536.72	418.96
536.89	425.98
537.06	297.25
537.23	470.45
537.40	433.00
537.57	383.85
537.74	433.00
537.91	475.13
538.08	440.02
538.25	447.04
538.42	381.51
538.59	428.32
538.75	428.32
538.92	435.34
539.09	468.11
539.26	440.02
539.43	440.02
539.60	374.49
539.77	411.93
539.94	388.53
540.11	461.09
540.28	451.72
540.44	411.93
540.61	428.32
540.78	411.93
540.95	411.93
541.12	430.66
541.29	437.68
541.46	454.06
541.62	388.53
541.79	428.32
541.96	374.49
542.13	332.36
542.30	423.64
542.47	435.34
542.63	418.96
542.80	414.27
542.97	428.32
543.14	404.91
543.31	451.72
543.48	407.25
543.64	444.70
543.81	447.04
543.98	433.00
544.15	367.46
544.32	451.72
544.48	360.44
544.65	447.04
544.82	320.65
544.99	404.91
545.16	425.98
545.32	463.43
545.49	517.26
545.66	440.02
545.83	428.32
546.00	379.17
546.16	414.27
546.33	421.30
546.50	348.74
546.67	451.72
546.83	461.09
547.00	418.96
547.17	475.13
547.34	388.53
547.50	440.02
547.67	456.40
547.84	425.98
548.00	346.40
548.17	472.79
548.34	393.21
548.51	489.17
548.67	451.72
548.84	386.19
549.01	503.22
549.18	465.77
549.34	351.08
549.51	461.09
549.68	400.23
549.84	482.15
550.01	449.38
550.18	482.15
550.34	461.09
550.51	442.36
550.68	491.51
550.84	374.49
551.01	376.83
551.18	383.85
551.34	440.02
551.51	500.87
551.68	451.72
551.84	449.38
552.01	402.57
552.18	451.72
552.34	390.87
552.51	409.59
552.68	435.34
552.84	381.51
553.01	404.91
553.18	409.59
553.34	404.91
553.51	454.06
553.67	421.30
553.84	411.93
554.01	463.43
554.17	428.32
554.34	379.17
554.51	470.45
554.67	496.19
554.84	400.23
555.00	425.98
555.17	379.17
555.33	402.57
555.50	463.43
555.67	461.09
555.83	430.66
556.00	416.62
556.16	531.30
556.33	461.09
556.50	358.10
556.66	390.87
556.83	442.36
556.99	383.85
557.16	360.44
557.32	411.93
557.49	440.02
557.65	493.85
557.82	402.57
557.98	390.87
558.15	388.53
558.32	458.74
558.48	393.21
558.65	393.21
558.81	372.15
558.98	365.12
559.14	428.32
559.31	430.66
559.47	402.57
559.64	425.98
559.80	388.53
559.97	425.98
560.13	454.06
560.30	414.27
560.46	372.15
560.63	442.36
560.79	409.59
560.96	430.66
561.12	404.91
561.29	411.93
561.45	360.44
561.61	430.66
561.78	496.19
561.94	374.49
562.11	425.98
562.27	379.17
562.44	402.57
562.60	470.45
562.77	449.38
562.93	517.26
563.10	390.87
563.26	388.53
563.42	433.00
563.59	428.32
563.75	425.98
563.92	449.38
564.08	437.68
564.24	463.43
564.41	489.17
564.57	386.19
564.74	379.17
564.90	402.57
565.07	465.77
565.23	407.25
565.39	414.27
565.56	435.34
565.72	374.49
565.88	400.23
566.05	484.49
566.21	332.36
566.38	433.00
566.54	435.34
566.70	472.79
566.87	409.59
567.03	468.11
567.19	470.45
567.36	404.91
567.52	423.64
567.68	496.19
567.85	414.27
568.01	393.21
568.17	383.85
568.34	402.57
568.50	468.11
568.66	339.38
568.83	449.38
568.99	421.30
569.15	514.92
569.32	477.47
569.48	458.74
569.64	421.30
569.81	447.04
569.97	409.59
570.13	435.34
570.30	386.19
570.46	388.53
570.62	362.78
570.78	435.34
570.95	388.53
571.11	421.30
571.27	512.58
571.43	395.55
571.60	489.17
571.76	390.87
571.92	390.87
572.09	348.74
572.25	362.78
572.41	409.59
572.57	395.55
572.74	390.87
572.90	444.70
573.06	369.80
573.22	411.93
573.38	383.85
573.55	454.06
573.71	435.34
573.87	444.70
574.03	358.10
574.20	400.23
574.36	435.34
574.52	472.79
574.68	402.57
574.84	465.77
575.01	367.46
575.17	369.80
575.33	344.06
575.49	407.25
575.65	444.70
575.82	458.74
575.98	571.09
576.14	437.68
576.30	444.70
576.46	402.57
576.62	381.51
576.79	433.00
576.95	475.13
577.11	449.38
577.27	407.25
577.43	433.00
577.59	404.91
577.75	404.91
577.92	421.30
578.08	416.62
578.24	330.02
578.40	498.53
578.56	411.93
578.72	425.98
578.88	484.49
579.04	395.55
579.21	425.98
579.37	433.00
579.53	425.98
579.69	423.64
579.85	411.93
580.01	465.77
580.17	444.70
580.33	395.55
580.49	376.83
580.65	433.00
580.82	428.32
580.98	428.32
581.14	442.36
581.30	458.74
581.46	418.96
581.62	533.64
581.78	360.44
581.94	423.64
582.10	440.02
582.26	390.87
582.42	421.30
582.58	428.32
582.74	414.27
582.90	442.36
583.06	482.15
583.22	414.27
583.38	409.59
583.54	421.30
583.70	465.77
583.86	407.25
584.02	458.74
584.18	447.04
584.34	470.45
584.50	447.04
584.66	416.62
584.82	400.23
584.98	423.64
585.14	449.38
585.30	367.46
585.46	390.87
585.62	369.80
585.78	435.34
585.94	435.34
586.10	433.00
586.26	393.21
586.42	440.02
586.58	444.70
586.74	379.17
586.90	381.51
587.06	451.72
587.22	491.51
587.38	390.87
587.54	447.04
587.70	416.62
587.86	414.27
588.02	360.44
588.18	327.68
588.34	423.64
588.49	400.23
588.65	435.34
588.81	449.38
588.97	402.57
589.13	430.66
589.29	400.23
589.45	458.74
589.61	428.32
589.77	468.11
589.93	341.72
590.08	479.81
590.24	475.13
590.40	402.57
590.56	423.64
590.72	416.62
590.88	418.96
591.04	421.30
591.20	372.15
591.35	470.45
591.51	341.72
591.67	428.32
591.83	367.46
591.99	393.21
592.15	437.68
592.31	400.23
592.46	433.00
592.62	451.72
592.78	425.98
592.94	404.91
593.10	313.63
593.26	351.08
593.41	463.43
593.57	337.04
593.73	444.70
593.89	280.86
594.05	402.57
594.20	379.17
594.36	463.43
594.52	409.59
594.68	433.00
594.84	484.49
594.99	386.19
595.15	383.85
595.31	418.96
595.47	472.79
595.62	472.79
595.78	327.68
595.94	337.04
596.10	491.51
596.25	463.43
596.41	454.06
596.57	425.98
596.73	397.89
596.88	428.32
597.04	425.98
597.20	325.33
597.36	468.11
597.51	430.66
597.67	465.77
597.83	430.66
597.99	444.70
598.14	358.10
598.30	468.11
598.46	463.43
598.61	505.56
598.77	381.51
598.93	351.08
599.09	360.44
599.24	365.12
599.40	475.13
599.56	393.21
599.71	458.74
599.87	444.70
600.03	456.40
600.18	465.77
600.34	404.91
600.50	390.87
600.65	411.93
600.81	416.62
600.97	418.96
601.12	416.62
601.28	463.43
601.44	379.17
601.59	397.89
601.75	454.06
601.91	428.32
602.06	414.27
602.22	517.26
602.37	386.19
602.53	470.45
602.69	393.21
602.84	433.00
603.00	374.49
603.16	409.59
603.31	435.34
603.47	395.55
603.62	416.62
603.78	395.55
603.94	414.27
604.09	458.74
604.25	500.87
604.40	479.81
604.56	435.34
604.71	447.04
604.87	416.62
605.03	463.43
605.18	461.09
605.34	437.68
605.49	437.68
605.65	458.74
605.80	423.64
605.96	468.11
606.12	421.30
606.27	360.44
606.43	416.62
606.58	418.96
606.74	386.19
606.89	456.40
607.05	449.38
607.20	390.87
607.36	383.85
607.51	362.78
607.67	397.89
607.82	430.66
607.98	407.25
608.13	388.53
608.29	489.17
608.44	381.51
608.60	376.83
608.75	346.40
608.91	404.91
609.06	411.93
609.22	400.23
609.37	477.47
609.53	355.76
609.68	409.59
609.84	397.89
609.99	339.38
610.15	360.44
