SpectraSuite Data File
++++++++++++++++++++++++++++++++++++
Date: Fri Oct 25 12:10:17 EDT 2013
User: price-jones
Dark Spectrum Present: No
Reference Spectrum Present: No
Number of Sampled Component Spectra: 1
Spectrometers: USB2+H05261
Integration Time (usec): 100000 (USB2+H05261)
Spectra Averaged: 1 (USB2+H05261)
Boxcar Smoothing: 0 (USB2+H05261)
Correct for Electrical Dark: No (USB2+H05261)
Strobe/Lamp Enabled: No (USB2+H05261)
Correct for Detector Non-linearity: No (USB2+H05261)
Correct for Stray Light: No (USB2+H05261)
Number of Pixels in Processed Spectrum: 2048
>>>>>Begin Processed Spectral Data<<<<<
365.73	367.46
365.92	367.46
366.12	367.46
366.32	217.67
366.52	198.95
366.72	304.27
366.91	182.56
367.11	222.35
367.31	238.73
367.51	252.78
367.70	236.39
367.90	149.79
368.10	255.12
368.30	243.42
368.49	191.92
368.69	170.86
368.89	182.56
369.09	299.59
369.28	231.71
369.48	229.37
369.68	283.20
369.87	351.08
370.07	285.55
370.27	229.37
370.47	294.91
370.66	313.63
370.86	297.25
371.06	393.21
371.25	369.80
371.45	374.49
371.65	344.06
371.84	299.59
372.04	458.74
372.24	402.57
372.44	440.02
372.63	435.34
372.83	461.09
373.03	402.57
373.22	409.59
373.42	411.93
373.62	416.62
373.81	433.00
374.01	447.04
374.21	411.93
374.40	409.59
374.60	416.62
374.79	404.91
374.99	414.27
375.19	421.30
375.38	444.70
375.58	449.38
375.78	421.30
375.97	461.09
376.17	505.56
376.37	355.76
376.56	456.40
376.76	397.89
376.95	423.64
377.15	397.89
377.35	519.60
377.54	393.21
377.74	425.98
377.93	353.42
378.13	437.68
378.33	447.04
378.52	451.72
378.72	407.25
378.91	440.02
379.11	346.40
379.31	447.04
379.50	374.49
379.70	435.34
379.89	433.00
380.09	397.89
380.28	435.34
380.48	407.25
380.68	308.95
380.87	456.40
381.07	423.64
381.26	435.34
381.46	449.38
381.65	421.30
381.85	367.46
382.04	334.70
382.24	416.62
382.43	395.55
382.63	381.51
382.83	395.55
383.02	348.74
383.22	416.62
383.41	337.04
383.61	365.12
383.80	463.43
384.00	386.19
384.19	400.23
384.39	379.17
384.58	444.70
384.78	414.27
384.97	365.12
385.17	444.70
385.36	374.49
385.56	400.23
385.75	360.44
385.95	337.04
386.14	505.56
386.34	379.17
386.53	369.80
386.72	491.51
386.92	465.77
387.11	301.93
387.31	470.45
387.50	442.36
387.70	360.44
387.89	435.34
388.09	425.98
388.28	337.04
388.48	334.70
388.67	407.25
388.86	437.68
389.06	404.91
389.25	449.38
389.45	376.83
389.64	325.33
389.84	496.19
390.03	411.93
390.22	355.76
390.42	395.55
390.61	376.83
390.81	372.15
391.00	414.27
391.19	404.91
391.39	362.78
391.58	416.62
391.78	428.32
391.97	465.77
392.16	374.49
392.36	418.96
392.55	470.45
392.75	454.06
392.94	416.62
393.13	458.74
393.33	404.91
393.52	414.27
393.71	334.70
393.91	425.98
394.10	444.70
394.29	433.00
394.49	358.10
394.68	425.98
394.88	430.66
395.07	425.98
395.26	454.06
395.46	397.89
395.65	423.64
395.84	400.23
396.04	461.09
396.23	430.66
396.42	440.02
396.62	435.34
396.81	360.44
397.00	372.15
397.19	482.15
397.39	404.91
397.58	472.79
397.77	433.00
397.97	362.78
398.16	442.36
398.35	479.81
398.55	409.59
398.74	407.25
398.93	416.62
399.12	475.13
399.32	458.74
399.51	428.32
399.70	465.77
399.90	388.53
400.09	437.68
400.28	421.30
400.47	411.93
400.67	440.02
400.86	397.89
401.05	425.98
401.24	470.45
401.44	470.45
401.63	428.32
401.82	433.00
402.01	400.23
402.21	369.80
402.40	374.49
402.59	390.87
402.78	404.91
402.97	407.25
403.17	393.21
403.36	404.91
403.55	327.68
403.74	402.57
403.93	421.30
404.13	456.40
404.32	416.62
404.51	402.57
404.70	437.68
404.89	334.70
405.09	503.22
405.28	444.70
405.47	372.15
405.66	423.64
405.85	409.59
406.05	458.74
406.24	353.42
406.43	379.17
406.62	381.51
406.81	407.25
407.00	400.23
407.20	386.19
407.39	400.23
407.58	435.34
407.77	444.70
407.96	442.36
408.15	482.15
408.34	435.34
408.54	388.53
408.73	447.04
408.92	435.34
409.11	367.46
409.30	416.62
409.49	390.87
409.68	479.81
409.87	416.62
410.07	390.87
410.26	360.44
410.45	421.30
410.64	346.40
410.83	346.40
411.02	423.64
411.21	433.00
411.40	463.43
411.59	421.30
411.78	381.51
411.98	381.51
412.17	395.55
412.36	463.43
412.55	308.95
412.74	512.58
412.93	435.34
413.12	400.23
413.31	430.66
413.50	416.62
413.69	383.85
413.88	381.51
414.07	381.51
414.26	393.21
414.45	355.76
414.64	418.96
414.83	379.17
415.02	414.27
415.22	341.72
415.41	468.11
415.60	369.80
415.79	353.42
415.98	472.79
416.17	369.80
416.36	411.93
416.55	402.57
416.74	428.32
416.93	416.62
417.12	414.27
417.31	360.44
417.50	341.72
417.69	428.32
417.88	454.06
418.07	425.98
418.26	393.21
418.45	435.34
418.64	486.83
418.83	355.76
419.02	402.57
419.21	433.00
419.39	435.34
419.58	437.68
419.77	383.85
419.96	425.98
420.15	472.79
420.34	430.66
420.53	381.51
420.72	367.46
420.91	414.27
421.10	451.72
421.29	418.96
421.48	437.68
421.67	423.64
421.86	442.36
422.05	418.96
422.24	404.91
422.43	409.59
422.61	407.25
422.80	379.17
422.99	381.51
423.18	409.59
423.37	454.06
423.56	393.21
423.75	402.57
423.94	400.23
424.13	318.31
424.32	362.78
424.50	456.40
424.69	383.85
424.88	458.74
425.07	421.30
425.26	416.62
425.45	465.77
425.64	444.70
425.83	414.27
426.01	463.43
426.20	386.19
426.39	381.51
426.58	365.12
426.77	395.55
426.96	430.66
427.15	411.93
427.33	388.53
427.52	458.74
427.71	486.83
427.90	414.27
428.09	428.32
428.28	409.59
428.46	395.55
428.65	376.83
428.84	395.55
429.03	437.68
429.22	386.19
429.40	440.02
429.59	390.87
429.78	440.02
429.97	458.74
430.16	414.27
430.34	425.98
430.53	397.89
430.72	421.30
430.91	491.51
431.10	388.53
431.28	421.30
431.47	435.34
431.66	430.66
431.85	421.30
432.03	315.97
432.22	454.06
432.41	297.25
432.60	430.66
432.79	409.59
432.97	355.76
433.16	395.55
433.35	379.17
433.54	362.78
433.72	430.66
433.91	454.06
434.10	430.66
434.28	383.85
434.47	402.57
434.66	390.87
434.85	386.19
435.03	400.23
435.22	442.36
435.41	390.87
435.59	463.43
435.78	444.70
435.97	379.17
436.16	465.77
436.34	433.00
436.53	407.25
436.72	421.30
436.90	397.89
437.09	376.83
437.28	397.89
437.46	369.80
437.65	454.06
437.84	400.23
438.02	379.17
438.21	388.53
438.40	404.91
438.58	423.64
438.77	346.40
438.96	454.06
439.14	374.49
439.33	484.49
439.52	397.89
439.70	355.76
439.89	400.23
440.08	447.04
440.26	383.85
440.45	435.34
440.63	421.30
440.82	379.17
441.01	407.25
441.19	421.30
441.38	451.72
441.57	381.51
441.75	407.25
441.94	425.98
442.12	456.40
442.31	355.76
442.50	430.66
442.68	416.62
442.87	472.79
443.05	456.40
443.24	411.93
443.43	418.96
443.61	493.85
443.80	397.89
443.98	407.25
444.17	470.45
444.35	428.32
444.54	332.36
444.73	444.70
444.91	465.77
445.10	428.32
445.28	402.57
445.47	421.30
445.65	402.57
445.84	433.00
446.02	409.59
446.21	402.57
446.39	449.38
446.58	477.47
446.77	379.17
446.95	383.85
447.14	451.72
447.32	442.36
447.51	421.30
447.69	428.32
447.88	454.06
448.06	411.93
448.25	428.32
448.43	423.64
448.62	386.19
448.80	397.89
448.99	451.72
449.17	376.83
449.36	327.68
449.54	447.04
449.73	400.23
449.91	428.32
450.10	395.55
450.28	433.00
450.46	423.64
450.65	423.64
450.83	362.78
451.02	339.38
451.20	369.80
451.39	393.21
451.57	381.51
451.76	367.46
451.94	355.76
452.13	376.83
452.31	451.72
452.49	416.62
452.68	421.30
452.86	465.77
453.05	451.72
453.23	435.34
453.42	433.00
453.60	477.47
453.78	430.66
453.97	365.12
454.15	402.57
454.34	409.59
454.52	454.06
454.70	449.38
454.89	376.83
455.07	425.98
455.26	395.55
455.44	414.27
455.62	360.44
455.81	423.64
455.99	510.24
456.17	423.64
456.36	358.10
456.54	360.44
456.73	339.38
456.91	362.78
457.09	428.32
457.28	409.59
457.46	388.53
457.64	440.02
457.83	390.87
458.01	428.32
458.19	437.68
458.38	465.77
458.56	421.30
458.74	454.06
458.93	414.27
459.11	379.17
459.29	365.12
459.48	393.21
459.66	414.27
459.84	456.40
460.03	482.15
460.21	414.27
460.39	348.74
460.57	430.66
460.76	376.83
460.94	418.96
461.12	416.62
461.31	425.98
461.49	395.55
461.67	372.15
461.85	393.21
462.04	451.72
462.22	765.36
462.40	477.47
462.59	433.00
462.77	381.51
462.95	414.27
463.13	393.21
463.32	404.91
463.50	414.27
463.68	437.68
463.86	444.70
464.05	358.10
464.23	430.66
464.41	489.17
464.59	344.06
464.78	435.34
464.96	407.25
465.14	383.85
465.32	379.17
465.50	395.55
465.69	388.53
465.87	418.96
466.05	376.83
466.23	456.40
466.41	362.78
466.60	400.23
466.78	400.23
466.96	456.40
467.14	397.89
467.32	414.27
467.51	332.36
467.69	397.89
467.87	472.79
468.05	386.19
468.23	430.66
468.41	407.25
468.60	397.89
468.78	437.68
468.96	493.85
469.14	379.17
469.32	372.15
469.50	332.36
469.69	468.11
469.87	458.74
470.05	381.51
470.23	386.19
470.41	322.99
470.59	402.57
470.77	393.21
470.95	383.85
471.14	414.27
471.32	430.66
471.50	400.23
471.68	437.68
471.86	479.81
472.04	484.49
472.22	400.23
472.40	430.66
472.58	365.12
472.77	383.85
472.95	416.62
473.13	418.96
473.31	423.64
473.49	449.38
473.67	475.13
473.85	379.17
474.03	414.27
474.21	374.49
474.39	416.62
474.57	475.13
474.75	383.85
474.93	402.57
475.12	379.17
475.30	358.10
475.48	423.64
475.66	414.27
475.84	418.96
476.02	435.34
476.20	416.62
476.38	374.49
476.56	428.32
476.74	393.21
476.92	416.62
477.10	400.23
477.28	404.91
477.46	395.55
477.64	404.91
477.82	397.89
478.00	402.57
478.18	444.70
478.36	404.91
478.54	444.70
478.72	416.62
478.90	433.00
479.08	393.21
479.26	397.89
479.44	433.00
479.62	442.36
479.80	360.44
479.98	379.17
480.16	395.55
480.34	479.81
480.52	444.70
480.70	386.19
480.88	418.96
481.06	409.59
481.24	442.36
481.41	390.87
481.59	461.09
481.77	470.45
481.95	428.32
482.13	404.91
482.31	463.43
482.49	311.29
482.67	425.98
482.85	397.89
483.03	381.51
483.21	433.00
483.39	470.45
483.57	358.10
483.74	397.89
483.92	400.23
484.10	362.78
484.28	444.70
484.46	461.09
484.64	423.64
484.82	393.21
485.00	337.04
485.18	376.83
485.35	397.89
485.53	386.19
485.71	386.19
485.89	456.40
486.07	390.87
486.25	425.98
486.43	400.23
486.61	407.25
486.78	468.11
486.96	344.06
487.14	409.59
487.32	358.10
487.50	425.98
487.68	449.38
487.85	386.19
488.03	430.66
488.21	458.74
488.39	418.96
488.57	440.02
488.75	369.80
488.92	489.17
489.10	402.57
489.28	470.45
489.46	390.87
489.64	421.30
489.81	322.99
489.99	402.57
490.17	444.70
490.35	393.21
490.53	395.55
490.70	435.34
490.88	341.72
491.06	402.57
491.24	414.27
491.41	482.15
491.59	397.89
491.77	355.76
491.95	442.36
492.13	393.21
492.30	416.62
492.48	388.53
492.66	447.04
492.84	493.85
493.01	390.87
493.19	437.68
493.37	486.83
493.54	388.53
493.72	315.97
493.90	369.80
494.08	400.23
494.25	435.34
494.43	498.53
494.61	393.21
494.79	442.36
494.96	320.65
495.14	461.09
495.32	337.04
495.49	479.81
495.67	376.83
495.85	444.70
496.02	416.62
496.20	393.21
496.38	353.42
496.55	416.62
496.73	430.66
496.91	433.00
497.09	301.93
497.26	393.21
497.44	383.85
497.62	435.34
497.79	454.06
497.97	409.59
498.14	393.21
498.32	402.57
498.50	454.06
498.67	407.25
498.85	409.59
499.03	400.23
499.20	444.70
499.38	402.57
499.56	451.72
499.73	433.00
499.91	451.72
500.08	397.89
500.26	395.55
500.44	383.85
500.61	433.00
500.79	388.53
500.97	369.80
501.14	407.25
501.32	348.74
501.49	468.11
501.67	425.98
501.84	458.74
502.02	472.79
502.20	456.40
502.37	383.85
502.55	416.62
502.72	344.06
502.90	418.96
503.07	472.79
503.25	447.04
503.43	409.59
503.60	461.09
503.78	430.66
503.95	440.02
504.13	400.23
504.30	411.93
504.48	479.81
504.65	402.57
504.83	451.72
505.01	409.59
505.18	374.49
505.36	444.70
505.53	442.36
505.71	430.66
505.88	451.72
506.06	433.00
506.23	433.00
506.41	418.96
506.58	472.79
506.76	416.62
506.93	402.57
507.11	367.46
507.28	372.15
507.46	374.49
507.63	358.10
507.81	346.40
507.98	442.36
508.16	442.36
508.33	397.89
508.50	423.64
508.68	379.17
508.85	393.21
509.03	416.62
509.20	358.10
509.38	454.06
509.55	440.02
509.73	430.66
509.90	435.34
510.08	344.06
510.25	397.89
510.42	411.93
510.60	400.23
510.77	341.72
510.95	397.89
511.12	435.34
511.30	458.74
511.47	428.32
511.64	482.15
511.82	407.25
511.99	386.19
512.17	423.64
512.34	341.72
512.51	367.46
512.69	407.25
512.86	416.62
513.04	440.02
513.21	437.68
513.38	425.98
513.56	414.27
513.73	433.00
513.90	411.93
514.08	435.34
514.25	465.77
514.43	418.96
514.60	369.80
514.77	383.85
514.95	437.68
515.12	393.21
515.29	418.96
515.47	416.62
515.64	435.34
515.81	489.17
515.99	456.40
516.16	393.21
516.33	388.53
516.51	390.87
516.68	351.08
516.85	461.09
517.03	383.85
517.20	395.55
517.37	442.36
517.54	407.25
517.72	414.27
517.89	334.70
518.06	386.19
518.24	458.74
518.41	465.77
518.58	435.34
518.75	454.06
518.93	421.30
519.10	414.27
519.27	367.46
519.45	402.57
519.62	402.57
519.79	414.27
519.96	299.59
520.14	379.17
520.31	411.93
520.48	369.80
520.65	341.72
520.83	397.89
521.00	428.32
521.17	437.68
521.34	421.30
521.52	440.02
521.69	433.00
521.86	355.76
522.03	358.10
522.20	465.77
522.38	449.38
522.55	435.34
522.72	353.42
522.89	404.91
523.07	393.21
523.24	440.02
523.41	454.06
523.58	451.72
523.75	468.11
523.92	341.72
524.10	463.43
524.27	425.98
524.44	355.76
524.61	433.00
524.78	395.55
524.96	493.85
525.13	383.85
525.30	372.15
525.47	503.22
525.64	407.25
525.81	468.11
525.98	411.93
526.16	428.32
526.33	428.32
526.50	393.21
526.67	355.76
526.84	367.46
527.01	416.62
527.18	463.43
527.36	393.21
527.53	404.91
527.70	390.87
527.87	337.04
528.04	449.38
528.21	372.15
528.38	491.51
528.55	433.00
528.72	475.13
528.89	496.19
529.07	379.17
529.24	355.76
529.41	383.85
529.58	404.91
529.75	369.80
529.92	454.06
530.09	421.30
530.26	482.15
530.43	456.40
530.60	416.62
530.77	388.53
530.94	428.32
531.11	383.85
531.28	428.32
531.46	372.15
531.63	404.91
531.80	414.27
531.97	393.21
532.14	414.27
532.31	425.98
532.48	425.98
532.65	451.72
532.82	390.87
532.99	454.06
533.16	461.09
533.33	397.89
533.50	400.23
533.67	421.30
533.84	437.68
534.01	456.40
534.18	407.25
534.35	423.64
534.52	355.76
534.69	503.22
534.86	409.59
535.03	437.68
535.20	407.25
535.37	386.19
535.54	437.68
535.71	360.44
535.88	451.72
536.05	404.91
536.22	423.64
536.38	428.32
536.55	440.02
536.72	472.79
536.89	444.70
537.06	479.81
537.23	383.85
537.40	353.42
537.57	390.87
537.74	482.15
537.91	393.21
538.08	421.30
538.25	404.91
538.42	320.65
538.59	468.11
538.75	416.62
538.92	409.59
539.09	475.13
539.26	517.26
539.43	416.62
539.60	449.38
539.77	437.68
539.94	430.66
540.11	397.89
540.28	454.06
540.44	400.23
540.61	463.43
540.78	484.49
540.95	442.36
541.12	428.32
541.29	421.30
541.46	463.43
541.62	470.45
541.79	425.98
541.96	372.15
542.13	409.59
542.30	433.00
542.47	444.70
542.63	390.87
542.80	369.80
542.97	458.74
543.14	433.00
543.31	433.00
543.48	348.74
543.64	409.59
543.81	411.93
543.98	374.49
544.15	397.89
544.32	397.89
544.48	475.13
544.65	355.76
544.82	393.21
544.99	362.78
545.16	435.34
545.32	447.04
545.49	374.49
545.66	442.36
545.83	400.23
546.00	400.23
546.16	418.96
546.33	397.89
546.50	472.79
546.67	425.98
546.83	397.89
547.00	458.74
547.17	386.19
547.34	404.91
547.50	397.89
547.67	402.57
547.84	444.70
548.00	376.83
548.17	442.36
548.34	461.09
548.51	433.00
548.67	433.00
548.84	390.87
549.01	383.85
549.18	463.43
549.34	486.83
549.51	456.40
549.68	421.30
549.84	425.98
550.01	395.55
550.18	463.43
550.34	491.51
550.51	372.15
550.68	475.13
550.84	404.91
551.01	360.44
551.18	341.72
551.34	369.80
551.51	346.40
551.68	351.08
551.84	428.32
552.01	397.89
552.18	435.34
552.34	421.30
552.51	400.23
552.68	383.85
552.84	433.00
553.01	449.38
553.18	447.04
553.34	383.85
553.51	411.93
553.67	416.62
553.84	454.06
554.01	367.46
554.17	397.89
554.34	362.78
554.51	402.57
554.67	451.72
554.84	465.77
555.00	418.96
555.17	386.19
555.33	475.13
555.50	456.40
555.67	451.72
555.83	442.36
556.00	374.49
556.16	470.45
556.33	407.25
556.50	416.62
556.66	327.68
556.83	313.63
556.99	440.02
557.16	404.91
557.32	341.72
557.49	351.08
557.65	423.64
557.82	456.40
557.98	418.96
558.15	472.79
558.32	372.15
558.48	411.93
558.65	442.36
558.81	440.02
558.98	402.57
559.14	404.91
559.31	383.85
559.47	374.49
559.64	435.34
559.80	428.32
559.97	486.83
560.13	468.11
560.30	430.66
560.46	393.21
560.63	407.25
560.79	409.59
560.96	442.36
561.12	393.21
561.29	463.43
561.45	425.98
561.61	374.49
561.78	444.70
561.94	367.46
562.11	390.87
562.27	404.91
562.44	451.72
562.60	461.09
562.77	400.23
562.93	461.09
563.10	341.72
563.26	409.59
563.42	430.66
563.59	444.70
563.75	435.34
563.92	496.19
564.08	386.19
564.24	465.77
564.41	519.60
564.57	407.25
564.74	449.38
564.90	517.26
565.07	442.36
565.23	369.80
565.39	447.04
565.56	428.32
565.72	407.25
565.88	409.59
566.05	374.49
566.21	381.51
566.38	465.77
566.54	454.06
566.70	381.51
566.87	430.66
567.03	402.57
567.19	440.02
567.36	386.19
567.52	489.17
567.68	369.80
567.85	418.96
568.01	425.98
568.17	355.76
568.34	379.17
568.50	425.98
568.66	409.59
568.83	458.74
568.99	369.80
569.15	430.66
569.32	414.27
569.48	440.02
569.64	440.02
569.81	423.64
569.97	433.00
570.13	414.27
570.30	395.55
570.46	442.36
570.62	369.80
570.78	383.85
570.95	411.93
571.11	496.19
571.27	404.91
571.43	395.55
571.60	475.13
571.76	425.98
571.92	421.30
572.09	449.38
572.25	369.80
572.41	381.51
572.57	388.53
572.74	428.32
572.90	395.55
573.06	409.59
573.22	458.74
573.38	468.11
573.55	437.68
573.71	428.32
573.87	437.68
574.03	400.23
574.20	360.44
574.36	475.13
574.52	374.49
574.68	411.93
574.84	449.38
575.01	397.89
575.17	423.64
575.33	402.57
575.49	395.55
575.65	414.27
575.82	454.06
575.98	411.93
576.14	411.93
576.30	407.25
576.46	369.80
576.62	433.00
576.79	451.72
576.95	435.34
577.11	409.59
577.27	425.98
577.43	477.47
577.59	416.62
577.75	379.17
577.92	454.06
578.08	414.27
578.24	400.23
578.40	484.49
578.56	454.06
578.72	489.17
578.88	465.77
579.04	472.79
579.21	332.36
579.37	402.57
579.53	421.30
579.69	397.89
579.85	447.04
580.01	388.53
580.17	362.78
580.33	390.87
580.49	301.93
580.65	425.98
580.82	388.53
580.98	421.30
581.14	369.80
581.30	465.77
581.46	395.55
581.62	493.85
581.78	397.89
581.94	358.10
582.10	409.59
582.26	451.72
582.42	470.45
582.58	477.47
582.74	374.49
582.90	402.57
583.06	416.62
583.22	369.80
583.38	395.55
583.54	400.23
583.70	421.30
583.86	407.25
584.02	449.38
584.18	447.04
584.34	447.04
584.50	418.96
584.66	440.02
584.82	393.21
584.98	416.62
585.14	374.49
585.30	435.34
585.46	447.04
585.62	407.25
585.78	362.78
585.94	395.55
586.10	416.62
586.26	447.04
586.42	430.66
586.58	416.62
586.74	395.55
586.90	379.17
587.06	454.06
587.22	510.24
587.38	409.59
587.54	449.38
587.70	374.49
587.86	470.45
588.02	449.38
588.18	454.06
588.34	393.21
588.49	444.70
588.65	372.15
588.81	421.30
588.97	447.04
589.13	414.27
589.29	458.74
589.45	479.81
589.61	442.36
589.77	435.34
589.93	421.30
590.08	386.19
590.24	435.34
590.40	449.38
590.56	416.62
590.72	451.72
590.88	404.91
591.04	458.74
591.20	388.53
591.35	379.17
591.51	428.32
591.67	383.85
591.83	470.45
591.99	482.15
592.15	444.70
592.31	444.70
592.46	435.34
592.62	433.00
592.78	423.64
592.94	379.17
593.10	435.34
593.26	383.85
593.41	447.04
593.57	428.32
593.73	411.93
593.89	454.06
594.05	454.06
594.20	423.64
594.36	374.49
594.52	346.40
594.68	376.83
594.84	400.23
594.99	423.64
595.15	447.04
595.31	470.45
595.47	407.25
595.62	461.09
595.78	365.12
595.94	358.10
596.10	404.91
596.25	468.11
596.41	428.32
596.57	374.49
596.73	423.64
596.88	414.27
597.04	423.64
597.20	416.62
597.36	409.59
597.51	409.59
597.67	421.30
597.83	437.68
597.99	456.40
598.14	416.62
598.30	489.17
598.46	428.32
598.61	395.55
598.77	369.80
598.93	407.25
599.09	491.51
599.24	379.17
599.40	381.51
599.56	411.93
599.71	355.76
599.87	423.64
600.03	461.09
600.18	393.21
600.34	472.79
600.50	372.15
600.65	381.51
600.81	409.59
600.97	435.34
601.12	393.21
601.28	442.36
601.44	437.68
601.59	402.57
601.75	390.87
601.91	437.68
602.06	433.00
602.22	421.30
602.37	390.87
602.53	365.12
602.69	449.38
602.84	395.55
603.00	418.96
603.16	381.51
603.31	437.68
603.47	395.55
603.62	315.97
603.78	437.68
603.94	430.66
604.09	442.36
604.25	393.21
604.40	411.93
604.56	428.32
604.71	360.44
604.87	353.42
605.03	440.02
605.18	437.68
605.34	442.36
605.49	428.32
605.65	388.53
605.80	353.42
605.96	388.53
606.12	400.23
606.27	470.45
606.43	400.23
606.58	449.38
606.74	465.77
606.89	442.36
607.05	425.98
607.20	418.96
607.36	491.51
607.51	411.93
607.67	402.57
607.82	341.72
607.98	482.15
608.13	451.72
608.29	416.62
608.44	479.81
608.60	440.02
608.75	451.72
608.91	416.62
609.06	404.91
609.22	428.32
609.37	442.36
609.53	423.64
609.68	404.91
609.84	421.30
609.99	386.19
610.15	477.47
