SpectraSuite Data File
++++++++++++++++++++++++++++++++++++
Date: Fri Oct 25 12:11:16 EDT 2013
User: price-jones
Dark Spectrum Present: No
Reference Spectrum Present: No
Number of Sampled Component Spectra: 1
Spectrometers: USB2+H05261
Integration Time (usec): 100000 (USB2+H05261)
Spectra Averaged: 1 (USB2+H05261)
Boxcar Smoothing: 0 (USB2+H05261)
Correct for Electrical Dark: No (USB2+H05261)
Strobe/Lamp Enabled: No (USB2+H05261)
Correct for Detector Non-linearity: No (USB2+H05261)
Correct for Stray Light: No (USB2+H05261)
Number of Pixels in Processed Spectrum: 2048
>>>>>Begin Processed Spectral Data<<<<<
365.73	339.38
365.92	339.38
366.12	339.38
366.32	292.57
366.52	252.78
366.72	285.55
366.91	191.92
367.11	217.67
367.31	248.10
367.51	285.55
367.70	234.05
367.90	257.46
368.10	217.67
368.30	271.50
368.49	273.84
368.69	220.01
368.89	306.61
369.09	262.14
369.28	212.99
369.48	250.44
369.68	259.80
369.87	365.12
370.07	332.36
370.27	346.40
370.47	306.61
370.66	301.93
370.86	315.97
371.06	360.44
371.25	425.98
371.45	327.68
371.65	379.17
371.84	374.49
372.04	339.38
372.24	465.77
372.44	381.51
372.63	454.06
372.83	402.57
373.03	425.98
373.22	358.10
373.42	416.62
373.62	465.77
373.81	444.70
374.01	423.64
374.21	344.06
374.40	400.23
374.60	423.64
374.79	322.99
374.99	425.98
375.19	390.87
375.38	447.04
375.58	402.57
375.78	411.93
375.97	374.49
376.17	533.64
376.37	435.34
376.56	365.12
376.76	407.25
376.95	409.59
377.15	456.40
377.35	404.91
377.54	416.62
377.74	348.74
377.93	430.66
378.13	418.96
378.33	442.36
378.52	393.21
378.72	358.10
378.91	449.38
379.11	369.80
379.31	388.53
379.50	440.02
379.70	433.00
379.89	437.68
380.09	381.51
380.28	334.70
380.48	369.80
380.68	355.76
380.87	311.29
381.07	362.78
381.26	496.19
381.46	325.33
381.65	397.89
381.85	306.61
382.04	409.59
382.24	353.42
382.43	454.06
382.63	414.27
382.83	390.87
383.02	416.62
383.22	383.85
383.41	416.62
383.61	414.27
383.80	397.89
384.00	442.36
384.19	400.23
384.39	353.42
384.58	430.66
384.78	430.66
384.97	372.15
385.17	407.25
385.36	428.32
385.56	428.32
385.75	397.89
385.95	346.40
386.14	411.93
386.34	395.55
386.53	409.59
386.72	440.02
386.92	489.17
387.11	444.70
387.31	444.70
387.50	369.80
387.70	435.34
387.89	425.98
388.09	390.87
388.28	461.09
388.48	414.27
388.67	337.04
388.86	386.19
389.06	334.70
389.25	355.76
389.45	353.42
389.64	376.83
389.84	416.62
390.03	320.65
390.22	440.02
390.42	360.44
390.61	395.55
390.81	386.19
391.00	386.19
391.19	425.98
391.39	339.38
391.58	430.66
391.78	461.09
391.97	374.49
392.16	454.06
392.36	376.83
392.55	421.30
392.75	353.42
392.94	374.49
393.13	479.81
393.33	362.78
393.52	437.68
393.71	374.49
393.91	468.11
394.10	435.34
394.29	365.12
394.49	404.91
394.68	425.98
394.88	433.00
395.07	461.09
395.26	381.51
395.46	386.19
395.65	407.25
395.84	484.49
396.04	489.17
396.23	440.02
396.42	444.70
396.62	449.38
396.81	320.65
397.00	372.15
397.19	454.06
397.39	372.15
397.58	437.68
397.77	416.62
397.97	390.87
398.16	344.06
398.35	386.19
398.55	337.04
398.74	411.93
398.93	397.89
399.12	458.74
399.32	404.91
399.51	407.25
399.70	393.21
399.90	365.12
400.09	369.80
400.28	397.89
400.47	332.36
400.67	390.87
400.86	442.36
401.05	411.93
401.24	367.46
401.44	409.59
401.63	404.91
401.82	442.36
402.01	477.47
402.21	437.68
402.40	404.91
402.59	393.21
402.78	397.89
402.97	458.74
403.17	386.19
403.36	409.59
403.55	463.43
403.74	372.15
403.93	433.00
404.13	442.36
404.32	369.80
404.51	327.68
404.70	447.04
404.89	393.21
405.09	440.02
405.28	404.91
405.47	435.34
405.66	400.23
405.85	411.93
406.05	435.34
406.24	397.89
406.43	374.49
406.62	367.46
406.81	440.02
407.00	397.89
407.20	367.46
407.39	435.34
407.58	395.55
407.77	379.17
407.96	470.45
408.15	468.11
408.34	500.87
408.54	397.89
408.73	414.27
408.92	353.42
409.11	358.10
409.30	458.74
409.49	365.12
409.68	348.74
409.87	374.49
410.07	411.93
410.26	425.98
410.45	341.72
410.64	322.99
410.83	404.91
411.02	425.98
411.21	404.91
411.40	468.11
411.59	442.36
411.78	433.00
411.98	416.62
412.17	393.21
412.36	423.64
412.55	444.70
412.74	374.49
412.93	386.19
413.12	381.51
413.31	433.00
413.50	379.17
413.69	395.55
413.88	430.66
414.07	433.00
414.26	418.96
414.45	381.51
414.64	397.89
414.83	498.53
415.02	411.93
415.22	414.27
415.41	475.13
415.60	416.62
415.79	395.55
415.98	475.13
416.17	360.44
416.36	425.98
416.55	414.27
416.74	386.19
416.93	411.93
417.12	404.91
417.31	437.68
417.50	416.62
417.69	468.11
417.88	393.21
418.07	402.57
418.26	435.34
418.45	400.23
418.64	451.72
418.83	416.62
419.02	451.72
419.21	451.72
419.39	449.38
419.58	393.21
419.77	388.53
419.96	402.57
420.15	442.36
420.34	491.51
420.53	449.38
420.72	418.96
420.91	407.25
421.10	433.00
421.29	395.55
421.48	369.80
421.67	498.53
421.86	369.80
422.05	400.23
422.24	470.45
422.43	425.98
422.61	433.00
422.80	442.36
422.99	421.30
423.18	444.70
423.37	423.64
423.56	423.64
423.75	433.00
423.94	393.21
424.13	355.76
424.32	418.96
424.50	414.27
424.69	425.98
424.88	423.64
425.07	447.04
425.26	407.25
425.45	456.40
425.64	447.04
425.83	379.17
426.01	447.04
426.20	440.02
426.39	425.98
426.58	430.66
426.77	484.49
426.96	409.59
427.15	404.91
427.33	365.12
427.52	440.02
427.71	470.45
427.90	390.87
428.09	404.91
428.28	407.25
428.46	376.83
428.65	346.40
428.84	440.02
429.03	395.55
429.22	330.02
429.40	397.89
429.59	440.02
429.78	461.09
429.97	430.66
430.16	409.59
430.34	400.23
430.53	327.68
430.72	463.43
430.91	400.23
431.10	421.30
431.28	470.45
431.47	362.78
431.66	400.23
431.85	334.70
432.03	458.74
432.22	486.83
432.41	421.30
432.60	395.55
432.79	461.09
432.97	381.51
433.16	407.25
433.35	425.98
433.54	374.49
433.72	409.59
433.91	456.40
434.10	407.25
434.28	346.40
434.47	468.11
434.66	458.74
434.85	465.77
435.03	447.04
435.22	479.81
435.41	444.70
435.59	404.91
435.78	393.21
435.97	397.89
436.16	390.87
436.34	344.06
436.53	360.44
436.72	437.68
436.90	381.51
437.09	484.49
437.28	416.62
437.46	444.70
437.65	430.66
437.84	444.70
438.02	461.09
438.21	454.06
438.40	416.62
438.58	404.91
438.77	430.66
438.96	470.45
439.14	358.10
439.33	411.93
439.52	355.76
439.70	418.96
439.89	456.40
440.08	407.25
440.26	353.42
440.45	423.64
440.63	463.43
440.82	416.62
441.01	435.34
441.19	372.15
441.38	383.85
441.57	447.04
441.75	449.38
441.94	465.77
442.12	358.10
442.31	386.19
442.50	421.30
442.68	449.38
442.87	390.87
443.05	425.98
443.24	369.80
443.43	423.64
443.61	458.74
443.80	404.91
443.98	407.25
444.17	451.72
444.35	433.00
444.54	514.92
444.73	402.57
444.91	472.79
445.10	367.46
445.28	383.85
445.47	367.46
445.65	369.80
445.84	315.97
446.02	362.78
446.21	367.46
446.39	451.72
446.58	442.36
446.77	393.21
446.95	433.00
447.14	440.02
447.32	430.66
447.51	425.98
447.69	475.13
447.88	390.87
448.06	414.27
448.25	402.57
448.43	372.15
448.62	465.77
448.80	423.64
448.99	444.70
449.17	428.32
449.36	404.91
449.54	358.10
449.73	379.17
449.91	337.04
450.10	388.53
450.28	430.66
450.46	437.68
450.65	411.93
450.83	461.09
451.02	327.68
451.20	388.53
451.39	411.93
451.57	433.00
451.76	383.85
451.94	468.11
452.13	369.80
452.31	435.34
452.49	428.32
452.68	461.09
452.86	451.72
453.05	379.17
453.23	416.62
453.42	423.64
453.60	416.62
453.78	407.25
453.97	479.81
454.15	374.49
454.34	433.00
454.52	355.76
454.70	505.56
454.89	383.85
455.07	493.85
455.26	468.11
455.44	416.62
455.62	444.70
455.81	425.98
455.99	409.59
456.17	444.70
456.36	437.68
456.54	376.83
456.73	360.44
456.91	414.27
457.09	449.38
457.28	444.70
457.46	404.91
457.64	351.08
457.83	402.57
458.01	395.55
458.19	493.85
458.38	430.66
458.56	421.30
458.74	470.45
458.93	428.32
459.11	390.87
459.29	409.59
459.48	383.85
459.66	409.59
459.84	486.83
460.03	484.49
460.21	437.68
460.39	437.68
460.57	519.60
460.76	397.89
460.94	418.96
461.12	454.06
461.31	407.25
461.49	416.62
461.67	388.53
461.85	393.21
462.04	383.85
462.22	725.57
462.40	390.87
462.59	472.79
462.77	372.15
462.95	400.23
463.13	362.78
463.32	470.45
463.50	414.27
463.68	440.02
463.86	414.27
464.05	395.55
464.23	397.89
464.41	414.27
464.59	414.27
464.78	379.17
464.96	386.19
465.14	414.27
465.32	505.56
465.50	330.02
465.69	447.04
465.87	248.10
466.05	386.19
466.23	447.04
466.41	437.68
466.60	437.68
466.78	400.23
466.96	451.72
467.14	404.91
467.32	381.51
467.51	416.62
467.69	351.08
467.87	360.44
468.05	407.25
468.23	428.32
468.41	374.49
468.60	442.36
468.78	400.23
468.96	367.46
469.14	444.70
469.32	393.21
469.50	320.65
469.69	491.51
469.87	447.04
470.05	362.78
470.23	402.57
470.41	381.51
470.59	425.98
470.77	421.30
470.95	367.46
471.14	383.85
471.32	400.23
471.50	472.79
471.68	451.72
471.86	428.32
472.04	423.64
472.22	414.27
472.40	365.12
472.58	397.89
472.77	393.21
472.95	447.04
473.13	449.38
473.31	421.30
473.49	367.46
473.67	404.91
473.85	374.49
474.03	425.98
474.21	315.97
474.39	489.17
474.57	454.06
474.75	435.34
474.93	433.00
475.12	372.15
475.30	393.21
475.48	409.59
475.66	493.85
475.84	428.32
476.02	388.53
476.20	397.89
476.38	365.12
476.56	465.77
476.74	482.15
476.92	362.78
477.10	402.57
477.28	472.79
477.46	425.98
477.64	372.15
477.82	383.85
478.00	376.83
478.18	425.98
478.36	442.36
478.54	395.55
478.72	456.40
478.90	416.62
479.08	339.38
479.26	411.93
479.44	475.13
479.62	418.96
479.80	402.57
479.98	376.83
480.16	430.66
480.34	463.43
480.52	500.87
480.70	444.70
480.88	409.59
481.06	383.85
481.24	339.38
481.41	397.89
481.59	416.62
481.77	433.00
481.95	393.21
482.13	416.62
482.31	503.22
482.49	416.62
482.67	451.72
482.85	425.98
483.03	418.96
483.21	440.02
483.39	348.74
483.57	414.27
483.74	458.74
483.92	404.91
484.10	388.53
484.28	468.11
484.46	458.74
484.64	376.83
484.82	421.30
485.00	418.96
485.18	442.36
485.35	397.89
485.53	411.93
485.71	425.98
485.89	435.34
486.07	386.19
486.25	425.98
486.43	425.98
486.61	472.79
486.78	482.15
486.96	367.46
487.14	428.32
487.32	435.34
487.50	404.91
487.68	425.98
487.85	435.34
488.03	489.17
488.21	458.74
488.39	386.19
488.57	367.46
488.75	425.98
488.92	510.24
489.10	374.49
489.28	463.43
489.46	351.08
489.64	381.51
489.81	369.80
489.99	362.78
490.17	386.19
490.35	442.36
490.53	407.25
490.70	402.57
490.88	365.12
491.06	409.59
491.24	447.04
491.41	407.25
491.59	440.02
491.77	379.17
491.95	297.25
492.13	409.59
492.30	386.19
492.48	421.30
492.66	482.15
492.84	407.25
493.01	379.17
493.19	404.91
493.37	498.53
493.54	463.43
493.72	411.93
493.90	437.68
494.08	468.11
494.25	428.32
494.43	388.53
494.61	390.87
494.79	435.34
494.96	390.87
495.14	454.06
495.32	414.27
495.49	465.77
495.67	365.12
495.85	386.19
496.02	376.83
496.20	369.80
496.38	421.30
496.55	390.87
496.73	433.00
496.91	315.97
497.09	402.57
497.26	451.72
497.44	348.74
497.62	484.49
497.79	430.66
497.97	388.53
498.14	421.30
498.32	353.42
498.50	407.25
498.67	409.59
498.85	454.06
499.03	461.09
499.20	463.43
499.38	383.85
499.56	374.49
499.73	503.22
499.91	428.32
500.08	449.38
500.26	383.85
500.44	374.49
500.61	407.25
500.79	423.64
500.97	449.38
501.14	463.43
501.32	383.85
501.49	404.91
501.67	386.19
501.84	428.32
502.02	407.25
502.20	463.43
502.37	404.91
502.55	433.00
502.72	407.25
502.90	444.70
503.07	484.49
503.25	425.98
503.43	400.23
503.60	353.42
503.78	383.85
503.95	437.68
504.13	423.64
504.30	390.87
504.48	435.34
504.65	458.74
504.83	416.62
505.01	397.89
505.18	362.78
505.36	411.93
505.53	393.21
505.71	409.59
505.88	402.57
506.06	411.93
506.23	433.00
506.41	411.93
506.58	418.96
506.76	383.85
506.93	484.49
507.11	433.00
507.28	437.68
507.46	395.55
507.63	444.70
507.81	393.21
507.98	386.19
508.16	411.93
508.33	376.83
508.50	346.40
508.68	388.53
508.85	388.53
509.03	425.98
509.20	355.76
509.38	416.62
509.55	425.98
509.73	454.06
509.90	383.85
510.08	447.04
510.25	411.93
510.42	433.00
510.60	454.06
510.77	451.72
510.95	430.66
511.12	388.53
511.30	416.62
511.47	463.43
511.64	437.68
511.82	425.98
511.99	472.79
512.17	470.45
512.34	379.17
512.51	395.55
512.69	372.15
512.86	425.98
513.04	454.06
513.21	404.91
513.38	442.36
513.56	395.55
513.73	353.42
513.90	437.68
514.08	421.30
514.25	416.62
514.43	404.91
514.60	421.30
514.77	348.74
514.95	346.40
515.12	435.34
515.29	447.04
515.47	411.93
515.64	362.78
515.81	411.93
515.99	444.70
516.16	500.87
516.33	461.09
516.51	496.19
516.68	407.25
516.85	367.46
517.03	416.62
517.20	451.72
517.37	372.15
517.54	400.23
517.72	451.72
517.89	400.23
518.06	383.85
518.24	393.21
518.41	440.02
518.58	409.59
518.75	374.49
518.93	510.24
519.10	437.68
519.27	416.62
519.45	437.68
519.62	433.00
519.79	454.06
519.96	388.53
520.14	395.55
520.31	393.21
520.48	421.30
520.65	395.55
520.83	470.45
521.00	402.57
521.17	437.68
521.34	341.72
521.52	425.98
521.69	379.17
521.86	416.62
522.03	353.42
522.20	468.11
522.38	423.64
522.55	346.40
522.72	351.08
522.89	409.59
523.07	407.25
523.24	472.79
523.41	458.74
523.58	430.66
523.75	437.68
523.92	348.74
524.10	433.00
524.27	365.12
524.44	451.72
524.61	388.53
524.78	346.40
524.96	367.46
525.13	465.77
525.30	376.83
525.47	465.77
525.64	454.06
525.81	416.62
525.98	449.38
526.16	428.32
526.33	428.32
526.50	411.93
526.67	411.93
526.84	507.90
527.01	435.34
527.18	456.40
527.36	435.34
527.53	379.17
527.70	458.74
527.87	470.45
528.04	383.85
528.21	428.32
528.38	442.36
528.55	423.64
528.72	425.98
528.89	435.34
529.07	418.96
529.24	365.12
529.41	465.77
529.58	395.55
529.75	411.93
529.92	402.57
530.09	442.36
530.26	411.93
530.43	374.49
530.60	440.02
530.77	451.72
530.94	461.09
531.11	407.25
531.28	425.98
531.46	491.51
531.63	416.62
531.80	379.17
531.97	444.70
532.14	433.00
532.31	425.98
532.48	430.66
532.65	397.89
532.82	437.68
532.99	430.66
533.16	423.64
533.33	486.83
533.50	404.91
533.67	376.83
533.84	411.93
534.01	435.34
534.18	479.81
534.35	435.34
534.52	458.74
534.69	449.38
534.86	393.21
535.03	442.36
535.20	360.44
535.37	425.98
535.54	407.25
535.71	428.32
535.88	435.34
536.05	402.57
536.22	393.21
536.38	451.72
536.55	477.47
536.72	521.94
536.89	395.55
537.06	433.00
537.23	386.19
537.40	423.64
537.57	440.02
537.74	491.51
537.91	475.13
538.08	367.46
538.25	388.53
538.42	404.91
538.59	440.02
538.75	407.25
538.92	416.62
539.09	430.66
539.26	330.02
539.43	477.47
539.60	430.66
539.77	440.02
539.94	393.21
540.11	484.49
540.28	493.85
540.44	430.66
540.61	397.89
540.78	362.78
540.95	376.83
541.12	444.70
541.29	461.09
541.46	482.15
541.62	449.38
541.79	428.32
541.96	376.83
542.13	435.34
542.30	442.36
542.47	421.30
542.63	397.89
542.80	407.25
542.97	388.53
543.14	407.25
543.31	472.79
543.48	477.47
543.64	440.02
543.81	416.62
543.98	491.51
544.15	435.34
544.32	454.06
544.48	393.21
544.65	440.02
544.82	418.96
544.99	416.62
545.16	465.77
545.32	372.15
545.49	425.98
545.66	442.36
545.83	461.09
546.00	404.91
546.16	421.30
546.33	435.34
546.50	393.21
546.67	418.96
546.83	428.32
547.00	468.11
547.17	397.89
547.34	379.17
547.50	440.02
547.67	414.27
547.84	386.19
548.00	421.30
548.17	468.11
548.34	437.68
548.51	465.77
548.67	456.40
548.84	376.83
549.01	402.57
549.18	447.04
549.34	383.85
549.51	475.13
549.68	374.49
549.84	430.66
550.01	433.00
550.18	402.57
550.34	470.45
550.51	442.36
550.68	390.87
550.84	306.61
551.01	311.29
551.18	463.43
551.34	435.34
551.51	430.66
551.68	463.43
551.84	393.21
552.01	393.21
552.18	390.87
552.34	402.57
552.51	383.85
552.68	344.06
552.84	428.32
553.01	449.38
553.18	372.15
553.34	484.49
553.51	425.98
553.67	381.51
553.84	397.89
554.01	430.66
554.17	421.30
554.34	433.00
554.51	404.91
554.67	407.25
554.84	440.02
555.00	463.43
555.17	451.72
555.33	543.00
555.50	468.11
555.67	435.34
555.83	407.25
556.00	421.30
556.16	519.60
556.33	472.79
556.50	430.66
556.66	421.30
556.83	411.93
556.99	409.59
557.16	449.38
557.32	393.21
557.49	416.62
557.65	351.08
557.82	381.51
557.98	360.44
558.15	421.30
558.32	479.81
558.48	451.72
558.65	491.51
558.81	423.64
558.98	479.81
559.14	315.97
559.31	351.08
559.47	407.25
559.64	421.30
559.80	325.33
559.97	353.42
560.13	400.23
560.30	337.04
560.46	348.74
560.63	440.02
560.79	442.36
560.96	365.12
561.12	416.62
561.29	383.85
561.45	454.06
561.61	465.77
561.78	428.32
561.94	411.93
562.11	482.15
562.27	372.15
562.44	409.59
562.60	404.91
562.77	418.96
562.93	472.79
563.10	346.40
563.26	388.53
563.42	435.34
563.59	374.49
563.75	425.98
563.92	451.72
564.08	418.96
564.24	479.81
564.41	435.34
564.57	428.32
564.74	418.96
564.90	440.02
565.07	479.81
565.23	409.59
565.39	444.70
565.56	463.43
565.72	437.68
565.88	463.43
566.05	367.46
566.21	407.25
566.38	414.27
566.54	528.96
566.70	344.06
566.87	425.98
567.03	430.66
567.19	383.85
567.36	447.04
567.52	435.34
567.68	397.89
567.85	484.49
568.01	390.87
568.17	369.80
568.34	418.96
568.50	418.96
568.66	418.96
568.83	470.45
568.99	411.93
569.15	449.38
569.32	411.93
569.48	454.06
569.64	334.70
569.81	414.27
569.97	313.63
570.13	393.21
570.30	440.02
570.46	365.12
570.62	428.32
570.78	400.23
570.95	543.00
571.11	472.79
571.27	397.89
571.43	458.74
571.60	421.30
571.76	449.38
571.92	411.93
572.09	325.33
572.25	496.19
572.41	372.15
572.57	383.85
572.74	372.15
572.90	390.87
573.06	447.04
573.22	456.40
573.38	353.42
573.55	409.59
573.71	458.74
573.87	409.59
574.03	369.80
574.20	484.49
574.36	451.72
574.52	383.85
574.68	444.70
574.84	400.23
575.01	411.93
575.17	433.00
575.33	351.08
575.49	447.04
575.65	395.55
575.82	440.02
575.98	491.51
576.14	421.30
576.30	437.68
576.46	428.32
576.62	440.02
576.79	442.36
576.95	479.81
577.11	395.55
577.27	402.57
577.43	479.81
577.59	482.15
577.75	416.62
577.92	433.00
578.08	386.19
578.24	402.57
578.40	468.11
578.56	461.09
578.72	416.62
578.88	489.17
579.04	456.40
579.21	393.21
579.37	411.93
579.53	428.32
579.69	428.32
579.85	358.10
580.01	407.25
580.17	454.06
580.33	383.85
580.49	435.34
580.65	407.25
580.82	318.31
580.98	390.87
581.14	404.91
581.30	454.06
581.46	425.98
581.62	524.28
581.78	463.43
581.94	402.57
582.10	423.64
582.26	383.85
582.42	465.77
582.58	425.98
582.74	386.19
582.90	442.36
583.06	425.98
583.22	390.87
583.38	440.02
583.54	360.44
583.70	458.74
583.86	425.98
584.02	397.89
584.18	404.91
584.34	440.02
584.50	395.55
584.66	372.15
584.82	400.23
584.98	456.40
585.14	367.46
585.30	400.23
585.46	425.98
585.62	440.02
585.78	358.10
585.94	395.55
586.10	416.62
586.26	383.85
586.42	409.59
586.58	437.68
586.74	470.45
586.90	442.36
587.06	425.98
587.22	470.45
587.38	334.70
587.54	407.25
587.70	386.19
587.86	421.30
588.02	362.78
588.18	437.68
588.34	411.93
588.49	423.64
588.65	456.40
588.81	374.49
588.97	411.93
589.13	367.46
589.29	421.30
589.45	322.99
589.61	407.25
589.77	458.74
589.93	381.51
590.08	397.89
590.24	451.72
590.40	369.80
590.56	425.98
590.72	402.57
590.88	510.24
591.04	440.02
591.20	440.02
591.35	463.43
591.51	407.25
591.67	428.32
591.83	411.93
591.99	404.91
592.15	407.25
592.31	414.27
592.46	447.04
592.62	489.17
592.78	372.15
592.94	369.80
593.10	379.17
593.26	433.00
593.41	433.00
593.57	388.53
593.73	393.21
593.89	430.66
594.05	383.85
594.20	400.23
594.36	449.38
594.52	393.21
594.68	440.02
594.84	451.72
594.99	400.23
595.15	416.62
595.31	337.04
595.47	409.59
595.62	430.66
595.78	386.19
595.94	365.12
596.10	423.64
596.25	437.68
596.41	475.13
596.57	395.55
596.73	447.04
596.88	435.34
597.04	449.38
597.20	388.53
597.36	430.66
597.51	407.25
597.67	433.00
597.83	365.12
597.99	449.38
598.14	430.66
598.30	456.40
598.46	414.27
598.61	388.53
598.77	428.32
598.93	444.70
599.09	416.62
599.24	456.40
599.40	444.70
599.56	395.55
599.71	421.30
599.87	383.85
600.03	514.92
600.18	421.30
600.34	423.64
600.50	421.30
600.65	423.64
600.81	409.59
600.97	451.72
601.12	425.98
601.28	393.21
601.44	440.02
601.59	425.98
601.75	402.57
601.91	433.00
602.06	407.25
602.22	437.68
602.37	463.43
602.53	493.85
602.69	491.51
602.84	470.45
603.00	440.02
603.16	435.34
603.31	383.85
603.47	383.85
603.62	376.83
603.78	383.85
603.94	362.78
604.09	449.38
604.25	433.00
604.40	381.51
604.56	376.83
604.71	376.83
604.87	421.30
605.03	395.55
605.18	416.62
605.34	472.79
605.49	369.80
605.65	416.62
605.80	463.43
605.96	395.55
606.12	411.93
606.27	486.83
606.43	416.62
606.58	435.34
606.74	376.83
606.89	360.44
607.05	456.40
607.20	409.59
607.36	451.72
607.51	447.04
607.67	372.15
607.82	433.00
607.98	374.49
608.13	407.25
608.29	407.25
608.44	397.89
608.60	353.42
608.75	479.81
608.91	360.44
609.06	388.53
609.22	465.77
609.37	353.42
609.53	355.76
609.68	449.38
609.84	454.06
609.99	437.68
610.15	433.00
