SpectraSuite Data File
++++++++++++++++++++++++++++++++++++
Date: Fri Oct 25 12:11:25 EDT 2013
User: price-jones
Dark Spectrum Present: No
Reference Spectrum Present: No
Number of Sampled Component Spectra: 1
Spectrometers: USB2+H05261
Integration Time (usec): 100000 (USB2+H05261)
Spectra Averaged: 1 (USB2+H05261)
Boxcar Smoothing: 0 (USB2+H05261)
Correct for Electrical Dark: No (USB2+H05261)
Strobe/Lamp Enabled: No (USB2+H05261)
Correct for Detector Non-linearity: No (USB2+H05261)
Correct for Stray Light: No (USB2+H05261)
Number of Pixels in Processed Spectrum: 2048
>>>>>Begin Processed Spectral Data<<<<<
365.73	320.65
365.92	320.65
366.12	320.65
366.32	290.23
366.52	297.25
366.72	201.29
366.91	215.33
367.11	252.78
367.31	205.97
367.51	182.56
367.70	264.48
367.90	191.92
368.10	318.31
368.30	231.71
368.49	220.01
368.69	304.27
368.89	222.35
369.09	227.03
369.28	229.37
369.48	229.37
369.68	372.15
369.87	332.36
370.07	285.55
370.27	365.12
370.47	308.95
370.66	358.10
370.86	344.06
371.06	376.83
371.25	409.59
371.45	374.49
371.65	397.89
371.84	360.44
372.04	390.87
372.24	348.74
372.44	379.17
372.63	423.64
372.83	418.96
373.03	416.62
373.22	440.02
373.42	393.21
373.62	411.93
373.81	454.06
374.01	442.36
374.21	421.30
374.40	358.10
374.60	503.22
374.79	442.36
374.99	411.93
375.19	430.66
375.38	411.93
375.58	388.53
375.78	475.13
375.97	390.87
376.17	472.79
376.37	395.55
376.56	386.19
376.76	395.55
376.95	362.78
377.15	454.06
377.35	372.15
377.54	407.25
377.74	388.53
377.93	334.70
378.13	372.15
378.33	444.70
378.52	440.02
378.72	456.40
378.91	362.78
379.11	374.49
379.31	407.25
379.50	362.78
379.70	430.66
379.89	437.68
380.09	416.62
380.28	315.97
380.48	409.59
380.68	379.17
380.87	418.96
381.07	458.74
381.26	425.98
381.46	397.89
381.65	454.06
381.85	433.00
382.04	468.11
382.24	397.89
382.43	489.17
382.63	393.21
382.83	465.77
383.02	365.12
383.22	402.57
383.41	440.02
383.61	353.42
383.80	425.98
384.00	355.76
384.19	414.27
384.39	400.23
384.58	444.70
384.78	400.23
384.97	372.15
385.17	388.53
385.36	411.93
385.56	454.06
385.75	433.00
385.95	362.78
386.14	367.46
386.34	332.36
386.53	435.34
386.72	409.59
386.92	543.00
387.11	482.15
387.31	454.06
387.50	400.23
387.70	372.15
387.89	369.80
388.09	402.57
388.28	348.74
388.48	418.96
388.67	414.27
388.86	348.74
389.06	433.00
389.25	409.59
389.45	402.57
389.64	379.17
389.84	458.74
390.03	430.66
390.22	386.19
390.42	435.34
390.61	440.02
390.81	367.46
391.00	430.66
391.19	416.62
391.39	414.27
391.58	433.00
391.78	428.32
391.97	428.32
392.16	428.32
392.36	451.72
392.55	418.96
392.75	409.59
392.94	407.25
393.13	465.77
393.33	397.89
393.52	409.59
393.71	423.64
393.91	421.30
394.10	395.55
394.29	435.34
394.49	400.23
394.68	428.32
394.88	393.21
395.07	454.06
395.26	400.23
395.46	411.93
395.65	435.34
395.84	425.98
396.04	425.98
396.23	414.27
396.42	325.33
396.62	383.85
396.81	435.34
397.00	381.51
397.19	458.74
397.39	362.78
397.58	416.62
397.77	437.68
397.97	372.15
398.16	425.98
398.35	440.02
398.55	381.51
398.74	409.59
398.93	428.32
399.12	404.91
399.32	463.43
399.51	402.57
399.70	418.96
399.90	395.55
400.09	393.21
400.28	409.59
400.47	381.51
400.67	468.11
400.86	425.98
401.05	421.30
401.24	425.98
401.44	421.30
401.63	402.57
401.82	381.51
402.01	383.85
402.21	409.59
402.40	444.70
402.59	407.25
402.78	411.93
402.97	496.19
403.17	425.98
403.36	376.83
403.55	416.62
403.74	393.21
403.93	376.83
404.13	505.56
404.32	306.61
404.51	428.32
404.70	383.85
404.89	454.06
405.09	486.83
405.28	362.78
405.47	386.19
405.66	433.00
405.85	358.10
406.05	472.79
406.24	428.32
406.43	388.53
406.62	388.53
406.81	421.30
407.00	447.04
407.20	458.74
407.39	435.34
407.58	346.40
407.77	365.12
407.96	430.66
408.15	383.85
408.34	360.44
408.54	414.27
408.73	428.32
408.92	383.85
409.11	428.32
409.30	367.46
409.49	313.63
409.68	409.59
409.87	379.17
410.07	442.36
410.26	447.04
410.45	425.98
410.64	386.19
410.83	428.32
411.02	390.87
411.21	456.40
411.40	475.13
411.59	374.49
411.78	425.98
411.98	430.66
412.17	318.31
412.36	489.17
412.55	433.00
412.74	393.21
412.93	435.34
413.12	486.83
413.31	454.06
413.50	477.47
413.69	468.11
413.88	425.98
414.07	348.74
414.26	376.83
414.45	423.64
414.64	458.74
414.83	447.04
415.02	390.87
415.22	390.87
415.41	428.32
415.60	416.62
415.79	411.93
415.98	430.66
416.17	435.34
416.36	437.68
416.55	404.91
416.74	390.87
416.93	423.64
417.12	440.02
417.31	477.47
417.50	402.57
417.69	411.93
417.88	393.21
418.07	372.15
418.26	386.19
418.45	386.19
418.64	468.11
418.83	397.89
419.02	461.09
419.21	379.17
419.39	407.25
419.58	400.23
419.77	395.55
419.96	451.72
420.15	456.40
420.34	411.93
420.53	388.53
420.72	381.51
420.91	386.19
421.10	402.57
421.29	400.23
421.48	470.45
421.67	472.79
421.86	353.42
422.05	477.47
422.24	465.77
422.43	365.12
422.61	358.10
422.80	348.74
422.99	365.12
423.18	376.83
423.37	418.96
423.56	418.96
423.75	442.36
423.94	341.72
424.13	421.30
424.32	430.66
424.50	346.40
424.69	449.38
424.88	411.93
425.07	418.96
425.26	425.98
425.45	374.49
425.64	425.98
425.83	372.15
426.01	390.87
426.20	461.09
426.39	348.74
426.58	409.59
426.77	475.13
426.96	433.00
427.15	444.70
427.33	358.10
427.52	372.15
427.71	351.08
427.90	407.25
428.09	362.78
428.28	463.43
428.46	411.93
428.65	435.34
428.84	395.55
429.03	475.13
429.22	425.98
429.40	390.87
429.59	332.36
429.78	470.45
429.97	437.68
430.16	360.44
430.34	388.53
430.53	411.93
430.72	411.93
430.91	491.51
431.10	423.64
431.28	372.15
431.47	451.72
431.66	402.57
431.85	414.27
432.03	437.68
432.22	428.32
432.41	341.72
432.60	451.72
432.79	418.96
432.97	414.27
433.16	369.80
433.35	458.74
433.54	451.72
433.72	433.00
433.91	376.83
434.10	351.08
434.28	344.06
434.47	414.27
434.66	524.28
434.85	475.13
435.03	414.27
435.22	503.22
435.41	496.19
435.59	411.93
435.78	472.79
435.97	440.02
436.16	416.62
436.34	393.21
436.53	428.32
436.72	423.64
436.90	444.70
437.09	341.72
437.28	365.12
437.46	362.78
437.65	430.66
437.84	444.70
438.02	440.02
438.21	358.10
438.40	372.15
438.58	418.96
438.77	407.25
438.96	395.55
439.14	374.49
439.33	458.74
439.52	404.91
439.70	435.34
439.89	430.66
440.08	414.27
440.26	388.53
440.45	355.76
440.63	400.23
440.82	461.09
441.01	362.78
441.19	442.36
441.38	353.42
441.57	411.93
441.75	376.83
441.94	433.00
442.12	367.46
442.31	430.66
442.50	503.22
442.68	493.85
442.87	423.64
443.05	376.83
443.24	463.43
443.43	379.17
443.61	442.36
443.80	376.83
443.98	465.77
444.17	449.38
444.35	465.77
444.54	383.85
444.73	379.17
444.91	440.02
445.10	395.55
445.28	390.87
445.47	416.62
445.65	510.24
445.84	435.34
446.02	472.79
446.21	404.91
446.39	376.83
446.58	465.77
446.77	519.60
446.95	397.89
447.14	449.38
447.32	374.49
447.51	330.02
447.69	360.44
447.88	395.55
448.06	503.22
448.25	409.59
448.43	451.72
448.62	355.76
448.80	376.83
448.99	407.25
449.17	325.33
449.36	416.62
449.54	451.72
449.73	414.27
449.91	449.38
450.10	400.23
450.28	456.40
450.46	374.49
450.65	428.32
450.83	475.13
451.02	437.68
451.20	409.59
451.39	465.77
451.57	437.68
451.76	493.85
451.94	388.53
452.13	500.87
452.31	454.06
452.49	468.11
452.68	351.08
452.86	477.47
453.05	395.55
453.23	440.02
453.42	479.81
453.60	433.00
453.78	463.43
453.97	402.57
454.15	444.70
454.34	428.32
454.52	376.83
454.70	411.93
454.89	416.62
455.07	395.55
455.26	416.62
455.44	479.81
455.62	414.27
455.81	407.25
455.99	472.79
456.17	468.11
456.36	428.32
456.54	395.55
456.73	421.30
456.91	409.59
457.09	407.25
457.28	437.68
457.46	440.02
457.64	409.59
457.83	404.91
458.01	468.11
458.19	435.34
458.38	369.80
458.56	498.53
458.74	386.19
458.93	421.30
459.11	418.96
459.29	414.27
459.48	454.06
459.66	433.00
459.84	402.57
460.03	486.83
460.21	395.55
460.39	430.66
460.57	442.36
460.76	341.72
460.94	442.36
461.12	397.89
461.31	423.64
461.49	404.91
461.67	437.68
461.85	461.09
462.04	416.62
462.22	720.88
462.40	397.89
462.59	491.51
462.77	395.55
462.95	386.19
463.13	358.10
463.32	395.55
463.50	383.85
463.68	388.53
463.86	449.38
464.05	395.55
464.23	444.70
464.41	435.34
464.59	390.87
464.78	383.85
464.96	360.44
465.14	451.72
465.32	362.78
465.50	482.15
465.69	454.06
465.87	430.66
466.05	376.83
466.23	416.62
466.41	390.87
466.60	386.19
466.78	388.53
466.96	423.64
467.14	418.96
467.32	425.98
467.51	393.21
467.69	465.77
467.87	440.02
468.05	418.96
468.23	472.79
468.41	430.66
468.60	486.83
468.78	440.02
468.96	447.04
469.14	475.13
469.32	379.17
469.50	383.85
469.69	425.98
469.87	425.98
470.05	425.98
470.23	465.77
470.41	404.91
470.59	372.15
470.77	449.38
470.95	423.64
471.14	416.62
471.32	440.02
471.50	409.59
471.68	449.38
471.86	421.30
472.04	402.57
472.22	404.91
472.40	360.44
472.58	393.21
472.77	414.27
472.95	362.78
473.13	409.59
473.31	376.83
473.49	395.55
473.67	327.68
473.85	447.04
474.03	344.06
474.21	367.46
474.39	372.15
474.57	414.27
474.75	421.30
474.93	372.15
475.12	383.85
475.30	402.57
475.48	379.17
475.66	360.44
475.84	376.83
476.02	409.59
476.20	365.12
476.38	388.53
476.56	421.30
476.74	360.44
476.92	416.62
477.10	397.89
477.28	472.79
477.46	400.23
477.64	416.62
477.82	482.15
478.00	379.17
478.18	437.68
478.36	348.74
478.54	435.34
478.72	395.55
478.90	402.57
479.08	404.91
479.26	423.64
479.44	414.27
479.62	388.53
479.80	423.64
479.98	383.85
480.16	430.66
480.34	404.91
480.52	414.27
480.70	458.74
480.88	407.25
481.06	447.04
481.24	376.83
481.41	390.87
481.59	444.70
481.77	440.02
481.95	423.64
482.13	351.08
482.31	372.15
482.49	404.91
482.67	400.23
482.85	397.89
483.03	397.89
483.21	376.83
483.39	421.30
483.57	444.70
483.74	505.56
483.92	447.04
484.10	444.70
484.28	339.38
484.46	477.47
484.64	423.64
484.82	444.70
485.00	388.53
485.18	393.21
485.35	369.80
485.53	416.62
485.71	470.45
485.89	362.78
486.07	421.30
486.25	472.79
486.43	444.70
486.61	414.27
486.78	388.53
486.96	402.57
487.14	379.17
487.32	402.57
487.50	416.62
487.68	395.55
487.85	407.25
488.03	435.34
488.21	447.04
488.39	437.68
488.57	388.53
488.75	383.85
488.92	533.64
489.10	404.91
489.28	430.66
489.46	468.11
489.64	444.70
489.81	402.57
489.99	430.66
490.17	458.74
490.35	503.22
490.53	372.15
490.70	365.12
490.88	428.32
491.06	367.46
491.24	463.43
491.41	433.00
491.59	435.34
491.77	407.25
491.95	379.17
492.13	379.17
492.30	430.66
492.48	372.15
492.66	421.30
492.84	407.25
493.01	367.46
493.19	390.87
493.37	428.32
493.54	390.87
493.72	374.49
493.90	355.76
494.08	421.30
494.25	423.64
494.43	372.15
494.61	468.11
494.79	383.85
494.96	433.00
495.14	498.53
495.32	402.57
495.49	440.02
495.67	397.89
495.85	421.30
496.02	416.62
496.20	423.64
496.38	414.27
496.55	454.06
496.73	435.34
496.91	435.34
497.09	397.89
497.26	451.72
497.44	437.68
497.62	437.68
497.79	369.80
497.97	400.23
498.14	458.74
498.32	472.79
498.50	358.10
498.67	409.59
498.85	416.62
499.03	451.72
499.20	440.02
499.38	496.19
499.56	390.87
499.73	463.43
499.91	395.55
500.08	472.79
500.26	510.24
500.44	351.08
500.61	477.47
500.79	386.19
500.97	458.74
501.14	505.56
501.32	404.91
501.49	489.17
501.67	346.40
501.84	411.93
502.02	411.93
502.20	470.45
502.37	435.34
502.55	421.30
502.72	407.25
502.90	425.98
503.07	437.68
503.25	407.25
503.43	409.59
503.60	433.00
503.78	456.40
503.95	383.85
504.13	433.00
504.30	414.27
504.48	428.32
504.65	379.17
504.83	430.66
505.01	393.21
505.18	360.44
505.36	393.21
505.53	386.19
505.71	416.62
505.88	409.59
506.06	402.57
506.23	442.36
506.41	458.74
506.58	435.34
506.76	421.30
506.93	407.25
507.11	433.00
507.28	416.62
507.46	372.15
507.63	454.06
507.81	390.87
507.98	404.91
508.16	421.30
508.33	472.79
508.50	409.59
508.68	287.89
508.85	393.21
509.03	430.66
509.20	390.87
509.38	397.89
509.55	362.78
509.73	430.66
509.90	393.21
510.08	344.06
510.25	435.34
510.42	414.27
510.60	390.87
510.77	416.62
510.95	456.40
511.12	414.27
511.30	447.04
511.47	339.38
511.64	348.74
511.82	440.02
511.99	433.00
512.17	472.79
512.34	395.55
512.51	404.91
512.69	397.89
512.86	451.72
513.04	397.89
513.21	477.47
513.38	468.11
513.56	402.57
513.73	454.06
513.90	372.15
514.08	414.27
514.25	381.51
514.43	456.40
514.60	395.55
514.77	425.98
514.95	407.25
515.12	421.30
515.29	402.57
515.47	423.64
515.64	421.30
515.81	393.21
515.99	411.93
516.16	437.68
516.33	386.19
516.51	386.19
516.68	386.19
516.85	388.53
517.03	355.76
517.20	334.70
517.37	355.76
517.54	374.49
517.72	433.00
517.89	395.55
518.06	437.68
518.24	444.70
518.41	510.24
518.58	404.91
518.75	421.30
518.93	454.06
519.10	388.53
519.27	367.46
519.45	416.62
519.62	477.47
519.79	456.40
519.96	451.72
520.14	358.10
520.31	458.74
520.48	425.98
520.65	402.57
520.83	418.96
521.00	339.38
521.17	461.09
521.34	404.91
521.52	498.53
521.69	451.72
521.86	383.85
522.03	423.64
522.20	433.00
522.38	461.09
522.55	451.72
522.72	433.00
522.89	451.72
523.07	395.55
523.24	407.25
523.41	463.43
523.58	348.74
523.75	383.85
523.92	402.57
524.10	374.49
524.27	449.38
524.44	465.77
524.61	517.26
524.78	395.55
524.96	411.93
525.13	395.55
525.30	425.98
525.47	428.32
525.64	416.62
525.81	402.57
525.98	332.36
526.16	449.38
526.33	386.19
526.50	444.70
526.67	374.49
526.84	421.30
527.01	393.21
527.18	397.89
527.36	386.19
527.53	407.25
527.70	435.34
527.87	465.77
528.04	416.62
528.21	397.89
528.38	400.23
528.55	327.68
528.72	423.64
528.89	440.02
529.07	449.38
529.24	402.57
529.41	440.02
529.58	418.96
529.75	430.66
529.92	428.32
530.09	409.59
530.26	435.34
530.43	409.59
530.60	433.00
530.77	351.08
530.94	435.34
531.11	461.09
531.28	411.93
531.46	393.21
531.63	430.66
531.80	433.00
531.97	379.17
532.14	344.06
532.31	428.32
532.48	444.70
532.65	376.83
532.82	407.25
532.99	388.53
533.16	397.89
533.33	407.25
533.50	430.66
533.67	346.40
533.84	400.23
534.01	346.40
534.18	451.72
534.35	468.11
534.52	372.15
534.69	468.11
534.86	463.43
535.03	507.90
535.20	454.06
535.37	433.00
535.54	346.40
535.71	444.70
535.88	482.15
536.05	435.34
536.22	430.66
536.38	411.93
536.55	339.38
536.72	397.89
536.89	393.21
537.06	425.98
537.23	444.70
537.40	442.36
537.57	484.49
537.74	479.81
537.91	433.00
538.08	407.25
538.25	430.66
538.42	440.02
538.59	376.83
538.75	454.06
538.92	418.96
539.09	510.24
539.26	409.59
539.43	409.59
539.60	458.74
539.77	472.79
539.94	433.00
540.11	449.38
540.28	482.15
540.44	367.46
540.61	353.42
540.78	390.87
540.95	360.44
541.12	388.53
541.29	409.59
541.46	430.66
541.62	489.17
541.79	444.70
541.96	383.85
542.13	482.15
542.30	416.62
542.47	472.79
542.63	430.66
542.80	407.25
542.97	428.32
543.14	435.34
543.31	393.21
543.48	465.77
543.64	456.40
543.81	395.55
543.98	322.99
544.15	344.06
544.32	421.30
544.48	397.89
544.65	423.64
544.82	428.32
544.99	425.98
545.16	470.45
545.32	372.15
545.49	535.98
545.66	435.34
545.83	395.55
546.00	468.11
546.16	449.38
546.33	416.62
546.50	421.30
546.67	496.19
546.83	414.27
547.00	451.72
547.17	451.72
547.34	414.27
547.50	388.53
547.67	414.27
547.84	451.72
548.00	486.83
548.17	442.36
548.34	395.55
548.51	458.74
548.67	428.32
548.84	451.72
549.01	440.02
549.18	435.34
549.34	444.70
549.51	458.74
549.68	444.70
549.84	379.17
550.01	367.46
550.18	521.94
550.34	482.15
550.51	444.70
550.68	437.68
550.84	339.38
551.01	510.24
551.18	470.45
551.34	423.64
551.51	500.87
551.68	440.02
551.84	416.62
552.01	395.55
552.18	372.15
552.34	367.46
552.51	351.08
552.68	484.49
552.84	447.04
553.01	409.59
553.18	465.77
553.34	442.36
553.51	407.25
553.67	407.25
553.84	472.79
554.01	402.57
554.17	430.66
554.34	390.87
554.51	514.92
554.67	404.91
554.84	454.06
555.00	409.59
555.17	465.77
555.33	454.06
555.50	447.04
555.67	470.45
555.83	409.59
556.00	374.49
556.16	610.88
556.33	397.89
556.50	395.55
556.66	397.89
556.83	369.80
556.99	447.04
557.16	325.33
557.32	461.09
557.49	414.27
557.65	479.81
557.82	470.45
557.98	414.27
558.15	362.78
558.32	428.32
558.48	463.43
558.65	388.53
558.81	454.06
558.98	362.78
559.14	360.44
559.31	444.70
559.47	425.98
559.64	425.98
559.80	390.87
559.97	397.89
560.13	404.91
560.30	463.43
560.46	402.57
560.63	386.19
560.79	486.83
560.96	433.00
561.12	409.59
561.29	372.15
561.45	437.68
561.61	482.15
561.78	498.53
561.94	390.87
562.11	442.36
562.27	433.00
562.44	367.46
562.60	388.53
562.77	400.23
562.93	355.76
563.10	404.91
563.26	425.98
563.42	423.64
563.59	407.25
563.75	346.40
563.92	447.04
564.08	395.55
564.24	372.15
564.41	479.81
564.57	425.98
564.74	477.47
564.90	437.68
565.07	472.79
565.23	468.11
565.39	341.72
565.56	402.57
565.72	360.44
565.88	355.76
566.05	362.78
566.21	461.09
566.38	461.09
566.54	409.59
566.70	339.38
566.87	381.51
567.03	407.25
567.19	423.64
567.36	416.62
567.52	416.62
567.68	379.17
567.85	425.98
568.01	414.27
568.17	423.64
568.34	393.21
568.50	416.62
568.66	461.09
568.83	477.47
568.99	404.91
569.15	395.55
569.32	409.59
569.48	440.02
569.64	440.02
569.81	372.15
569.97	337.04
570.13	458.74
570.30	449.38
570.46	437.68
570.62	374.49
570.78	372.15
570.95	437.68
571.11	512.58
571.27	435.34
571.43	376.83
571.60	458.74
571.76	402.57
571.92	362.78
572.09	381.51
572.25	372.15
572.41	348.74
572.57	414.27
572.74	449.38
572.90	440.02
573.06	388.53
573.22	435.34
573.38	447.04
573.55	423.64
573.71	479.81
573.87	428.32
574.03	456.40
574.20	512.58
574.36	409.59
574.52	315.97
574.68	430.66
574.84	383.85
575.01	414.27
575.17	409.59
575.33	411.93
575.49	451.72
575.65	477.47
575.82	440.02
575.98	407.25
576.14	402.57
576.30	430.66
576.46	440.02
576.62	353.42
576.79	372.15
576.95	444.70
577.11	416.62
577.27	397.89
577.43	442.36
577.59	433.00
577.75	486.83
577.92	440.02
578.08	430.66
578.24	447.04
578.40	472.79
578.56	411.93
578.72	369.80
578.88	414.27
579.04	402.57
579.21	470.45
579.37	433.00
579.53	358.10
579.69	444.70
579.85	400.23
580.01	435.34
580.17	447.04
580.33	360.44
580.49	372.15
580.65	484.49
580.82	409.59
580.98	416.62
581.14	360.44
581.30	475.13
581.46	409.59
581.62	353.42
581.78	404.91
581.94	430.66
582.10	409.59
582.26	407.25
582.42	414.27
582.58	456.40
582.74	414.27
582.90	482.15
583.06	411.93
583.22	393.21
583.38	423.64
583.54	409.59
583.70	418.96
583.86	395.55
584.02	451.72
584.18	421.30
584.34	463.43
584.50	355.76
584.66	430.66
584.82	325.33
584.98	369.80
585.14	407.25
585.30	430.66
585.46	369.80
585.62	477.47
585.78	409.59
585.94	428.32
586.10	416.62
586.26	383.85
586.42	376.83
586.58	484.49
586.74	315.97
586.90	388.53
587.06	376.83
587.22	470.45
587.38	397.89
587.54	374.49
587.70	433.00
587.86	416.62
588.02	374.49
588.18	388.53
588.34	433.00
588.49	411.93
588.65	358.10
588.81	337.04
588.97	418.96
589.13	386.19
589.29	433.00
589.45	503.22
589.61	519.60
589.77	470.45
589.93	411.93
590.08	386.19
590.24	430.66
590.40	425.98
590.56	437.68
590.72	376.83
590.88	447.04
591.04	454.06
591.20	379.17
591.35	440.02
591.51	421.30
591.67	344.06
591.83	470.45
591.99	388.53
592.15	411.93
592.31	421.30
592.46	365.12
592.62	400.23
592.78	418.96
592.94	418.96
593.10	404.91
593.26	341.72
593.41	440.02
593.57	409.59
593.73	404.91
593.89	411.93
594.05	393.21
594.20	400.23
594.36	444.70
594.52	400.23
594.68	442.36
594.84	433.00
594.99	465.77
595.15	451.72
595.31	404.91
595.47	472.79
595.62	423.64
595.78	355.76
595.94	449.38
596.10	531.30
596.25	390.87
596.41	456.40
596.57	491.51
596.73	402.57
596.88	463.43
597.04	477.47
597.20	449.38
597.36	472.79
597.51	449.38
597.67	376.83
597.83	416.62
597.99	348.74
598.14	393.21
598.30	442.36
598.46	442.36
598.61	409.59
598.77	344.06
598.93	369.80
599.09	393.21
599.24	465.77
599.40	444.70
599.56	498.53
599.71	433.00
599.87	496.19
600.03	472.79
600.18	409.59
600.34	486.83
600.50	351.08
600.65	409.59
600.81	444.70
600.97	355.76
601.12	393.21
601.28	369.80
601.44	372.15
601.59	383.85
601.75	379.17
601.91	332.36
602.06	433.00
602.22	428.32
602.37	440.02
602.53	367.46
602.69	425.98
602.84	444.70
603.00	407.25
603.16	414.27
603.31	409.59
603.47	437.68
603.62	388.53
603.78	383.85
603.94	423.64
604.09	447.04
604.25	451.72
604.40	374.49
604.56	386.19
604.71	381.51
604.87	461.09
605.03	376.83
605.18	435.34
605.34	435.34
605.49	461.09
605.65	402.57
605.80	489.17
605.96	418.96
606.12	444.70
606.27	447.04
606.43	458.74
606.58	409.59
606.74	397.89
606.89	421.30
607.05	440.02
607.20	390.87
607.36	341.72
607.51	327.68
607.67	407.25
607.82	390.87
607.98	447.04
608.13	409.59
608.29	414.27
608.44	376.83
608.60	402.57
608.75	456.40
608.91	425.98
609.06	468.11
609.22	458.74
609.37	423.64
609.53	362.78
609.68	381.51
609.84	390.87
609.99	353.42
610.15	411.93
