SpectraSuite Data File
++++++++++++++++++++++++++++++++++++
Date: Fri Oct 25 12:10:21 EDT 2013
User: price-jones
Dark Spectrum Present: No
Reference Spectrum Present: No
Number of Sampled Component Spectra: 1
Spectrometers: USB2+H05261
Integration Time (usec): 100000 (USB2+H05261)
Spectra Averaged: 1 (USB2+H05261)
Boxcar Smoothing: 0 (USB2+H05261)
Correct for Electrical Dark: No (USB2+H05261)
Strobe/Lamp Enabled: No (USB2+H05261)
Correct for Detector Non-linearity: No (USB2+H05261)
Correct for Stray Light: No (USB2+H05261)
Number of Pixels in Processed Spectrum: 2048
>>>>>Begin Processed Spectral Data<<<<<
365.73	322.99
365.92	322.99
366.12	322.99
366.32	283.20
366.52	311.29
366.72	283.20
366.91	217.67
367.11	269.16
367.31	231.71
367.51	250.44
367.70	177.88
367.90	262.14
368.10	191.92
368.30	217.67
368.49	194.26
368.69	297.25
368.89	201.29
369.09	227.03
369.28	266.82
369.48	327.68
369.68	315.97
369.87	222.35
370.07	276.18
370.27	360.44
370.47	259.80
370.66	355.76
370.86	383.85
371.06	418.96
371.25	365.12
371.45	308.95
371.65	428.32
371.84	337.04
372.04	341.72
372.24	381.51
372.44	437.68
372.63	355.76
372.83	348.74
373.03	416.62
373.22	423.64
373.42	376.83
373.62	449.38
373.81	421.30
374.01	404.91
374.21	454.06
374.40	402.57
374.60	461.09
374.79	493.85
374.99	433.00
375.19	358.10
375.38	468.11
375.58	425.98
375.78	510.24
375.97	409.59
376.17	395.55
376.37	402.57
376.56	407.25
376.76	386.19
376.95	372.15
377.15	430.66
377.35	451.72
377.54	404.91
377.74	365.12
377.93	355.76
378.13	416.62
378.33	404.91
378.52	449.38
378.72	346.40
378.91	386.19
379.11	397.89
379.31	421.30
379.50	458.74
379.70	444.70
379.89	395.55
380.09	320.65
380.28	327.68
380.48	353.42
380.68	395.55
380.87	276.18
381.07	369.80
381.26	437.68
381.46	367.46
381.65	442.36
381.85	423.64
382.04	393.21
382.24	400.23
382.43	407.25
382.63	322.99
382.83	393.21
383.02	400.23
383.22	383.85
383.41	390.87
383.61	374.49
383.80	437.68
384.00	388.53
384.19	407.25
384.39	409.59
384.58	451.72
384.78	411.93
384.97	442.36
385.17	395.55
385.36	456.40
385.56	337.04
385.75	393.21
385.95	463.43
386.14	411.93
386.34	416.62
386.53	411.93
386.72	454.06
386.92	418.96
387.11	430.66
387.31	409.59
387.50	437.68
387.70	369.80
387.89	374.49
388.09	313.63
388.28	386.19
388.48	334.70
388.67	395.55
388.86	447.04
389.06	423.64
389.25	341.72
389.45	407.25
389.64	421.30
389.84	407.25
390.03	416.62
390.22	334.70
390.42	402.57
390.61	393.21
390.81	327.68
391.00	297.25
391.19	411.93
391.39	402.57
391.58	344.06
391.78	430.66
391.97	409.59
392.16	421.30
392.36	465.77
392.55	381.51
392.75	421.30
392.94	402.57
393.13	381.51
393.33	416.62
393.52	409.59
393.71	423.64
393.91	395.55
394.10	315.97
394.29	325.33
394.49	397.89
394.68	376.83
394.88	418.96
395.07	397.89
395.26	372.15
395.46	341.72
395.65	388.53
395.84	442.36
396.04	421.30
396.23	407.25
396.42	339.38
396.62	447.04
396.81	430.66
397.00	372.15
397.19	411.93
397.39	463.43
397.58	425.98
397.77	365.12
397.97	397.89
398.16	451.72
398.35	407.25
398.55	393.21
398.74	397.89
398.93	402.57
399.12	383.85
399.32	411.93
399.51	440.02
399.70	470.45
399.90	390.87
400.09	433.00
400.28	355.76
400.47	355.76
400.67	449.38
400.86	425.98
401.05	322.99
401.24	454.06
401.44	479.81
401.63	423.64
401.82	351.08
402.01	348.74
402.21	470.45
402.40	470.45
402.59	369.80
402.78	379.17
402.97	388.53
403.17	393.21
403.36	327.68
403.55	416.62
403.74	437.68
403.93	346.40
404.13	442.36
404.32	376.83
404.51	409.59
404.70	344.06
404.89	402.57
405.09	339.38
405.28	395.55
405.47	442.36
405.66	383.85
405.85	454.06
406.05	463.43
406.24	421.30
406.43	430.66
406.62	423.64
406.81	423.64
407.00	404.91
407.20	498.53
407.39	447.04
407.58	435.34
407.77	395.55
407.96	381.51
408.15	435.34
408.34	381.51
408.54	400.23
408.73	433.00
408.92	454.06
409.11	442.36
409.30	414.27
409.49	428.32
409.68	430.66
409.87	390.87
410.07	358.10
410.26	461.09
410.45	318.31
410.64	418.96
410.83	376.83
411.02	372.15
411.21	479.81
411.40	447.04
411.59	379.17
411.78	369.80
411.98	395.55
412.17	390.87
412.36	348.74
412.55	376.83
412.74	491.51
412.93	451.72
413.12	407.25
413.31	397.89
413.50	299.59
413.69	365.12
413.88	348.74
414.07	428.32
414.26	435.34
414.45	414.27
414.64	409.59
414.83	402.57
415.02	386.19
415.22	369.80
415.41	442.36
415.60	369.80
415.79	390.87
415.98	430.66
416.17	425.98
416.36	393.21
416.55	407.25
416.74	442.36
416.93	395.55
417.12	383.85
417.31	451.72
417.50	423.64
417.69	344.06
417.88	433.00
418.07	353.42
418.26	388.53
418.45	395.55
418.64	425.98
418.83	437.68
419.02	297.25
419.21	339.38
419.39	407.25
419.58	369.80
419.77	397.89
419.96	489.17
420.15	463.43
420.34	425.98
420.53	470.45
420.72	327.68
420.91	411.93
421.10	379.17
421.29	435.34
421.48	435.34
421.67	435.34
421.86	407.25
422.05	402.57
422.24	423.64
422.43	365.12
422.61	351.08
422.80	440.02
422.99	454.06
423.18	409.59
423.37	458.74
423.56	414.27
423.75	402.57
423.94	423.64
424.13	442.36
424.32	395.55
424.50	454.06
424.69	351.08
424.88	447.04
425.07	449.38
425.26	411.93
425.45	418.96
425.64	416.62
425.83	395.55
426.01	477.47
426.20	435.34
426.39	430.66
426.58	447.04
426.77	407.25
426.96	458.74
427.15	440.02
427.33	379.17
427.52	449.38
427.71	409.59
427.90	372.15
428.09	409.59
428.28	365.12
428.46	404.91
428.65	383.85
428.84	414.27
429.03	433.00
429.22	421.30
429.40	334.70
429.59	421.30
429.78	400.23
429.97	397.89
430.16	365.12
430.34	386.19
430.53	390.87
430.72	442.36
430.91	423.64
431.10	440.02
431.28	395.55
431.47	397.89
431.66	458.74
431.85	311.29
432.03	444.70
432.22	414.27
432.41	402.57
432.60	379.17
432.79	297.25
432.97	402.57
433.16	374.49
433.35	402.57
433.54	463.43
433.72	444.70
433.91	423.64
434.10	360.44
434.28	440.02
434.47	388.53
434.66	456.40
434.85	484.49
435.03	353.42
435.22	528.96
435.41	395.55
435.59	402.57
435.78	425.98
435.97	383.85
436.16	404.91
436.34	355.76
436.53	418.96
436.72	442.36
436.90	430.66
437.09	407.25
437.28	451.72
437.46	386.19
437.65	433.00
437.84	409.59
438.02	369.80
438.21	418.96
438.40	386.19
438.58	433.00
438.77	447.04
438.96	423.64
439.14	458.74
439.33	407.25
439.52	414.27
439.70	435.34
439.89	435.34
440.08	465.77
440.26	409.59
440.45	428.32
440.63	344.06
440.82	376.83
441.01	465.77
441.19	423.64
441.38	407.25
441.57	381.51
441.75	468.11
441.94	472.79
442.12	369.80
442.31	409.59
442.50	390.87
442.68	374.49
442.87	510.24
443.05	425.98
443.24	362.78
443.43	416.62
443.61	503.22
443.80	430.66
443.98	367.46
444.17	355.76
444.35	348.74
444.54	362.78
444.73	416.62
444.91	456.40
445.10	421.30
445.28	409.59
445.47	442.36
445.65	433.00
445.84	400.23
446.02	388.53
446.21	383.85
446.39	456.40
446.58	404.91
446.77	379.17
446.95	423.64
447.14	416.62
447.32	411.93
447.51	447.04
447.69	435.34
447.88	353.42
448.06	428.32
448.25	447.04
448.43	358.10
448.62	383.85
448.80	388.53
448.99	447.04
449.17	351.08
449.36	437.68
449.54	404.91
449.73	388.53
449.91	421.30
450.10	360.44
450.28	442.36
450.46	435.34
450.65	397.89
450.83	461.09
451.02	360.44
451.20	379.17
451.39	404.91
451.57	447.04
451.76	374.49
451.94	444.70
452.13	456.40
452.31	461.09
452.49	407.25
452.68	337.04
452.86	477.47
453.05	484.49
453.23	404.91
453.42	365.12
453.60	386.19
453.78	461.09
453.97	421.30
454.15	351.08
454.34	325.33
454.52	435.34
454.70	411.93
454.89	447.04
455.07	407.25
455.26	358.10
455.44	433.00
455.62	404.91
455.81	365.12
455.99	383.85
456.17	421.30
456.36	369.80
456.54	381.51
456.73	416.62
456.91	395.55
457.09	402.57
457.28	456.40
457.46	496.19
457.64	383.85
457.83	395.55
458.01	379.17
458.19	404.91
458.38	451.72
458.56	395.55
458.74	458.74
458.93	404.91
459.11	351.08
459.29	440.02
459.48	435.34
459.66	421.30
459.84	454.06
460.03	418.96
460.21	489.17
460.39	479.81
460.57	444.70
460.76	477.47
460.94	351.08
461.12	475.13
461.31	404.91
461.49	414.27
461.67	372.15
461.85	423.64
462.04	404.91
462.22	748.97
462.40	416.62
462.59	418.96
462.77	351.08
462.95	395.55
463.13	404.91
463.32	395.55
463.50	423.64
463.68	440.02
463.86	381.51
464.05	388.53
464.23	482.15
464.41	421.30
464.59	484.49
464.78	440.02
464.96	435.34
465.14	404.91
465.32	423.64
465.50	400.23
465.69	479.81
465.87	395.55
466.05	402.57
466.23	379.17
466.41	376.83
466.60	395.55
466.78	386.19
466.96	409.59
467.14	376.83
467.32	400.23
467.51	414.27
467.69	344.06
467.87	454.06
468.05	423.64
468.23	500.87
468.41	449.38
468.60	379.17
468.78	358.10
468.96	451.72
469.14	315.97
469.32	458.74
469.50	409.59
469.69	414.27
469.87	418.96
470.05	421.30
470.23	430.66
470.41	376.83
470.59	362.78
470.77	425.98
470.95	407.25
471.14	479.81
471.32	409.59
471.50	447.04
471.68	409.59
471.86	400.23
472.04	421.30
472.22	397.89
472.40	435.34
472.58	430.66
472.77	374.49
472.95	414.27
473.13	435.34
473.31	475.13
473.49	458.74
473.67	376.83
473.85	425.98
474.03	393.21
474.21	454.06
474.39	486.83
474.57	498.53
474.75	442.36
474.93	470.45
475.12	397.89
475.30	482.15
475.48	421.30
475.66	386.19
475.84	404.91
476.02	374.49
476.20	416.62
476.38	477.47
476.56	477.47
476.74	442.36
476.92	418.96
477.10	395.55
477.28	411.93
477.46	440.02
477.64	468.11
477.82	444.70
478.00	477.47
478.18	416.62
478.36	416.62
478.54	358.10
478.72	442.36
478.90	461.09
479.08	440.02
479.26	402.57
479.44	418.96
479.62	353.42
479.80	442.36
479.98	381.51
480.16	383.85
480.34	440.02
480.52	416.62
480.70	423.64
480.88	409.59
481.06	409.59
481.24	381.51
481.41	393.21
481.59	386.19
481.77	400.23
481.95	458.74
482.13	351.08
482.31	386.19
482.49	360.44
482.67	414.27
482.85	451.72
483.03	470.45
483.21	521.94
483.39	407.25
483.57	514.92
483.74	388.53
483.92	414.27
484.10	369.80
484.28	383.85
484.46	428.32
484.64	440.02
484.82	397.89
485.00	407.25
485.18	416.62
485.35	367.46
485.53	395.55
485.71	454.06
485.89	458.74
486.07	362.78
486.25	451.72
486.43	458.74
486.61	418.96
486.78	428.32
486.96	402.57
487.14	418.96
487.32	421.30
487.50	362.78
487.68	428.32
487.85	407.25
488.03	524.28
488.21	404.91
488.39	311.29
488.57	411.93
488.75	414.27
488.92	440.02
489.10	388.53
489.28	421.30
489.46	418.96
489.64	400.23
489.81	468.11
489.99	393.21
490.17	418.96
490.35	440.02
490.53	440.02
490.70	397.89
490.88	428.32
491.06	444.70
491.24	437.68
491.41	472.79
491.59	444.70
491.77	376.83
491.95	355.76
492.13	365.12
492.30	381.51
492.48	416.62
492.66	454.06
492.84	447.04
493.01	376.83
493.19	440.02
493.37	489.17
493.54	430.66
493.72	433.00
493.90	358.10
494.08	390.87
494.25	451.72
494.43	468.11
494.61	472.79
494.79	433.00
494.96	369.80
495.14	372.15
495.32	351.08
495.49	433.00
495.67	411.93
495.85	369.80
496.02	472.79
496.20	461.09
496.38	454.06
496.55	442.36
496.73	440.02
496.91	353.42
497.09	433.00
497.26	388.53
497.44	379.17
497.62	407.25
497.79	447.04
497.97	383.85
498.14	327.68
498.32	449.38
498.50	407.25
498.67	437.68
498.85	407.25
499.03	454.06
499.20	390.87
499.38	372.15
499.56	437.68
499.73	435.34
499.91	388.53
500.08	386.19
500.26	430.66
500.44	411.93
500.61	381.51
500.79	449.38
500.97	444.70
501.14	414.27
501.32	393.21
501.49	407.25
501.67	500.87
501.84	484.49
502.02	379.17
502.20	449.38
502.37	416.62
502.55	355.76
502.72	440.02
502.90	365.12
503.07	400.23
503.25	486.83
503.43	411.93
503.60	341.72
503.78	433.00
503.95	402.57
504.13	390.87
504.30	447.04
504.48	400.23
504.65	470.45
504.83	435.34
505.01	444.70
505.18	484.49
505.36	437.68
505.53	381.51
505.71	393.21
505.88	505.56
506.06	341.72
506.23	444.70
506.41	423.64
506.58	369.80
506.76	390.87
506.93	442.36
507.11	440.02
507.28	433.00
507.46	423.64
507.63	461.09
507.81	383.85
507.98	409.59
508.16	414.27
508.33	397.89
508.50	418.96
508.68	421.30
508.85	423.64
509.03	381.51
509.20	430.66
509.38	533.64
509.55	400.23
509.73	484.49
509.90	425.98
510.08	400.23
510.25	397.89
510.42	421.30
510.60	444.70
510.77	407.25
510.95	383.85
511.12	468.11
511.30	442.36
511.47	409.59
511.64	503.22
511.82	395.55
511.99	372.15
512.17	465.77
512.34	444.70
512.51	421.30
512.69	369.80
512.86	444.70
513.04	341.72
513.21	390.87
513.38	355.76
513.56	395.55
513.73	442.36
513.90	318.31
514.08	341.72
514.25	425.98
514.43	423.64
514.60	400.23
514.77	383.85
514.95	451.72
515.12	402.57
515.29	430.66
515.47	477.47
515.64	442.36
515.81	414.27
515.99	451.72
516.16	423.64
516.33	433.00
516.51	367.46
516.68	433.00
516.85	451.72
517.03	416.62
517.20	451.72
517.37	386.19
517.54	404.91
517.72	435.34
517.89	465.77
518.06	393.21
518.24	465.77
518.41	484.49
518.58	402.57
518.75	414.27
518.93	433.00
519.10	482.15
519.27	435.34
519.45	507.90
519.62	418.96
519.79	411.93
519.96	388.53
520.14	337.04
520.31	393.21
520.48	425.98
520.65	386.19
520.83	449.38
521.00	456.40
521.17	435.34
521.34	477.47
521.52	437.68
521.69	393.21
521.86	409.59
522.03	463.43
522.20	470.45
522.38	390.87
522.55	390.87
522.72	374.49
522.89	418.96
523.07	388.53
523.24	358.10
523.41	409.59
523.58	461.09
523.75	425.98
523.92	456.40
524.10	411.93
524.27	351.08
524.44	367.46
524.61	376.83
524.78	376.83
524.96	416.62
525.13	418.96
525.30	418.96
525.47	407.25
525.64	402.57
525.81	428.32
525.98	402.57
526.16	454.06
526.33	390.87
526.50	388.53
526.67	374.49
526.84	451.72
527.01	367.46
527.18	442.36
527.36	423.64
527.53	442.36
527.70	332.36
527.87	383.85
528.04	470.45
528.21	482.15
528.38	423.64
528.55	393.21
528.72	454.06
528.89	503.22
529.07	451.72
529.24	461.09
529.41	475.13
529.58	421.30
529.75	447.04
529.92	463.43
530.09	390.87
530.26	425.98
530.43	386.19
530.60	425.98
530.77	435.34
530.94	418.96
531.11	339.38
531.28	433.00
531.46	430.66
531.63	423.64
531.80	414.27
531.97	449.38
532.14	430.66
532.31	442.36
532.48	440.02
532.65	444.70
532.82	400.23
532.99	367.46
533.16	411.93
533.33	411.93
533.50	414.27
533.67	449.38
533.84	355.76
534.01	421.30
534.18	468.11
534.35	442.36
534.52	437.68
534.69	454.06
534.86	390.87
535.03	458.74
535.20	421.30
535.37	421.30
535.54	372.15
535.71	397.89
535.88	423.64
536.05	395.55
536.22	390.87
536.38	442.36
536.55	470.45
536.72	440.02
536.89	482.15
537.06	397.89
537.23	341.72
537.40	414.27
537.57	421.30
537.74	393.21
537.91	496.19
538.08	386.19
538.25	355.76
538.42	407.25
538.59	414.27
538.75	430.66
538.92	409.59
539.09	475.13
539.26	444.70
539.43	442.36
539.60	383.85
539.77	407.25
539.94	442.36
540.11	407.25
540.28	510.24
540.44	449.38
540.61	437.68
540.78	421.30
540.95	418.96
541.12	421.30
541.29	444.70
541.46	451.72
541.62	411.93
541.79	367.46
541.96	472.79
542.13	458.74
542.30	470.45
542.47	461.09
542.63	400.23
542.80	400.23
542.97	482.15
543.14	428.32
543.31	390.87
543.48	418.96
543.64	468.11
543.81	409.59
543.98	379.17
544.15	435.34
544.32	423.64
544.48	430.66
544.65	344.06
544.82	358.10
544.99	390.87
545.16	400.23
545.32	404.91
545.49	416.62
545.66	374.49
545.83	458.74
546.00	386.19
546.16	416.62
546.33	433.00
546.50	414.27
546.67	404.91
546.83	423.64
547.00	425.98
547.17	402.57
547.34	390.87
547.50	407.25
547.67	407.25
547.84	395.55
548.00	407.25
548.17	313.63
548.34	442.36
548.51	451.72
548.67	425.98
548.84	461.09
549.01	409.59
549.18	418.96
549.34	449.38
549.51	358.10
549.68	393.21
549.84	461.09
550.01	442.36
550.18	435.34
550.34	496.19
550.51	404.91
550.68	477.47
550.84	402.57
551.01	400.23
551.18	411.93
551.34	458.74
551.51	414.27
551.68	372.15
551.84	409.59
552.01	465.77
552.18	449.38
552.34	369.80
552.51	430.66
552.68	442.36
552.84	376.83
553.01	388.53
553.18	486.83
553.34	416.62
553.51	374.49
553.67	451.72
553.84	435.34
554.01	390.87
554.17	475.13
554.34	435.34
554.51	456.40
554.67	416.62
554.84	407.25
555.00	397.89
555.17	411.93
555.33	435.34
555.50	477.47
555.67	435.34
555.83	484.49
556.00	435.34
556.16	561.73
556.33	379.17
556.50	353.42
556.66	339.38
556.83	402.57
556.99	433.00
557.16	418.96
557.32	479.81
557.49	440.02
557.65	320.65
557.82	397.89
557.98	332.36
558.15	430.66
558.32	379.17
558.48	386.19
558.65	374.49
558.81	433.00
558.98	402.57
559.14	437.68
559.31	421.30
559.47	407.25
559.64	355.76
559.80	421.30
559.97	407.25
560.13	435.34
560.30	425.98
560.46	411.93
560.63	383.85
560.79	376.83
560.96	379.17
561.12	400.23
561.29	430.66
561.45	353.42
561.61	425.98
561.78	458.74
561.94	344.06
562.11	463.43
562.27	395.55
562.44	428.32
562.60	433.00
562.77	498.53
562.93	479.81
563.10	444.70
563.26	414.27
563.42	449.38
563.59	383.85
563.75	411.93
563.92	479.81
564.08	339.38
564.24	421.30
564.41	416.62
564.57	344.06
564.74	411.93
564.90	351.08
565.07	365.12
565.23	421.30
565.39	442.36
565.56	468.11
565.72	311.29
565.88	393.21
566.05	449.38
566.21	470.45
566.38	390.87
566.54	500.87
566.70	393.21
566.87	390.87
567.03	383.85
567.19	414.27
567.36	390.87
567.52	409.59
567.68	430.66
567.85	411.93
568.01	425.98
568.17	411.93
568.34	463.43
568.50	456.40
568.66	383.85
568.83	514.92
568.99	433.00
569.15	402.57
569.32	407.25
569.48	444.70
569.64	411.93
569.81	472.79
569.97	400.23
570.13	423.64
570.30	381.51
570.46	390.87
570.62	400.23
570.78	407.25
570.95	444.70
571.11	435.34
571.27	433.00
571.43	383.85
571.60	395.55
571.76	355.76
571.92	430.66
572.09	393.21
572.25	416.62
572.41	440.02
572.57	383.85
572.74	395.55
572.90	397.89
573.06	461.09
573.22	442.36
573.38	435.34
573.55	475.13
573.71	451.72
573.87	369.80
574.03	341.72
574.20	402.57
574.36	461.09
574.52	423.64
574.68	372.15
574.84	407.25
575.01	379.17
575.17	468.11
575.33	451.72
575.49	416.62
575.65	458.74
575.82	374.49
575.98	386.19
576.14	402.57
576.30	369.80
576.46	358.10
576.62	409.59
576.79	421.30
576.95	383.85
577.11	428.32
577.27	423.64
577.43	386.19
577.59	397.89
577.75	430.66
577.92	416.62
578.08	428.32
578.24	372.15
578.40	367.46
578.56	428.32
578.72	435.34
578.88	444.70
579.04	362.78
579.21	358.10
579.37	358.10
579.53	425.98
579.69	390.87
579.85	428.32
580.01	379.17
580.17	372.15
580.33	376.83
580.49	423.64
580.65	449.38
580.82	447.04
580.98	486.83
581.14	440.02
581.30	479.81
581.46	393.21
581.62	437.68
581.78	402.57
581.94	470.45
582.10	428.32
582.26	421.30
582.42	367.46
582.58	470.45
582.74	435.34
582.90	381.51
583.06	447.04
583.22	451.72
583.38	344.06
583.54	337.04
583.70	442.36
583.86	407.25
584.02	423.64
584.18	425.98
584.34	435.34
584.50	407.25
584.66	430.66
584.82	400.23
584.98	458.74
585.14	416.62
585.30	449.38
585.46	386.19
585.62	390.87
585.78	440.02
585.94	454.06
586.10	374.49
586.26	409.59
586.42	444.70
586.58	404.91
586.74	369.80
586.90	393.21
587.06	512.58
587.22	379.17
587.38	449.38
587.54	353.42
587.70	395.55
587.86	425.98
588.02	482.15
588.18	374.49
588.34	425.98
588.49	409.59
588.65	463.43
588.81	423.64
588.97	365.12
589.13	442.36
589.29	447.04
589.45	440.02
589.61	409.59
589.77	414.27
589.93	458.74
590.08	449.38
590.24	423.64
590.40	449.38
590.56	442.36
590.72	428.32
590.88	418.96
591.04	433.00
591.20	477.47
591.35	444.70
591.51	414.27
591.67	365.12
591.83	475.13
591.99	404.91
592.15	437.68
592.31	456.40
592.46	402.57
592.62	440.02
592.78	496.19
592.94	416.62
593.10	358.10
593.26	381.51
593.41	433.00
593.57	388.53
593.73	351.08
593.89	461.09
594.05	369.80
594.20	404.91
594.36	411.93
594.52	390.87
594.68	348.74
594.84	465.77
594.99	425.98
595.15	379.17
595.31	421.30
595.47	496.19
595.62	423.64
595.78	421.30
595.94	437.68
596.10	379.17
596.25	470.45
596.41	351.08
596.57	388.53
596.73	493.85
596.88	468.11
597.04	367.46
597.20	454.06
597.36	421.30
597.51	397.89
597.67	430.66
597.83	437.68
597.99	454.06
598.14	458.74
598.30	463.43
598.46	402.57
598.61	477.47
598.77	416.62
598.93	330.02
599.09	358.10
599.24	362.78
599.40	430.66
599.56	435.34
599.71	365.12
599.87	388.53
600.03	437.68
600.18	404.91
600.34	465.77
600.50	433.00
600.65	484.49
600.81	414.27
600.97	451.72
601.12	425.98
601.28	486.83
601.44	404.91
601.59	458.74
601.75	397.89
601.91	362.78
602.06	416.62
602.22	423.64
602.37	346.40
602.53	351.08
602.69	479.81
602.84	425.98
603.00	449.38
603.16	444.70
603.31	369.80
603.47	533.64
603.62	360.44
603.78	393.21
603.94	374.49
604.09	482.15
604.25	477.47
604.40	489.17
604.56	376.83
604.71	449.38
604.87	418.96
605.03	414.27
605.18	411.93
605.34	400.23
605.49	400.23
605.65	418.96
605.80	409.59
605.96	393.21
606.12	393.21
606.27	428.32
606.43	402.57
606.58	484.49
606.74	388.53
606.89	416.62
607.05	482.15
607.20	454.06
607.36	421.30
607.51	418.96
607.67	395.55
607.82	442.36
607.98	381.51
608.13	383.85
608.29	400.23
608.44	430.66
608.60	451.72
608.75	447.04
608.91	400.23
609.06	421.30
609.22	442.36
609.37	386.19
609.53	348.74
609.68	393.21
609.84	402.57
609.99	411.93
610.15	447.04
