SpectraSuite Data File
++++++++++++++++++++++++++++++++++++
Date: Fri Oct 25 12:11:12 EDT 2013
User: price-jones
Dark Spectrum Present: No
Reference Spectrum Present: No
Number of Sampled Component Spectra: 1
Spectrometers: USB2+H05261
Integration Time (usec): 100000 (USB2+H05261)
Spectra Averaged: 1 (USB2+H05261)
Boxcar Smoothing: 0 (USB2+H05261)
Correct for Electrical Dark: No (USB2+H05261)
Strobe/Lamp Enabled: No (USB2+H05261)
Correct for Detector Non-linearity: No (USB2+H05261)
Correct for Stray Light: No (USB2+H05261)
Number of Pixels in Processed Spectrum: 2048
>>>>>Begin Processed Spectral Data<<<<<
365.73	330.02
365.92	330.02
366.12	330.02
366.32	243.42
366.52	264.48
366.72	229.37
366.91	175.54
367.11	238.73
367.31	168.52
367.51	231.71
367.70	217.67
367.90	280.86
368.10	255.12
368.30	177.88
368.49	212.99
368.69	241.08
368.89	285.55
369.09	184.90
369.28	290.23
369.48	313.63
369.68	308.95
369.87	327.68
370.07	215.33
370.27	353.42
370.47	325.33
370.66	341.72
370.86	365.12
371.06	414.27
371.25	388.53
371.45	430.66
371.65	416.62
371.84	273.84
372.04	435.34
372.24	409.59
372.44	327.68
372.63	337.04
372.83	411.93
373.03	337.04
373.22	372.15
373.42	390.87
373.62	393.21
373.81	341.72
374.01	411.93
374.21	379.17
374.40	376.83
374.60	463.43
374.79	425.98
374.99	430.66
375.19	433.00
375.38	414.27
375.58	435.34
375.78	409.59
375.97	425.98
376.17	484.49
376.37	449.38
376.56	440.02
376.76	444.70
376.95	463.43
377.15	430.66
377.35	416.62
377.54	451.72
377.74	414.27
377.93	414.27
378.13	416.62
378.33	444.70
378.52	383.85
378.72	440.02
378.91	416.62
379.11	353.42
379.31	416.62
379.50	381.51
379.70	430.66
379.89	454.06
380.09	470.45
380.28	400.23
380.48	383.85
380.68	407.25
380.87	308.95
381.07	404.91
381.26	440.02
381.46	414.27
381.65	383.85
381.85	390.87
382.04	400.23
382.24	362.78
382.43	423.64
382.63	428.32
382.83	374.49
383.02	402.57
383.22	418.96
383.41	362.78
383.61	395.55
383.80	477.47
384.00	423.64
384.19	423.64
384.39	388.53
384.58	407.25
384.78	430.66
384.97	437.68
385.17	425.98
385.36	367.46
385.56	423.64
385.75	369.80
385.95	442.36
386.14	390.87
386.34	397.89
386.53	383.85
386.72	400.23
386.92	362.78
387.11	414.27
387.31	411.93
387.50	330.02
387.70	362.78
387.89	386.19
388.09	355.76
388.28	306.61
388.48	376.83
388.67	418.96
388.86	351.08
389.06	449.38
389.25	351.08
389.45	435.34
389.64	442.36
389.84	477.47
390.03	388.53
390.22	351.08
390.42	451.72
390.61	383.85
390.81	360.44
391.00	386.19
391.19	407.25
391.39	383.85
391.58	440.02
391.78	374.49
391.97	447.04
392.16	414.27
392.36	454.06
392.55	425.98
392.75	423.64
392.94	365.12
393.13	369.80
393.33	468.11
393.52	423.64
393.71	500.87
393.91	423.64
394.10	397.89
394.29	362.78
394.49	360.44
394.68	379.17
394.88	404.91
395.07	447.04
395.26	423.64
395.46	430.66
395.65	463.43
395.84	402.57
396.04	435.34
396.23	442.36
396.42	414.27
396.62	428.32
396.81	425.98
397.00	393.21
397.19	395.55
397.39	430.66
397.58	456.40
397.77	428.32
397.97	390.87
398.16	416.62
398.35	425.98
398.55	334.70
398.74	379.17
398.93	418.96
399.12	465.77
399.32	404.91
399.51	411.93
399.70	428.32
399.90	383.85
400.09	421.30
400.28	430.66
400.47	397.89
400.67	517.26
400.86	496.19
401.05	404.91
401.24	400.23
401.44	435.34
401.63	430.66
401.82	390.87
402.01	425.98
402.21	437.68
402.40	421.30
402.59	421.30
402.78	381.51
402.97	421.30
403.17	367.46
403.36	437.68
403.55	425.98
403.74	383.85
403.93	372.15
404.13	411.93
404.32	383.85
404.51	418.96
404.70	393.21
404.89	428.32
405.09	404.91
405.28	353.42
405.47	416.62
405.66	402.57
405.85	374.49
406.05	411.93
406.24	414.27
406.43	440.02
406.62	437.68
406.81	482.15
407.00	402.57
407.20	454.06
407.39	346.40
407.58	388.53
407.77	430.66
407.96	369.80
408.15	407.25
408.34	390.87
408.54	421.30
408.73	414.27
408.92	414.27
409.11	435.34
409.30	454.06
409.49	301.93
409.68	386.19
409.87	449.38
410.07	383.85
410.26	423.64
410.45	425.98
410.64	433.00
410.83	362.78
411.02	393.21
411.21	355.76
411.40	433.00
411.59	418.96
411.78	447.04
411.98	393.21
412.17	407.25
412.36	383.85
412.55	442.36
412.74	433.00
412.93	421.30
413.12	430.66
413.31	440.02
413.50	444.70
413.69	437.68
413.88	428.32
414.07	365.12
414.26	358.10
414.45	411.93
414.64	470.45
414.83	418.96
415.02	447.04
415.22	463.43
415.41	381.51
415.60	386.19
415.79	418.96
415.98	376.83
416.17	421.30
416.36	376.83
416.55	341.72
416.74	451.72
416.93	421.30
417.12	365.12
417.31	425.98
417.50	400.23
417.69	468.11
417.88	468.11
418.07	355.76
418.26	393.21
418.45	447.04
418.64	475.13
418.83	320.65
419.02	376.83
419.21	435.34
419.39	414.27
419.58	355.76
419.77	475.13
419.96	390.87
420.15	344.06
420.34	458.74
420.53	411.93
420.72	472.79
420.91	437.68
421.10	461.09
421.29	411.93
421.48	327.68
421.67	383.85
421.86	428.32
422.05	444.70
422.24	332.36
422.43	470.45
422.61	409.59
422.80	390.87
422.99	437.68
423.18	435.34
423.37	461.09
423.56	416.62
423.75	449.38
423.94	428.32
424.13	402.57
424.32	393.21
424.50	423.64
424.69	404.91
424.88	416.62
425.07	402.57
425.26	393.21
425.45	414.27
425.64	425.98
425.83	379.17
426.01	428.32
426.20	440.02
426.39	437.68
426.58	374.49
426.77	433.00
426.96	390.87
427.15	425.98
427.33	451.72
427.52	430.66
427.71	428.32
427.90	528.96
428.09	407.25
428.28	360.44
428.46	330.02
428.65	372.15
428.84	318.31
429.03	355.76
429.22	386.19
429.40	433.00
429.59	381.51
429.78	454.06
429.97	428.32
430.16	400.23
430.34	418.96
430.53	418.96
430.72	388.53
430.91	397.89
431.10	444.70
431.28	414.27
431.47	402.57
431.66	421.30
431.85	423.64
432.03	407.25
432.22	425.98
432.41	411.93
432.60	404.91
432.79	409.59
432.97	372.15
433.16	400.23
433.35	470.45
433.54	454.06
433.72	425.98
433.91	454.06
434.10	372.15
434.28	348.74
434.47	388.53
434.66	395.55
434.85	411.93
435.03	449.38
435.22	475.13
435.41	465.77
435.59	409.59
435.78	486.83
435.97	388.53
436.16	388.53
436.34	407.25
436.53	425.98
436.72	374.49
436.90	386.19
437.09	353.42
437.28	381.51
437.46	397.89
437.65	482.15
437.84	411.93
438.02	418.96
438.21	414.27
438.40	402.57
438.58	442.36
438.77	402.57
438.96	465.77
439.14	411.93
439.33	454.06
439.52	358.10
439.70	351.08
439.89	383.85
440.08	435.34
440.26	365.12
440.45	411.93
440.63	402.57
440.82	447.04
441.01	381.51
441.19	418.96
441.38	414.27
441.57	425.98
441.75	397.89
441.94	393.21
442.12	430.66
442.31	358.10
442.50	433.00
442.68	430.66
442.87	390.87
443.05	428.32
443.24	376.83
443.43	465.77
443.61	510.24
443.80	484.49
443.98	470.45
444.17	372.15
444.35	379.17
444.54	374.49
444.73	393.21
444.91	437.68
445.10	425.98
445.28	479.81
445.47	430.66
445.65	411.93
445.84	393.21
446.02	428.32
446.21	416.62
446.39	454.06
446.58	472.79
446.77	397.89
446.95	425.98
447.14	428.32
447.32	400.23
447.51	503.22
447.69	414.27
447.88	437.68
448.06	404.91
448.25	390.87
448.43	374.49
448.62	404.91
448.80	362.78
448.99	477.47
449.17	428.32
449.36	447.04
449.54	409.59
449.73	414.27
449.91	489.17
450.10	400.23
450.28	411.93
450.46	381.51
450.65	444.70
450.83	409.59
451.02	395.55
451.20	428.32
451.39	440.02
451.57	407.25
451.76	463.43
451.94	421.30
452.13	444.70
452.31	491.51
452.49	416.62
452.68	383.85
452.86	414.27
453.05	423.64
453.23	435.34
453.42	404.91
453.60	409.59
453.78	486.83
453.97	425.98
454.15	369.80
454.34	447.04
454.52	423.64
454.70	416.62
454.89	484.49
455.07	407.25
455.26	421.30
455.44	334.70
455.62	388.53
455.81	430.66
455.99	421.30
456.17	362.78
456.36	416.62
456.54	440.02
456.73	468.11
456.91	437.68
457.09	414.27
457.28	369.80
457.46	442.36
457.64	458.74
457.83	437.68
458.01	440.02
458.19	393.21
458.38	409.59
458.56	416.62
458.74	407.25
458.93	444.70
459.11	337.04
459.29	383.85
459.48	454.06
459.66	456.40
459.84	414.27
460.03	463.43
460.21	440.02
460.39	390.87
460.57	454.06
460.76	425.98
460.94	395.55
461.12	390.87
461.31	440.02
461.49	397.89
461.67	400.23
461.85	423.64
462.04	365.12
462.22	755.99
462.40	407.25
462.59	381.51
462.77	383.85
462.95	454.06
463.13	381.51
463.32	404.91
463.50	454.06
463.68	421.30
463.86	311.29
464.05	411.93
464.23	404.91
464.41	461.09
464.59	388.53
464.78	468.11
464.96	400.23
465.14	409.59
465.32	414.27
465.50	421.30
465.69	468.11
465.87	388.53
466.05	449.38
466.23	332.36
466.41	442.36
466.60	482.15
466.78	428.32
466.96	486.83
467.14	447.04
467.32	379.17
467.51	409.59
467.69	404.91
467.87	440.02
468.05	456.40
468.23	440.02
468.41	444.70
468.60	433.00
468.78	388.53
468.96	358.10
469.14	390.87
469.32	411.93
469.50	409.59
469.69	395.55
469.87	400.23
470.05	430.66
470.23	451.72
470.41	376.83
470.59	402.57
470.77	454.06
470.95	437.68
471.14	414.27
471.32	425.98
471.50	489.17
471.68	425.98
471.86	456.40
472.04	409.59
472.22	440.02
472.40	395.55
472.58	355.76
472.77	376.83
472.95	435.34
473.13	500.87
473.31	418.96
473.49	334.70
473.67	358.10
473.85	404.91
474.03	355.76
474.21	468.11
474.39	498.53
474.57	489.17
474.75	386.19
474.93	423.64
475.12	397.89
475.30	444.70
475.48	435.34
475.66	451.72
475.84	463.43
476.02	393.21
476.20	416.62
476.38	390.87
476.56	463.43
476.74	409.59
476.92	425.98
477.10	444.70
477.28	421.30
477.46	388.53
477.64	360.44
477.82	393.21
478.00	418.96
478.18	470.45
478.36	472.79
478.54	372.15
478.72	468.11
478.90	402.57
479.08	425.98
479.26	463.43
479.44	430.66
479.62	344.06
479.80	390.87
479.98	390.87
480.16	346.40
480.34	425.98
480.52	416.62
480.70	465.77
480.88	421.30
481.06	421.30
481.24	435.34
481.41	383.85
481.59	393.21
481.77	472.79
481.95	362.78
482.13	400.23
482.31	404.91
482.49	400.23
482.67	362.78
482.85	407.25
483.03	369.80
483.21	430.66
483.39	454.06
483.57	449.38
483.74	404.91
483.92	468.11
484.10	442.36
484.28	404.91
484.46	484.49
484.64	390.87
484.82	472.79
485.00	472.79
485.18	416.62
485.35	404.91
485.53	346.40
485.71	409.59
485.89	351.08
486.07	423.64
486.25	472.79
486.43	421.30
486.61	379.17
486.78	449.38
486.96	418.96
487.14	402.57
487.32	395.55
487.50	372.15
487.68	465.77
487.85	475.13
488.03	404.91
488.21	472.79
488.39	440.02
488.57	395.55
488.75	425.98
488.92	461.09
489.10	491.51
489.28	397.89
489.46	433.00
489.64	411.93
489.81	404.91
489.99	491.51
490.17	348.74
490.35	475.13
490.53	461.09
490.70	404.91
490.88	414.27
491.06	411.93
491.24	414.27
491.41	442.36
491.59	444.70
491.77	311.29
491.95	449.38
492.13	458.74
492.30	390.87
492.48	348.74
492.66	402.57
492.84	416.62
493.01	397.89
493.19	402.57
493.37	430.66
493.54	423.64
493.72	416.62
493.90	376.83
494.08	414.27
494.25	355.76
494.43	442.36
494.61	404.91
494.79	404.91
494.96	381.51
495.14	435.34
495.32	430.66
495.49	367.46
495.67	358.10
495.85	430.66
496.02	449.38
496.20	444.70
496.38	393.21
496.55	381.51
496.73	402.57
496.91	404.91
497.09	461.09
497.26	390.87
497.44	486.83
497.62	428.32
497.79	372.15
497.97	425.98
498.14	365.12
498.32	414.27
498.50	381.51
498.67	402.57
498.85	353.42
499.03	423.64
499.20	367.46
499.38	400.23
499.56	409.59
499.73	454.06
499.91	407.25
500.08	505.56
500.26	418.96
500.44	376.83
500.61	369.80
500.79	367.46
500.97	477.47
501.14	393.21
501.32	451.72
501.49	428.32
501.67	386.19
501.84	416.62
502.02	388.53
502.20	400.23
502.37	435.34
502.55	433.00
502.72	390.87
502.90	374.49
503.07	440.02
503.25	430.66
503.43	437.68
503.60	402.57
503.78	339.38
503.95	390.87
504.13	433.00
504.30	407.25
504.48	433.00
504.65	535.98
504.83	411.93
505.01	379.17
505.18	451.72
505.36	454.06
505.53	430.66
505.71	369.80
505.88	416.62
506.06	390.87
506.23	379.17
506.41	479.81
506.58	465.77
506.76	437.68
506.93	402.57
507.11	390.87
507.28	454.06
507.46	397.89
507.63	437.68
507.81	381.51
507.98	435.34
508.16	423.64
508.33	379.17
508.50	404.91
508.68	325.33
508.85	454.06
509.03	433.00
509.20	407.25
509.38	407.25
509.55	402.57
509.73	358.10
509.90	423.64
510.08	404.91
510.25	430.66
510.42	454.06
510.60	386.19
510.77	351.08
510.95	339.38
511.12	421.30
511.30	440.02
511.47	461.09
511.64	447.04
511.82	379.17
511.99	418.96
512.17	402.57
512.34	348.74
512.51	407.25
512.69	381.51
512.86	458.74
513.04	360.44
513.21	430.66
513.38	334.70
513.56	376.83
513.73	425.98
513.90	374.49
514.08	393.21
514.25	400.23
514.43	388.53
514.60	348.74
514.77	379.17
514.95	402.57
515.12	404.91
515.29	404.91
515.47	458.74
515.64	355.76
515.81	421.30
515.99	472.79
516.16	411.93
516.33	428.32
516.51	414.27
516.68	409.59
516.85	379.17
517.03	461.09
517.20	447.04
517.37	454.06
517.54	491.51
517.72	423.64
517.89	475.13
518.06	535.98
518.24	456.40
518.41	411.93
518.58	454.06
518.75	388.53
518.93	409.59
519.10	383.85
519.27	395.55
519.45	383.85
519.62	411.93
519.79	355.76
519.96	383.85
520.14	379.17
520.31	393.21
520.48	381.51
520.65	376.83
520.83	386.19
521.00	362.78
521.17	428.32
521.34	404.91
521.52	383.85
521.69	411.93
521.86	390.87
522.03	430.66
522.20	351.08
522.38	407.25
522.55	407.25
522.72	414.27
522.89	404.91
523.07	425.98
523.24	395.55
523.41	393.21
523.58	500.87
523.75	482.15
523.92	400.23
524.10	372.15
524.27	414.27
524.44	365.12
524.61	315.97
524.78	479.81
524.96	477.47
525.13	409.59
525.30	444.70
525.47	402.57
525.64	416.62
525.81	463.43
525.98	470.45
526.16	374.49
526.33	372.15
526.50	411.93
526.67	416.62
526.84	416.62
527.01	395.55
527.18	346.40
527.36	404.91
527.53	411.93
527.70	428.32
527.87	404.91
528.04	365.12
528.21	390.87
528.38	433.00
528.55	430.66
528.72	379.17
528.89	402.57
529.07	346.40
529.24	472.79
529.41	416.62
529.58	456.40
529.75	470.45
529.92	477.47
530.09	451.72
530.26	365.12
530.43	425.98
530.60	409.59
530.77	418.96
530.94	437.68
531.11	397.89
531.28	433.00
531.46	348.74
531.63	447.04
531.80	407.25
531.97	390.87
532.14	400.23
532.31	381.51
532.48	379.17
532.65	454.06
532.82	416.62
532.99	428.32
533.16	409.59
533.33	383.85
533.50	421.30
533.67	430.66
533.84	444.70
534.01	407.25
534.18	430.66
534.35	344.06
534.52	437.68
534.69	447.04
534.86	449.38
535.03	404.91
535.20	367.46
535.37	411.93
535.54	383.85
535.71	447.04
535.88	493.85
536.05	334.70
536.22	320.65
536.38	428.32
536.55	454.06
536.72	367.46
536.89	423.64
537.06	383.85
537.23	423.64
537.40	430.66
537.57	400.23
537.74	468.11
537.91	454.06
538.08	447.04
538.25	365.12
538.42	372.15
538.59	437.68
538.75	390.87
538.92	395.55
539.09	444.70
539.26	428.32
539.43	486.83
539.60	503.22
539.77	425.98
539.94	409.59
540.11	433.00
540.28	423.64
540.44	407.25
540.61	465.77
540.78	421.30
540.95	416.62
541.12	484.49
541.29	365.12
541.46	376.83
541.62	411.93
541.79	447.04
541.96	362.78
542.13	402.57
542.30	442.36
542.47	421.30
542.63	425.98
542.80	423.64
542.97	355.76
543.14	393.21
543.31	430.66
543.48	416.62
543.64	444.70
543.81	367.46
543.98	313.63
544.15	386.19
544.32	430.66
544.48	367.46
544.65	411.93
544.82	416.62
544.99	442.36
545.16	409.59
545.32	367.46
545.49	383.85
545.66	461.09
545.83	360.44
546.00	430.66
546.16	416.62
546.33	322.99
546.50	416.62
546.67	442.36
546.83	421.30
547.00	414.27
547.17	411.93
547.34	442.36
547.50	418.96
547.67	435.34
547.84	437.68
548.00	430.66
548.17	383.85
548.34	437.68
548.51	491.51
548.67	451.72
548.84	414.27
549.01	463.43
549.18	449.38
549.34	358.10
549.51	418.96
549.68	407.25
549.84	404.91
550.01	433.00
550.18	475.13
550.34	430.66
550.51	393.21
550.68	486.83
550.84	444.70
551.01	437.68
551.18	404.91
551.34	421.30
551.51	346.40
551.68	393.21
551.84	411.93
552.01	379.17
552.18	423.64
552.34	407.25
552.51	442.36
552.68	423.64
552.84	390.87
553.01	430.66
553.18	449.38
553.34	374.49
553.51	393.21
553.67	470.45
553.84	493.85
554.01	479.81
554.17	472.79
554.34	475.13
554.51	475.13
554.67	433.00
554.84	362.78
555.00	372.15
555.17	451.72
555.33	416.62
555.50	395.55
555.67	400.23
555.83	458.74
556.00	430.66
556.16	531.30
556.33	500.87
556.50	411.93
556.66	358.10
556.83	449.38
556.99	365.12
557.16	451.72
557.32	477.47
557.49	428.32
557.65	428.32
557.82	390.87
557.98	435.34
558.15	400.23
558.32	449.38
558.48	449.38
558.65	414.27
558.81	404.91
558.98	461.09
559.14	421.30
559.31	416.62
559.47	358.10
559.64	381.51
559.80	421.30
559.97	411.93
560.13	540.66
560.30	353.42
560.46	381.51
560.63	390.87
560.79	416.62
560.96	440.02
561.12	390.87
561.29	425.98
561.45	416.62
561.61	360.44
561.78	543.00
561.94	388.53
562.11	435.34
562.27	451.72
562.44	442.36
562.60	416.62
562.77	416.62
562.93	468.11
563.10	435.34
563.26	393.21
563.42	428.32
563.59	404.91
563.75	397.89
563.92	409.59
564.08	489.17
564.24	470.45
564.41	454.06
564.57	418.96
564.74	393.21
564.90	484.49
565.07	416.62
565.23	402.57
565.39	372.15
565.56	423.64
565.72	386.19
565.88	430.66
566.05	451.72
566.21	444.70
566.38	418.96
566.54	414.27
566.70	402.57
566.87	418.96
567.03	367.46
567.19	421.30
567.36	423.64
567.52	393.21
567.68	409.59
567.85	428.32
568.01	322.99
568.17	407.25
568.34	435.34
568.50	458.74
568.66	407.25
568.83	491.51
568.99	362.78
569.15	393.21
569.32	425.98
569.48	500.87
569.64	510.24
569.81	451.72
569.97	482.15
570.13	416.62
570.30	428.32
570.46	465.77
570.62	351.08
570.78	449.38
570.95	437.68
571.11	470.45
571.27	468.11
571.43	369.80
571.60	425.98
571.76	395.55
571.92	477.47
572.09	360.44
572.25	390.87
572.41	381.51
572.57	390.87
572.74	407.25
572.90	411.93
573.06	449.38
573.22	409.59
573.38	418.96
573.55	470.45
573.71	379.17
573.87	397.89
574.03	400.23
574.20	360.44
574.36	444.70
574.52	395.55
574.68	362.78
574.84	386.19
575.01	447.04
575.17	430.66
575.33	376.83
575.49	430.66
575.65	433.00
575.82	428.32
575.98	486.83
576.14	472.79
576.30	390.87
576.46	407.25
576.62	409.59
576.79	472.79
576.95	435.34
577.11	379.17
577.27	390.87
577.43	421.30
577.59	397.89
577.75	397.89
577.92	491.51
578.08	379.17
578.24	397.89
578.40	407.25
578.56	470.45
578.72	489.17
578.88	444.70
579.04	414.27
579.21	390.87
579.37	411.93
579.53	468.11
579.69	418.96
579.85	390.87
580.01	395.55
580.17	411.93
580.33	411.93
580.49	390.87
580.65	346.40
580.82	470.45
580.98	383.85
581.14	423.64
581.30	428.32
581.46	498.53
581.62	400.23
581.78	414.27
581.94	440.02
582.10	435.34
582.26	414.27
582.42	397.89
582.58	428.32
582.74	383.85
582.90	421.30
583.06	440.02
583.22	449.38
583.38	365.12
583.54	482.15
583.70	482.15
583.86	376.83
584.02	433.00
584.18	503.22
584.34	402.57
584.50	381.51
584.66	512.58
584.82	376.83
584.98	367.46
585.14	472.79
585.30	435.34
585.46	475.13
585.62	362.78
585.78	400.23
585.94	393.21
586.10	404.91
586.26	402.57
586.42	505.56
586.58	447.04
586.74	449.38
586.90	437.68
587.06	393.21
587.22	442.36
587.38	440.02
587.54	367.46
587.70	521.94
587.86	388.53
588.02	435.34
588.18	444.70
588.34	486.83
588.49	411.93
588.65	404.91
588.81	472.79
588.97	425.98
589.13	397.89
589.29	402.57
589.45	409.59
589.61	416.62
589.77	510.24
589.93	381.51
590.08	365.12
590.24	348.74
590.40	395.55
590.56	444.70
590.72	423.64
590.88	397.89
591.04	374.49
591.20	461.09
591.35	503.22
591.51	454.06
591.67	348.74
591.83	411.93
591.99	404.91
592.15	374.49
592.31	383.85
592.46	360.44
592.62	355.76
592.78	435.34
592.94	449.38
593.10	425.98
593.26	383.85
593.41	407.25
593.57	400.23
593.73	360.44
593.89	390.87
594.05	386.19
594.20	383.85
594.36	404.91
594.52	418.96
594.68	458.74
594.84	477.47
594.99	440.02
595.15	461.09
595.31	461.09
595.47	440.02
595.62	425.98
595.78	442.36
595.94	383.85
596.10	451.72
596.25	442.36
596.41	496.19
596.57	379.17
596.73	451.72
596.88	393.21
597.04	397.89
597.20	393.21
597.36	470.45
597.51	402.57
597.67	407.25
597.83	428.32
597.99	461.09
598.14	369.80
598.30	402.57
598.46	379.17
598.61	440.02
598.77	433.00
598.93	388.53
599.09	482.15
599.24	362.78
599.40	353.42
599.56	442.36
599.71	456.40
599.87	414.27
600.03	430.66
600.18	447.04
600.34	484.49
600.50	440.02
600.65	442.36
600.81	407.25
600.97	416.62
601.12	390.87
601.28	454.06
601.44	381.51
601.59	374.49
601.75	461.09
601.91	388.53
602.06	479.81
602.22	425.98
602.37	397.89
602.53	381.51
602.69	395.55
602.84	430.66
603.00	400.23
603.16	489.17
603.31	440.02
603.47	456.40
603.62	348.74
603.78	463.43
603.94	416.62
604.09	360.44
604.25	428.32
604.40	411.93
604.56	423.64
604.71	458.74
604.87	458.74
605.03	454.06
605.18	423.64
605.34	416.62
605.49	388.53
605.65	395.55
605.80	397.89
605.96	367.46
606.12	402.57
606.27	463.43
606.43	423.64
606.58	442.36
606.74	472.79
606.89	418.96
607.05	454.06
607.20	379.17
607.36	447.04
607.51	379.17
607.67	402.57
607.82	390.87
607.98	463.43
608.13	400.23
608.29	479.81
608.44	411.93
608.60	360.44
608.75	407.25
608.91	421.30
609.06	397.89
609.22	489.17
609.37	397.89
609.53	416.62
609.68	386.19
609.84	437.68
609.99	407.25
610.15	451.72
