SpectraSuite Data File
++++++++++++++++++++++++++++++++++++
Date: Fri Oct 25 12:11:01 EDT 2013
User: price-jones
Dark Spectrum Present: No
Reference Spectrum Present: No
Number of Sampled Component Spectra: 1
Spectrometers: USB2+H05261
Integration Time (usec): 100000 (USB2+H05261)
Spectra Averaged: 1 (USB2+H05261)
Boxcar Smoothing: 0 (USB2+H05261)
Correct for Electrical Dark: No (USB2+H05261)
Strobe/Lamp Enabled: No (USB2+H05261)
Correct for Detector Non-linearity: No (USB2+H05261)
Correct for Stray Light: No (USB2+H05261)
Number of Pixels in Processed Spectrum: 2048
>>>>>Begin Processed Spectral Data<<<<<
365.73	351.08
365.92	351.08
366.12	351.08
366.32	271.50
366.52	252.78
366.72	255.12
366.91	224.69
367.11	212.99
367.31	252.78
367.51	201.29
367.70	238.73
367.90	299.59
368.10	224.69
368.30	215.33
368.49	196.60
368.69	234.05
368.89	234.05
369.09	245.76
369.28	264.48
369.48	276.18
369.68	290.23
369.87	351.08
370.07	358.10
370.27	346.40
370.47	376.83
370.66	311.29
370.86	414.27
371.06	369.80
371.25	390.87
371.45	337.04
371.65	390.87
371.84	374.49
372.04	407.25
372.24	397.89
372.44	440.02
372.63	395.55
372.83	414.27
373.03	367.46
373.22	433.00
373.42	362.78
373.62	383.85
373.81	421.30
374.01	374.49
374.21	543.00
374.40	381.51
374.60	437.68
374.79	435.34
374.99	409.59
375.19	423.64
375.38	418.96
375.58	489.17
375.78	386.19
375.97	404.91
376.17	425.98
376.37	433.00
376.56	456.40
376.76	425.98
376.95	393.21
377.15	397.89
377.35	418.96
377.54	451.72
377.74	430.66
377.93	416.62
378.13	374.49
378.33	397.89
378.52	358.10
378.72	404.91
378.91	407.25
379.11	362.78
379.31	386.19
379.50	379.17
379.70	369.80
379.89	372.15
380.09	397.89
380.28	372.15
380.48	374.49
380.68	346.40
380.87	372.15
381.07	430.66
381.26	418.96
381.46	369.80
381.65	397.89
381.85	435.34
382.04	465.77
382.24	418.96
382.43	374.49
382.63	383.85
382.83	376.83
383.02	388.53
383.22	472.79
383.41	386.19
383.61	411.93
383.80	360.44
384.00	376.83
384.19	355.76
384.39	496.19
384.58	341.72
384.78	344.06
384.97	393.21
385.17	442.36
385.36	433.00
385.56	400.23
385.75	390.87
385.95	383.85
386.14	358.10
386.34	433.00
386.53	388.53
386.72	400.23
386.92	414.27
387.11	423.64
387.31	442.36
387.50	414.27
387.70	362.78
387.89	337.04
388.09	414.27
388.28	425.98
388.48	381.51
388.67	395.55
388.86	400.23
389.06	341.72
389.25	425.98
389.45	346.40
389.64	407.25
389.84	449.38
390.03	437.68
390.22	360.44
390.42	437.68
390.61	397.89
390.81	428.32
391.00	418.96
391.19	454.06
391.39	313.63
391.58	458.74
391.78	351.08
391.97	437.68
392.16	379.17
392.36	482.15
392.55	430.66
392.75	379.17
392.94	358.10
393.13	372.15
393.33	367.46
393.52	463.43
393.71	414.27
393.91	421.30
394.10	367.46
394.29	416.62
394.49	411.93
394.68	409.59
394.88	430.66
395.07	433.00
395.26	409.59
395.46	355.76
395.65	489.17
395.84	437.68
396.04	468.11
396.23	353.42
396.42	435.34
396.62	484.49
396.81	409.59
397.00	416.62
397.19	383.85
397.39	376.83
397.58	458.74
397.77	360.44
397.97	423.64
398.16	372.15
398.35	435.34
398.55	369.80
398.74	395.55
398.93	475.13
399.12	360.44
399.32	425.98
399.51	428.32
399.70	390.87
399.90	362.78
400.09	390.87
400.28	388.53
400.47	472.79
400.67	400.23
400.86	423.64
401.05	463.43
401.24	512.58
401.44	407.25
401.63	425.98
401.82	407.25
402.01	330.02
402.21	379.17
402.40	454.06
402.59	383.85
402.78	339.38
402.97	374.49
403.17	456.40
403.36	409.59
403.55	325.33
403.74	475.13
403.93	475.13
404.13	400.23
404.32	397.89
404.51	348.74
404.70	395.55
404.89	402.57
405.09	421.30
405.28	416.62
405.47	386.19
405.66	449.38
405.85	435.34
406.05	411.93
406.24	454.06
406.43	418.96
406.62	517.26
406.81	454.06
407.00	486.83
407.20	402.57
407.39	393.21
407.58	477.47
407.77	416.62
407.96	409.59
408.15	402.57
408.34	407.25
408.54	421.30
408.73	444.70
408.92	365.12
409.11	463.43
409.30	435.34
409.49	404.91
409.68	418.96
409.87	411.93
410.07	416.62
410.26	437.68
410.45	379.17
410.64	344.06
410.83	414.27
411.02	390.87
411.21	449.38
411.40	386.19
411.59	451.72
411.78	437.68
411.98	411.93
412.17	351.08
412.36	376.83
412.55	386.19
412.74	440.02
412.93	447.04
413.12	418.96
413.31	428.32
413.50	379.17
413.69	379.17
413.88	388.53
414.07	376.83
414.26	430.66
414.45	407.25
414.64	451.72
414.83	369.80
415.02	362.78
415.22	433.00
415.41	369.80
415.60	327.68
415.79	379.17
415.98	409.59
416.17	397.89
416.36	449.38
416.55	346.40
416.74	451.72
416.93	365.12
417.12	402.57
417.31	390.87
417.50	411.93
417.69	433.00
417.88	372.15
418.07	393.21
418.26	444.70
418.45	383.85
418.64	454.06
418.83	451.72
419.02	376.83
419.21	411.93
419.39	442.36
419.58	444.70
419.77	428.32
419.96	444.70
420.15	458.74
420.34	404.91
420.53	421.30
420.72	428.32
420.91	505.56
421.10	423.64
421.29	386.19
421.48	395.55
421.67	458.74
421.86	353.42
422.05	379.17
422.24	374.49
422.43	374.49
422.61	414.27
422.80	402.57
422.99	416.62
423.18	423.64
423.37	362.78
423.56	369.80
423.75	390.87
423.94	379.17
424.13	418.96
424.32	409.59
424.50	313.63
424.69	435.34
424.88	395.55
425.07	383.85
425.26	465.77
425.45	390.87
425.64	348.74
425.83	425.98
426.01	409.59
426.20	440.02
426.39	330.02
426.58	376.83
426.77	456.40
426.96	400.23
427.15	353.42
427.33	444.70
427.52	416.62
427.71	416.62
427.90	383.85
428.09	411.93
428.28	402.57
428.46	440.02
428.65	458.74
428.84	442.36
429.03	433.00
429.22	407.25
429.40	411.93
429.59	454.06
429.78	486.83
429.97	393.21
430.16	421.30
430.34	433.00
430.53	379.17
430.72	411.93
430.91	400.23
431.10	416.62
431.28	472.79
431.47	484.49
431.66	402.57
431.85	414.27
432.03	440.02
432.22	482.15
432.41	414.27
432.60	421.30
432.79	386.19
432.97	407.25
433.16	449.38
433.35	416.62
433.54	409.59
433.72	535.98
433.91	433.00
434.10	360.44
434.28	447.04
434.47	383.85
434.66	437.68
434.85	381.51
435.03	355.76
435.22	449.38
435.41	430.66
435.59	465.77
435.78	411.93
435.97	365.12
436.16	351.08
436.34	447.04
436.53	449.38
436.72	430.66
436.90	461.09
437.09	425.98
437.28	367.46
437.46	390.87
437.65	400.23
437.84	388.53
438.02	435.34
438.21	313.63
438.40	409.59
438.58	346.40
438.77	414.27
438.96	456.40
439.14	358.10
439.33	435.34
439.52	397.89
439.70	411.93
439.89	512.58
440.08	407.25
440.26	404.91
440.45	379.17
440.63	337.04
440.82	407.25
441.01	407.25
441.19	369.80
441.38	430.66
441.57	369.80
441.75	433.00
441.94	449.38
442.12	367.46
442.31	451.72
442.50	400.23
442.68	477.47
442.87	360.44
443.05	454.06
443.24	437.68
443.43	407.25
443.61	393.21
443.80	449.38
443.98	444.70
444.17	362.78
444.35	365.12
444.54	461.09
444.73	433.00
444.91	470.45
445.10	397.89
445.28	379.17
445.47	407.25
445.65	313.63
445.84	472.79
446.02	348.74
446.21	397.89
446.39	433.00
446.58	407.25
446.77	451.72
446.95	376.83
447.14	430.66
447.32	435.34
447.51	475.13
447.69	351.08
447.88	444.70
448.06	395.55
448.25	362.78
448.43	348.74
448.62	381.51
448.80	407.25
448.99	395.55
449.17	376.83
449.36	449.38
449.54	402.57
449.73	386.19
449.91	367.46
450.10	433.00
450.28	444.70
450.46	418.96
450.65	423.64
450.83	372.15
451.02	463.43
451.20	404.91
451.39	346.40
451.57	402.57
451.76	435.34
451.94	404.91
452.13	367.46
452.31	444.70
452.49	418.96
452.68	489.17
452.86	430.66
453.05	444.70
453.23	414.27
453.42	416.62
453.60	379.17
453.78	444.70
453.97	442.36
454.15	383.85
454.34	369.80
454.52	393.21
454.70	376.83
454.89	425.98
455.07	393.21
455.26	430.66
455.44	402.57
455.62	435.34
455.81	423.64
455.99	411.93
456.17	372.15
456.36	365.12
456.54	402.57
456.73	482.15
456.91	451.72
457.09	397.89
457.28	397.89
457.46	400.23
457.64	402.57
457.83	470.45
458.01	388.53
458.19	425.98
458.38	386.19
458.56	388.53
458.74	435.34
458.93	374.49
459.11	409.59
459.29	421.30
459.48	454.06
459.66	433.00
459.84	507.90
460.03	430.66
460.21	365.12
460.39	388.53
460.57	442.36
460.76	407.25
460.94	416.62
461.12	374.49
461.31	482.15
461.49	421.30
461.67	386.19
461.85	404.91
462.04	351.08
462.22	479.81
462.40	383.85
462.59	444.70
462.77	440.02
462.95	402.57
463.13	386.19
463.32	430.66
463.50	428.32
463.68	355.76
463.86	428.32
464.05	479.81
464.23	442.36
464.41	376.83
464.59	388.53
464.78	411.93
464.96	437.68
465.14	479.81
465.32	346.40
465.50	425.98
465.69	407.25
465.87	386.19
466.05	414.27
466.23	393.21
466.41	416.62
466.60	383.85
466.78	367.46
466.96	407.25
467.14	440.02
467.32	388.53
467.51	451.72
467.69	402.57
467.87	538.32
468.05	423.64
468.23	428.32
468.41	430.66
468.60	421.30
468.78	442.36
468.96	463.43
469.14	414.27
469.32	463.43
469.50	409.59
469.69	416.62
469.87	477.47
470.05	418.96
470.23	430.66
470.41	423.64
470.59	339.38
470.77	470.45
470.95	337.04
471.14	421.30
471.32	458.74
471.50	461.09
471.68	395.55
471.86	472.79
472.04	386.19
472.22	402.57
472.40	374.49
472.58	372.15
472.77	374.49
472.95	402.57
473.13	430.66
473.31	447.04
473.49	463.43
473.67	416.62
473.85	402.57
474.03	442.36
474.21	383.85
474.39	461.09
474.57	437.68
474.75	411.93
474.93	428.32
475.12	381.51
475.30	390.87
475.48	454.06
475.66	390.87
475.84	381.51
476.02	369.80
476.20	484.49
476.38	505.56
476.56	468.11
476.74	390.87
476.92	409.59
477.10	472.79
477.28	416.62
477.46	493.85
477.64	395.55
477.82	397.89
478.00	400.23
478.18	449.38
478.36	444.70
478.54	437.68
478.72	449.38
478.90	397.89
479.08	447.04
479.26	407.25
479.44	393.21
479.62	376.83
479.80	463.43
479.98	374.49
480.16	355.76
480.34	383.85
480.52	472.79
480.70	449.38
480.88	376.83
481.06	468.11
481.24	362.78
481.41	395.55
481.59	409.59
481.77	437.68
481.95	437.68
482.13	442.36
482.31	428.32
482.49	433.00
482.67	442.36
482.85	421.30
483.03	449.38
483.21	433.00
483.39	409.59
483.57	395.55
483.74	418.96
483.92	332.36
484.10	330.02
484.28	397.89
484.46	435.34
484.64	416.62
484.82	369.80
485.00	367.46
485.18	395.55
485.35	444.70
485.53	449.38
485.71	486.83
485.89	346.40
486.07	402.57
486.25	423.64
486.43	437.68
486.61	444.70
486.78	355.76
486.96	421.30
487.14	416.62
487.32	402.57
487.50	465.77
487.68	440.02
487.85	369.80
488.03	395.55
488.21	421.30
488.39	390.87
488.57	449.38
488.75	409.59
488.92	540.66
489.10	379.17
489.28	456.40
489.46	383.85
489.64	386.19
489.81	435.34
489.99	369.80
490.17	397.89
490.35	496.19
490.53	454.06
490.70	416.62
490.88	444.70
491.06	470.45
491.24	423.64
491.41	428.32
491.59	367.46
491.77	372.15
491.95	367.46
492.13	390.87
492.30	456.40
492.48	404.91
492.66	395.55
492.84	433.00
493.01	435.34
493.19	395.55
493.37	433.00
493.54	388.53
493.72	404.91
493.90	355.76
494.08	381.51
494.25	393.21
494.43	430.66
494.61	463.43
494.79	346.40
494.96	393.21
495.14	430.66
495.32	369.80
495.49	435.34
495.67	414.27
495.85	381.51
496.02	449.38
496.20	416.62
496.38	428.32
496.55	372.15
496.73	444.70
496.91	348.74
497.09	454.06
497.26	339.38
497.44	428.32
497.62	428.32
497.79	414.27
497.97	435.34
498.14	423.64
498.32	367.46
498.50	348.74
498.67	346.40
498.85	379.17
499.03	428.32
499.20	407.25
499.38	397.89
499.56	402.57
499.73	404.91
499.91	416.62
500.08	402.57
500.26	425.98
500.44	449.38
500.61	440.02
500.79	402.57
500.97	435.34
501.14	498.53
501.32	379.17
501.49	479.81
501.67	341.72
501.84	381.51
502.02	447.04
502.20	435.34
502.37	496.19
502.55	444.70
502.72	447.04
502.90	428.32
503.07	418.96
503.25	437.68
503.43	397.89
503.60	374.49
503.78	442.36
503.95	400.23
504.13	414.27
504.30	400.23
504.48	456.40
504.65	468.11
504.83	465.77
505.01	360.44
505.18	383.85
505.36	416.62
505.53	404.91
505.71	407.25
505.88	418.96
506.06	416.62
506.23	376.83
506.41	395.55
506.58	433.00
506.76	320.65
506.93	388.53
507.11	465.77
507.28	404.91
507.46	379.17
507.63	425.98
507.81	400.23
507.98	367.46
508.16	468.11
508.33	414.27
508.50	418.96
508.68	362.78
508.85	454.06
509.03	376.83
509.20	381.51
509.38	461.09
509.55	463.43
509.73	533.64
509.90	409.59
510.08	458.74
510.25	468.11
510.42	367.46
510.60	411.93
510.77	393.21
510.95	449.38
511.12	376.83
511.30	416.62
511.47	484.49
511.64	425.98
511.82	379.17
511.99	461.09
512.17	440.02
512.34	353.42
512.51	351.08
512.69	334.70
512.86	425.98
513.04	390.87
513.21	383.85
513.38	390.87
513.56	414.27
513.73	456.40
513.90	433.00
514.08	475.13
514.25	451.72
514.43	390.87
514.60	456.40
514.77	421.30
514.95	461.09
515.12	395.55
515.29	367.46
515.47	437.68
515.64	451.72
515.81	428.32
515.99	381.51
516.16	442.36
516.33	463.43
516.51	461.09
516.68	353.42
516.85	425.98
517.03	454.06
517.20	423.64
517.37	468.11
517.54	407.25
517.72	411.93
517.89	386.19
518.06	437.68
518.24	543.00
518.41	381.51
518.58	449.38
518.75	341.72
518.93	409.59
519.10	435.34
519.27	388.53
519.45	461.09
519.62	388.53
519.79	435.34
519.96	447.04
520.14	386.19
520.31	428.32
520.48	444.70
520.65	393.21
520.83	379.17
521.00	472.79
521.17	430.66
521.34	344.06
521.52	425.98
521.69	381.51
521.86	383.85
522.03	421.30
522.20	435.34
522.38	440.02
522.55	447.04
522.72	400.23
522.89	470.45
523.07	390.87
523.24	472.79
523.41	430.66
523.58	430.66
523.75	435.34
523.92	407.25
524.10	425.98
524.27	301.93
524.44	379.17
524.61	367.46
524.78	414.27
524.96	550.03
525.13	407.25
525.30	456.40
525.47	461.09
525.64	416.62
525.81	409.59
525.98	503.22
526.16	376.83
526.33	409.59
526.50	388.53
526.67	381.51
526.84	449.38
527.01	400.23
527.18	491.51
527.36	358.10
527.53	400.23
527.70	386.19
527.87	400.23
528.04	472.79
528.21	430.66
528.38	454.06
528.55	435.34
528.72	461.09
528.89	503.22
529.07	411.93
529.24	421.30
529.41	491.51
529.58	358.10
529.75	379.17
529.92	379.17
530.09	407.25
530.26	428.32
530.43	451.72
530.60	440.02
530.77	463.43
530.94	381.51
531.11	437.68
531.28	423.64
531.46	383.85
531.63	404.91
531.80	442.36
531.97	318.31
532.14	379.17
532.31	414.27
532.48	451.72
532.65	458.74
532.82	447.04
532.99	407.25
533.16	484.49
533.33	444.70
533.50	423.64
533.67	435.34
533.84	393.21
534.01	351.08
534.18	433.00
534.35	414.27
534.52	435.34
534.69	451.72
534.86	393.21
535.03	463.43
535.20	404.91
535.37	379.17
535.54	393.21
535.71	411.93
535.88	386.19
536.05	442.36
536.22	404.91
536.38	458.74
536.55	418.96
536.72	456.40
536.89	404.91
537.06	330.02
537.23	362.78
537.40	440.02
537.57	390.87
537.74	528.96
537.91	451.72
538.08	421.30
538.25	379.17
538.42	374.49
538.59	449.38
538.75	360.44
538.92	381.51
539.09	433.00
539.26	376.83
539.43	461.09
539.60	416.62
539.77	435.34
539.94	430.66
540.11	451.72
540.28	447.04
540.44	414.27
540.61	461.09
540.78	379.17
540.95	367.46
541.12	489.17
541.29	491.51
541.46	472.79
541.62	381.51
541.79	397.89
541.96	402.57
542.13	461.09
542.30	416.62
542.47	440.02
542.63	402.57
542.80	362.78
542.97	437.68
543.14	479.81
543.31	416.62
543.48	468.11
543.64	461.09
543.81	344.06
543.98	365.12
544.15	449.38
544.32	430.66
544.48	507.90
544.65	437.68
544.82	395.55
544.99	397.89
545.16	470.45
545.32	486.83
545.49	369.80
545.66	407.25
545.83	369.80
546.00	421.30
546.16	444.70
546.33	416.62
546.50	440.02
546.67	428.32
546.83	444.70
547.00	383.85
547.17	440.02
547.34	414.27
547.50	383.85
547.67	440.02
547.84	379.17
548.00	409.59
548.17	444.70
548.34	477.47
548.51	451.72
548.67	433.00
548.84	423.64
549.01	442.36
549.18	465.77
549.34	358.10
549.51	447.04
549.68	374.49
549.84	381.51
550.01	416.62
550.18	425.98
550.34	449.38
550.51	451.72
550.68	510.24
550.84	367.46
551.01	437.68
551.18	397.89
551.34	423.64
551.51	346.40
551.68	468.11
551.84	510.24
552.01	442.36
552.18	390.87
552.34	447.04
552.51	428.32
552.68	472.79
552.84	388.53
553.01	482.15
553.18	411.93
553.34	407.25
553.51	393.21
553.67	433.00
553.84	400.23
554.01	479.81
554.17	454.06
554.34	400.23
554.51	416.62
554.67	440.02
554.84	451.72
555.00	404.91
555.17	503.22
555.33	512.58
555.50	416.62
555.67	486.83
555.83	454.06
556.00	433.00
556.16	538.32
556.33	423.64
556.50	447.04
556.66	433.00
556.83	404.91
556.99	421.30
557.16	414.27
557.32	442.36
557.49	400.23
557.65	404.91
557.82	414.27
557.98	493.85
558.15	444.70
558.32	472.79
558.48	395.55
558.65	423.64
558.81	461.09
558.98	454.06
559.14	456.40
559.31	388.53
559.47	451.72
559.64	402.57
559.80	393.21
559.97	428.32
560.13	475.13
560.30	365.12
560.46	358.10
560.63	430.66
560.79	374.49
560.96	430.66
561.12	353.42
561.29	388.53
561.45	465.77
561.61	379.17
561.78	531.30
561.94	491.51
562.11	470.45
562.27	425.98
562.44	407.25
562.60	388.53
562.77	355.76
562.93	456.40
563.10	411.93
563.26	372.15
563.42	390.87
563.59	491.51
563.75	400.23
563.92	505.56
564.08	444.70
564.24	390.87
564.41	444.70
564.57	397.89
564.74	416.62
564.90	386.19
565.07	489.17
565.23	468.11
565.39	470.45
565.56	465.77
565.72	440.02
565.88	390.87
566.05	372.15
566.21	449.38
566.38	421.30
566.54	437.68
566.70	470.45
566.87	390.87
567.03	421.30
567.19	435.34
567.36	414.27
567.52	442.36
567.68	428.32
567.85	468.11
568.01	397.89
568.17	404.91
568.34	386.19
568.50	386.19
568.66	376.83
568.83	472.79
568.99	425.98
569.15	409.59
569.32	397.89
569.48	444.70
569.64	360.44
569.81	430.66
569.97	449.38
570.13	543.00
570.30	395.55
570.46	341.72
570.62	383.85
570.78	444.70
570.95	414.27
571.11	428.32
571.27	393.21
571.43	421.30
571.60	395.55
571.76	449.38
571.92	379.17
572.09	421.30
572.25	372.15
572.41	437.68
572.57	447.04
572.74	463.43
572.90	372.15
573.06	367.46
573.22	472.79
573.38	437.68
573.55	468.11
573.71	433.00
573.87	484.49
574.03	383.85
574.20	386.19
574.36	437.68
574.52	430.66
574.68	447.04
574.84	447.04
575.01	390.87
575.17	425.98
575.33	475.13
575.49	461.09
575.65	416.62
575.82	437.68
575.98	409.59
576.14	416.62
576.30	404.91
576.46	339.38
576.62	411.93
576.79	486.83
576.95	437.68
577.11	454.06
577.27	407.25
577.43	491.51
577.59	444.70
577.75	425.98
577.92	416.62
578.08	390.87
578.24	470.45
578.40	344.06
578.56	498.53
578.72	479.81
578.88	454.06
579.04	376.83
579.21	440.02
579.37	489.17
579.53	449.38
579.69	442.36
579.85	404.91
580.01	451.72
580.17	409.59
580.33	358.10
580.49	458.74
580.65	358.10
580.82	381.51
580.98	454.06
581.14	386.19
581.30	472.79
581.46	433.00
581.62	430.66
581.78	374.49
581.94	442.36
582.10	365.12
582.26	407.25
582.42	411.93
582.58	440.02
582.74	440.02
582.90	409.59
583.06	500.87
583.22	367.46
583.38	332.36
583.54	447.04
583.70	418.96
583.86	390.87
584.02	458.74
584.18	390.87
584.34	449.38
584.50	411.93
584.66	355.76
584.82	407.25
584.98	383.85
585.14	421.30
585.30	433.00
585.46	423.64
585.62	416.62
585.78	456.40
585.94	430.66
586.10	397.89
586.26	341.72
586.42	428.32
586.58	442.36
586.74	472.79
586.90	421.30
587.06	456.40
587.22	411.93
587.38	409.59
587.54	400.23
587.70	418.96
587.86	397.89
588.02	404.91
588.18	383.85
588.34	330.02
588.49	358.10
588.65	402.57
588.81	472.79
588.97	435.34
589.13	421.30
589.29	482.15
589.45	414.27
589.61	423.64
589.77	369.80
589.93	407.25
590.08	395.55
590.24	409.59
590.40	435.34
590.56	388.53
590.72	477.47
590.88	409.59
591.04	374.49
591.20	468.11
591.35	411.93
591.51	379.17
591.67	416.62
591.83	351.08
591.99	428.32
592.15	477.47
592.31	470.45
592.46	451.72
592.62	449.38
592.78	388.53
592.94	348.74
593.10	346.40
593.26	395.55
593.41	479.81
593.57	367.46
593.73	367.46
593.89	482.15
594.05	454.06
594.20	407.25
594.36	407.25
594.52	449.38
594.68	386.19
594.84	407.25
594.99	425.98
595.15	435.34
595.31	435.34
595.47	430.66
595.62	418.96
595.78	418.96
595.94	400.23
596.10	451.72
596.25	437.68
596.41	393.21
596.57	428.32
596.73	421.30
596.88	395.55
597.04	414.27
597.20	416.62
597.36	430.66
597.51	421.30
597.67	428.32
597.83	444.70
597.99	411.93
598.14	362.78
598.30	430.66
598.46	411.93
598.61	404.91
598.77	388.53
598.93	442.36
599.09	344.06
599.24	355.76
599.40	425.98
599.56	379.17
599.71	444.70
599.87	423.64
600.03	435.34
600.18	397.89
600.34	402.57
600.50	393.21
600.65	407.25
600.81	416.62
600.97	379.17
601.12	425.98
601.28	376.83
601.44	423.64
601.59	397.89
601.75	388.53
601.91	388.53
602.06	423.64
602.22	552.37
602.37	407.25
602.53	379.17
602.69	397.89
602.84	486.83
603.00	430.66
603.16	404.91
603.31	451.72
603.47	435.34
603.62	395.55
603.78	423.64
603.94	423.64
604.09	435.34
604.25	430.66
604.40	465.77
604.56	449.38
604.71	444.70
604.87	454.06
605.03	344.06
605.18	418.96
605.34	400.23
605.49	397.89
605.65	404.91
605.80	397.89
605.96	456.40
606.12	489.17
606.27	475.13
606.43	451.72
606.58	428.32
606.74	383.85
606.89	425.98
607.05	423.64
607.20	447.04
607.36	454.06
607.51	442.36
607.67	482.15
607.82	367.46
607.98	433.00
608.13	552.37
608.29	447.04
608.44	416.62
608.60	372.15
608.75	365.12
608.91	456.40
609.06	440.02
609.22	456.40
609.37	409.59
609.53	449.38
609.68	367.46
609.84	423.64
609.99	358.10
610.15	372.15
