SpectraSuite Data File
++++++++++++++++++++++++++++++++++++
Date: Fri Oct 25 12:11:39 EDT 2013
User: price-jones
Dark Spectrum Present: No
Reference Spectrum Present: No
Number of Sampled Component Spectra: 1
Spectrometers: USB2+H05261
Integration Time (usec): 100000 (USB2+H05261)
Spectra Averaged: 1 (USB2+H05261)
Boxcar Smoothing: 0 (USB2+H05261)
Correct for Electrical Dark: No (USB2+H05261)
Strobe/Lamp Enabled: No (USB2+H05261)
Correct for Detector Non-linearity: No (USB2+H05261)
Correct for Stray Light: No (USB2+H05261)
Number of Pixels in Processed Spectrum: 2048
>>>>>Begin Processed Spectral Data<<<<<
365.73	337.04
365.92	337.04
366.12	337.04
366.32	299.59
366.52	208.31
366.72	294.91
366.91	243.42
367.11	290.23
367.31	255.12
367.51	264.48
367.70	198.95
367.90	283.20
368.10	231.71
368.30	315.97
368.49	322.99
368.69	301.93
368.89	198.95
369.09	252.78
369.28	262.14
369.48	245.76
369.68	278.52
369.87	283.20
370.07	320.65
370.27	308.95
370.47	315.97
370.66	351.08
370.86	339.38
371.06	416.62
371.25	428.32
371.45	372.15
371.65	421.30
371.84	344.06
372.04	320.65
372.24	390.87
372.44	360.44
372.63	425.98
372.83	367.46
373.03	444.70
373.22	390.87
373.42	423.64
373.62	414.27
373.81	472.79
374.01	390.87
374.21	421.30
374.40	337.04
374.60	395.55
374.79	409.59
374.99	383.85
375.19	400.23
375.38	416.62
375.58	397.89
375.78	449.38
375.97	320.65
376.17	444.70
376.37	440.02
376.56	433.00
376.76	397.89
376.95	409.59
377.15	482.15
377.35	416.62
377.54	379.17
377.74	367.46
377.93	437.68
378.13	379.17
378.33	425.98
378.52	400.23
378.72	505.56
378.91	332.36
379.11	348.74
379.31	407.25
379.50	369.80
379.70	404.91
379.89	360.44
380.09	337.04
380.28	376.83
380.48	404.91
380.68	418.96
380.87	362.78
381.07	393.21
381.26	360.44
381.46	484.49
381.65	404.91
381.85	461.09
382.04	454.06
382.24	367.46
382.43	404.91
382.63	425.98
382.83	351.08
383.02	444.70
383.22	423.64
383.41	379.17
383.61	351.08
383.80	444.70
384.00	409.59
384.19	351.08
384.39	395.55
384.58	447.04
384.78	512.58
384.97	440.02
385.17	465.77
385.36	404.91
385.56	358.10
385.75	444.70
385.95	423.64
386.14	416.62
386.34	414.27
386.53	418.96
386.72	454.06
386.92	463.43
387.11	433.00
387.31	383.85
387.50	428.32
387.70	308.95
387.89	374.49
388.09	386.19
388.28	365.12
388.48	433.00
388.67	442.36
388.86	379.17
389.06	437.68
389.25	440.02
389.45	421.30
389.64	414.27
389.84	367.46
390.03	325.33
390.22	330.02
390.42	428.32
390.61	318.31
390.81	404.91
391.00	376.83
391.19	386.19
391.39	409.59
391.58	425.98
391.78	407.25
391.97	388.53
392.16	379.17
392.36	402.57
392.55	447.04
392.75	414.27
392.94	397.89
393.13	510.24
393.33	442.36
393.52	365.12
393.71	437.68
393.91	372.15
394.10	482.15
394.29	414.27
394.49	320.65
394.68	334.70
394.88	393.21
395.07	397.89
395.26	393.21
395.46	437.68
395.65	447.04
395.84	479.81
396.04	470.45
396.23	442.36
396.42	381.51
396.62	425.98
396.81	402.57
397.00	465.77
397.19	461.09
397.39	416.62
397.58	369.80
397.77	425.98
397.97	430.66
398.16	409.59
398.35	400.23
398.55	379.17
398.74	449.38
398.93	444.70
399.12	383.85
399.32	416.62
399.51	341.72
399.70	435.34
399.90	390.87
400.09	337.04
400.28	390.87
400.47	437.68
400.67	400.23
400.86	388.53
401.05	451.72
401.24	390.87
401.44	383.85
401.63	386.19
401.82	341.72
402.01	355.76
402.21	360.44
402.40	418.96
402.59	472.79
402.78	418.96
402.97	428.32
403.17	444.70
403.36	416.62
403.55	325.33
403.74	372.15
403.93	400.23
404.13	418.96
404.32	435.34
404.51	407.25
404.70	475.13
404.89	360.44
405.09	428.32
405.28	414.27
405.47	447.04
405.66	409.59
405.85	404.91
406.05	442.36
406.24	339.38
406.43	428.32
406.62	381.51
406.81	400.23
407.00	437.68
407.20	400.23
407.39	418.96
407.58	402.57
407.77	409.59
407.96	447.04
408.15	395.55
408.34	390.87
408.54	372.15
408.73	404.91
408.92	351.08
409.11	360.44
409.30	353.42
409.49	360.44
409.68	404.91
409.87	367.46
410.07	437.68
410.26	418.96
410.45	388.53
410.64	379.17
410.83	372.15
411.02	435.34
411.21	517.26
411.40	407.25
411.59	454.06
411.78	444.70
411.98	367.46
412.17	330.02
412.36	393.21
412.55	423.64
412.74	369.80
412.93	463.43
413.12	376.83
413.31	367.46
413.50	374.49
413.69	414.27
413.88	416.62
414.07	414.27
414.26	407.25
414.45	400.23
414.64	409.59
414.83	372.15
415.02	360.44
415.22	411.93
415.41	425.98
415.60	440.02
415.79	430.66
415.98	472.79
416.17	353.42
416.36	362.78
416.55	402.57
416.74	400.23
416.93	367.46
417.12	334.70
417.31	367.46
417.50	418.96
417.69	437.68
417.88	524.28
418.07	397.89
418.26	414.27
418.45	402.57
418.64	409.59
418.83	402.57
419.02	400.23
419.21	379.17
419.39	393.21
419.58	388.53
419.77	372.15
419.96	437.68
420.15	430.66
420.34	465.77
420.53	456.40
420.72	418.96
420.91	337.04
421.10	393.21
421.29	470.45
421.48	475.13
421.67	500.87
421.86	468.11
422.05	402.57
422.24	353.42
422.43	374.49
422.61	393.21
422.80	414.27
422.99	374.49
423.18	330.02
423.37	468.11
423.56	379.17
423.75	458.74
423.94	341.72
424.13	297.25
424.32	397.89
424.50	407.25
424.69	496.19
424.88	461.09
425.07	379.17
425.26	416.62
425.45	393.21
425.64	383.85
425.83	451.72
426.01	498.53
426.20	423.64
426.39	397.89
426.58	425.98
426.77	369.80
426.96	407.25
427.15	414.27
427.33	355.76
427.52	407.25
427.71	414.27
427.90	409.59
428.09	440.02
428.28	397.89
428.46	383.85
428.65	390.87
428.84	395.55
429.03	409.59
429.22	433.00
429.40	421.30
429.59	376.83
429.78	468.11
429.97	475.13
430.16	393.21
430.34	454.06
430.53	409.59
430.72	409.59
430.91	451.72
431.10	440.02
431.28	355.76
431.47	421.30
431.66	458.74
431.85	409.59
432.03	383.85
432.22	395.55
432.41	369.80
432.60	376.83
432.79	395.55
432.97	393.21
433.16	390.87
433.35	395.55
433.54	397.89
433.72	433.00
433.91	393.21
434.10	395.55
434.28	423.64
434.47	428.32
434.66	400.23
434.85	442.36
435.03	416.62
435.22	437.68
435.41	383.85
435.59	447.04
435.78	414.27
435.97	433.00
436.16	376.83
436.34	393.21
436.53	433.00
436.72	479.81
436.90	456.40
437.09	365.12
437.28	393.21
437.46	376.83
437.65	372.15
437.84	470.45
438.02	437.68
438.21	395.55
438.40	430.66
438.58	365.12
438.77	463.43
438.96	433.00
439.14	369.80
439.33	444.70
439.52	297.25
439.70	330.02
439.89	463.43
440.08	442.36
440.26	423.64
440.45	423.64
440.63	489.17
440.82	369.80
441.01	430.66
441.19	372.15
441.38	353.42
441.57	393.21
441.75	484.49
441.94	425.98
442.12	379.17
442.31	402.57
442.50	388.53
442.68	362.78
442.87	388.53
443.05	344.06
443.24	381.51
443.43	372.15
443.61	407.25
443.80	372.15
443.98	367.46
444.17	463.43
444.35	433.00
444.54	470.45
444.73	407.25
444.91	409.59
445.10	381.51
445.28	454.06
445.47	418.96
445.65	435.34
445.84	437.68
446.02	383.85
446.21	407.25
446.39	442.36
446.58	437.68
446.77	395.55
446.95	411.93
447.14	339.38
447.32	367.46
447.51	435.34
447.69	409.59
447.88	475.13
448.06	468.11
448.25	430.66
448.43	402.57
448.62	400.23
448.80	414.27
448.99	407.25
449.17	386.19
449.36	421.30
449.54	416.62
449.73	365.12
449.91	374.49
450.10	435.34
450.28	458.74
450.46	414.27
450.65	498.53
450.83	416.62
451.02	374.49
451.20	433.00
451.39	418.96
451.57	360.44
451.76	411.93
451.94	447.04
452.13	353.42
452.31	463.43
452.49	365.12
452.68	381.51
452.86	404.91
453.05	461.09
453.23	416.62
453.42	346.40
453.60	425.98
453.78	362.78
453.97	355.76
454.15	332.36
454.34	365.12
454.52	407.25
454.70	421.30
454.89	402.57
455.07	372.15
455.26	360.44
455.44	442.36
455.62	430.66
455.81	404.91
455.99	407.25
456.17	374.49
456.36	381.51
456.54	374.49
456.73	418.96
456.91	475.13
457.09	477.47
457.28	374.49
457.46	358.10
457.64	411.93
457.83	407.25
458.01	416.62
458.19	437.68
458.38	400.23
458.56	400.23
458.74	339.38
458.93	407.25
459.11	409.59
459.29	463.43
459.48	449.38
459.66	437.68
459.84	430.66
460.03	456.40
460.21	444.70
460.39	461.09
460.57	362.78
460.76	437.68
460.94	428.32
461.12	418.96
461.31	489.17
461.49	337.04
461.67	435.34
461.85	454.06
462.04	428.32
462.22	784.08
462.40	386.19
462.59	447.04
462.77	468.11
462.95	414.27
463.13	428.32
463.32	428.32
463.50	397.89
463.68	428.32
463.86	428.32
464.05	383.85
464.23	470.45
464.41	484.49
464.59	435.34
464.78	362.78
464.96	418.96
465.14	369.80
465.32	402.57
465.50	425.98
465.69	414.27
465.87	411.93
466.05	367.46
466.23	437.68
466.41	409.59
466.60	383.85
466.78	358.10
466.96	472.79
467.14	402.57
467.32	463.43
467.51	355.76
467.69	447.04
467.87	365.12
468.05	376.83
468.23	447.04
468.41	454.06
468.60	442.36
468.78	416.62
468.96	418.96
469.14	402.57
469.32	400.23
469.50	435.34
469.69	423.64
469.87	423.64
470.05	409.59
470.23	454.06
470.41	458.74
470.59	456.40
470.77	447.04
470.95	372.15
471.14	393.21
471.32	367.46
471.50	507.90
471.68	447.04
471.86	435.34
472.04	437.68
472.22	376.83
472.40	414.27
472.58	433.00
472.77	334.70
472.95	414.27
473.13	416.62
473.31	393.21
473.49	397.89
473.67	416.62
473.85	411.93
474.03	421.30
474.21	402.57
474.39	414.27
474.57	433.00
474.75	463.43
474.93	421.30
475.12	390.87
475.30	421.30
475.48	395.55
475.66	451.72
475.84	435.34
476.02	383.85
476.20	449.38
476.38	393.21
476.56	440.02
476.74	388.53
476.92	435.34
477.10	454.06
477.28	425.98
477.46	390.87
477.64	386.19
477.82	491.51
478.00	372.15
478.18	367.46
478.36	416.62
478.54	381.51
478.72	472.79
478.90	369.80
479.08	409.59
479.26	383.85
479.44	400.23
479.62	475.13
479.80	409.59
479.98	390.87
480.16	400.23
480.34	381.51
480.52	404.91
480.70	421.30
480.88	351.08
481.06	369.80
481.24	418.96
481.41	395.55
481.59	477.47
481.77	418.96
481.95	402.57
482.13	423.64
482.31	376.83
482.49	458.74
482.67	332.36
482.85	390.87
483.03	402.57
483.21	458.74
483.39	372.15
483.57	451.72
483.74	437.68
483.92	428.32
484.10	433.00
484.28	416.62
484.46	454.06
484.64	383.85
484.82	475.13
485.00	397.89
485.18	308.95
485.35	423.64
485.53	397.89
485.71	414.27
485.89	369.80
486.07	442.36
486.25	393.21
486.43	416.62
486.61	430.66
486.78	369.80
486.96	414.27
487.14	433.00
487.32	365.12
487.50	421.30
487.68	430.66
487.85	442.36
488.03	503.22
488.21	400.23
488.39	397.89
488.57	374.49
488.75	421.30
488.92	472.79
489.10	458.74
489.28	486.83
489.46	433.00
489.64	449.38
489.81	433.00
489.99	411.93
490.17	404.91
490.35	440.02
490.53	430.66
490.70	346.40
490.88	440.02
491.06	358.10
491.24	428.32
491.41	463.43
491.59	444.70
491.77	400.23
491.95	365.12
492.13	383.85
492.30	425.98
492.48	395.55
492.66	379.17
492.84	376.83
493.01	400.23
493.19	423.64
493.37	514.92
493.54	491.51
493.72	482.15
493.90	397.89
494.08	360.44
494.25	379.17
494.43	409.59
494.61	404.91
494.79	383.85
494.96	435.34
495.14	514.92
495.32	369.80
495.49	404.91
495.67	369.80
495.85	465.77
496.02	430.66
496.20	411.93
496.38	442.36
496.55	400.23
496.73	411.93
496.91	404.91
497.09	374.49
497.26	411.93
497.44	355.76
497.62	456.40
497.79	449.38
497.97	395.55
498.14	451.72
498.32	430.66
498.50	475.13
498.67	458.74
498.85	355.76
499.03	388.53
499.20	461.09
499.38	367.46
499.56	383.85
499.73	491.51
499.91	470.45
500.08	393.21
500.26	358.10
500.44	386.19
500.61	388.53
500.79	428.32
500.97	435.34
501.14	418.96
501.32	346.40
501.49	435.34
501.67	442.36
501.84	437.68
502.02	404.91
502.20	433.00
502.37	447.04
502.55	440.02
502.72	379.17
502.90	379.17
503.07	414.27
503.25	447.04
503.43	437.68
503.60	433.00
503.78	365.12
503.95	390.87
504.13	395.55
504.30	418.96
504.48	334.70
504.65	496.19
504.83	454.06
505.01	351.08
505.18	449.38
505.36	444.70
505.53	390.87
505.71	308.95
505.88	386.19
506.06	442.36
506.23	435.34
506.41	404.91
506.58	437.68
506.76	470.45
506.93	388.53
507.11	421.30
507.28	404.91
507.46	449.38
507.63	416.62
507.81	301.93
507.98	418.96
508.16	414.27
508.33	393.21
508.50	409.59
508.68	444.70
508.85	414.27
509.03	444.70
509.20	393.21
509.38	423.64
509.55	407.25
509.73	430.66
509.90	372.15
510.08	407.25
510.25	433.00
510.42	369.80
510.60	407.25
510.77	360.44
510.95	411.93
511.12	461.09
511.30	411.93
511.47	362.78
511.64	351.08
511.82	318.31
511.99	425.98
512.17	444.70
512.34	386.19
512.51	407.25
512.69	430.66
512.86	390.87
513.04	381.51
513.21	458.74
513.38	475.13
513.56	388.53
513.73	465.77
513.90	379.17
514.08	360.44
514.25	442.36
514.43	416.62
514.60	320.65
514.77	397.89
514.95	390.87
515.12	318.31
515.29	360.44
515.47	365.12
515.64	414.27
515.81	386.19
515.99	475.13
516.16	435.34
516.33	449.38
516.51	404.91
516.68	435.34
516.85	400.23
517.03	393.21
517.20	449.38
517.37	430.66
517.54	339.38
517.72	379.17
517.89	407.25
518.06	435.34
518.24	395.55
518.41	416.62
518.58	454.06
518.75	416.62
518.93	430.66
519.10	425.98
519.27	423.64
519.45	461.09
519.62	437.68
519.79	421.30
519.96	351.08
520.14	402.57
520.31	477.47
520.48	440.02
520.65	440.02
520.83	367.46
521.00	437.68
521.17	388.53
521.34	433.00
521.52	393.21
521.69	475.13
521.86	325.33
522.03	390.87
522.20	451.72
522.38	451.72
522.55	440.02
522.72	456.40
522.89	437.68
523.07	451.72
523.24	337.04
523.41	440.02
523.58	365.12
523.75	435.34
523.92	411.93
524.10	475.13
524.27	402.57
524.44	416.62
524.61	444.70
524.78	428.32
524.96	465.77
525.13	461.09
525.30	397.89
525.47	414.27
525.64	409.59
525.81	489.17
525.98	423.64
526.16	393.21
526.33	465.77
526.50	477.47
526.67	365.12
526.84	418.96
527.01	484.49
527.18	414.27
527.36	330.02
527.53	395.55
527.70	416.62
527.87	358.10
528.04	444.70
528.21	402.57
528.38	397.89
528.55	369.80
528.72	425.98
528.89	461.09
529.07	461.09
529.24	411.93
529.41	503.22
529.58	430.66
529.75	395.55
529.92	369.80
530.09	463.43
530.26	386.19
530.43	379.17
530.60	451.72
530.77	428.32
530.94	393.21
531.11	416.62
531.28	393.21
531.46	407.25
531.63	369.80
531.80	428.32
531.97	449.38
532.14	425.98
532.31	418.96
532.48	472.79
532.65	351.08
532.82	442.36
532.99	451.72
533.16	360.44
533.33	397.89
533.50	449.38
533.67	376.83
533.84	444.70
534.01	484.49
534.18	365.12
534.35	440.02
534.52	353.42
534.69	470.45
534.86	416.62
535.03	393.21
535.20	472.79
535.37	493.85
535.54	444.70
535.71	440.02
535.88	416.62
536.05	376.83
536.22	358.10
536.38	416.62
536.55	425.98
536.72	440.02
536.89	379.17
537.06	444.70
537.23	423.64
537.40	393.21
537.57	400.23
537.74	482.15
537.91	411.93
538.08	374.49
538.25	482.15
538.42	339.38
538.59	355.76
538.75	414.27
538.92	414.27
539.09	421.30
539.26	437.68
539.43	346.40
539.60	374.49
539.77	425.98
539.94	470.45
540.11	451.72
540.28	433.00
540.44	465.77
540.61	383.85
540.78	418.96
540.95	418.96
541.12	465.77
541.29	423.64
541.46	444.70
541.62	437.68
541.79	411.93
541.96	379.17
542.13	393.21
542.30	428.32
542.47	407.25
542.63	447.04
542.80	482.15
542.97	397.89
543.14	442.36
543.31	477.47
543.48	472.79
543.64	435.34
543.81	374.49
543.98	411.93
544.15	411.93
544.32	442.36
544.48	379.17
544.65	409.59
544.82	379.17
544.99	381.51
545.16	416.62
545.32	351.08
545.49	456.40
545.66	402.57
545.83	409.59
546.00	383.85
546.16	411.93
546.33	381.51
546.50	376.83
546.67	425.98
546.83	442.36
547.00	390.87
547.17	341.72
547.34	458.74
547.50	470.45
547.67	360.44
547.84	395.55
548.00	407.25
548.17	437.68
548.34	454.06
548.51	402.57
548.67	449.38
548.84	440.02
549.01	386.19
549.18	433.00
549.34	465.77
549.51	454.06
549.68	482.15
549.84	451.72
550.01	418.96
550.18	423.64
550.34	486.83
550.51	444.70
550.68	505.56
550.84	372.15
551.01	451.72
551.18	454.06
551.34	414.27
551.51	423.64
551.68	444.70
551.84	510.24
552.01	348.74
552.18	437.68
552.34	414.27
552.51	390.87
552.68	425.98
552.84	468.11
553.01	435.34
553.18	458.74
553.34	447.04
553.51	358.10
553.67	454.06
553.84	463.43
554.01	409.59
554.17	397.89
554.34	376.83
554.51	472.79
554.67	505.56
554.84	433.00
555.00	470.45
555.17	414.27
555.33	447.04
555.50	409.59
555.67	395.55
555.83	430.66
556.00	407.25
556.16	517.26
556.33	440.02
556.50	463.43
556.66	418.96
556.83	428.32
556.99	416.62
557.16	376.83
557.32	386.19
557.49	458.74
557.65	451.72
557.82	386.19
557.98	416.62
558.15	442.36
558.32	365.12
558.48	449.38
558.65	395.55
558.81	367.46
558.98	362.78
559.14	276.18
559.31	418.96
559.47	447.04
559.64	381.51
559.80	374.49
559.97	430.66
560.13	444.70
560.30	447.04
560.46	465.77
560.63	437.68
560.79	386.19
560.96	479.81
561.12	362.78
561.29	423.64
561.45	369.80
561.61	407.25
561.78	496.19
561.94	458.74
562.11	451.72
562.27	425.98
562.44	458.74
562.60	435.34
562.77	435.34
562.93	479.81
563.10	437.68
563.26	409.59
563.42	482.15
563.59	435.34
563.75	411.93
563.92	503.22
564.08	386.19
564.24	421.30
564.41	437.68
564.57	451.72
564.74	451.72
564.90	376.83
565.07	440.02
565.23	409.59
565.39	433.00
565.56	433.00
565.72	447.04
565.88	400.23
566.05	388.53
566.21	400.23
566.38	437.68
566.54	411.93
566.70	425.98
566.87	440.02
567.03	381.51
567.19	465.77
567.36	430.66
567.52	383.85
567.68	486.83
567.85	393.21
568.01	416.62
568.17	334.70
568.34	395.55
568.50	454.06
568.66	402.57
568.83	470.45
568.99	430.66
569.15	461.09
569.32	507.90
569.48	423.64
569.64	367.46
569.81	442.36
569.97	367.46
570.13	442.36
570.30	362.78
570.46	395.55
570.62	330.02
570.78	454.06
570.95	407.25
571.11	479.81
571.27	451.72
571.43	461.09
571.60	440.02
571.76	402.57
571.92	444.70
572.09	388.53
572.25	444.70
572.41	367.46
572.57	489.17
572.74	416.62
572.90	440.02
573.06	372.15
573.22	393.21
573.38	454.06
573.55	437.68
573.71	444.70
573.87	421.30
574.03	421.30
574.20	402.57
574.36	414.27
574.52	404.91
574.68	428.32
574.84	404.91
575.01	477.47
575.17	388.53
575.33	411.93
575.49	449.38
575.65	393.21
575.82	411.93
575.98	451.72
576.14	362.78
576.30	386.19
576.46	451.72
576.62	454.06
576.79	416.62
576.95	395.55
577.11	388.53
577.27	404.91
577.43	451.72
577.59	402.57
577.75	379.17
577.92	449.38
578.08	397.89
578.24	367.46
578.40	472.79
578.56	447.04
578.72	451.72
578.88	454.06
579.04	379.17
579.21	379.17
579.37	374.49
579.53	444.70
579.69	489.17
579.85	362.78
580.01	454.06
580.17	430.66
580.33	416.62
580.49	397.89
580.65	447.04
580.82	470.45
580.98	442.36
581.14	437.68
581.30	393.21
581.46	449.38
581.62	390.87
581.78	376.83
581.94	407.25
582.10	367.46
582.26	428.32
582.42	402.57
582.58	404.91
582.74	463.43
582.90	437.68
583.06	491.51
583.22	470.45
583.38	374.49
583.54	449.38
583.70	449.38
583.86	428.32
584.02	404.91
584.18	414.27
584.34	379.17
584.50	367.46
584.66	395.55
584.82	400.23
584.98	423.64
585.14	461.09
585.30	409.59
585.46	423.64
585.62	386.19
585.78	442.36
585.94	496.19
586.10	447.04
586.26	425.98
586.42	423.64
586.58	362.78
586.74	435.34
586.90	374.49
587.06	465.77
587.22	390.87
587.38	416.62
587.54	367.46
587.70	437.68
587.86	463.43
588.02	430.66
588.18	407.25
588.34	411.93
588.49	386.19
588.65	437.68
588.81	400.23
588.97	400.23
589.13	386.19
589.29	383.85
589.45	477.47
589.61	423.64
589.77	458.74
589.93	337.04
590.08	393.21
590.24	393.21
590.40	479.81
590.56	402.57
590.72	486.83
590.88	390.87
591.04	423.64
591.20	433.00
591.35	425.98
591.51	390.87
591.67	416.62
591.83	447.04
591.99	428.32
592.15	435.34
592.31	442.36
592.46	433.00
592.62	468.11
592.78	397.89
592.94	400.23
593.10	435.34
593.26	393.21
593.41	407.25
593.57	430.66
593.73	351.08
593.89	477.47
594.05	348.74
594.20	358.10
594.36	440.02
594.52	379.17
594.68	404.91
594.84	433.00
594.99	386.19
595.15	381.51
595.31	442.36
595.47	433.00
595.62	390.87
595.78	440.02
595.94	381.51
596.10	475.13
596.25	479.81
596.41	421.30
596.57	465.77
596.73	454.06
596.88	425.98
597.04	400.23
597.20	407.25
597.36	433.00
597.51	442.36
597.67	458.74
597.83	440.02
597.99	381.51
598.14	454.06
598.30	402.57
598.46	402.57
598.61	423.64
598.77	449.38
598.93	477.47
599.09	465.77
599.24	451.72
599.40	404.91
599.56	339.38
599.71	353.42
599.87	395.55
600.03	376.83
600.18	425.98
600.34	386.19
600.50	444.70
600.65	449.38
600.81	461.09
600.97	463.43
601.12	411.93
601.28	437.68
601.44	428.32
601.59	393.21
601.75	409.59
601.91	428.32
602.06	372.15
602.22	521.94
602.37	416.62
602.53	433.00
602.69	395.55
602.84	416.62
603.00	351.08
603.16	428.32
603.31	463.43
603.47	463.43
603.62	409.59
603.78	421.30
603.94	397.89
604.09	414.27
604.25	414.27
604.40	517.26
604.56	421.30
604.71	367.46
604.87	393.21
605.03	470.45
605.18	388.53
605.34	428.32
605.49	390.87
605.65	444.70
605.80	360.44
605.96	369.80
606.12	442.36
606.27	461.09
606.43	463.43
606.58	409.59
606.74	414.27
606.89	397.89
607.05	397.89
607.20	465.77
607.36	418.96
607.51	449.38
607.67	367.46
607.82	386.19
607.98	374.49
608.13	465.77
608.29	402.57
608.44	397.89
608.60	447.04
608.75	447.04
608.91	414.27
609.06	416.62
609.22	428.32
609.37	416.62
609.53	365.12
609.68	383.85
609.84	425.98
609.99	458.74
610.15	374.49
