SpectraSuite Data File
++++++++++++++++++++++++++++++++++++
Date: Fri Oct 25 12:10:07 EDT 2013
User: price-jones
Dark Spectrum Present: No
Reference Spectrum Present: No
Number of Sampled Component Spectra: 1
Spectrometers: USB2+H05261
Integration Time (usec): 100000 (USB2+H05261)
Spectra Averaged: 1 (USB2+H05261)
Boxcar Smoothing: 0 (USB2+H05261)
Correct for Electrical Dark: No (USB2+H05261)
Strobe/Lamp Enabled: No (USB2+H05261)
Correct for Detector Non-linearity: No (USB2+H05261)
Correct for Stray Light: No (USB2+H05261)
Number of Pixels in Processed Spectrum: 2048
>>>>>Begin Processed Spectral Data<<<<<
365.73	367.46
365.92	367.46
366.12	367.46
366.32	264.48
366.52	217.67
366.72	212.99
366.91	201.29
367.11	215.33
367.31	259.80
367.51	227.03
367.70	156.82
367.90	299.59
368.10	196.60
368.30	198.95
368.49	208.31
368.69	145.11
368.89	166.18
369.09	304.27
369.28	269.16
369.48	273.84
369.68	255.12
369.87	257.46
370.07	306.61
370.27	301.93
370.47	278.52
370.66	320.65
370.86	339.38
371.06	344.06
371.25	348.74
371.45	390.87
371.65	355.76
371.84	299.59
372.04	362.78
372.24	425.98
372.44	353.42
372.63	435.34
372.83	411.93
373.03	418.96
373.22	390.87
373.42	477.47
373.62	461.09
373.81	461.09
374.01	433.00
374.21	433.00
374.40	379.17
374.60	447.04
374.79	442.36
374.99	449.38
375.19	372.15
375.38	381.51
375.58	404.91
375.78	428.32
375.97	451.72
376.17	397.89
376.37	407.25
376.56	374.49
376.76	416.62
376.95	372.15
377.15	379.17
377.35	409.59
377.54	440.02
377.74	402.57
377.93	425.98
378.13	454.06
378.33	379.17
378.52	440.02
378.72	411.93
378.91	390.87
379.11	416.62
379.31	458.74
379.50	367.46
379.70	451.72
379.89	428.32
380.09	358.10
380.28	416.62
380.48	379.17
380.68	395.55
380.87	395.55
381.07	425.98
381.26	433.00
381.46	402.57
381.65	444.70
381.85	421.30
382.04	425.98
382.24	430.66
382.43	353.42
382.63	376.83
382.83	514.92
383.02	414.27
383.22	421.30
383.41	348.74
383.61	454.06
383.80	463.43
384.00	416.62
384.19	376.83
384.39	393.21
384.58	393.21
384.78	411.93
384.97	400.23
385.17	425.98
385.36	416.62
385.56	388.53
385.75	299.59
385.95	461.09
386.14	400.23
386.34	308.95
386.53	393.21
386.72	376.83
386.92	435.34
387.11	411.93
387.31	475.13
387.50	304.27
387.70	346.40
387.89	402.57
388.09	362.78
388.28	400.23
388.48	404.91
388.67	397.89
388.86	402.57
389.06	425.98
389.25	400.23
389.45	409.59
389.64	472.79
389.84	397.89
390.03	369.80
390.22	416.62
390.42	381.51
390.61	400.23
390.81	395.55
391.00	414.27
391.19	304.27
391.39	428.32
391.58	383.85
391.78	416.62
391.97	404.91
392.16	435.34
392.36	390.87
392.55	414.27
392.75	372.15
392.94	472.79
393.13	388.53
393.33	369.80
393.52	444.70
393.71	355.76
393.91	425.98
394.10	369.80
394.29	423.64
394.49	421.30
394.68	388.53
394.88	456.40
395.07	407.25
395.26	346.40
395.46	376.83
395.65	393.21
395.84	486.83
396.04	416.62
396.23	428.32
396.42	395.55
396.62	388.53
396.81	428.32
397.00	395.55
397.19	402.57
397.39	348.74
397.58	416.62
397.77	411.93
397.97	397.89
398.16	440.02
398.35	437.68
398.55	411.93
398.74	430.66
398.93	421.30
399.12	374.49
399.32	437.68
399.51	425.98
399.70	418.96
399.90	440.02
400.09	423.64
400.28	358.10
400.47	388.53
400.67	433.00
400.86	374.49
401.05	461.09
401.24	461.09
401.44	458.74
401.63	374.49
401.82	433.00
402.01	390.87
402.21	458.74
402.40	442.36
402.59	425.98
402.78	414.27
402.97	430.66
403.17	367.46
403.36	433.00
403.55	365.12
403.74	330.02
403.93	360.44
404.13	425.98
404.32	402.57
404.51	306.61
404.70	435.34
404.89	404.91
405.09	477.47
405.28	318.31
405.47	390.87
405.66	407.25
405.85	379.17
406.05	409.59
406.24	318.31
406.43	440.02
406.62	379.17
406.81	416.62
407.00	390.87
407.20	411.93
407.39	433.00
407.58	395.55
407.77	365.12
407.96	416.62
408.15	402.57
408.34	444.70
408.54	500.87
408.73	404.91
408.92	425.98
409.11	418.96
409.30	421.30
409.49	461.09
409.68	407.25
409.87	381.51
410.07	397.89
410.26	433.00
410.45	416.62
410.64	365.12
410.83	397.89
411.02	402.57
411.21	388.53
411.40	404.91
411.59	341.72
411.78	332.36
411.98	358.10
412.17	346.40
412.36	428.32
412.55	458.74
412.74	402.57
412.93	430.66
413.12	416.62
413.31	435.34
413.50	369.80
413.69	491.51
413.88	442.36
414.07	416.62
414.26	447.04
414.45	430.66
414.64	465.77
414.83	409.59
415.02	379.17
415.22	425.98
415.41	400.23
415.60	390.87
415.79	414.27
415.98	430.66
416.17	402.57
416.36	407.25
416.55	409.59
416.74	400.23
416.93	393.21
417.12	421.30
417.31	360.44
417.50	451.72
417.69	381.51
417.88	435.34
418.07	325.33
418.26	304.27
418.45	418.96
418.64	407.25
418.83	416.62
419.02	383.85
419.21	397.89
419.39	379.17
419.58	390.87
419.77	334.70
419.96	433.00
420.15	404.91
420.34	383.85
420.53	472.79
420.72	397.89
420.91	280.86
421.10	404.91
421.29	402.57
421.48	374.49
421.67	351.08
421.86	421.30
422.05	458.74
422.24	411.93
422.43	409.59
422.61	376.83
422.80	376.83
422.99	311.29
423.18	468.11
423.37	430.66
423.56	400.23
423.75	376.83
423.94	465.77
424.13	381.51
424.32	346.40
424.50	383.85
424.69	395.55
424.88	409.59
425.07	435.34
425.26	475.13
425.45	433.00
425.64	388.53
425.83	430.66
426.01	416.62
426.20	421.30
426.39	411.93
426.58	404.91
426.77	425.98
426.96	414.27
427.15	430.66
427.33	388.53
427.52	386.19
427.71	407.25
427.90	322.99
428.09	353.42
428.28	428.32
428.46	430.66
428.65	390.87
428.84	386.19
429.03	430.66
429.22	395.55
429.40	351.08
429.59	390.87
429.78	416.62
429.97	355.76
430.16	383.85
430.34	400.23
430.53	425.98
430.72	465.77
430.91	458.74
431.10	458.74
431.28	454.06
431.47	444.70
431.66	414.27
431.85	425.98
432.03	374.49
432.22	374.49
432.41	430.66
432.60	465.77
432.79	353.42
432.97	376.83
433.16	376.83
433.35	395.55
433.54	404.91
433.72	386.19
433.91	416.62
434.10	372.15
434.28	437.68
434.47	365.12
434.66	409.59
434.85	351.08
435.03	367.46
435.22	444.70
435.41	463.43
435.59	423.64
435.78	376.83
435.97	416.62
436.16	449.38
436.34	322.99
436.53	379.17
436.72	416.62
436.90	456.40
437.09	423.64
437.28	351.08
437.46	447.04
437.65	407.25
437.84	458.74
438.02	454.06
438.21	428.32
438.40	425.98
438.58	390.87
438.77	447.04
438.96	463.43
439.14	374.49
439.33	395.55
439.52	404.91
439.70	388.53
439.89	381.51
440.08	383.85
440.26	414.27
440.45	430.66
440.63	447.04
440.82	440.02
441.01	362.78
441.19	472.79
441.38	409.59
441.57	379.17
441.75	437.68
441.94	472.79
442.12	461.09
442.31	461.09
442.50	404.91
442.68	402.57
442.87	372.15
443.05	393.21
443.24	355.76
443.43	390.87
443.61	430.66
443.80	409.59
443.98	386.19
444.17	407.25
444.35	418.96
444.54	376.83
444.73	404.91
444.91	416.62
445.10	433.00
445.28	463.43
445.47	374.49
445.65	395.55
445.84	360.44
446.02	404.91
446.21	433.00
446.39	433.00
446.58	423.64
446.77	372.15
446.95	465.77
447.14	430.66
447.32	449.38
447.51	421.30
447.69	404.91
447.88	397.89
448.06	395.55
448.25	435.34
448.43	433.00
448.62	395.55
448.80	397.89
448.99	454.06
449.17	430.66
449.36	407.25
449.54	390.87
449.73	365.12
449.91	416.62
450.10	383.85
450.28	409.59
450.46	435.34
450.65	409.59
450.83	435.34
451.02	393.21
451.20	388.53
451.39	479.81
451.57	411.93
451.76	362.78
451.94	355.76
452.13	451.72
452.31	383.85
452.49	409.59
452.68	344.06
452.86	458.74
453.05	538.32
453.23	379.17
453.42	449.38
453.60	418.96
453.78	407.25
453.97	376.83
454.15	252.78
454.34	353.42
454.52	372.15
454.70	416.62
454.89	402.57
455.07	353.42
455.26	435.34
455.44	418.96
455.62	337.04
455.81	383.85
455.99	428.32
456.17	379.17
456.36	418.96
456.54	395.55
456.73	360.44
456.91	423.64
457.09	451.72
457.28	425.98
457.46	477.47
457.64	470.45
457.83	395.55
458.01	339.38
458.19	435.34
458.38	442.36
458.56	379.17
458.74	353.42
458.93	428.32
459.11	402.57
459.29	376.83
459.48	423.64
459.66	395.55
459.84	437.68
460.03	493.85
460.21	454.06
460.39	360.44
460.57	407.25
460.76	388.53
460.94	353.42
461.12	493.85
461.31	444.70
461.49	444.70
461.67	421.30
461.85	430.66
462.04	461.09
462.22	805.14
462.40	454.06
462.59	465.77
462.77	390.87
462.95	379.17
463.13	372.15
463.32	484.49
463.50	479.81
463.68	393.21
463.86	421.30
464.05	447.04
464.23	386.19
464.41	402.57
464.59	449.38
464.78	360.44
464.96	418.96
465.14	416.62
465.32	421.30
465.50	337.04
465.69	418.96
465.87	365.12
466.05	341.72
466.23	360.44
466.41	358.10
466.60	369.80
466.78	416.62
466.96	430.66
467.14	344.06
467.32	447.04
467.51	451.72
467.69	425.98
467.87	447.04
468.05	334.70
468.23	402.57
468.41	409.59
468.60	339.38
468.78	351.08
468.96	440.02
469.14	425.98
469.32	451.72
469.50	447.04
469.69	418.96
469.87	423.64
470.05	404.91
470.23	395.55
470.41	425.98
470.59	386.19
470.77	346.40
470.95	374.49
471.14	390.87
471.32	404.91
471.50	395.55
471.68	379.17
471.86	500.87
472.04	421.30
472.22	372.15
472.40	374.49
472.58	374.49
472.77	409.59
472.95	477.47
473.13	475.13
473.31	484.49
473.49	430.66
473.67	388.53
473.85	440.02
474.03	360.44
474.21	416.62
474.39	407.25
474.57	407.25
474.75	503.22
474.93	451.72
475.12	451.72
475.30	395.55
475.48	376.83
475.66	428.32
475.84	400.23
476.02	374.49
476.20	468.11
476.38	411.93
476.56	472.79
476.74	479.81
476.92	407.25
477.10	390.87
477.28	397.89
477.46	330.02
477.64	369.80
477.82	355.76
478.00	395.55
478.18	411.93
478.36	454.06
478.54	397.89
478.72	386.19
478.90	351.08
479.08	400.23
479.26	386.19
479.44	454.06
479.62	402.57
479.80	367.46
479.98	397.89
480.16	444.70
480.34	395.55
480.52	367.46
480.70	489.17
480.88	313.63
481.06	351.08
481.24	376.83
481.41	475.13
481.59	315.97
481.77	400.23
481.95	400.23
482.13	414.27
482.31	430.66
482.49	437.68
482.67	393.21
482.85	433.00
483.03	369.80
483.21	379.17
483.39	444.70
483.57	411.93
483.74	435.34
483.92	330.02
484.10	428.32
484.28	404.91
484.46	400.23
484.64	360.44
484.82	454.06
485.00	461.09
485.18	456.40
485.35	400.23
485.53	313.63
485.71	397.89
485.89	383.85
486.07	407.25
486.25	482.15
486.43	404.91
486.61	390.87
486.78	463.43
486.96	409.59
487.14	397.89
487.32	400.23
487.50	433.00
487.68	416.62
487.85	433.00
488.03	390.87
488.21	414.27
488.39	367.46
488.57	435.34
488.75	362.78
488.92	524.28
489.10	404.91
489.28	524.28
489.46	496.19
489.64	477.47
489.81	393.21
489.99	423.64
490.17	440.02
490.35	461.09
490.53	430.66
490.70	447.04
490.88	456.40
491.06	409.59
491.24	414.27
491.41	496.19
491.59	416.62
491.77	428.32
491.95	355.76
492.13	369.80
492.30	454.06
492.48	416.62
492.66	440.02
492.84	337.04
493.01	402.57
493.19	362.78
493.37	472.79
493.54	456.40
493.72	395.55
493.90	346.40
494.08	381.51
494.25	524.28
494.43	456.40
494.61	369.80
494.79	425.98
494.96	409.59
495.14	418.96
495.32	430.66
495.49	440.02
495.67	374.49
495.85	430.66
496.02	367.46
496.20	339.38
496.38	454.06
496.55	376.83
496.73	341.72
496.91	386.19
497.09	411.93
497.26	425.98
497.44	332.36
497.62	428.32
497.79	360.44
497.97	444.70
498.14	393.21
498.32	395.55
498.50	442.36
498.67	294.91
498.85	404.91
499.03	423.64
499.20	383.85
499.38	444.70
499.56	397.89
499.73	416.62
499.91	456.40
500.08	472.79
500.26	393.21
500.44	365.12
500.61	367.46
500.79	465.77
500.97	437.68
501.14	423.64
501.32	435.34
501.49	411.93
501.67	348.74
501.84	442.36
502.02	397.89
502.20	402.57
502.37	454.06
502.55	430.66
502.72	425.98
502.90	458.74
503.07	451.72
503.25	430.66
503.43	379.17
503.60	376.83
503.78	381.51
503.95	461.09
504.13	346.40
504.30	334.70
504.48	344.06
504.65	402.57
504.83	437.68
505.01	404.91
505.18	414.27
505.36	360.44
505.53	451.72
505.71	409.59
505.88	407.25
506.06	435.34
506.23	440.02
506.41	411.93
506.58	400.23
506.76	456.40
506.93	425.98
507.11	402.57
507.28	418.96
507.46	390.87
507.63	381.51
507.81	360.44
507.98	479.81
508.16	449.38
508.33	447.04
508.50	416.62
508.68	435.34
508.85	421.30
509.03	465.77
509.20	425.98
509.38	388.53
509.55	400.23
509.73	390.87
509.90	428.32
510.08	365.12
510.25	362.78
510.42	433.00
510.60	416.62
510.77	535.98
510.95	423.64
511.12	395.55
511.30	458.74
511.47	433.00
511.64	496.19
511.82	407.25
511.99	465.77
512.17	411.93
512.34	421.30
512.51	402.57
512.69	393.21
512.86	430.66
513.04	397.89
513.21	423.64
513.38	395.55
513.56	353.42
513.73	454.06
513.90	388.53
514.08	442.36
514.25	393.21
514.43	362.78
514.60	423.64
514.77	407.25
514.95	479.81
515.12	402.57
515.29	372.15
515.47	400.23
515.64	388.53
515.81	514.92
515.99	456.40
516.16	372.15
516.33	475.13
516.51	425.98
516.68	397.89
516.85	358.10
517.03	430.66
517.20	365.12
517.37	386.19
517.54	437.68
517.72	388.53
517.89	395.55
518.06	404.91
518.24	440.02
518.41	376.83
518.58	414.27
518.75	362.78
518.93	383.85
519.10	421.30
519.27	388.53
519.45	454.06
519.62	346.40
519.79	360.44
519.96	374.49
520.14	428.32
520.31	456.40
520.48	418.96
520.65	463.43
520.83	388.53
521.00	423.64
521.17	404.91
521.34	456.40
521.52	407.25
521.69	451.72
521.86	334.70
522.03	388.53
522.20	395.55
522.38	477.47
522.55	409.59
522.72	414.27
522.89	470.45
523.07	404.91
523.24	465.77
523.41	372.15
523.58	451.72
523.75	367.46
523.92	449.38
524.10	376.83
524.27	416.62
524.44	423.64
524.61	409.59
524.78	407.25
524.96	367.46
525.13	461.09
525.30	348.74
525.47	421.30
525.64	437.68
525.81	458.74
525.98	423.64
526.16	416.62
526.33	442.36
526.50	409.59
526.67	416.62
526.84	414.27
527.01	374.49
527.18	383.85
527.36	418.96
527.53	461.09
527.70	386.19
527.87	400.23
528.04	477.47
528.21	437.68
528.38	379.17
528.55	397.89
528.72	447.04
528.89	400.23
529.07	388.53
529.24	423.64
529.41	479.81
529.58	367.46
529.75	390.87
529.92	407.25
530.09	451.72
530.26	444.70
530.43	409.59
530.60	355.76
530.77	425.98
530.94	355.76
531.11	355.76
531.28	397.89
531.46	390.87
531.63	458.74
531.80	461.09
531.97	500.87
532.14	407.25
532.31	404.91
532.48	395.55
532.65	484.49
532.82	449.38
532.99	472.79
533.16	404.91
533.33	379.17
533.50	383.85
533.67	425.98
533.84	411.93
534.01	433.00
534.18	484.49
534.35	496.19
534.52	428.32
534.69	437.68
534.86	428.32
535.03	379.17
535.20	503.22
535.37	444.70
535.54	367.46
535.71	379.17
535.88	472.79
536.05	337.04
536.22	369.80
536.38	400.23
536.55	463.43
536.72	458.74
536.89	430.66
537.06	435.34
537.23	367.46
537.40	437.68
537.57	393.21
537.74	470.45
537.91	425.98
538.08	416.62
538.25	463.43
538.42	416.62
538.59	433.00
538.75	383.85
538.92	400.23
539.09	395.55
539.26	411.93
539.43	421.30
539.60	414.27
539.77	414.27
539.94	433.00
540.11	402.57
540.28	435.34
540.44	461.09
540.61	496.19
540.78	454.06
540.95	465.77
541.12	475.13
541.29	447.04
541.46	449.38
541.62	365.12
541.79	381.51
541.96	437.68
542.13	421.30
542.30	416.62
542.47	440.02
542.63	451.72
542.80	433.00
542.97	491.51
543.14	444.70
543.31	425.98
543.48	418.96
543.64	461.09
543.81	423.64
543.98	486.83
544.15	444.70
544.32	463.43
544.48	486.83
544.65	409.59
544.82	376.83
544.99	376.83
545.16	423.64
545.32	444.70
545.49	449.38
545.66	411.93
545.83	421.30
546.00	414.27
546.16	435.34
546.33	435.34
546.50	433.00
546.67	465.77
546.83	393.21
547.00	468.11
547.17	374.49
547.34	411.93
547.50	332.36
547.67	390.87
547.84	351.08
548.00	400.23
548.17	411.93
548.34	388.53
548.51	400.23
548.67	475.13
548.84	428.32
549.01	423.64
549.18	393.21
549.34	402.57
549.51	421.30
549.68	447.04
549.84	332.36
550.01	381.51
550.18	510.24
550.34	404.91
550.51	433.00
550.68	367.46
550.84	383.85
551.01	425.98
551.18	411.93
551.34	407.25
551.51	421.30
551.68	400.23
551.84	400.23
552.01	421.30
552.18	402.57
552.34	505.56
552.51	414.27
552.68	390.87
552.84	374.49
553.01	414.27
553.18	395.55
553.34	447.04
553.51	449.38
553.67	428.32
553.84	449.38
554.01	414.27
554.17	458.74
554.34	395.55
554.51	409.59
554.67	365.12
554.84	407.25
555.00	416.62
555.17	421.30
555.33	395.55
555.50	397.89
555.67	390.87
555.83	433.00
556.00	465.77
556.16	463.43
556.33	491.51
556.50	423.64
556.66	433.00
556.83	442.36
556.99	458.74
557.16	461.09
557.32	447.04
557.49	449.38
557.65	449.38
557.82	409.59
557.98	451.72
558.15	374.49
558.32	409.59
558.48	449.38
558.65	456.40
558.81	341.72
558.98	365.12
559.14	386.19
559.31	465.77
559.47	360.44
559.64	425.98
559.80	388.53
559.97	423.64
560.13	437.68
560.30	383.85
560.46	348.74
560.63	383.85
560.79	468.11
560.96	409.59
561.12	425.98
561.29	374.49
561.45	411.93
561.61	425.98
561.78	540.66
561.94	411.93
562.11	503.22
562.27	425.98
562.44	383.85
562.60	428.32
562.77	404.91
562.93	428.32
563.10	447.04
563.26	428.32
563.42	479.81
563.59	416.62
563.75	386.19
563.92	451.72
564.08	402.57
564.24	430.66
564.41	404.91
564.57	383.85
564.74	428.32
564.90	444.70
565.07	472.79
565.23	423.64
565.39	454.06
565.56	528.96
565.72	397.89
565.88	472.79
566.05	433.00
566.21	430.66
566.38	428.32
566.54	414.27
566.70	372.15
566.87	451.72
567.03	376.83
567.19	409.59
567.36	479.81
567.52	388.53
567.68	486.83
567.85	479.81
568.01	418.96
568.17	404.91
568.34	365.12
568.50	430.66
568.66	468.11
568.83	479.81
568.99	418.96
569.15	418.96
569.32	383.85
569.48	461.09
569.64	362.78
569.81	430.66
569.97	407.25
570.13	442.36
570.30	372.15
570.46	454.06
570.62	461.09
570.78	393.21
570.95	409.59
571.11	503.22
571.27	491.51
571.43	458.74
571.60	465.77
571.76	482.15
571.92	470.45
572.09	395.55
572.25	425.98
572.41	451.72
572.57	465.77
572.74	353.42
572.90	449.38
573.06	407.25
573.22	442.36
573.38	395.55
573.55	404.91
573.71	468.11
573.87	442.36
574.03	489.17
574.20	447.04
574.36	442.36
574.52	402.57
574.68	369.80
574.84	472.79
575.01	397.89
575.17	456.40
575.33	416.62
575.49	360.44
575.65	414.27
575.82	428.32
575.98	444.70
576.14	475.13
576.30	428.32
576.46	465.77
576.62	423.64
576.79	437.68
576.95	433.00
577.11	416.62
577.27	362.78
577.43	430.66
577.59	479.81
577.75	416.62
577.92	416.62
578.08	355.76
578.24	369.80
578.40	433.00
578.56	386.19
578.72	425.98
578.88	416.62
579.04	414.27
579.21	386.19
579.37	360.44
579.53	332.36
579.69	519.60
579.85	358.10
580.01	538.32
580.17	367.46
580.33	372.15
580.49	402.57
580.65	435.34
580.82	447.04
580.98	379.17
581.14	425.98
581.30	395.55
581.46	470.45
581.62	351.08
581.78	468.11
581.94	414.27
582.10	423.64
582.26	411.93
582.42	390.87
582.58	379.17
582.74	498.53
582.90	402.57
583.06	400.23
583.22	430.66
583.38	470.45
583.54	383.85
583.70	390.87
583.86	458.74
584.02	491.51
584.18	435.34
584.34	489.17
584.50	421.30
584.66	383.85
584.82	365.12
584.98	369.80
585.14	421.30
585.30	430.66
585.46	414.27
585.62	353.42
585.78	444.70
585.94	365.12
586.10	435.34
586.26	472.79
586.42	489.17
586.58	442.36
586.74	440.02
586.90	372.15
587.06	425.98
587.22	437.68
587.38	383.85
587.54	404.91
587.70	421.30
587.86	379.17
588.02	379.17
588.18	409.59
588.34	362.78
588.49	339.38
588.65	304.27
588.81	519.60
588.97	433.00
589.13	409.59
589.29	416.62
589.45	395.55
589.61	381.51
589.77	393.21
589.93	496.19
590.08	447.04
590.24	383.85
590.40	386.19
590.56	372.15
590.72	416.62
590.88	433.00
591.04	437.68
591.20	437.68
591.35	440.02
591.51	428.32
591.67	397.89
591.83	440.02
591.99	447.04
592.15	477.47
592.31	362.78
592.46	409.59
592.62	428.32
592.78	507.90
592.94	430.66
593.10	397.89
593.26	400.23
593.41	428.32
593.57	463.43
593.73	437.68
593.89	423.64
594.05	416.62
594.20	318.31
594.36	390.87
594.52	425.98
594.68	433.00
594.84	454.06
594.99	477.47
595.15	386.19
595.31	442.36
595.47	449.38
595.62	376.83
595.78	414.27
595.94	386.19
596.10	465.77
596.25	507.90
596.41	442.36
596.57	379.17
596.73	374.49
596.88	379.17
597.04	379.17
597.20	421.30
597.36	442.36
597.51	388.53
597.67	442.36
597.83	418.96
597.99	461.09
598.14	351.08
598.30	442.36
598.46	433.00
598.61	503.22
598.77	409.59
598.93	433.00
599.09	404.91
599.24	461.09
599.40	433.00
599.56	451.72
599.71	409.59
599.87	418.96
600.03	451.72
600.18	440.02
600.34	454.06
600.50	376.83
600.65	372.15
600.81	437.68
600.97	383.85
601.12	407.25
601.28	442.36
601.44	421.30
601.59	372.15
601.75	482.15
601.91	397.89
602.06	444.70
602.22	440.02
602.37	353.42
602.53	461.09
602.69	437.68
602.84	440.02
603.00	400.23
603.16	454.06
603.31	425.98
603.47	425.98
603.62	353.42
603.78	475.13
603.94	388.53
604.09	318.31
604.25	456.40
604.40	461.09
604.56	475.13
604.71	404.91
604.87	451.72
605.03	393.21
605.18	430.66
605.34	402.57
605.49	433.00
605.65	358.10
605.80	423.64
605.96	418.96
606.12	367.46
606.27	416.62
606.43	395.55
606.58	425.98
606.74	414.27
606.89	430.66
607.05	393.21
607.20	379.17
607.36	409.59
607.51	362.78
607.67	397.89
607.82	437.68
607.98	367.46
608.13	456.40
608.29	421.30
608.44	374.49
608.60	383.85
608.75	404.91
608.91	386.19
609.06	348.74
609.22	449.38
609.37	430.66
609.53	374.49
609.68	416.62
609.84	353.42
609.99	449.38
610.15	500.87
