SpectraSuite Data File
++++++++++++++++++++++++++++++++++++
Date: Fri Oct 25 12:10:43 EDT 2013
User: price-jones
Dark Spectrum Present: No
Reference Spectrum Present: No
Number of Sampled Component Spectra: 1
Spectrometers: USB2+H05261
Integration Time (usec): 100000 (USB2+H05261)
Spectra Averaged: 1 (USB2+H05261)
Boxcar Smoothing: 0 (USB2+H05261)
Correct for Electrical Dark: No (USB2+H05261)
Strobe/Lamp Enabled: No (USB2+H05261)
Correct for Detector Non-linearity: No (USB2+H05261)
Correct for Stray Light: No (USB2+H05261)
Number of Pixels in Processed Spectrum: 2048
>>>>>Begin Processed Spectral Data<<<<<
365.73	318.31
365.92	318.31
366.12	318.31
366.32	238.73
366.52	259.80
366.72	294.91
366.91	210.65
367.11	177.88
367.31	198.95
367.51	208.31
367.70	262.14
367.90	287.89
368.10	173.20
368.30	245.76
368.49	198.95
368.69	180.22
368.89	205.97
369.09	182.56
369.28	243.42
369.48	322.99
369.68	271.50
369.87	280.86
370.07	339.38
370.27	355.76
370.47	374.49
370.66	292.57
370.86	346.40
371.06	362.78
371.25	475.13
371.45	367.46
371.65	369.80
371.84	437.68
372.04	379.17
372.24	416.62
372.44	395.55
372.63	463.43
372.83	479.81
373.03	379.17
373.22	372.15
373.42	376.83
373.62	358.10
373.81	463.43
374.01	458.74
374.21	465.77
374.40	397.89
374.60	407.25
374.79	437.68
374.99	416.62
375.19	475.13
375.38	414.27
375.58	404.91
375.78	545.34
375.97	421.30
376.17	425.98
376.37	362.78
376.56	409.59
376.76	414.27
376.95	451.72
377.15	402.57
377.35	437.68
377.54	414.27
377.74	346.40
377.93	421.30
378.13	348.74
378.33	430.66
378.52	362.78
378.72	428.32
378.91	437.68
379.11	449.38
379.31	437.68
379.50	444.70
379.70	390.87
379.89	416.62
380.09	407.25
380.28	442.36
380.48	339.38
380.68	360.44
380.87	337.04
381.07	421.30
381.26	414.27
381.46	416.62
381.65	428.32
381.85	404.91
382.04	376.83
382.24	454.06
382.43	418.96
382.63	393.21
382.83	388.53
383.02	395.55
383.22	418.96
383.41	402.57
383.61	444.70
383.80	454.06
384.00	407.25
384.19	421.30
384.39	402.57
384.58	411.93
384.78	479.81
384.97	442.36
385.17	440.02
385.36	414.27
385.56	414.27
385.75	414.27
385.95	381.51
386.14	447.04
386.34	451.72
386.53	390.87
386.72	458.74
386.92	383.85
387.11	442.36
387.31	430.66
387.50	425.98
387.70	344.06
387.89	463.43
388.09	425.98
388.28	362.78
388.48	397.89
388.67	393.21
388.86	390.87
389.06	456.40
389.25	386.19
389.45	411.93
389.64	400.23
389.84	346.40
390.03	442.36
390.22	351.08
390.42	383.85
390.61	444.70
390.81	395.55
391.00	407.25
391.19	423.64
391.39	362.78
391.58	435.34
391.78	440.02
391.97	393.21
392.16	330.02
392.36	447.04
392.55	404.91
392.75	433.00
392.94	388.53
393.13	416.62
393.33	376.83
393.52	411.93
393.71	421.30
393.91	435.34
394.10	430.66
394.29	433.00
394.49	416.62
394.68	411.93
394.88	447.04
395.07	484.49
395.26	440.02
395.46	400.23
395.65	362.78
395.84	475.13
396.04	470.45
396.23	421.30
396.42	351.08
396.62	423.64
396.81	454.06
397.00	428.32
397.19	414.27
397.39	400.23
397.58	407.25
397.77	423.64
397.97	374.49
398.16	468.11
398.35	442.36
398.55	339.38
398.74	395.55
398.93	430.66
399.12	353.42
399.32	437.68
399.51	386.19
399.70	437.68
399.90	418.96
400.09	362.78
400.28	463.43
400.47	381.51
400.67	458.74
400.86	411.93
401.05	397.89
401.24	404.91
401.44	395.55
401.63	458.74
401.82	383.85
402.01	383.85
402.21	442.36
402.40	348.74
402.59	416.62
402.78	402.57
402.97	435.34
403.17	475.13
403.36	418.96
403.55	372.15
403.74	442.36
403.93	444.70
404.13	411.93
404.32	475.13
404.51	390.87
404.70	414.27
404.89	379.17
405.09	430.66
405.28	444.70
405.47	383.85
405.66	430.66
405.85	409.59
406.05	397.89
406.24	421.30
406.43	477.47
406.62	404.91
406.81	461.09
407.00	449.38
407.20	486.83
407.39	409.59
407.58	369.80
407.77	425.98
407.96	440.02
408.15	353.42
408.34	449.38
408.54	386.19
408.73	402.57
408.92	365.12
409.11	395.55
409.30	454.06
409.49	430.66
409.68	339.38
409.87	421.30
410.07	388.53
410.26	393.21
410.45	404.91
410.64	367.46
410.83	437.68
411.02	451.72
411.21	381.51
411.40	435.34
411.59	395.55
411.78	374.49
411.98	388.53
412.17	344.06
412.36	395.55
412.55	430.66
412.74	390.87
412.93	425.98
413.12	383.85
413.31	449.38
413.50	449.38
413.69	397.89
413.88	407.25
414.07	404.91
414.26	379.17
414.45	425.98
414.64	346.40
414.83	421.30
415.02	447.04
415.22	435.34
415.41	454.06
415.60	393.21
415.79	397.89
415.98	411.93
416.17	411.93
416.36	351.08
416.55	404.91
416.74	365.12
416.93	428.32
417.12	390.87
417.31	386.19
417.50	386.19
417.69	386.19
417.88	383.85
418.07	334.70
418.26	379.17
418.45	367.46
418.64	388.53
418.83	386.19
419.02	402.57
419.21	409.59
419.39	458.74
419.58	330.02
419.77	430.66
419.96	418.96
420.15	463.43
420.34	416.62
420.53	423.64
420.72	416.62
420.91	374.49
421.10	416.62
421.29	362.78
421.48	393.21
421.67	397.89
421.86	407.25
422.05	425.98
422.24	409.59
422.43	376.83
422.61	367.46
422.80	346.40
422.99	379.17
423.18	369.80
423.37	482.15
423.56	444.70
423.75	418.96
423.94	379.17
424.13	341.72
424.32	428.32
424.50	416.62
424.69	388.53
424.88	496.19
425.07	449.38
425.26	414.27
425.45	444.70
425.64	428.32
425.83	407.25
426.01	409.59
426.20	423.64
426.39	402.57
426.58	379.17
426.77	397.89
426.96	395.55
427.15	383.85
427.33	367.46
427.52	346.40
427.71	365.12
427.90	411.93
428.09	376.83
428.28	435.34
428.46	402.57
428.65	404.91
428.84	423.64
429.03	421.30
429.22	348.74
429.40	418.96
429.59	355.76
429.78	477.47
429.97	458.74
430.16	447.04
430.34	325.33
430.53	407.25
430.72	458.74
430.91	430.66
431.10	404.91
431.28	358.10
431.47	425.98
431.66	397.89
431.85	365.12
432.03	360.44
432.22	479.81
432.41	376.83
432.60	386.19
432.79	435.34
432.97	468.11
433.16	390.87
433.35	390.87
433.54	397.89
433.72	397.89
433.91	414.27
434.10	402.57
434.28	418.96
434.47	397.89
434.66	500.87
434.85	442.36
435.03	442.36
435.22	411.93
435.41	395.55
435.59	402.57
435.78	486.83
435.97	360.44
436.16	437.68
436.34	435.34
436.53	400.23
436.72	409.59
436.90	355.76
437.09	463.43
437.28	423.64
437.46	379.17
437.65	393.21
437.84	411.93
438.02	404.91
438.21	418.96
438.40	379.17
438.58	416.62
438.77	433.00
438.96	411.93
439.14	456.40
439.33	423.64
439.52	437.68
439.70	404.91
439.89	421.30
440.08	346.40
440.26	423.64
440.45	393.21
440.63	442.36
440.82	388.53
441.01	425.98
441.19	390.87
441.38	451.72
441.57	388.53
441.75	440.02
441.94	418.96
442.12	409.59
442.31	367.46
442.50	416.62
442.68	388.53
442.87	402.57
443.05	379.17
443.24	414.27
443.43	395.55
443.61	416.62
443.80	435.34
443.98	383.85
444.17	421.30
444.35	475.13
444.54	437.68
444.73	423.64
444.91	414.27
445.10	456.40
445.28	381.51
445.47	425.98
445.65	351.08
445.84	416.62
446.02	393.21
446.21	416.62
446.39	447.04
446.58	395.55
446.77	339.38
446.95	447.04
447.14	374.49
447.32	381.51
447.51	404.91
447.69	383.85
447.88	374.49
448.06	376.83
448.25	463.43
448.43	383.85
448.62	414.27
448.80	381.51
448.99	388.53
449.17	418.96
449.36	372.15
449.54	430.66
449.73	402.57
449.91	451.72
450.10	496.19
450.28	421.30
450.46	372.15
450.65	433.00
450.83	341.72
451.02	325.33
451.20	435.34
451.39	440.02
451.57	362.78
451.76	376.83
451.94	395.55
452.13	425.98
452.31	437.68
452.49	400.23
452.68	423.64
452.86	435.34
453.05	416.62
453.23	390.87
453.42	447.04
453.60	449.38
453.78	486.83
453.97	411.93
454.15	449.38
454.34	388.53
454.52	470.45
454.70	388.53
454.89	461.09
455.07	395.55
455.26	390.87
455.44	411.93
455.62	447.04
455.81	477.47
455.99	404.91
456.17	395.55
456.36	470.45
456.54	414.27
456.73	353.42
456.91	521.94
457.09	433.00
457.28	430.66
457.46	400.23
457.64	407.25
457.83	461.09
458.01	461.09
458.19	449.38
458.38	440.02
458.56	397.89
458.74	409.59
458.93	407.25
459.11	428.32
459.29	475.13
459.48	447.04
459.66	451.72
459.84	395.55
460.03	479.81
460.21	418.96
460.39	367.46
460.57	491.51
460.76	425.98
460.94	470.45
461.12	409.59
461.31	454.06
461.49	428.32
461.67	367.46
461.85	388.53
462.04	402.57
462.22	814.51
462.40	442.36
462.59	444.70
462.77	454.06
462.95	433.00
463.13	376.83
463.32	475.13
463.50	344.06
463.68	376.83
463.86	374.49
464.05	367.46
464.23	440.02
464.41	425.98
464.59	383.85
464.78	418.96
464.96	400.23
465.14	390.87
465.32	421.30
465.50	454.06
465.69	376.83
465.87	383.85
466.05	444.70
466.23	461.09
466.41	386.19
466.60	418.96
466.78	507.90
466.96	435.34
467.14	400.23
467.32	395.55
467.51	414.27
467.69	409.59
467.87	489.17
468.05	454.06
468.23	395.55
468.41	407.25
468.60	414.27
468.78	402.57
468.96	386.19
469.14	414.27
469.32	390.87
469.50	367.46
469.69	344.06
469.87	393.21
470.05	428.32
470.23	390.87
470.41	374.49
470.59	358.10
470.77	472.79
470.95	355.76
471.14	486.83
471.32	381.51
471.50	418.96
471.68	381.51
471.86	517.26
472.04	402.57
472.22	435.34
472.40	472.79
472.58	421.30
472.77	437.68
472.95	386.19
473.13	442.36
473.31	414.27
473.49	381.51
473.67	430.66
473.85	465.77
474.03	437.68
474.21	332.36
474.39	374.49
474.57	418.96
474.75	465.77
474.93	383.85
475.12	355.76
475.30	379.17
475.48	374.49
475.66	440.02
475.84	463.43
476.02	435.34
476.20	409.59
476.38	365.12
476.56	400.23
476.74	414.27
476.92	411.93
477.10	442.36
477.28	339.38
477.46	430.66
477.64	390.87
477.82	479.81
478.00	390.87
478.18	423.64
478.36	365.12
478.54	374.49
478.72	414.27
478.90	374.49
479.08	440.02
479.26	444.70
479.44	444.70
479.62	374.49
479.80	433.00
479.98	379.17
480.16	355.76
480.34	498.53
480.52	383.85
480.70	442.36
480.88	477.47
481.06	418.96
481.24	365.12
481.41	456.40
481.59	416.62
481.77	367.46
481.95	369.80
482.13	402.57
482.31	374.49
482.49	404.91
482.67	465.77
482.85	437.68
483.03	447.04
483.21	376.83
483.39	451.72
483.57	393.21
483.74	493.85
483.92	400.23
484.10	374.49
484.28	425.98
484.46	425.98
484.64	425.98
484.82	451.72
485.00	388.53
485.18	437.68
485.35	402.57
485.53	365.12
485.71	433.00
485.89	454.06
486.07	376.83
486.25	454.06
486.43	430.66
486.61	390.87
486.78	411.93
486.96	395.55
487.14	402.57
487.32	379.17
487.50	416.62
487.68	423.64
487.85	400.23
488.03	409.59
488.21	418.96
488.39	433.00
488.57	468.11
488.75	393.21
488.92	505.56
489.10	430.66
489.28	435.34
489.46	397.89
489.64	404.91
489.81	449.38
489.99	423.64
490.17	397.89
490.35	468.11
490.53	400.23
490.70	414.27
490.88	376.83
491.06	383.85
491.24	313.63
491.41	400.23
491.59	440.02
491.77	374.49
491.95	341.72
492.13	372.15
492.30	383.85
492.48	386.19
492.66	351.08
492.84	435.34
493.01	409.59
493.19	404.91
493.37	437.68
493.54	393.21
493.72	400.23
493.90	409.59
494.08	451.72
494.25	458.74
494.43	425.98
494.61	411.93
494.79	386.19
494.96	383.85
495.14	470.45
495.32	437.68
495.49	372.15
495.67	351.08
495.85	379.17
496.02	393.21
496.20	447.04
496.38	423.64
496.55	454.06
496.73	358.10
496.91	358.10
497.09	400.23
497.26	372.15
497.44	388.53
497.62	407.25
497.79	411.93
497.97	458.74
498.14	388.53
498.32	376.83
498.50	369.80
498.67	365.12
498.85	421.30
499.03	444.70
499.20	374.49
499.38	411.93
499.56	423.64
499.73	444.70
499.91	491.51
500.08	465.77
500.26	414.27
500.44	411.93
500.61	404.91
500.79	433.00
500.97	484.49
501.14	498.53
501.32	395.55
501.49	390.87
501.67	348.74
501.84	414.27
502.02	430.66
502.20	416.62
502.37	390.87
502.55	355.76
502.72	386.19
502.90	482.15
503.07	414.27
503.25	334.70
503.43	346.40
503.60	428.32
503.78	425.98
503.95	400.23
504.13	372.15
504.30	365.12
504.48	510.24
504.65	423.64
504.83	423.64
505.01	433.00
505.18	402.57
505.36	458.74
505.53	416.62
505.71	374.49
505.88	437.68
506.06	423.64
506.23	365.12
506.41	447.04
506.58	325.33
506.76	440.02
506.93	395.55
507.11	390.87
507.28	327.68
507.46	442.36
507.63	451.72
507.81	397.89
507.98	369.80
508.16	388.53
508.33	454.06
508.50	374.49
508.68	409.59
508.85	381.51
509.03	493.85
509.20	430.66
509.38	386.19
509.55	416.62
509.73	470.45
509.90	360.44
510.08	430.66
510.25	411.93
510.42	409.59
510.60	397.89
510.77	386.19
510.95	430.66
511.12	388.53
511.30	451.72
511.47	393.21
511.64	507.90
511.82	482.15
511.99	379.17
512.17	444.70
512.34	355.76
512.51	362.78
512.69	381.51
512.86	440.02
513.04	404.91
513.21	465.77
513.38	418.96
513.56	435.34
513.73	425.98
513.90	442.36
514.08	404.91
514.25	447.04
514.43	435.34
514.60	297.25
514.77	421.30
514.95	362.78
515.12	400.23
515.29	376.83
515.47	458.74
515.64	315.97
515.81	421.30
515.99	407.25
516.16	379.17
516.33	463.43
516.51	425.98
516.68	334.70
516.85	381.51
517.03	390.87
517.20	456.40
517.37	435.34
517.54	430.66
517.72	355.76
517.89	414.27
518.06	402.57
518.24	514.92
518.41	449.38
518.58	404.91
518.75	435.34
518.93	475.13
519.10	461.09
519.27	416.62
519.45	414.27
519.62	444.70
519.79	430.66
519.96	418.96
520.14	376.83
520.31	470.45
520.48	433.00
520.65	435.34
520.83	472.79
521.00	430.66
521.17	451.72
521.34	407.25
521.52	386.19
521.69	440.02
521.86	395.55
522.03	332.36
522.20	393.21
522.38	376.83
522.55	468.11
522.72	390.87
522.89	369.80
523.07	486.83
523.24	423.64
523.41	421.30
523.58	411.93
523.75	407.25
523.92	430.66
524.10	402.57
524.27	397.89
524.44	402.57
524.61	451.72
524.78	428.32
524.96	456.40
525.13	367.46
525.30	451.72
525.47	411.93
525.64	418.96
525.81	400.23
525.98	489.17
526.16	381.51
526.33	395.55
526.50	458.74
526.67	344.06
526.84	388.53
527.01	379.17
527.18	416.62
527.36	409.59
527.53	442.36
527.70	409.59
527.87	449.38
528.04	440.02
528.21	435.34
528.38	449.38
528.55	376.83
528.72	395.55
528.89	397.89
529.07	477.47
529.24	430.66
529.41	428.32
529.58	430.66
529.75	393.21
529.92	477.47
530.09	451.72
530.26	416.62
530.43	379.17
530.60	489.17
530.77	404.91
530.94	433.00
531.11	444.70
531.28	444.70
531.46	355.76
531.63	454.06
531.80	463.43
531.97	421.30
532.14	360.44
532.31	393.21
532.48	416.62
532.65	447.04
532.82	402.57
532.99	491.51
533.16	372.15
533.33	381.51
533.50	400.23
533.67	414.27
533.84	421.30
534.01	423.64
534.18	470.45
534.35	454.06
534.52	440.02
534.69	386.19
534.86	374.49
535.03	418.96
535.20	425.98
535.37	465.77
535.54	388.53
535.71	365.12
535.88	400.23
536.05	383.85
536.22	440.02
536.38	353.42
536.55	423.64
536.72	461.09
536.89	418.96
537.06	447.04
537.23	482.15
537.40	435.34
537.57	433.00
537.74	454.06
537.91	435.34
538.08	416.62
538.25	458.74
538.42	365.12
538.59	437.68
538.75	411.93
538.92	393.21
539.09	510.24
539.26	423.64
539.43	411.93
539.60	461.09
539.77	400.23
539.94	428.32
540.11	365.12
540.28	447.04
540.44	353.42
540.61	365.12
540.78	313.63
540.95	367.46
541.12	442.36
541.29	433.00
541.46	465.77
541.62	404.91
541.79	440.02
541.96	416.62
542.13	461.09
542.30	330.02
542.47	402.57
542.63	428.32
542.80	393.21
542.97	409.59
543.14	355.76
543.31	400.23
543.48	449.38
543.64	433.00
543.81	449.38
543.98	374.49
544.15	430.66
544.32	454.06
544.48	461.09
544.65	409.59
544.82	400.23
544.99	440.02
545.16	475.13
545.32	437.68
545.49	416.62
545.66	362.78
545.83	423.64
546.00	440.02
546.16	386.19
546.33	435.34
546.50	428.32
546.67	482.15
546.83	500.87
547.00	456.40
547.17	435.34
547.34	367.46
547.50	435.34
547.67	465.77
547.84	409.59
548.00	411.93
548.17	428.32
548.34	365.12
548.51	393.21
548.67	423.64
548.84	463.43
549.01	456.40
549.18	404.91
549.34	430.66
549.51	461.09
549.68	390.87
549.84	388.53
550.01	376.83
550.18	458.74
550.34	512.58
550.51	409.59
550.68	458.74
550.84	393.21
551.01	449.38
551.18	444.70
551.34	409.59
551.51	496.19
551.68	402.57
551.84	423.64
552.01	376.83
552.18	447.04
552.34	388.53
552.51	440.02
552.68	514.92
552.84	386.19
553.01	416.62
553.18	409.59
553.34	337.04
553.51	393.21
553.67	416.62
553.84	468.11
554.01	365.12
554.17	407.25
554.34	402.57
554.51	376.83
554.67	430.66
554.84	374.49
555.00	393.21
555.17	472.79
555.33	440.02
555.50	470.45
555.67	437.68
555.83	355.76
556.00	470.45
556.16	566.41
556.33	475.13
556.50	442.36
556.66	428.32
556.83	397.89
556.99	454.06
557.16	451.72
557.32	423.64
557.49	447.04
557.65	393.21
557.82	374.49
557.98	477.47
558.15	409.59
558.32	447.04
558.48	393.21
558.65	355.76
558.81	379.17
558.98	379.17
559.14	367.46
559.31	421.30
559.47	484.49
559.64	372.15
559.80	402.57
559.97	421.30
560.13	351.08
560.30	386.19
560.46	351.08
560.63	376.83
560.79	355.76
560.96	402.57
561.12	451.72
561.29	493.85
561.45	428.32
561.61	390.87
561.78	440.02
561.94	433.00
562.11	533.64
562.27	395.55
562.44	458.74
562.60	372.15
562.77	440.02
562.93	456.40
563.10	416.62
563.26	433.00
563.42	470.45
563.59	386.19
563.75	379.17
563.92	454.06
564.08	402.57
564.24	383.85
564.41	491.51
564.57	353.42
564.74	444.70
564.90	400.23
565.07	374.49
565.23	433.00
565.39	435.34
565.56	346.40
565.72	425.98
565.88	430.66
566.05	339.38
566.21	411.93
566.38	402.57
566.54	407.25
566.70	393.21
566.87	435.34
567.03	447.04
567.19	454.06
567.36	428.32
567.52	421.30
567.68	456.40
567.85	421.30
568.01	470.45
568.17	402.57
568.34	447.04
568.50	458.74
568.66	423.64
568.83	418.96
568.99	423.64
569.15	449.38
569.32	418.96
569.48	489.17
569.64	475.13
569.81	449.38
569.97	374.49
570.13	477.47
570.30	442.36
570.46	421.30
570.62	381.51
570.78	416.62
570.95	428.32
571.11	463.43
571.27	496.19
571.43	411.93
571.60	465.77
571.76	435.34
571.92	444.70
572.09	447.04
572.25	465.77
572.41	451.72
572.57	496.19
572.74	418.96
572.90	496.19
573.06	425.98
573.22	388.53
573.38	486.83
573.55	444.70
573.71	400.23
573.87	404.91
574.03	437.68
574.20	376.83
574.36	372.15
574.52	442.36
574.68	430.66
574.84	444.70
575.01	493.85
575.17	374.49
575.33	411.93
575.49	479.81
575.65	416.62
575.82	440.02
575.98	500.87
576.14	376.83
576.30	425.98
576.46	435.34
576.62	475.13
576.79	472.79
576.95	447.04
577.11	442.36
577.27	402.57
577.43	418.96
577.59	397.89
577.75	475.13
577.92	346.40
578.08	411.93
578.24	381.51
578.40	379.17
578.56	414.27
578.72	435.34
578.88	407.25
579.04	407.25
579.21	411.93
579.37	400.23
579.53	421.30
579.69	482.15
579.85	433.00
580.01	383.85
580.17	447.04
580.33	447.04
580.49	430.66
580.65	437.68
580.82	418.96
580.98	437.68
581.14	388.53
581.30	421.30
581.46	435.34
581.62	437.68
581.78	390.87
581.94	369.80
582.10	376.83
582.26	442.36
582.42	393.21
582.58	402.57
582.74	428.32
582.90	461.09
583.06	360.44
583.22	353.42
583.38	402.57
583.54	395.55
583.70	444.70
583.86	395.55
584.02	425.98
584.18	435.34
584.34	416.62
584.50	421.30
584.66	414.27
584.82	395.55
584.98	486.83
585.14	449.38
585.30	404.91
585.46	397.89
585.62	332.36
585.78	421.30
585.94	416.62
586.10	355.76
586.26	362.78
586.42	425.98
586.58	444.70
586.74	341.72
586.90	395.55
587.06	430.66
587.22	372.15
587.38	407.25
587.54	386.19
587.70	402.57
587.86	421.30
588.02	468.11
588.18	407.25
588.34	470.45
588.49	409.59
588.65	447.04
588.81	395.55
588.97	437.68
589.13	360.44
589.29	421.30
589.45	397.89
589.61	395.55
589.77	430.66
589.93	454.06
590.08	348.74
590.24	390.87
590.40	393.21
590.56	454.06
590.72	414.27
590.88	465.77
591.04	393.21
591.20	414.27
591.35	517.26
591.51	430.66
591.67	409.59
591.83	447.04
591.99	400.23
592.15	425.98
592.31	421.30
592.46	397.89
592.62	461.09
592.78	376.83
592.94	421.30
593.10	376.83
593.26	402.57
593.41	479.81
593.57	433.00
593.73	369.80
593.89	390.87
594.05	390.87
594.20	416.62
594.36	430.66
594.52	360.44
594.68	407.25
594.84	397.89
594.99	425.98
595.15	362.78
595.31	395.55
595.47	486.83
595.62	442.36
595.78	428.32
595.94	430.66
596.10	390.87
596.25	407.25
596.41	395.55
596.57	372.15
596.73	379.17
596.88	383.85
597.04	423.64
597.20	395.55
597.36	479.81
597.51	423.64
597.67	414.27
597.83	355.76
597.99	395.55
598.14	388.53
598.30	402.57
598.46	442.36
598.61	465.77
598.77	360.44
598.93	369.80
599.09	402.57
599.24	458.74
599.40	334.70
599.56	386.19
599.71	421.30
599.87	479.81
600.03	348.74
600.18	416.62
600.34	489.17
600.50	381.51
600.65	334.70
600.81	461.09
600.97	447.04
601.12	379.17
601.28	470.45
601.44	397.89
601.59	404.91
601.75	428.32
601.91	465.77
602.06	447.04
602.22	456.40
602.37	369.80
602.53	454.06
602.69	421.30
602.84	358.10
603.00	388.53
603.16	468.11
603.31	449.38
603.47	454.06
603.62	442.36
603.78	388.53
603.94	414.27
604.09	381.51
604.25	423.64
604.40	409.59
604.56	409.59
604.71	435.34
604.87	470.45
605.03	393.21
605.18	491.51
605.34	425.98
605.49	409.59
605.65	386.19
605.80	404.91
605.96	411.93
606.12	430.66
606.27	425.98
606.43	393.21
606.58	416.62
606.74	397.89
606.89	383.85
607.05	409.59
607.20	437.68
607.36	447.04
607.51	519.60
607.67	433.00
607.82	428.32
607.98	440.02
608.13	440.02
608.29	440.02
608.44	444.70
608.60	454.06
608.75	477.47
608.91	386.19
609.06	379.17
609.22	386.19
609.37	386.19
609.53	348.74
609.68	381.51
609.84	421.30
609.99	430.66
610.15	435.34
