SpectraSuite Data File
++++++++++++++++++++++++++++++++++++
Date: Fri Oct 25 12:10:32 EDT 2013
User: price-jones
Dark Spectrum Present: No
Reference Spectrum Present: No
Number of Sampled Component Spectra: 1
Spectrometers: USB2+H05261
Integration Time (usec): 100000 (USB2+H05261)
Spectra Averaged: 1 (USB2+H05261)
Boxcar Smoothing: 0 (USB2+H05261)
Correct for Electrical Dark: No (USB2+H05261)
Strobe/Lamp Enabled: No (USB2+H05261)
Correct for Detector Non-linearity: No (USB2+H05261)
Correct for Stray Light: No (USB2+H05261)
Number of Pixels in Processed Spectrum: 2048
>>>>>Begin Processed Spectral Data<<<<<
365.73	409.59
365.92	409.59
366.12	409.59
366.32	269.16
366.52	318.31
366.72	243.42
366.91	299.59
367.11	241.08
367.31	182.56
367.51	252.78
367.70	243.42
367.90	264.48
368.10	222.35
368.30	243.42
368.49	255.12
368.69	337.04
368.89	238.73
369.09	231.71
369.28	252.78
369.48	327.68
369.68	262.14
369.87	320.65
370.07	301.93
370.27	325.33
370.47	381.51
370.66	327.68
370.86	339.38
371.06	381.51
371.25	360.44
371.45	390.87
371.65	388.53
371.84	353.42
372.04	423.64
372.24	397.89
372.44	465.77
372.63	395.55
372.83	402.57
373.03	397.89
373.22	339.38
373.42	332.36
373.62	433.00
373.81	475.13
374.01	390.87
374.21	390.87
374.40	416.62
374.60	409.59
374.79	402.57
374.99	477.47
375.19	360.44
375.38	449.38
375.58	470.45
375.78	418.96
375.97	355.76
376.17	433.00
376.37	418.96
376.56	428.32
376.76	372.15
376.95	437.68
377.15	430.66
377.35	472.79
377.54	404.91
377.74	374.49
377.93	421.30
378.13	498.53
378.33	390.87
378.52	386.19
378.72	458.74
378.91	390.87
379.11	440.02
379.31	386.19
379.50	397.89
379.70	376.83
379.89	482.15
380.09	400.23
380.28	348.74
380.48	374.49
380.68	346.40
380.87	369.80
381.07	411.93
381.26	463.43
381.46	442.36
381.65	447.04
381.85	400.23
382.04	444.70
382.24	418.96
382.43	447.04
382.63	423.64
382.83	437.68
383.02	479.81
383.22	421.30
383.41	388.53
383.61	447.04
383.80	470.45
384.00	362.78
384.19	341.72
384.39	386.19
384.58	489.17
384.78	454.06
384.97	458.74
385.17	451.72
385.36	332.36
385.56	411.93
385.75	437.68
385.95	470.45
386.14	421.30
386.34	407.25
386.53	334.70
386.72	362.78
386.92	411.93
387.11	449.38
387.31	330.02
387.50	414.27
387.70	383.85
387.89	383.85
388.09	411.93
388.28	379.17
388.48	397.89
388.67	440.02
388.86	372.15
389.06	348.74
389.25	437.68
389.45	477.47
389.64	369.80
389.84	461.09
390.03	390.87
390.22	397.89
390.42	393.21
390.61	435.34
390.81	416.62
391.00	365.12
391.19	404.91
391.39	440.02
391.58	355.76
391.78	407.25
391.97	379.17
392.16	421.30
392.36	383.85
392.55	447.04
392.75	390.87
392.94	437.68
393.13	376.83
393.33	379.17
393.52	423.64
393.71	381.51
393.91	402.57
394.10	376.83
394.29	397.89
394.49	402.57
394.68	428.32
394.88	435.34
395.07	404.91
395.26	411.93
395.46	425.98
395.65	332.36
395.84	423.64
396.04	519.60
396.23	365.12
396.42	421.30
396.62	402.57
396.81	433.00
397.00	437.68
397.19	425.98
397.39	430.66
397.58	402.57
397.77	454.06
397.97	402.57
398.16	362.78
398.35	411.93
398.55	404.91
398.74	390.87
398.93	524.28
399.12	402.57
399.32	493.85
399.51	425.98
399.70	428.32
399.90	416.62
400.09	428.32
400.28	484.49
400.47	397.89
400.67	411.93
400.86	397.89
401.05	411.93
401.24	376.83
401.44	435.34
401.63	437.68
401.82	390.87
402.01	433.00
402.21	423.64
402.40	425.98
402.59	435.34
402.78	428.32
402.97	376.83
403.17	383.85
403.36	393.21
403.55	437.68
403.74	393.21
403.93	425.98
404.13	482.15
404.32	442.36
404.51	390.87
404.70	393.21
404.89	425.98
405.09	372.15
405.28	461.09
405.47	402.57
405.66	428.32
405.85	451.72
406.05	388.53
406.24	510.24
406.43	409.59
406.62	472.79
406.81	470.45
407.00	411.93
407.20	430.66
407.39	355.76
407.58	362.78
407.77	376.83
407.96	458.74
408.15	435.34
408.34	430.66
408.54	374.49
408.73	388.53
408.92	383.85
409.11	372.15
409.30	430.66
409.49	414.27
409.68	451.72
409.87	376.83
410.07	393.21
410.26	411.93
410.45	416.62
410.64	395.55
410.83	428.32
411.02	360.44
411.21	454.06
411.40	458.74
411.59	388.53
411.78	411.93
411.98	440.02
412.17	404.91
412.36	374.49
412.55	423.64
412.74	390.87
412.93	444.70
413.12	383.85
413.31	411.93
413.50	393.21
413.69	437.68
413.88	416.62
414.07	423.64
414.26	381.51
414.45	362.78
414.64	400.23
414.83	454.06
415.02	421.30
415.22	393.21
415.41	411.93
415.60	397.89
415.79	463.43
415.98	416.62
416.17	395.55
416.36	365.12
416.55	470.45
416.74	400.23
416.93	430.66
417.12	477.47
417.31	409.59
417.50	433.00
417.69	358.10
417.88	390.87
418.07	379.17
418.26	425.98
418.45	433.00
418.64	433.00
418.83	367.46
419.02	390.87
419.21	348.74
419.39	440.02
419.58	435.34
419.77	355.76
419.96	397.89
420.15	484.49
420.34	397.89
420.53	365.12
420.72	461.09
420.91	458.74
421.10	397.89
421.29	430.66
421.48	433.00
421.67	365.12
421.86	418.96
422.05	440.02
422.24	390.87
422.43	362.78
422.61	381.51
422.80	376.83
422.99	430.66
423.18	430.66
423.37	430.66
423.56	440.02
423.75	449.38
423.94	362.78
424.13	365.12
424.32	379.17
424.50	477.47
424.69	479.81
424.88	414.27
425.07	451.72
425.26	334.70
425.45	379.17
425.64	390.87
425.83	440.02
426.01	428.32
426.20	386.19
426.39	461.09
426.58	395.55
426.77	397.89
426.96	472.79
427.15	386.19
427.33	404.91
427.52	395.55
427.71	390.87
427.90	418.96
428.09	409.59
428.28	351.08
428.46	477.47
428.65	468.11
428.84	416.62
429.03	395.55
429.22	411.93
429.40	390.87
429.59	325.33
429.78	442.36
429.97	440.02
430.16	428.32
430.34	433.00
430.53	325.33
430.72	400.23
430.91	355.76
431.10	400.23
431.28	435.34
431.47	348.74
431.66	442.36
431.85	414.27
432.03	390.87
432.22	374.49
432.41	407.25
432.60	414.27
432.79	407.25
432.97	451.72
433.16	358.10
433.35	416.62
433.54	365.12
433.72	447.04
433.91	465.77
434.10	428.32
434.28	360.44
434.47	400.23
434.66	458.74
434.85	430.66
435.03	500.87
435.22	479.81
435.41	468.11
435.59	388.53
435.78	421.30
435.97	416.62
436.16	409.59
436.34	468.11
436.53	458.74
436.72	411.93
436.90	437.68
437.09	376.83
437.28	414.27
437.46	449.38
437.65	418.96
437.84	397.89
438.02	416.62
438.21	402.57
438.40	465.77
438.58	416.62
438.77	397.89
438.96	449.38
439.14	369.80
439.33	433.00
439.52	416.62
439.70	369.80
439.89	388.53
440.08	381.51
440.26	435.34
440.45	397.89
440.63	407.25
440.82	358.10
441.01	388.53
441.19	454.06
441.38	430.66
441.57	395.55
441.75	388.53
441.94	341.72
442.12	430.66
442.31	376.83
442.50	411.93
442.68	369.80
442.87	402.57
443.05	437.68
443.24	428.32
443.43	489.17
443.61	402.57
443.80	374.49
443.98	407.25
444.17	430.66
444.35	414.27
444.54	390.87
444.73	475.13
444.91	435.34
445.10	451.72
445.28	395.55
445.47	332.36
445.65	383.85
445.84	400.23
446.02	318.31
446.21	416.62
446.39	416.62
446.58	442.36
446.77	409.59
446.95	395.55
447.14	421.30
447.32	428.32
447.51	437.68
447.69	437.68
447.88	433.00
448.06	482.15
448.25	397.89
448.43	407.25
448.62	383.85
448.80	444.70
448.99	367.46
449.17	430.66
449.36	449.38
449.54	428.32
449.73	388.53
449.91	395.55
450.10	414.27
450.28	451.72
450.46	433.00
450.65	409.59
450.83	402.57
451.02	409.59
451.20	451.72
451.39	433.00
451.57	524.28
451.76	383.85
451.94	404.91
452.13	423.64
452.31	374.49
452.49	423.64
452.68	388.53
452.86	425.98
453.05	444.70
453.23	416.62
453.42	402.57
453.60	411.93
453.78	435.34
453.97	456.40
454.15	479.81
454.34	463.43
454.52	404.91
454.70	442.36
454.89	465.77
455.07	411.93
455.26	372.15
455.44	372.15
455.62	397.89
455.81	451.72
455.99	416.62
456.17	444.70
456.36	388.53
456.54	465.77
456.73	423.64
456.91	393.21
457.09	411.93
457.28	454.06
457.46	386.19
457.64	456.40
457.83	348.74
458.01	362.78
458.19	395.55
458.38	381.51
458.56	369.80
458.74	437.68
458.93	479.81
459.11	423.64
459.29	360.44
459.48	472.79
459.66	456.40
459.84	465.77
460.03	557.05
460.21	482.15
460.39	404.91
460.57	454.06
460.76	442.36
460.94	421.30
461.12	388.53
461.31	425.98
461.49	461.09
461.67	428.32
461.85	458.74
462.04	322.99
462.22	805.14
462.40	407.25
462.59	348.74
462.77	390.87
462.95	418.96
463.13	358.10
463.32	367.46
463.50	451.72
463.68	449.38
463.86	418.96
464.05	388.53
464.23	433.00
464.41	456.40
464.59	416.62
464.78	475.13
464.96	435.34
465.14	334.70
465.32	456.40
465.50	376.83
465.69	437.68
465.87	437.68
466.05	388.53
466.23	369.80
466.41	444.70
466.60	379.17
466.78	374.49
466.96	465.77
467.14	423.64
467.32	440.02
467.51	461.09
467.69	475.13
467.87	444.70
468.05	468.11
468.23	440.02
468.41	372.15
468.60	393.21
468.78	465.77
468.96	409.59
469.14	425.98
469.32	355.76
469.50	416.62
469.69	444.70
469.87	418.96
470.05	402.57
470.23	500.87
470.41	386.19
470.59	402.57
470.77	444.70
470.95	360.44
471.14	383.85
471.32	355.76
471.50	463.43
471.68	475.13
471.86	428.32
472.04	470.45
472.22	374.49
472.40	400.23
472.58	477.47
472.77	414.27
472.95	435.34
473.13	449.38
473.31	393.21
473.49	465.77
473.67	437.68
473.85	507.90
474.03	428.32
474.21	416.62
474.39	428.32
474.57	386.19
474.75	463.43
474.93	430.66
475.12	475.13
475.30	414.27
475.48	351.08
475.66	404.91
475.84	465.77
476.02	423.64
476.20	428.32
476.38	423.64
476.56	486.83
476.74	423.64
476.92	454.06
477.10	383.85
477.28	395.55
477.46	489.17
477.64	444.70
477.82	334.70
478.00	411.93
478.18	447.04
478.36	369.80
478.54	381.51
478.72	416.62
478.90	442.36
479.08	444.70
479.26	425.98
479.44	400.23
479.62	454.06
479.80	390.87
479.98	414.27
480.16	360.44
480.34	372.15
480.52	386.19
480.70	404.91
480.88	416.62
481.06	423.64
481.24	397.89
481.41	435.34
481.59	402.57
481.77	477.47
481.95	404.91
482.13	365.12
482.31	496.19
482.49	341.72
482.67	400.23
482.85	444.70
483.03	430.66
483.21	353.42
483.39	362.78
483.57	388.53
483.74	365.12
483.92	400.23
484.10	447.04
484.28	409.59
484.46	444.70
484.64	400.23
484.82	461.09
485.00	404.91
485.18	425.98
485.35	482.15
485.53	381.51
485.71	414.27
485.89	355.76
486.07	407.25
486.25	521.94
486.43	395.55
486.61	425.98
486.78	477.47
486.96	482.15
487.14	435.34
487.32	414.27
487.50	425.98
487.68	435.34
487.85	428.32
488.03	362.78
488.21	465.77
488.39	393.21
488.57	461.09
488.75	355.76
488.92	519.60
489.10	418.96
489.28	454.06
489.46	421.30
489.64	397.89
489.81	437.68
489.99	395.55
490.17	416.62
490.35	470.45
490.53	418.96
490.70	425.98
490.88	442.36
491.06	411.93
491.24	456.40
491.41	430.66
491.59	339.38
491.77	400.23
491.95	332.36
492.13	393.21
492.30	449.38
492.48	423.64
492.66	388.53
492.84	409.59
493.01	400.23
493.19	435.34
493.37	447.04
493.54	362.78
493.72	386.19
493.90	402.57
494.08	390.87
494.25	395.55
494.43	463.43
494.61	379.17
494.79	383.85
494.96	402.57
495.14	475.13
495.32	444.70
495.49	379.17
495.67	498.53
495.85	381.51
496.02	397.89
496.20	472.79
496.38	435.34
496.55	409.59
496.73	416.62
496.91	444.70
497.09	402.57
497.26	393.21
497.44	369.80
497.62	360.44
497.79	360.44
497.97	423.64
498.14	344.06
498.32	397.89
498.50	458.74
498.67	411.93
498.85	418.96
499.03	341.72
499.20	397.89
499.38	404.91
499.56	461.09
499.73	468.11
499.91	425.98
500.08	369.80
500.26	407.25
500.44	425.98
500.61	482.15
500.79	458.74
500.97	414.27
501.14	386.19
501.32	425.98
501.49	477.47
501.67	376.83
501.84	393.21
502.02	425.98
502.20	456.40
502.37	433.00
502.55	430.66
502.72	486.83
502.90	365.12
503.07	402.57
503.25	341.72
503.43	397.89
503.60	489.17
503.78	411.93
503.95	461.09
504.13	337.04
504.30	414.27
504.48	440.02
504.65	428.32
504.83	423.64
505.01	400.23
505.18	397.89
505.36	332.36
505.53	374.49
505.71	393.21
505.88	393.21
506.06	362.78
506.23	407.25
506.41	383.85
506.58	442.36
506.76	425.98
506.93	435.34
507.11	400.23
507.28	400.23
507.46	428.32
507.63	470.45
507.81	383.85
507.98	465.77
508.16	433.00
508.33	374.49
508.50	386.19
508.68	351.08
508.85	442.36
509.03	383.85
509.20	444.70
509.38	451.72
509.55	444.70
509.73	442.36
509.90	430.66
510.08	437.68
510.25	353.42
510.42	407.25
510.60	425.98
510.77	433.00
510.95	395.55
511.12	418.96
511.30	386.19
511.47	437.68
511.64	468.11
511.82	411.93
511.99	351.08
512.17	425.98
512.34	428.32
512.51	425.98
512.69	404.91
512.86	444.70
513.04	285.55
513.21	376.83
513.38	376.83
513.56	475.13
513.73	463.43
513.90	425.98
514.08	400.23
514.25	379.17
514.43	402.57
514.60	442.36
514.77	449.38
514.95	428.32
515.12	461.09
515.29	404.91
515.47	430.66
515.64	430.66
515.81	381.51
515.99	383.85
516.16	440.02
516.33	440.02
516.51	404.91
516.68	433.00
516.85	397.89
517.03	397.89
517.20	395.55
517.37	449.38
517.54	362.78
517.72	374.49
517.89	339.38
518.06	444.70
518.24	463.43
518.41	442.36
518.58	491.51
518.75	528.96
518.93	416.62
519.10	390.87
519.27	383.85
519.45	383.85
519.62	444.70
519.79	451.72
519.96	362.78
520.14	486.83
520.31	318.31
520.48	454.06
520.65	388.53
520.83	430.66
521.00	470.45
521.17	470.45
521.34	397.89
521.52	444.70
521.69	456.40
521.86	472.79
522.03	430.66
522.20	383.85
522.38	421.30
522.55	407.25
522.72	390.87
522.89	423.64
523.07	449.38
523.24	397.89
523.41	437.68
523.58	451.72
523.75	442.36
523.92	470.45
524.10	442.36
524.27	411.93
524.44	458.74
524.61	414.27
524.78	409.59
524.96	451.72
525.13	397.89
525.30	400.23
525.47	414.27
525.64	346.40
525.81	339.38
525.98	383.85
526.16	388.53
526.33	440.02
526.50	402.57
526.67	376.83
526.84	404.91
527.01	447.04
527.18	440.02
527.36	390.87
527.53	395.55
527.70	362.78
527.87	437.68
528.04	512.58
528.21	372.15
528.38	355.76
528.55	440.02
528.72	428.32
528.89	447.04
529.07	461.09
529.24	418.96
529.41	449.38
529.58	435.34
529.75	411.93
529.92	400.23
530.09	360.44
530.26	425.98
530.43	423.64
530.60	442.36
530.77	479.81
530.94	451.72
531.11	407.25
531.28	362.78
531.46	414.27
531.63	461.09
531.80	397.89
531.97	435.34
532.14	409.59
532.31	360.44
532.48	437.68
532.65	402.57
532.82	372.15
532.99	416.62
533.16	484.49
533.33	444.70
533.50	482.15
533.67	393.21
533.84	369.80
534.01	475.13
534.18	428.32
534.35	390.87
534.52	451.72
534.69	407.25
534.86	395.55
535.03	397.89
535.20	447.04
535.37	470.45
535.54	416.62
535.71	393.21
535.88	444.70
536.05	423.64
536.22	486.83
536.38	320.65
536.55	390.87
536.72	409.59
536.89	475.13
537.06	444.70
537.23	376.83
537.40	409.59
537.57	388.53
537.74	458.74
537.91	430.66
538.08	423.64
538.25	388.53
538.42	428.32
538.59	407.25
538.75	472.79
538.92	521.94
539.09	425.98
539.26	393.21
539.43	418.96
539.60	369.80
539.77	353.42
539.94	437.68
540.11	393.21
540.28	491.51
540.44	458.74
540.61	390.87
540.78	407.25
540.95	414.27
541.12	444.70
541.29	449.38
541.46	463.43
541.62	409.59
541.79	327.68
541.96	397.89
542.13	402.57
542.30	365.12
542.47	393.21
542.63	409.59
542.80	390.87
542.97	454.06
543.14	388.53
543.31	411.93
543.48	367.46
543.64	397.89
543.81	404.91
543.98	351.08
544.15	433.00
544.32	320.65
544.48	465.77
544.65	390.87
544.82	383.85
544.99	362.78
545.16	404.91
545.32	435.34
545.49	514.92
545.66	433.00
545.83	402.57
546.00	327.68
546.16	416.62
546.33	428.32
546.50	402.57
546.67	402.57
546.83	498.53
547.00	472.79
547.17	390.87
547.34	365.12
547.50	337.04
547.67	381.51
547.84	393.21
548.00	456.40
548.17	402.57
548.34	470.45
548.51	458.74
548.67	449.38
548.84	447.04
549.01	386.19
549.18	407.25
549.34	425.98
549.51	388.53
549.68	435.34
549.84	409.59
550.01	447.04
550.18	430.66
550.34	472.79
550.51	486.83
550.68	442.36
550.84	376.83
551.01	414.27
551.18	411.93
551.34	472.79
551.51	358.10
551.68	451.72
551.84	444.70
552.01	507.90
552.18	402.57
552.34	425.98
552.51	353.42
552.68	423.64
552.84	489.17
553.01	440.02
553.18	407.25
553.34	346.40
553.51	421.30
553.67	339.38
553.84	465.77
554.01	458.74
554.17	465.77
554.34	463.43
554.51	430.66
554.67	454.06
554.84	404.91
555.00	442.36
555.17	404.91
555.33	400.23
555.50	423.64
555.67	388.53
555.83	470.45
556.00	475.13
556.16	571.09
556.33	454.06
556.50	400.23
556.66	362.78
556.83	498.53
556.99	421.30
557.16	425.98
557.32	435.34
557.49	407.25
557.65	365.12
557.82	428.32
557.98	430.66
558.15	393.21
558.32	465.77
558.48	456.40
558.65	437.68
558.81	458.74
558.98	454.06
559.14	482.15
559.31	416.62
559.47	493.85
559.64	346.40
559.80	297.25
559.97	414.27
560.13	402.57
560.30	421.30
560.46	386.19
560.63	325.33
560.79	484.49
560.96	428.32
561.12	393.21
561.29	437.68
561.45	472.79
561.61	440.02
561.78	484.49
561.94	463.43
562.11	416.62
562.27	369.80
562.44	379.17
562.60	414.27
562.77	411.93
562.93	376.83
563.10	411.93
563.26	444.70
563.42	416.62
563.59	358.10
563.75	416.62
563.92	433.00
564.08	404.91
564.24	383.85
564.41	402.57
564.57	395.55
564.74	437.68
564.90	348.74
565.07	381.51
565.23	456.40
565.39	386.19
565.56	393.21
565.72	386.19
565.88	435.34
566.05	463.43
566.21	423.64
566.38	376.83
566.54	433.00
566.70	355.76
566.87	411.93
567.03	381.51
567.19	416.62
567.36	447.04
567.52	458.74
567.68	362.78
567.85	374.49
568.01	395.55
568.17	386.19
568.34	386.19
568.50	465.77
568.66	421.30
568.83	451.72
568.99	353.42
569.15	482.15
569.32	386.19
569.48	451.72
569.64	435.34
569.81	418.96
569.97	421.30
570.13	437.68
570.30	425.98
570.46	451.72
570.62	496.19
570.78	465.77
570.95	315.97
571.11	433.00
571.27	428.32
571.43	416.62
571.60	388.53
571.76	393.21
571.92	491.51
572.09	400.23
572.25	449.38
572.41	430.66
572.57	311.29
572.74	461.09
572.90	393.21
573.06	341.72
573.22	421.30
573.38	454.06
573.55	409.59
573.71	463.43
573.87	393.21
574.03	348.74
574.20	390.87
574.36	479.81
574.52	423.64
574.68	486.83
574.84	383.85
575.01	435.34
575.17	409.59
575.33	414.27
575.49	348.74
575.65	484.49
575.82	395.55
575.98	456.40
576.14	414.27
576.30	440.02
576.46	414.27
576.62	416.62
576.79	414.27
576.95	454.06
577.11	418.96
577.27	407.25
577.43	456.40
577.59	454.06
577.75	435.34
577.92	454.06
578.08	468.11
578.24	386.19
578.40	493.85
578.56	461.09
578.72	433.00
578.88	390.87
579.04	369.80
579.21	472.79
579.37	383.85
579.53	376.83
579.69	421.30
579.85	414.27
580.01	390.87
580.17	386.19
580.33	402.57
580.49	381.51
580.65	498.53
580.82	351.08
580.98	411.93
581.14	390.87
581.30	477.47
581.46	510.24
581.62	402.57
581.78	376.83
581.94	414.27
582.10	416.62
582.26	362.78
582.42	395.55
582.58	475.13
582.74	421.30
582.90	454.06
583.06	442.36
583.22	428.32
583.38	418.96
583.54	365.12
583.70	404.91
583.86	421.30
584.02	465.77
584.18	383.85
584.34	402.57
584.50	365.12
584.66	376.83
584.82	423.64
584.98	379.17
585.14	421.30
585.30	414.27
585.46	423.64
585.62	411.93
585.78	433.00
585.94	475.13
586.10	414.27
586.26	430.66
586.42	430.66
586.58	421.30
586.74	433.00
586.90	362.78
587.06	376.83
587.22	322.99
587.38	327.68
587.54	360.44
587.70	465.77
587.86	468.11
588.02	346.40
588.18	397.89
588.34	416.62
588.49	402.57
588.65	437.68
588.81	484.49
588.97	355.76
589.13	414.27
589.29	414.27
589.45	418.96
589.61	440.02
589.77	454.06
589.93	491.51
590.08	425.98
590.24	442.36
590.40	390.87
590.56	465.77
590.72	404.91
590.88	383.85
591.04	367.46
591.20	423.64
591.35	430.66
591.51	400.23
591.67	386.19
591.83	383.85
591.99	458.74
592.15	367.46
592.31	447.04
592.46	414.27
592.62	381.51
592.78	454.06
592.94	435.34
593.10	423.64
593.26	416.62
593.41	423.64
593.57	400.23
593.73	381.51
593.89	402.57
594.05	468.11
594.20	397.89
594.36	433.00
594.52	369.80
594.68	428.32
594.84	409.59
594.99	409.59
595.15	383.85
595.31	423.64
595.47	388.53
595.62	386.19
595.78	458.74
595.94	524.28
596.10	428.32
596.25	447.04
596.41	421.30
596.57	383.85
596.73	430.66
596.88	407.25
597.04	447.04
597.20	402.57
597.36	486.83
597.51	414.27
597.67	437.68
597.83	479.81
597.99	425.98
598.14	496.19
598.30	425.98
598.46	437.68
598.61	472.79
598.77	440.02
598.93	421.30
599.09	404.91
599.24	447.04
599.40	456.40
599.56	320.65
599.71	433.00
599.87	447.04
600.03	414.27
600.18	409.59
600.34	416.62
600.50	479.81
600.65	376.83
600.81	430.66
600.97	475.13
601.12	341.72
601.28	454.06
601.44	442.36
601.59	376.83
601.75	397.89
601.91	449.38
602.06	496.19
602.22	486.83
602.37	430.66
602.53	374.49
602.69	383.85
602.84	393.21
603.00	461.09
603.16	404.91
603.31	517.26
603.47	421.30
603.62	393.21
603.78	379.17
603.94	393.21
604.09	442.36
604.25	437.68
604.40	435.34
604.56	440.02
604.71	433.00
604.87	397.89
605.03	435.34
605.18	390.87
605.34	428.32
605.49	411.93
605.65	461.09
605.80	416.62
605.96	423.64
606.12	486.83
606.27	372.15
606.43	482.15
606.58	414.27
606.74	479.81
606.89	451.72
607.05	414.27
607.20	451.72
607.36	376.83
607.51	423.64
607.67	442.36
607.82	351.08
607.98	433.00
608.13	409.59
608.29	397.89
608.44	425.98
608.60	524.28
608.75	496.19
608.91	437.68
609.06	454.06
609.22	407.25
609.37	423.64
609.53	395.55
609.68	442.36
609.84	393.21
609.99	372.15
610.15	496.19
