SpectraSuite Data File
++++++++++++++++++++++++++++++++++++
Date: Fri Oct 25 12:11:01 EDT 2013
User: price-jones
Dark Spectrum Present: No
Reference Spectrum Present: No
Number of Sampled Component Spectra: 1
Spectrometers: USB2+H05261
Integration Time (usec): 100000 (USB2+H05261)
Spectra Averaged: 1 (USB2+H05261)
Boxcar Smoothing: 0 (USB2+H05261)
Correct for Electrical Dark: No (USB2+H05261)
Strobe/Lamp Enabled: No (USB2+H05261)
Correct for Detector Non-linearity: No (USB2+H05261)
Correct for Stray Light: No (USB2+H05261)
Number of Pixels in Processed Spectrum: 2048
>>>>>Begin Processed Spectral Data<<<<<
365.73	264.48
365.92	264.48
366.12	264.48
366.32	243.42
366.52	245.76
366.72	187.24
366.91	278.52
367.11	255.12
367.31	215.33
367.51	273.84
367.70	248.10
367.90	220.01
368.10	224.69
368.30	248.10
368.49	210.65
368.69	280.86
368.89	241.08
369.09	222.35
369.28	231.71
369.48	252.78
369.68	248.10
369.87	313.63
370.07	358.10
370.27	318.31
370.47	287.89
370.66	290.23
370.86	372.15
371.06	334.70
371.25	362.78
371.45	318.31
371.65	397.89
371.84	327.68
372.04	423.64
372.24	374.49
372.44	393.21
372.63	334.70
372.83	449.38
373.03	451.72
373.22	470.45
373.42	411.93
373.62	393.21
373.81	428.32
374.01	381.51
374.21	451.72
374.40	440.02
374.60	407.25
374.79	425.98
374.99	489.17
375.19	416.62
375.38	449.38
375.58	379.17
375.78	505.56
375.97	449.38
376.17	510.24
376.37	470.45
376.56	411.93
376.76	344.06
376.95	369.80
377.15	393.21
377.35	395.55
377.54	428.32
377.74	322.99
377.93	365.12
378.13	339.38
378.33	351.08
378.52	322.99
378.72	423.64
378.91	393.21
379.11	376.83
379.31	353.42
379.50	393.21
379.70	503.22
379.89	372.15
380.09	346.40
380.28	386.19
380.48	369.80
380.68	411.93
380.87	388.53
381.07	456.40
381.26	414.27
381.46	414.27
381.65	402.57
381.85	362.78
382.04	374.49
382.24	449.38
382.43	379.17
382.63	409.59
382.83	449.38
383.02	411.93
383.22	386.19
383.41	358.10
383.61	400.23
383.80	348.74
384.00	444.70
384.19	407.25
384.39	430.66
384.58	414.27
384.78	369.80
384.97	421.30
385.17	411.93
385.36	416.62
385.56	425.98
385.75	369.80
385.95	402.57
386.14	437.68
386.34	416.62
386.53	454.06
386.72	428.32
386.92	395.55
387.11	367.46
387.31	433.00
387.50	416.62
387.70	344.06
387.89	369.80
388.09	425.98
388.28	367.46
388.48	348.74
388.67	430.66
388.86	346.40
389.06	397.89
389.25	362.78
389.45	425.98
389.64	433.00
389.84	486.83
390.03	374.49
390.22	404.91
390.42	430.66
390.61	407.25
390.81	348.74
391.00	402.57
391.19	386.19
391.39	409.59
391.58	421.30
391.78	442.36
391.97	442.36
392.16	404.91
392.36	428.32
392.55	489.17
392.75	425.98
392.94	442.36
393.13	472.79
393.33	402.57
393.52	404.91
393.71	472.79
393.91	386.19
394.10	367.46
394.29	400.23
394.49	372.15
394.68	372.15
394.88	447.04
395.07	355.76
395.26	416.62
395.46	414.27
395.65	407.25
395.84	381.51
396.04	425.98
396.23	355.76
396.42	318.31
396.62	393.21
396.81	334.70
397.00	440.02
397.19	440.02
397.39	402.57
397.58	409.59
397.77	369.80
397.97	353.42
398.16	440.02
398.35	400.23
398.55	416.62
398.74	379.17
398.93	425.98
399.12	351.08
399.32	486.83
399.51	421.30
399.70	479.81
399.90	433.00
400.09	383.85
400.28	346.40
400.47	379.17
400.67	397.89
400.86	418.96
401.05	376.83
401.24	393.21
401.44	409.59
401.63	409.59
401.82	447.04
402.01	407.25
402.21	388.53
402.40	449.38
402.59	430.66
402.78	470.45
402.97	449.38
403.17	395.55
403.36	400.23
403.55	421.30
403.74	369.80
403.93	442.36
404.13	372.15
404.32	404.91
404.51	402.57
404.70	423.64
404.89	400.23
405.09	456.40
405.28	435.34
405.47	397.89
405.66	379.17
405.85	407.25
406.05	447.04
406.24	407.25
406.43	388.53
406.62	374.49
406.81	465.77
407.00	390.87
407.20	397.89
407.39	440.02
407.58	435.34
407.77	489.17
407.96	449.38
408.15	358.10
408.34	423.64
408.54	456.40
408.73	339.38
408.92	461.09
409.11	395.55
409.30	388.53
409.49	379.17
409.68	393.21
409.87	418.96
410.07	376.83
410.26	435.34
410.45	416.62
410.64	437.68
410.83	454.06
411.02	414.27
411.21	407.25
411.40	435.34
411.59	397.89
411.78	369.80
411.98	383.85
412.17	388.53
412.36	367.46
412.55	397.89
412.74	442.36
412.93	479.81
413.12	409.59
413.31	365.12
413.50	379.17
413.69	433.00
413.88	491.51
414.07	393.21
414.26	423.64
414.45	348.74
414.64	425.98
414.83	402.57
415.02	454.06
415.22	367.46
415.41	409.59
415.60	358.10
415.79	433.00
415.98	423.64
416.17	447.04
416.36	374.49
416.55	355.76
416.74	395.55
416.93	397.89
417.12	447.04
417.31	395.55
417.50	447.04
417.69	421.30
417.88	395.55
418.07	433.00
418.26	379.17
418.45	444.70
418.64	386.19
418.83	308.95
419.02	435.34
419.21	402.57
419.39	365.12
419.58	367.46
419.77	400.23
419.96	444.70
420.15	416.62
420.34	421.30
420.53	440.02
420.72	463.43
420.91	386.19
421.10	470.45
421.29	440.02
421.48	383.85
421.67	435.34
421.86	440.02
422.05	423.64
422.24	470.45
422.43	456.40
422.61	409.59
422.80	353.42
422.99	407.25
423.18	372.15
423.37	402.57
423.56	433.00
423.75	386.19
423.94	414.27
424.13	369.80
424.32	421.30
424.50	395.55
424.69	327.68
424.88	463.43
425.07	447.04
425.26	409.59
425.45	433.00
425.64	358.10
425.83	393.21
426.01	390.87
426.20	418.96
426.39	423.64
426.58	376.83
426.77	372.15
426.96	397.89
427.15	372.15
427.33	449.38
427.52	425.98
427.71	367.46
427.90	376.83
428.09	428.32
428.28	428.32
428.46	411.93
428.65	418.96
428.84	393.21
429.03	409.59
429.22	402.57
429.40	496.19
429.59	440.02
429.78	407.25
429.97	421.30
430.16	421.30
430.34	390.87
430.53	397.89
430.72	374.49
430.91	496.19
431.10	334.70
431.28	465.77
431.47	493.85
431.66	451.72
431.85	458.74
432.03	407.25
432.22	456.40
432.41	402.57
432.60	409.59
432.79	388.53
432.97	416.62
433.16	484.49
433.35	386.19
433.54	475.13
433.72	411.93
433.91	386.19
434.10	383.85
434.28	435.34
434.47	479.81
434.66	465.77
434.85	395.55
435.03	381.51
435.22	404.91
435.41	437.68
435.59	411.93
435.78	393.21
435.97	461.09
436.16	397.89
436.34	449.38
436.53	395.55
436.72	433.00
436.90	395.55
437.09	437.68
437.28	395.55
437.46	383.85
437.65	393.21
437.84	458.74
438.02	367.46
438.21	397.89
438.40	388.53
438.58	395.55
438.77	400.23
438.96	428.32
439.14	372.15
439.33	440.02
439.52	421.30
439.70	435.34
439.89	433.00
440.08	463.43
440.26	454.06
440.45	444.70
440.63	430.66
440.82	444.70
441.01	416.62
441.19	423.64
441.38	367.46
441.57	395.55
441.75	472.79
441.94	379.17
442.12	437.68
442.31	374.49
442.50	411.93
442.68	414.27
442.87	418.96
443.05	348.74
443.24	400.23
443.43	437.68
443.61	425.98
443.80	409.59
443.98	418.96
444.17	414.27
444.35	456.40
444.54	308.95
444.73	472.79
444.91	491.51
445.10	486.83
445.28	397.89
445.47	395.55
445.65	376.83
445.84	461.09
446.02	433.00
446.21	348.74
446.39	348.74
446.58	454.06
446.77	395.55
446.95	376.83
447.14	397.89
447.32	440.02
447.51	400.23
447.69	369.80
447.88	402.57
448.06	470.45
448.25	493.85
448.43	369.80
448.62	404.91
448.80	404.91
448.99	400.23
449.17	351.08
449.36	444.70
449.54	423.64
449.73	425.98
449.91	393.21
450.10	374.49
450.28	423.64
450.46	400.23
450.65	437.68
450.83	512.58
451.02	362.78
451.20	369.80
451.39	454.06
451.57	449.38
451.76	397.89
451.94	362.78
452.13	444.70
452.31	381.51
452.49	423.64
452.68	372.15
452.86	444.70
453.05	407.25
453.23	409.59
453.42	362.78
453.60	402.57
453.78	461.09
453.97	351.08
454.15	444.70
454.34	451.72
454.52	353.42
454.70	444.70
454.89	468.11
455.07	397.89
455.26	428.32
455.44	395.55
455.62	353.42
455.81	461.09
455.99	409.59
456.17	449.38
456.36	428.32
456.54	428.32
456.73	418.96
456.91	376.83
457.09	397.89
457.28	407.25
457.46	369.80
457.64	458.74
457.83	414.27
458.01	472.79
458.19	372.15
458.38	430.66
458.56	468.11
458.74	447.04
458.93	386.19
459.11	404.91
459.29	365.12
459.48	376.83
459.66	383.85
459.84	425.98
460.03	475.13
460.21	437.68
460.39	421.30
460.57	369.80
460.76	447.04
460.94	409.59
461.12	465.77
461.31	425.98
461.49	397.89
461.67	444.70
461.85	346.40
462.04	430.66
462.22	596.84
462.40	383.85
462.59	425.98
462.77	475.13
462.95	456.40
463.13	428.32
463.32	449.38
463.50	472.79
463.68	500.87
463.86	451.72
464.05	447.04
464.23	456.40
464.41	500.87
464.59	390.87
464.78	395.55
464.96	472.79
465.14	341.72
465.32	442.36
465.50	447.04
465.69	367.46
465.87	411.93
466.05	334.70
466.23	442.36
466.41	383.85
466.60	339.38
466.78	353.42
466.96	388.53
467.14	416.62
467.32	479.81
467.51	407.25
467.69	423.64
467.87	397.89
468.05	372.15
468.23	423.64
468.41	451.72
468.60	395.55
468.78	369.80
468.96	482.15
469.14	393.21
469.32	416.62
469.50	416.62
469.69	468.11
469.87	407.25
470.05	400.23
470.23	402.57
470.41	381.51
470.59	418.96
470.77	468.11
470.95	465.77
471.14	386.19
471.32	479.81
471.50	493.85
471.68	397.89
471.86	458.74
472.04	437.68
472.22	418.96
472.40	381.51
472.58	407.25
472.77	437.68
472.95	353.42
473.13	437.68
473.31	332.36
473.49	393.21
473.67	407.25
473.85	400.23
474.03	386.19
474.21	423.64
474.39	437.68
474.57	418.96
474.75	383.85
474.93	322.99
475.12	304.27
475.30	414.27
475.48	437.68
475.66	367.46
475.84	379.17
476.02	400.23
476.20	393.21
476.38	395.55
476.56	472.79
476.74	433.00
476.92	456.40
477.10	379.17
477.28	470.45
477.46	468.11
477.64	444.70
477.82	468.11
478.00	456.40
478.18	411.93
478.36	425.98
478.54	388.53
478.72	442.36
478.90	395.55
479.08	414.27
479.26	451.72
479.44	435.34
479.62	442.36
479.80	346.40
479.98	404.91
480.16	367.46
480.34	355.76
480.52	404.91
480.70	411.93
480.88	379.17
481.06	491.51
481.24	414.27
481.41	409.59
481.59	425.98
481.77	468.11
481.95	433.00
482.13	411.93
482.31	372.15
482.49	379.17
482.67	486.83
482.85	470.45
483.03	468.11
483.21	416.62
483.39	374.49
483.57	348.74
483.74	507.90
483.92	421.30
484.10	458.74
484.28	402.57
484.46	458.74
484.64	411.93
484.82	372.15
485.00	376.83
485.18	425.98
485.35	365.12
485.53	512.58
485.71	449.38
485.89	381.51
486.07	416.62
486.25	486.83
486.43	407.25
486.61	423.64
486.78	449.38
486.96	348.74
487.14	461.09
487.32	414.27
487.50	397.89
487.68	341.72
487.85	404.91
488.03	463.43
488.21	440.02
488.39	409.59
488.57	435.34
488.75	425.98
488.92	475.13
489.10	418.96
489.28	503.22
489.46	416.62
489.64	376.83
489.81	395.55
489.99	421.30
490.17	409.59
490.35	456.40
490.53	409.59
490.70	468.11
490.88	451.72
491.06	463.43
491.24	416.62
491.41	423.64
491.59	409.59
491.77	486.83
491.95	348.74
492.13	353.42
492.30	433.00
492.48	407.25
492.66	353.42
492.84	407.25
493.01	400.23
493.19	404.91
493.37	465.77
493.54	425.98
493.72	418.96
493.90	402.57
494.08	428.32
494.25	477.47
494.43	468.11
494.61	470.45
494.79	355.76
494.96	400.23
495.14	388.53
495.32	400.23
495.49	404.91
495.67	400.23
495.85	376.83
496.02	409.59
496.20	421.30
496.38	435.34
496.55	388.53
496.73	430.66
496.91	447.04
497.09	407.25
497.26	360.44
497.44	421.30
497.62	468.11
497.79	475.13
497.97	465.77
498.14	381.51
498.32	341.72
498.50	404.91
498.67	351.08
498.85	404.91
499.03	491.51
499.20	374.49
499.38	390.87
499.56	353.42
499.73	440.02
499.91	416.62
500.08	416.62
500.26	395.55
500.44	411.93
500.61	367.46
500.79	416.62
500.97	404.91
501.14	400.23
501.32	388.53
501.49	423.64
501.67	369.80
501.84	454.06
502.02	372.15
502.20	468.11
502.37	479.81
502.55	435.34
502.72	379.17
502.90	407.25
503.07	374.49
503.25	442.36
503.43	367.46
503.60	400.23
503.78	346.40
503.95	409.59
504.13	358.10
504.30	437.68
504.48	442.36
504.65	472.79
504.83	395.55
505.01	388.53
505.18	390.87
505.36	379.17
505.53	407.25
505.71	409.59
505.88	475.13
506.06	421.30
506.23	395.55
506.41	372.15
506.58	505.56
506.76	416.62
506.93	477.47
507.11	414.27
507.28	397.89
507.46	369.80
507.63	411.93
507.81	379.17
507.98	416.62
508.16	472.79
508.33	440.02
508.50	397.89
508.68	418.96
508.85	393.21
509.03	468.11
509.20	472.79
509.38	344.06
509.55	440.02
509.73	442.36
509.90	369.80
510.08	428.32
510.25	463.43
510.42	404.91
510.60	397.89
510.77	397.89
510.95	447.04
511.12	468.11
511.30	397.89
511.47	463.43
511.64	479.81
511.82	418.96
511.99	433.00
512.17	435.34
512.34	367.46
512.51	386.19
512.69	425.98
512.86	421.30
513.04	421.30
513.21	418.96
513.38	344.06
513.56	458.74
513.73	400.23
513.90	383.85
514.08	425.98
514.25	433.00
514.43	428.32
514.60	327.68
514.77	433.00
514.95	428.32
515.12	395.55
515.29	461.09
515.47	433.00
515.64	475.13
515.81	351.08
515.99	409.59
516.16	397.89
516.33	435.34
516.51	414.27
516.68	442.36
516.85	447.04
517.03	383.85
517.20	435.34
517.37	458.74
517.54	402.57
517.72	440.02
517.89	367.46
518.06	447.04
518.24	444.70
518.41	442.36
518.58	388.53
518.75	334.70
518.93	266.82
519.10	383.85
519.27	463.43
519.45	435.34
519.62	411.93
519.79	440.02
519.96	416.62
520.14	353.42
520.31	496.19
520.48	376.83
520.65	482.15
520.83	461.09
521.00	456.40
521.17	421.30
521.34	379.17
521.52	430.66
521.69	470.45
521.86	367.46
522.03	409.59
522.20	440.02
522.38	428.32
522.55	411.93
522.72	411.93
522.89	390.87
523.07	442.36
523.24	365.12
523.41	383.85
523.58	416.62
523.75	337.04
523.92	447.04
524.10	472.79
524.27	365.12
524.44	416.62
524.61	409.59
524.78	444.70
524.96	414.27
525.13	451.72
525.30	362.78
525.47	390.87
525.64	454.06
525.81	418.96
525.98	442.36
526.16	358.10
526.33	404.91
526.50	435.34
526.67	421.30
526.84	435.34
527.01	489.17
527.18	416.62
527.36	416.62
527.53	444.70
527.70	442.36
527.87	456.40
528.04	486.83
528.21	456.40
528.38	395.55
528.55	428.32
528.72	479.81
528.89	442.36
529.07	496.19
529.24	376.83
529.41	447.04
529.58	404.91
529.75	327.68
529.92	447.04
530.09	477.47
530.26	425.98
530.43	475.13
530.60	393.21
530.77	456.40
530.94	404.91
531.11	358.10
531.28	418.96
531.46	458.74
531.63	411.93
531.80	435.34
531.97	402.57
532.14	397.89
532.31	388.53
532.48	390.87
532.65	414.27
532.82	433.00
532.99	381.51
533.16	454.06
533.33	402.57
533.50	463.43
533.67	379.17
533.84	376.83
534.01	447.04
534.18	367.46
534.35	440.02
534.52	374.49
534.69	533.64
534.86	430.66
535.03	407.25
535.20	470.45
535.37	423.64
535.54	447.04
535.71	421.30
535.88	381.51
536.05	425.98
536.22	470.45
536.38	423.64
536.55	440.02
536.72	381.51
536.89	435.34
537.06	400.23
537.23	423.64
537.40	486.83
537.57	477.47
537.74	435.34
537.91	463.43
538.08	440.02
538.25	451.72
538.42	409.59
538.59	486.83
538.75	435.34
538.92	388.53
539.09	416.62
539.26	435.34
539.43	503.22
539.60	486.83
539.77	451.72
539.94	402.57
540.11	437.68
540.28	510.24
540.44	404.91
540.61	390.87
540.78	372.15
540.95	320.65
541.12	456.40
541.29	414.27
541.46	442.36
541.62	421.30
541.79	442.36
541.96	433.00
542.13	428.32
542.30	407.25
542.47	461.09
542.63	383.85
542.80	425.98
542.97	454.06
543.14	447.04
543.31	463.43
543.48	468.11
543.64	393.21
543.81	470.45
543.98	374.49
544.15	344.06
544.32	435.34
544.48	440.02
544.65	402.57
544.82	379.17
544.99	381.51
545.16	454.06
545.32	390.87
545.49	418.96
545.66	383.85
545.83	440.02
546.00	421.30
546.16	388.53
546.33	409.59
546.50	393.21
546.67	381.51
546.83	470.45
547.00	437.68
547.17	409.59
547.34	407.25
547.50	386.19
547.67	461.09
547.84	372.15
548.00	367.46
548.17	334.70
548.34	428.32
548.51	409.59
548.67	400.23
548.84	411.93
549.01	421.30
549.18	472.79
549.34	444.70
549.51	444.70
549.68	435.34
549.84	491.51
550.01	397.89
550.18	493.85
550.34	458.74
550.51	379.17
550.68	435.34
550.84	444.70
551.01	440.02
551.18	444.70
551.34	430.66
551.51	428.32
551.68	425.98
551.84	430.66
552.01	362.78
552.18	449.38
552.34	475.13
552.51	379.17
552.68	383.85
552.84	440.02
553.01	416.62
553.18	423.64
553.34	463.43
553.51	503.22
553.67	416.62
553.84	449.38
554.01	404.91
554.17	348.74
554.34	318.31
554.51	365.12
554.67	428.32
554.84	414.27
555.00	423.64
555.17	461.09
555.33	454.06
555.50	369.80
555.67	468.11
555.83	374.49
556.00	390.87
556.16	477.47
556.33	414.27
556.50	372.15
556.66	372.15
556.83	416.62
556.99	337.04
557.16	386.19
557.32	449.38
557.49	430.66
557.65	421.30
557.82	404.91
557.98	404.91
558.15	416.62
558.32	404.91
558.48	437.68
558.65	428.32
558.81	454.06
558.98	414.27
559.14	327.68
559.31	449.38
559.47	404.91
559.64	430.66
559.80	395.55
559.97	379.17
560.13	414.27
560.30	440.02
560.46	397.89
560.63	433.00
560.79	416.62
560.96	416.62
561.12	416.62
561.29	411.93
561.45	430.66
561.61	507.90
561.78	498.53
561.94	351.08
562.11	334.70
562.27	376.83
562.44	374.49
562.60	374.49
562.77	428.32
562.93	416.62
563.10	437.68
563.26	418.96
563.42	400.23
563.59	416.62
563.75	372.15
563.92	440.02
564.08	421.30
564.24	376.83
564.41	416.62
564.57	463.43
564.74	418.96
564.90	458.74
565.07	435.34
565.23	337.04
565.39	486.83
565.56	491.51
565.72	367.46
565.88	454.06
566.05	430.66
566.21	418.96
566.38	461.09
566.54	416.62
566.70	393.21
566.87	395.55
567.03	355.76
567.19	348.74
567.36	456.40
567.52	400.23
567.68	315.97
567.85	409.59
568.01	465.77
568.17	374.49
568.34	379.17
568.50	397.89
568.66	407.25
568.83	475.13
568.99	393.21
569.15	437.68
569.32	346.40
569.48	390.87
569.64	444.70
569.81	451.72
569.97	442.36
570.13	463.43
570.30	423.64
570.46	383.85
570.62	397.89
570.78	418.96
570.95	383.85
571.11	430.66
571.27	472.79
571.43	404.91
571.60	395.55
571.76	503.22
571.92	395.55
572.09	402.57
572.25	334.70
572.41	425.98
572.57	388.53
572.74	411.93
572.90	379.17
573.06	388.53
573.22	390.87
573.38	400.23
573.55	479.81
573.71	421.30
573.87	409.59
574.03	404.91
574.20	440.02
574.36	430.66
574.52	430.66
574.68	383.85
574.84	400.23
575.01	376.83
575.17	454.06
575.33	374.49
575.49	430.66
575.65	468.11
575.82	440.02
575.98	395.55
576.14	409.59
576.30	369.80
576.46	409.59
576.62	404.91
576.79	437.68
576.95	482.15
577.11	470.45
577.27	404.91
577.43	468.11
577.59	454.06
577.75	393.21
577.92	388.53
578.08	425.98
578.24	397.89
578.40	454.06
578.56	414.27
578.72	456.40
578.88	423.64
579.04	433.00
579.21	386.19
579.37	402.57
579.53	372.15
579.69	451.72
579.85	374.49
580.01	418.96
580.17	458.74
580.33	374.49
580.49	435.34
580.65	505.56
580.82	437.68
580.98	362.78
581.14	374.49
581.30	367.46
581.46	447.04
581.62	402.57
581.78	376.83
581.94	423.64
582.10	395.55
582.26	416.62
582.42	358.10
582.58	409.59
582.74	456.40
582.90	367.46
583.06	421.30
583.22	334.70
583.38	404.91
583.54	430.66
583.70	437.68
583.86	369.80
584.02	454.06
584.18	411.93
584.34	348.74
584.50	397.89
584.66	414.27
584.82	402.57
584.98	334.70
585.14	454.06
585.30	376.83
585.46	421.30
585.62	475.13
585.78	339.38
585.94	409.59
586.10	425.98
586.26	393.21
586.42	451.72
586.58	440.02
586.74	510.24
586.90	447.04
587.06	440.02
587.22	465.77
587.38	369.80
587.54	421.30
587.70	367.46
587.86	437.68
588.02	418.96
588.18	414.27
588.34	447.04
588.49	374.49
588.65	442.36
588.81	477.47
588.97	465.77
589.13	409.59
589.29	430.66
589.45	433.00
589.61	365.12
589.77	421.30
589.93	379.17
590.08	416.62
590.24	386.19
590.40	477.47
590.56	421.30
590.72	365.12
590.88	475.13
591.04	451.72
591.20	360.44
591.35	418.96
591.51	447.04
591.67	381.51
591.83	411.93
591.99	447.04
592.15	442.36
592.31	402.57
592.46	421.30
592.62	461.09
592.78	465.77
592.94	379.17
593.10	393.21
593.26	416.62
593.41	428.32
593.57	430.66
593.73	409.59
593.89	423.64
594.05	407.25
594.20	341.72
594.36	447.04
594.52	388.53
594.68	414.27
594.84	360.44
594.99	428.32
595.15	458.74
595.31	395.55
595.47	489.17
595.62	418.96
595.78	393.21
595.94	435.34
596.10	470.45
596.25	440.02
596.41	435.34
596.57	423.64
596.73	374.49
596.88	454.06
597.04	400.23
597.20	369.80
597.36	318.31
597.51	404.91
597.67	381.51
597.83	416.62
597.99	423.64
598.14	489.17
598.30	444.70
598.46	454.06
598.61	468.11
598.77	458.74
598.93	358.10
599.09	367.46
599.24	381.51
599.40	409.59
599.56	388.53
599.71	369.80
599.87	409.59
600.03	353.42
600.18	416.62
600.34	393.21
600.50	351.08
600.65	461.09
600.81	421.30
600.97	402.57
601.12	390.87
601.28	486.83
601.44	404.91
601.59	397.89
601.75	407.25
601.91	400.23
602.06	435.34
602.22	472.79
602.37	444.70
602.53	414.27
602.69	397.89
602.84	334.70
603.00	449.38
603.16	465.77
603.31	510.24
603.47	458.74
603.62	388.53
603.78	402.57
603.94	351.08
604.09	390.87
604.25	369.80
604.40	472.79
604.56	386.19
604.71	407.25
604.87	395.55
605.03	475.13
605.18	407.25
605.34	468.11
605.49	414.27
605.65	428.32
605.80	395.55
605.96	374.49
606.12	407.25
606.27	407.25
606.43	479.81
606.58	423.64
606.74	470.45
606.89	409.59
607.05	386.19
607.20	435.34
607.36	414.27
607.51	360.44
607.67	411.93
607.82	421.30
607.98	463.43
608.13	465.77
608.29	397.89
608.44	451.72
608.60	390.87
608.75	447.04
608.91	449.38
609.06	372.15
609.22	454.06
609.37	365.12
609.53	367.46
609.68	416.62
609.84	440.02
609.99	465.77
610.15	500.87
