SpectraSuite Data File
++++++++++++++++++++++++++++++++++++
Date: Fri Oct 25 12:11:23 EDT 2013
User: price-jones
Dark Spectrum Present: No
Reference Spectrum Present: No
Number of Sampled Component Spectra: 1
Spectrometers: USB2+H05261
Integration Time (usec): 100000 (USB2+H05261)
Spectra Averaged: 1 (USB2+H05261)
Boxcar Smoothing: 0 (USB2+H05261)
Correct for Electrical Dark: No (USB2+H05261)
Strobe/Lamp Enabled: No (USB2+H05261)
Correct for Detector Non-linearity: No (USB2+H05261)
Correct for Stray Light: No (USB2+H05261)
Number of Pixels in Processed Spectrum: 2048
>>>>>Begin Processed Spectral Data<<<<<
365.73	355.76
365.92	355.76
366.12	355.76
366.32	220.01
366.52	238.73
366.72	212.99
366.91	180.22
367.11	264.48
367.31	236.39
367.51	227.03
367.70	292.57
367.90	299.59
368.10	227.03
368.30	278.52
368.49	259.80
368.69	238.73
368.89	236.39
369.09	278.52
369.28	238.73
369.48	313.63
369.68	252.78
369.87	280.86
370.07	262.14
370.27	257.46
370.47	327.68
370.66	374.49
370.86	308.95
371.06	409.59
371.25	390.87
371.45	383.85
371.65	416.62
371.84	404.91
372.04	383.85
372.24	315.97
372.44	369.80
372.63	447.04
372.83	400.23
373.03	395.55
373.22	395.55
373.42	379.17
373.62	465.77
373.81	353.42
374.01	458.74
374.21	463.43
374.40	362.78
374.60	454.06
374.79	388.53
374.99	393.21
375.19	489.17
375.38	416.62
375.58	428.32
375.78	444.70
375.97	477.47
376.17	489.17
376.37	353.42
376.56	367.46
376.76	440.02
376.95	346.40
377.15	379.17
377.35	430.66
377.54	383.85
377.74	372.15
377.93	465.77
378.13	437.68
378.33	440.02
378.52	379.17
378.72	353.42
378.91	404.91
379.11	437.68
379.31	451.72
379.50	425.98
379.70	362.78
379.89	425.98
380.09	458.74
380.28	386.19
380.48	393.21
380.68	425.98
380.87	393.21
381.07	454.06
381.26	491.51
381.46	435.34
381.65	411.93
381.85	433.00
382.04	414.27
382.24	416.62
382.43	416.62
382.63	372.15
382.83	367.46
383.02	482.15
383.22	458.74
383.41	351.08
383.61	383.85
383.80	383.85
384.00	435.34
384.19	332.36
384.39	390.87
384.58	376.83
384.78	334.70
384.97	461.09
385.17	395.55
385.36	390.87
385.56	351.08
385.75	386.19
385.95	421.30
386.14	437.68
386.34	348.74
386.53	458.74
386.72	372.15
386.92	421.30
387.11	418.96
387.31	341.72
387.50	365.12
387.70	418.96
387.89	407.25
388.09	341.72
388.28	430.66
388.48	372.15
388.67	409.59
388.86	334.70
389.06	407.25
389.25	421.30
389.45	381.51
389.64	491.51
389.84	437.68
390.03	372.15
390.22	414.27
390.42	465.77
390.61	386.19
390.81	386.19
391.00	360.44
391.19	454.06
391.39	411.93
391.58	402.57
391.78	414.27
391.97	447.04
392.16	409.59
392.36	458.74
392.55	449.38
392.75	428.32
392.94	411.93
393.13	374.49
393.33	397.89
393.52	388.53
393.71	433.00
393.91	491.51
394.10	390.87
394.29	440.02
394.49	372.15
394.68	393.21
394.88	552.37
395.07	430.66
395.26	468.11
395.46	435.34
395.65	477.47
395.84	393.21
396.04	496.19
396.23	428.32
396.42	337.04
396.62	402.57
396.81	400.23
397.00	348.74
397.19	395.55
397.39	355.76
397.58	374.49
397.77	425.98
397.97	484.49
398.16	423.64
398.35	435.34
398.55	409.59
398.74	472.79
398.93	407.25
399.12	383.85
399.32	482.15
399.51	386.19
399.70	425.98
399.90	465.77
400.09	369.80
400.28	437.68
400.47	433.00
400.67	414.27
400.86	465.77
401.05	428.32
401.24	472.79
401.44	463.43
401.63	362.78
401.82	337.04
402.01	395.55
402.21	425.98
402.40	397.89
402.59	409.59
402.78	440.02
402.97	386.19
403.17	397.89
403.36	479.81
403.55	416.62
403.74	376.83
403.93	386.19
404.13	433.00
404.32	470.45
404.51	444.70
404.70	418.96
404.89	386.19
405.09	512.58
405.28	414.27
405.47	442.36
405.66	414.27
405.85	400.23
406.05	447.04
406.24	395.55
406.43	369.80
406.62	372.15
406.81	496.19
407.00	468.11
407.20	400.23
407.39	360.44
407.58	447.04
407.77	442.36
407.96	407.25
408.15	425.98
408.34	332.36
408.54	400.23
408.73	475.13
408.92	397.89
409.11	386.19
409.30	379.17
409.49	414.27
409.68	437.68
409.87	395.55
410.07	425.98
410.26	402.57
410.45	400.23
410.64	428.32
410.83	440.02
411.02	393.21
411.21	423.64
411.40	425.98
411.59	418.96
411.78	386.19
411.98	393.21
412.17	365.12
412.36	360.44
412.55	386.19
412.74	341.72
412.93	440.02
413.12	374.49
413.31	397.89
413.50	409.59
413.69	390.87
413.88	421.30
414.07	418.96
414.26	386.19
414.45	379.17
414.64	395.55
414.83	367.46
415.02	381.51
415.22	390.87
415.41	465.77
415.60	404.91
415.79	414.27
415.98	533.64
416.17	393.21
416.36	449.38
416.55	393.21
416.74	468.11
416.93	418.96
417.12	428.32
417.31	365.12
417.50	428.32
417.69	468.11
417.88	395.55
418.07	339.38
418.26	341.72
418.45	421.30
418.64	475.13
418.83	353.42
419.02	411.93
419.21	458.74
419.39	362.78
419.58	369.80
419.77	379.17
419.96	447.04
420.15	435.34
420.34	376.83
420.53	503.22
420.72	463.43
420.91	437.68
421.10	418.96
421.29	390.87
421.48	454.06
421.67	526.62
421.86	456.40
422.05	367.46
422.24	423.64
422.43	456.40
422.61	362.78
422.80	433.00
422.99	367.46
423.18	416.62
423.37	428.32
423.56	416.62
423.75	442.36
423.94	379.17
424.13	369.80
424.32	414.27
424.50	444.70
424.69	437.68
424.88	465.77
425.07	507.90
425.26	442.36
425.45	306.61
425.64	337.04
425.83	395.55
426.01	379.17
426.20	430.66
426.39	430.66
426.58	423.64
426.77	379.17
426.96	465.77
427.15	400.23
427.33	437.68
427.52	393.21
427.71	383.85
427.90	390.87
428.09	437.68
428.28	449.38
428.46	435.34
428.65	461.09
428.84	395.55
429.03	461.09
429.22	374.49
429.40	400.23
429.59	374.49
429.78	449.38
429.97	381.51
430.16	440.02
430.34	414.27
430.53	456.40
430.72	397.89
430.91	447.04
431.10	440.02
431.28	428.32
431.47	433.00
431.66	428.32
431.85	395.55
432.03	461.09
432.22	409.59
432.41	430.66
432.60	421.30
432.79	358.10
432.97	400.23
433.16	341.72
433.35	374.49
433.54	390.87
433.72	407.25
433.91	498.53
434.10	395.55
434.28	386.19
434.47	470.45
434.66	421.30
434.85	430.66
435.03	379.17
435.22	456.40
435.41	423.64
435.59	416.62
435.78	390.87
435.97	360.44
436.16	416.62
436.34	400.23
436.53	454.06
436.72	456.40
436.90	440.02
437.09	409.59
437.28	418.96
437.46	404.91
437.65	386.19
437.84	461.09
438.02	451.72
438.21	433.00
438.40	428.32
438.58	400.23
438.77	444.70
438.96	437.68
439.14	444.70
439.33	393.21
439.52	430.66
439.70	409.59
439.89	411.93
440.08	433.00
440.26	318.31
440.45	397.89
440.63	423.64
440.82	379.17
441.01	414.27
441.19	465.77
441.38	468.11
441.57	369.80
441.75	437.68
441.94	468.11
442.12	407.25
442.31	402.57
442.50	430.66
442.68	414.27
442.87	456.40
443.05	496.19
443.24	407.25
443.43	386.19
443.61	402.57
443.80	397.89
443.98	423.64
444.17	416.62
444.35	393.21
444.54	442.36
444.73	465.77
444.91	465.77
445.10	437.68
445.28	423.64
445.47	393.21
445.65	372.15
445.84	311.29
446.02	444.70
446.21	411.93
446.39	365.12
446.58	428.32
446.77	400.23
446.95	477.47
447.14	500.87
447.32	409.59
447.51	435.34
447.69	409.59
447.88	477.47
448.06	435.34
448.25	454.06
448.43	365.12
448.62	346.40
448.80	395.55
448.99	414.27
449.17	451.72
449.36	423.64
449.54	458.74
449.73	425.98
449.91	397.89
450.10	360.44
450.28	369.80
450.46	470.45
450.65	461.09
450.83	470.45
451.02	337.04
451.20	362.78
451.39	393.21
451.57	468.11
451.76	409.59
451.94	348.74
452.13	440.02
452.31	519.60
452.49	409.59
452.68	379.17
452.86	472.79
453.05	468.11
453.23	372.15
453.42	484.49
453.60	447.04
453.78	346.40
453.97	416.62
454.15	421.30
454.34	372.15
454.52	374.49
454.70	484.49
454.89	428.32
455.07	381.51
455.26	409.59
455.44	496.19
455.62	351.08
455.81	414.27
455.99	421.30
456.17	369.80
456.36	418.96
456.54	407.25
456.73	388.53
456.91	409.59
457.09	372.15
457.28	435.34
457.46	435.34
457.64	418.96
457.83	437.68
458.01	505.56
458.19	423.64
458.38	383.85
458.56	433.00
458.74	381.51
458.93	372.15
459.11	411.93
459.29	365.12
459.48	383.85
459.66	388.53
459.84	447.04
460.03	470.45
460.21	414.27
460.39	421.30
460.57	444.70
460.76	458.74
460.94	470.45
461.12	404.91
461.31	440.02
461.49	379.17
461.67	442.36
461.85	472.79
462.04	315.97
462.22	772.38
462.40	367.46
462.59	358.10
462.77	358.10
462.95	383.85
463.13	400.23
463.32	409.59
463.50	428.32
463.68	416.62
463.86	449.38
464.05	374.49
464.23	388.53
464.41	418.96
464.59	435.34
464.78	393.21
464.96	358.10
465.14	428.32
465.32	458.74
465.50	379.17
465.69	472.79
465.87	430.66
466.05	407.25
466.23	379.17
466.41	346.40
466.60	430.66
466.78	409.59
466.96	421.30
467.14	409.59
467.32	404.91
467.51	461.09
467.69	421.30
467.87	404.91
468.05	430.66
468.23	470.45
468.41	421.30
468.60	465.77
468.78	411.93
468.96	435.34
469.14	486.83
469.32	449.38
469.50	428.32
469.69	402.57
469.87	390.87
470.05	414.27
470.23	353.42
470.41	423.64
470.59	395.55
470.77	407.25
470.95	383.85
471.14	472.79
471.32	449.38
471.50	383.85
471.68	386.19
471.86	465.77
472.04	339.38
472.22	442.36
472.40	402.57
472.58	409.59
472.77	395.55
472.95	386.19
473.13	489.17
473.31	433.00
473.49	414.27
473.67	390.87
473.85	517.26
474.03	376.83
474.21	418.96
474.39	402.57
474.57	447.04
474.75	489.17
474.93	458.74
475.12	435.34
475.30	393.21
475.48	351.08
475.66	425.98
475.84	442.36
476.02	428.32
476.20	433.00
476.38	379.17
476.56	484.49
476.74	423.64
476.92	358.10
477.10	421.30
477.28	496.19
477.46	390.87
477.64	404.91
477.82	489.17
478.00	421.30
478.18	425.98
478.36	447.04
478.54	402.57
478.72	458.74
478.90	383.85
479.08	381.51
479.26	451.72
479.44	428.32
479.62	404.91
479.80	365.12
479.98	390.87
480.16	334.70
480.34	414.27
480.52	418.96
480.70	397.89
480.88	400.23
481.06	381.51
481.24	468.11
481.41	451.72
481.59	411.93
481.77	416.62
481.95	461.09
482.13	407.25
482.31	421.30
482.49	416.62
482.67	510.24
482.85	472.79
483.03	496.19
483.21	440.02
483.39	428.32
483.57	456.40
483.74	433.00
483.92	430.66
484.10	390.87
484.28	404.91
484.46	440.02
484.64	388.53
484.82	477.47
485.00	386.19
485.18	390.87
485.35	374.49
485.53	334.70
485.71	442.36
485.89	433.00
486.07	437.68
486.25	477.47
486.43	397.89
486.61	440.02
486.78	409.59
486.96	435.34
487.14	404.91
487.32	379.17
487.50	411.93
487.68	475.13
487.85	418.96
488.03	414.27
488.21	393.21
488.39	374.49
488.57	374.49
488.75	456.40
488.92	458.74
489.10	435.34
489.28	411.93
489.46	390.87
489.64	475.13
489.81	425.98
489.99	383.85
490.17	503.22
490.35	418.96
490.53	383.85
490.70	383.85
490.88	454.06
491.06	369.80
491.24	425.98
491.41	402.57
491.59	386.19
491.77	362.78
491.95	358.10
492.13	318.31
492.30	395.55
492.48	418.96
492.66	379.17
492.84	395.55
493.01	400.23
493.19	365.12
493.37	435.34
493.54	440.02
493.72	449.38
493.90	348.74
494.08	402.57
494.25	407.25
494.43	381.51
494.61	374.49
494.79	318.31
494.96	400.23
495.14	383.85
495.32	484.49
495.49	484.49
495.67	409.59
495.85	388.53
496.02	395.55
496.20	390.87
496.38	325.33
496.55	407.25
496.73	444.70
496.91	416.62
497.09	395.55
497.26	451.72
497.44	379.17
497.62	379.17
497.79	397.89
497.97	482.15
498.14	461.09
498.32	404.91
498.50	407.25
498.67	390.87
498.85	428.32
499.03	395.55
499.20	430.66
499.38	407.25
499.56	372.15
499.73	491.51
499.91	367.46
500.08	437.68
500.26	435.34
500.44	386.19
500.61	428.32
500.79	393.21
500.97	444.70
501.14	428.32
501.32	369.80
501.49	423.64
501.67	428.32
501.84	346.40
502.02	388.53
502.20	372.15
502.37	407.25
502.55	425.98
502.72	411.93
502.90	484.49
503.07	409.59
503.25	407.25
503.43	393.21
503.60	414.27
503.78	440.02
503.95	444.70
504.13	433.00
504.30	381.51
504.48	510.24
504.65	463.43
504.83	500.87
505.01	428.32
505.18	435.34
505.36	423.64
505.53	433.00
505.71	390.87
505.88	486.83
506.06	468.11
506.23	423.64
506.41	402.57
506.58	400.23
506.76	465.77
506.93	334.70
507.11	409.59
507.28	411.93
507.46	411.93
507.63	379.17
507.81	409.59
507.98	425.98
508.16	423.64
508.33	411.93
508.50	444.70
508.68	418.96
508.85	418.96
509.03	423.64
509.20	416.62
509.38	430.66
509.55	468.11
509.73	479.81
509.90	402.57
510.08	430.66
510.25	442.36
510.42	430.66
510.60	395.55
510.77	374.49
510.95	491.51
511.12	416.62
511.30	381.51
511.47	393.21
511.64	444.70
511.82	463.43
511.99	358.10
512.17	379.17
512.34	341.72
512.51	411.93
512.69	449.38
512.86	421.30
513.04	421.30
513.21	397.89
513.38	421.30
513.56	390.87
513.73	437.68
513.90	372.15
514.08	461.09
514.25	437.68
514.43	442.36
514.60	407.25
514.77	468.11
514.95	383.85
515.12	400.23
515.29	372.15
515.47	409.59
515.64	421.30
515.81	327.68
515.99	421.30
516.16	425.98
516.33	479.81
516.51	425.98
516.68	400.23
516.85	423.64
517.03	442.36
517.20	461.09
517.37	402.57
517.54	414.27
517.72	407.25
517.89	433.00
518.06	421.30
518.24	440.02
518.41	440.02
518.58	421.30
518.75	433.00
518.93	416.62
519.10	400.23
519.27	376.83
519.45	475.13
519.62	449.38
519.79	437.68
519.96	433.00
520.14	449.38
520.31	369.80
520.48	461.09
520.65	374.49
520.83	456.40
521.00	454.06
521.17	454.06
521.34	416.62
521.52	379.17
521.69	355.76
521.86	388.53
522.03	393.21
522.20	479.81
522.38	411.93
522.55	414.27
522.72	428.32
522.89	383.85
523.07	397.89
523.24	458.74
523.41	379.17
523.58	390.87
523.75	381.51
523.92	397.89
524.10	472.79
524.27	447.04
524.44	418.96
524.61	367.46
524.78	334.70
524.96	425.98
525.13	425.98
525.30	435.34
525.47	397.89
525.64	435.34
525.81	470.45
525.98	425.98
526.16	465.77
526.33	414.27
526.50	388.53
526.67	381.51
526.84	411.93
527.01	395.55
527.18	383.85
527.36	470.45
527.53	397.89
527.70	397.89
527.87	374.49
528.04	379.17
528.21	437.68
528.38	411.93
528.55	407.25
528.72	416.62
528.89	477.47
529.07	404.91
529.24	381.51
529.41	454.06
529.58	468.11
529.75	411.93
529.92	390.87
530.09	428.32
530.26	430.66
530.43	386.19
530.60	395.55
530.77	360.44
530.94	440.02
531.11	461.09
531.28	372.15
531.46	386.19
531.63	430.66
531.80	442.36
531.97	477.47
532.14	475.13
532.31	465.77
532.48	451.72
532.65	374.49
532.82	411.93
532.99	376.83
533.16	470.45
533.33	421.30
533.50	449.38
533.67	402.57
533.84	379.17
534.01	477.47
534.18	428.32
534.35	496.19
534.52	423.64
534.69	444.70
534.86	433.00
535.03	400.23
535.20	407.25
535.37	379.17
535.54	402.57
535.71	344.06
535.88	435.34
536.05	388.53
536.22	449.38
536.38	414.27
536.55	423.64
536.72	510.24
536.89	393.21
537.06	472.79
537.23	376.83
537.40	402.57
537.57	395.55
537.74	475.13
537.91	440.02
538.08	486.83
538.25	447.04
538.42	376.83
538.59	491.51
538.75	372.15
538.92	440.02
539.09	456.40
539.26	388.53
539.43	477.47
539.60	416.62
539.77	458.74
539.94	430.66
540.11	477.47
540.28	519.60
540.44	447.04
540.61	458.74
540.78	414.27
540.95	379.17
541.12	489.17
541.29	386.19
541.46	468.11
541.62	416.62
541.79	404.91
541.96	496.19
542.13	416.62
542.30	421.30
542.47	416.62
542.63	372.15
542.80	390.87
542.97	442.36
543.14	423.64
543.31	449.38
543.48	414.27
543.64	437.68
543.81	393.21
543.98	369.80
544.15	411.93
544.32	461.09
544.48	437.68
544.65	409.59
544.82	409.59
544.99	416.62
545.16	454.06
545.32	414.27
545.49	468.11
545.66	416.62
545.83	294.91
546.00	402.57
546.16	381.51
546.33	407.25
546.50	315.97
546.67	477.47
546.83	397.89
547.00	423.64
547.17	458.74
547.34	348.74
547.50	428.32
547.67	433.00
547.84	421.30
548.00	433.00
548.17	334.70
548.34	414.27
548.51	397.89
548.67	372.15
548.84	468.11
549.01	437.68
549.18	463.43
549.34	339.38
549.51	337.04
549.68	388.53
549.84	404.91
550.01	400.23
550.18	484.49
550.34	475.13
550.51	383.85
550.68	456.40
550.84	428.32
551.01	397.89
551.18	454.06
551.34	477.47
551.51	428.32
551.68	381.51
551.84	425.98
552.01	362.78
552.18	463.43
552.34	393.21
552.51	418.96
552.68	411.93
552.84	468.11
553.01	437.68
553.18	456.40
553.34	409.59
553.51	437.68
553.67	470.45
553.84	433.00
554.01	489.17
554.17	332.36
554.34	414.27
554.51	390.87
554.67	493.85
554.84	440.02
555.00	425.98
555.17	493.85
555.33	491.51
555.50	430.66
555.67	456.40
555.83	334.70
556.00	430.66
556.16	498.53
556.33	526.62
556.50	435.34
556.66	435.34
556.83	416.62
556.99	388.53
557.16	440.02
557.32	423.64
557.49	421.30
557.65	390.87
557.82	407.25
557.98	482.15
558.15	451.72
558.32	418.96
558.48	475.13
558.65	437.68
558.81	400.23
558.98	374.49
559.14	425.98
559.31	376.83
559.47	416.62
559.64	379.17
559.80	409.59
559.97	444.70
560.13	428.32
560.30	395.55
560.46	330.02
560.63	430.66
560.79	433.00
560.96	430.66
561.12	381.51
561.29	465.77
561.45	402.57
561.61	358.10
561.78	435.34
561.94	402.57
562.11	447.04
562.27	383.85
562.44	367.46
562.60	435.34
562.77	444.70
562.93	447.04
563.10	437.68
563.26	383.85
563.42	430.66
563.59	334.70
563.75	353.42
563.92	402.57
564.08	477.47
564.24	418.96
564.41	465.77
564.57	447.04
564.74	409.59
564.90	458.74
565.07	510.24
565.23	477.47
565.39	421.30
565.56	379.17
565.72	428.32
565.88	414.27
566.05	388.53
566.21	383.85
566.38	421.30
566.54	393.21
566.70	461.09
566.87	400.23
567.03	311.29
567.19	440.02
567.36	404.91
567.52	416.62
567.68	372.15
567.85	451.72
568.01	369.80
568.17	425.98
568.34	362.78
568.50	416.62
568.66	437.68
568.83	463.43
568.99	470.45
569.15	528.96
569.32	414.27
569.48	381.51
569.64	454.06
569.81	430.66
569.97	428.32
570.13	339.38
570.30	397.89
570.46	498.53
570.62	421.30
570.78	437.68
570.95	414.27
571.11	381.51
571.27	425.98
571.43	402.57
571.60	423.64
571.76	393.21
571.92	411.93
572.09	414.27
572.25	425.98
572.41	449.38
572.57	400.23
572.74	521.94
572.90	505.56
573.06	416.62
573.22	425.98
573.38	500.87
573.55	379.17
573.71	463.43
573.87	465.77
574.03	374.49
574.20	435.34
574.36	510.24
574.52	423.64
574.68	433.00
574.84	395.55
575.01	369.80
575.17	383.85
575.33	430.66
575.49	407.25
575.65	435.34
575.82	416.62
575.98	449.38
576.14	468.11
576.30	421.30
576.46	440.02
576.62	383.85
576.79	339.38
576.95	400.23
577.11	400.23
577.27	433.00
577.43	449.38
577.59	348.74
577.75	440.02
577.92	428.32
578.08	393.21
578.24	388.53
578.40	477.47
578.56	470.45
578.72	358.10
578.88	423.64
579.04	430.66
579.21	456.40
579.37	365.12
579.53	454.06
579.69	409.59
579.85	372.15
580.01	376.83
580.17	376.83
580.33	435.34
580.49	472.79
580.65	376.83
580.82	491.51
580.98	421.30
581.14	507.90
581.30	421.30
581.46	449.38
581.62	407.25
581.78	397.89
581.94	454.06
582.10	456.40
582.26	440.02
582.42	425.98
582.58	376.83
582.74	395.55
582.90	397.89
583.06	470.45
583.22	390.87
583.38	437.68
583.54	395.55
583.70	479.81
583.86	437.68
584.02	421.30
584.18	442.36
584.34	440.02
584.50	369.80
584.66	430.66
584.82	414.27
584.98	418.96
585.14	470.45
585.30	451.72
585.46	416.62
585.62	374.49
585.78	411.93
585.94	454.06
586.10	409.59
586.26	468.11
586.42	395.55
586.58	423.64
586.74	430.66
586.90	475.13
587.06	388.53
587.22	393.21
587.38	512.58
587.54	411.93
587.70	496.19
587.86	456.40
588.02	423.64
588.18	407.25
588.34	484.49
588.49	477.47
588.65	440.02
588.81	409.59
588.97	404.91
589.13	442.36
589.29	447.04
589.45	479.81
589.61	421.30
589.77	409.59
589.93	353.42
590.08	393.21
590.24	376.83
590.40	313.63
590.56	465.77
590.72	512.58
590.88	367.46
591.04	348.74
591.20	451.72
591.35	510.24
591.51	440.02
591.67	416.62
591.83	362.78
591.99	510.24
592.15	407.25
592.31	376.83
592.46	390.87
592.62	449.38
592.78	311.29
592.94	444.70
593.10	465.77
593.26	395.55
593.41	507.90
593.57	416.62
593.73	428.32
593.89	395.55
594.05	472.79
594.20	379.17
594.36	449.38
594.52	418.96
594.68	430.66
594.84	491.51
594.99	386.19
595.15	470.45
595.31	458.74
595.47	482.15
595.62	381.51
595.78	320.65
595.94	407.25
596.10	486.83
596.25	423.64
596.41	470.45
596.57	428.32
596.73	393.21
596.88	367.46
597.04	367.46
597.20	407.25
597.36	489.17
597.51	493.85
597.67	365.12
597.83	393.21
597.99	411.93
598.14	400.23
598.30	505.56
598.46	454.06
598.61	468.11
598.77	482.15
598.93	407.25
599.09	444.70
599.24	470.45
599.40	372.15
599.56	393.21
599.71	433.00
599.87	442.36
600.03	362.78
600.18	456.40
600.34	421.30
600.50	416.62
600.65	423.64
600.81	442.36
600.97	442.36
601.12	461.09
601.28	463.43
601.44	416.62
601.59	390.87
601.75	418.96
601.91	348.74
602.06	400.23
602.22	425.98
602.37	440.02
602.53	425.98
602.69	418.96
602.84	433.00
603.00	400.23
603.16	442.36
603.31	491.51
603.47	381.51
603.62	355.76
603.78	358.10
603.94	376.83
604.09	330.02
604.25	418.96
604.40	425.98
604.56	374.49
604.71	379.17
604.87	386.19
605.03	454.06
605.18	437.68
605.34	383.85
605.49	449.38
605.65	458.74
605.80	400.23
605.96	423.64
606.12	425.98
606.27	444.70
606.43	444.70
606.58	444.70
606.74	409.59
606.89	430.66
607.05	383.85
607.20	404.91
607.36	416.62
607.51	425.98
607.67	468.11
607.82	416.62
607.98	430.66
608.13	421.30
608.29	313.63
608.44	435.34
608.60	524.28
608.75	440.02
608.91	360.44
609.06	435.34
609.22	465.77
609.37	381.51
609.53	348.74
609.68	430.66
609.84	388.53
609.99	355.76
610.15	400.23
