SpectraSuite Data File
++++++++++++++++++++++++++++++++++++
Date: Fri Oct 25 12:10:26 EDT 2013
User: price-jones
Dark Spectrum Present: No
Reference Spectrum Present: No
Number of Sampled Component Spectra: 1
Spectrometers: USB2+H05261
Integration Time (usec): 100000 (USB2+H05261)
Spectra Averaged: 1 (USB2+H05261)
Boxcar Smoothing: 0 (USB2+H05261)
Correct for Electrical Dark: No (USB2+H05261)
Strobe/Lamp Enabled: No (USB2+H05261)
Correct for Detector Non-linearity: No (USB2+H05261)
Correct for Stray Light: No (USB2+H05261)
Number of Pixels in Processed Spectrum: 2048
>>>>>Begin Processed Spectral Data<<<<<
365.73	346.40
365.92	346.40
366.12	346.40
366.32	278.52
366.52	283.20
366.72	334.70
366.91	243.42
367.11	220.01
367.31	175.54
367.51	273.84
367.70	224.69
367.90	182.56
368.10	201.29
368.30	248.10
368.49	276.18
368.69	259.80
368.89	262.14
369.09	210.65
369.28	271.50
369.48	304.27
369.68	276.18
369.87	278.52
370.07	294.91
370.27	348.74
370.47	311.29
370.66	381.51
370.86	358.10
371.06	390.87
371.25	416.62
371.45	344.06
371.65	407.25
371.84	351.08
372.04	362.78
372.24	383.85
372.44	428.32
372.63	421.30
372.83	353.42
373.03	393.21
373.22	344.06
373.42	440.02
373.62	411.93
373.81	397.89
374.01	351.08
374.21	451.72
374.40	421.30
374.60	461.09
374.79	440.02
374.99	440.02
375.19	423.64
375.38	400.23
375.58	479.81
375.78	416.62
375.97	454.06
376.17	491.51
376.37	430.66
376.56	414.27
376.76	383.85
376.95	362.78
377.15	409.59
377.35	388.53
377.54	430.66
377.74	463.43
377.93	421.30
378.13	444.70
378.33	425.98
378.52	390.87
378.72	489.17
378.91	383.85
379.11	440.02
379.31	365.12
379.50	397.89
379.70	430.66
379.89	393.21
380.09	374.49
380.28	416.62
380.48	440.02
380.68	454.06
380.87	386.19
381.07	400.23
381.26	468.11
381.46	407.25
381.65	402.57
381.85	400.23
382.04	416.62
382.24	383.85
382.43	447.04
382.63	416.62
382.83	365.12
383.02	407.25
383.22	379.17
383.41	351.08
383.61	451.72
383.80	421.30
384.00	393.21
384.19	449.38
384.39	395.55
384.58	437.68
384.78	376.83
384.97	468.11
385.17	421.30
385.36	461.09
385.56	425.98
385.75	437.68
385.95	386.19
386.14	346.40
386.34	341.72
386.53	367.46
386.72	388.53
386.92	433.00
387.11	456.40
387.31	416.62
387.50	390.87
387.70	318.31
387.89	449.38
388.09	430.66
388.28	416.62
388.48	414.27
388.67	428.32
388.86	407.25
389.06	472.79
389.25	402.57
389.45	409.59
389.64	353.42
389.84	428.32
390.03	393.21
390.22	435.34
390.42	390.87
390.61	390.87
390.81	339.38
391.00	367.46
391.19	416.62
391.39	407.25
391.58	437.68
391.78	421.30
391.97	367.46
392.16	418.96
392.36	456.40
392.55	421.30
392.75	425.98
392.94	411.93
393.13	458.74
393.33	395.55
393.52	470.45
393.71	458.74
393.91	418.96
394.10	337.04
394.29	360.44
394.49	355.76
394.68	376.83
394.88	456.40
395.07	404.91
395.26	458.74
395.46	437.68
395.65	400.23
395.84	360.44
396.04	372.15
396.23	348.74
396.42	353.42
396.62	428.32
396.81	414.27
397.00	414.27
397.19	451.72
397.39	430.66
397.58	435.34
397.77	390.87
397.97	442.36
398.16	393.21
398.35	369.80
398.55	337.04
398.74	454.06
398.93	482.15
399.12	379.17
399.32	388.53
399.51	379.17
399.70	344.06
399.90	479.81
400.09	367.46
400.28	435.34
400.47	454.06
400.67	388.53
400.86	390.87
401.05	435.34
401.24	390.87
401.44	423.64
401.63	388.53
401.82	404.91
402.01	355.76
402.21	461.09
402.40	393.21
402.59	358.10
402.78	447.04
402.97	390.87
403.17	423.64
403.36	395.55
403.55	376.83
403.74	390.87
403.93	367.46
404.13	414.27
404.32	330.02
404.51	407.25
404.70	423.64
404.89	425.98
405.09	517.26
405.28	355.76
405.47	390.87
405.66	421.30
405.85	402.57
406.05	362.78
406.24	390.87
406.43	372.15
406.62	348.74
406.81	458.74
407.00	379.17
407.20	344.06
407.39	362.78
407.58	409.59
407.77	444.70
407.96	423.64
408.15	477.47
408.34	397.89
408.54	411.93
408.73	355.76
408.92	409.59
409.11	451.72
409.30	458.74
409.49	416.62
409.68	397.89
409.87	376.83
410.07	358.10
410.26	379.17
410.45	351.08
410.64	393.21
410.83	440.02
411.02	428.32
411.21	416.62
411.40	461.09
411.59	355.76
411.78	449.38
411.98	409.59
412.17	472.79
412.36	367.46
412.55	407.25
412.74	428.32
412.93	390.87
413.12	318.31
413.31	409.59
413.50	414.27
413.69	409.59
413.88	470.45
414.07	435.34
414.26	397.89
414.45	348.74
414.64	318.31
414.83	344.06
415.02	388.53
415.22	430.66
415.41	395.55
415.60	393.21
415.79	376.83
415.98	435.34
416.17	374.49
416.36	416.62
416.55	334.70
416.74	461.09
416.93	409.59
417.12	383.85
417.31	416.62
417.50	421.30
417.69	479.81
417.88	430.66
418.07	318.31
418.26	409.59
418.45	442.36
418.64	454.06
418.83	388.53
419.02	390.87
419.21	362.78
419.39	379.17
419.58	411.93
419.77	341.72
419.96	393.21
420.15	442.36
420.34	411.93
420.53	390.87
420.72	367.46
420.91	440.02
421.10	376.83
421.29	454.06
421.48	355.76
421.67	374.49
421.86	447.04
422.05	404.91
422.24	442.36
422.43	461.09
422.61	362.78
422.80	449.38
422.99	418.96
423.18	337.04
423.37	404.91
423.56	397.89
423.75	397.89
423.94	346.40
424.13	425.98
424.32	461.09
424.50	404.91
424.69	451.72
424.88	493.85
425.07	388.53
425.26	409.59
425.45	411.93
425.64	397.89
425.83	428.32
426.01	440.02
426.20	376.83
426.39	421.30
426.58	400.23
426.77	428.32
426.96	442.36
427.15	416.62
427.33	430.66
427.52	411.93
427.71	367.46
427.90	470.45
428.09	442.36
428.28	362.78
428.46	369.80
428.65	470.45
428.84	428.32
429.03	440.02
429.22	414.27
429.40	383.85
429.59	440.02
429.78	454.06
429.97	397.89
430.16	285.55
430.34	390.87
430.53	388.53
430.72	388.53
430.91	388.53
431.10	400.23
431.28	440.02
431.47	409.59
431.66	425.98
431.85	346.40
432.03	418.96
432.22	351.08
432.41	360.44
432.60	440.02
432.79	372.15
432.97	395.55
433.16	400.23
433.35	465.77
433.54	437.68
433.72	411.93
433.91	358.10
434.10	351.08
434.28	428.32
434.47	477.47
434.66	463.43
434.85	454.06
435.03	372.15
435.22	493.85
435.41	428.32
435.59	418.96
435.78	304.27
435.97	433.00
436.16	503.22
436.34	414.27
436.53	369.80
436.72	416.62
436.90	449.38
437.09	322.99
437.28	458.74
437.46	367.46
437.65	428.32
437.84	411.93
438.02	301.93
438.21	414.27
438.40	409.59
438.58	332.36
438.77	440.02
438.96	346.40
439.14	437.68
439.33	461.09
439.52	390.87
439.70	458.74
439.89	411.93
440.08	430.66
440.26	407.25
440.45	369.80
440.63	388.53
440.82	454.06
441.01	421.30
441.19	397.89
441.38	435.34
441.57	374.49
441.75	374.49
441.94	409.59
442.12	430.66
442.31	376.83
442.50	444.70
442.68	407.25
442.87	400.23
443.05	423.64
443.24	458.74
443.43	461.09
443.61	503.22
443.80	388.53
443.98	388.53
444.17	428.32
444.35	395.55
444.54	498.53
444.73	416.62
444.91	444.70
445.10	437.68
445.28	428.32
445.47	355.76
445.65	416.62
445.84	397.89
446.02	402.57
446.21	433.00
446.39	470.45
446.58	418.96
446.77	386.19
446.95	468.11
447.14	348.74
447.32	376.83
447.51	379.17
447.69	425.98
447.88	400.23
448.06	482.15
448.25	344.06
448.43	372.15
448.62	465.77
448.80	393.21
448.99	423.64
449.17	400.23
449.36	465.77
449.54	507.90
449.73	404.91
449.91	397.89
450.10	510.24
450.28	470.45
450.46	461.09
450.65	400.23
450.83	449.38
451.02	430.66
451.20	334.70
451.39	444.70
451.57	449.38
451.76	479.81
451.94	433.00
452.13	463.43
452.31	411.93
452.49	456.40
452.68	355.76
452.86	421.30
453.05	447.04
453.23	418.96
453.42	341.72
453.60	425.98
453.78	440.02
453.97	390.87
454.15	414.27
454.34	386.19
454.52	362.78
454.70	440.02
454.89	404.91
455.07	421.30
455.26	418.96
455.44	468.11
455.62	400.23
455.81	383.85
455.99	449.38
456.17	435.34
456.36	367.46
456.54	442.36
456.73	411.93
456.91	372.15
457.09	360.44
457.28	470.45
457.46	409.59
457.64	444.70
457.83	430.66
458.01	402.57
458.19	442.36
458.38	388.53
458.56	482.15
458.74	372.15
458.93	414.27
459.11	458.74
459.29	470.45
459.48	351.08
459.66	489.17
459.84	374.49
460.03	493.85
460.21	465.77
460.39	411.93
460.57	404.91
460.76	468.11
460.94	449.38
461.12	430.66
461.31	418.96
461.49	449.38
461.67	383.85
461.85	400.23
462.04	386.19
462.22	758.33
462.40	404.91
462.59	416.62
462.77	423.64
462.95	348.74
463.13	386.19
463.32	430.66
463.50	369.80
463.68	465.77
463.86	409.59
464.05	341.72
464.23	437.68
464.41	449.38
464.59	440.02
464.78	379.17
464.96	423.64
465.14	421.30
465.32	362.78
465.50	400.23
465.69	376.83
465.87	348.74
466.05	362.78
466.23	362.78
466.41	416.62
466.60	374.49
466.78	402.57
466.96	449.38
467.14	442.36
467.32	440.02
467.51	449.38
467.69	425.98
467.87	489.17
468.05	430.66
468.23	470.45
468.41	421.30
468.60	362.78
468.78	449.38
468.96	442.36
469.14	428.32
469.32	416.62
469.50	383.85
469.69	449.38
469.87	369.80
470.05	416.62
470.23	463.43
470.41	465.77
470.59	433.00
470.77	393.21
470.95	479.81
471.14	447.04
471.32	416.62
471.50	433.00
471.68	369.80
471.86	407.25
472.04	386.19
472.22	386.19
472.40	395.55
472.58	358.10
472.77	386.19
472.95	416.62
473.13	395.55
473.31	458.74
473.49	433.00
473.67	404.91
473.85	433.00
474.03	395.55
474.21	383.85
474.39	395.55
474.57	418.96
474.75	397.89
474.93	437.68
475.12	374.49
475.30	388.53
475.48	414.27
475.66	477.47
475.84	433.00
476.02	456.40
476.20	397.89
476.38	465.77
476.56	510.24
476.74	388.53
476.92	435.34
477.10	395.55
477.28	386.19
477.46	402.57
477.64	447.04
477.82	458.74
478.00	374.49
478.18	456.40
478.36	330.02
478.54	442.36
478.72	407.25
478.90	433.00
479.08	416.62
479.26	407.25
479.44	444.70
479.62	400.23
479.80	461.09
479.98	425.98
480.16	418.96
480.34	454.06
480.52	360.44
480.70	414.27
480.88	395.55
481.06	418.96
481.24	365.12
481.41	386.19
481.59	395.55
481.77	393.21
481.95	416.62
482.13	456.40
482.31	435.34
482.49	531.30
482.67	414.27
482.85	383.85
483.03	444.70
483.21	372.15
483.39	461.09
483.57	414.27
483.74	451.72
483.92	482.15
484.10	367.46
484.28	400.23
484.46	430.66
484.64	407.25
484.82	372.15
485.00	477.47
485.18	383.85
485.35	451.72
485.53	407.25
485.71	521.94
485.89	425.98
486.07	418.96
486.25	514.92
486.43	437.68
486.61	461.09
486.78	397.89
486.96	397.89
487.14	465.77
487.32	421.30
487.50	433.00
487.68	388.53
487.85	308.95
488.03	442.36
488.21	472.79
488.39	442.36
488.57	393.21
488.75	348.74
488.92	435.34
489.10	379.17
489.28	402.57
489.46	404.91
489.64	430.66
489.81	468.11
489.99	444.70
490.17	346.40
490.35	341.72
490.53	484.49
490.70	353.42
490.88	444.70
491.06	416.62
491.24	411.93
491.41	397.89
491.59	482.15
491.77	372.15
491.95	425.98
492.13	407.25
492.30	390.87
492.48	407.25
492.66	421.30
492.84	395.55
493.01	524.28
493.19	372.15
493.37	463.43
493.54	416.62
493.72	365.12
493.90	341.72
494.08	358.10
494.25	425.98
494.43	449.38
494.61	322.99
494.79	397.89
494.96	362.78
495.14	360.44
495.32	456.40
495.49	451.72
495.67	395.55
495.85	435.34
496.02	376.83
496.20	418.96
496.38	425.98
496.55	435.34
496.73	423.64
496.91	395.55
497.09	498.53
497.26	344.06
497.44	456.40
497.62	311.29
497.79	395.55
497.97	447.04
498.14	442.36
498.32	442.36
498.50	395.55
498.67	388.53
498.85	425.98
499.03	421.30
499.20	360.44
499.38	397.89
499.56	395.55
499.73	409.59
499.91	400.23
500.08	397.89
500.26	454.06
500.44	465.77
500.61	442.36
500.79	402.57
500.97	477.47
501.14	514.92
501.32	489.17
501.49	442.36
501.67	503.22
501.84	465.77
502.02	404.91
502.20	482.15
502.37	390.87
502.55	374.49
502.72	348.74
502.90	411.93
503.07	318.31
503.25	379.17
503.43	437.68
503.60	418.96
503.78	418.96
503.95	449.38
504.13	425.98
504.30	447.04
504.48	390.87
504.65	381.51
504.83	468.11
505.01	435.34
505.18	454.06
505.36	409.59
505.53	379.17
505.71	433.00
505.88	425.98
506.06	414.27
506.23	472.79
506.41	400.23
506.58	374.49
506.76	339.38
506.93	479.81
507.11	468.11
507.28	404.91
507.46	330.02
507.63	355.76
507.81	393.21
507.98	418.96
508.16	442.36
508.33	437.68
508.50	418.96
508.68	423.64
508.85	421.30
509.03	458.74
509.20	411.93
509.38	435.34
509.55	393.21
509.73	353.42
509.90	383.85
510.08	418.96
510.25	454.06
510.42	362.78
510.60	418.96
510.77	397.89
510.95	407.25
511.12	383.85
511.30	416.62
511.47	409.59
511.64	442.36
511.82	437.68
511.99	430.66
512.17	433.00
512.34	444.70
512.51	414.27
512.69	358.10
512.86	447.04
513.04	351.08
513.21	440.02
513.38	447.04
513.56	313.63
513.73	423.64
513.90	414.27
514.08	365.12
514.25	386.19
514.43	430.66
514.60	400.23
514.77	388.53
514.95	362.78
515.12	381.51
515.29	428.32
515.47	386.19
515.64	463.43
515.81	423.64
515.99	360.44
516.16	444.70
516.33	451.72
516.51	397.89
516.68	376.83
516.85	461.09
517.03	386.19
517.20	486.83
517.37	449.38
517.54	388.53
517.72	397.89
517.89	411.93
518.06	404.91
518.24	435.34
518.41	402.57
518.58	458.74
518.75	440.02
518.93	447.04
519.10	484.49
519.27	390.87
519.45	456.40
519.62	451.72
519.79	400.23
519.96	425.98
520.14	435.34
520.31	397.89
520.48	411.93
520.65	409.59
520.83	376.83
521.00	409.59
521.17	423.64
521.34	447.04
521.52	360.44
521.69	379.17
521.86	388.53
522.03	423.64
522.20	454.06
522.38	428.32
522.55	386.19
522.72	400.23
522.89	409.59
523.07	414.27
523.24	414.27
523.41	386.19
523.58	379.17
523.75	395.55
523.92	437.68
524.10	369.80
524.27	402.57
524.44	428.32
524.61	442.36
524.78	404.91
524.96	475.13
525.13	407.25
525.30	428.32
525.47	444.70
525.64	369.80
525.81	489.17
525.98	418.96
526.16	395.55
526.33	397.89
526.50	388.53
526.67	407.25
526.84	465.77
527.01	425.98
527.18	449.38
527.36	407.25
527.53	437.68
527.70	465.77
527.87	411.93
528.04	461.09
528.21	451.72
528.38	440.02
528.55	416.62
528.72	482.15
528.89	393.21
529.07	444.70
529.24	388.53
529.41	390.87
529.58	395.55
529.75	442.36
529.92	414.27
530.09	411.93
530.26	423.64
530.43	397.89
530.60	383.85
530.77	379.17
530.94	475.13
531.11	437.68
531.28	383.85
531.46	397.89
531.63	423.64
531.80	418.96
531.97	437.68
532.14	411.93
532.31	444.70
532.48	423.64
532.65	454.06
532.82	416.62
532.99	386.19
533.16	440.02
533.33	470.45
533.50	360.44
533.67	444.70
533.84	475.13
534.01	472.79
534.18	400.23
534.35	397.89
534.52	409.59
534.69	386.19
534.86	351.08
535.03	404.91
535.20	435.34
535.37	451.72
535.54	381.51
535.71	395.55
535.88	465.77
536.05	440.02
536.22	358.10
536.38	390.87
536.55	430.66
536.72	409.59
536.89	395.55
537.06	437.68
537.23	411.93
537.40	447.04
537.57	386.19
537.74	416.62
537.91	482.15
538.08	388.53
538.25	341.72
538.42	428.32
538.59	367.46
538.75	430.66
538.92	430.66
539.09	458.74
539.26	374.49
539.43	519.60
539.60	433.00
539.77	400.23
539.94	479.81
540.11	374.49
540.28	472.79
540.44	507.90
540.61	381.51
540.78	351.08
540.95	397.89
541.12	517.26
541.29	383.85
541.46	456.40
541.62	454.06
541.79	428.32
541.96	386.19
542.13	465.77
542.30	437.68
542.47	374.49
542.63	402.57
542.80	400.23
542.97	400.23
543.14	475.13
543.31	493.85
543.48	390.87
543.64	421.30
543.81	376.83
543.98	351.08
544.15	400.23
544.32	397.89
544.48	451.72
544.65	411.93
544.82	435.34
544.99	367.46
545.16	400.23
545.32	418.96
545.49	360.44
545.66	414.27
545.83	435.34
546.00	409.59
546.16	404.91
546.33	411.93
546.50	418.96
546.67	423.64
546.83	447.04
547.00	390.87
547.17	411.93
547.34	430.66
547.50	397.89
547.67	397.89
547.84	369.80
548.00	376.83
548.17	376.83
548.34	397.89
548.51	461.09
548.67	390.87
548.84	425.98
549.01	334.70
549.18	390.87
549.34	365.12
549.51	475.13
549.68	428.32
549.84	381.51
550.01	379.17
550.18	456.40
550.34	449.38
550.51	409.59
550.68	414.27
550.84	442.36
551.01	421.30
551.18	472.79
551.34	425.98
551.51	353.42
551.68	397.89
551.84	381.51
552.01	442.36
552.18	390.87
552.34	461.09
552.51	472.79
552.68	505.56
552.84	437.68
553.01	409.59
553.18	468.11
553.34	416.62
553.51	351.08
553.67	428.32
553.84	491.51
554.01	444.70
554.17	400.23
554.34	369.80
554.51	428.32
554.67	468.11
554.84	465.77
555.00	449.38
555.17	365.12
555.33	418.96
555.50	388.53
555.67	388.53
555.83	351.08
556.00	409.59
556.16	564.07
556.33	456.40
556.50	433.00
556.66	379.17
556.83	374.49
556.99	397.89
557.16	444.70
557.32	489.17
557.49	374.49
557.65	381.51
557.82	388.53
557.98	451.72
558.15	468.11
558.32	435.34
558.48	470.45
558.65	397.89
558.81	418.96
558.98	425.98
559.14	468.11
559.31	421.30
559.47	351.08
559.64	404.91
559.80	472.79
559.97	400.23
560.13	433.00
560.30	386.19
560.46	395.55
560.63	444.70
560.79	409.59
560.96	428.32
561.12	416.62
561.29	381.51
561.45	425.98
561.61	348.74
561.78	409.59
561.94	390.87
562.11	369.80
562.27	433.00
562.44	437.68
562.60	463.43
562.77	435.34
562.93	493.85
563.10	423.64
563.26	454.06
563.42	449.38
563.59	442.36
563.75	423.64
563.92	390.87
564.08	383.85
564.24	477.47
564.41	482.15
564.57	437.68
564.74	435.34
564.90	465.77
565.07	358.10
565.23	458.74
565.39	468.11
565.56	374.49
565.72	360.44
565.88	454.06
566.05	397.89
566.21	428.32
566.38	337.04
566.54	393.21
566.70	414.27
566.87	418.96
567.03	318.31
567.19	383.85
567.36	418.96
567.52	430.66
567.68	372.15
567.85	435.34
568.01	369.80
568.17	435.34
568.34	416.62
568.50	447.04
568.66	414.27
568.83	463.43
568.99	440.02
569.15	428.32
569.32	383.85
569.48	456.40
569.64	428.32
569.81	491.51
569.97	411.93
570.13	381.51
570.30	442.36
570.46	433.00
570.62	369.80
570.78	444.70
570.95	458.74
571.11	442.36
571.27	489.17
571.43	440.02
571.60	435.34
571.76	386.19
571.92	386.19
572.09	388.53
572.25	341.72
572.41	440.02
572.57	393.21
572.74	449.38
572.90	411.93
573.06	451.72
573.22	423.64
573.38	458.74
573.55	414.27
573.71	491.51
573.87	428.32
574.03	435.34
574.20	454.06
574.36	411.93
574.52	358.10
574.68	435.34
574.84	386.19
575.01	437.68
575.17	444.70
575.33	428.32
575.49	489.17
575.65	470.45
575.82	383.85
575.98	388.53
576.14	376.83
576.30	404.91
576.46	402.57
576.62	444.70
576.79	409.59
576.95	463.43
577.11	465.77
577.27	362.78
577.43	386.19
577.59	402.57
577.75	482.15
577.92	355.76
578.08	355.76
578.24	435.34
578.40	430.66
578.56	451.72
578.72	449.38
578.88	505.56
579.04	428.32
579.21	376.83
579.37	362.78
579.53	433.00
579.69	423.64
579.85	400.23
580.01	404.91
580.17	334.70
580.33	376.83
580.49	383.85
580.65	433.00
580.82	463.43
580.98	418.96
581.14	428.32
581.30	440.02
581.46	388.53
581.62	491.51
581.78	386.19
581.94	395.55
582.10	381.51
582.26	433.00
582.42	372.15
582.58	433.00
582.74	428.32
582.90	407.25
583.06	400.23
583.22	404.91
583.38	390.87
583.54	327.68
583.70	472.79
583.86	379.17
584.02	507.90
584.18	503.22
584.34	397.89
584.50	388.53
584.66	395.55
584.82	379.17
584.98	468.11
585.14	430.66
585.30	372.15
585.46	393.21
585.62	379.17
585.78	393.21
585.94	355.76
586.10	470.45
586.26	414.27
586.42	451.72
586.58	503.22
586.74	454.06
586.90	374.49
587.06	437.68
587.22	388.53
587.38	365.12
587.54	386.19
587.70	493.85
587.86	461.09
588.02	435.34
588.18	461.09
588.34	421.30
588.49	416.62
588.65	393.21
588.81	381.51
588.97	355.76
589.13	362.78
589.29	433.00
589.45	451.72
589.61	454.06
589.77	484.49
589.93	437.68
590.08	395.55
590.24	379.17
590.40	402.57
590.56	407.25
590.72	397.89
590.88	348.74
591.04	337.04
591.20	388.53
591.35	456.40
591.51	409.59
591.67	430.66
591.83	428.32
591.99	517.26
592.15	468.11
592.31	440.02
592.46	360.44
592.62	400.23
592.78	475.13
592.94	393.21
593.10	409.59
593.26	433.00
593.41	421.30
593.57	374.49
593.73	395.55
593.89	411.93
594.05	353.42
594.20	423.64
594.36	318.31
594.52	348.74
594.68	423.64
594.84	458.74
594.99	404.91
595.15	458.74
595.31	444.70
595.47	407.25
595.62	376.83
595.78	435.34
595.94	416.62
596.10	355.76
596.25	435.34
596.41	479.81
596.57	414.27
596.73	489.17
596.88	437.68
597.04	440.02
597.20	388.53
597.36	362.78
597.51	475.13
597.67	475.13
597.83	355.76
597.99	421.30
598.14	348.74
598.30	458.74
598.46	393.21
598.61	397.89
598.77	404.91
598.93	404.91
599.09	374.49
599.24	393.21
599.40	423.64
599.56	465.77
599.71	393.21
599.87	362.78
600.03	414.27
600.18	386.19
600.34	456.40
600.50	414.27
600.65	507.90
600.81	409.59
600.97	374.49
601.12	390.87
601.28	484.49
601.44	444.70
601.59	369.80
601.75	461.09
601.91	458.74
602.06	423.64
602.22	428.32
602.37	416.62
602.53	397.89
602.69	416.62
602.84	351.08
603.00	461.09
603.16	444.70
603.31	451.72
603.47	418.96
603.62	402.57
603.78	402.57
603.94	411.93
604.09	454.06
604.25	372.15
604.40	409.59
604.56	411.93
604.71	435.34
604.87	428.32
605.03	390.87
605.18	433.00
605.34	353.42
605.49	404.91
605.65	407.25
605.80	386.19
605.96	393.21
606.12	421.30
606.27	386.19
606.43	379.17
606.58	376.83
606.74	337.04
606.89	454.06
607.05	437.68
607.20	477.47
607.36	425.98
607.51	353.42
607.67	397.89
607.82	442.36
607.98	407.25
608.13	393.21
608.29	463.43
608.44	491.51
608.60	440.02
608.75	444.70
608.91	472.79
609.06	454.06
609.22	390.87
609.37	379.17
609.53	414.27
609.68	414.27
609.84	437.68
609.99	454.06
610.15	425.98
