SpectraSuite Data File
++++++++++++++++++++++++++++++++++++
Date: Fri Oct 25 12:11:18 EDT 2013
User: price-jones
Dark Spectrum Present: No
Reference Spectrum Present: No
Number of Sampled Component Spectra: 1
Spectrometers: USB2+H05261
Integration Time (usec): 100000 (USB2+H05261)
Spectra Averaged: 1 (USB2+H05261)
Boxcar Smoothing: 0 (USB2+H05261)
Correct for Electrical Dark: No (USB2+H05261)
Strobe/Lamp Enabled: No (USB2+H05261)
Correct for Detector Non-linearity: No (USB2+H05261)
Correct for Stray Light: No (USB2+H05261)
Number of Pixels in Processed Spectrum: 2048
>>>>>Begin Processed Spectral Data<<<<<
365.73	334.70
365.92	334.70
366.12	334.70
366.32	297.25
366.52	212.99
366.72	351.08
366.91	304.27
367.11	273.84
367.31	259.80
367.51	203.63
367.70	245.76
367.90	229.37
368.10	322.99
368.30	241.08
368.49	217.67
368.69	236.39
368.89	248.10
369.09	257.46
369.28	257.46
369.48	287.89
369.68	330.02
369.87	327.68
370.07	362.78
370.27	351.08
370.47	360.44
370.66	332.36
370.86	376.83
371.06	425.98
371.25	402.57
371.45	301.93
371.65	367.46
371.84	318.31
372.04	360.44
372.24	379.17
372.44	353.42
372.63	372.15
372.83	433.00
373.03	416.62
373.22	440.02
373.42	400.23
373.62	435.34
373.81	404.91
374.01	416.62
374.21	512.58
374.40	369.80
374.60	451.72
374.79	407.25
374.99	414.27
375.19	400.23
375.38	318.31
375.58	416.62
375.78	425.98
375.97	404.91
376.17	425.98
376.37	444.70
376.56	367.46
376.76	484.49
376.95	374.49
377.15	433.00
377.35	379.17
377.54	416.62
377.74	447.04
377.93	433.00
378.13	421.30
378.33	440.02
378.52	442.36
378.72	435.34
378.91	496.19
379.11	372.15
379.31	379.17
379.50	381.51
379.70	416.62
379.89	407.25
380.09	421.30
380.28	421.30
380.48	414.27
380.68	442.36
380.87	423.64
381.07	407.25
381.26	407.25
381.46	358.10
381.65	447.04
381.85	381.51
382.04	472.79
382.24	442.36
382.43	468.11
382.63	351.08
382.83	447.04
383.02	416.62
383.22	447.04
383.41	379.17
383.61	355.76
383.80	358.10
384.00	402.57
384.19	437.68
384.39	458.74
384.58	383.85
384.78	479.81
384.97	423.64
385.17	402.57
385.36	463.43
385.56	383.85
385.75	507.90
385.95	425.98
386.14	442.36
386.34	430.66
386.53	421.30
386.72	435.34
386.92	411.93
387.11	393.21
387.31	390.87
387.50	360.44
387.70	447.04
387.89	430.66
388.09	404.91
388.28	332.36
388.48	311.29
388.67	435.34
388.86	416.62
389.06	416.62
389.25	390.87
389.45	442.36
389.64	400.23
389.84	456.40
390.03	444.70
390.22	360.44
390.42	348.74
390.61	421.30
390.81	444.70
391.00	381.51
391.19	407.25
391.39	383.85
391.58	414.27
391.78	423.64
391.97	435.34
392.16	409.59
392.36	416.62
392.55	437.68
392.75	374.49
392.94	395.55
393.13	383.85
393.33	416.62
393.52	461.09
393.71	496.19
393.91	418.96
394.10	397.89
394.29	411.93
394.49	402.57
394.68	365.12
394.88	423.64
395.07	428.32
395.26	451.72
395.46	449.38
395.65	397.89
395.84	400.23
396.04	451.72
396.23	454.06
396.42	442.36
396.62	428.32
396.81	454.06
397.00	353.42
397.19	369.80
397.39	461.09
397.58	451.72
397.77	411.93
397.97	409.59
398.16	411.93
398.35	430.66
398.55	390.87
398.74	390.87
398.93	456.40
399.12	358.10
399.32	449.38
399.51	358.10
399.70	395.55
399.90	358.10
400.09	442.36
400.28	414.27
400.47	341.72
400.67	423.64
400.86	430.66
401.05	367.46
401.24	409.59
401.44	416.62
401.63	386.19
401.82	423.64
402.01	400.23
402.21	351.08
402.40	442.36
402.59	437.68
402.78	346.40
402.97	381.51
403.17	400.23
403.36	423.64
403.55	369.80
403.74	430.66
403.93	381.51
404.13	409.59
404.32	379.17
404.51	418.96
404.70	379.17
404.89	393.21
405.09	496.19
405.28	386.19
405.47	428.32
405.66	423.64
405.85	430.66
406.05	416.62
406.24	402.57
406.43	367.46
406.62	395.55
406.81	390.87
407.00	386.19
407.20	465.77
407.39	395.55
407.58	393.21
407.77	362.78
407.96	390.87
408.15	484.49
408.34	447.04
408.54	390.87
408.73	505.56
408.92	421.30
409.11	404.91
409.30	367.46
409.49	362.78
409.68	395.55
409.87	390.87
410.07	433.00
410.26	435.34
410.45	383.85
410.64	297.25
410.83	409.59
411.02	418.96
411.21	376.83
411.40	416.62
411.59	344.06
411.78	465.77
411.98	409.59
412.17	337.04
412.36	425.98
412.55	341.72
412.74	489.17
412.93	390.87
413.12	435.34
413.31	423.64
413.50	393.21
413.69	447.04
413.88	395.55
414.07	407.25
414.26	451.72
414.45	421.30
414.64	383.85
414.83	418.96
415.02	496.19
415.22	404.91
415.41	491.51
415.60	358.10
415.79	365.12
415.98	379.17
416.17	451.72
416.36	395.55
416.55	425.98
416.74	430.66
416.93	421.30
417.12	411.93
417.31	458.74
417.50	428.32
417.69	458.74
417.88	421.30
418.07	395.55
418.26	393.21
418.45	358.10
418.64	425.98
418.83	416.62
419.02	395.55
419.21	470.45
419.39	454.06
419.58	395.55
419.77	362.78
419.96	390.87
420.15	524.28
420.34	437.68
420.53	383.85
420.72	369.80
420.91	402.57
421.10	383.85
421.29	315.97
421.48	477.47
421.67	468.11
421.86	390.87
422.05	482.15
422.24	376.83
422.43	369.80
422.61	390.87
422.80	430.66
422.99	456.40
423.18	447.04
423.37	447.04
423.56	407.25
423.75	411.93
423.94	348.74
424.13	372.15
424.32	416.62
424.50	435.34
424.69	486.83
424.88	449.38
425.07	454.06
425.26	430.66
425.45	425.98
425.64	454.06
425.83	425.98
426.01	360.44
426.20	322.99
426.39	418.96
426.58	482.15
426.77	411.93
426.96	407.25
427.15	348.74
427.33	454.06
427.52	369.80
427.71	454.06
427.90	397.89
428.09	430.66
428.28	320.65
428.46	493.85
428.65	433.00
428.84	358.10
429.03	383.85
429.22	397.89
429.40	395.55
429.59	376.83
429.78	482.15
429.97	421.30
430.16	365.12
430.34	456.40
430.53	381.51
430.72	409.59
430.91	454.06
431.10	425.98
431.28	390.87
431.47	440.02
431.66	320.65
431.85	383.85
432.03	400.23
432.22	496.19
432.41	423.64
432.60	411.93
432.79	400.23
432.97	428.32
433.16	444.70
433.35	423.64
433.54	411.93
433.72	430.66
433.91	425.98
434.10	379.17
434.28	416.62
434.47	393.21
434.66	400.23
434.85	437.68
435.03	409.59
435.22	397.89
435.41	472.79
435.59	447.04
435.78	430.66
435.97	372.15
436.16	449.38
436.34	358.10
436.53	442.36
436.72	489.17
436.90	430.66
437.09	421.30
437.28	390.87
437.46	353.42
437.65	381.51
437.84	472.79
438.02	376.83
438.21	421.30
438.40	395.55
438.58	411.93
438.77	435.34
438.96	397.89
439.14	423.64
439.33	461.09
439.52	444.70
439.70	390.87
439.89	444.70
440.08	418.96
440.26	404.91
440.45	514.92
440.63	463.43
440.82	425.98
441.01	353.42
441.19	409.59
441.38	416.62
441.57	376.83
441.75	475.13
441.94	458.74
442.12	411.93
442.31	444.70
442.50	444.70
442.68	454.06
442.87	449.38
443.05	458.74
443.24	348.74
443.43	386.19
443.61	507.90
443.80	437.68
443.98	451.72
444.17	390.87
444.35	379.17
444.54	418.96
444.73	414.27
444.91	437.68
445.10	404.91
445.28	346.40
445.47	393.21
445.65	388.53
445.84	414.27
446.02	381.51
446.21	397.89
446.39	393.21
446.58	400.23
446.77	468.11
446.95	337.04
447.14	376.83
447.32	433.00
447.51	362.78
447.69	430.66
447.88	442.36
448.06	468.11
448.25	447.04
448.43	425.98
448.62	369.80
448.80	437.68
448.99	489.17
449.17	358.10
449.36	362.78
449.54	456.40
449.73	409.59
449.91	355.76
450.10	395.55
450.28	444.70
450.46	461.09
450.65	372.15
450.83	423.64
451.02	435.34
451.20	418.96
451.39	458.74
451.57	402.57
451.76	447.04
451.94	458.74
452.13	374.49
452.31	374.49
452.49	374.49
452.68	372.15
452.86	491.51
453.05	463.43
453.23	372.15
453.42	362.78
453.60	423.64
453.78	433.00
453.97	400.23
454.15	379.17
454.34	407.25
454.52	346.40
454.70	437.68
454.89	358.10
455.07	479.81
455.26	423.64
455.44	416.62
455.62	461.09
455.81	376.83
455.99	433.00
456.17	421.30
456.36	407.25
456.54	402.57
456.73	402.57
456.91	447.04
457.09	388.53
457.28	475.13
457.46	393.21
457.64	486.83
457.83	437.68
458.01	414.27
458.19	440.02
458.38	369.80
458.56	444.70
458.74	367.46
458.93	414.27
459.11	416.62
459.29	332.36
459.48	388.53
459.66	493.85
459.84	482.15
460.03	505.56
460.21	397.89
460.39	430.66
460.57	404.91
460.76	465.77
460.94	388.53
461.12	470.45
461.31	477.47
461.49	393.21
461.67	381.51
461.85	477.47
462.04	423.64
462.22	772.38
462.40	449.38
462.59	365.12
462.77	435.34
462.95	423.64
463.13	395.55
463.32	421.30
463.50	369.80
463.68	440.02
463.86	433.00
464.05	416.62
464.23	402.57
464.41	418.96
464.59	411.93
464.78	451.72
464.96	454.06
465.14	500.87
465.32	388.53
465.50	472.79
465.69	372.15
465.87	353.42
466.05	402.57
466.23	372.15
466.41	374.49
466.60	409.59
466.78	444.70
466.96	486.83
467.14	428.32
467.32	451.72
467.51	421.30
467.69	409.59
467.87	404.91
468.05	404.91
468.23	477.47
468.41	383.85
468.60	421.30
468.78	435.34
468.96	461.09
469.14	458.74
469.32	425.98
469.50	451.72
469.69	397.89
469.87	404.91
470.05	404.91
470.23	428.32
470.41	479.81
470.59	414.27
470.77	456.40
470.95	425.98
471.14	411.93
471.32	414.27
471.50	465.77
471.68	360.44
471.86	449.38
472.04	414.27
472.22	444.70
472.40	428.32
472.58	411.93
472.77	383.85
472.95	404.91
473.13	411.93
473.31	458.74
473.49	449.38
473.67	327.68
473.85	355.76
474.03	423.64
474.21	388.53
474.39	479.81
474.57	559.39
474.75	379.17
474.93	400.23
475.12	407.25
475.30	451.72
475.48	435.34
475.66	386.19
475.84	461.09
476.02	423.64
476.20	437.68
476.38	367.46
476.56	468.11
476.74	416.62
476.92	528.96
477.10	470.45
477.28	435.34
477.46	465.77
477.64	383.85
477.82	395.55
478.00	472.79
478.18	381.51
478.36	435.34
478.54	421.30
478.72	362.78
478.90	489.17
479.08	421.30
479.26	447.04
479.44	393.21
479.62	456.40
479.80	414.27
479.98	362.78
480.16	362.78
480.34	482.15
480.52	390.87
480.70	421.30
480.88	395.55
481.06	433.00
481.24	402.57
481.41	416.62
481.59	409.59
481.77	430.66
481.95	379.17
482.13	402.57
482.31	423.64
482.49	444.70
482.67	465.77
482.85	475.13
483.03	411.93
483.21	465.77
483.39	416.62
483.57	510.24
483.74	437.68
483.92	454.06
484.10	393.21
484.28	383.85
484.46	430.66
484.64	386.19
484.82	407.25
485.00	409.59
485.18	386.19
485.35	376.83
485.53	358.10
485.71	475.13
485.89	435.34
486.07	456.40
486.25	477.47
486.43	381.51
486.61	433.00
486.78	409.59
486.96	461.09
487.14	383.85
487.32	383.85
487.50	477.47
487.68	456.40
487.85	404.91
488.03	367.46
488.21	348.74
488.39	416.62
488.57	456.40
488.75	409.59
488.92	475.13
489.10	491.51
489.28	500.87
489.46	393.21
489.64	374.49
489.81	395.55
489.99	381.51
490.17	416.62
490.35	440.02
490.53	372.15
490.70	411.93
490.88	379.17
491.06	346.40
491.24	437.68
491.41	458.74
491.59	421.30
491.77	397.89
491.95	376.83
492.13	454.06
492.30	444.70
492.48	440.02
492.66	402.57
492.84	374.49
493.01	393.21
493.19	425.98
493.37	472.79
493.54	461.09
493.72	440.02
493.90	449.38
494.08	383.85
494.25	433.00
494.43	423.64
494.61	344.06
494.79	418.96
494.96	365.12
495.14	430.66
495.32	456.40
495.49	465.77
495.67	458.74
495.85	430.66
496.02	407.25
496.20	461.09
496.38	468.11
496.55	428.32
496.73	383.85
496.91	442.36
497.09	433.00
497.26	376.83
497.44	402.57
497.62	383.85
497.79	397.89
497.97	447.04
498.14	388.53
498.32	514.92
498.50	449.38
498.67	393.21
498.85	353.42
499.03	388.53
499.20	386.19
499.38	435.34
499.56	425.98
499.73	402.57
499.91	463.43
500.08	423.64
500.26	440.02
500.44	528.96
500.61	444.70
500.79	407.25
500.97	428.32
501.14	456.40
501.32	449.38
501.49	503.22
501.67	400.23
501.84	444.70
502.02	383.85
502.20	454.06
502.37	505.56
502.55	355.76
502.72	404.91
502.90	514.92
503.07	505.56
503.25	472.79
503.43	395.55
503.60	416.62
503.78	444.70
503.95	409.59
504.13	437.68
504.30	428.32
504.48	449.38
504.65	433.00
504.83	468.11
505.01	379.17
505.18	423.64
505.36	400.23
505.53	381.51
505.71	454.06
505.88	407.25
506.06	430.66
506.23	472.79
506.41	435.34
506.58	400.23
506.76	372.15
506.93	475.13
507.11	379.17
507.28	381.51
507.46	425.98
507.63	433.00
507.81	454.06
507.98	374.49
508.16	458.74
508.33	381.51
508.50	444.70
508.68	393.21
508.85	416.62
509.03	425.98
509.20	383.85
509.38	400.23
509.55	418.96
509.73	465.77
509.90	416.62
510.08	379.17
510.25	442.36
510.42	393.21
510.60	404.91
510.77	435.34
510.95	444.70
511.12	367.46
511.30	454.06
511.47	421.30
511.64	435.34
511.82	379.17
511.99	435.34
512.17	449.38
512.34	386.19
512.51	353.42
512.69	386.19
512.86	402.57
513.04	386.19
513.21	442.36
513.38	463.43
513.56	449.38
513.73	451.72
513.90	367.46
514.08	367.46
514.25	440.02
514.43	451.72
514.60	393.21
514.77	430.66
514.95	402.57
515.12	362.78
515.29	390.87
515.47	414.27
515.64	397.89
515.81	418.96
515.99	491.51
516.16	454.06
516.33	454.06
516.51	367.46
516.68	402.57
516.85	374.49
517.03	447.04
517.20	393.21
517.37	386.19
517.54	463.43
517.72	461.09
517.89	369.80
518.06	444.70
518.24	493.85
518.41	435.34
518.58	416.62
518.75	444.70
518.93	414.27
519.10	423.64
519.27	416.62
519.45	430.66
519.62	428.32
519.79	463.43
519.96	409.59
520.14	479.81
520.31	416.62
520.48	437.68
520.65	386.19
520.83	437.68
521.00	395.55
521.17	475.13
521.34	442.36
521.52	475.13
521.69	451.72
521.86	447.04
522.03	463.43
522.20	409.59
522.38	393.21
522.55	395.55
522.72	437.68
522.89	372.15
523.07	489.17
523.24	423.64
523.41	449.38
523.58	486.83
523.75	444.70
523.92	301.93
524.10	425.98
524.27	440.02
524.44	428.32
524.61	498.53
524.78	449.38
524.96	397.89
525.13	369.80
525.30	472.79
525.47	409.59
525.64	468.11
525.81	374.49
525.98	395.55
526.16	442.36
526.33	451.72
526.50	444.70
526.67	339.38
526.84	369.80
527.01	444.70
527.18	423.64
527.36	423.64
527.53	409.59
527.70	507.90
527.87	486.83
528.04	376.83
528.21	458.74
528.38	418.96
528.55	451.72
528.72	447.04
528.89	491.51
529.07	404.91
529.24	491.51
529.41	458.74
529.58	468.11
529.75	437.68
529.92	435.34
530.09	369.80
530.26	463.43
530.43	449.38
530.60	463.43
530.77	374.49
530.94	358.10
531.11	409.59
531.28	421.30
531.46	423.64
531.63	456.40
531.80	402.57
531.97	369.80
532.14	407.25
532.31	407.25
532.48	397.89
532.65	430.66
532.82	451.72
532.99	404.91
533.16	454.06
533.33	451.72
533.50	421.30
533.67	444.70
533.84	388.53
534.01	414.27
534.18	367.46
534.35	402.57
534.52	353.42
534.69	418.96
534.86	477.47
535.03	395.55
535.20	428.32
535.37	503.22
535.54	428.32
535.71	449.38
535.88	435.34
536.05	423.64
536.22	437.68
536.38	449.38
536.55	421.30
536.72	447.04
536.89	383.85
537.06	421.30
537.23	468.11
537.40	463.43
537.57	393.21
537.74	458.74
537.91	442.36
538.08	491.51
538.25	365.12
538.42	440.02
538.59	381.51
538.75	379.17
538.92	447.04
539.09	461.09
539.26	458.74
539.43	388.53
539.60	353.42
539.77	409.59
539.94	360.44
540.11	383.85
540.28	456.40
540.44	397.89
540.61	433.00
540.78	430.66
540.95	390.87
541.12	463.43
541.29	365.12
541.46	468.11
541.62	383.85
541.79	337.04
541.96	337.04
542.13	514.92
542.30	395.55
542.47	404.91
542.63	411.93
542.80	379.17
542.97	489.17
543.14	414.27
543.31	407.25
543.48	411.93
543.64	468.11
543.81	418.96
543.98	381.51
544.15	404.91
544.32	400.23
544.48	379.17
544.65	449.38
544.82	409.59
544.99	421.30
545.16	498.53
545.32	351.08
545.49	411.93
545.66	393.21
545.83	449.38
546.00	468.11
546.16	390.87
546.33	367.46
546.50	409.59
546.67	437.68
546.83	444.70
547.00	428.32
547.17	437.68
547.34	341.72
547.50	400.23
547.67	393.21
547.84	404.91
548.00	421.30
548.17	437.68
548.34	397.89
548.51	409.59
548.67	425.98
548.84	475.13
549.01	449.38
549.18	386.19
549.34	470.45
549.51	440.02
549.68	477.47
549.84	440.02
550.01	409.59
550.18	444.70
550.34	458.74
550.51	409.59
550.68	470.45
550.84	425.98
551.01	407.25
551.18	411.93
551.34	393.21
551.51	421.30
551.68	341.72
551.84	437.68
552.01	444.70
552.18	437.68
552.34	365.12
552.51	404.91
552.68	414.27
552.84	423.64
553.01	395.55
553.18	421.30
553.34	472.79
553.51	376.83
553.67	458.74
553.84	479.81
554.01	428.32
554.17	407.25
554.34	451.72
554.51	411.93
554.67	430.66
554.84	475.13
555.00	414.27
555.17	437.68
555.33	500.87
555.50	477.47
555.67	430.66
555.83	388.53
556.00	407.25
556.16	552.37
556.33	416.62
556.50	425.98
556.66	447.04
556.83	423.64
556.99	510.24
557.16	416.62
557.32	435.34
557.49	458.74
557.65	428.32
557.82	365.12
557.98	386.19
558.15	376.83
558.32	351.08
558.48	440.02
558.65	381.51
558.81	400.23
558.98	400.23
559.14	456.40
559.31	344.06
559.47	442.36
559.64	397.89
559.80	425.98
559.97	435.34
560.13	430.66
560.30	390.87
560.46	353.42
560.63	402.57
560.79	465.77
560.96	449.38
561.12	461.09
561.29	416.62
561.45	458.74
561.61	484.49
561.78	463.43
561.94	407.25
562.11	433.00
562.27	383.85
562.44	454.06
562.60	358.10
562.77	379.17
562.93	444.70
563.10	435.34
563.26	407.25
563.42	472.79
563.59	493.85
563.75	339.38
563.92	400.23
564.08	463.43
564.24	447.04
564.41	433.00
564.57	409.59
564.74	395.55
564.90	409.59
565.07	355.76
565.23	496.19
565.39	425.98
565.56	447.04
565.72	390.87
565.88	437.68
566.05	339.38
566.21	440.02
566.38	407.25
566.54	435.34
566.70	395.55
566.87	400.23
567.03	407.25
567.19	437.68
567.36	472.79
567.52	454.06
567.68	423.64
567.85	430.66
568.01	393.21
568.17	456.40
568.34	489.17
568.50	374.49
568.66	393.21
568.83	414.27
568.99	393.21
569.15	451.72
569.32	425.98
569.48	437.68
569.64	379.17
569.81	421.30
569.97	423.64
570.13	456.40
570.30	402.57
570.46	383.85
570.62	416.62
570.78	379.17
570.95	400.23
571.11	428.32
571.27	409.59
571.43	433.00
571.60	456.40
571.76	404.91
571.92	425.98
572.09	395.55
572.25	416.62
572.41	404.91
572.57	353.42
572.74	470.45
572.90	440.02
573.06	388.53
573.22	402.57
573.38	491.51
573.55	409.59
573.71	433.00
573.87	339.38
574.03	388.53
574.20	442.36
574.36	447.04
574.52	418.96
574.68	390.87
574.84	430.66
575.01	425.98
575.17	437.68
575.33	402.57
575.49	360.44
575.65	418.96
575.82	425.98
575.98	423.64
576.14	482.15
576.30	437.68
576.46	402.57
576.62	421.30
576.79	407.25
576.95	447.04
577.11	423.64
577.27	411.93
577.43	388.53
577.59	486.83
577.75	449.38
577.92	402.57
578.08	404.91
578.24	428.32
578.40	409.59
578.56	444.70
578.72	493.85
578.88	454.06
579.04	423.64
579.21	470.45
579.37	456.40
579.53	425.98
579.69	409.59
579.85	355.76
580.01	468.11
580.17	468.11
580.33	379.17
580.49	433.00
580.65	425.98
580.82	423.64
580.98	395.55
581.14	362.78
581.30	411.93
581.46	348.74
581.62	416.62
581.78	383.85
581.94	470.45
582.10	388.53
582.26	386.19
582.42	461.09
582.58	416.62
582.74	332.36
582.90	341.72
583.06	388.53
583.22	390.87
583.38	379.17
583.54	433.00
583.70	416.62
583.86	414.27
584.02	409.59
584.18	414.27
584.34	383.85
584.50	395.55
584.66	482.15
584.82	386.19
584.98	428.32
585.14	475.13
585.30	435.34
585.46	407.25
585.62	355.76
585.78	365.12
585.94	400.23
586.10	463.43
586.26	461.09
586.42	479.81
586.58	418.96
586.74	407.25
586.90	379.17
587.06	393.21
587.22	454.06
587.38	390.87
587.54	451.72
587.70	428.32
587.86	339.38
588.02	416.62
588.18	407.25
588.34	416.62
588.49	381.51
588.65	433.00
588.81	423.64
588.97	409.59
589.13	449.38
589.29	332.36
589.45	507.90
589.61	379.17
589.77	444.70
589.93	397.89
590.08	397.89
590.24	397.89
590.40	489.17
590.56	430.66
590.72	433.00
590.88	402.57
591.04	355.76
591.20	444.70
591.35	463.43
591.51	409.59
591.67	428.32
591.83	411.93
591.99	341.72
592.15	404.91
592.31	454.06
592.46	479.81
592.62	428.32
592.78	325.33
592.94	393.21
593.10	418.96
593.26	435.34
593.41	435.34
593.57	425.98
593.73	355.76
593.89	440.02
594.05	393.21
594.20	355.76
594.36	346.40
594.52	425.98
594.68	423.64
594.84	475.13
594.99	367.46
595.15	362.78
595.31	461.09
595.47	437.68
595.62	437.68
595.78	411.93
595.94	367.46
596.10	437.68
596.25	411.93
596.41	428.32
596.57	423.64
596.73	444.70
596.88	372.15
597.04	454.06
597.20	355.76
597.36	402.57
597.51	330.02
597.67	423.64
597.83	421.30
597.99	456.40
598.14	451.72
598.30	351.08
598.46	430.66
598.61	496.19
598.77	440.02
598.93	416.62
599.09	376.83
599.24	376.83
599.40	355.76
599.56	421.30
599.71	386.19
599.87	327.68
600.03	409.59
600.18	409.59
600.34	423.64
600.50	425.98
600.65	372.15
600.81	407.25
600.97	393.21
601.12	348.74
601.28	442.36
601.44	435.34
601.59	374.49
601.75	409.59
601.91	404.91
602.06	477.47
602.22	454.06
602.37	435.34
602.53	388.53
602.69	409.59
602.84	461.09
603.00	381.51
603.16	423.64
603.31	400.23
603.47	407.25
603.62	444.70
603.78	442.36
603.94	402.57
604.09	465.77
604.25	416.62
604.40	397.89
604.56	411.93
604.71	395.55
604.87	411.93
605.03	451.72
605.18	414.27
605.34	449.38
605.49	416.62
605.65	386.19
605.80	334.70
605.96	397.89
606.12	404.91
606.27	428.32
606.43	435.34
606.58	493.85
606.74	423.64
606.89	461.09
607.05	482.15
607.20	475.13
607.36	395.55
607.51	404.91
607.67	397.89
607.82	435.34
607.98	503.22
608.13	367.46
608.29	414.27
608.44	470.45
608.60	358.10
608.75	442.36
608.91	381.51
609.06	468.11
609.22	477.47
609.37	423.64
609.53	444.70
609.68	461.09
609.84	390.87
609.99	430.66
610.15	423.64
