SpectraSuite Data File
++++++++++++++++++++++++++++++++++++
Date: Fri Oct 25 12:11:01 EDT 2013
User: price-jones
Dark Spectrum Present: No
Reference Spectrum Present: No
Number of Sampled Component Spectra: 1
Spectrometers: USB2+H05261
Integration Time (usec): 100000 (USB2+H05261)
Spectra Averaged: 1 (USB2+H05261)
Boxcar Smoothing: 0 (USB2+H05261)
Correct for Electrical Dark: No (USB2+H05261)
Strobe/Lamp Enabled: No (USB2+H05261)
Correct for Detector Non-linearity: No (USB2+H05261)
Correct for Stray Light: No (USB2+H05261)
Number of Pixels in Processed Spectrum: 2048
>>>>>Begin Processed Spectral Data<<<<<
365.73	416.62
365.92	416.62
366.12	416.62
366.32	266.82
366.52	212.99
366.72	259.80
366.91	229.37
367.11	252.78
367.31	241.08
367.51	224.69
367.70	271.50
367.90	236.39
368.10	229.37
368.30	227.03
368.49	257.46
368.69	208.31
368.89	252.78
369.09	250.44
369.28	292.57
369.48	222.35
369.68	315.97
369.87	273.84
370.07	294.91
370.27	358.10
370.47	271.50
370.66	266.82
370.86	346.40
371.06	418.96
371.25	353.42
371.45	400.23
371.65	351.08
371.84	400.23
372.04	411.93
372.24	383.85
372.44	428.32
372.63	355.76
372.83	386.19
373.03	444.70
373.22	367.46
373.42	468.11
373.62	461.09
373.81	444.70
374.01	482.15
374.21	437.68
374.40	360.44
374.60	423.64
374.79	365.12
374.99	454.06
375.19	402.57
375.38	463.43
375.58	461.09
375.78	510.24
375.97	477.47
376.17	540.66
376.37	381.51
376.56	411.93
376.76	400.23
376.95	416.62
377.15	428.32
377.35	433.00
377.54	454.06
377.74	409.59
377.93	437.68
378.13	374.49
378.33	332.36
378.52	430.66
378.72	393.21
378.91	440.02
379.11	451.72
379.31	379.17
379.50	437.68
379.70	433.00
379.89	425.98
380.09	414.27
380.28	372.15
380.48	400.23
380.68	369.80
380.87	374.49
381.07	414.27
381.26	437.68
381.46	379.17
381.65	404.91
381.85	395.55
382.04	458.74
382.24	463.43
382.43	360.44
382.63	372.15
382.83	440.02
383.02	407.25
383.22	435.34
383.41	425.98
383.61	470.45
383.80	484.49
384.00	381.51
384.19	339.38
384.39	416.62
384.58	430.66
384.78	379.17
384.97	320.65
385.17	404.91
385.36	360.44
385.56	344.06
385.75	337.04
385.95	330.02
386.14	301.93
386.34	409.59
386.53	383.85
386.72	416.62
386.92	395.55
387.11	390.87
387.31	423.64
387.50	409.59
387.70	430.66
387.89	433.00
388.09	433.00
388.28	379.17
388.48	461.09
388.67	418.96
388.86	362.78
389.06	393.21
389.25	425.98
389.45	390.87
389.64	379.17
389.84	414.27
390.03	353.42
390.22	369.80
390.42	397.89
390.61	444.70
390.81	339.38
391.00	463.43
391.19	353.42
391.39	470.45
391.58	388.53
391.78	400.23
391.97	430.66
392.16	344.06
392.36	440.02
392.55	360.44
392.75	362.78
392.94	423.64
393.13	491.51
393.33	355.76
393.52	313.63
393.71	454.06
393.91	395.55
394.10	348.74
394.29	447.04
394.49	418.96
394.68	397.89
394.88	407.25
395.07	397.89
395.26	407.25
395.46	468.11
395.65	397.89
395.84	425.98
396.04	449.38
396.23	451.72
396.42	411.93
396.62	425.98
396.81	416.62
397.00	379.17
397.19	376.83
397.39	416.62
397.58	514.92
397.77	404.91
397.97	423.64
398.16	433.00
398.35	433.00
398.55	332.36
398.74	409.59
398.93	367.46
399.12	367.46
399.32	411.93
399.51	425.98
399.70	496.19
399.90	360.44
400.09	463.43
400.28	353.42
400.47	411.93
400.67	367.46
400.86	367.46
401.05	433.00
401.24	442.36
401.44	390.87
401.63	374.49
401.82	425.98
402.01	407.25
402.21	425.98
402.40	397.89
402.59	367.46
402.78	421.30
402.97	402.57
403.17	397.89
403.36	400.23
403.55	470.45
403.74	416.62
403.93	376.83
404.13	484.49
404.32	524.28
404.51	411.93
404.70	365.12
404.89	386.19
405.09	440.02
405.28	376.83
405.47	395.55
405.66	449.38
405.85	428.32
406.05	454.06
406.24	407.25
406.43	360.44
406.62	416.62
406.81	463.43
407.00	411.93
407.20	458.74
407.39	369.80
407.58	322.99
407.77	425.98
407.96	440.02
408.15	461.09
408.34	421.30
408.54	477.47
408.73	379.17
408.92	482.15
409.11	430.66
409.30	468.11
409.49	383.85
409.68	390.87
409.87	430.66
410.07	362.78
410.26	362.78
410.45	397.89
410.64	386.19
410.83	468.11
411.02	330.02
411.21	430.66
411.40	411.93
411.59	376.83
411.78	395.55
411.98	365.12
412.17	411.93
412.36	428.32
412.55	451.72
412.74	379.17
412.93	397.89
413.12	383.85
413.31	407.25
413.50	454.06
413.69	383.85
413.88	421.30
414.07	390.87
414.26	423.64
414.45	341.72
414.64	477.47
414.83	418.96
415.02	372.15
415.22	386.19
415.41	444.70
415.60	402.57
415.79	404.91
415.98	423.64
416.17	468.11
416.36	388.53
416.55	351.08
416.74	503.22
416.93	486.83
417.12	358.10
417.31	456.40
417.50	409.59
417.69	430.66
417.88	416.62
418.07	388.53
418.26	414.27
418.45	416.62
418.64	475.13
418.83	390.87
419.02	440.02
419.21	449.38
419.39	435.34
419.58	383.85
419.77	386.19
419.96	454.06
420.15	500.87
420.34	461.09
420.53	437.68
420.72	400.23
420.91	365.12
421.10	393.21
421.29	400.23
421.48	421.30
421.67	395.55
421.86	416.62
422.05	351.08
422.24	433.00
422.43	465.77
422.61	353.42
422.80	463.43
422.99	386.19
423.18	337.04
423.37	465.77
423.56	395.55
423.75	411.93
423.94	442.36
424.13	416.62
424.32	470.45
424.50	425.98
424.69	402.57
424.88	437.68
425.07	376.83
425.26	444.70
425.45	456.40
425.64	463.43
425.83	407.25
426.01	477.47
426.20	435.34
426.39	404.91
426.58	416.62
426.77	334.70
426.96	372.15
427.15	353.42
427.33	409.59
427.52	433.00
427.71	425.98
427.90	472.79
428.09	425.98
428.28	421.30
428.46	404.91
428.65	388.53
428.84	430.66
429.03	411.93
429.22	440.02
429.40	346.40
429.59	372.15
429.78	440.02
429.97	390.87
430.16	400.23
430.34	376.83
430.53	393.21
430.72	440.02
430.91	414.27
431.10	435.34
431.28	416.62
431.47	355.76
431.66	395.55
431.85	437.68
432.03	379.17
432.22	433.00
432.41	421.30
432.60	411.93
432.79	430.66
432.97	442.36
433.16	414.27
433.35	339.38
433.54	367.46
433.72	390.87
433.91	442.36
434.10	409.59
434.28	463.43
434.47	409.59
434.66	444.70
434.85	393.21
435.03	442.36
435.22	461.09
435.41	430.66
435.59	400.23
435.78	330.02
435.97	358.10
436.16	444.70
436.34	411.93
436.53	423.64
436.72	393.21
436.90	465.77
437.09	440.02
437.28	383.85
437.46	418.96
437.65	425.98
437.84	465.77
438.02	447.04
438.21	440.02
438.40	449.38
438.58	390.87
438.77	463.43
438.96	442.36
439.14	372.15
439.33	484.49
439.52	372.15
439.70	433.00
439.89	372.15
440.08	383.85
440.26	451.72
440.45	346.40
440.63	418.96
440.82	404.91
441.01	400.23
441.19	374.49
441.38	374.49
441.57	381.51
441.75	327.68
441.94	470.45
442.12	414.27
442.31	367.46
442.50	400.23
442.68	402.57
442.87	414.27
443.05	458.74
443.24	409.59
443.43	411.93
443.61	386.19
443.80	440.02
443.98	433.00
444.17	383.85
444.35	379.17
444.54	360.44
444.73	325.33
444.91	360.44
445.10	395.55
445.28	395.55
445.47	451.72
445.65	435.34
445.84	341.72
446.02	430.66
446.21	358.10
446.39	428.32
446.58	418.96
446.77	442.36
446.95	411.93
447.14	402.57
447.32	507.90
447.51	421.30
447.69	400.23
447.88	428.32
448.06	358.10
448.25	470.45
448.43	489.17
448.62	449.38
448.80	358.10
448.99	407.25
449.17	430.66
449.36	430.66
449.54	402.57
449.73	500.87
449.91	430.66
450.10	404.91
450.28	433.00
450.46	451.72
450.65	433.00
450.83	402.57
451.02	346.40
451.20	390.87
451.39	409.59
451.57	379.17
451.76	393.21
451.94	458.74
452.13	397.89
452.31	390.87
452.49	383.85
452.68	433.00
452.86	484.49
453.05	447.04
453.23	369.80
453.42	449.38
453.60	435.34
453.78	400.23
453.97	360.44
454.15	430.66
454.34	418.96
454.52	395.55
454.70	428.32
454.89	447.04
455.07	341.72
455.26	505.56
455.44	435.34
455.62	395.55
455.81	411.93
455.99	430.66
456.17	517.26
456.36	458.74
456.54	381.51
456.73	435.34
456.91	472.79
457.09	423.64
457.28	496.19
457.46	458.74
457.64	425.98
457.83	421.30
458.01	404.91
458.19	491.51
458.38	454.06
458.56	379.17
458.74	409.59
458.93	360.44
459.11	423.64
459.29	451.72
459.48	435.34
459.66	383.85
459.84	430.66
460.03	358.10
460.21	454.06
460.39	430.66
460.57	418.96
460.76	430.66
460.94	440.02
461.12	367.46
461.31	433.00
461.49	381.51
461.67	440.02
461.85	409.59
462.04	407.25
462.22	500.87
462.40	407.25
462.59	402.57
462.77	365.12
462.95	423.64
463.13	390.87
463.32	440.02
463.50	400.23
463.68	482.15
463.86	381.51
464.05	482.15
464.23	425.98
464.41	442.36
464.59	348.74
464.78	423.64
464.96	374.49
465.14	454.06
465.32	428.32
465.50	416.62
465.69	479.81
465.87	451.72
466.05	428.32
466.23	390.87
466.41	468.11
466.60	416.62
466.78	486.83
466.96	517.26
467.14	449.38
467.32	491.51
467.51	400.23
467.69	369.80
467.87	400.23
468.05	402.57
468.23	416.62
468.41	435.34
468.60	449.38
468.78	433.00
468.96	411.93
469.14	341.72
469.32	360.44
469.50	381.51
469.69	397.89
469.87	425.98
470.05	411.93
470.23	416.62
470.41	395.55
470.59	334.70
470.77	418.96
470.95	444.70
471.14	458.74
471.32	468.11
471.50	461.09
471.68	383.85
471.86	440.02
472.04	337.04
472.22	372.15
472.40	477.47
472.58	447.04
472.77	423.64
472.95	348.74
473.13	400.23
473.31	451.72
473.49	365.12
473.67	461.09
473.85	404.91
474.03	353.42
474.21	372.15
474.39	512.58
474.57	395.55
474.75	456.40
474.93	425.98
475.12	330.02
475.30	381.51
475.48	458.74
475.66	390.87
475.84	437.68
476.02	461.09
476.20	379.17
476.38	430.66
476.56	489.17
476.74	372.15
476.92	472.79
477.10	409.59
477.28	367.46
477.46	344.06
477.64	320.65
477.82	414.27
478.00	430.66
478.18	418.96
478.36	390.87
478.54	381.51
478.72	353.42
478.90	400.23
479.08	447.04
479.26	447.04
479.44	440.02
479.62	379.17
479.80	456.40
479.98	416.62
480.16	411.93
480.34	468.11
480.52	362.78
480.70	433.00
480.88	475.13
481.06	472.79
481.24	409.59
481.41	393.21
481.59	416.62
481.77	397.89
481.95	390.87
482.13	491.51
482.31	449.38
482.49	411.93
482.67	411.93
482.85	416.62
483.03	472.79
483.21	475.13
483.39	339.38
483.57	423.64
483.74	454.06
483.92	376.83
484.10	346.40
484.28	465.77
484.46	517.26
484.64	341.72
484.82	353.42
485.00	416.62
485.18	442.36
485.35	435.34
485.53	390.87
485.71	330.02
485.89	393.21
486.07	458.74
486.25	451.72
486.43	428.32
486.61	447.04
486.78	395.55
486.96	414.27
487.14	409.59
487.32	451.72
487.50	390.87
487.68	425.98
487.85	395.55
488.03	393.21
488.21	416.62
488.39	486.83
488.57	444.70
488.75	402.57
488.92	477.47
489.10	393.21
489.28	463.43
489.46	454.06
489.64	437.68
489.81	465.77
489.99	414.27
490.17	390.87
490.35	430.66
490.53	444.70
490.70	421.30
490.88	379.17
491.06	395.55
491.24	414.27
491.41	435.34
491.59	395.55
491.77	393.21
491.95	395.55
492.13	414.27
492.30	425.98
492.48	344.06
492.66	472.79
492.84	411.93
493.01	451.72
493.19	411.93
493.37	355.76
493.54	372.15
493.72	444.70
493.90	383.85
494.08	379.17
494.25	353.42
494.43	393.21
494.61	379.17
494.79	411.93
494.96	330.02
495.14	402.57
495.32	435.34
495.49	456.40
495.67	458.74
495.85	414.27
496.02	435.34
496.20	416.62
496.38	423.64
496.55	402.57
496.73	402.57
496.91	411.93
497.09	433.00
497.26	404.91
497.44	451.72
497.62	421.30
497.79	437.68
497.97	472.79
498.14	397.89
498.32	353.42
498.50	374.49
498.67	470.45
498.85	416.62
499.03	416.62
499.20	451.72
499.38	465.77
499.56	402.57
499.73	414.27
499.91	470.45
500.08	498.53
500.26	421.30
500.44	374.49
500.61	463.43
500.79	374.49
500.97	444.70
501.14	470.45
501.32	383.85
501.49	407.25
501.67	421.30
501.84	344.06
502.02	397.89
502.20	423.64
502.37	388.53
502.55	365.12
502.72	395.55
502.90	374.49
503.07	400.23
503.25	397.89
503.43	428.32
503.60	337.04
503.78	376.83
503.95	451.72
504.13	440.02
504.30	425.98
504.48	479.81
504.65	461.09
504.83	386.19
505.01	374.49
505.18	409.59
505.36	425.98
505.53	472.79
505.71	390.87
505.88	362.78
506.06	454.06
506.23	493.85
506.41	390.87
506.58	407.25
506.76	423.64
506.93	393.21
507.11	479.81
507.28	393.21
507.46	374.49
507.63	374.49
507.81	383.85
507.98	454.06
508.16	414.27
508.33	390.87
508.50	416.62
508.68	418.96
508.85	435.34
509.03	390.87
509.20	404.91
509.38	435.34
509.55	418.96
509.73	421.30
509.90	437.68
510.08	397.89
510.25	461.09
510.42	393.21
510.60	463.43
510.77	479.81
510.95	421.30
511.12	400.23
511.30	388.53
511.47	428.32
511.64	383.85
511.82	409.59
511.99	414.27
512.17	435.34
512.34	365.12
512.51	374.49
512.69	451.72
512.86	423.64
513.04	514.92
513.21	353.42
513.38	411.93
513.56	440.02
513.73	341.72
513.90	372.15
514.08	372.15
514.25	449.38
514.43	442.36
514.60	393.21
514.77	341.72
514.95	437.68
515.12	447.04
515.29	451.72
515.47	339.38
515.64	404.91
515.81	503.22
515.99	482.15
516.16	397.89
516.33	449.38
516.51	407.25
516.68	421.30
516.85	395.55
517.03	414.27
517.20	444.70
517.37	404.91
517.54	437.68
517.72	416.62
517.89	395.55
518.06	400.23
518.24	470.45
518.41	463.43
518.58	416.62
518.75	393.21
518.93	374.49
519.10	360.44
519.27	395.55
519.45	475.13
519.62	411.93
519.79	334.70
519.96	299.59
520.14	381.51
520.31	423.64
520.48	414.27
520.65	416.62
520.83	421.30
521.00	423.64
521.17	433.00
521.34	386.19
521.52	484.49
521.69	379.17
521.86	430.66
522.03	433.00
522.20	411.93
522.38	435.34
522.55	376.83
522.72	374.49
522.89	423.64
523.07	458.74
523.24	430.66
523.41	411.93
523.58	374.49
523.75	493.85
523.92	407.25
524.10	395.55
524.27	458.74
524.44	393.21
524.61	433.00
524.78	367.46
524.96	447.04
525.13	409.59
525.30	374.49
525.47	435.34
525.64	358.10
525.81	407.25
525.98	433.00
526.16	404.91
526.33	365.12
526.50	407.25
526.67	369.80
526.84	404.91
527.01	461.09
527.18	435.34
527.36	433.00
527.53	423.64
527.70	437.68
527.87	430.66
528.04	447.04
528.21	376.83
528.38	400.23
528.55	465.77
528.72	421.30
528.89	472.79
529.07	437.68
529.24	374.49
529.41	461.09
529.58	423.64
529.75	400.23
529.92	421.30
530.09	409.59
530.26	440.02
530.43	428.32
530.60	402.57
530.77	404.91
530.94	379.17
531.11	414.27
531.28	395.55
531.46	397.89
531.63	437.68
531.80	425.98
531.97	372.15
532.14	369.80
532.31	454.06
532.48	388.53
532.65	390.87
532.82	454.06
532.99	407.25
533.16	440.02
533.33	421.30
533.50	430.66
533.67	500.87
533.84	414.27
534.01	416.62
534.18	400.23
534.35	477.47
534.52	388.53
534.69	416.62
534.86	421.30
535.03	365.12
535.20	393.21
535.37	388.53
535.54	400.23
535.71	418.96
535.88	395.55
536.05	486.83
536.22	475.13
536.38	348.74
536.55	444.70
536.72	533.64
536.89	447.04
537.06	454.06
537.23	428.32
537.40	351.08
537.57	425.98
537.74	493.85
537.91	416.62
538.08	395.55
538.25	447.04
538.42	411.93
538.59	465.77
538.75	423.64
538.92	367.46
539.09	437.68
539.26	362.78
539.43	442.36
539.60	402.57
539.77	379.17
539.94	383.85
540.11	435.34
540.28	440.02
540.44	498.53
540.61	428.32
540.78	386.19
540.95	381.51
541.12	465.77
541.29	425.98
541.46	472.79
541.62	447.04
541.79	428.32
541.96	400.23
542.13	437.68
542.30	383.85
542.47	451.72
542.63	465.77
542.80	348.74
542.97	440.02
543.14	337.04
543.31	440.02
543.48	430.66
543.64	402.57
543.81	402.57
543.98	416.62
544.15	383.85
544.32	369.80
544.48	425.98
544.65	411.93
544.82	451.72
544.99	418.96
545.16	418.96
545.32	383.85
545.49	451.72
545.66	423.64
545.83	390.87
546.00	367.46
546.16	402.57
546.33	400.23
546.50	388.53
546.67	397.89
546.83	433.00
547.00	358.10
547.17	379.17
547.34	360.44
547.50	402.57
547.67	360.44
547.84	430.66
548.00	414.27
548.17	383.85
548.34	355.76
548.51	507.90
548.67	437.68
548.84	449.38
549.01	397.89
549.18	447.04
549.34	454.06
549.51	390.87
549.68	437.68
549.84	435.34
550.01	376.83
550.18	531.30
550.34	514.92
550.51	458.74
550.68	337.04
550.84	355.76
551.01	428.32
551.18	423.64
551.34	402.57
551.51	489.17
551.68	437.68
551.84	437.68
552.01	477.47
552.18	437.68
552.34	423.64
552.51	418.96
552.68	444.70
552.84	456.40
553.01	372.15
553.18	411.93
553.34	414.27
553.51	341.72
553.67	414.27
553.84	463.43
554.01	388.53
554.17	458.74
554.34	381.51
554.51	444.70
554.67	454.06
554.84	465.77
555.00	486.83
555.17	369.80
555.33	346.40
555.50	507.90
555.67	393.21
555.83	355.76
556.00	402.57
556.16	482.15
556.33	374.49
556.50	407.25
556.66	458.74
556.83	404.91
556.99	390.87
557.16	416.62
557.32	428.32
557.49	400.23
557.65	388.53
557.82	461.09
557.98	376.83
558.15	374.49
558.32	344.06
558.48	407.25
558.65	379.17
558.81	465.77
558.98	458.74
559.14	451.72
559.31	451.72
559.47	411.93
559.64	386.19
559.80	486.83
559.97	376.83
560.13	428.32
560.30	372.15
560.46	500.87
560.63	409.59
560.79	425.98
560.96	430.66
561.12	411.93
561.29	404.91
561.45	437.68
561.61	468.11
561.78	503.22
561.94	353.42
562.11	332.36
562.27	451.72
562.44	388.53
562.60	397.89
562.77	430.66
562.93	430.66
563.10	458.74
563.26	386.19
563.42	423.64
563.59	449.38
563.75	360.44
563.92	428.32
564.08	454.06
564.24	451.72
564.41	404.91
564.57	348.74
564.74	395.55
564.90	346.40
565.07	461.09
565.23	442.36
565.39	425.98
565.56	418.96
565.72	397.89
565.88	423.64
566.05	435.34
566.21	435.34
566.38	447.04
566.54	395.55
566.70	433.00
566.87	416.62
567.03	435.34
567.19	390.87
567.36	477.47
567.52	461.09
567.68	454.06
567.85	421.30
568.01	402.57
568.17	341.72
568.34	411.93
568.50	402.57
568.66	411.93
568.83	500.87
568.99	421.30
569.15	449.38
569.32	482.15
569.48	386.19
569.64	430.66
569.81	491.51
569.97	383.85
570.13	386.19
570.30	341.72
570.46	421.30
570.62	407.25
570.78	390.87
570.95	360.44
571.11	402.57
571.27	402.57
571.43	388.53
571.60	409.59
571.76	390.87
571.92	435.34
572.09	397.89
572.25	442.36
572.41	360.44
572.57	379.17
572.74	484.49
572.90	386.19
573.06	430.66
573.22	470.45
573.38	369.80
573.55	503.22
573.71	437.68
573.87	442.36
574.03	421.30
574.20	386.19
574.36	437.68
574.52	397.89
574.68	393.21
574.84	416.62
575.01	442.36
575.17	414.27
575.33	512.58
575.49	421.30
575.65	423.64
575.82	484.49
575.98	444.70
576.14	383.85
576.30	386.19
576.46	425.98
576.62	423.64
576.79	433.00
576.95	463.43
577.11	390.87
577.27	461.09
577.43	425.98
577.59	400.23
577.75	470.45
577.92	428.32
578.08	383.85
578.24	454.06
578.40	510.24
578.56	407.25
578.72	404.91
578.88	423.64
579.04	383.85
579.21	444.70
579.37	353.42
579.53	418.96
579.69	416.62
579.85	407.25
580.01	437.68
580.17	397.89
580.33	311.29
580.49	339.38
580.65	395.55
580.82	447.04
580.98	400.23
581.14	421.30
581.30	454.06
581.46	421.30
581.62	440.02
581.78	470.45
581.94	421.30
582.10	393.21
582.26	388.53
582.42	409.59
582.58	397.89
582.74	411.93
582.90	407.25
583.06	507.90
583.22	374.49
583.38	477.47
583.54	355.76
583.70	489.17
583.86	430.66
584.02	409.59
584.18	409.59
584.34	470.45
584.50	311.29
584.66	440.02
584.82	353.42
584.98	444.70
585.14	449.38
585.30	388.53
585.46	416.62
585.62	437.68
585.78	381.51
585.94	372.15
586.10	423.64
586.26	423.64
586.42	475.13
586.58	421.30
586.74	360.44
586.90	433.00
587.06	468.11
587.22	437.68
587.38	379.17
587.54	440.02
587.70	416.62
587.86	407.25
588.02	454.06
588.18	423.64
588.34	433.00
588.49	433.00
588.65	402.57
588.81	388.53
588.97	435.34
589.13	437.68
589.29	383.85
589.45	395.55
589.61	484.49
589.77	404.91
589.93	355.76
590.08	442.36
590.24	383.85
590.40	428.32
590.56	374.49
590.72	414.27
590.88	374.49
591.04	365.12
591.20	414.27
591.35	493.85
591.51	423.64
591.67	388.53
591.83	407.25
591.99	381.51
592.15	404.91
592.31	449.38
592.46	454.06
592.62	393.21
592.78	416.62
592.94	327.68
593.10	320.65
593.26	475.13
593.41	414.27
593.57	411.93
593.73	397.89
593.89	449.38
594.05	381.51
594.20	486.83
594.36	477.47
594.52	414.27
594.68	409.59
594.84	461.09
594.99	447.04
595.15	418.96
595.31	472.79
595.47	484.49
595.62	447.04
595.78	353.42
595.94	367.46
596.10	468.11
596.25	404.91
596.41	451.72
596.57	517.26
596.73	425.98
596.88	437.68
597.04	449.38
597.20	353.42
597.36	372.15
597.51	425.98
597.67	365.12
597.83	465.77
597.99	447.04
598.14	425.98
598.30	435.34
598.46	418.96
598.61	479.81
598.77	463.43
598.93	341.72
599.09	411.93
599.24	388.53
599.40	404.91
599.56	430.66
599.71	409.59
599.87	479.81
600.03	369.80
600.18	449.38
600.34	402.57
600.50	393.21
600.65	421.30
600.81	397.89
600.97	386.19
601.12	425.98
601.28	404.91
601.44	395.55
601.59	404.91
601.75	430.66
601.91	383.85
602.06	416.62
602.22	447.04
602.37	414.27
602.53	423.64
602.69	433.00
602.84	411.93
603.00	400.23
603.16	411.93
603.31	428.32
603.47	435.34
603.62	411.93
603.78	423.64
603.94	362.78
604.09	353.42
604.25	440.02
604.40	456.40
604.56	463.43
604.71	383.85
604.87	400.23
605.03	435.34
605.18	383.85
605.34	486.83
605.49	423.64
605.65	454.06
605.80	369.80
605.96	428.32
606.12	334.70
606.27	409.59
606.43	423.64
606.58	554.71
606.74	468.11
606.89	425.98
607.05	447.04
607.20	468.11
607.36	444.70
607.51	409.59
607.67	442.36
607.82	393.21
607.98	454.06
608.13	407.25
608.29	381.51
608.44	411.93
608.60	428.32
608.75	437.68
608.91	451.72
609.06	463.43
609.22	393.21
609.37	435.34
609.53	425.98
609.68	407.25
609.84	465.77
609.99	479.81
610.15	440.02
