SpectraSuite Data File
++++++++++++++++++++++++++++++++++++
Date: Fri Oct 25 12:11:28 EDT 2013
User: price-jones
Dark Spectrum Present: No
Reference Spectrum Present: No
Number of Sampled Component Spectra: 1
Spectrometers: USB2+H05261
Integration Time (usec): 100000 (USB2+H05261)
Spectra Averaged: 1 (USB2+H05261)
Boxcar Smoothing: 0 (USB2+H05261)
Correct for Electrical Dark: No (USB2+H05261)
Strobe/Lamp Enabled: No (USB2+H05261)
Correct for Detector Non-linearity: No (USB2+H05261)
Correct for Stray Light: No (USB2+H05261)
Number of Pixels in Processed Spectrum: 2048
>>>>>Begin Processed Spectral Data<<<<<
365.73	395.55
365.92	395.55
366.12	395.55
366.32	250.44
366.52	198.95
366.72	222.35
366.91	236.39
367.11	180.22
367.31	217.67
367.51	236.39
367.70	236.39
367.90	248.10
368.10	285.55
368.30	224.69
368.49	287.89
368.69	264.48
368.89	318.31
369.09	322.99
369.28	205.97
369.48	252.78
369.68	264.48
369.87	297.25
370.07	346.40
370.27	351.08
370.47	308.95
370.66	337.04
370.86	407.25
371.06	346.40
371.25	388.53
371.45	290.23
371.65	325.33
371.84	423.64
372.04	344.06
372.24	353.42
372.44	376.83
372.63	489.17
372.83	463.43
373.03	400.23
373.22	320.65
373.42	440.02
373.62	409.59
373.81	409.59
374.01	397.89
374.21	355.76
374.40	425.98
374.60	381.51
374.79	397.89
374.99	489.17
375.19	482.15
375.38	390.87
375.58	400.23
375.78	430.66
375.97	423.64
376.17	425.98
376.37	346.40
376.56	334.70
376.76	383.85
376.95	395.55
377.15	414.27
377.35	447.04
377.54	353.42
377.74	388.53
377.93	449.38
378.13	447.04
378.33	372.15
378.52	475.13
378.72	360.44
378.91	425.98
379.11	393.21
379.31	407.25
379.50	388.53
379.70	367.46
379.89	416.62
380.09	367.46
380.28	369.80
380.48	390.87
380.68	341.72
380.87	376.83
381.07	454.06
381.26	451.72
381.46	447.04
381.65	416.62
381.85	362.78
382.04	383.85
382.24	418.96
382.43	400.23
382.63	381.51
382.83	334.70
383.02	411.93
383.22	437.68
383.41	430.66
383.61	374.49
383.80	449.38
384.00	395.55
384.19	346.40
384.39	477.47
384.58	409.59
384.78	402.57
384.97	369.80
385.17	367.46
385.36	458.74
385.56	390.87
385.75	341.72
385.95	411.93
386.14	369.80
386.34	444.70
386.53	393.21
386.72	374.49
386.92	369.80
387.11	463.43
387.31	372.15
387.50	283.20
387.70	376.83
387.89	482.15
388.09	393.21
388.28	444.70
388.48	449.38
388.67	369.80
388.86	400.23
389.06	423.64
389.25	447.04
389.45	423.64
389.64	423.64
389.84	428.32
390.03	454.06
390.22	451.72
390.42	402.57
390.61	409.59
390.81	351.08
391.00	409.59
391.19	440.02
391.39	395.55
391.58	409.59
391.78	423.64
391.97	404.91
392.16	372.15
392.36	425.98
392.55	379.17
392.75	386.19
392.94	395.55
393.13	461.09
393.33	379.17
393.52	428.32
393.71	449.38
393.91	358.10
394.10	337.04
394.29	358.10
394.49	447.04
394.68	400.23
394.88	433.00
395.07	435.34
395.26	393.21
395.46	400.23
395.65	369.80
395.84	390.87
396.04	491.51
396.23	407.25
396.42	456.40
396.62	411.93
396.81	358.10
397.00	440.02
397.19	379.17
397.39	369.80
397.58	421.30
397.77	353.42
397.97	383.85
398.16	423.64
398.35	421.30
398.55	341.72
398.74	381.51
398.93	442.36
399.12	433.00
399.32	491.51
399.51	440.02
399.70	402.57
399.90	442.36
400.09	442.36
400.28	447.04
400.47	390.87
400.67	390.87
400.86	418.96
401.05	393.21
401.24	407.25
401.44	404.91
401.63	393.21
401.82	376.83
402.01	369.80
402.21	475.13
402.40	451.72
402.59	390.87
402.78	348.74
402.97	416.62
403.17	456.40
403.36	418.96
403.55	454.06
403.74	334.70
403.93	348.74
404.13	390.87
404.32	372.15
404.51	376.83
404.70	491.51
404.89	411.93
405.09	461.09
405.28	449.38
405.47	390.87
405.66	428.32
405.85	351.08
406.05	374.49
406.24	404.91
406.43	402.57
406.62	416.62
406.81	463.43
407.00	418.96
407.20	374.49
407.39	425.98
407.58	386.19
407.77	503.22
407.96	423.64
408.15	454.06
408.34	470.45
408.54	461.09
408.73	402.57
408.92	390.87
409.11	454.06
409.30	381.51
409.49	383.85
409.68	369.80
409.87	393.21
410.07	393.21
410.26	376.83
410.45	395.55
410.64	468.11
410.83	367.46
411.02	365.12
411.21	344.06
411.40	404.91
411.59	437.68
411.78	395.55
411.98	447.04
412.17	442.36
412.36	402.57
412.55	372.15
412.74	444.70
412.93	451.72
413.12	367.46
413.31	390.87
413.50	379.17
413.69	416.62
413.88	475.13
414.07	437.68
414.26	369.80
414.45	395.55
414.64	447.04
414.83	425.98
415.02	437.68
415.22	381.51
415.41	444.70
415.60	409.59
415.79	524.28
415.98	409.59
416.17	454.06
416.36	374.49
416.55	482.15
416.74	407.25
416.93	479.81
417.12	390.87
417.31	433.00
417.50	456.40
417.69	451.72
417.88	376.83
418.07	383.85
418.26	386.19
418.45	372.15
418.64	416.62
418.83	425.98
419.02	386.19
419.21	423.64
419.39	381.51
419.58	383.85
419.77	411.93
419.96	386.19
420.15	489.17
420.34	458.74
420.53	433.00
420.72	348.74
420.91	383.85
421.10	365.12
421.29	423.64
421.48	374.49
421.67	383.85
421.86	400.23
422.05	465.77
422.24	367.46
422.43	346.40
422.61	397.89
422.80	437.68
422.99	369.80
423.18	372.15
423.37	440.02
423.56	393.21
423.75	388.53
423.94	383.85
424.13	414.27
424.32	341.72
424.50	353.42
424.69	367.46
424.88	447.04
425.07	444.70
425.26	411.93
425.45	428.32
425.64	428.32
425.83	348.74
426.01	351.08
426.20	451.72
426.39	409.59
426.58	390.87
426.77	365.12
426.96	409.59
427.15	407.25
427.33	400.23
427.52	430.66
427.71	416.62
427.90	425.98
428.09	451.72
428.28	404.91
428.46	409.59
428.65	411.93
428.84	442.36
429.03	414.27
429.22	425.98
429.40	430.66
429.59	372.15
429.78	458.74
429.97	428.32
430.16	360.44
430.34	407.25
430.53	411.93
430.72	400.23
430.91	468.11
431.10	411.93
431.28	379.17
431.47	404.91
431.66	461.09
431.85	358.10
432.03	369.80
432.22	383.85
432.41	400.23
432.60	381.51
432.79	397.89
432.97	418.96
433.16	381.51
433.35	390.87
433.54	444.70
433.72	458.74
433.91	418.96
434.10	376.83
434.28	372.15
434.47	353.42
434.66	423.64
434.85	496.19
435.03	376.83
435.22	470.45
435.41	440.02
435.59	428.32
435.78	393.21
435.97	449.38
436.16	491.51
436.34	430.66
436.53	465.77
436.72	416.62
436.90	383.85
437.09	442.36
437.28	390.87
437.46	428.32
437.65	372.15
437.84	423.64
438.02	435.34
438.21	383.85
438.40	400.23
438.58	435.34
438.77	442.36
438.96	390.87
439.14	395.55
439.33	433.00
439.52	411.93
439.70	397.89
439.89	425.98
440.08	425.98
440.26	463.43
440.45	400.23
440.63	365.12
440.82	402.57
441.01	411.93
441.19	430.66
441.38	440.02
441.57	365.12
441.75	433.00
441.94	404.91
442.12	390.87
442.31	451.72
442.50	411.93
442.68	418.96
442.87	449.38
443.05	456.40
443.24	451.72
443.43	358.10
443.61	369.80
443.80	404.91
443.98	341.72
444.17	400.23
444.35	418.96
444.54	395.55
444.73	381.51
444.91	379.17
445.10	444.70
445.28	388.53
445.47	477.47
445.65	381.51
445.84	395.55
446.02	418.96
446.21	407.25
446.39	463.43
446.58	447.04
446.77	465.77
446.95	451.72
447.14	421.30
447.32	444.70
447.51	430.66
447.69	369.80
447.88	416.62
448.06	397.89
448.25	411.93
448.43	348.74
448.62	360.44
448.80	428.32
448.99	468.11
449.17	416.62
449.36	435.34
449.54	449.38
449.73	400.23
449.91	379.17
450.10	386.19
450.28	416.62
450.46	411.93
450.65	379.17
450.83	388.53
451.02	381.51
451.20	372.15
451.39	421.30
451.57	367.46
451.76	409.59
451.94	395.55
452.13	348.74
452.31	430.66
452.49	404.91
452.68	334.70
452.86	409.59
453.05	407.25
453.23	477.47
453.42	358.10
453.60	444.70
453.78	358.10
453.97	411.93
454.15	479.81
454.34	402.57
454.52	334.70
454.70	442.36
454.89	451.72
455.07	411.93
455.26	465.77
455.44	395.55
455.62	402.57
455.81	425.98
455.99	447.04
456.17	351.08
456.36	421.30
456.54	365.12
456.73	400.23
456.91	381.51
457.09	437.68
457.28	404.91
457.46	454.06
457.64	470.45
457.83	435.34
458.01	393.21
458.19	416.62
458.38	423.64
458.56	425.98
458.74	468.11
458.93	430.66
459.11	407.25
459.29	425.98
459.48	468.11
459.66	456.40
459.84	447.04
460.03	491.51
460.21	461.09
460.39	362.78
460.57	379.17
460.76	369.80
460.94	442.36
461.12	456.40
461.31	510.24
461.49	463.43
461.67	437.68
461.85	433.00
462.04	397.89
462.22	823.87
462.40	465.77
462.59	465.77
462.77	390.87
462.95	423.64
463.13	411.93
463.32	552.37
463.50	358.10
463.68	362.78
463.86	365.12
464.05	416.62
464.23	416.62
464.41	395.55
464.59	442.36
464.78	449.38
464.96	330.02
465.14	348.74
465.32	388.53
465.50	425.98
465.69	428.32
465.87	390.87
466.05	411.93
466.23	334.70
466.41	374.49
466.60	379.17
466.78	447.04
466.96	388.53
467.14	353.42
467.32	409.59
467.51	428.32
467.69	388.53
467.87	458.74
468.05	421.30
468.23	400.23
468.41	400.23
468.60	360.44
468.78	402.57
468.96	479.81
469.14	454.06
469.32	416.62
469.50	404.91
469.69	463.43
469.87	390.87
470.05	425.98
470.23	456.40
470.41	409.59
470.59	407.25
470.77	470.45
470.95	449.38
471.14	454.06
471.32	496.19
471.50	442.36
471.68	468.11
471.86	486.83
472.04	409.59
472.22	484.49
472.40	433.00
472.58	451.72
472.77	411.93
472.95	353.42
473.13	526.62
473.31	458.74
473.49	440.02
473.67	442.36
473.85	400.23
474.03	395.55
474.21	365.12
474.39	428.32
474.57	423.64
474.75	402.57
474.93	442.36
475.12	411.93
475.30	383.85
475.48	414.27
475.66	430.66
475.84	409.59
476.02	451.72
476.20	468.11
476.38	423.64
476.56	458.74
476.74	376.83
476.92	404.91
477.10	416.62
477.28	449.38
477.46	447.04
477.64	489.17
477.82	435.34
478.00	395.55
478.18	423.64
478.36	407.25
478.54	341.72
478.72	397.89
478.90	477.47
479.08	500.87
479.26	395.55
479.44	451.72
479.62	435.34
479.80	376.83
479.98	376.83
480.16	416.62
480.34	416.62
480.52	374.49
480.70	407.25
480.88	484.49
481.06	435.34
481.24	435.34
481.41	428.32
481.59	409.59
481.77	353.42
481.95	369.80
482.13	470.45
482.31	362.78
482.49	355.76
482.67	418.96
482.85	407.25
483.03	341.72
483.21	435.34
483.39	465.77
483.57	418.96
483.74	437.68
483.92	409.59
484.10	449.38
484.28	416.62
484.46	470.45
484.64	461.09
484.82	376.83
485.00	395.55
485.18	442.36
485.35	365.12
485.53	416.62
485.71	447.04
485.89	449.38
486.07	367.46
486.25	500.87
486.43	372.15
486.61	379.17
486.78	423.64
486.96	376.83
487.14	454.06
487.32	402.57
487.50	416.62
487.68	449.38
487.85	386.19
488.03	358.10
488.21	440.02
488.39	433.00
488.57	416.62
488.75	428.32
488.92	486.83
489.10	386.19
489.28	430.66
489.46	486.83
489.64	395.55
489.81	428.32
489.99	442.36
490.17	463.43
490.35	470.45
490.53	386.19
490.70	395.55
490.88	447.04
491.06	416.62
491.24	409.59
491.41	535.98
491.59	414.27
491.77	430.66
491.95	355.76
492.13	444.70
492.30	416.62
492.48	355.76
492.66	435.34
492.84	358.10
493.01	437.68
493.19	428.32
493.37	402.57
493.54	418.96
493.72	463.43
493.90	435.34
494.08	395.55
494.25	447.04
494.43	416.62
494.61	379.17
494.79	411.93
494.96	397.89
495.14	374.49
495.32	440.02
495.49	449.38
495.67	407.25
495.85	447.04
496.02	442.36
496.20	442.36
496.38	428.32
496.55	428.32
496.73	451.72
496.91	376.83
497.09	423.64
497.26	404.91
497.44	454.06
497.62	414.27
497.79	425.98
497.97	425.98
498.14	465.77
498.32	416.62
498.50	407.25
498.67	404.91
498.85	358.10
499.03	397.89
499.20	477.47
499.38	388.53
499.56	348.74
499.73	346.40
499.91	425.98
500.08	444.70
500.26	451.72
500.44	344.06
500.61	430.66
500.79	496.19
500.97	482.15
501.14	379.17
501.32	379.17
501.49	435.34
501.67	491.51
501.84	447.04
502.02	393.21
502.20	400.23
502.37	421.30
502.55	393.21
502.72	482.15
502.90	463.43
503.07	360.44
503.25	407.25
503.43	369.80
503.60	372.15
503.78	402.57
503.95	397.89
504.13	327.68
504.30	395.55
504.48	437.68
504.65	430.66
504.83	369.80
505.01	449.38
505.18	411.93
505.36	421.30
505.53	397.89
505.71	409.59
505.88	393.21
506.06	393.21
506.23	327.68
506.41	393.21
506.58	411.93
506.76	397.89
506.93	475.13
507.11	367.46
507.28	407.25
507.46	425.98
507.63	428.32
507.81	411.93
507.98	465.77
508.16	334.70
508.33	390.87
508.50	437.68
508.68	423.64
508.85	386.19
509.03	491.51
509.20	416.62
509.38	367.46
509.55	468.11
509.73	468.11
509.90	418.96
510.08	411.93
510.25	379.17
510.42	395.55
510.60	456.40
510.77	435.34
510.95	409.59
511.12	367.46
511.30	407.25
511.47	409.59
511.64	489.17
511.82	468.11
511.99	386.19
512.17	430.66
512.34	339.38
512.51	454.06
512.69	397.89
512.86	402.57
513.04	411.93
513.21	374.49
513.38	320.65
513.56	442.36
513.73	425.98
513.90	428.32
514.08	444.70
514.25	372.15
514.43	383.85
514.60	397.89
514.77	407.25
514.95	379.17
515.12	428.32
515.29	393.21
515.47	442.36
515.64	400.23
515.81	414.27
515.99	444.70
516.16	376.83
516.33	428.32
516.51	369.80
516.68	472.79
516.85	414.27
517.03	381.51
517.20	442.36
517.37	435.34
517.54	388.53
517.72	386.19
517.89	421.30
518.06	503.22
518.24	440.02
518.41	463.43
518.58	372.15
518.75	381.51
518.93	418.96
519.10	423.64
519.27	365.12
519.45	451.72
519.62	355.76
519.79	395.55
519.96	437.68
520.14	461.09
520.31	449.38
520.48	409.59
520.65	425.98
520.83	397.89
521.00	442.36
521.17	449.38
521.34	423.64
521.52	409.59
521.69	395.55
521.86	393.21
522.03	437.68
522.20	444.70
522.38	433.00
522.55	454.06
522.72	433.00
522.89	444.70
523.07	465.77
523.24	358.10
523.41	404.91
523.58	337.04
523.75	451.72
523.92	416.62
524.10	407.25
524.27	337.04
524.44	409.59
524.61	442.36
524.78	440.02
524.96	372.15
525.13	416.62
525.30	344.06
525.47	423.64
525.64	442.36
525.81	477.47
525.98	404.91
526.16	409.59
526.33	496.19
526.50	444.70
526.67	402.57
526.84	379.17
527.01	491.51
527.18	423.64
527.36	383.85
527.53	404.91
527.70	444.70
527.87	404.91
528.04	407.25
528.21	435.34
528.38	409.59
528.55	489.17
528.72	407.25
528.89	369.80
529.07	388.53
529.24	435.34
529.41	437.68
529.58	407.25
529.75	454.06
529.92	411.93
530.09	374.49
530.26	407.25
530.43	402.57
530.60	451.72
530.77	409.59
530.94	451.72
531.11	425.98
531.28	402.57
531.46	393.21
531.63	402.57
531.80	404.91
531.97	454.06
532.14	435.34
532.31	421.30
532.48	414.27
532.65	423.64
532.82	451.72
532.99	360.44
533.16	299.59
533.33	407.25
533.50	442.36
533.67	365.12
533.84	386.19
534.01	489.17
534.18	418.96
534.35	449.38
534.52	416.62
534.69	437.68
534.86	416.62
535.03	353.42
535.20	411.93
535.37	425.98
535.54	411.93
535.71	449.38
535.88	416.62
536.05	425.98
536.22	470.45
536.38	423.64
536.55	388.53
536.72	470.45
536.89	400.23
537.06	397.89
537.23	430.66
537.40	362.78
537.57	451.72
537.74	433.00
537.91	353.42
538.08	451.72
538.25	397.89
538.42	390.87
538.59	421.30
538.75	461.09
538.92	381.51
539.09	404.91
539.26	463.43
539.43	496.19
539.60	421.30
539.77	416.62
539.94	409.59
540.11	397.89
540.28	402.57
540.44	402.57
540.61	404.91
540.78	447.04
540.95	421.30
541.12	456.40
541.29	353.42
541.46	477.47
541.62	346.40
541.79	444.70
541.96	341.72
542.13	416.62
542.30	421.30
542.47	390.87
542.63	376.83
542.80	365.12
542.97	468.11
543.14	433.00
543.31	449.38
543.48	418.96
543.64	341.72
543.81	442.36
543.98	414.27
544.15	372.15
544.32	407.25
544.48	379.17
544.65	346.40
544.82	334.70
544.99	428.32
545.16	381.51
545.32	351.08
545.49	360.44
545.66	437.68
545.83	402.57
546.00	355.76
546.16	404.91
546.33	407.25
546.50	421.30
546.67	479.81
546.83	486.83
547.00	416.62
547.17	388.53
547.34	449.38
547.50	421.30
547.67	482.15
547.84	482.15
548.00	428.32
548.17	465.77
548.34	418.96
548.51	477.47
548.67	437.68
548.84	369.80
549.01	435.34
549.18	428.32
549.34	360.44
549.51	447.04
549.68	440.02
549.84	418.96
550.01	402.57
550.18	414.27
550.34	503.22
550.51	407.25
550.68	486.83
550.84	437.68
551.01	454.06
551.18	376.83
551.34	379.17
551.51	360.44
551.68	358.10
551.84	418.96
552.01	353.42
552.18	393.21
552.34	423.64
552.51	461.09
552.68	430.66
552.84	423.64
553.01	365.12
553.18	447.04
553.34	423.64
553.51	458.74
553.67	463.43
553.84	435.34
554.01	409.59
554.17	435.34
554.34	414.27
554.51	353.42
554.67	428.32
554.84	440.02
555.00	440.02
555.17	393.21
555.33	423.64
555.50	397.89
555.67	416.62
555.83	444.70
556.00	425.98
556.16	475.13
556.33	407.25
556.50	423.64
556.66	383.85
556.83	468.11
556.99	458.74
557.16	416.62
557.32	404.91
557.49	430.66
557.65	435.34
557.82	390.87
557.98	325.33
558.15	437.68
558.32	416.62
558.48	470.45
558.65	402.57
558.81	400.23
558.98	393.21
559.14	437.68
559.31	498.53
559.47	388.53
559.64	409.59
559.80	383.85
559.97	344.06
560.13	400.23
560.30	440.02
560.46	449.38
560.63	346.40
560.79	393.21
560.96	437.68
561.12	346.40
561.29	442.36
561.45	498.53
561.61	435.34
561.78	388.53
561.94	433.00
562.11	449.38
562.27	404.91
562.44	425.98
562.60	458.74
562.77	472.79
562.93	400.23
563.10	346.40
563.26	409.59
563.42	402.57
563.59	470.45
563.75	404.91
563.92	423.64
564.08	416.62
564.24	440.02
564.41	482.15
564.57	383.85
564.74	465.77
564.90	400.23
565.07	411.93
565.23	397.89
565.39	407.25
565.56	383.85
565.72	376.83
565.88	381.51
566.05	440.02
566.21	374.49
566.38	449.38
566.54	428.32
566.70	397.89
566.87	433.00
567.03	332.36
567.19	486.83
567.36	423.64
567.52	404.91
567.68	397.89
567.85	369.80
568.01	369.80
568.17	444.70
568.34	367.46
568.50	451.72
568.66	376.83
568.83	442.36
568.99	407.25
569.15	360.44
569.32	435.34
569.48	447.04
569.64	367.46
569.81	435.34
569.97	416.62
570.13	423.64
570.30	425.98
570.46	425.98
570.62	407.25
570.78	491.51
570.95	369.80
571.11	486.83
571.27	454.06
571.43	425.98
571.60	379.17
571.76	369.80
571.92	454.06
572.09	362.78
572.25	400.23
572.41	365.12
572.57	433.00
572.74	440.02
572.90	402.57
573.06	472.79
573.22	423.64
573.38	491.51
573.55	397.89
573.71	430.66
573.87	425.98
574.03	444.70
574.20	430.66
574.36	458.74
574.52	395.55
574.68	519.60
574.84	407.25
575.01	433.00
575.17	435.34
575.33	498.53
575.49	440.02
575.65	470.45
575.82	334.70
575.98	351.08
576.14	355.76
576.30	390.87
576.46	393.21
576.62	393.21
576.79	400.23
576.95	461.09
577.11	383.85
577.27	437.68
577.43	418.96
577.59	470.45
577.75	346.40
577.92	386.19
578.08	430.66
578.24	379.17
578.40	435.34
578.56	430.66
578.72	491.51
578.88	465.77
579.04	418.96
579.21	383.85
579.37	414.27
579.53	423.64
579.69	437.68
579.85	383.85
580.01	433.00
580.17	425.98
580.33	383.85
580.49	383.85
580.65	409.59
580.82	433.00
580.98	430.66
581.14	442.36
581.30	444.70
581.46	379.17
581.62	428.32
581.78	407.25
581.94	425.98
582.10	468.11
582.26	381.51
582.42	437.68
582.58	421.30
582.74	376.83
582.90	390.87
583.06	491.51
583.22	414.27
583.38	435.34
583.54	393.21
583.70	482.15
583.86	435.34
584.02	421.30
584.18	416.62
584.34	468.11
584.50	454.06
584.66	428.32
584.82	407.25
584.98	421.30
585.14	369.80
585.30	449.38
585.46	390.87
585.62	454.06
585.78	395.55
585.94	416.62
586.10	428.32
586.26	409.59
586.42	348.74
586.58	456.40
586.74	468.11
586.90	416.62
587.06	353.42
587.22	409.59
587.38	397.89
587.54	463.43
587.70	400.23
587.86	402.57
588.02	344.06
588.18	372.15
588.34	437.68
588.49	418.96
588.65	355.76
588.81	397.89
588.97	362.78
589.13	451.72
589.29	407.25
589.45	418.96
589.61	437.68
589.77	517.26
589.93	465.77
590.08	411.93
590.24	376.83
590.40	425.98
590.56	407.25
590.72	411.93
590.88	397.89
591.04	407.25
591.20	409.59
591.35	425.98
591.51	442.36
591.67	433.00
591.83	358.10
591.99	472.79
592.15	411.93
592.31	447.04
592.46	397.89
592.62	468.11
592.78	393.21
592.94	423.64
593.10	379.17
593.26	374.49
593.41	461.09
593.57	433.00
593.73	421.30
593.89	430.66
594.05	393.21
594.20	390.87
594.36	482.15
594.52	430.66
594.68	409.59
594.84	451.72
594.99	383.85
595.15	418.96
595.31	451.72
595.47	435.34
595.62	416.62
595.78	376.83
595.94	465.77
596.10	507.90
596.25	376.83
596.41	440.02
596.57	360.44
596.73	353.42
596.88	456.40
597.04	444.70
597.20	428.32
597.36	407.25
597.51	421.30
597.67	416.62
597.83	456.40
597.99	365.12
598.14	418.96
598.30	390.87
598.46	369.80
598.61	428.32
598.77	444.70
598.93	404.91
599.09	414.27
599.24	411.93
599.40	437.68
599.56	390.87
599.71	477.47
599.87	430.66
600.03	454.06
600.18	409.59
600.34	421.30
600.50	416.62
600.65	428.32
600.81	397.89
600.97	458.74
601.12	433.00
601.28	447.04
601.44	461.09
601.59	411.93
601.75	367.46
601.91	341.72
602.06	367.46
602.22	388.53
602.37	468.11
602.53	435.34
602.69	470.45
602.84	372.15
603.00	425.98
603.16	376.83
603.31	463.43
603.47	451.72
603.62	327.68
603.78	472.79
603.94	416.62
604.09	379.17
604.25	458.74
604.40	418.96
604.56	409.59
604.71	393.21
604.87	440.02
605.03	360.44
605.18	381.51
605.34	437.68
605.49	444.70
605.65	402.57
605.80	397.89
605.96	416.62
606.12	407.25
606.27	425.98
606.43	348.74
606.58	472.79
606.74	369.80
606.89	425.98
607.05	414.27
607.20	433.00
607.36	433.00
607.51	339.38
607.67	409.59
607.82	447.04
607.98	472.79
608.13	528.96
608.29	376.83
608.44	414.27
608.60	367.46
608.75	362.78
608.91	383.85
609.06	456.40
609.22	351.08
609.37	454.06
609.53	435.34
609.68	465.77
609.84	430.66
609.99	369.80
610.15	369.80
