SpectraSuite Data File
++++++++++++++++++++++++++++++++++++
Date: Fri Oct 25 12:10:42 EDT 2013
User: price-jones
Dark Spectrum Present: No
Reference Spectrum Present: No
Number of Sampled Component Spectra: 1
Spectrometers: USB2+H05261
Integration Time (usec): 100000 (USB2+H05261)
Spectra Averaged: 1 (USB2+H05261)
Boxcar Smoothing: 0 (USB2+H05261)
Correct for Electrical Dark: No (USB2+H05261)
Strobe/Lamp Enabled: No (USB2+H05261)
Correct for Detector Non-linearity: No (USB2+H05261)
Correct for Stray Light: No (USB2+H05261)
Number of Pixels in Processed Spectrum: 2048
>>>>>Begin Processed Spectral Data<<<<<
365.73	318.31
365.92	318.31
366.12	318.31
366.32	203.63
366.52	273.84
366.72	250.44
366.91	212.99
367.11	222.35
367.31	184.90
367.51	245.76
367.70	220.01
367.90	257.46
368.10	259.80
368.30	276.18
368.49	191.92
368.69	241.08
368.89	283.20
369.09	269.16
369.28	241.08
369.48	287.89
369.68	308.95
369.87	318.31
370.07	304.27
370.27	332.36
370.47	322.99
370.66	297.25
370.86	362.78
371.06	362.78
371.25	421.30
371.45	433.00
371.65	416.62
371.84	386.19
372.04	355.76
372.24	393.21
372.44	365.12
372.63	414.27
372.83	388.53
373.03	404.91
373.22	433.00
373.42	397.89
373.62	369.80
373.81	402.57
374.01	461.09
374.21	414.27
374.40	447.04
374.60	397.89
374.79	407.25
374.99	402.57
375.19	456.40
375.38	470.45
375.58	428.32
375.78	430.66
375.97	397.89
376.17	489.17
376.37	461.09
376.56	433.00
376.76	355.76
376.95	397.89
377.15	440.02
377.35	421.30
377.54	472.79
377.74	414.27
377.93	404.91
378.13	437.68
378.33	388.53
378.52	451.72
378.72	430.66
378.91	451.72
379.11	407.25
379.31	397.89
379.50	428.32
379.70	482.15
379.89	376.83
380.09	404.91
380.28	346.40
380.48	449.38
380.68	383.85
380.87	374.49
381.07	360.44
381.26	362.78
381.46	383.85
381.65	395.55
381.85	421.30
382.04	421.30
382.24	428.32
382.43	393.21
382.63	341.72
382.83	311.29
383.02	411.93
383.22	367.46
383.41	390.87
383.61	435.34
383.80	379.17
384.00	369.80
384.19	440.02
384.39	400.23
384.58	416.62
384.78	355.76
384.97	454.06
385.17	435.34
385.36	388.53
385.56	428.32
385.75	362.78
385.95	404.91
386.14	395.55
386.34	461.09
386.53	334.70
386.72	397.89
386.92	376.83
387.11	451.72
387.31	414.27
387.50	390.87
387.70	423.64
387.89	327.68
388.09	344.06
388.28	440.02
388.48	440.02
388.67	491.51
388.86	402.57
389.06	409.59
389.25	390.87
389.45	433.00
389.64	454.06
389.84	332.36
390.03	372.15
390.22	468.11
390.42	407.25
390.61	407.25
390.81	400.23
391.00	339.38
391.19	416.62
391.39	337.04
391.58	416.62
391.78	409.59
391.97	386.19
392.16	383.85
392.36	425.98
392.55	390.87
392.75	395.55
392.94	423.64
393.13	433.00
393.33	346.40
393.52	409.59
393.71	402.57
393.91	402.57
394.10	369.80
394.29	418.96
394.49	397.89
394.68	393.21
394.88	454.06
395.07	393.21
395.26	472.79
395.46	379.17
395.65	435.34
395.84	346.40
396.04	451.72
396.23	360.44
396.42	388.53
396.62	411.93
396.81	475.13
397.00	325.33
397.19	440.02
397.39	360.44
397.58	418.96
397.77	451.72
397.97	362.78
398.16	395.55
398.35	383.85
398.55	416.62
398.74	379.17
398.93	416.62
399.12	435.34
399.32	390.87
399.51	402.57
399.70	409.59
399.90	407.25
400.09	423.64
400.28	444.70
400.47	388.53
400.67	416.62
400.86	397.89
401.05	379.17
401.24	442.36
401.44	388.53
401.63	390.87
401.82	447.04
402.01	341.72
402.21	369.80
402.40	409.59
402.59	388.53
402.78	444.70
402.97	334.70
403.17	430.66
403.36	404.91
403.55	381.51
403.74	404.91
403.93	353.42
404.13	397.89
404.32	463.43
404.51	374.49
404.70	428.32
404.89	348.74
405.09	451.72
405.28	470.45
405.47	372.15
405.66	374.49
405.85	461.09
406.05	376.83
406.24	362.78
406.43	374.49
406.62	386.19
406.81	435.34
407.00	468.11
407.20	381.51
407.39	411.93
407.58	428.32
407.77	423.64
407.96	425.98
408.15	388.53
408.34	449.38
408.54	381.51
408.73	404.91
408.92	437.68
409.11	397.89
409.30	404.91
409.49	327.68
409.68	362.78
409.87	388.53
410.07	486.83
410.26	393.21
410.45	435.34
410.64	358.10
410.83	395.55
411.02	414.27
411.21	388.53
411.40	411.93
411.59	416.62
411.78	437.68
411.98	374.49
412.17	348.74
412.36	320.65
412.55	428.32
412.74	390.87
412.93	444.70
413.12	430.66
413.31	423.64
413.50	465.77
413.69	388.53
413.88	388.53
414.07	395.55
414.26	390.87
414.45	409.59
414.64	425.98
414.83	477.47
415.02	386.19
415.22	379.17
415.41	489.17
415.60	465.77
415.79	411.93
415.98	463.43
416.17	376.83
416.36	428.32
416.55	390.87
416.74	402.57
416.93	437.68
417.12	386.19
417.31	468.11
417.50	409.59
417.69	320.65
417.88	465.77
418.07	416.62
418.26	397.89
418.45	369.80
418.64	411.93
418.83	440.02
419.02	440.02
419.21	376.83
419.39	411.93
419.58	425.98
419.77	423.64
419.96	374.49
420.15	454.06
420.34	425.98
420.53	484.49
420.72	449.38
420.91	393.21
421.10	362.78
421.29	397.89
421.48	393.21
421.67	418.96
421.86	381.51
422.05	437.68
422.24	315.97
422.43	404.91
422.61	479.81
422.80	400.23
422.99	447.04
423.18	407.25
423.37	458.74
423.56	411.93
423.75	440.02
423.94	411.93
424.13	376.83
424.32	388.53
424.50	479.81
424.69	365.12
424.88	479.81
425.07	430.66
425.26	386.19
425.45	458.74
425.64	386.19
425.83	421.30
426.01	477.47
426.20	395.55
426.39	428.32
426.58	472.79
426.77	512.58
426.96	409.59
427.15	383.85
427.33	444.70
427.52	376.83
427.71	440.02
427.90	421.30
428.09	383.85
428.28	411.93
428.46	430.66
428.65	433.00
428.84	418.96
429.03	461.09
429.22	369.80
429.40	468.11
429.59	360.44
429.78	482.15
429.97	383.85
430.16	416.62
430.34	465.77
430.53	362.78
430.72	397.89
430.91	430.66
431.10	444.70
431.28	475.13
431.47	444.70
431.66	388.53
431.85	461.09
432.03	362.78
432.22	376.83
432.41	393.21
432.60	430.66
432.79	409.59
432.97	388.53
433.16	449.38
433.35	379.17
433.54	407.25
433.72	440.02
433.91	461.09
434.10	374.49
434.28	463.43
434.47	372.15
434.66	416.62
434.85	390.87
435.03	341.72
435.22	390.87
435.41	461.09
435.59	374.49
435.78	383.85
435.97	383.85
436.16	486.83
436.34	433.00
436.53	397.89
436.72	393.21
436.90	407.25
437.09	454.06
437.28	414.27
437.46	407.25
437.65	397.89
437.84	388.53
438.02	404.91
438.21	458.74
438.40	372.15
438.58	393.21
438.77	498.53
438.96	409.59
439.14	458.74
439.33	386.19
439.52	376.83
439.70	430.66
439.89	376.83
440.08	379.17
440.26	418.96
440.45	400.23
440.63	423.64
440.82	416.62
441.01	430.66
441.19	472.79
441.38	400.23
441.57	402.57
441.75	365.12
441.94	395.55
442.12	484.49
442.31	374.49
442.50	433.00
442.68	409.59
442.87	407.25
443.05	468.11
443.24	400.23
443.43	414.27
443.61	458.74
443.80	388.53
443.98	388.53
444.17	318.31
444.35	454.06
444.54	397.89
444.73	430.66
444.91	369.80
445.10	367.46
445.28	416.62
445.47	435.34
445.65	425.98
445.84	400.23
446.02	454.06
446.21	365.12
446.39	383.85
446.58	451.72
446.77	435.34
446.95	482.15
447.14	435.34
447.32	369.80
447.51	409.59
447.69	395.55
447.88	318.31
448.06	482.15
448.25	458.74
448.43	440.02
448.62	442.36
448.80	437.68
448.99	374.49
449.17	440.02
449.36	365.12
449.54	430.66
449.73	421.30
449.91	517.26
450.10	425.98
450.28	425.98
450.46	454.06
450.65	400.23
450.83	489.17
451.02	376.83
451.20	447.04
451.39	463.43
451.57	409.59
451.76	409.59
451.94	402.57
452.13	390.87
452.31	433.00
452.49	435.34
452.68	360.44
452.86	447.04
453.05	379.17
453.23	414.27
453.42	416.62
453.60	362.78
453.78	465.77
453.97	418.96
454.15	458.74
454.34	390.87
454.52	311.29
454.70	447.04
454.89	456.40
455.07	390.87
455.26	409.59
455.44	421.30
455.62	397.89
455.81	454.06
455.99	425.98
456.17	358.10
456.36	409.59
456.54	440.02
456.73	444.70
456.91	339.38
457.09	451.72
457.28	367.46
457.46	435.34
457.64	442.36
457.83	430.66
458.01	367.46
458.19	454.06
458.38	402.57
458.56	423.64
458.74	395.55
458.93	428.32
459.11	355.76
459.29	362.78
459.48	442.36
459.66	451.72
459.84	411.93
460.03	421.30
460.21	442.36
460.39	442.36
460.57	500.87
460.76	437.68
460.94	334.70
461.12	411.93
461.31	449.38
461.49	461.09
461.67	393.21
461.85	449.38
462.04	376.83
462.22	751.31
462.40	423.64
462.59	458.74
462.77	381.51
462.95	318.31
463.13	372.15
463.32	416.62
463.50	367.46
463.68	374.49
463.86	404.91
464.05	430.66
464.23	409.59
464.41	449.38
464.59	435.34
464.78	386.19
464.96	367.46
465.14	374.49
465.32	393.21
465.50	458.74
465.69	390.87
465.87	428.32
466.05	470.45
466.23	428.32
466.41	411.93
466.60	390.87
466.78	355.76
466.96	447.04
467.14	428.32
467.32	407.25
467.51	379.17
467.69	414.27
467.87	456.40
468.05	330.02
468.23	346.40
468.41	414.27
468.60	379.17
468.78	372.15
468.96	449.38
469.14	393.21
469.32	390.87
469.50	400.23
469.69	461.09
469.87	404.91
470.05	376.83
470.23	393.21
470.41	430.66
470.59	418.96
470.77	348.74
470.95	428.32
471.14	381.51
471.32	400.23
471.50	416.62
471.68	367.46
471.86	463.43
472.04	440.02
472.22	348.74
472.40	465.77
472.58	407.25
472.77	351.08
472.95	376.83
473.13	372.15
473.31	468.11
473.49	416.62
473.67	482.15
473.85	500.87
474.03	397.89
474.21	444.70
474.39	440.02
474.57	425.98
474.75	411.93
474.93	365.12
475.12	421.30
475.30	390.87
475.48	470.45
475.66	400.23
475.84	461.09
476.02	376.83
476.20	435.34
476.38	365.12
476.56	461.09
476.74	393.21
476.92	491.51
477.10	409.59
477.28	423.64
477.46	416.62
477.64	421.30
477.82	447.04
478.00	423.64
478.18	402.57
478.36	414.27
478.54	421.30
478.72	475.13
478.90	433.00
479.08	409.59
479.26	430.66
479.44	407.25
479.62	407.25
479.80	388.53
479.98	407.25
480.16	440.02
480.34	454.06
480.52	461.09
480.70	418.96
480.88	404.91
481.06	454.06
481.24	322.99
481.41	409.59
481.59	409.59
481.77	355.76
481.95	390.87
482.13	472.79
482.31	402.57
482.49	390.87
482.67	404.91
482.85	472.79
483.03	330.02
483.21	404.91
483.39	414.27
483.57	425.98
483.74	383.85
483.92	409.59
484.10	444.70
484.28	374.49
484.46	482.15
484.64	430.66
484.82	463.43
485.00	456.40
485.18	388.53
485.35	423.64
485.53	397.89
485.71	367.46
485.89	306.61
486.07	358.10
486.25	418.96
486.43	503.22
486.61	472.79
486.78	444.70
486.96	397.89
487.14	465.77
487.32	332.36
487.50	414.27
487.68	440.02
487.85	404.91
488.03	449.38
488.21	379.17
488.39	437.68
488.57	414.27
488.75	383.85
488.92	512.58
489.10	456.40
489.28	433.00
489.46	351.08
489.64	393.21
489.81	418.96
489.99	297.25
490.17	376.83
490.35	454.06
490.53	369.80
490.70	395.55
490.88	472.79
491.06	454.06
491.24	437.68
491.41	454.06
491.59	402.57
491.77	358.10
491.95	332.36
492.13	447.04
492.30	402.57
492.48	409.59
492.66	395.55
492.84	358.10
493.01	390.87
493.19	411.93
493.37	477.47
493.54	411.93
493.72	414.27
493.90	400.23
494.08	440.02
494.25	458.74
494.43	416.62
494.61	449.38
494.79	386.19
494.96	379.17
495.14	404.91
495.32	503.22
495.49	423.64
495.67	332.36
495.85	320.65
496.02	365.12
496.20	430.66
496.38	402.57
496.55	390.87
496.73	390.87
496.91	421.30
497.09	428.32
497.26	451.72
497.44	449.38
497.62	437.68
497.79	402.57
497.97	421.30
498.14	409.59
498.32	351.08
498.50	383.85
498.67	383.85
498.85	407.25
499.03	409.59
499.20	418.96
499.38	430.66
499.56	327.68
499.73	421.30
499.91	411.93
500.08	465.77
500.26	369.80
500.44	386.19
500.61	437.68
500.79	411.93
500.97	416.62
501.14	414.27
501.32	402.57
501.49	409.59
501.67	418.96
501.84	428.32
502.02	433.00
502.20	484.49
502.37	472.79
502.55	372.15
502.72	414.27
502.90	383.85
503.07	341.72
503.25	369.80
503.43	346.40
503.60	332.36
503.78	423.64
503.95	327.68
504.13	395.55
504.30	362.78
504.48	451.72
504.65	444.70
504.83	402.57
505.01	463.43
505.18	395.55
505.36	435.34
505.53	379.17
505.71	400.23
505.88	365.12
506.06	428.32
506.23	339.38
506.41	395.55
506.58	407.25
506.76	360.44
506.93	421.30
507.11	386.19
507.28	355.76
507.46	465.77
507.63	442.36
507.81	372.15
507.98	393.21
508.16	381.51
508.33	461.09
508.50	461.09
508.68	479.81
508.85	428.32
509.03	444.70
509.20	388.53
509.38	456.40
509.55	425.98
509.73	437.68
509.90	437.68
510.08	346.40
510.25	367.46
510.42	379.17
510.60	435.34
510.77	381.51
510.95	390.87
511.12	411.93
511.30	416.62
511.47	402.57
511.64	526.62
511.82	395.55
511.99	421.30
512.17	383.85
512.34	447.04
512.51	449.38
512.69	369.80
512.86	390.87
513.04	383.85
513.21	437.68
513.38	449.38
513.56	404.91
513.73	428.32
513.90	388.53
514.08	404.91
514.25	360.44
514.43	332.36
514.60	346.40
514.77	374.49
514.95	386.19
515.12	395.55
515.29	470.45
515.47	451.72
515.64	390.87
515.81	407.25
515.99	402.57
516.16	425.98
516.33	416.62
516.51	379.17
516.68	379.17
516.85	414.27
517.03	404.91
517.20	444.70
517.37	437.68
517.54	397.89
517.72	428.32
517.89	449.38
518.06	404.91
518.24	433.00
518.41	449.38
518.58	404.91
518.75	407.25
518.93	400.23
519.10	440.02
519.27	376.83
519.45	465.77
519.62	407.25
519.79	421.30
519.96	404.91
520.14	411.93
520.31	416.62
520.48	456.40
520.65	386.19
520.83	503.22
521.00	444.70
521.17	463.43
521.34	341.72
521.52	322.99
521.69	425.98
521.86	388.53
522.03	425.98
522.20	451.72
522.38	421.30
522.55	451.72
522.72	381.51
522.89	440.02
523.07	390.87
523.24	351.08
523.41	395.55
523.58	372.15
523.75	379.17
523.92	454.06
524.10	458.74
524.27	348.74
524.44	393.21
524.61	447.04
524.78	477.47
524.96	416.62
525.13	428.32
525.30	362.78
525.47	376.83
525.64	390.87
525.81	463.43
525.98	407.25
526.16	388.53
526.33	383.85
526.50	407.25
526.67	395.55
526.84	390.87
527.01	379.17
527.18	465.77
527.36	393.21
527.53	383.85
527.70	390.87
527.87	407.25
528.04	468.11
528.21	393.21
528.38	421.30
528.55	440.02
528.72	376.83
528.89	454.06
529.07	437.68
529.24	353.42
529.41	456.40
529.58	416.62
529.75	416.62
529.92	393.21
530.09	507.90
530.26	498.53
530.43	372.15
530.60	395.55
530.77	451.72
530.94	470.45
531.11	390.87
531.28	454.06
531.46	339.38
531.63	423.64
531.80	430.66
531.97	416.62
532.14	383.85
532.31	442.36
532.48	423.64
532.65	442.36
532.82	461.09
532.99	449.38
533.16	428.32
533.33	411.93
533.50	360.44
533.67	402.57
533.84	484.49
534.01	390.87
534.18	358.10
534.35	463.43
534.52	442.36
534.69	402.57
534.86	383.85
535.03	400.23
535.20	358.10
535.37	425.98
535.54	411.93
535.71	395.55
535.88	454.06
536.05	407.25
536.22	458.74
536.38	390.87
536.55	397.89
536.72	423.64
536.89	339.38
537.06	381.51
537.23	390.87
537.40	407.25
537.57	433.00
537.74	561.73
537.91	433.00
538.08	407.25
538.25	383.85
538.42	454.06
538.59	421.30
538.75	505.56
538.92	444.70
539.09	421.30
539.26	463.43
539.43	428.32
539.60	440.02
539.77	421.30
539.94	383.85
540.11	367.46
540.28	463.43
540.44	379.17
540.61	402.57
540.78	430.66
540.95	423.64
541.12	411.93
541.29	393.21
541.46	449.38
541.62	425.98
541.79	388.53
541.96	435.34
542.13	367.46
542.30	374.49
542.47	451.72
542.63	386.19
542.80	425.98
542.97	486.83
543.14	437.68
543.31	482.15
543.48	386.19
543.64	477.47
543.81	437.68
543.98	337.04
544.15	418.96
544.32	369.80
544.48	451.72
544.65	397.89
544.82	369.80
544.99	362.78
545.16	444.70
545.32	393.21
545.49	435.34
545.66	416.62
545.83	400.23
546.00	393.21
546.16	372.15
546.33	411.93
546.50	397.89
546.67	463.43
546.83	423.64
547.00	407.25
547.17	360.44
547.34	388.53
547.50	369.80
547.67	372.15
547.84	402.57
548.00	430.66
548.17	451.72
548.34	475.13
548.51	402.57
548.67	421.30
548.84	369.80
549.01	388.53
549.18	341.72
549.34	454.06
549.51	383.85
549.68	407.25
549.84	407.25
550.01	362.78
550.18	470.45
550.34	449.38
550.51	421.30
550.68	437.68
550.84	400.23
551.01	421.30
551.18	444.70
551.34	425.98
551.51	395.55
551.68	404.91
551.84	407.25
552.01	416.62
552.18	456.40
552.34	407.25
552.51	440.02
552.68	437.68
552.84	428.32
553.01	416.62
553.18	421.30
553.34	442.36
553.51	447.04
553.67	458.74
553.84	477.47
554.01	362.78
554.17	416.62
554.34	444.70
554.51	390.87
554.67	449.38
554.84	411.93
555.00	451.72
555.17	433.00
555.33	564.07
555.50	362.78
555.67	440.02
555.83	479.81
556.00	477.47
556.16	528.96
556.33	454.06
556.50	395.55
556.66	409.59
556.83	362.78
556.99	456.40
557.16	393.21
557.32	383.85
557.49	404.91
557.65	479.81
557.82	351.08
557.98	395.55
558.15	484.49
558.32	484.49
558.48	463.43
558.65	425.98
558.81	444.70
558.98	428.32
559.14	465.77
559.31	454.06
559.47	437.68
559.64	390.87
559.80	493.85
559.97	397.89
560.13	421.30
560.30	362.78
560.46	461.09
560.63	372.15
560.79	341.72
560.96	456.40
561.12	367.46
561.29	423.64
561.45	365.12
561.61	414.27
561.78	477.47
561.94	397.89
562.11	418.96
562.27	397.89
562.44	404.91
562.60	402.57
562.77	397.89
562.93	489.17
563.10	409.59
563.26	437.68
563.42	416.62
563.59	425.98
563.75	393.21
563.92	428.32
564.08	402.57
564.24	376.83
564.41	461.09
564.57	437.68
564.74	318.31
564.90	351.08
565.07	376.83
565.23	393.21
565.39	418.96
565.56	388.53
565.72	435.34
565.88	355.76
566.05	332.36
566.21	395.55
566.38	386.19
566.54	451.72
566.70	360.44
566.87	341.72
567.03	353.42
567.19	409.59
567.36	451.72
567.52	440.02
567.68	451.72
567.85	442.36
568.01	388.53
568.17	397.89
568.34	423.64
568.50	498.53
568.66	400.23
568.83	475.13
568.99	479.81
569.15	386.19
569.32	346.40
569.48	433.00
569.64	411.93
569.81	428.32
569.97	423.64
570.13	393.21
570.30	425.98
570.46	397.89
570.62	463.43
570.78	381.51
570.95	400.23
571.11	458.74
571.27	430.66
571.43	367.46
571.60	461.09
571.76	430.66
571.92	465.77
572.09	386.19
572.25	465.77
572.41	400.23
572.57	461.09
572.74	425.98
572.90	407.25
573.06	433.00
573.22	428.32
573.38	395.55
573.55	407.25
573.71	498.53
573.87	418.96
574.03	433.00
574.20	386.19
574.36	458.74
574.52	437.68
574.68	454.06
574.84	435.34
575.01	421.30
575.17	400.23
575.33	447.04
575.49	423.64
575.65	435.34
575.82	447.04
575.98	451.72
576.14	402.57
576.30	388.53
576.46	454.06
576.62	407.25
576.79	409.59
576.95	447.04
577.11	397.89
577.27	374.49
577.43	454.06
577.59	461.09
577.75	423.64
577.92	440.02
578.08	402.57
578.24	407.25
578.40	416.62
578.56	411.93
578.72	400.23
578.88	402.57
579.04	383.85
579.21	456.40
579.37	423.64
579.53	447.04
579.69	447.04
579.85	393.21
580.01	393.21
580.17	325.33
580.33	409.59
580.49	435.34
580.65	454.06
580.82	437.68
580.98	379.17
581.14	395.55
581.30	454.06
581.46	418.96
581.62	510.24
581.78	409.59
581.94	376.83
582.10	414.27
582.26	451.72
582.42	418.96
582.58	435.34
582.74	381.51
582.90	435.34
583.06	369.80
583.22	400.23
583.38	400.23
583.54	355.76
583.70	498.53
583.86	390.87
584.02	360.44
584.18	418.96
584.34	395.55
584.50	447.04
584.66	425.98
584.82	339.38
584.98	458.74
585.14	397.89
585.30	498.53
585.46	414.27
585.62	390.87
585.78	465.77
585.94	421.30
586.10	489.17
586.26	425.98
586.42	393.21
586.58	365.12
586.74	409.59
586.90	404.91
587.06	447.04
587.22	381.51
587.38	402.57
587.54	379.17
587.70	330.02
587.86	397.89
588.02	447.04
588.18	404.91
588.34	421.30
588.49	383.85
588.65	381.51
588.81	395.55
588.97	379.17
589.13	393.21
589.29	433.00
589.45	404.91
589.61	442.36
589.77	379.17
589.93	397.89
590.08	433.00
590.24	393.21
590.40	416.62
590.56	390.87
590.72	376.83
590.88	423.64
591.04	447.04
591.20	411.93
591.35	458.74
591.51	381.51
591.67	376.83
591.83	379.17
591.99	381.51
592.15	477.47
592.31	402.57
592.46	444.70
592.62	486.83
592.78	421.30
592.94	409.59
593.10	428.32
593.26	407.25
593.41	400.23
593.57	479.81
593.73	414.27
593.89	463.43
594.05	395.55
594.20	351.08
594.36	402.57
594.52	416.62
594.68	409.59
594.84	451.72
594.99	421.30
595.15	404.91
595.31	397.89
595.47	463.43
595.62	390.87
595.78	437.68
595.94	425.98
596.10	376.83
596.25	390.87
596.41	507.90
596.57	365.12
596.73	400.23
596.88	451.72
597.04	440.02
597.20	383.85
597.36	437.68
597.51	425.98
597.67	379.17
597.83	430.66
597.99	491.51
598.14	407.25
598.30	430.66
598.46	416.62
598.61	425.98
598.77	407.25
598.93	437.68
599.09	407.25
599.24	442.36
599.40	433.00
599.56	421.30
599.71	423.64
599.87	409.59
600.03	423.64
600.18	386.19
600.34	365.12
600.50	468.11
600.65	463.43
600.81	531.30
600.97	411.93
601.12	423.64
601.28	435.34
601.44	409.59
601.59	386.19
601.75	418.96
601.91	503.22
602.06	461.09
602.22	397.89
602.37	395.55
602.53	400.23
602.69	428.32
602.84	386.19
603.00	442.36
603.16	421.30
603.31	463.43
603.47	423.64
603.62	376.83
603.78	418.96
603.94	418.96
604.09	351.08
604.25	372.15
604.40	423.64
604.56	428.32
604.71	402.57
604.87	395.55
605.03	407.25
605.18	461.09
605.34	360.44
605.49	369.80
605.65	388.53
605.80	395.55
605.96	379.17
606.12	404.91
606.27	496.19
606.43	437.68
606.58	400.23
606.74	397.89
606.89	428.32
607.05	425.98
607.20	451.72
607.36	409.59
607.51	442.36
607.67	421.30
607.82	435.34
607.98	482.15
608.13	489.17
608.29	400.23
608.44	491.51
608.60	374.49
608.75	390.87
608.91	475.13
609.06	409.59
609.22	397.89
609.37	461.09
609.53	435.34
609.68	461.09
609.84	482.15
609.99	437.68
610.15	339.38
