SpectraSuite Data File
++++++++++++++++++++++++++++++++++++
Date: Fri Oct 25 12:10:06 EDT 2013
User: price-jones
Dark Spectrum Present: No
Reference Spectrum Present: No
Number of Sampled Component Spectra: 1
Spectrometers: USB2+H05261
Integration Time (usec): 100000 (USB2+H05261)
Spectra Averaged: 1 (USB2+H05261)
Boxcar Smoothing: 0 (USB2+H05261)
Correct for Electrical Dark: No (USB2+H05261)
Strobe/Lamp Enabled: No (USB2+H05261)
Correct for Detector Non-linearity: No (USB2+H05261)
Correct for Stray Light: No (USB2+H05261)
Number of Pixels in Processed Spectrum: 2048
>>>>>Begin Processed Spectral Data<<<<<
365.73	322.99
365.92	322.99
366.12	322.99
366.32	262.14
366.52	245.76
366.72	262.14
366.91	198.95
367.11	220.01
367.31	196.60
367.51	231.71
367.70	252.78
367.90	248.10
368.10	222.35
368.30	220.01
368.49	215.33
368.69	248.10
368.89	257.46
369.09	175.54
369.28	283.20
369.48	217.67
369.68	259.80
369.87	313.63
370.07	285.55
370.27	337.04
370.47	273.84
370.66	269.16
370.86	369.80
371.06	365.12
371.25	379.17
371.45	362.78
371.65	400.23
371.84	407.25
372.04	327.68
372.24	397.89
372.44	376.83
372.63	423.64
372.83	334.70
373.03	404.91
373.22	449.38
373.42	379.17
373.62	407.25
373.81	397.89
374.01	519.60
374.21	465.77
374.40	528.96
374.60	472.79
374.79	437.68
374.99	386.19
375.19	435.34
375.38	388.53
375.58	379.17
375.78	444.70
375.97	425.98
376.17	416.62
376.37	376.83
376.56	409.59
376.76	440.02
376.95	341.72
377.15	458.74
377.35	390.87
377.54	444.70
377.74	369.80
377.93	341.72
378.13	365.12
378.33	393.21
378.52	402.57
378.72	409.59
378.91	355.76
379.11	400.23
379.31	397.89
379.50	386.19
379.70	461.09
379.89	458.74
380.09	397.89
380.28	337.04
380.48	376.83
380.68	362.78
380.87	369.80
381.07	386.19
381.26	421.30
381.46	381.51
381.65	348.74
381.85	355.76
382.04	383.85
382.24	433.00
382.43	362.78
382.63	437.68
382.83	437.68
383.02	449.38
383.22	397.89
383.41	433.00
383.61	428.32
383.80	390.87
384.00	402.57
384.19	374.49
384.39	418.96
384.58	390.87
384.78	444.70
384.97	397.89
385.17	355.76
385.36	372.15
385.56	358.10
385.75	397.89
385.95	433.00
386.14	409.59
386.34	390.87
386.53	423.64
386.72	383.85
386.92	463.43
387.11	442.36
387.31	390.87
387.50	447.04
387.70	390.87
387.89	433.00
388.09	402.57
388.28	409.59
388.48	379.17
388.67	428.32
388.86	383.85
389.06	327.68
389.25	386.19
389.45	428.32
389.64	409.59
389.84	433.00
390.03	442.36
390.22	418.96
390.42	409.59
390.61	374.49
390.81	344.06
391.00	402.57
391.19	402.57
391.39	418.96
391.58	421.30
391.78	409.59
391.97	416.62
392.16	440.02
392.36	421.30
392.55	430.66
392.75	428.32
392.94	402.57
393.13	416.62
393.33	367.46
393.52	365.12
393.71	400.23
393.91	386.19
394.10	367.46
394.29	383.85
394.49	402.57
394.68	491.51
394.88	402.57
395.07	428.32
395.26	301.93
395.46	353.42
395.65	440.02
395.84	369.80
396.04	547.69
396.23	400.23
396.42	332.36
396.62	425.98
396.81	430.66
397.00	435.34
397.19	479.81
397.39	374.49
397.58	451.72
397.77	393.21
397.97	435.34
398.16	362.78
398.35	395.55
398.55	369.80
398.74	358.10
398.93	425.98
399.12	383.85
399.32	390.87
399.51	400.23
399.70	425.98
399.90	451.72
400.09	433.00
400.28	395.55
400.47	444.70
400.67	369.80
400.86	365.12
401.05	386.19
401.24	463.43
401.44	463.43
401.63	402.57
401.82	416.62
402.01	386.19
402.21	425.98
402.40	411.93
402.59	444.70
402.78	376.83
402.97	372.15
403.17	404.91
403.36	428.32
403.55	407.25
403.74	393.21
403.93	416.62
404.13	409.59
404.32	451.72
404.51	430.66
404.70	397.89
404.89	388.53
405.09	458.74
405.28	383.85
405.47	348.74
405.66	402.57
405.85	451.72
406.05	374.49
406.24	351.08
406.43	435.34
406.62	442.36
406.81	404.91
407.00	411.93
407.20	449.38
407.39	428.32
407.58	442.36
407.77	477.47
407.96	346.40
408.15	397.89
408.34	409.59
408.54	320.65
408.73	393.21
408.92	395.55
409.11	365.12
409.30	430.66
409.49	444.70
409.68	365.12
409.87	470.45
410.07	374.49
410.26	425.98
410.45	444.70
410.64	351.08
410.83	409.59
411.02	355.76
411.21	428.32
411.40	418.96
411.59	365.12
411.78	360.44
411.98	397.89
412.17	376.83
412.36	376.83
412.55	393.21
412.74	407.25
412.93	498.53
413.12	397.89
413.31	463.43
413.50	395.55
413.69	404.91
413.88	416.62
414.07	463.43
414.26	435.34
414.45	388.53
414.64	423.64
414.83	414.27
415.02	437.68
415.22	306.61
415.41	510.24
415.60	444.70
415.79	381.51
415.98	440.02
416.17	411.93
416.36	365.12
416.55	372.15
416.74	418.96
416.93	435.34
417.12	372.15
417.31	437.68
417.50	425.98
417.69	456.40
417.88	430.66
418.07	325.33
418.26	440.02
418.45	491.51
418.64	458.74
418.83	449.38
419.02	421.30
419.21	416.62
419.39	449.38
419.58	416.62
419.77	404.91
419.96	402.57
420.15	423.64
420.34	421.30
420.53	449.38
420.72	414.27
420.91	407.25
421.10	430.66
421.29	397.89
421.48	393.21
421.67	428.32
421.86	381.51
422.05	435.34
422.24	442.36
422.43	437.68
422.61	386.19
422.80	425.98
422.99	521.94
423.18	430.66
423.37	381.51
423.56	407.25
423.75	362.78
423.94	393.21
424.13	458.74
424.32	297.25
424.50	421.30
424.69	337.04
424.88	435.34
425.07	425.98
425.26	404.91
425.45	374.49
425.64	362.78
425.83	362.78
426.01	383.85
426.20	407.25
426.39	418.96
426.58	454.06
426.77	372.15
426.96	470.45
427.15	414.27
427.33	372.15
427.52	344.06
427.71	414.27
427.90	365.12
428.09	414.27
428.28	421.30
428.46	411.93
428.65	472.79
428.84	320.65
429.03	444.70
429.22	435.34
429.40	404.91
429.59	390.87
429.78	390.87
429.97	425.98
430.16	355.76
430.34	376.83
430.53	388.53
430.72	437.68
430.91	447.04
431.10	404.91
431.28	472.79
431.47	461.09
431.66	407.25
431.85	386.19
432.03	388.53
432.22	479.81
432.41	411.93
432.60	456.40
432.79	369.80
432.97	381.51
433.16	433.00
433.35	433.00
433.54	337.04
433.72	493.85
433.91	463.43
434.10	416.62
434.28	479.81
434.47	463.43
434.66	430.66
434.85	379.17
435.03	430.66
435.22	423.64
435.41	428.32
435.59	463.43
435.78	386.19
435.97	397.89
436.16	407.25
436.34	381.51
436.53	456.40
436.72	423.64
436.90	468.11
437.09	400.23
437.28	421.30
437.46	421.30
437.65	393.21
437.84	458.74
438.02	470.45
438.21	381.51
438.40	327.68
438.58	444.70
438.77	498.53
438.96	346.40
439.14	390.87
439.33	362.78
439.52	418.96
439.70	458.74
439.89	374.49
440.08	402.57
440.26	454.06
440.45	386.19
440.63	318.31
440.82	320.65
441.01	379.17
441.19	493.85
441.38	365.12
441.57	421.30
441.75	404.91
441.94	454.06
442.12	369.80
442.31	404.91
442.50	388.53
442.68	353.42
442.87	320.65
443.05	437.68
443.24	400.23
443.43	315.97
443.61	411.93
443.80	435.34
443.98	449.38
444.17	388.53
444.35	435.34
444.54	411.93
444.73	348.74
444.91	470.45
445.10	397.89
445.28	421.30
445.47	353.42
445.65	421.30
445.84	409.59
446.02	379.17
446.21	447.04
446.39	451.72
446.58	425.98
446.77	390.87
446.95	442.36
447.14	372.15
447.32	451.72
447.51	386.19
447.69	358.10
447.88	414.27
448.06	440.02
448.25	395.55
448.43	475.13
448.62	362.78
448.80	423.64
448.99	458.74
449.17	386.19
449.36	423.64
449.54	388.53
449.73	388.53
449.91	397.89
450.10	402.57
450.28	348.74
450.46	454.06
450.65	423.64
450.83	393.21
451.02	390.87
451.20	360.44
451.39	393.21
451.57	332.36
451.76	365.12
451.94	444.70
452.13	484.49
452.31	386.19
452.49	421.30
452.68	418.96
452.86	454.06
453.05	416.62
453.23	500.87
453.42	451.72
453.60	472.79
453.78	449.38
453.97	395.55
454.15	465.77
454.34	397.89
454.52	355.76
454.70	416.62
454.89	414.27
455.07	367.46
455.26	447.04
455.44	435.34
455.62	388.53
455.81	491.51
455.99	451.72
456.17	386.19
456.36	332.36
456.54	318.31
456.73	433.00
456.91	461.09
457.09	376.83
457.28	390.87
457.46	409.59
457.64	433.00
457.83	362.78
458.01	339.38
458.19	369.80
458.38	369.80
458.56	369.80
458.74	334.70
458.93	351.08
459.11	386.19
459.29	404.91
459.48	369.80
459.66	409.59
459.84	404.91
460.03	456.40
460.21	465.77
460.39	421.30
460.57	390.87
460.76	442.36
460.94	461.09
461.12	440.02
461.31	493.85
461.49	425.98
461.67	383.85
461.85	308.95
462.04	496.19
462.22	765.36
462.40	465.77
462.59	430.66
462.77	393.21
462.95	407.25
463.13	442.36
463.32	449.38
463.50	425.98
463.68	435.34
463.86	372.15
464.05	418.96
464.23	444.70
464.41	414.27
464.59	383.85
464.78	425.98
464.96	402.57
465.14	423.64
465.32	374.49
465.50	423.64
465.69	355.76
465.87	369.80
466.05	404.91
466.23	379.17
466.41	330.02
466.60	440.02
466.78	425.98
466.96	468.11
467.14	376.83
467.32	390.87
467.51	437.68
467.69	383.85
467.87	435.34
468.05	367.46
468.23	416.62
468.41	400.23
468.60	428.32
468.78	383.85
468.96	437.68
469.14	411.93
469.32	444.70
469.50	433.00
469.69	440.02
469.87	451.72
470.05	409.59
470.23	367.46
470.41	414.27
470.59	440.02
470.77	400.23
470.95	390.87
471.14	365.12
471.32	423.64
471.50	500.87
471.68	404.91
471.86	475.13
472.04	341.72
472.22	437.68
472.40	369.80
472.58	409.59
472.77	383.85
472.95	376.83
473.13	428.32
473.31	421.30
473.49	402.57
473.67	372.15
473.85	425.98
474.03	468.11
474.21	397.89
474.39	470.45
474.57	447.04
474.75	407.25
474.93	451.72
475.12	418.96
475.30	358.10
475.48	418.96
475.66	416.62
475.84	451.72
476.02	414.27
476.20	472.79
476.38	442.36
476.56	496.19
476.74	388.53
476.92	414.27
477.10	468.11
477.28	465.77
477.46	386.19
477.64	444.70
477.82	423.64
478.00	416.62
478.18	362.78
478.36	376.83
478.54	358.10
478.72	411.93
478.90	390.87
479.08	395.55
479.26	425.98
479.44	437.68
479.62	376.83
479.80	383.85
479.98	454.06
480.16	304.27
480.34	376.83
480.52	395.55
480.70	395.55
480.88	444.70
481.06	383.85
481.24	393.21
481.41	388.53
481.59	400.23
481.77	353.42
481.95	365.12
482.13	393.21
482.31	428.32
482.49	409.59
482.67	430.66
482.85	472.79
483.03	449.38
483.21	437.68
483.39	435.34
483.57	430.66
483.74	512.58
483.92	479.81
484.10	430.66
484.28	447.04
484.46	493.85
484.64	416.62
484.82	344.06
485.00	383.85
485.18	418.96
485.35	362.78
485.53	437.68
485.71	421.30
485.89	416.62
486.07	411.93
486.25	517.26
486.43	470.45
486.61	404.91
486.78	440.02
486.96	463.43
487.14	381.51
487.32	383.85
487.50	320.65
487.68	404.91
487.85	456.40
488.03	362.78
488.21	397.89
488.39	425.98
488.57	397.89
488.75	369.80
488.92	531.30
489.10	404.91
489.28	411.93
489.46	383.85
489.64	390.87
489.81	416.62
489.99	482.15
490.17	395.55
490.35	491.51
490.53	423.64
490.70	369.80
490.88	510.24
491.06	425.98
491.24	400.23
491.41	433.00
491.59	477.47
491.77	414.27
491.95	444.70
492.13	512.58
492.30	416.62
492.48	411.93
492.66	346.40
492.84	440.02
493.01	388.53
493.19	411.93
493.37	388.53
493.54	414.27
493.72	428.32
493.90	411.93
494.08	402.57
494.25	470.45
494.43	514.92
494.61	416.62
494.79	442.36
494.96	407.25
495.14	447.04
495.32	367.46
495.49	428.32
495.67	411.93
495.85	442.36
496.02	388.53
496.20	372.15
496.38	484.49
496.55	470.45
496.73	447.04
496.91	355.76
497.09	449.38
497.26	416.62
497.44	388.53
497.62	433.00
497.79	365.12
497.97	425.98
498.14	355.76
498.32	433.00
498.50	376.83
498.67	444.70
498.85	386.19
499.03	320.65
499.20	386.19
499.38	388.53
499.56	416.62
499.73	423.64
499.91	454.06
500.08	437.68
500.26	428.32
500.44	409.59
500.61	418.96
500.79	348.74
500.97	414.27
501.14	456.40
501.32	428.32
501.49	430.66
501.67	463.43
501.84	351.08
502.02	414.27
502.20	477.47
502.37	407.25
502.55	383.85
502.72	416.62
502.90	528.96
503.07	376.83
503.25	407.25
503.43	447.04
503.60	395.55
503.78	386.19
503.95	440.02
504.13	407.25
504.30	423.64
504.48	437.68
504.65	486.83
504.83	411.93
505.01	393.21
505.18	372.15
505.36	421.30
505.53	407.25
505.71	360.44
505.88	411.93
506.06	423.64
506.23	397.89
506.41	383.85
506.58	425.98
506.76	374.49
506.93	311.29
507.11	390.87
507.28	416.62
507.46	440.02
507.63	423.64
507.81	447.04
507.98	463.43
508.16	355.76
508.33	390.87
508.50	447.04
508.68	407.25
508.85	456.40
509.03	344.06
509.20	444.70
509.38	507.90
509.55	461.09
509.73	475.13
509.90	435.34
510.08	393.21
510.25	421.30
510.42	423.64
510.60	411.93
510.77	425.98
510.95	414.27
511.12	435.34
511.30	421.30
511.47	433.00
511.64	418.96
511.82	388.53
511.99	402.57
512.17	358.10
512.34	355.76
512.51	411.93
512.69	425.98
512.86	472.79
513.04	430.66
513.21	397.89
513.38	458.74
513.56	407.25
513.73	386.19
513.90	397.89
514.08	395.55
514.25	435.34
514.43	372.15
514.60	418.96
514.77	440.02
514.95	355.76
515.12	348.74
515.29	468.11
515.47	475.13
515.64	416.62
515.81	381.51
515.99	421.30
516.16	381.51
516.33	477.47
516.51	435.34
516.68	428.32
516.85	435.34
517.03	414.27
517.20	425.98
517.37	489.17
517.54	411.93
517.72	409.59
517.89	372.15
518.06	353.42
518.24	465.77
518.41	435.34
518.58	461.09
518.75	421.30
518.93	339.38
519.10	388.53
519.27	423.64
519.45	454.06
519.62	330.02
519.79	379.17
519.96	383.85
520.14	458.74
520.31	433.00
520.48	421.30
520.65	365.12
520.83	442.36
521.00	458.74
521.17	479.81
521.34	411.93
521.52	461.09
521.69	418.96
521.86	465.77
522.03	423.64
522.20	461.09
522.38	428.32
522.55	451.72
522.72	470.45
522.89	447.04
523.07	465.77
523.24	430.66
523.41	423.64
523.58	451.72
523.75	433.00
523.92	348.74
524.10	416.62
524.27	416.62
524.44	423.64
524.61	437.68
524.78	430.66
524.96	402.57
525.13	433.00
525.30	465.77
525.47	425.98
525.64	463.43
525.81	461.09
525.98	404.91
526.16	404.91
526.33	383.85
526.50	388.53
526.67	388.53
526.84	435.34
527.01	404.91
527.18	360.44
527.36	404.91
527.53	402.57
527.70	440.02
527.87	500.87
528.04	463.43
528.21	451.72
528.38	451.72
528.55	435.34
528.72	397.89
528.89	402.57
529.07	397.89
529.24	360.44
529.41	458.74
529.58	386.19
529.75	386.19
529.92	360.44
530.09	390.87
530.26	510.24
530.43	376.83
530.60	442.36
530.77	376.83
530.94	421.30
531.11	442.36
531.28	498.53
531.46	421.30
531.63	421.30
531.80	409.59
531.97	430.66
532.14	486.83
532.31	346.40
532.48	390.87
532.65	400.23
532.82	365.12
532.99	411.93
533.16	409.59
533.33	348.74
533.50	447.04
533.67	414.27
533.84	475.13
534.01	456.40
534.18	461.09
534.35	376.83
534.52	383.85
534.69	407.25
534.86	402.57
535.03	360.44
535.20	468.11
535.37	402.57
535.54	444.70
535.71	444.70
535.88	376.83
536.05	416.62
536.22	433.00
536.38	400.23
536.55	395.55
536.72	435.34
536.89	463.43
537.06	447.04
537.23	355.76
537.40	418.96
537.57	383.85
537.74	440.02
537.91	465.77
538.08	458.74
538.25	510.24
538.42	348.74
538.59	461.09
538.75	418.96
538.92	433.00
539.09	465.77
539.26	409.59
539.43	386.19
539.60	360.44
539.77	407.25
539.94	449.38
540.11	418.96
540.28	454.06
540.44	411.93
540.61	404.91
540.78	425.98
540.95	397.89
541.12	435.34
541.29	440.02
541.46	400.23
541.62	454.06
541.79	428.32
541.96	367.46
542.13	351.08
542.30	447.04
542.47	456.40
542.63	428.32
542.80	484.49
542.97	423.64
543.14	388.53
543.31	404.91
543.48	430.66
543.64	444.70
543.81	458.74
543.98	409.59
544.15	409.59
544.32	367.46
544.48	400.23
544.65	407.25
544.82	418.96
544.99	362.78
545.16	365.12
545.32	440.02
545.49	444.70
545.66	437.68
545.83	397.89
546.00	353.42
546.16	404.91
546.33	433.00
546.50	407.25
546.67	498.53
546.83	442.36
547.00	416.62
547.17	388.53
547.34	423.64
547.50	447.04
547.67	430.66
547.84	421.30
548.00	437.68
548.17	397.89
548.34	367.46
548.51	355.76
548.67	451.72
548.84	428.32
549.01	379.17
549.18	379.17
549.34	421.30
549.51	376.83
549.68	386.19
549.84	360.44
550.01	470.45
550.18	461.09
550.34	486.83
550.51	538.32
550.68	482.15
550.84	407.25
551.01	304.27
551.18	407.25
551.34	402.57
551.51	409.59
551.68	437.68
551.84	388.53
552.01	367.46
552.18	365.12
552.34	383.85
552.51	393.21
552.68	430.66
552.84	367.46
553.01	435.34
553.18	404.91
553.34	414.27
553.51	447.04
553.67	475.13
553.84	475.13
554.01	409.59
554.17	435.34
554.34	388.53
554.51	454.06
554.67	374.49
554.84	393.21
555.00	409.59
555.17	418.96
555.33	442.36
555.50	390.87
555.67	430.66
555.83	348.74
556.00	400.23
556.16	578.11
556.33	472.79
556.50	393.21
556.66	437.68
556.83	435.34
556.99	423.64
557.16	402.57
557.32	344.06
557.49	440.02
557.65	404.91
557.82	348.74
557.98	402.57
558.15	402.57
558.32	416.62
558.48	440.02
558.65	372.15
558.81	390.87
558.98	428.32
559.14	468.11
559.31	416.62
559.47	395.55
559.64	327.68
559.80	376.83
559.97	341.72
560.13	440.02
560.30	444.70
560.46	435.34
560.63	402.57
560.79	360.44
560.96	418.96
561.12	433.00
561.29	379.17
561.45	308.95
561.61	390.87
561.78	512.58
561.94	397.89
562.11	440.02
562.27	409.59
562.44	330.02
562.60	365.12
562.77	421.30
562.93	402.57
563.10	369.80
563.26	472.79
563.42	449.38
563.59	390.87
563.75	374.49
563.92	447.04
564.08	430.66
564.24	440.02
564.41	423.64
564.57	416.62
564.74	404.91
564.90	428.32
565.07	430.66
565.23	407.25
565.39	430.66
565.56	383.85
565.72	442.36
565.88	383.85
566.05	397.89
566.21	379.17
566.38	421.30
566.54	479.81
566.70	390.87
566.87	461.09
567.03	411.93
567.19	332.36
567.36	456.40
567.52	395.55
567.68	454.06
567.85	543.00
568.01	435.34
568.17	449.38
568.34	390.87
568.50	390.87
568.66	308.95
568.83	423.64
568.99	479.81
569.15	425.98
569.32	332.36
569.48	400.23
569.64	400.23
569.81	463.43
569.97	414.27
570.13	414.27
570.30	458.74
570.46	442.36
570.62	414.27
570.78	458.74
570.95	344.06
571.11	437.68
571.27	444.70
571.43	440.02
571.60	409.59
571.76	423.64
571.92	437.68
572.09	472.79
572.25	458.74
572.41	437.68
572.57	393.21
572.74	379.17
572.90	470.45
573.06	421.30
573.22	374.49
573.38	468.11
573.55	383.85
573.71	423.64
573.87	437.68
574.03	376.83
574.20	416.62
574.36	489.17
574.52	423.64
574.68	411.93
574.84	393.21
575.01	421.30
575.17	372.15
575.33	437.68
575.49	430.66
575.65	402.57
575.82	390.87
575.98	423.64
576.14	451.72
576.30	440.02
576.46	388.53
576.62	407.25
576.79	454.06
576.95	458.74
577.11	395.55
577.27	390.87
577.43	437.68
577.59	479.81
577.75	458.74
577.92	433.00
578.08	437.68
578.24	404.91
578.40	479.81
578.56	395.55
578.72	433.00
578.88	404.91
579.04	449.38
579.21	418.96
579.37	454.06
579.53	409.59
579.69	437.68
579.85	355.76
580.01	440.02
580.17	418.96
580.33	346.40
580.49	411.93
580.65	386.19
580.82	416.62
580.98	430.66
581.14	430.66
581.30	433.00
581.46	404.91
581.62	367.46
581.78	355.76
581.94	465.77
582.10	447.04
582.26	465.77
582.42	482.15
582.58	332.36
582.74	360.44
582.90	428.32
583.06	437.68
583.22	428.32
583.38	393.21
583.54	451.72
583.70	390.87
583.86	402.57
584.02	360.44
584.18	463.43
584.34	381.51
584.50	404.91
584.66	337.04
584.82	390.87
584.98	330.02
585.14	468.11
585.30	449.38
585.46	404.91
585.62	409.59
585.78	425.98
585.94	411.93
586.10	376.83
586.26	388.53
586.42	414.27
586.58	411.93
586.74	397.89
586.90	330.02
587.06	395.55
587.22	470.45
587.38	404.91
587.54	411.93
587.70	428.32
587.86	454.06
588.02	456.40
588.18	395.55
588.34	404.91
588.49	369.80
588.65	418.96
588.81	430.66
588.97	451.72
589.13	449.38
589.29	397.89
589.45	421.30
589.61	430.66
589.77	465.77
589.93	390.87
590.08	395.55
590.24	430.66
590.40	440.02
590.56	451.72
590.72	372.15
590.88	372.15
591.04	437.68
591.20	379.17
591.35	376.83
591.51	414.27
591.67	414.27
591.83	332.36
591.99	425.98
592.15	397.89
592.31	468.11
592.46	402.57
592.62	440.02
592.78	435.34
592.94	456.40
593.10	409.59
593.26	365.12
593.41	376.83
593.57	451.72
593.73	458.74
593.89	383.85
594.05	440.02
594.20	411.93
594.36	456.40
594.52	402.57
594.68	472.79
594.84	428.32
594.99	390.87
595.15	500.87
595.31	358.10
595.47	418.96
595.62	430.66
595.78	362.78
595.94	353.42
596.10	444.70
596.25	444.70
596.41	393.21
596.57	404.91
596.73	388.53
596.88	430.66
597.04	430.66
597.20	449.38
597.36	442.36
597.51	334.70
597.67	395.55
597.83	360.44
597.99	395.55
598.14	388.53
598.30	442.36
598.46	423.64
598.61	388.53
598.77	393.21
598.93	414.27
599.09	362.78
599.24	411.93
599.40	454.06
599.56	376.83
599.71	388.53
599.87	472.79
600.03	428.32
600.18	330.02
600.34	381.51
600.50	407.25
600.65	470.45
600.81	423.64
600.97	320.65
601.12	430.66
601.28	428.32
601.44	472.79
601.59	358.10
601.75	465.77
601.91	512.58
602.06	346.40
602.22	393.21
602.37	449.38
602.53	374.49
602.69	442.36
602.84	379.17
603.00	418.96
603.16	428.32
603.31	421.30
603.47	442.36
603.62	397.89
603.78	397.89
603.94	458.74
604.09	393.21
604.25	409.59
604.40	409.59
604.56	404.91
604.71	407.25
604.87	383.85
605.03	367.46
605.18	423.64
605.34	421.30
605.49	360.44
605.65	463.43
605.80	470.45
605.96	379.17
606.12	421.30
606.27	437.68
606.43	365.12
606.58	374.49
606.74	468.11
606.89	416.62
607.05	461.09
607.20	390.87
607.36	388.53
607.51	440.02
607.67	444.70
607.82	283.20
607.98	407.25
608.13	411.93
608.29	421.30
608.44	454.06
608.60	358.10
608.75	400.23
608.91	451.72
609.06	479.81
609.22	442.36
609.37	353.42
609.53	358.10
609.68	416.62
609.84	437.68
609.99	449.38
610.15	491.51
