SpectraSuite Data File
++++++++++++++++++++++++++++++++++++
Date: Fri Oct 25 12:10:34 EDT 2013
User: price-jones
Dark Spectrum Present: No
Reference Spectrum Present: No
Number of Sampled Component Spectra: 1
Spectrometers: USB2+H05261
Integration Time (usec): 100000 (USB2+H05261)
Spectra Averaged: 1 (USB2+H05261)
Boxcar Smoothing: 0 (USB2+H05261)
Correct for Electrical Dark: No (USB2+H05261)
Strobe/Lamp Enabled: No (USB2+H05261)
Correct for Detector Non-linearity: No (USB2+H05261)
Correct for Stray Light: No (USB2+H05261)
Number of Pixels in Processed Spectrum: 2048
>>>>>Begin Processed Spectral Data<<<<<
365.73	362.78
365.92	362.78
366.12	362.78
366.32	255.12
366.52	236.39
366.72	273.84
366.91	194.26
367.11	259.80
367.31	217.67
367.51	170.86
367.70	203.63
367.90	212.99
368.10	278.52
368.30	243.42
368.49	189.58
368.69	210.65
368.89	266.82
369.09	245.76
369.28	243.42
369.48	191.92
369.68	264.48
369.87	222.35
370.07	276.18
370.27	360.44
370.47	285.55
370.66	311.29
370.86	381.51
371.06	402.57
371.25	358.10
371.45	348.74
371.65	393.21
371.84	440.02
372.04	395.55
372.24	367.46
372.44	330.02
372.63	393.21
372.83	383.85
373.03	395.55
373.22	395.55
373.42	425.98
373.62	425.98
373.81	451.72
374.01	332.36
374.21	486.83
374.40	374.49
374.60	451.72
374.79	421.30
374.99	407.25
375.19	388.53
375.38	440.02
375.58	379.17
375.78	444.70
375.97	451.72
376.17	456.40
376.37	442.36
376.56	491.51
376.76	470.45
376.95	383.85
377.15	414.27
377.35	461.09
377.54	447.04
377.74	442.36
377.93	386.19
378.13	365.12
378.33	421.30
378.52	407.25
378.72	470.45
378.91	360.44
379.11	433.00
379.31	369.80
379.50	383.85
379.70	400.23
379.89	400.23
380.09	341.72
380.28	407.25
380.48	320.65
380.68	372.15
380.87	351.08
381.07	362.78
381.26	433.00
381.46	360.44
381.65	468.11
381.85	341.72
382.04	372.15
382.24	362.78
382.43	365.12
382.63	386.19
382.83	397.89
383.02	397.89
383.22	411.93
383.41	348.74
383.61	407.25
383.80	425.98
384.00	425.98
384.19	435.34
384.39	449.38
384.58	372.15
384.78	442.36
384.97	447.04
385.17	374.49
385.36	362.78
385.56	379.17
385.75	437.68
385.95	367.46
386.14	395.55
386.34	402.57
386.53	428.32
386.72	383.85
386.92	369.80
387.11	414.27
387.31	400.23
387.50	383.85
387.70	423.64
387.89	414.27
388.09	428.32
388.28	383.85
388.48	386.19
388.67	411.93
388.86	449.38
389.06	388.53
389.25	428.32
389.45	463.43
389.64	400.23
389.84	444.70
390.03	386.19
390.22	390.87
390.42	337.04
390.61	372.15
390.81	362.78
391.00	418.96
391.19	388.53
391.39	435.34
391.58	428.32
391.78	388.53
391.97	425.98
392.16	369.80
392.36	470.45
392.55	444.70
392.75	451.72
392.94	362.78
393.13	416.62
393.33	376.83
393.52	353.42
393.71	418.96
393.91	449.38
394.10	369.80
394.29	344.06
394.49	395.55
394.68	418.96
394.88	496.19
395.07	442.36
395.26	444.70
395.46	428.32
395.65	454.06
395.84	372.15
396.04	423.64
396.23	341.72
396.42	433.00
396.62	472.79
396.81	381.51
397.00	348.74
397.19	437.68
397.39	444.70
397.58	409.59
397.77	376.83
397.97	402.57
398.16	456.40
398.35	390.87
398.55	458.74
398.74	411.93
398.93	428.32
399.12	308.95
399.32	381.51
399.51	397.89
399.70	433.00
399.90	411.93
400.09	430.66
400.28	437.68
400.47	346.40
400.67	454.06
400.86	362.78
401.05	330.02
401.24	458.74
401.44	362.78
401.63	367.46
401.82	414.27
402.01	430.66
402.21	435.34
402.40	411.93
402.59	362.78
402.78	386.19
402.97	379.17
403.17	372.15
403.36	416.62
403.55	383.85
403.74	475.13
403.93	348.74
404.13	468.11
404.32	433.00
404.51	414.27
404.70	400.23
404.89	402.57
405.09	447.04
405.28	451.72
405.47	393.21
405.66	456.40
405.85	327.68
406.05	407.25
406.24	418.96
406.43	423.64
406.62	397.89
406.81	404.91
407.00	470.45
407.20	449.38
407.39	402.57
407.58	463.43
407.77	430.66
407.96	388.53
408.15	393.21
408.34	360.44
408.54	407.25
408.73	423.64
408.92	346.40
409.11	367.46
409.30	376.83
409.49	372.15
409.68	381.51
409.87	358.10
410.07	360.44
410.26	348.74
410.45	383.85
410.64	421.30
410.83	451.72
411.02	402.57
411.21	402.57
411.40	402.57
411.59	414.27
411.78	463.43
411.98	425.98
412.17	440.02
412.36	400.23
412.55	430.66
412.74	414.27
412.93	418.96
413.12	433.00
413.31	423.64
413.50	414.27
413.69	379.17
413.88	444.70
414.07	376.83
414.26	423.64
414.45	414.27
414.64	456.40
414.83	369.80
415.02	397.89
415.22	470.45
415.41	404.91
415.60	414.27
415.79	386.19
415.98	468.11
416.17	395.55
416.36	447.04
416.55	444.70
416.74	372.15
416.93	444.70
417.12	461.09
417.31	397.89
417.50	388.53
417.69	409.59
417.88	463.43
418.07	376.83
418.26	388.53
418.45	433.00
418.64	454.06
418.83	393.21
419.02	521.94
419.21	440.02
419.39	360.44
419.58	435.34
419.77	374.49
419.96	353.42
420.15	374.49
420.34	304.27
420.53	423.64
420.72	475.13
420.91	369.80
421.10	437.68
421.29	362.78
421.48	475.13
421.67	379.17
421.86	383.85
422.05	353.42
422.24	351.08
422.43	390.87
422.61	372.15
422.80	416.62
422.99	442.36
423.18	411.93
423.37	449.38
423.56	355.76
423.75	416.62
423.94	414.27
424.13	376.83
424.32	421.30
424.50	372.15
424.69	458.74
424.88	477.47
425.07	435.34
425.26	430.66
425.45	369.80
425.64	395.55
425.83	475.13
426.01	444.70
426.20	510.24
426.39	404.91
426.58	393.21
426.77	423.64
426.96	360.44
427.15	404.91
427.33	430.66
427.52	456.40
427.71	414.27
427.90	372.15
428.09	411.93
428.28	365.12
428.46	458.74
428.65	411.93
428.84	402.57
429.03	418.96
429.22	418.96
429.40	475.13
429.59	421.30
429.78	423.64
429.97	447.04
430.16	372.15
430.34	421.30
430.53	430.66
430.72	442.36
430.91	379.17
431.10	437.68
431.28	322.99
431.47	358.10
431.66	374.49
431.85	395.55
432.03	404.91
432.22	442.36
432.41	428.32
432.60	449.38
432.79	351.08
432.97	322.99
433.16	425.98
433.35	358.10
433.54	421.30
433.72	479.81
433.91	379.17
434.10	411.93
434.28	390.87
434.47	454.06
434.66	444.70
434.85	409.59
435.03	430.66
435.22	388.53
435.41	458.74
435.59	390.87
435.78	437.68
435.97	393.21
436.16	388.53
436.34	421.30
436.53	482.15
436.72	489.17
436.90	423.64
437.09	411.93
437.28	416.62
437.46	482.15
437.65	440.02
437.84	416.62
438.02	395.55
438.21	423.64
438.40	437.68
438.58	402.57
438.77	458.74
438.96	428.32
439.14	423.64
439.33	444.70
439.52	374.49
439.70	447.04
439.89	411.93
440.08	430.66
440.26	369.80
440.45	393.21
440.63	435.34
440.82	376.83
441.01	402.57
441.19	437.68
441.38	461.09
441.57	346.40
441.75	383.85
441.94	433.00
442.12	390.87
442.31	414.27
442.50	386.19
442.68	423.64
442.87	402.57
443.05	423.64
443.24	461.09
443.43	409.59
443.61	400.23
443.80	374.49
443.98	444.70
444.17	404.91
444.35	428.32
444.54	442.36
444.73	468.11
444.91	376.83
445.10	418.96
445.28	449.38
445.47	376.83
445.65	442.36
445.84	400.23
446.02	400.23
446.21	411.93
446.39	421.30
446.58	421.30
446.77	383.85
446.95	346.40
447.14	348.74
447.32	411.93
447.51	395.55
447.69	379.17
447.88	425.98
448.06	461.09
448.25	498.53
448.43	383.85
448.62	421.30
448.80	498.53
448.99	409.59
449.17	423.64
449.36	365.12
449.54	376.83
449.73	423.64
449.91	491.51
450.10	477.47
450.28	524.28
450.46	414.27
450.65	491.51
450.83	468.11
451.02	402.57
451.20	444.70
451.39	334.70
451.57	355.76
451.76	461.09
451.94	440.02
452.13	386.19
452.31	454.06
452.49	442.36
452.68	395.55
452.86	496.19
453.05	444.70
453.23	402.57
453.42	411.93
453.60	430.66
453.78	402.57
453.97	407.25
454.15	451.72
454.34	428.32
454.52	442.36
454.70	433.00
454.89	470.45
455.07	358.10
455.26	407.25
455.44	437.68
455.62	461.09
455.81	425.98
455.99	440.02
456.17	383.85
456.36	454.06
456.54	421.30
456.73	435.34
456.91	322.99
457.09	404.91
457.28	400.23
457.46	409.59
457.64	496.19
457.83	318.31
458.01	369.80
458.19	437.68
458.38	383.85
458.56	393.21
458.74	374.49
458.93	461.09
459.11	402.57
459.29	360.44
459.48	369.80
459.66	418.96
459.84	430.66
460.03	575.77
460.21	498.53
460.39	449.38
460.57	430.66
460.76	496.19
460.94	416.62
461.12	400.23
461.31	423.64
461.49	409.59
461.67	409.59
461.85	440.02
462.04	435.34
462.22	779.40
462.40	397.89
462.59	365.12
462.77	395.55
462.95	440.02
463.13	365.12
463.32	416.62
463.50	393.21
463.68	367.46
463.86	498.53
464.05	367.46
464.23	421.30
464.41	472.79
464.59	447.04
464.78	388.53
464.96	386.19
465.14	486.83
465.32	416.62
465.50	435.34
465.69	390.87
465.87	404.91
466.05	374.49
466.23	330.02
466.41	376.83
466.60	397.89
466.78	365.12
466.96	404.91
467.14	428.32
467.32	407.25
467.51	341.72
467.69	423.64
467.87	451.72
468.05	393.21
468.23	482.15
468.41	461.09
468.60	397.89
468.78	407.25
468.96	428.32
469.14	334.70
469.32	395.55
469.50	322.99
469.69	365.12
469.87	430.66
470.05	353.42
470.23	451.72
470.41	390.87
470.59	409.59
470.77	458.74
470.95	407.25
471.14	425.98
471.32	395.55
471.50	444.70
471.68	454.06
471.86	435.34
472.04	311.29
472.22	449.38
472.40	404.91
472.58	395.55
472.77	437.68
472.95	402.57
473.13	472.79
473.31	482.15
473.49	318.31
473.67	379.17
473.85	440.02
474.03	393.21
474.21	358.10
474.39	433.00
474.57	456.40
474.75	421.30
474.93	437.68
475.12	482.15
475.30	374.49
475.48	400.23
475.66	447.04
475.84	395.55
476.02	362.78
476.20	435.34
476.38	465.77
476.56	479.81
476.74	337.04
476.92	416.62
477.10	383.85
477.28	442.36
477.46	440.02
477.64	404.91
477.82	416.62
478.00	447.04
478.18	524.28
478.36	388.53
478.54	428.32
478.72	383.85
478.90	435.34
479.08	425.98
479.26	367.46
479.44	330.02
479.62	393.21
479.80	383.85
479.98	351.08
480.16	397.89
480.34	440.02
480.52	421.30
480.70	411.93
480.88	374.49
481.06	318.31
481.24	390.87
481.41	414.27
481.59	407.25
481.77	390.87
481.95	397.89
482.13	437.68
482.31	472.79
482.49	435.34
482.67	418.96
482.85	425.98
483.03	416.62
483.21	402.57
483.39	388.53
483.57	411.93
483.74	465.77
483.92	367.46
484.10	404.91
484.28	428.32
484.46	465.77
484.64	400.23
484.82	344.06
485.00	428.32
485.18	477.47
485.35	458.74
485.53	386.19
485.71	416.62
485.89	353.42
486.07	440.02
486.25	425.98
486.43	404.91
486.61	388.53
486.78	449.38
486.96	308.95
487.14	418.96
487.32	362.78
487.50	414.27
487.68	442.36
487.85	421.30
488.03	367.46
488.21	482.15
488.39	381.51
488.57	458.74
488.75	440.02
488.92	489.17
489.10	444.70
489.28	444.70
489.46	407.25
489.64	400.23
489.81	383.85
489.99	411.93
490.17	383.85
490.35	433.00
490.53	383.85
490.70	435.34
490.88	463.43
491.06	388.53
491.24	379.17
491.41	421.30
491.59	376.83
491.77	411.93
491.95	402.57
492.13	428.32
492.30	393.21
492.48	402.57
492.66	351.08
492.84	346.40
493.01	379.17
493.19	372.15
493.37	512.58
493.54	430.66
493.72	379.17
493.90	397.89
494.08	407.25
494.25	416.62
494.43	397.89
494.61	404.91
494.79	376.83
494.96	304.27
495.14	400.23
495.32	395.55
495.49	411.93
495.67	430.66
495.85	383.85
496.02	418.96
496.20	348.74
496.38	440.02
496.55	421.30
496.73	402.57
496.91	423.64
497.09	409.59
497.26	411.93
497.44	402.57
497.62	433.00
497.79	440.02
497.97	334.70
498.14	454.06
498.32	428.32
498.50	498.53
498.67	407.25
498.85	423.64
499.03	461.09
499.20	320.65
499.38	332.36
499.56	411.93
499.73	395.55
499.91	395.55
500.08	428.32
500.26	411.93
500.44	395.55
500.61	393.21
500.79	386.19
500.97	351.08
501.14	395.55
501.32	393.21
501.49	423.64
501.67	390.87
501.84	395.55
502.02	435.34
502.20	386.19
502.37	351.08
502.55	341.72
502.72	433.00
502.90	388.53
503.07	425.98
503.25	351.08
503.43	379.17
503.60	397.89
503.78	437.68
503.95	463.43
504.13	435.34
504.30	533.64
504.48	320.65
504.65	404.91
504.83	465.77
505.01	465.77
505.18	346.40
505.36	381.51
505.53	411.93
505.71	379.17
505.88	423.64
506.06	407.25
506.23	332.36
506.41	411.93
506.58	442.36
506.76	381.51
506.93	442.36
507.11	409.59
507.28	360.44
507.46	430.66
507.63	372.15
507.81	334.70
507.98	337.04
508.16	404.91
508.33	470.45
508.50	400.23
508.68	411.93
508.85	425.98
509.03	411.93
509.20	451.72
509.38	416.62
509.55	463.43
509.73	390.87
509.90	482.15
510.08	402.57
510.25	468.11
510.42	374.49
510.60	423.64
510.77	386.19
510.95	433.00
511.12	458.74
511.30	409.59
511.47	395.55
511.64	433.00
511.82	433.00
511.99	402.57
512.17	430.66
512.34	397.89
512.51	376.83
512.69	435.34
512.86	423.64
513.04	383.85
513.21	393.21
513.38	402.57
513.56	381.51
513.73	386.19
513.90	386.19
514.08	374.49
514.25	407.25
514.43	397.89
514.60	397.89
514.77	416.62
514.95	465.77
515.12	355.76
515.29	355.76
515.47	444.70
515.64	437.68
515.81	407.25
515.99	421.30
516.16	482.15
516.33	407.25
516.51	505.56
516.68	435.34
516.85	435.34
517.03	379.17
517.20	489.17
517.37	376.83
517.54	423.64
517.72	407.25
517.89	383.85
518.06	440.02
518.24	472.79
518.41	493.85
518.58	428.32
518.75	351.08
518.93	411.93
519.10	390.87
519.27	470.45
519.45	381.51
519.62	475.13
519.79	411.93
519.96	386.19
520.14	353.42
520.31	491.51
520.48	423.64
520.65	372.15
520.83	400.23
521.00	362.78
521.17	437.68
521.34	463.43
521.52	397.89
521.69	390.87
521.86	416.62
522.03	421.30
522.20	423.64
522.38	454.06
522.55	386.19
522.72	397.89
522.89	524.28
523.07	458.74
523.24	355.76
523.41	411.93
523.58	514.92
523.75	386.19
523.92	369.80
524.10	374.49
524.27	409.59
524.44	416.62
524.61	425.98
524.78	360.44
524.96	414.27
525.13	388.53
525.30	510.24
525.47	435.34
525.64	376.83
525.81	430.66
525.98	461.09
526.16	318.31
526.33	372.15
526.50	411.93
526.67	386.19
526.84	346.40
527.01	360.44
527.18	433.00
527.36	351.08
527.53	362.78
527.70	421.30
527.87	414.27
528.04	454.06
528.21	421.30
528.38	416.62
528.55	430.66
528.72	444.70
528.89	491.51
529.07	409.59
529.24	388.53
529.41	470.45
529.58	503.22
529.75	416.62
529.92	444.70
530.09	456.40
530.26	418.96
530.43	484.49
530.60	447.04
530.77	454.06
530.94	458.74
531.11	428.32
531.28	433.00
531.46	332.36
531.63	360.44
531.80	449.38
531.97	437.68
532.14	444.70
532.31	484.49
532.48	454.06
532.65	402.57
532.82	425.98
532.99	458.74
533.16	411.93
533.33	411.93
533.50	365.12
533.67	379.17
533.84	447.04
534.01	395.55
534.18	437.68
534.35	351.08
534.52	362.78
534.69	379.17
534.86	442.36
535.03	449.38
535.20	472.79
535.37	425.98
535.54	390.87
535.71	367.46
535.88	440.02
536.05	376.83
536.22	381.51
536.38	346.40
536.55	397.89
536.72	447.04
536.89	358.10
537.06	440.02
537.23	409.59
537.40	381.51
537.57	425.98
537.74	447.04
537.91	433.00
538.08	402.57
538.25	369.80
538.42	414.27
538.59	397.89
538.75	407.25
538.92	341.72
539.09	444.70
539.26	407.25
539.43	463.43
539.60	386.19
539.77	299.59
539.94	395.55
540.11	425.98
540.28	491.51
540.44	444.70
540.61	421.30
540.78	369.80
540.95	376.83
541.12	449.38
541.29	447.04
541.46	461.09
541.62	414.27
541.79	425.98
541.96	397.89
542.13	456.40
542.30	390.87
542.47	393.21
542.63	339.38
542.80	400.23
542.97	428.32
543.14	353.42
543.31	423.64
543.48	489.17
543.64	402.57
543.81	337.04
543.98	433.00
544.15	372.15
544.32	449.38
544.48	393.21
544.65	442.36
544.82	353.42
544.99	416.62
545.16	402.57
545.32	393.21
545.49	470.45
545.66	402.57
545.83	337.04
546.00	407.25
546.16	407.25
546.33	383.85
546.50	404.91
546.67	346.40
546.83	416.62
547.00	416.62
547.17	369.80
547.34	449.38
547.50	379.17
547.67	435.34
547.84	383.85
548.00	475.13
548.17	400.23
548.34	341.72
548.51	454.06
548.67	418.96
548.84	332.36
549.01	372.15
549.18	447.04
549.34	468.11
549.51	411.93
549.68	458.74
549.84	493.85
550.01	437.68
550.18	470.45
550.34	521.94
550.51	402.57
550.68	425.98
550.84	362.78
551.01	472.79
551.18	409.59
551.34	416.62
551.51	374.49
551.68	402.57
551.84	395.55
552.01	442.36
552.18	435.34
552.34	388.53
552.51	404.91
552.68	435.34
552.84	423.64
553.01	367.46
553.18	395.55
553.34	402.57
553.51	379.17
553.67	505.56
553.84	449.38
554.01	437.68
554.17	376.83
554.34	348.74
554.51	425.98
554.67	379.17
554.84	344.06
555.00	388.53
555.17	395.55
555.33	456.40
555.50	407.25
555.67	404.91
555.83	407.25
556.00	428.32
556.16	512.58
556.33	489.17
556.50	346.40
556.66	461.09
556.83	451.72
556.99	376.83
557.16	379.17
557.32	381.51
557.49	369.80
557.65	397.89
557.82	442.36
557.98	423.64
558.15	374.49
558.32	395.55
558.48	386.19
558.65	435.34
558.81	430.66
558.98	465.77
559.14	456.40
559.31	433.00
559.47	458.74
559.64	393.21
559.80	433.00
559.97	409.59
560.13	397.89
560.30	360.44
560.46	484.49
560.63	421.30
560.79	414.27
560.96	507.90
561.12	451.72
561.29	489.17
561.45	411.93
561.61	372.15
561.78	407.25
561.94	489.17
562.11	386.19
562.27	395.55
562.44	360.44
562.60	411.93
562.77	409.59
562.93	475.13
563.10	402.57
563.26	390.87
563.42	482.15
563.59	470.45
563.75	414.27
563.92	444.70
564.08	428.32
564.24	433.00
564.41	475.13
564.57	353.42
564.74	437.68
564.90	447.04
565.07	482.15
565.23	461.09
565.39	472.79
565.56	414.27
565.72	379.17
565.88	411.93
566.05	372.15
566.21	379.17
566.38	318.31
566.54	390.87
566.70	437.68
566.87	484.49
567.03	386.19
567.19	447.04
567.36	372.15
567.52	475.13
567.68	428.32
567.85	353.42
568.01	425.98
568.17	344.06
568.34	376.83
568.50	496.19
568.66	376.83
568.83	458.74
568.99	416.62
569.15	346.40
569.32	411.93
569.48	404.91
569.64	418.96
569.81	393.21
569.97	433.00
570.13	423.64
570.30	411.93
570.46	433.00
570.62	475.13
570.78	454.06
570.95	351.08
571.11	437.68
571.27	425.98
571.43	407.25
571.60	416.62
571.76	320.65
571.92	379.17
572.09	440.02
572.25	358.10
572.41	418.96
572.57	367.46
572.74	409.59
572.90	411.93
573.06	390.87
573.22	463.43
573.38	484.49
573.55	484.49
573.71	479.81
573.87	397.89
574.03	400.23
574.20	355.76
574.36	383.85
574.52	365.12
574.68	402.57
574.84	435.34
575.01	372.15
575.17	411.93
575.33	344.06
575.49	395.55
575.65	423.64
575.82	409.59
575.98	433.00
576.14	433.00
576.30	409.59
576.46	341.72
576.62	393.21
576.79	468.11
576.95	475.13
577.11	507.90
577.27	325.33
577.43	435.34
577.59	402.57
577.75	414.27
577.92	397.89
578.08	400.23
578.24	470.45
578.40	543.00
578.56	447.04
578.72	423.64
578.88	435.34
579.04	322.99
579.21	404.91
579.37	395.55
579.53	383.85
579.69	430.66
579.85	430.66
580.01	351.08
580.17	477.47
580.33	374.49
580.49	390.87
580.65	423.64
580.82	381.51
580.98	461.09
581.14	526.62
581.30	423.64
581.46	383.85
581.62	421.30
581.78	367.46
581.94	400.23
582.10	418.96
582.26	376.83
582.42	416.62
582.58	416.62
582.74	411.93
582.90	369.80
583.06	442.36
583.22	386.19
583.38	461.09
583.54	395.55
583.70	395.55
583.86	416.62
584.02	379.17
584.18	421.30
584.34	390.87
584.50	451.72
584.66	404.91
584.82	311.29
584.98	383.85
585.14	390.87
585.30	447.04
585.46	414.27
585.62	379.17
585.78	372.15
585.94	409.59
586.10	423.64
586.26	407.25
586.42	470.45
586.58	416.62
586.74	428.32
586.90	440.02
587.06	416.62
587.22	435.34
587.38	400.23
587.54	421.30
587.70	386.19
587.86	376.83
588.02	472.79
588.18	334.70
588.34	348.74
588.49	372.15
588.65	477.47
588.81	421.30
588.97	444.70
589.13	433.00
589.29	444.70
589.45	458.74
589.61	421.30
589.77	456.40
589.93	388.53
590.08	449.38
590.24	425.98
590.40	362.78
590.56	404.91
590.72	393.21
590.88	395.55
591.04	414.27
591.20	388.53
591.35	526.62
591.51	341.72
591.67	442.36
591.83	440.02
591.99	425.98
592.15	409.59
592.31	428.32
592.46	454.06
592.62	430.66
592.78	428.32
592.94	362.78
593.10	437.68
593.26	444.70
593.41	444.70
593.57	475.13
593.73	400.23
593.89	423.64
594.05	330.02
594.20	365.12
594.36	418.96
594.52	461.09
594.68	435.34
594.84	421.30
594.99	461.09
595.15	374.49
595.31	479.81
595.47	397.89
595.62	402.57
595.78	393.21
595.94	472.79
596.10	451.72
596.25	418.96
596.41	456.40
596.57	423.64
596.73	468.11
596.88	510.24
597.04	470.45
597.20	383.85
597.36	386.19
597.51	407.25
597.67	421.30
597.83	381.51
597.99	472.79
598.14	430.66
598.30	461.09
598.46	435.34
598.61	425.98
598.77	430.66
598.93	458.74
599.09	411.93
599.24	526.62
599.40	482.15
599.56	442.36
599.71	435.34
599.87	489.17
600.03	390.87
600.18	390.87
600.34	388.53
600.50	447.04
600.65	477.47
600.81	463.43
600.97	423.64
601.12	379.17
601.28	449.38
601.44	437.68
601.59	390.87
601.75	416.62
601.91	400.23
602.06	475.13
602.22	456.40
602.37	440.02
602.53	376.83
602.69	367.46
602.84	390.87
603.00	425.98
603.16	390.87
603.31	468.11
603.47	381.51
603.62	402.57
603.78	409.59
603.94	395.55
604.09	423.64
604.25	383.85
604.40	407.25
604.56	414.27
604.71	376.83
604.87	395.55
605.03	442.36
605.18	449.38
605.34	456.40
605.49	425.98
605.65	435.34
605.80	454.06
605.96	430.66
606.12	397.89
606.27	477.47
606.43	461.09
606.58	449.38
606.74	458.74
606.89	393.21
607.05	369.80
607.20	421.30
607.36	449.38
607.51	358.10
607.67	374.49
607.82	433.00
607.98	411.93
608.13	465.77
608.29	381.51
608.44	411.93
608.60	468.11
608.75	454.06
608.91	454.06
609.06	477.47
609.22	507.90
609.37	376.83
609.53	451.72
609.68	414.27
609.84	470.45
609.99	386.19
610.15	468.11
