SpectraSuite Data File
++++++++++++++++++++++++++++++++++++
Date: Fri Oct 25 12:10:40 EDT 2013
User: price-jones
Dark Spectrum Present: No
Reference Spectrum Present: No
Number of Sampled Component Spectra: 1
Spectrometers: USB2+H05261
Integration Time (usec): 100000 (USB2+H05261)
Spectra Averaged: 1 (USB2+H05261)
Boxcar Smoothing: 0 (USB2+H05261)
Correct for Electrical Dark: No (USB2+H05261)
Strobe/Lamp Enabled: No (USB2+H05261)
Correct for Detector Non-linearity: No (USB2+H05261)
Correct for Stray Light: No (USB2+H05261)
Number of Pixels in Processed Spectrum: 2048
>>>>>Begin Processed Spectral Data<<<<<
365.73	409.59
365.92	409.59
366.12	409.59
366.32	269.16
366.52	313.63
366.72	308.95
366.91	161.50
367.11	215.33
367.31	264.48
367.51	208.31
367.70	231.71
367.90	259.80
368.10	212.99
368.30	287.89
368.49	299.59
368.69	194.26
368.89	285.55
369.09	205.97
369.28	245.76
369.48	250.44
369.68	290.23
369.87	273.84
370.07	283.20
370.27	294.91
370.47	351.08
370.66	351.08
370.86	358.10
371.06	318.31
371.25	416.62
371.45	409.59
371.65	428.32
371.84	337.04
372.04	376.83
372.24	358.10
372.44	472.79
372.63	367.46
372.83	444.70
373.03	421.30
373.22	435.34
373.42	428.32
373.62	404.91
373.81	425.98
374.01	386.19
374.21	491.51
374.40	475.13
374.60	404.91
374.79	435.34
374.99	484.49
375.19	393.21
375.38	435.34
375.58	376.83
375.78	449.38
375.97	454.06
376.17	454.06
376.37	311.29
376.56	447.04
376.76	430.66
376.95	372.15
377.15	393.21
377.35	397.89
377.54	402.57
377.74	416.62
377.93	367.46
378.13	386.19
378.33	404.91
378.52	409.59
378.72	407.25
378.91	369.80
379.11	367.46
379.31	362.78
379.50	379.17
379.70	435.34
379.89	404.91
380.09	358.10
380.28	390.87
380.48	381.51
380.68	416.62
380.87	360.44
381.07	327.68
381.26	355.76
381.46	425.98
381.65	404.91
381.85	383.85
382.04	374.49
382.24	444.70
382.43	402.57
382.63	304.27
382.83	395.55
383.02	362.78
383.22	388.53
383.41	374.49
383.61	360.44
383.80	444.70
384.00	430.66
384.19	458.74
384.39	355.76
384.58	360.44
384.78	428.32
384.97	414.27
385.17	442.36
385.36	472.79
385.56	395.55
385.75	414.27
385.95	388.53
386.14	430.66
386.34	367.46
386.53	383.85
386.72	428.32
386.92	400.23
387.11	362.78
387.31	388.53
387.50	414.27
387.70	355.76
387.89	379.17
388.09	372.15
388.28	388.53
388.48	358.10
388.67	428.32
388.86	393.21
389.06	353.42
389.25	374.49
389.45	376.83
389.64	325.33
389.84	379.17
390.03	400.23
390.22	397.89
390.42	339.38
390.61	390.87
390.81	409.59
391.00	308.95
391.19	376.83
391.39	454.06
391.58	400.23
391.78	332.36
391.97	414.27
392.16	351.08
392.36	524.28
392.55	407.25
392.75	341.72
392.94	428.32
393.13	430.66
393.33	400.23
393.52	348.74
393.71	411.93
393.91	486.83
394.10	416.62
394.29	414.27
394.49	418.96
394.68	355.76
394.88	334.70
395.07	468.11
395.26	402.57
395.46	376.83
395.65	376.83
395.84	369.80
396.04	414.27
396.23	365.12
396.42	374.49
396.62	372.15
396.81	404.91
397.00	468.11
397.19	444.70
397.39	390.87
397.58	451.72
397.77	374.49
397.97	402.57
398.16	322.99
398.35	390.87
398.55	425.98
398.74	369.80
398.93	395.55
399.12	442.36
399.32	344.06
399.51	379.17
399.70	437.68
399.90	407.25
400.09	360.44
400.28	386.19
400.47	458.74
400.67	369.80
400.86	369.80
401.05	355.76
401.24	428.32
401.44	367.46
401.63	433.00
401.82	355.76
402.01	334.70
402.21	454.06
402.40	400.23
402.59	411.93
402.78	421.30
402.97	489.17
403.17	425.98
403.36	430.66
403.55	402.57
403.74	411.93
403.93	423.64
404.13	393.21
404.32	315.97
404.51	372.15
404.70	475.13
404.89	351.08
405.09	430.66
405.28	360.44
405.47	372.15
405.66	451.72
405.85	390.87
406.05	386.19
406.24	402.57
406.43	451.72
406.62	414.27
406.81	411.93
407.00	440.02
407.20	402.57
407.39	421.30
407.58	407.25
407.77	367.46
407.96	470.45
408.15	458.74
408.34	430.66
408.54	365.12
408.73	414.27
408.92	411.93
409.11	388.53
409.30	433.00
409.49	437.68
409.68	374.49
409.87	374.49
410.07	442.36
410.26	475.13
410.45	411.93
410.64	393.21
410.83	369.80
411.02	355.76
411.21	409.59
411.40	447.04
411.59	433.00
411.78	428.32
411.98	437.68
412.17	397.89
412.36	379.17
412.55	386.19
412.74	390.87
412.93	470.45
413.12	383.85
413.31	402.57
413.50	496.19
413.69	407.25
413.88	458.74
414.07	430.66
414.26	430.66
414.45	437.68
414.64	346.40
414.83	449.38
415.02	393.21
415.22	449.38
415.41	409.59
415.60	402.57
415.79	346.40
415.98	376.83
416.17	386.19
416.36	418.96
416.55	372.15
416.74	390.87
416.93	425.98
417.12	468.11
417.31	383.85
417.50	433.00
417.69	383.85
417.88	440.02
418.07	407.25
418.26	334.70
418.45	409.59
418.64	444.70
418.83	402.57
419.02	390.87
419.21	386.19
419.39	414.27
419.58	404.91
419.77	313.63
419.96	409.59
420.15	440.02
420.34	381.51
420.53	449.38
420.72	479.81
420.91	418.96
421.10	454.06
421.29	402.57
421.48	407.25
421.67	409.59
421.86	440.02
422.05	442.36
422.24	376.83
422.43	409.59
422.61	344.06
422.80	423.64
422.99	444.70
423.18	376.83
423.37	503.22
423.56	374.49
423.75	421.30
423.94	421.30
424.13	374.49
424.32	294.91
424.50	430.66
424.69	402.57
424.88	409.59
425.07	397.89
425.26	437.68
425.45	411.93
425.64	421.30
425.83	435.34
426.01	451.72
426.20	400.23
426.39	386.19
426.58	458.74
426.77	465.77
426.96	404.91
427.15	454.06
427.33	491.51
427.52	372.15
427.71	435.34
427.90	414.27
428.09	451.72
428.28	472.79
428.46	440.02
428.65	353.42
428.84	454.06
429.03	465.77
429.22	435.34
429.40	465.77
429.59	339.38
429.78	444.70
429.97	437.68
430.16	411.93
430.34	411.93
430.53	390.87
430.72	341.72
430.91	416.62
431.10	447.04
431.28	360.44
431.47	381.51
431.66	468.11
431.85	379.17
432.03	376.83
432.22	461.09
432.41	344.06
432.60	533.64
432.79	407.25
432.97	334.70
433.16	435.34
433.35	334.70
433.54	433.00
433.72	390.87
433.91	514.92
434.10	425.98
434.28	433.00
434.47	388.53
434.66	447.04
434.85	346.40
435.03	414.27
435.22	414.27
435.41	444.70
435.59	468.11
435.78	360.44
435.97	404.91
436.16	454.06
436.34	421.30
436.53	430.66
436.72	444.70
436.90	400.23
437.09	428.32
437.28	365.12
437.46	379.17
437.65	428.32
437.84	425.98
438.02	388.53
438.21	409.59
438.40	346.40
438.58	428.32
438.77	421.30
438.96	437.68
439.14	475.13
439.33	395.55
439.52	383.85
439.70	414.27
439.89	418.96
440.08	411.93
440.26	418.96
440.45	447.04
440.63	393.21
440.82	449.38
441.01	397.89
441.19	409.59
441.38	297.25
441.57	442.36
441.75	435.34
441.94	397.89
442.12	428.32
442.31	351.08
442.50	465.77
442.68	374.49
442.87	383.85
443.05	421.30
443.24	442.36
443.43	402.57
443.61	367.46
443.80	421.30
443.98	468.11
444.17	386.19
444.35	346.40
444.54	374.49
444.73	433.00
444.91	461.09
445.10	341.72
445.28	421.30
445.47	372.15
445.65	402.57
445.84	449.38
446.02	425.98
446.21	397.89
446.39	360.44
446.58	428.32
446.77	348.74
446.95	383.85
447.14	344.06
447.32	402.57
447.51	409.59
447.69	358.10
447.88	423.64
448.06	407.25
448.25	440.02
448.43	444.70
448.62	344.06
448.80	358.10
448.99	383.85
449.17	388.53
449.36	435.34
449.54	468.11
449.73	339.38
449.91	390.87
450.10	330.02
450.28	458.74
450.46	414.27
450.65	430.66
450.83	362.78
451.02	526.62
451.20	533.64
451.39	395.55
451.57	397.89
451.76	433.00
451.94	344.06
452.13	411.93
452.31	397.89
452.49	465.77
452.68	372.15
452.86	414.27
453.05	416.62
453.23	330.02
453.42	423.64
453.60	369.80
453.78	397.89
453.97	355.76
454.15	365.12
454.34	404.91
454.52	414.27
454.70	463.43
454.89	449.38
455.07	433.00
455.26	423.64
455.44	395.55
455.62	379.17
455.81	355.76
455.99	416.62
456.17	449.38
456.36	491.51
456.54	395.55
456.73	411.93
456.91	430.66
457.09	409.59
457.28	423.64
457.46	421.30
457.64	393.21
457.83	433.00
458.01	360.44
458.19	386.19
458.38	388.53
458.56	395.55
458.74	390.87
458.93	447.04
459.11	402.57
459.29	374.49
459.48	430.66
459.66	395.55
459.84	418.96
460.03	545.34
460.21	444.70
460.39	437.68
460.57	430.66
460.76	482.15
460.94	344.06
461.12	390.87
461.31	461.09
461.49	388.53
461.67	397.89
461.85	376.83
462.04	397.89
462.22	758.33
462.40	451.72
462.59	404.91
462.77	463.43
462.95	414.27
463.13	397.89
463.32	449.38
463.50	435.34
463.68	437.68
463.86	372.15
464.05	379.17
464.23	437.68
464.41	416.62
464.59	341.72
464.78	435.34
464.96	355.76
465.14	376.83
465.32	435.34
465.50	444.70
465.69	414.27
465.87	379.17
466.05	425.98
466.23	421.30
466.41	339.38
466.60	355.76
466.78	458.74
466.96	395.55
467.14	440.02
467.32	400.23
467.51	395.55
467.69	433.00
467.87	423.64
468.05	402.57
468.23	461.09
468.41	362.78
468.60	402.57
468.78	425.98
468.96	433.00
469.14	416.62
469.32	372.15
469.50	400.23
469.69	442.36
469.87	430.66
470.05	365.12
470.23	486.83
470.41	463.43
470.59	390.87
470.77	404.91
470.95	344.06
471.14	390.87
471.32	430.66
471.50	369.80
471.68	430.66
471.86	379.17
472.04	404.91
472.22	484.49
472.40	409.59
472.58	358.10
472.77	367.46
472.95	409.59
473.13	451.72
473.31	456.40
473.49	421.30
473.67	421.30
473.85	538.32
474.03	407.25
474.21	341.72
474.39	351.08
474.57	463.43
474.75	440.02
474.93	367.46
475.12	423.64
475.30	475.13
475.48	451.72
475.66	355.76
475.84	442.36
476.02	395.55
476.20	351.08
476.38	374.49
476.56	479.81
476.74	421.30
476.92	397.89
477.10	388.53
477.28	395.55
477.46	411.93
477.64	395.55
477.82	346.40
478.00	433.00
478.18	458.74
478.36	456.40
478.54	397.89
478.72	486.83
478.90	444.70
479.08	447.04
479.26	388.53
479.44	454.06
479.62	414.27
479.80	477.47
479.98	395.55
480.16	416.62
480.34	311.29
480.52	374.49
480.70	465.77
480.88	423.64
481.06	449.38
481.24	418.96
481.41	348.74
481.59	430.66
481.77	465.77
481.95	454.06
482.13	393.21
482.31	425.98
482.49	313.63
482.67	402.57
482.85	437.68
483.03	379.17
483.21	435.34
483.39	414.27
483.57	369.80
483.74	433.00
483.92	472.79
484.10	416.62
484.28	379.17
484.46	486.83
484.64	393.21
484.82	374.49
485.00	414.27
485.18	402.57
485.35	442.36
485.53	468.11
485.71	381.51
485.89	358.10
486.07	376.83
486.25	475.13
486.43	449.38
486.61	472.79
486.78	416.62
486.96	407.25
487.14	440.02
487.32	433.00
487.50	381.51
487.68	409.59
487.85	404.91
488.03	435.34
488.21	367.46
488.39	421.30
488.57	404.91
488.75	365.12
488.92	407.25
489.10	456.40
489.28	428.32
489.46	470.45
489.64	404.91
489.81	397.89
489.99	402.57
490.17	390.87
490.35	440.02
490.53	393.21
490.70	444.70
490.88	430.66
491.06	400.23
491.24	442.36
491.41	489.17
491.59	440.02
491.77	381.51
491.95	418.96
492.13	318.31
492.30	437.68
492.48	400.23
492.66	393.21
492.84	437.68
493.01	468.11
493.19	421.30
493.37	521.94
493.54	491.51
493.72	425.98
493.90	388.53
494.08	388.53
494.25	428.32
494.43	334.70
494.61	416.62
494.79	442.36
494.96	351.08
495.14	456.40
495.32	437.68
495.49	465.77
495.67	440.02
495.85	365.12
496.02	381.51
496.20	402.57
496.38	358.10
496.55	423.64
496.73	437.68
496.91	458.74
497.09	423.64
497.26	451.72
497.44	390.87
497.62	437.68
497.79	437.68
497.97	425.98
498.14	433.00
498.32	447.04
498.50	390.87
498.67	388.53
498.85	339.38
499.03	393.21
499.20	430.66
499.38	482.15
499.56	503.22
499.73	428.32
499.91	421.30
500.08	425.98
500.26	360.44
500.44	360.44
500.61	496.19
500.79	409.59
500.97	376.83
501.14	442.36
501.32	388.53
501.49	472.79
501.67	442.36
501.84	409.59
502.02	409.59
502.20	372.15
502.37	440.02
502.55	411.93
502.72	416.62
502.90	395.55
503.07	400.23
503.25	447.04
503.43	379.17
503.60	468.11
503.78	461.09
503.95	379.17
504.13	447.04
504.30	348.74
504.48	400.23
504.65	397.89
504.83	395.55
505.01	353.42
505.18	435.34
505.36	423.64
505.53	367.46
505.71	402.57
505.88	404.91
506.06	416.62
506.23	374.49
506.41	400.23
506.58	407.25
506.76	407.25
506.93	381.51
507.11	388.53
507.28	383.85
507.46	402.57
507.63	372.15
507.81	327.68
507.98	433.00
508.16	430.66
508.33	411.93
508.50	397.89
508.68	374.49
508.85	372.15
509.03	449.38
509.20	311.29
509.38	425.98
509.55	465.77
509.73	402.57
509.90	444.70
510.08	463.43
510.25	404.91
510.42	440.02
510.60	407.25
510.77	463.43
510.95	411.93
511.12	421.30
511.30	472.79
511.47	351.08
511.64	500.87
511.82	428.32
511.99	367.46
512.17	393.21
512.34	423.64
512.51	435.34
512.69	369.80
512.86	491.51
513.04	367.46
513.21	451.72
513.38	397.89
513.56	463.43
513.73	388.53
513.90	421.30
514.08	395.55
514.25	407.25
514.43	369.80
514.60	372.15
514.77	355.76
514.95	418.96
515.12	447.04
515.29	442.36
515.47	433.00
515.64	461.09
515.81	355.76
515.99	461.09
516.16	444.70
516.33	458.74
516.51	428.32
516.68	341.72
516.85	390.87
517.03	447.04
517.20	404.91
517.37	383.85
517.54	475.13
517.72	433.00
517.89	322.99
518.06	470.45
518.24	388.53
518.41	489.17
518.58	440.02
518.75	348.74
518.93	437.68
519.10	449.38
519.27	407.25
519.45	440.02
519.62	355.76
519.79	465.77
519.96	414.27
520.14	409.59
520.31	491.51
520.48	381.51
520.65	449.38
520.83	423.64
521.00	339.38
521.17	454.06
521.34	376.83
521.52	456.40
521.69	423.64
521.86	447.04
522.03	465.77
522.20	454.06
522.38	372.15
522.55	440.02
522.72	451.72
522.89	411.93
523.07	433.00
523.24	447.04
523.41	428.32
523.58	358.10
523.75	430.66
523.92	428.32
524.10	496.19
524.27	372.15
524.44	449.38
524.61	451.72
524.78	395.55
524.96	463.43
525.13	486.83
525.30	493.85
525.47	407.25
525.64	430.66
525.81	472.79
525.98	486.83
526.16	428.32
526.33	435.34
526.50	428.32
526.67	393.21
526.84	414.27
527.01	372.15
527.18	395.55
527.36	404.91
527.53	365.12
527.70	425.98
527.87	393.21
528.04	425.98
528.21	355.76
528.38	425.98
528.55	440.02
528.72	468.11
528.89	437.68
529.07	407.25
529.24	423.64
529.41	477.47
529.58	423.64
529.75	414.27
529.92	355.76
530.09	402.57
530.26	379.17
530.43	379.17
530.60	414.27
530.77	430.66
530.94	477.47
531.11	407.25
531.28	404.91
531.46	468.11
531.63	440.02
531.80	477.47
531.97	451.72
532.14	332.36
532.31	456.40
532.48	472.79
532.65	435.34
532.82	423.64
532.99	400.23
533.16	475.13
533.33	493.85
533.50	447.04
533.67	351.08
533.84	475.13
534.01	428.32
534.18	463.43
534.35	397.89
534.52	456.40
534.69	433.00
534.86	402.57
535.03	451.72
535.20	376.83
535.37	477.47
535.54	440.02
535.71	435.34
535.88	491.51
536.05	421.30
536.22	409.59
536.38	397.89
536.55	451.72
536.72	470.45
536.89	409.59
537.06	414.27
537.23	407.25
537.40	456.40
537.57	383.85
537.74	418.96
537.91	400.23
538.08	423.64
538.25	437.68
538.42	341.72
538.59	435.34
538.75	444.70
538.92	447.04
539.09	491.51
539.26	449.38
539.43	437.68
539.60	358.10
539.77	395.55
539.94	435.34
540.11	411.93
540.28	468.11
540.44	369.80
540.61	472.79
540.78	421.30
540.95	374.49
541.12	458.74
541.29	470.45
541.46	465.77
541.62	456.40
541.79	404.91
541.96	367.46
542.13	421.30
542.30	402.57
542.47	449.38
542.63	421.30
542.80	428.32
542.97	414.27
543.14	447.04
543.31	383.85
543.48	402.57
543.64	435.34
543.81	491.51
543.98	423.64
544.15	367.46
544.32	411.93
544.48	451.72
544.65	451.72
544.82	472.79
544.99	423.64
545.16	454.06
545.32	428.32
545.49	395.55
545.66	334.70
545.83	451.72
546.00	390.87
546.16	430.66
546.33	437.68
546.50	379.17
546.67	472.79
546.83	477.47
547.00	395.55
547.17	470.45
547.34	411.93
547.50	489.17
547.67	393.21
547.84	433.00
548.00	430.66
548.17	395.55
548.34	447.04
548.51	442.36
548.67	407.25
548.84	458.74
549.01	416.62
549.18	374.49
549.34	451.72
549.51	383.85
549.68	374.49
549.84	465.77
550.01	440.02
550.18	493.85
550.34	472.79
550.51	409.59
550.68	435.34
550.84	379.17
551.01	435.34
551.18	393.21
551.34	397.89
551.51	404.91
551.68	407.25
551.84	407.25
552.01	484.49
552.18	451.72
552.34	442.36
552.51	489.17
552.68	407.25
552.84	400.23
553.01	409.59
553.18	379.17
553.34	344.06
553.51	362.78
553.67	435.34
553.84	418.96
554.01	430.66
554.17	414.27
554.34	407.25
554.51	374.49
554.67	470.45
554.84	489.17
555.00	437.68
555.17	416.62
555.33	376.83
555.50	461.09
555.67	411.93
555.83	386.19
556.00	402.57
556.16	634.29
556.33	463.43
556.50	397.89
556.66	418.96
556.83	477.47
556.99	386.19
557.16	440.02
557.32	430.66
557.49	428.32
557.65	416.62
557.82	395.55
557.98	381.51
558.15	369.80
558.32	367.46
558.48	402.57
558.65	390.87
558.81	404.91
558.98	440.02
559.14	428.32
559.31	416.62
559.47	395.55
559.64	390.87
559.80	423.64
559.97	404.91
560.13	442.36
560.30	404.91
560.46	414.27
560.63	381.51
560.79	444.70
560.96	447.04
561.12	379.17
561.29	416.62
561.45	388.53
561.61	475.13
561.78	470.45
561.94	444.70
562.11	407.25
562.27	486.83
562.44	428.32
562.60	423.64
562.77	388.53
562.93	470.45
563.10	418.96
563.26	407.25
563.42	402.57
563.59	400.23
563.75	376.83
563.92	440.02
564.08	486.83
564.24	514.92
564.41	416.62
564.57	451.72
564.74	447.04
564.90	435.34
565.07	447.04
565.23	433.00
565.39	376.83
565.56	409.59
565.72	414.27
565.88	423.64
566.05	433.00
566.21	421.30
566.38	388.53
566.54	425.98
566.70	425.98
566.87	400.23
567.03	330.02
567.19	437.68
567.36	454.06
567.52	458.74
567.68	397.89
567.85	428.32
568.01	477.47
568.17	444.70
568.34	407.25
568.50	360.44
568.66	430.66
568.83	557.05
568.99	433.00
569.15	423.64
569.32	437.68
569.48	418.96
569.64	416.62
569.81	400.23
569.97	416.62
570.13	486.83
570.30	365.12
570.46	374.49
570.62	414.27
570.78	388.53
570.95	402.57
571.11	388.53
571.27	475.13
571.43	433.00
571.60	376.83
571.76	477.47
571.92	397.89
572.09	407.25
572.25	400.23
572.41	440.02
572.57	383.85
572.74	409.59
572.90	463.43
573.06	376.83
573.22	463.43
573.38	397.89
573.55	411.93
573.71	437.68
573.87	404.91
574.03	400.23
574.20	435.34
574.36	414.27
574.52	388.53
574.68	454.06
574.84	430.66
575.01	402.57
575.17	404.91
575.33	416.62
575.49	472.79
575.65	409.59
575.82	402.57
575.98	421.30
576.14	402.57
576.30	381.51
576.46	437.68
576.62	440.02
576.79	393.21
576.95	381.51
577.11	367.46
577.27	372.15
577.43	489.17
577.59	472.79
577.75	418.96
577.92	400.23
578.08	372.15
578.24	442.36
578.40	433.00
578.56	454.06
578.72	435.34
578.88	484.49
579.04	397.89
579.21	482.15
579.37	496.19
579.53	409.59
579.69	465.77
579.85	402.57
580.01	421.30
580.17	489.17
580.33	346.40
580.49	498.53
580.65	418.96
580.82	409.59
580.98	381.51
581.14	397.89
581.30	451.72
581.46	388.53
581.62	390.87
581.78	451.72
581.94	411.93
582.10	407.25
582.26	482.15
582.42	472.79
582.58	411.93
582.74	365.12
582.90	411.93
583.06	433.00
583.22	388.53
583.38	379.17
583.54	433.00
583.70	411.93
583.86	416.62
584.02	435.34
584.18	456.40
584.34	355.76
584.50	400.23
584.66	388.53
584.82	409.59
584.98	346.40
585.14	397.89
585.30	493.85
585.46	418.96
585.62	386.19
585.78	390.87
585.94	437.68
586.10	428.32
586.26	388.53
586.42	557.05
586.58	435.34
586.74	416.62
586.90	388.53
587.06	362.78
587.22	411.93
587.38	477.47
587.54	383.85
587.70	475.13
587.86	346.40
588.02	437.68
588.18	470.45
588.34	388.53
588.49	409.59
588.65	409.59
588.81	386.19
588.97	433.00
589.13	404.91
589.29	479.81
589.45	404.91
589.61	397.89
589.77	468.11
589.93	435.34
590.08	397.89
590.24	381.51
590.40	430.66
590.56	435.34
590.72	442.36
590.88	440.02
591.04	409.59
591.20	369.80
591.35	400.23
591.51	383.85
591.67	435.34
591.83	409.59
591.99	435.34
592.15	430.66
592.31	437.68
592.46	482.15
592.62	409.59
592.78	374.49
592.94	397.89
593.10	315.97
593.26	397.89
593.41	381.51
593.57	383.85
593.73	428.32
593.89	414.27
594.05	402.57
594.20	425.98
594.36	409.59
594.52	365.12
594.68	365.12
594.84	393.21
594.99	479.81
595.15	458.74
595.31	404.91
595.47	409.59
595.62	360.44
595.78	381.51
595.94	409.59
596.10	435.34
596.25	440.02
596.41	390.87
596.57	404.91
596.73	404.91
596.88	444.70
597.04	468.11
597.20	381.51
597.36	402.57
597.51	381.51
597.67	418.96
597.83	437.68
597.99	416.62
598.14	423.64
598.30	486.83
598.46	360.44
598.61	454.06
598.77	372.15
598.93	449.38
599.09	433.00
599.24	388.53
599.40	430.66
599.56	372.15
599.71	423.64
599.87	358.10
600.03	416.62
600.18	465.77
600.34	414.27
600.50	442.36
600.65	421.30
600.81	451.72
600.97	435.34
601.12	353.42
601.28	514.92
601.44	447.04
601.59	435.34
601.75	433.00
601.91	423.64
602.06	414.27
602.22	388.53
602.37	456.40
602.53	519.60
602.69	365.12
602.84	393.21
603.00	440.02
603.16	433.00
603.31	393.21
603.47	444.70
603.62	376.83
603.78	421.30
603.94	447.04
604.09	402.57
604.25	465.77
604.40	351.08
604.56	465.77
604.71	447.04
604.87	393.21
605.03	486.83
605.18	430.66
605.34	440.02
605.49	341.72
605.65	390.87
605.80	444.70
605.96	367.46
606.12	442.36
606.27	360.44
606.43	407.25
606.58	425.98
606.74	381.51
606.89	435.34
607.05	458.74
607.20	433.00
607.36	461.09
607.51	463.43
607.67	435.34
607.82	435.34
607.98	418.96
608.13	400.23
608.29	388.53
608.44	458.74
608.60	372.15
608.75	482.15
608.91	496.19
609.06	437.68
609.22	442.36
609.37	414.27
609.53	397.89
609.68	411.93
609.84	322.99
609.99	447.04
610.15	479.81
