SpectraSuite Data File
++++++++++++++++++++++++++++++++++++
Date: Fri Oct 25 12:11:08 EDT 2013
User: price-jones
Dark Spectrum Present: No
Reference Spectrum Present: No
Number of Sampled Component Spectra: 1
Spectrometers: USB2+H05261
Integration Time (usec): 100000 (USB2+H05261)
Spectra Averaged: 1 (USB2+H05261)
Boxcar Smoothing: 0 (USB2+H05261)
Correct for Electrical Dark: No (USB2+H05261)
Strobe/Lamp Enabled: No (USB2+H05261)
Correct for Detector Non-linearity: No (USB2+H05261)
Correct for Stray Light: No (USB2+H05261)
Number of Pixels in Processed Spectrum: 2048
>>>>>Begin Processed Spectral Data<<<<<
365.73	388.53
365.92	388.53
366.12	388.53
366.32	220.01
366.52	273.84
366.72	299.59
366.91	198.95
367.11	196.60
367.31	191.92
367.51	248.10
367.70	262.14
367.90	325.33
368.10	184.90
368.30	222.35
368.49	297.25
368.69	280.86
368.89	252.78
369.09	229.37
369.28	241.08
369.48	278.52
369.68	327.68
369.87	297.25
370.07	280.86
370.27	297.25
370.47	355.76
370.66	313.63
370.86	348.74
371.06	341.72
371.25	374.49
371.45	402.57
371.65	423.64
371.84	409.59
372.04	397.89
372.24	397.89
372.44	411.93
372.63	477.47
372.83	437.68
373.03	388.53
373.22	411.93
373.42	395.55
373.62	482.15
373.81	416.62
374.01	430.66
374.21	463.43
374.40	510.24
374.60	386.19
374.79	461.09
374.99	442.36
375.19	449.38
375.38	444.70
375.58	468.11
375.78	449.38
375.97	390.87
376.17	397.89
376.37	465.77
376.56	421.30
376.76	395.55
376.95	388.53
377.15	379.17
377.35	456.40
377.54	435.34
377.74	472.79
377.93	454.06
378.13	402.57
378.33	337.04
378.52	365.12
378.72	423.64
378.91	423.64
379.11	353.42
379.31	397.89
379.50	402.57
379.70	423.64
379.89	428.32
380.09	407.25
380.28	388.53
380.48	407.25
380.68	381.51
380.87	397.89
381.07	409.59
381.26	458.74
381.46	411.93
381.65	414.27
381.85	402.57
382.04	379.17
382.24	437.68
382.43	430.66
382.63	367.46
382.83	425.98
383.02	306.61
383.22	397.89
383.41	367.46
383.61	454.06
383.80	442.36
384.00	390.87
384.19	367.46
384.39	376.83
384.58	386.19
384.78	372.15
384.97	407.25
385.17	369.80
385.36	423.64
385.56	355.76
385.75	360.44
385.95	395.55
386.14	444.70
386.34	381.51
386.53	428.32
386.72	465.77
386.92	418.96
387.11	386.19
387.31	379.17
387.50	351.08
387.70	430.66
387.89	437.68
388.09	421.30
388.28	395.55
388.48	390.87
388.67	435.34
388.86	414.27
389.06	402.57
389.25	433.00
389.45	397.89
389.64	388.53
389.84	433.00
390.03	440.02
390.22	505.56
390.42	386.19
390.61	404.91
390.81	348.74
391.00	393.21
391.19	409.59
391.39	402.57
391.58	451.72
391.78	400.23
391.97	463.43
392.16	456.40
392.36	395.55
392.55	416.62
392.75	362.78
392.94	372.15
393.13	411.93
393.33	440.02
393.52	437.68
393.71	437.68
393.91	449.38
394.10	367.46
394.29	484.49
394.49	404.91
394.68	407.25
394.88	397.89
395.07	400.23
395.26	447.04
395.46	435.34
395.65	449.38
395.84	379.17
396.04	433.00
396.23	444.70
396.42	407.25
396.62	423.64
396.81	449.38
397.00	477.47
397.19	418.96
397.39	344.06
397.58	386.19
397.77	383.85
397.97	421.30
398.16	390.87
398.35	409.59
398.55	327.68
398.74	393.21
398.93	433.00
399.12	374.49
399.32	510.24
399.51	402.57
399.70	404.91
399.90	379.17
400.09	388.53
400.28	416.62
400.47	362.78
400.67	458.74
400.86	416.62
401.05	416.62
401.24	355.76
401.44	442.36
401.63	390.87
401.82	433.00
402.01	351.08
402.21	411.93
402.40	367.46
402.59	418.96
402.78	348.74
402.97	395.55
403.17	334.70
403.36	360.44
403.55	388.53
403.74	372.15
403.93	376.83
404.13	379.17
404.32	383.85
404.51	337.04
404.70	383.85
404.89	386.19
405.09	430.66
405.28	444.70
405.47	360.44
405.66	393.21
405.85	397.89
406.05	374.49
406.24	365.12
406.43	402.57
406.62	411.93
406.81	409.59
407.00	383.85
407.20	411.93
407.39	423.64
407.58	407.25
407.77	365.12
407.96	437.68
408.15	379.17
408.34	388.53
408.54	428.32
408.73	425.98
408.92	433.00
409.11	383.85
409.30	517.26
409.49	365.12
409.68	447.04
409.87	379.17
410.07	344.06
410.26	376.83
410.45	425.98
410.64	433.00
410.83	372.15
411.02	397.89
411.21	458.74
411.40	451.72
411.59	337.04
411.78	325.33
411.98	386.19
412.17	444.70
412.36	404.91
412.55	433.00
412.74	449.38
412.93	423.64
413.12	440.02
413.31	451.72
413.50	381.51
413.69	423.64
413.88	379.17
414.07	409.59
414.26	402.57
414.45	414.27
414.64	423.64
414.83	362.78
415.02	388.53
415.22	468.11
415.41	425.98
415.60	372.15
415.79	369.80
415.98	458.74
416.17	423.64
416.36	376.83
416.55	463.43
416.74	440.02
416.93	444.70
417.12	407.25
417.31	390.87
417.50	425.98
417.69	449.38
417.88	407.25
418.07	393.21
418.26	397.89
418.45	395.55
418.64	454.06
418.83	479.81
419.02	435.34
419.21	393.21
419.39	402.57
419.58	402.57
419.77	433.00
419.96	379.17
420.15	451.72
420.34	407.25
420.53	468.11
420.72	496.19
420.91	468.11
421.10	339.38
421.29	402.57
421.48	465.77
421.67	395.55
421.86	428.32
422.05	449.38
422.24	404.91
422.43	379.17
422.61	393.21
422.80	407.25
422.99	362.78
423.18	456.40
423.37	395.55
423.56	414.27
423.75	463.43
423.94	308.95
424.13	383.85
424.32	433.00
424.50	447.04
424.69	402.57
424.88	397.89
425.07	433.00
425.26	393.21
425.45	351.08
425.64	362.78
425.83	430.66
426.01	472.79
426.20	397.89
426.39	472.79
426.58	442.36
426.77	454.06
426.96	362.78
427.15	425.98
427.33	358.10
427.52	390.87
427.71	395.55
427.90	393.21
428.09	449.38
428.28	388.53
428.46	428.32
428.65	444.70
428.84	409.59
429.03	433.00
429.22	400.23
429.40	355.76
429.59	400.23
429.78	379.17
429.97	397.89
430.16	388.53
430.34	381.51
430.53	416.62
430.72	372.15
430.91	430.66
431.10	381.51
431.28	407.25
431.47	442.36
431.66	379.17
431.85	400.23
432.03	395.55
432.22	428.32
432.41	468.11
432.60	365.12
432.79	437.68
432.97	423.64
433.16	465.77
433.35	430.66
433.54	423.64
433.72	294.91
433.91	365.12
434.10	402.57
434.28	397.89
434.47	402.57
434.66	458.74
434.85	493.85
435.03	444.70
435.22	386.19
435.41	472.79
435.59	411.93
435.78	433.00
435.97	390.87
436.16	421.30
436.34	404.91
436.53	404.91
436.72	472.79
436.90	451.72
437.09	430.66
437.28	486.83
437.46	395.55
437.65	393.21
437.84	442.36
438.02	360.44
438.21	362.78
438.40	444.70
438.58	430.66
438.77	388.53
438.96	411.93
439.14	423.64
439.33	365.12
439.52	344.06
439.70	393.21
439.89	477.47
440.08	425.98
440.26	372.15
440.45	463.43
440.63	390.87
440.82	428.32
441.01	397.89
441.19	379.17
441.38	395.55
441.57	400.23
441.75	437.68
441.94	402.57
442.12	358.10
442.31	414.27
442.50	465.77
442.68	411.93
442.87	430.66
443.05	404.91
443.24	430.66
443.43	402.57
443.61	461.09
443.80	395.55
443.98	437.68
444.17	404.91
444.35	402.57
444.54	332.36
444.73	418.96
444.91	477.47
445.10	379.17
445.28	428.32
445.47	437.68
445.65	423.64
445.84	334.70
446.02	437.68
446.21	330.02
446.39	372.15
446.58	456.40
446.77	367.46
446.95	395.55
447.14	430.66
447.32	409.59
447.51	383.85
447.69	376.83
447.88	383.85
448.06	477.47
448.25	454.06
448.43	369.80
448.62	404.91
448.80	414.27
448.99	498.53
449.17	447.04
449.36	435.34
449.54	468.11
449.73	395.55
449.91	423.64
450.10	346.40
450.28	428.32
450.46	440.02
450.65	440.02
450.83	463.43
451.02	393.21
451.20	367.46
451.39	383.85
451.57	416.62
451.76	409.59
451.94	423.64
452.13	379.17
452.31	437.68
452.49	402.57
452.68	395.55
452.86	423.64
453.05	468.11
453.23	425.98
453.42	454.06
453.60	358.10
453.78	430.66
453.97	416.62
454.15	395.55
454.34	500.87
454.52	379.17
454.70	425.98
454.89	360.44
455.07	463.43
455.26	390.87
455.44	411.93
455.62	355.76
455.81	437.68
455.99	468.11
456.17	411.93
456.36	397.89
456.54	388.53
456.73	510.24
456.91	393.21
457.09	397.89
457.28	465.77
457.46	444.70
457.64	423.64
457.83	411.93
458.01	367.46
458.19	442.36
458.38	376.83
458.56	360.44
458.74	493.85
458.93	395.55
459.11	416.62
459.29	383.85
459.48	447.04
459.66	475.13
459.84	416.62
460.03	535.98
460.21	430.66
460.39	388.53
460.57	395.55
460.76	397.89
460.94	514.92
461.12	472.79
461.31	498.53
461.49	397.89
461.67	390.87
461.85	498.53
462.04	435.34
462.22	746.63
462.40	365.12
462.59	461.09
462.77	414.27
462.95	346.40
463.13	374.49
463.32	381.51
463.50	409.59
463.68	362.78
463.86	447.04
464.05	409.59
464.23	449.38
464.41	493.85
464.59	374.49
464.78	411.93
464.96	414.27
465.14	454.06
465.32	433.00
465.50	447.04
465.69	411.93
465.87	395.55
466.05	442.36
466.23	400.23
466.41	407.25
466.60	379.17
466.78	451.72
466.96	545.34
467.14	407.25
467.32	416.62
467.51	433.00
467.69	395.55
467.87	470.45
468.05	421.30
468.23	442.36
468.41	447.04
468.60	353.42
468.78	425.98
468.96	470.45
469.14	418.96
469.32	423.64
469.50	390.87
469.69	425.98
469.87	376.83
470.05	416.62
470.23	416.62
470.41	379.17
470.59	395.55
470.77	379.17
470.95	442.36
471.14	423.64
471.32	409.59
471.50	498.53
471.68	404.91
471.86	390.87
472.04	358.10
472.22	348.74
472.40	486.83
472.58	461.09
472.77	437.68
472.95	411.93
473.13	442.36
473.31	463.43
473.49	397.89
473.67	465.77
473.85	367.46
474.03	379.17
474.21	454.06
474.39	493.85
474.57	465.77
474.75	379.17
474.93	440.02
475.12	435.34
475.30	376.83
475.48	351.08
475.66	414.27
475.84	383.85
476.02	496.19
476.20	454.06
476.38	386.19
476.56	444.70
476.74	381.51
476.92	428.32
477.10	383.85
477.28	376.83
477.46	388.53
477.64	433.00
477.82	388.53
478.00	418.96
478.18	444.70
478.36	425.98
478.54	365.12
478.72	437.68
478.90	400.23
479.08	475.13
479.26	393.21
479.44	411.93
479.62	435.34
479.80	404.91
479.98	358.10
480.16	425.98
480.34	451.72
480.52	330.02
480.70	409.59
480.88	397.89
481.06	402.57
481.24	421.30
481.41	437.68
481.59	428.32
481.77	463.43
481.95	388.53
482.13	442.36
482.31	449.38
482.49	428.32
482.67	465.77
482.85	369.80
483.03	428.32
483.21	409.59
483.39	404.91
483.57	433.00
483.74	461.09
483.92	365.12
484.10	430.66
484.28	393.21
484.46	477.47
484.64	444.70
484.82	442.36
485.00	463.43
485.18	407.25
485.35	362.78
485.53	468.11
485.71	358.10
485.89	409.59
486.07	430.66
486.25	514.92
486.43	479.81
486.61	402.57
486.78	470.45
486.96	425.98
487.14	346.40
487.32	423.64
487.50	383.85
487.68	393.21
487.85	383.85
488.03	425.98
488.21	416.62
488.39	425.98
488.57	428.32
488.75	444.70
488.92	524.28
489.10	461.09
489.28	383.85
489.46	428.32
489.64	428.32
489.81	416.62
489.99	435.34
490.17	351.08
490.35	475.13
490.53	409.59
490.70	365.12
490.88	367.46
491.06	402.57
491.24	456.40
491.41	409.59
491.59	383.85
491.77	388.53
491.95	404.91
492.13	433.00
492.30	440.02
492.48	456.40
492.66	435.34
492.84	388.53
493.01	388.53
493.19	435.34
493.37	421.30
493.54	376.83
493.72	447.04
493.90	435.34
494.08	379.17
494.25	381.51
494.43	407.25
494.61	418.96
494.79	402.57
494.96	341.72
495.14	440.02
495.32	486.83
495.49	472.79
495.67	442.36
495.85	454.06
496.02	442.36
496.20	416.62
496.38	491.51
496.55	395.55
496.73	437.68
496.91	425.98
497.09	365.12
497.26	489.17
497.44	428.32
497.62	400.23
497.79	332.36
497.97	472.79
498.14	454.06
498.32	461.09
498.50	388.53
498.67	477.47
498.85	425.98
499.03	372.15
499.20	341.72
499.38	416.62
499.56	472.79
499.73	472.79
499.91	512.58
500.08	440.02
500.26	447.04
500.44	388.53
500.61	447.04
500.79	437.68
500.97	360.44
501.14	435.34
501.32	379.17
501.49	379.17
501.67	353.42
501.84	428.32
502.02	386.19
502.20	376.83
502.37	458.74
502.55	379.17
502.72	423.64
502.90	372.15
503.07	442.36
503.25	433.00
503.43	365.12
503.60	402.57
503.78	393.21
503.95	425.98
504.13	444.70
504.30	421.30
504.48	367.46
504.65	409.59
504.83	444.70
505.01	381.51
505.18	463.43
505.36	423.64
505.53	456.40
505.71	393.21
505.88	430.66
506.06	397.89
506.23	402.57
506.41	397.89
506.58	360.44
506.76	390.87
506.93	433.00
507.11	470.45
507.28	397.89
507.46	383.85
507.63	428.32
507.81	390.87
507.98	421.30
508.16	486.83
508.33	421.30
508.50	437.68
508.68	351.08
508.85	409.59
509.03	407.25
509.20	388.53
509.38	465.77
509.55	414.27
509.73	390.87
509.90	402.57
510.08	463.43
510.25	465.77
510.42	428.32
510.60	397.89
510.77	425.98
510.95	374.49
511.12	372.15
511.30	465.77
511.47	393.21
511.64	428.32
511.82	425.98
511.99	482.15
512.17	402.57
512.34	390.87
512.51	337.04
512.69	390.87
512.86	421.30
513.04	465.77
513.21	400.23
513.38	395.55
513.56	353.42
513.73	393.21
513.90	407.25
514.08	395.55
514.25	423.64
514.43	374.49
514.60	416.62
514.77	358.10
514.95	458.74
515.12	407.25
515.29	454.06
515.47	381.51
515.64	367.46
515.81	360.44
515.99	433.00
516.16	411.93
516.33	400.23
516.51	437.68
516.68	365.12
516.85	402.57
517.03	456.40
517.20	437.68
517.37	325.33
517.54	379.17
517.72	395.55
517.89	404.91
518.06	397.89
518.24	477.47
518.41	458.74
518.58	468.11
518.75	411.93
518.93	418.96
519.10	404.91
519.27	390.87
519.45	428.32
519.62	372.15
519.79	428.32
519.96	390.87
520.14	395.55
520.31	463.43
520.48	423.64
520.65	393.21
520.83	461.09
521.00	493.85
521.17	369.80
521.34	435.34
521.52	393.21
521.69	461.09
521.86	414.27
522.03	444.70
522.20	447.04
522.38	454.06
522.55	388.53
522.72	435.34
522.89	447.04
523.07	433.00
523.24	465.77
523.41	390.87
523.58	369.80
523.75	360.44
523.92	376.83
524.10	330.02
524.27	393.21
524.44	400.23
524.61	475.13
524.78	411.93
524.96	437.68
525.13	500.87
525.30	528.96
525.47	463.43
525.64	484.49
525.81	418.96
525.98	381.51
526.16	376.83
526.33	428.32
526.50	397.89
526.67	388.53
526.84	423.64
527.01	440.02
527.18	411.93
527.36	416.62
527.53	397.89
527.70	409.59
527.87	437.68
528.04	498.53
528.21	383.85
528.38	425.98
528.55	383.85
528.72	470.45
528.89	493.85
529.07	421.30
529.24	402.57
529.41	376.83
529.58	411.93
529.75	346.40
529.92	449.38
530.09	421.30
530.26	440.02
530.43	465.77
530.60	376.83
530.77	400.23
530.94	393.21
531.11	449.38
531.28	423.64
531.46	414.27
531.63	435.34
531.80	416.62
531.97	414.27
532.14	421.30
532.31	416.62
532.48	425.98
532.65	409.59
532.82	388.53
532.99	463.43
533.16	433.00
533.33	379.17
533.50	395.55
533.67	409.59
533.84	411.93
534.01	451.72
534.18	411.93
534.35	407.25
534.52	397.89
534.69	376.83
534.86	393.21
535.03	447.04
535.20	362.78
535.37	397.89
535.54	449.38
535.71	414.27
535.88	510.24
536.05	397.89
536.22	362.78
536.38	372.15
536.55	402.57
536.72	454.06
536.89	409.59
537.06	386.19
537.23	360.44
537.40	407.25
537.57	381.51
537.74	463.43
537.91	421.30
538.08	418.96
538.25	416.62
538.42	416.62
538.59	397.89
538.75	430.66
538.92	428.32
539.09	468.11
539.26	433.00
539.43	479.81
539.60	402.57
539.77	404.91
539.94	365.12
540.11	390.87
540.28	433.00
540.44	454.06
540.61	447.04
540.78	437.68
540.95	376.83
541.12	379.17
541.29	360.44
541.46	475.13
541.62	393.21
541.79	372.15
541.96	372.15
542.13	416.62
542.30	362.78
542.47	545.34
542.63	454.06
542.80	435.34
542.97	447.04
543.14	425.98
543.31	489.17
543.48	353.42
543.64	383.85
543.81	348.74
543.98	449.38
544.15	421.30
544.32	423.64
544.48	451.72
544.65	421.30
544.82	369.80
544.99	376.83
545.16	393.21
545.32	358.10
545.49	440.02
545.66	397.89
545.83	344.06
546.00	355.76
546.16	425.98
546.33	390.87
546.50	414.27
546.67	507.90
546.83	423.64
547.00	444.70
547.17	409.59
547.34	475.13
547.50	395.55
547.67	411.93
547.84	383.85
548.00	383.85
548.17	463.43
548.34	437.68
548.51	402.57
548.67	404.91
548.84	430.66
549.01	400.23
549.18	418.96
549.34	351.08
549.51	397.89
549.68	482.15
549.84	369.80
550.01	388.53
550.18	449.38
550.34	437.68
550.51	449.38
550.68	430.66
550.84	393.21
551.01	423.64
551.18	395.55
551.34	400.23
551.51	484.49
551.68	430.66
551.84	407.25
552.01	444.70
552.18	411.93
552.34	425.98
552.51	421.30
552.68	447.04
552.84	395.55
553.01	442.36
553.18	482.15
553.34	475.13
553.51	341.72
553.67	475.13
553.84	397.89
554.01	472.79
554.17	397.89
554.34	355.76
554.51	428.32
554.67	430.66
554.84	414.27
555.00	360.44
555.17	388.53
555.33	454.06
555.50	383.85
555.67	400.23
555.83	346.40
556.00	418.96
556.16	521.94
556.33	409.59
556.50	369.80
556.66	390.87
556.83	348.74
556.99	376.83
557.16	362.78
557.32	393.21
557.49	456.40
557.65	369.80
557.82	461.09
557.98	477.47
558.15	470.45
558.32	449.38
558.48	337.04
558.65	477.47
558.81	458.74
558.98	447.04
559.14	395.55
559.31	475.13
559.47	421.30
559.64	447.04
559.80	414.27
559.97	376.83
560.13	461.09
560.30	395.55
560.46	493.85
560.63	365.12
560.79	346.40
560.96	367.46
561.12	376.83
561.29	416.62
561.45	433.00
561.61	395.55
561.78	498.53
561.94	425.98
562.11	442.36
562.27	348.74
562.44	440.02
562.60	390.87
562.77	360.44
562.93	526.62
563.10	486.83
563.26	367.46
563.42	404.91
563.59	447.04
563.75	437.68
563.92	444.70
564.08	468.11
564.24	376.83
564.41	407.25
564.57	404.91
564.74	468.11
564.90	437.68
565.07	409.59
565.23	404.91
565.39	360.44
565.56	451.72
565.72	367.46
565.88	416.62
566.05	489.17
566.21	353.42
566.38	440.02
566.54	414.27
566.70	465.77
566.87	367.46
567.03	395.55
567.19	381.51
567.36	369.80
567.52	418.96
567.68	433.00
567.85	418.96
568.01	376.83
568.17	414.27
568.34	442.36
568.50	416.62
568.66	348.74
568.83	510.24
568.99	397.89
569.15	414.27
569.32	383.85
569.48	423.64
569.64	388.53
569.81	381.51
569.97	381.51
570.13	423.64
570.30	454.06
570.46	383.85
570.62	395.55
570.78	411.93
570.95	449.38
571.11	465.77
571.27	461.09
571.43	414.27
571.60	409.59
571.76	351.08
571.92	411.93
572.09	425.98
572.25	421.30
572.41	414.27
572.57	355.76
572.74	409.59
572.90	440.02
573.06	435.34
573.22	404.91
573.38	376.83
573.55	404.91
573.71	393.21
573.87	374.49
574.03	348.74
574.20	395.55
574.36	463.43
574.52	421.30
574.68	418.96
574.84	395.55
575.01	416.62
575.17	435.34
575.33	428.32
575.49	411.93
575.65	407.25
575.82	440.02
575.98	421.30
576.14	435.34
576.30	330.02
576.46	379.17
576.62	404.91
576.79	470.45
576.95	451.72
577.11	524.28
577.27	369.80
577.43	416.62
577.59	442.36
577.75	437.68
577.92	418.96
578.08	402.57
578.24	454.06
578.40	470.45
578.56	365.12
578.72	437.68
578.88	383.85
579.04	407.25
579.21	435.34
579.37	418.96
579.53	433.00
579.69	390.87
579.85	470.45
580.01	416.62
580.17	421.30
580.33	318.31
580.49	442.36
580.65	388.53
580.82	463.43
580.98	409.59
581.14	416.62
581.30	472.79
581.46	437.68
581.62	425.98
581.78	451.72
581.94	503.22
582.10	421.30
582.26	395.55
582.42	418.96
582.58	484.49
582.74	442.36
582.90	449.38
583.06	421.30
583.22	395.55
583.38	425.98
583.54	517.26
583.70	458.74
583.86	365.12
584.02	461.09
584.18	454.06
584.34	386.19
584.50	355.76
584.66	390.87
584.82	332.36
584.98	510.24
585.14	423.64
585.30	435.34
585.46	454.06
585.62	367.46
585.78	486.83
585.94	447.04
586.10	444.70
586.26	386.19
586.42	468.11
586.58	451.72
586.74	400.23
586.90	437.68
587.06	425.98
587.22	372.15
587.38	428.32
587.54	407.25
587.70	322.99
587.86	402.57
588.02	367.46
588.18	461.09
588.34	470.45
588.49	435.34
588.65	416.62
588.81	411.93
588.97	482.15
589.13	472.79
589.29	435.34
589.45	454.06
589.61	393.21
589.77	440.02
589.93	447.04
590.08	414.27
590.24	533.64
590.40	383.85
590.56	397.89
590.72	379.17
590.88	379.17
591.04	470.45
591.20	428.32
591.35	437.68
591.51	369.80
591.67	407.25
591.83	442.36
591.99	414.27
592.15	407.25
592.31	416.62
592.46	372.15
592.62	397.89
592.78	369.80
592.94	423.64
593.10	367.46
593.26	344.06
593.41	423.64
593.57	367.46
593.73	423.64
593.89	440.02
594.05	444.70
594.20	468.11
594.36	449.38
594.52	348.74
594.68	425.98
594.84	402.57
594.99	461.09
595.15	397.89
595.31	458.74
595.47	397.89
595.62	470.45
595.78	355.76
595.94	416.62
596.10	425.98
596.25	397.89
596.41	372.15
596.57	353.42
596.73	379.17
596.88	414.27
597.04	395.55
597.20	367.46
597.36	423.64
597.51	318.31
597.67	425.98
597.83	458.74
597.99	402.57
598.14	383.85
598.30	425.98
598.46	484.49
598.61	475.13
598.77	376.83
598.93	423.64
599.09	411.93
599.24	444.70
599.40	451.72
599.56	416.62
599.71	444.70
599.87	393.21
600.03	437.68
600.18	402.57
600.34	423.64
600.50	521.94
600.65	444.70
600.81	470.45
600.97	447.04
601.12	428.32
601.28	414.27
601.44	383.85
601.59	425.98
601.75	433.00
601.91	468.11
602.06	456.40
602.22	381.51
602.37	386.19
602.53	409.59
602.69	521.94
602.84	379.17
603.00	418.96
603.16	409.59
603.31	461.09
603.47	416.62
603.62	367.46
603.78	423.64
603.94	465.77
604.09	418.96
604.25	341.72
604.40	414.27
604.56	388.53
604.71	430.66
604.87	435.34
605.03	435.34
605.18	449.38
605.34	482.15
605.49	383.85
605.65	435.34
605.80	355.76
605.96	428.32
606.12	407.25
606.27	402.57
606.43	418.96
606.58	454.06
606.74	409.59
606.89	458.74
607.05	407.25
607.20	320.65
607.36	440.02
607.51	332.36
607.67	400.23
607.82	465.77
607.98	435.34
608.13	440.02
608.29	430.66
608.44	425.98
608.60	393.21
608.75	472.79
608.91	454.06
609.06	383.85
609.22	475.13
609.37	472.79
609.53	388.53
609.68	416.62
609.84	393.21
609.99	479.81
610.15	418.96
