SpectraSuite Data File
++++++++++++++++++++++++++++++++++++
Date: Fri Oct 25 12:11:04 EDT 2013
User: price-jones
Dark Spectrum Present: No
Reference Spectrum Present: No
Number of Sampled Component Spectra: 1
Spectrometers: USB2+H05261
Integration Time (usec): 100000 (USB2+H05261)
Spectra Averaged: 1 (USB2+H05261)
Boxcar Smoothing: 0 (USB2+H05261)
Correct for Electrical Dark: No (USB2+H05261)
Strobe/Lamp Enabled: No (USB2+H05261)
Correct for Detector Non-linearity: No (USB2+H05261)
Correct for Stray Light: No (USB2+H05261)
Number of Pixels in Processed Spectrum: 2048
>>>>>Begin Processed Spectral Data<<<<<
365.73	351.08
365.92	351.08
366.12	351.08
366.32	278.52
366.52	234.05
366.72	266.82
366.91	259.80
367.11	180.22
367.31	133.41
367.51	259.80
367.70	243.42
367.90	278.52
368.10	224.69
368.30	203.63
368.49	208.31
368.69	278.52
368.89	248.10
369.09	215.33
369.28	243.42
369.48	229.37
369.68	269.16
369.87	278.52
370.07	292.57
370.27	381.51
370.47	339.38
370.66	341.72
370.86	318.31
371.06	367.46
371.25	376.83
371.45	367.46
371.65	294.91
371.84	397.89
372.04	393.21
372.24	318.31
372.44	404.91
372.63	400.23
372.83	454.06
373.03	355.76
373.22	393.21
373.42	451.72
373.62	454.06
373.81	500.87
374.01	423.64
374.21	433.00
374.40	418.96
374.60	404.91
374.79	423.64
374.99	425.98
375.19	479.81
375.38	425.98
375.58	376.83
375.78	486.83
375.97	358.10
376.17	437.68
376.37	425.98
376.56	386.19
376.76	402.57
376.95	477.47
377.15	430.66
377.35	461.09
377.54	433.00
377.74	390.87
377.93	421.30
378.13	435.34
378.33	449.38
378.52	416.62
378.72	428.32
378.91	397.89
379.11	447.04
379.31	456.40
379.50	458.74
379.70	433.00
379.89	379.17
380.09	407.25
380.28	435.34
380.48	400.23
380.68	355.76
380.87	430.66
381.07	418.96
381.26	505.56
381.46	348.74
381.65	425.98
381.85	435.34
382.04	381.51
382.24	386.19
382.43	425.98
382.63	367.46
382.83	425.98
383.02	437.68
383.22	498.53
383.41	400.23
383.61	386.19
383.80	433.00
384.00	442.36
384.19	393.21
384.39	383.85
384.58	400.23
384.78	402.57
384.97	341.72
385.17	423.64
385.36	402.57
385.56	381.51
385.75	353.42
385.95	421.30
386.14	393.21
386.34	386.19
386.53	433.00
386.72	503.22
386.92	404.91
387.11	393.21
387.31	411.93
387.50	383.85
387.70	381.51
387.89	433.00
388.09	351.08
388.28	367.46
388.48	444.70
388.67	444.70
388.86	425.98
389.06	388.53
389.25	421.30
389.45	423.64
389.64	374.49
389.84	362.78
390.03	400.23
390.22	397.89
390.42	444.70
390.61	390.87
390.81	381.51
391.00	376.83
391.19	510.24
391.39	444.70
391.58	437.68
391.78	435.34
391.97	442.36
392.16	372.15
392.36	416.62
392.55	414.27
392.75	470.45
392.94	365.12
393.13	353.42
393.33	418.96
393.52	416.62
393.71	402.57
393.91	365.12
394.10	393.21
394.29	437.68
394.49	393.21
394.68	447.04
394.88	433.00
395.07	425.98
395.26	362.78
395.46	425.98
395.65	407.25
395.84	409.59
396.04	430.66
396.23	393.21
396.42	435.34
396.62	374.49
396.81	409.59
397.00	402.57
397.19	400.23
397.39	430.66
397.58	381.51
397.77	416.62
397.97	393.21
398.16	440.02
398.35	402.57
398.55	353.42
398.74	381.51
398.93	395.55
399.12	489.17
399.32	393.21
399.51	381.51
399.70	362.78
399.90	337.04
400.09	407.25
400.28	409.59
400.47	365.12
400.67	463.43
400.86	311.29
401.05	414.27
401.24	402.57
401.44	374.49
401.63	390.87
401.82	465.77
402.01	388.53
402.21	461.09
402.40	454.06
402.59	435.34
402.78	379.17
402.97	430.66
403.17	397.89
403.36	365.12
403.55	458.74
403.74	390.87
403.93	390.87
404.13	442.36
404.32	447.04
404.51	369.80
404.70	421.30
404.89	454.06
405.09	458.74
405.28	425.98
405.47	355.76
405.66	461.09
405.85	400.23
406.05	454.06
406.24	390.87
406.43	451.72
406.62	430.66
406.81	402.57
407.00	477.47
407.20	440.02
407.39	395.55
407.58	421.30
407.77	437.68
407.96	442.36
408.15	360.44
408.34	315.97
408.54	383.85
408.73	386.19
408.92	402.57
409.11	425.98
409.30	418.96
409.49	362.78
409.68	383.85
409.87	365.12
410.07	367.46
410.26	360.44
410.45	421.30
410.64	383.85
410.83	360.44
411.02	397.89
411.21	458.74
411.40	444.70
411.59	435.34
411.78	369.80
411.98	353.42
412.17	414.27
412.36	444.70
412.55	440.02
412.74	334.70
412.93	428.32
413.12	435.34
413.31	444.70
413.50	402.57
413.69	400.23
413.88	402.57
414.07	423.64
414.26	451.72
414.45	386.19
414.64	386.19
414.83	414.27
415.02	379.17
415.22	435.34
415.41	414.27
415.60	383.85
415.79	400.23
415.98	437.68
416.17	388.53
416.36	458.74
416.55	409.59
416.74	423.64
416.93	395.55
417.12	313.63
417.31	360.44
417.50	390.87
417.69	458.74
417.88	468.11
418.07	372.15
418.26	337.04
418.45	425.98
418.64	407.25
418.83	402.57
419.02	397.89
419.21	433.00
419.39	456.40
419.58	376.83
419.77	369.80
419.96	505.56
420.15	475.13
420.34	379.17
420.53	421.30
420.72	418.96
420.91	440.02
421.10	397.89
421.29	425.98
421.48	447.04
421.67	383.85
421.86	425.98
422.05	367.46
422.24	348.74
422.43	379.17
422.61	381.51
422.80	404.91
422.99	311.29
423.18	397.89
423.37	425.98
423.56	390.87
423.75	397.89
423.94	428.32
424.13	376.83
424.32	376.83
424.50	409.59
424.69	315.97
424.88	409.59
425.07	433.00
425.26	449.38
425.45	418.96
425.64	393.21
425.83	407.25
426.01	367.46
426.20	433.00
426.39	358.10
426.58	435.34
426.77	458.74
426.96	418.96
427.15	393.21
427.33	351.08
427.52	360.44
427.71	351.08
427.90	409.59
428.09	397.89
428.28	386.19
428.46	362.78
428.65	442.36
428.84	339.38
429.03	386.19
429.22	435.34
429.40	369.80
429.59	365.12
429.78	418.96
429.97	451.72
430.16	393.21
430.34	334.70
430.53	435.34
430.72	414.27
430.91	447.04
431.10	400.23
431.28	449.38
431.47	454.06
431.66	433.00
431.85	484.49
432.03	390.87
432.22	458.74
432.41	393.21
432.60	503.22
432.79	433.00
432.97	430.66
433.16	376.83
433.35	428.32
433.54	397.89
433.72	454.06
433.91	470.45
434.10	393.21
434.28	353.42
434.47	440.02
434.66	423.64
434.85	266.82
435.03	435.34
435.22	444.70
435.41	475.13
435.59	372.15
435.78	369.80
435.97	395.55
436.16	416.62
436.34	351.08
436.53	407.25
436.72	437.68
436.90	437.68
437.09	379.17
437.28	388.53
437.46	372.15
437.65	416.62
437.84	409.59
438.02	404.91
438.21	409.59
438.40	435.34
438.58	369.80
438.77	479.81
438.96	430.66
439.14	383.85
439.33	425.98
439.52	433.00
439.70	475.13
439.89	486.83
440.08	411.93
440.26	400.23
440.45	358.10
440.63	477.47
440.82	379.17
441.01	449.38
441.19	402.57
441.38	409.59
441.57	470.45
441.75	468.11
441.94	430.66
442.12	402.57
442.31	414.27
442.50	351.08
442.68	505.56
442.87	472.79
443.05	341.72
443.24	449.38
443.43	393.21
443.61	395.55
443.80	442.36
443.98	250.44
444.17	339.38
444.35	393.21
444.54	461.09
444.73	388.53
444.91	437.68
445.10	447.04
445.28	409.59
445.47	379.17
445.65	348.74
445.84	411.93
446.02	407.25
446.21	496.19
446.39	416.62
446.58	372.15
446.77	428.32
446.95	400.23
447.14	442.36
447.32	449.38
447.51	397.89
447.69	365.12
447.88	388.53
448.06	367.46
448.25	456.40
448.43	444.70
448.62	430.66
448.80	381.51
448.99	454.06
449.17	400.23
449.36	444.70
449.54	418.96
449.73	482.15
449.91	360.44
450.10	428.32
450.28	430.66
450.46	470.45
450.65	440.02
450.83	395.55
451.02	367.46
451.20	411.93
451.39	430.66
451.57	388.53
451.76	402.57
451.94	320.65
452.13	454.06
452.31	421.30
452.49	433.00
452.68	458.74
452.86	322.99
453.05	472.79
453.23	374.49
453.42	390.87
453.60	442.36
453.78	423.64
453.97	411.93
454.15	414.27
454.34	393.21
454.52	381.51
454.70	421.30
454.89	472.79
455.07	404.91
455.26	386.19
455.44	477.47
455.62	498.53
455.81	411.93
455.99	423.64
456.17	395.55
456.36	379.17
456.54	388.53
456.73	414.27
456.91	421.30
457.09	400.23
457.28	475.13
457.46	421.30
457.64	449.38
457.83	433.00
458.01	381.51
458.19	430.66
458.38	435.34
458.56	475.13
458.74	383.85
458.93	444.70
459.11	475.13
459.29	435.34
459.48	402.57
459.66	414.27
459.84	482.15
460.03	430.66
460.21	461.09
460.39	437.68
460.57	461.09
460.76	397.89
460.94	404.91
461.12	458.74
461.31	421.30
461.49	433.00
461.67	346.40
461.85	456.40
462.04	411.93
462.22	777.06
462.40	444.70
462.59	418.96
462.77	339.38
462.95	381.51
463.13	461.09
463.32	358.10
463.50	376.83
463.68	362.78
463.86	414.27
464.05	402.57
464.23	397.89
464.41	414.27
464.59	425.98
464.78	386.19
464.96	341.72
465.14	472.79
465.32	386.19
465.50	351.08
465.69	437.68
465.87	337.04
466.05	418.96
466.23	400.23
466.41	444.70
466.60	423.64
466.78	374.49
466.96	421.30
467.14	395.55
467.32	463.43
467.51	418.96
467.69	418.96
467.87	458.74
468.05	404.91
468.23	491.51
468.41	430.66
468.60	332.36
468.78	423.64
468.96	411.93
469.14	454.06
469.32	414.27
469.50	322.99
469.69	407.25
469.87	407.25
470.05	388.53
470.23	365.12
470.41	358.10
470.59	409.59
470.77	454.06
470.95	463.43
471.14	463.43
471.32	383.85
471.50	428.32
471.68	374.49
471.86	374.49
472.04	346.40
472.22	400.23
472.40	390.87
472.58	393.21
472.77	390.87
472.95	348.74
473.13	461.09
473.31	470.45
473.49	390.87
473.67	390.87
473.85	400.23
474.03	430.66
474.21	339.38
474.39	433.00
474.57	402.57
474.75	425.98
474.93	423.64
475.12	344.06
475.30	400.23
475.48	428.32
475.66	433.00
475.84	393.21
476.02	414.27
476.20	465.77
476.38	383.85
476.56	493.85
476.74	451.72
476.92	393.21
477.10	418.96
477.28	416.62
477.46	423.64
477.64	447.04
477.82	433.00
478.00	449.38
478.18	409.59
478.36	447.04
478.54	395.55
478.72	372.15
478.90	388.53
479.08	381.51
479.26	423.64
479.44	411.93
479.62	346.40
479.80	423.64
479.98	407.25
480.16	367.46
480.34	376.83
480.52	367.46
480.70	358.10
480.88	388.53
481.06	330.02
481.24	423.64
481.41	454.06
481.59	430.66
481.77	454.06
481.95	404.91
482.13	418.96
482.31	442.36
482.49	465.77
482.67	465.77
482.85	425.98
483.03	428.32
483.21	461.09
483.39	362.78
483.57	437.68
483.74	479.81
483.92	435.34
484.10	418.96
484.28	430.66
484.46	521.94
484.64	461.09
484.82	423.64
485.00	327.68
485.18	468.11
485.35	407.25
485.53	414.27
485.71	430.66
485.89	372.15
486.07	358.10
486.25	465.77
486.43	416.62
486.61	463.43
486.78	440.02
486.96	341.72
487.14	430.66
487.32	400.23
487.50	381.51
487.68	402.57
487.85	440.02
488.03	386.19
488.21	437.68
488.39	425.98
488.57	472.79
488.75	416.62
488.92	507.90
489.10	479.81
489.28	451.72
489.46	369.80
489.64	440.02
489.81	400.23
489.99	341.72
490.17	440.02
490.35	416.62
490.53	444.70
490.70	430.66
490.88	433.00
491.06	334.70
491.24	397.89
491.41	418.96
491.59	444.70
491.77	379.17
491.95	449.38
492.13	379.17
492.30	397.89
492.48	458.74
492.66	416.62
492.84	386.19
493.01	430.66
493.19	372.15
493.37	388.53
493.54	388.53
493.72	477.47
493.90	449.38
494.08	388.53
494.25	416.62
494.43	475.13
494.61	346.40
494.79	332.36
494.96	390.87
495.14	489.17
495.32	428.32
495.49	404.91
495.67	454.06
495.85	465.77
496.02	423.64
496.20	442.36
496.38	409.59
496.55	423.64
496.73	421.30
496.91	404.91
497.09	456.40
497.26	344.06
497.44	433.00
497.62	418.96
497.79	390.87
497.97	421.30
498.14	395.55
498.32	402.57
498.50	397.89
498.67	402.57
498.85	423.64
499.03	404.91
499.20	433.00
499.38	430.66
499.56	425.98
499.73	468.11
499.91	423.64
500.08	409.59
500.26	468.11
500.44	346.40
500.61	346.40
500.79	397.89
500.97	456.40
501.14	451.72
501.32	442.36
501.49	423.64
501.67	433.00
501.84	369.80
502.02	369.80
502.20	444.70
502.37	435.34
502.55	400.23
502.72	351.08
502.90	407.25
503.07	409.59
503.25	463.43
503.43	416.62
503.60	404.91
503.78	425.98
503.95	456.40
504.13	444.70
504.30	397.89
504.48	430.66
504.65	393.21
504.83	458.74
505.01	484.49
505.18	449.38
505.36	407.25
505.53	397.89
505.71	407.25
505.88	430.66
506.06	447.04
506.23	393.21
506.41	456.40
506.58	400.23
506.76	416.62
506.93	421.30
507.11	538.32
507.28	393.21
507.46	327.68
507.63	423.64
507.81	404.91
507.98	407.25
508.16	475.13
508.33	386.19
508.50	393.21
508.68	393.21
508.85	418.96
509.03	393.21
509.20	461.09
509.38	437.68
509.55	421.30
509.73	344.06
509.90	430.66
510.08	397.89
510.25	414.27
510.42	379.17
510.60	381.51
510.77	425.98
510.95	411.93
511.12	425.98
511.30	437.68
511.47	414.27
511.64	425.98
511.82	411.93
511.99	437.68
512.17	430.66
512.34	379.17
512.51	397.89
512.69	407.25
512.86	484.49
513.04	437.68
513.21	444.70
513.38	379.17
513.56	414.27
513.73	444.70
513.90	374.49
514.08	454.06
514.25	414.27
514.43	437.68
514.60	348.74
514.77	358.10
514.95	397.89
515.12	409.59
515.29	435.34
515.47	374.49
515.64	451.72
515.81	383.85
515.99	433.00
516.16	425.98
516.33	430.66
516.51	435.34
516.68	430.66
516.85	463.43
517.03	365.12
517.20	397.89
517.37	472.79
517.54	411.93
517.72	381.51
517.89	416.62
518.06	409.59
518.24	505.56
518.41	440.02
518.58	433.00
518.75	393.21
518.93	444.70
519.10	383.85
519.27	393.21
519.45	425.98
519.62	440.02
519.79	425.98
519.96	430.66
520.14	418.96
520.31	428.32
520.48	367.46
520.65	425.98
520.83	440.02
521.00	395.55
521.17	435.34
521.34	430.66
521.52	425.98
521.69	409.59
521.86	407.25
522.03	442.36
522.20	428.32
522.38	407.25
522.55	428.32
522.72	470.45
522.89	421.30
523.07	381.51
523.24	299.59
523.41	437.68
523.58	388.53
523.75	449.38
523.92	404.91
524.10	430.66
524.27	449.38
524.44	433.00
524.61	470.45
524.78	402.57
524.96	489.17
525.13	395.55
525.30	425.98
525.47	442.36
525.64	416.62
525.81	449.38
525.98	444.70
526.16	386.19
526.33	435.34
526.50	407.25
526.67	400.23
526.84	360.44
527.01	414.27
527.18	402.57
527.36	447.04
527.53	393.21
527.70	449.38
527.87	421.30
528.04	500.87
528.21	404.91
528.38	388.53
528.55	484.49
528.72	421.30
528.89	470.45
529.07	393.21
529.24	416.62
529.41	418.96
529.58	442.36
529.75	456.40
529.92	402.57
530.09	425.98
530.26	414.27
530.43	358.10
530.60	461.09
530.77	379.17
530.94	442.36
531.11	407.25
531.28	435.34
531.46	423.64
531.63	411.93
531.80	381.51
531.97	395.55
532.14	388.53
532.31	425.98
532.48	423.64
532.65	428.32
532.82	423.64
532.99	437.68
533.16	330.02
533.33	423.64
533.50	416.62
533.67	383.85
533.84	379.17
534.01	449.38
534.18	397.89
534.35	440.02
534.52	339.38
534.69	470.45
534.86	383.85
535.03	404.91
535.20	435.34
535.37	416.62
535.54	442.36
535.71	388.53
535.88	411.93
536.05	411.93
536.22	388.53
536.38	372.15
536.55	440.02
536.72	479.81
536.89	395.55
537.06	390.87
537.23	360.44
537.40	449.38
537.57	381.51
537.74	428.32
537.91	428.32
538.08	400.23
538.25	372.15
538.42	409.59
538.59	418.96
538.75	444.70
538.92	421.30
539.09	404.91
539.26	369.80
539.43	465.77
539.60	423.64
539.77	400.23
539.94	358.10
540.11	484.49
540.28	463.43
540.44	414.27
540.61	383.85
540.78	442.36
540.95	369.80
541.12	505.56
541.29	416.62
541.46	484.49
541.62	418.96
541.79	461.09
541.96	374.49
542.13	409.59
542.30	383.85
542.47	500.87
542.63	428.32
542.80	465.77
542.97	435.34
543.14	365.12
543.31	411.93
543.48	437.68
543.64	395.55
543.81	447.04
543.98	367.46
544.15	388.53
544.32	407.25
544.48	418.96
544.65	470.45
544.82	367.46
544.99	360.44
545.16	484.49
545.32	407.25
545.49	390.87
545.66	433.00
545.83	395.55
546.00	390.87
546.16	409.59
546.33	409.59
546.50	428.32
546.67	451.72
546.83	339.38
547.00	440.02
547.17	374.49
547.34	409.59
547.50	468.11
547.67	379.17
547.84	400.23
548.00	447.04
548.17	440.02
548.34	440.02
548.51	414.27
548.67	489.17
548.84	386.19
549.01	447.04
549.18	482.15
549.34	414.27
549.51	433.00
549.68	433.00
549.84	456.40
550.01	367.46
550.18	465.77
550.34	531.30
550.51	472.79
550.68	423.64
550.84	482.15
551.01	435.34
551.18	451.72
551.34	425.98
551.51	386.19
551.68	404.91
551.84	355.76
552.01	416.62
552.18	418.96
552.34	463.43
552.51	463.43
552.68	458.74
552.84	451.72
553.01	482.15
553.18	393.21
553.34	414.27
553.51	407.25
553.67	425.98
553.84	454.06
554.01	463.43
554.17	404.91
554.34	374.49
554.51	395.55
554.67	519.60
554.84	437.68
555.00	477.47
555.17	444.70
555.33	475.13
555.50	430.66
555.67	451.72
555.83	374.49
556.00	435.34
556.16	510.24
556.33	444.70
556.50	365.12
556.66	484.49
556.83	479.81
556.99	468.11
557.16	421.30
557.32	383.85
557.49	362.78
557.65	454.06
557.82	322.99
557.98	430.66
558.15	463.43
558.32	386.19
558.48	400.23
558.65	423.64
558.81	475.13
558.98	390.87
559.14	491.51
559.31	425.98
559.47	372.15
559.64	454.06
559.80	416.62
559.97	440.02
560.13	388.53
560.30	397.89
560.46	369.80
560.63	372.15
560.79	351.08
560.96	421.30
561.12	353.42
561.29	449.38
561.45	416.62
561.61	414.27
561.78	447.04
561.94	435.34
562.11	416.62
562.27	449.38
562.44	358.10
562.60	465.77
562.77	421.30
562.93	451.72
563.10	442.36
563.26	386.19
563.42	437.68
563.59	362.78
563.75	437.68
563.92	498.53
564.08	465.77
564.24	400.23
564.41	500.87
564.57	428.32
564.74	416.62
564.90	461.09
565.07	397.89
565.23	418.96
565.39	360.44
565.56	463.43
565.72	400.23
565.88	367.46
566.05	409.59
566.21	407.25
566.38	475.13
566.54	390.87
566.70	454.06
566.87	390.87
567.03	409.59
567.19	428.32
567.36	411.93
567.52	409.59
567.68	351.08
567.85	374.49
568.01	383.85
568.17	376.83
568.34	369.80
568.50	437.68
568.66	430.66
568.83	503.22
568.99	379.17
569.15	463.43
569.32	341.72
569.48	421.30
569.64	465.77
569.81	369.80
569.97	421.30
570.13	458.74
570.30	379.17
570.46	444.70
570.62	444.70
570.78	477.47
570.95	393.21
571.11	465.77
571.27	510.24
571.43	418.96
571.60	451.72
571.76	402.57
571.92	313.63
572.09	407.25
572.25	355.76
572.41	367.46
572.57	409.59
572.74	547.69
572.90	519.60
573.06	430.66
573.22	379.17
573.38	404.91
573.55	449.38
573.71	451.72
573.87	367.46
574.03	383.85
574.20	430.66
574.36	402.57
574.52	435.34
574.68	414.27
574.84	421.30
575.01	376.83
575.17	479.81
575.33	435.34
575.49	409.59
575.65	444.70
575.82	428.32
575.98	449.38
576.14	397.89
576.30	381.51
576.46	437.68
576.62	472.79
576.79	404.91
576.95	397.89
577.11	393.21
577.27	402.57
577.43	444.70
577.59	414.27
577.75	383.85
577.92	421.30
578.08	416.62
578.24	414.27
578.40	468.11
578.56	416.62
578.72	381.51
578.88	444.70
579.04	397.89
579.21	479.81
579.37	381.51
579.53	348.74
579.69	458.74
579.85	383.85
580.01	428.32
580.17	376.83
580.33	409.59
580.49	507.90
580.65	475.13
580.82	421.30
580.98	393.21
581.14	362.78
581.30	444.70
581.46	430.66
581.62	400.23
581.78	423.64
581.94	355.76
582.10	404.91
582.26	451.72
582.42	372.15
582.58	409.59
582.74	447.04
582.90	447.04
583.06	491.51
583.22	414.27
583.38	337.04
583.54	395.55
583.70	430.66
583.86	433.00
584.02	367.46
584.18	458.74
584.34	379.17
584.50	407.25
584.66	416.62
584.82	411.93
584.98	454.06
585.14	365.12
585.30	407.25
585.46	475.13
585.62	472.79
585.78	409.59
585.94	411.93
586.10	383.85
586.26	414.27
586.42	461.09
586.58	493.85
586.74	390.87
586.90	414.27
587.06	411.93
587.22	386.19
587.38	437.68
587.54	390.87
587.70	533.64
587.86	463.43
588.02	491.51
588.18	404.91
588.34	388.53
588.49	346.40
588.65	435.34
588.81	400.23
588.97	423.64
589.13	414.27
589.29	381.51
589.45	416.62
589.61	416.62
589.77	477.47
589.93	463.43
590.08	362.78
590.24	418.96
590.40	418.96
590.56	381.51
590.72	430.66
590.88	416.62
591.04	383.85
591.20	486.83
591.35	416.62
591.51	418.96
591.67	388.53
591.83	404.91
591.99	402.57
592.15	451.72
592.31	386.19
592.46	451.72
592.62	468.11
592.78	390.87
592.94	351.08
593.10	374.49
593.26	397.89
593.41	400.23
593.57	444.70
593.73	402.57
593.89	355.76
594.05	465.77
594.20	409.59
594.36	379.17
594.52	395.55
594.68	374.49
594.84	451.72
594.99	442.36
595.15	472.79
595.31	430.66
595.47	395.55
595.62	440.02
595.78	395.55
595.94	461.09
596.10	447.04
596.25	411.93
596.41	390.87
596.57	397.89
596.73	383.85
596.88	390.87
597.04	414.27
597.20	358.10
597.36	498.53
597.51	374.49
597.67	425.98
597.83	386.19
597.99	423.64
598.14	409.59
598.30	482.15
598.46	379.17
598.61	407.25
598.77	404.91
598.93	376.83
599.09	500.87
599.24	421.30
599.40	463.43
599.56	411.93
599.71	409.59
599.87	416.62
600.03	425.98
600.18	449.38
600.34	409.59
600.50	444.70
600.65	454.06
600.81	437.68
600.97	461.09
601.12	388.53
601.28	416.62
601.44	360.44
601.59	393.21
601.75	383.85
601.91	428.32
602.06	477.47
602.22	456.40
602.37	463.43
602.53	425.98
602.69	463.43
602.84	472.79
603.00	379.17
603.16	449.38
603.31	404.91
603.47	381.51
603.62	367.46
603.78	475.13
603.94	458.74
604.09	383.85
604.25	376.83
604.40	451.72
604.56	454.06
604.71	435.34
604.87	395.55
605.03	456.40
605.18	493.85
605.34	402.57
605.49	376.83
605.65	418.96
605.80	465.77
605.96	425.98
606.12	456.40
606.27	397.89
606.43	479.81
606.58	365.12
606.74	437.68
606.89	393.21
607.05	447.04
607.20	400.23
607.36	404.91
607.51	388.53
607.67	468.11
607.82	393.21
607.98	463.43
608.13	388.53
608.29	416.62
608.44	428.32
608.60	442.36
608.75	372.15
608.91	390.87
609.06	409.59
609.22	430.66
609.37	395.55
609.53	372.15
609.68	402.57
609.84	376.83
609.99	430.66
610.15	458.74
