SpectraSuite Data File
++++++++++++++++++++++++++++++++++++
Date: Fri Oct 25 12:10:07 EDT 2013
User: price-jones
Dark Spectrum Present: No
Reference Spectrum Present: No
Number of Sampled Component Spectra: 1
Spectrometers: USB2+H05261
Integration Time (usec): 100000 (USB2+H05261)
Spectra Averaged: 1 (USB2+H05261)
Boxcar Smoothing: 0 (USB2+H05261)
Correct for Electrical Dark: No (USB2+H05261)
Strobe/Lamp Enabled: No (USB2+H05261)
Correct for Detector Non-linearity: No (USB2+H05261)
Correct for Stray Light: No (USB2+H05261)
Number of Pixels in Processed Spectrum: 2048
>>>>>Begin Processed Spectral Data<<<<<
365.73	388.53
365.92	388.53
366.12	388.53
366.32	283.20
366.52	238.73
366.72	327.68
366.91	259.80
367.11	285.55
367.31	280.86
367.51	168.52
367.70	201.29
367.90	234.05
368.10	220.01
368.30	299.59
368.49	276.18
368.69	205.97
368.89	245.76
369.09	248.10
369.28	287.89
369.48	227.03
369.68	259.80
369.87	311.29
370.07	243.42
370.27	287.89
370.47	346.40
370.66	339.38
370.86	411.93
371.06	400.23
371.25	360.44
371.45	360.44
371.65	435.34
371.84	400.23
372.04	355.76
372.24	395.55
372.44	451.72
372.63	393.21
372.83	421.30
373.03	440.02
373.22	358.10
373.42	393.21
373.62	369.80
373.81	416.62
374.01	402.57
374.21	386.19
374.40	421.30
374.60	500.87
374.79	425.98
374.99	416.62
375.19	397.89
375.38	414.27
375.58	400.23
375.78	435.34
375.97	428.32
376.17	472.79
376.37	449.38
376.56	393.21
376.76	463.43
376.95	416.62
377.15	388.53
377.35	442.36
377.54	461.09
377.74	390.87
377.93	416.62
378.13	397.89
378.33	390.87
378.52	458.74
378.72	477.47
378.91	440.02
379.11	383.85
379.31	337.04
379.50	418.96
379.70	430.66
379.89	465.77
380.09	418.96
380.28	332.36
380.48	388.53
380.68	346.40
380.87	355.76
381.07	489.17
381.26	463.43
381.46	379.17
381.65	372.15
381.85	449.38
382.04	442.36
382.24	425.98
382.43	465.77
382.63	348.74
382.83	468.11
383.02	414.27
383.22	428.32
383.41	341.72
383.61	418.96
383.80	425.98
384.00	383.85
384.19	393.21
384.39	388.53
384.58	318.31
384.78	411.93
384.97	372.15
385.17	383.85
385.36	421.30
385.56	416.62
385.75	416.62
385.95	454.06
386.14	414.27
386.34	386.19
386.53	411.93
386.72	449.38
386.92	500.87
387.11	437.68
387.31	393.21
387.50	433.00
387.70	362.78
387.89	411.93
388.09	491.51
388.28	425.98
388.48	404.91
388.67	414.27
388.86	407.25
389.06	386.19
389.25	402.57
389.45	463.43
389.64	416.62
389.84	430.66
390.03	390.87
390.22	388.53
390.42	362.78
390.61	409.59
390.81	393.21
391.00	388.53
391.19	430.66
391.39	358.10
391.58	372.15
391.78	395.55
391.97	425.98
392.16	428.32
392.36	442.36
392.55	423.64
392.75	374.49
392.94	381.51
393.13	461.09
393.33	402.57
393.52	454.06
393.71	388.53
393.91	358.10
394.10	341.72
394.29	433.00
394.49	411.93
394.68	379.17
394.88	381.51
395.07	514.92
395.26	360.44
395.46	388.53
395.65	475.13
395.84	400.23
396.04	461.09
396.23	468.11
396.42	437.68
396.62	454.06
396.81	386.19
397.00	433.00
397.19	402.57
397.39	447.04
397.58	374.49
397.77	395.55
397.97	320.65
398.16	418.96
398.35	346.40
398.55	423.64
398.74	437.68
398.93	379.17
399.12	418.96
399.32	404.91
399.51	395.55
399.70	383.85
399.90	444.70
400.09	390.87
400.28	372.15
400.47	531.30
400.67	397.89
400.86	397.89
401.05	430.66
401.24	407.25
401.44	421.30
401.63	404.91
401.82	425.98
402.01	365.12
402.21	416.62
402.40	444.70
402.59	362.78
402.78	388.53
402.97	430.66
403.17	383.85
403.36	369.80
403.55	388.53
403.74	376.83
403.93	393.21
404.13	451.72
404.32	358.10
404.51	414.27
404.70	416.62
404.89	360.44
405.09	409.59
405.28	404.91
405.47	353.42
405.66	372.15
405.85	355.76
406.05	465.77
406.24	416.62
406.43	407.25
406.62	404.91
406.81	442.36
407.00	440.02
407.20	400.23
407.39	395.55
407.58	402.57
407.77	402.57
407.96	393.21
408.15	425.98
408.34	404.91
408.54	482.15
408.73	367.46
408.92	465.77
409.11	482.15
409.30	414.27
409.49	411.93
409.68	397.89
409.87	409.59
410.07	372.15
410.26	395.55
410.45	358.10
410.64	341.72
410.83	433.00
411.02	440.02
411.21	418.96
411.40	390.87
411.59	390.87
411.78	355.76
411.98	390.87
412.17	376.83
412.36	362.78
412.55	400.23
412.74	402.57
412.93	458.74
413.12	390.87
413.31	442.36
413.50	425.98
413.69	376.83
413.88	414.27
414.07	315.97
414.26	379.17
414.45	404.91
414.64	411.93
414.83	404.91
415.02	374.49
415.22	425.98
415.41	416.62
415.60	447.04
415.79	435.34
415.98	386.19
416.17	390.87
416.36	416.62
416.55	428.32
416.74	421.30
416.93	477.47
417.12	454.06
417.31	411.93
417.50	418.96
417.69	442.36
417.88	397.89
418.07	400.23
418.26	472.79
418.45	402.57
418.64	395.55
418.83	531.30
419.02	402.57
419.21	397.89
419.39	435.34
419.58	397.89
419.77	433.00
419.96	430.66
420.15	465.77
420.34	468.11
420.53	477.47
420.72	397.89
420.91	437.68
421.10	397.89
421.29	404.91
421.48	447.04
421.67	400.23
421.86	322.99
422.05	404.91
422.24	395.55
422.43	400.23
422.61	421.30
422.80	425.98
422.99	451.72
423.18	355.76
423.37	428.32
423.56	451.72
423.75	465.77
423.94	475.13
424.13	372.15
424.32	433.00
424.50	437.68
424.69	409.59
424.88	458.74
425.07	362.78
425.26	418.96
425.45	451.72
425.64	411.93
425.83	435.34
426.01	407.25
426.20	386.19
426.39	369.80
426.58	447.04
426.77	362.78
426.96	435.34
427.15	428.32
427.33	447.04
427.52	430.66
427.71	414.27
427.90	407.25
428.09	362.78
428.28	355.76
428.46	351.08
428.65	458.74
428.84	416.62
429.03	390.87
429.22	376.83
429.40	388.53
429.59	456.40
429.78	353.42
429.97	346.40
430.16	383.85
430.34	367.46
430.53	423.64
430.72	369.80
430.91	477.47
431.10	393.21
431.28	353.42
431.47	395.55
431.66	386.19
431.85	407.25
432.03	435.34
432.22	482.15
432.41	416.62
432.60	418.96
432.79	451.72
432.97	386.19
433.16	421.30
433.35	430.66
433.54	491.51
433.72	388.53
433.91	360.44
434.10	402.57
434.28	421.30
434.47	360.44
434.66	475.13
434.85	390.87
435.03	388.53
435.22	393.21
435.41	454.06
435.59	381.51
435.78	409.59
435.97	461.09
436.16	503.22
436.34	404.91
436.53	402.57
436.72	447.04
436.90	484.49
437.09	428.32
437.28	397.89
437.46	416.62
437.65	437.68
437.84	423.64
438.02	416.62
438.21	428.32
438.40	346.40
438.58	418.96
438.77	449.38
438.96	397.89
439.14	425.98
439.33	409.59
439.52	437.68
439.70	435.34
439.89	437.68
440.08	416.62
440.26	444.70
440.45	470.45
440.63	381.51
440.82	360.44
441.01	383.85
441.19	437.68
441.38	383.85
441.57	433.00
441.75	404.91
441.94	372.15
442.12	461.09
442.31	308.95
442.50	465.77
442.68	404.91
442.87	393.21
443.05	472.79
443.24	404.91
443.43	456.40
443.61	428.32
443.80	430.66
443.98	386.19
444.17	416.62
444.35	386.19
444.54	440.02
444.73	374.49
444.91	433.00
445.10	388.53
445.28	397.89
445.47	386.19
445.65	442.36
445.84	444.70
446.02	428.32
446.21	442.36
446.39	402.57
446.58	397.89
446.77	465.77
446.95	318.31
447.14	440.02
447.32	376.83
447.51	367.46
447.69	411.93
447.88	454.06
448.06	486.83
448.25	393.21
448.43	360.44
448.62	376.83
448.80	411.93
448.99	430.66
449.17	374.49
449.36	390.87
449.54	447.04
449.73	423.64
449.91	346.40
450.10	409.59
450.28	372.15
450.46	404.91
450.65	414.27
450.83	442.36
451.02	379.17
451.20	451.72
451.39	404.91
451.57	390.87
451.76	409.59
451.94	341.72
452.13	409.59
452.31	423.64
452.49	468.11
452.68	465.77
452.86	407.25
453.05	393.21
453.23	360.44
453.42	346.40
453.60	400.23
453.78	444.70
453.97	411.93
454.15	383.85
454.34	418.96
454.52	411.93
454.70	337.04
454.89	423.64
455.07	402.57
455.26	430.66
455.44	442.36
455.62	489.17
455.81	409.59
455.99	379.17
456.17	411.93
456.36	402.57
456.54	409.59
456.73	341.72
456.91	526.62
457.09	465.77
457.28	449.38
457.46	386.19
457.64	407.25
457.83	369.80
458.01	423.64
458.19	479.81
458.38	369.80
458.56	344.06
458.74	346.40
458.93	465.77
459.11	407.25
459.29	348.74
459.48	383.85
459.66	437.68
459.84	411.93
460.03	461.09
460.21	437.68
460.39	402.57
460.57	444.70
460.76	465.77
460.94	456.40
461.12	437.68
461.31	437.68
461.49	372.15
461.67	362.78
461.85	395.55
462.04	407.25
462.22	774.72
462.40	411.93
462.59	500.87
462.77	390.87
462.95	395.55
463.13	437.68
463.32	437.68
463.50	423.64
463.68	374.49
463.86	390.87
464.05	383.85
464.23	383.85
464.41	423.64
464.59	416.62
464.78	369.80
464.96	379.17
465.14	390.87
465.32	348.74
465.50	461.09
465.69	440.02
465.87	383.85
466.05	451.72
466.23	390.87
466.41	423.64
466.60	360.44
466.78	456.40
466.96	386.19
467.14	442.36
467.32	407.25
467.51	461.09
467.69	423.64
467.87	393.21
468.05	500.87
468.23	489.17
468.41	400.23
468.60	402.57
468.78	479.81
468.96	430.66
469.14	421.30
469.32	444.70
469.50	355.76
469.69	362.78
469.87	379.17
470.05	472.79
470.23	360.44
470.41	374.49
470.59	435.34
470.77	482.15
470.95	482.15
471.14	358.10
471.32	416.62
471.50	465.77
471.68	456.40
471.86	447.04
472.04	327.68
472.22	414.27
472.40	395.55
472.58	428.32
472.77	388.53
472.95	395.55
473.13	440.02
473.31	425.98
473.49	425.98
473.67	430.66
473.85	442.36
474.03	390.87
474.21	409.59
474.39	496.19
474.57	400.23
474.75	409.59
474.93	409.59
475.12	428.32
475.30	397.89
475.48	393.21
475.66	409.59
475.84	397.89
476.02	386.19
476.20	376.83
476.38	491.51
476.56	496.19
476.74	388.53
476.92	458.74
477.10	456.40
477.28	381.51
477.46	390.87
477.64	421.30
477.82	400.23
478.00	404.91
478.18	353.42
478.36	418.96
478.54	421.30
478.72	348.74
478.90	334.70
479.08	388.53
479.26	397.89
479.44	374.49
479.62	365.12
479.80	416.62
479.98	393.21
480.16	390.87
480.34	409.59
480.52	437.68
480.70	425.98
480.88	390.87
481.06	376.83
481.24	418.96
481.41	400.23
481.59	409.59
481.77	500.87
481.95	404.91
482.13	416.62
482.31	472.79
482.49	383.85
482.67	390.87
482.85	454.06
483.03	374.49
483.21	400.23
483.39	395.55
483.57	388.53
483.74	425.98
483.92	425.98
484.10	339.38
484.28	470.45
484.46	402.57
484.64	444.70
484.82	423.64
485.00	435.34
485.18	489.17
485.35	423.64
485.53	376.83
485.71	397.89
485.89	320.65
486.07	337.04
486.25	458.74
486.43	435.34
486.61	440.02
486.78	334.70
486.96	332.36
487.14	449.38
487.32	421.30
487.50	388.53
487.68	407.25
487.85	393.21
488.03	332.36
488.21	353.42
488.39	379.17
488.57	440.02
488.75	470.45
488.92	573.43
489.10	416.62
489.28	475.13
489.46	416.62
489.64	444.70
489.81	433.00
489.99	414.27
490.17	390.87
490.35	409.59
490.53	388.53
490.70	386.19
490.88	404.91
491.06	374.49
491.24	395.55
491.41	437.68
491.59	428.32
491.77	332.36
491.95	416.62
492.13	500.87
492.30	404.91
492.48	397.89
492.66	451.72
492.84	362.78
493.01	500.87
493.19	365.12
493.37	442.36
493.54	414.27
493.72	461.09
493.90	372.15
494.08	374.49
494.25	435.34
494.43	388.53
494.61	400.23
494.79	500.87
494.96	407.25
495.14	341.72
495.32	409.59
495.49	433.00
495.67	367.46
495.85	353.42
496.02	332.36
496.20	444.70
496.38	402.57
496.55	433.00
496.73	428.32
496.91	404.91
497.09	454.06
497.26	428.32
497.44	482.15
497.62	379.17
497.79	442.36
497.97	421.30
498.14	433.00
498.32	379.17
498.50	435.34
498.67	428.32
498.85	402.57
499.03	386.19
499.20	454.06
499.38	325.33
499.56	440.02
499.73	470.45
499.91	409.59
500.08	444.70
500.26	367.46
500.44	337.04
500.61	461.09
500.79	416.62
500.97	416.62
501.14	526.62
501.32	437.68
501.49	475.13
501.67	449.38
501.84	463.43
502.02	383.85
502.20	456.40
502.37	465.77
502.55	435.34
502.72	390.87
502.90	369.80
503.07	486.83
503.25	393.21
503.43	437.68
503.60	444.70
503.78	365.12
503.95	465.77
504.13	407.25
504.30	425.98
504.48	344.06
504.65	498.53
504.83	395.55
505.01	411.93
505.18	433.00
505.36	421.30
505.53	402.57
505.71	435.34
505.88	468.11
506.06	407.25
506.23	383.85
506.41	461.09
506.58	400.23
506.76	423.64
506.93	430.66
507.11	397.89
507.28	454.06
507.46	381.51
507.63	414.27
507.81	449.38
507.98	423.64
508.16	430.66
508.33	491.51
508.50	383.85
508.68	407.25
508.85	444.70
509.03	418.96
509.20	449.38
509.38	435.34
509.55	362.78
509.73	428.32
509.90	435.34
510.08	381.51
510.25	435.34
510.42	376.83
510.60	311.29
510.77	430.66
510.95	442.36
511.12	414.27
511.30	411.93
511.47	423.64
511.64	458.74
511.82	379.17
511.99	447.04
512.17	393.21
512.34	374.49
512.51	388.53
512.69	407.25
512.86	430.66
513.04	423.64
513.21	475.13
513.38	414.27
513.56	468.11
513.73	416.62
513.90	369.80
514.08	449.38
514.25	411.93
514.43	418.96
514.60	393.21
514.77	381.51
514.95	353.42
515.12	428.32
515.29	355.76
515.47	470.45
515.64	428.32
515.81	402.57
515.99	365.12
516.16	454.06
516.33	418.96
516.51	404.91
516.68	390.87
516.85	463.43
517.03	430.66
517.20	435.34
517.37	458.74
517.54	409.59
517.72	454.06
517.89	484.49
518.06	454.06
518.24	440.02
518.41	489.17
518.58	393.21
518.75	400.23
518.93	395.55
519.10	395.55
519.27	332.36
519.45	437.68
519.62	407.25
519.79	397.89
519.96	330.02
520.14	411.93
520.31	458.74
520.48	365.12
520.65	411.93
520.83	423.64
521.00	435.34
521.17	390.87
521.34	430.66
521.52	416.62
521.69	409.59
521.86	479.81
522.03	430.66
522.20	425.98
522.38	416.62
522.55	409.59
522.72	365.12
522.89	393.21
523.07	440.02
523.24	435.34
523.41	437.68
523.58	472.79
523.75	458.74
523.92	482.15
524.10	440.02
524.27	400.23
524.44	362.78
524.61	421.30
524.78	379.17
524.96	428.32
525.13	454.06
525.30	409.59
525.47	374.49
525.64	451.72
525.81	468.11
525.98	428.32
526.16	407.25
526.33	463.43
526.50	430.66
526.67	442.36
526.84	381.51
527.01	425.98
527.18	404.91
527.36	397.89
527.53	358.10
527.70	433.00
527.87	400.23
528.04	505.56
528.21	393.21
528.38	447.04
528.55	367.46
528.72	442.36
528.89	390.87
529.07	411.93
529.24	388.53
529.41	442.36
529.58	489.17
529.75	468.11
529.92	433.00
530.09	367.46
530.26	362.78
530.43	395.55
530.60	423.64
530.77	411.93
530.94	458.74
531.11	454.06
531.28	496.19
531.46	428.32
531.63	372.15
531.80	355.76
531.97	393.21
532.14	472.79
532.31	440.02
532.48	437.68
532.65	458.74
532.82	423.64
532.99	383.85
533.16	388.53
533.33	416.62
533.50	458.74
533.67	407.25
533.84	498.53
534.01	444.70
534.18	435.34
534.35	423.64
534.52	451.72
534.69	442.36
534.86	411.93
535.03	365.12
535.20	386.19
535.37	472.79
535.54	444.70
535.71	437.68
535.88	449.38
536.05	409.59
536.22	477.47
536.38	322.99
536.55	421.30
536.72	416.62
536.89	482.15
537.06	360.44
537.23	444.70
537.40	458.74
537.57	465.77
537.74	526.62
537.91	482.15
538.08	440.02
538.25	442.36
538.42	381.51
538.59	440.02
538.75	458.74
538.92	463.43
539.09	358.10
539.26	433.00
539.43	461.09
539.60	414.27
539.77	374.49
539.94	444.70
540.11	411.93
540.28	470.45
540.44	458.74
540.61	416.62
540.78	404.91
540.95	379.17
541.12	451.72
541.29	402.57
541.46	451.72
541.62	393.21
541.79	425.98
541.96	369.80
542.13	341.72
542.30	341.72
542.47	428.32
542.63	409.59
542.80	437.68
542.97	386.19
543.14	437.68
543.31	486.83
543.48	353.42
543.64	461.09
543.81	435.34
543.98	423.64
544.15	344.06
544.32	437.68
544.48	407.25
544.65	407.25
544.82	435.34
544.99	393.21
545.16	442.36
545.32	447.04
545.49	372.15
545.66	409.59
545.83	456.40
546.00	491.51
546.16	376.83
546.33	409.59
546.50	489.17
546.67	397.89
546.83	379.17
547.00	397.89
547.17	374.49
547.34	425.98
547.50	451.72
547.67	449.38
547.84	435.34
548.00	414.27
548.17	414.27
548.34	449.38
548.51	440.02
548.67	458.74
548.84	437.68
549.01	428.32
549.18	407.25
549.34	430.66
549.51	379.17
549.68	430.66
549.84	418.96
550.01	376.83
550.18	486.83
550.34	479.81
550.51	519.60
550.68	479.81
550.84	388.53
551.01	400.23
551.18	414.27
551.34	447.04
551.51	428.32
551.68	430.66
551.84	486.83
552.01	383.85
552.18	383.85
552.34	407.25
552.51	421.30
552.68	416.62
552.84	395.55
553.01	374.49
553.18	425.98
553.34	383.85
553.51	362.78
553.67	437.68
553.84	461.09
554.01	479.81
554.17	435.34
554.34	416.62
554.51	325.33
554.67	383.85
554.84	397.89
555.00	470.45
555.17	353.42
555.33	416.62
555.50	411.93
555.67	339.38
555.83	348.74
556.00	444.70
556.16	535.98
556.33	454.06
556.50	470.45
556.66	463.43
556.83	411.93
556.99	414.27
557.16	447.04
557.32	383.85
557.49	449.38
557.65	447.04
557.82	414.27
557.98	334.70
558.15	414.27
558.32	421.30
558.48	337.04
558.65	409.59
558.81	416.62
558.98	395.55
559.14	433.00
559.31	376.83
559.47	489.17
559.64	397.89
559.80	393.21
559.97	344.06
560.13	355.76
560.30	341.72
560.46	402.57
560.63	400.23
560.79	447.04
560.96	395.55
561.12	430.66
561.29	407.25
561.45	444.70
561.61	418.96
561.78	425.98
561.94	451.72
562.11	402.57
562.27	407.25
562.44	400.23
562.60	479.81
562.77	374.49
562.93	507.90
563.10	451.72
563.26	416.62
563.42	421.30
563.59	402.57
563.75	402.57
563.92	447.04
564.08	402.57
564.24	477.47
564.41	458.74
564.57	372.15
564.74	351.08
564.90	411.93
565.07	444.70
565.23	414.27
565.39	454.06
565.56	491.51
565.72	341.72
565.88	372.15
566.05	381.51
566.21	355.76
566.38	449.38
566.54	428.32
566.70	425.98
566.87	421.30
567.03	400.23
567.19	451.72
567.36	468.11
567.52	423.64
567.68	435.34
567.85	423.64
568.01	430.66
568.17	454.06
568.34	393.21
568.50	400.23
568.66	470.45
568.83	514.92
568.99	418.96
569.15	407.25
569.32	388.53
569.48	479.81
569.64	397.89
569.81	470.45
569.97	447.04
570.13	421.30
570.30	484.49
570.46	465.77
570.62	489.17
570.78	388.53
570.95	374.49
571.11	397.89
571.27	493.85
571.43	440.02
571.60	404.91
571.76	402.57
571.92	407.25
572.09	451.72
572.25	425.98
572.41	381.51
572.57	386.19
572.74	402.57
572.90	477.47
573.06	447.04
573.22	376.83
573.38	407.25
573.55	477.47
573.71	442.36
573.87	369.80
574.03	411.93
574.20	449.38
574.36	458.74
574.52	365.12
574.68	372.15
574.84	374.49
575.01	411.93
575.17	451.72
575.33	409.59
575.49	423.64
575.65	390.87
575.82	465.77
575.98	449.38
576.14	433.00
576.30	430.66
576.46	475.13
576.62	404.91
576.79	404.91
576.95	421.30
577.11	465.77
577.27	334.70
577.43	447.04
577.59	428.32
577.75	322.99
577.92	451.72
578.08	498.53
578.24	416.62
578.40	369.80
578.56	472.79
578.72	397.89
578.88	383.85
579.04	430.66
579.21	397.89
579.37	381.51
579.53	390.87
579.69	437.68
579.85	372.15
580.01	416.62
580.17	435.34
580.33	433.00
580.49	390.87
580.65	374.49
580.82	400.23
580.98	372.15
581.14	411.93
581.30	486.83
581.46	369.80
581.62	461.09
581.78	379.17
581.94	491.51
582.10	386.19
582.26	259.80
582.42	425.98
582.58	390.87
582.74	444.70
582.90	383.85
583.06	500.87
583.22	404.91
583.38	376.83
583.54	393.21
583.70	449.38
583.86	428.32
584.02	433.00
584.18	404.91
584.34	402.57
584.50	409.59
584.66	393.21
584.82	435.34
584.98	395.55
585.14	402.57
585.30	390.87
585.46	484.49
585.62	433.00
585.78	362.78
585.94	418.96
586.10	388.53
586.26	344.06
586.42	418.96
586.58	386.19
586.74	393.21
586.90	433.00
587.06	461.09
587.22	458.74
587.38	414.27
587.54	411.93
587.70	463.43
587.86	388.53
588.02	325.33
588.18	414.27
588.34	440.02
588.49	353.42
588.65	362.78
588.81	402.57
588.97	423.64
589.13	381.51
589.29	388.53
589.45	348.74
589.61	379.17
589.77	402.57
589.93	409.59
590.08	376.83
590.24	374.49
590.40	414.27
590.56	463.43
590.72	400.23
590.88	346.40
591.04	376.83
591.20	449.38
591.35	428.32
591.51	416.62
591.67	372.15
591.83	397.89
591.99	395.55
592.15	437.68
592.31	444.70
592.46	416.62
592.62	355.76
592.78	433.00
592.94	449.38
593.10	381.51
593.26	418.96
593.41	341.72
593.57	360.44
593.73	374.49
593.89	393.21
594.05	407.25
594.20	381.51
594.36	416.62
594.52	395.55
594.68	477.47
594.84	456.40
594.99	411.93
595.15	407.25
595.31	430.66
595.47	430.66
595.62	376.83
595.78	437.68
595.94	442.36
596.10	400.23
596.25	395.55
596.41	440.02
596.57	374.49
596.73	374.49
596.88	346.40
597.04	507.90
597.20	348.74
597.36	402.57
597.51	369.80
597.67	407.25
597.83	416.62
597.99	397.89
598.14	383.85
598.30	400.23
598.46	423.64
598.61	411.93
598.77	425.98
598.93	404.91
599.09	430.66
599.24	472.79
599.40	360.44
599.56	454.06
599.71	461.09
599.87	447.04
600.03	498.53
600.18	440.02
600.34	414.27
600.50	386.19
600.65	454.06
600.81	390.87
600.97	449.38
601.12	425.98
601.28	418.96
601.44	374.49
601.59	379.17
601.75	418.96
601.91	383.85
602.06	475.13
602.22	423.64
602.37	454.06
602.53	311.29
602.69	402.57
602.84	386.19
603.00	447.04
603.16	397.89
603.31	393.21
603.47	456.40
603.62	440.02
603.78	409.59
603.94	337.04
604.09	393.21
604.25	461.09
604.40	454.06
604.56	451.72
604.71	442.36
604.87	369.80
605.03	423.64
605.18	400.23
605.34	416.62
605.49	397.89
605.65	393.21
605.80	428.32
605.96	407.25
606.12	351.08
606.27	402.57
606.43	393.21
606.58	400.23
606.74	414.27
606.89	433.00
607.05	402.57
607.20	393.21
607.36	482.15
607.51	414.27
607.67	404.91
607.82	442.36
607.98	458.74
608.13	437.68
608.29	360.44
608.44	393.21
608.60	386.19
608.75	404.91
608.91	444.70
609.06	407.25
609.22	376.83
609.37	369.80
609.53	397.89
609.68	397.89
609.84	400.23
609.99	376.83
610.15	440.02
