SpectraSuite Data File
++++++++++++++++++++++++++++++++++++
Date: Fri Oct 25 12:10:16 EDT 2013
User: price-jones
Dark Spectrum Present: No
Reference Spectrum Present: No
Number of Sampled Component Spectra: 1
Spectrometers: USB2+H05261
Integration Time (usec): 100000 (USB2+H05261)
Spectra Averaged: 1 (USB2+H05261)
Boxcar Smoothing: 0 (USB2+H05261)
Correct for Electrical Dark: No (USB2+H05261)
Strobe/Lamp Enabled: No (USB2+H05261)
Correct for Detector Non-linearity: No (USB2+H05261)
Correct for Stray Light: No (USB2+H05261)
Number of Pixels in Processed Spectrum: 2048
>>>>>Begin Processed Spectral Data<<<<<
365.73	344.06
365.92	344.06
366.12	344.06
366.32	271.50
366.52	262.14
366.72	217.67
366.91	220.01
367.11	182.56
367.31	290.23
367.51	262.14
367.70	285.55
367.90	205.97
368.10	294.91
368.30	248.10
368.49	308.95
368.69	222.35
368.89	271.50
369.09	308.95
369.28	332.36
369.48	304.27
369.68	269.16
369.87	196.60
370.07	348.74
370.27	287.89
370.47	287.89
370.66	318.31
370.86	421.30
371.06	428.32
371.25	428.32
371.45	339.38
371.65	498.53
371.84	421.30
372.04	388.53
372.24	386.19
372.44	365.12
372.63	362.78
372.83	395.55
373.03	367.46
373.22	362.78
373.42	379.17
373.62	433.00
373.81	423.64
374.01	489.17
374.21	463.43
374.40	383.85
374.60	423.64
374.79	507.90
374.99	435.34
375.19	402.57
375.38	440.02
375.58	409.59
375.78	503.22
375.97	430.66
376.17	440.02
376.37	353.42
376.56	395.55
376.76	330.02
376.95	379.17
377.15	407.25
377.35	348.74
377.54	425.98
377.74	390.87
377.93	404.91
378.13	351.08
378.33	404.91
378.52	407.25
378.72	383.85
378.91	433.00
379.11	395.55
379.31	362.78
379.50	440.02
379.70	386.19
379.89	423.64
380.09	374.49
380.28	383.85
380.48	376.83
380.68	376.83
380.87	397.89
381.07	397.89
381.26	430.66
381.46	362.78
381.65	407.25
381.85	411.93
382.04	353.42
382.24	402.57
382.43	416.62
382.63	362.78
382.83	376.83
383.02	360.44
383.22	360.44
383.41	421.30
383.61	404.91
383.80	489.17
384.00	472.79
384.19	407.25
384.39	428.32
384.58	416.62
384.78	346.40
384.97	362.78
385.17	346.40
385.36	395.55
385.56	376.83
385.75	355.76
385.95	381.51
386.14	416.62
386.34	428.32
386.53	430.66
386.72	463.43
386.92	379.17
387.11	421.30
387.31	421.30
387.50	362.78
387.70	381.51
387.89	418.96
388.09	388.53
388.28	428.32
388.48	437.68
388.67	404.91
388.86	437.68
389.06	402.57
389.25	463.43
389.45	440.02
389.64	374.49
389.84	397.89
390.03	484.49
390.22	433.00
390.42	351.08
390.61	449.38
390.81	369.80
391.00	390.87
391.19	404.91
391.39	437.68
391.58	423.64
391.78	421.30
391.97	447.04
392.16	367.46
392.36	428.32
392.55	421.30
392.75	433.00
392.94	374.49
393.13	411.93
393.33	400.23
393.52	404.91
393.71	355.76
393.91	489.17
394.10	393.21
394.29	348.74
394.49	348.74
394.68	388.53
394.88	433.00
395.07	437.68
395.26	423.64
395.46	430.66
395.65	472.79
395.84	454.06
396.04	517.26
396.23	414.27
396.42	369.80
396.62	463.43
396.81	463.43
397.00	376.83
397.19	414.27
397.39	477.47
397.58	440.02
397.77	381.51
397.97	367.46
398.16	360.44
398.35	353.42
398.55	381.51
398.74	351.08
398.93	414.27
399.12	447.04
399.32	442.36
399.51	440.02
399.70	344.06
399.90	463.43
400.09	468.11
400.28	409.59
400.47	393.21
400.67	407.25
400.86	360.44
401.05	468.11
401.24	454.06
401.44	400.23
401.63	428.32
401.82	468.11
402.01	440.02
402.21	423.64
402.40	440.02
402.59	367.46
402.78	386.19
402.97	379.17
403.17	449.38
403.36	444.70
403.55	430.66
403.74	421.30
403.93	409.59
404.13	390.87
404.32	407.25
404.51	440.02
404.70	367.46
404.89	369.80
405.09	400.23
405.28	386.19
405.47	365.12
405.66	397.89
405.85	397.89
406.05	386.19
406.24	397.89
406.43	360.44
406.62	458.74
406.81	461.09
407.00	383.85
407.20	437.68
407.39	425.98
407.58	409.59
407.77	395.55
407.96	409.59
408.15	456.40
408.34	458.74
408.54	486.83
408.73	482.15
408.92	416.62
409.11	395.55
409.30	461.09
409.49	423.64
409.68	369.80
409.87	402.57
410.07	372.15
410.26	435.34
410.45	435.34
410.64	411.93
410.83	486.83
411.02	367.46
411.21	433.00
411.40	376.83
411.59	390.87
411.78	430.66
411.98	433.00
412.17	383.85
412.36	407.25
412.55	400.23
412.74	496.19
412.93	414.27
413.12	397.89
413.31	489.17
413.50	386.19
413.69	332.36
413.88	470.45
414.07	468.11
414.26	372.15
414.45	404.91
414.64	428.32
414.83	454.06
415.02	365.12
415.22	411.93
415.41	477.47
415.60	379.17
415.79	433.00
415.98	444.70
416.17	386.19
416.36	348.74
416.55	416.62
416.74	435.34
416.93	437.68
417.12	418.96
417.31	428.32
417.50	449.38
417.69	400.23
417.88	428.32
418.07	402.57
418.26	421.30
418.45	376.83
418.64	489.17
418.83	454.06
419.02	470.45
419.21	397.89
419.39	400.23
419.58	430.66
419.77	449.38
419.96	425.98
420.15	400.23
420.34	465.77
420.53	458.74
420.72	440.02
420.91	397.89
421.10	425.98
421.29	367.46
421.48	390.87
421.67	479.81
421.86	388.53
422.05	468.11
422.24	388.53
422.43	369.80
422.61	442.36
422.80	379.17
422.99	351.08
423.18	367.46
423.37	444.70
423.56	351.08
423.75	337.04
423.94	320.65
424.13	411.93
424.32	430.66
424.50	372.15
424.69	400.23
424.88	440.02
425.07	440.02
425.26	395.55
425.45	437.68
425.64	430.66
425.83	362.78
426.01	463.43
426.20	339.38
426.39	379.17
426.58	421.30
426.77	386.19
426.96	372.15
427.15	404.91
427.33	454.06
427.52	407.25
427.71	416.62
427.90	390.87
428.09	341.72
428.28	355.76
428.46	409.59
428.65	442.36
428.84	383.85
429.03	482.15
429.22	400.23
429.40	393.21
429.59	374.49
429.78	418.96
429.97	362.78
430.16	423.64
430.34	365.12
430.53	428.32
430.72	411.93
430.91	447.04
431.10	411.93
431.28	379.17
431.47	458.74
431.66	456.40
431.85	376.83
432.03	369.80
432.22	449.38
432.41	416.62
432.60	351.08
432.79	447.04
432.97	491.51
433.16	437.68
433.35	376.83
433.54	421.30
433.72	454.06
433.91	414.27
434.10	360.44
434.28	421.30
434.47	360.44
434.66	416.62
434.85	341.72
435.03	402.57
435.22	418.96
435.41	421.30
435.59	390.87
435.78	393.21
435.97	433.00
436.16	362.78
436.34	428.32
436.53	393.21
436.72	454.06
436.90	407.25
437.09	435.34
437.28	379.17
437.46	320.65
437.65	388.53
437.84	376.83
438.02	435.34
438.21	470.45
438.40	477.47
438.58	390.87
438.77	379.17
438.96	428.32
439.14	369.80
439.33	386.19
439.52	463.43
439.70	358.10
439.89	449.38
440.08	386.19
440.26	451.72
440.45	468.11
440.63	421.30
440.82	463.43
441.01	430.66
441.19	440.02
441.38	433.00
441.57	489.17
441.75	484.49
441.94	454.06
442.12	351.08
442.31	395.55
442.50	362.78
442.68	374.49
442.87	404.91
443.05	409.59
443.24	395.55
443.43	484.49
443.61	416.62
443.80	376.83
443.98	339.38
444.17	421.30
444.35	425.98
444.54	402.57
444.73	461.09
444.91	423.64
445.10	407.25
445.28	393.21
445.47	395.55
445.65	416.62
445.84	437.68
446.02	390.87
446.21	421.30
446.39	393.21
446.58	442.36
446.77	430.66
446.95	386.19
447.14	374.49
447.32	421.30
447.51	383.85
447.69	414.27
447.88	402.57
448.06	449.38
448.25	447.04
448.43	400.23
448.62	367.46
448.80	458.74
448.99	411.93
449.17	390.87
449.36	383.85
449.54	444.70
449.73	397.89
449.91	313.63
450.10	435.34
450.28	454.06
450.46	414.27
450.65	421.30
450.83	430.66
451.02	362.78
451.20	484.49
451.39	334.70
451.57	440.02
451.76	407.25
451.94	393.21
452.13	402.57
452.31	456.40
452.49	451.72
452.68	388.53
452.86	374.49
453.05	454.06
453.23	379.17
453.42	416.62
453.60	395.55
453.78	367.46
453.97	393.21
454.15	383.85
454.34	449.38
454.52	334.70
454.70	409.59
454.89	442.36
455.07	397.89
455.26	423.64
455.44	383.85
455.62	372.15
455.81	433.00
455.99	367.46
456.17	449.38
456.36	334.70
456.54	425.98
456.73	486.83
456.91	418.96
457.09	386.19
457.28	461.09
457.46	430.66
457.64	402.57
457.83	372.15
458.01	409.59
458.19	395.55
458.38	423.64
458.56	416.62
458.74	411.93
458.93	442.36
459.11	400.23
459.29	383.85
459.48	353.42
459.66	447.04
459.84	411.93
460.03	475.13
460.21	428.32
460.39	362.78
460.57	383.85
460.76	489.17
460.94	383.85
461.12	346.40
461.31	421.30
461.49	397.89
461.67	449.38
461.85	393.21
462.04	416.62
462.22	730.25
462.40	381.51
462.59	418.96
462.77	407.25
462.95	423.64
463.13	404.91
463.32	421.30
463.50	376.83
463.68	418.96
463.86	433.00
464.05	376.83
464.23	411.93
464.41	463.43
464.59	454.06
464.78	428.32
464.96	433.00
465.14	444.70
465.32	442.36
465.50	360.44
465.69	404.91
465.87	388.53
466.05	500.87
466.23	341.72
466.41	395.55
466.60	372.15
466.78	435.34
466.96	440.02
467.14	468.11
467.32	451.72
467.51	404.91
467.69	444.70
467.87	435.34
468.05	449.38
468.23	372.15
468.41	416.62
468.60	400.23
468.78	411.93
468.96	425.98
469.14	458.74
469.32	411.93
469.50	407.25
469.69	379.17
469.87	397.89
470.05	421.30
470.23	458.74
470.41	421.30
470.59	386.19
470.77	402.57
470.95	428.32
471.14	416.62
471.32	409.59
471.50	409.59
471.68	468.11
471.86	411.93
472.04	477.47
472.22	449.38
472.40	430.66
472.58	411.93
472.77	374.49
472.95	470.45
473.13	463.43
473.31	400.23
473.49	369.80
473.67	372.15
473.85	334.70
474.03	402.57
474.21	493.85
474.39	425.98
474.57	411.93
474.75	390.87
474.93	402.57
475.12	353.42
475.30	360.44
475.48	418.96
475.66	400.23
475.84	458.74
476.02	414.27
476.20	425.98
476.38	423.64
476.56	437.68
476.74	435.34
476.92	395.55
477.10	390.87
477.28	411.93
477.46	402.57
477.64	442.36
477.82	489.17
478.00	395.55
478.18	407.25
478.36	414.27
478.54	421.30
478.72	421.30
478.90	379.17
479.08	425.98
479.26	414.27
479.44	355.76
479.62	337.04
479.80	304.27
479.98	334.70
480.16	407.25
480.34	360.44
480.52	456.40
480.70	465.77
480.88	433.00
481.06	423.64
481.24	402.57
481.41	447.04
481.59	444.70
481.77	444.70
481.95	456.40
482.13	423.64
482.31	397.89
482.49	393.21
482.67	437.68
482.85	400.23
483.03	437.68
483.21	447.04
483.39	353.42
483.57	447.04
483.74	360.44
483.92	416.62
484.10	388.53
484.28	383.85
484.46	547.69
484.64	423.64
484.82	358.10
485.00	442.36
485.18	409.59
485.35	376.83
485.53	348.74
485.71	479.81
485.89	442.36
486.07	402.57
486.25	437.68
486.43	376.83
486.61	454.06
486.78	397.89
486.96	390.87
487.14	421.30
487.32	416.62
487.50	437.68
487.68	421.30
487.85	383.85
488.03	423.64
488.21	416.62
488.39	451.72
488.57	433.00
488.75	423.64
488.92	531.30
489.10	440.02
489.28	444.70
489.46	404.91
489.64	465.77
489.81	388.53
489.99	435.34
490.17	442.36
490.35	430.66
490.53	442.36
490.70	428.32
490.88	489.17
491.06	365.12
491.24	435.34
491.41	348.74
491.59	440.02
491.77	372.15
491.95	411.93
492.13	374.49
492.30	344.06
492.48	395.55
492.66	423.64
492.84	430.66
493.01	400.23
493.19	454.06
493.37	386.19
493.54	409.59
493.72	404.91
493.90	425.98
494.08	447.04
494.25	444.70
494.43	386.19
494.61	407.25
494.79	388.53
494.96	454.06
495.14	437.68
495.32	463.43
495.49	409.59
495.67	400.23
495.85	470.45
496.02	365.12
496.20	475.13
496.38	386.19
496.55	397.89
496.73	404.91
496.91	372.15
497.09	407.25
497.26	468.11
497.44	393.21
497.62	442.36
497.79	486.83
497.97	369.80
498.14	503.22
498.32	411.93
498.50	416.62
498.67	437.68
498.85	449.38
499.03	411.93
499.20	386.19
499.38	365.12
499.56	425.98
499.73	407.25
499.91	423.64
500.08	379.17
500.26	430.66
500.44	372.15
500.61	400.23
500.79	411.93
500.97	346.40
501.14	447.04
501.32	388.53
501.49	425.98
501.67	379.17
501.84	435.34
502.02	430.66
502.20	503.22
502.37	465.77
502.55	430.66
502.72	383.85
502.90	400.23
503.07	442.36
503.25	447.04
503.43	358.10
503.60	498.53
503.78	430.66
503.95	449.38
504.13	435.34
504.30	456.40
504.48	393.21
504.65	416.62
504.83	463.43
505.01	393.21
505.18	402.57
505.36	421.30
505.53	367.46
505.71	416.62
505.88	374.49
506.06	444.70
506.23	386.19
506.41	290.23
506.58	465.77
506.76	440.02
506.93	477.47
507.11	428.32
507.28	435.34
507.46	332.36
507.63	400.23
507.81	397.89
507.98	447.04
508.16	482.15
508.33	367.46
508.50	425.98
508.68	425.98
508.85	386.19
509.03	360.44
509.20	447.04
509.38	374.49
509.55	465.77
509.73	430.66
509.90	379.17
510.08	465.77
510.25	418.96
510.42	393.21
510.60	418.96
510.77	437.68
510.95	381.51
511.12	390.87
511.30	498.53
511.47	433.00
511.64	435.34
511.82	386.19
511.99	402.57
512.17	390.87
512.34	404.91
512.51	423.64
512.69	409.59
512.86	454.06
513.04	400.23
513.21	369.80
513.38	367.46
513.56	418.96
513.73	397.89
513.90	407.25
514.08	421.30
514.25	409.59
514.43	454.06
514.60	458.74
514.77	416.62
514.95	372.15
515.12	311.29
515.29	416.62
515.47	376.83
515.64	440.02
515.81	374.49
515.99	468.11
516.16	498.53
516.33	465.77
516.51	395.55
516.68	400.23
516.85	414.27
517.03	402.57
517.20	444.70
517.37	440.02
517.54	409.59
517.72	383.85
517.89	404.91
518.06	507.90
518.24	512.58
518.41	503.22
518.58	444.70
518.75	395.55
518.93	414.27
519.10	381.51
519.27	400.23
519.45	402.57
519.62	330.02
519.79	402.57
519.96	379.17
520.14	409.59
520.31	444.70
520.48	383.85
520.65	489.17
520.83	421.30
521.00	433.00
521.17	383.85
521.34	418.96
521.52	449.38
521.69	458.74
521.86	402.57
522.03	400.23
522.20	411.93
522.38	468.11
522.55	414.27
522.72	454.06
522.89	409.59
523.07	458.74
523.24	400.23
523.41	433.00
523.58	400.23
523.75	383.85
523.92	479.81
524.10	447.04
524.27	428.32
524.44	475.13
524.61	451.72
524.78	393.21
524.96	402.57
525.13	400.23
525.30	454.06
525.47	376.83
525.64	379.17
525.81	451.72
525.98	433.00
526.16	444.70
526.33	393.21
526.50	416.62
526.67	454.06
526.84	435.34
527.01	423.64
527.18	475.13
527.36	404.91
527.53	442.36
527.70	418.96
527.87	430.66
528.04	442.36
528.21	425.98
528.38	437.68
528.55	430.66
528.72	465.77
528.89	447.04
529.07	376.83
529.24	400.23
529.41	421.30
529.58	465.77
529.75	440.02
529.92	449.38
530.09	418.96
530.26	440.02
530.43	390.87
530.60	365.12
530.77	430.66
530.94	437.68
531.11	425.98
531.28	421.30
531.46	348.74
531.63	433.00
531.80	440.02
531.97	449.38
532.14	407.25
532.31	348.74
532.48	428.32
532.65	416.62
532.82	482.15
532.99	365.12
533.16	407.25
533.33	421.30
533.50	386.19
533.67	463.43
533.84	437.68
534.01	465.77
534.18	437.68
534.35	374.49
534.52	322.99
534.69	365.12
534.86	428.32
535.03	409.59
535.20	425.98
535.37	425.98
535.54	437.68
535.71	360.44
535.88	458.74
536.05	400.23
536.22	468.11
536.38	404.91
536.55	461.09
536.72	447.04
536.89	330.02
537.06	414.27
537.23	416.62
537.40	442.36
537.57	374.49
537.74	479.81
537.91	433.00
538.08	433.00
538.25	479.81
538.42	435.34
538.59	416.62
538.75	395.55
538.92	390.87
539.09	397.89
539.26	447.04
539.43	479.81
539.60	430.66
539.77	409.59
539.94	362.78
540.11	379.17
540.28	423.64
540.44	386.19
540.61	369.80
540.78	381.51
540.95	416.62
541.12	421.30
541.29	374.49
541.46	461.09
541.62	409.59
541.79	451.72
541.96	376.83
542.13	470.45
542.30	451.72
542.47	528.96
542.63	411.93
542.80	416.62
542.97	390.87
543.14	477.47
543.31	404.91
543.48	395.55
543.64	430.66
543.81	397.89
543.98	454.06
544.15	447.04
544.32	468.11
544.48	386.19
544.65	421.30
544.82	444.70
544.99	437.68
545.16	479.81
545.32	402.57
545.49	355.76
545.66	475.13
545.83	379.17
546.00	510.24
546.16	423.64
546.33	449.38
546.50	393.21
546.67	421.30
546.83	388.53
547.00	397.89
547.17	374.49
547.34	393.21
547.50	367.46
547.67	404.91
547.84	486.83
548.00	423.64
548.17	423.64
548.34	430.66
548.51	374.49
548.67	465.77
548.84	344.06
549.01	418.96
549.18	409.59
549.34	381.51
549.51	402.57
549.68	418.96
549.84	330.02
550.01	409.59
550.18	449.38
550.34	402.57
550.51	458.74
550.68	447.04
550.84	498.53
551.01	362.78
551.18	440.02
551.34	379.17
551.51	381.51
551.68	407.25
551.84	454.06
552.01	409.59
552.18	423.64
552.34	395.55
552.51	425.98
552.68	433.00
552.84	362.78
553.01	433.00
553.18	472.79
553.34	407.25
553.51	468.11
553.67	428.32
553.84	437.68
554.01	472.79
554.17	433.00
554.34	404.91
554.51	442.36
554.67	435.34
554.84	519.60
555.00	376.83
555.17	360.44
555.33	360.44
555.50	322.99
555.67	409.59
555.83	484.49
556.00	425.98
556.16	517.26
556.33	477.47
556.50	418.96
556.66	425.98
556.83	411.93
556.99	383.85
557.16	421.30
557.32	393.21
557.49	404.91
557.65	409.59
557.82	418.96
557.98	397.89
558.15	414.27
558.32	468.11
558.48	418.96
558.65	435.34
558.81	505.56
558.98	421.30
559.14	348.74
559.31	442.36
559.47	409.59
559.64	416.62
559.80	428.32
559.97	454.06
560.13	428.32
560.30	449.38
560.46	383.85
560.63	442.36
560.79	404.91
560.96	437.68
561.12	404.91
561.29	454.06
561.45	444.70
561.61	454.06
561.78	538.32
561.94	386.19
562.11	418.96
562.27	447.04
562.44	463.43
562.60	379.17
562.77	367.46
562.93	444.70
563.10	458.74
563.26	447.04
563.42	435.34
563.59	435.34
563.75	454.06
563.92	425.98
564.08	463.43
564.24	421.30
564.41	458.74
564.57	407.25
564.74	400.23
564.90	383.85
565.07	386.19
565.23	482.15
565.39	400.23
565.56	470.45
565.72	468.11
565.88	344.06
566.05	458.74
566.21	435.34
566.38	395.55
566.54	339.38
566.70	407.25
566.87	456.40
567.03	308.95
567.19	418.96
567.36	416.62
567.52	409.59
567.68	421.30
567.85	486.83
568.01	461.09
568.17	411.93
568.34	435.34
568.50	458.74
568.66	390.87
568.83	442.36
568.99	465.77
569.15	388.53
569.32	367.46
569.48	362.78
569.64	376.83
569.81	484.49
569.97	465.77
570.13	444.70
570.30	418.96
570.46	411.93
570.62	409.59
570.78	425.98
570.95	451.72
571.11	404.91
571.27	505.56
571.43	463.43
571.60	414.27
571.76	367.46
571.92	416.62
572.09	416.62
572.25	376.83
572.41	423.64
572.57	440.02
572.74	496.19
572.90	468.11
573.06	461.09
573.22	477.47
573.38	430.66
573.55	472.79
573.71	472.79
573.87	479.81
574.03	360.44
574.20	353.42
574.36	461.09
574.52	442.36
574.68	437.68
574.84	400.23
575.01	454.06
575.17	465.77
575.33	362.78
575.49	482.15
575.65	418.96
575.82	465.77
575.98	365.12
576.14	491.51
576.30	465.77
576.46	463.43
576.62	416.62
576.79	489.17
576.95	451.72
577.11	442.36
577.27	447.04
577.43	451.72
577.59	482.15
577.75	442.36
577.92	404.91
578.08	346.40
578.24	355.76
578.40	444.70
578.56	435.34
578.72	381.51
578.88	402.57
579.04	442.36
579.21	369.80
579.37	393.21
579.53	510.24
579.69	416.62
579.85	428.32
580.01	470.45
580.17	411.93
580.33	423.64
580.49	475.13
580.65	465.77
580.82	376.83
580.98	330.02
581.14	400.23
581.30	447.04
581.46	395.55
581.62	456.40
581.78	402.57
581.94	468.11
582.10	423.64
582.26	334.70
582.42	397.89
582.58	505.56
582.74	397.89
582.90	430.66
583.06	404.91
583.22	390.87
583.38	428.32
583.54	444.70
583.70	411.93
583.86	386.19
584.02	362.78
584.18	433.00
584.34	454.06
584.50	411.93
584.66	409.59
584.82	435.34
584.98	458.74
585.14	362.78
585.30	437.68
585.46	461.09
585.62	393.21
585.78	458.74
585.94	456.40
586.10	409.59
586.26	397.89
586.42	433.00
586.58	463.43
586.74	369.80
586.90	454.06
587.06	388.53
587.22	418.96
587.38	442.36
587.54	449.38
587.70	381.51
587.86	421.30
588.02	475.13
588.18	379.17
588.34	475.13
588.49	423.64
588.65	390.87
588.81	465.77
588.97	365.12
589.13	425.98
589.29	423.64
589.45	423.64
589.61	437.68
589.77	421.30
589.93	425.98
590.08	358.10
590.24	400.23
590.40	437.68
590.56	451.72
590.72	376.83
590.88	353.42
591.04	416.62
591.20	449.38
591.35	454.06
591.51	416.62
591.67	402.57
591.83	372.15
591.99	411.93
592.15	402.57
592.31	433.00
592.46	393.21
592.62	465.77
592.78	397.89
592.94	463.43
593.10	311.29
593.26	404.91
593.41	456.40
593.57	425.98
593.73	421.30
593.89	465.77
594.05	397.89
594.20	386.19
594.36	475.13
594.52	423.64
594.68	447.04
594.84	423.64
594.99	538.32
595.15	470.45
595.31	397.89
595.47	404.91
595.62	386.19
595.78	423.64
595.94	332.36
596.10	435.34
596.25	390.87
596.41	379.17
596.57	374.49
596.73	423.64
596.88	379.17
597.04	461.09
597.20	435.34
597.36	409.59
597.51	362.78
597.67	421.30
597.83	365.12
597.99	428.32
598.14	451.72
598.30	381.51
598.46	376.83
598.61	465.77
598.77	458.74
598.93	360.44
599.09	339.38
599.24	367.46
599.40	444.70
599.56	451.72
599.71	411.93
599.87	395.55
600.03	477.47
600.18	379.17
600.34	500.87
600.50	465.77
600.65	388.53
600.81	458.74
600.97	477.47
601.12	395.55
601.28	444.70
601.44	435.34
601.59	411.93
601.75	428.32
601.91	423.64
602.06	404.91
602.22	435.34
602.37	409.59
602.53	379.17
602.69	402.57
602.84	414.27
603.00	402.57
603.16	409.59
603.31	416.62
603.47	402.57
603.62	372.15
603.78	402.57
603.94	468.11
604.09	433.00
604.25	454.06
604.40	440.02
604.56	458.74
604.71	442.36
604.87	437.68
605.03	390.87
605.18	400.23
605.34	486.83
605.49	498.53
605.65	409.59
605.80	409.59
605.96	407.25
606.12	442.36
606.27	383.85
606.43	433.00
606.58	411.93
606.74	395.55
606.89	404.91
607.05	402.57
607.20	334.70
607.36	369.80
607.51	393.21
607.67	496.19
607.82	416.62
607.98	449.38
608.13	442.36
608.29	407.25
608.44	351.08
608.60	465.77
608.75	425.98
608.91	435.34
609.06	454.06
609.22	461.09
609.37	390.87
609.53	362.78
609.68	367.46
609.84	400.23
609.99	472.79
610.15	374.49
