SpectraSuite Data File
++++++++++++++++++++++++++++++++++++
Date: Fri Oct 25 12:11:21 EDT 2013
User: price-jones
Dark Spectrum Present: No
Reference Spectrum Present: No
Number of Sampled Component Spectra: 1
Spectrometers: USB2+H05261
Integration Time (usec): 100000 (USB2+H05261)
Spectra Averaged: 1 (USB2+H05261)
Boxcar Smoothing: 0 (USB2+H05261)
Correct for Electrical Dark: No (USB2+H05261)
Strobe/Lamp Enabled: No (USB2+H05261)
Correct for Detector Non-linearity: No (USB2+H05261)
Correct for Stray Light: No (USB2+H05261)
Number of Pixels in Processed Spectrum: 2048
>>>>>Begin Processed Spectral Data<<<<<
365.73	341.72
365.92	341.72
366.12	341.72
366.32	203.63
366.52	222.35
366.72	276.18
366.91	243.42
367.11	318.31
367.31	229.37
367.51	170.86
367.70	259.80
367.90	236.39
368.10	208.31
368.30	266.82
368.49	203.63
368.69	245.76
368.89	283.20
369.09	271.50
369.28	308.95
369.48	278.52
369.68	283.20
369.87	327.68
370.07	332.36
370.27	290.23
370.47	360.44
370.66	308.95
370.86	351.08
371.06	395.55
371.25	411.93
371.45	379.17
371.65	362.78
371.84	390.87
372.04	395.55
372.24	360.44
372.44	395.55
372.63	425.98
372.83	400.23
373.03	402.57
373.22	400.23
373.42	409.59
373.62	454.06
373.81	388.53
374.01	388.53
374.21	430.66
374.40	404.91
374.60	477.47
374.79	433.00
374.99	425.98
375.19	430.66
375.38	510.24
375.58	402.57
375.78	397.89
375.97	402.57
376.17	484.49
376.37	411.93
376.56	540.66
376.76	362.78
376.95	339.38
377.15	428.32
377.35	397.89
377.54	454.06
377.74	355.76
377.93	397.89
378.13	418.96
378.33	440.02
378.52	475.13
378.72	369.80
378.91	334.70
379.11	365.12
379.31	444.70
379.50	437.68
379.70	475.13
379.89	397.89
380.09	409.59
380.28	442.36
380.48	425.98
380.68	376.83
380.87	297.25
381.07	416.62
381.26	395.55
381.46	351.08
381.65	372.15
381.85	421.30
382.04	433.00
382.24	379.17
382.43	381.51
382.63	397.89
382.83	435.34
383.02	411.93
383.22	407.25
383.41	440.02
383.61	390.87
383.80	451.72
384.00	383.85
384.19	362.78
384.39	400.23
384.58	355.76
384.78	337.04
384.97	456.40
385.17	404.91
385.36	402.57
385.56	465.77
385.75	447.04
385.95	421.30
386.14	498.53
386.34	393.21
386.53	470.45
386.72	381.51
386.92	425.98
387.11	428.32
387.31	414.27
387.50	425.98
387.70	388.53
387.89	358.10
388.09	365.12
388.28	320.65
388.48	404.91
388.67	414.27
388.86	418.96
389.06	409.59
389.25	437.68
389.45	351.08
389.64	397.89
389.84	341.72
390.03	360.44
390.22	428.32
390.42	367.46
390.61	402.57
390.81	397.89
391.00	381.51
391.19	369.80
391.39	421.30
391.58	425.98
391.78	404.91
391.97	348.74
392.16	416.62
392.36	470.45
392.55	404.91
392.75	407.25
392.94	425.98
393.13	355.76
393.33	390.87
393.52	369.80
393.71	428.32
393.91	454.06
394.10	372.15
394.29	423.64
394.49	407.25
394.68	390.87
394.88	365.12
395.07	407.25
395.26	451.72
395.46	425.98
395.65	425.98
395.84	454.06
396.04	428.32
396.23	416.62
396.42	395.55
396.62	397.89
396.81	358.10
397.00	376.83
397.19	479.81
397.39	414.27
397.58	360.44
397.77	423.64
397.97	358.10
398.16	402.57
398.35	421.30
398.55	430.66
398.74	423.64
398.93	440.02
399.12	454.06
399.32	461.09
399.51	383.85
399.70	320.65
399.90	433.00
400.09	437.68
400.28	458.74
400.47	374.49
400.67	379.17
400.86	386.19
401.05	512.58
401.24	400.23
401.44	421.30
401.63	421.30
401.82	447.04
402.01	379.17
402.21	461.09
402.40	451.72
402.59	402.57
402.78	351.08
402.97	402.57
403.17	437.68
403.36	386.19
403.55	428.32
403.74	379.17
403.93	411.93
404.13	397.89
404.32	418.96
404.51	372.15
404.70	468.11
404.89	390.87
405.09	365.12
405.28	411.93
405.47	369.80
405.66	489.17
405.85	425.98
406.05	409.59
406.24	411.93
406.43	304.27
406.62	411.93
406.81	470.45
407.00	383.85
407.20	484.49
407.39	433.00
407.58	393.21
407.77	416.62
407.96	376.83
408.15	388.53
408.34	388.53
408.54	320.65
408.73	414.27
408.92	472.79
409.11	430.66
409.30	428.32
409.49	358.10
409.68	325.33
409.87	418.96
410.07	416.62
410.26	407.25
410.45	423.64
410.64	327.68
410.83	444.70
411.02	444.70
411.21	437.68
411.40	430.66
411.59	358.10
411.78	353.42
411.98	404.91
412.17	407.25
412.36	346.40
412.55	418.96
412.74	440.02
412.93	418.96
413.12	304.27
413.31	372.15
413.50	425.98
413.69	344.06
413.88	423.64
414.07	407.25
414.26	404.91
414.45	421.30
414.64	374.49
414.83	423.64
415.02	367.46
415.22	400.23
415.41	374.49
415.60	388.53
415.79	374.49
415.98	430.66
416.17	374.49
416.36	416.62
416.55	433.00
416.74	402.57
416.93	339.38
417.12	442.36
417.31	444.70
417.50	386.19
417.69	411.93
417.88	404.91
418.07	383.85
418.26	421.30
418.45	402.57
418.64	388.53
418.83	395.55
419.02	386.19
419.21	484.49
419.39	447.04
419.58	425.98
419.77	447.04
419.96	390.87
420.15	428.32
420.34	435.34
420.53	451.72
420.72	416.62
420.91	433.00
421.10	416.62
421.29	376.83
421.48	440.02
421.67	463.43
421.86	421.30
422.05	435.34
422.24	433.00
422.43	433.00
422.61	449.38
422.80	461.09
422.99	428.32
423.18	369.80
423.37	468.11
423.56	390.87
423.75	414.27
423.94	447.04
424.13	400.23
424.32	404.91
424.50	400.23
424.69	388.53
424.88	416.62
425.07	388.53
425.26	402.57
425.45	433.00
425.64	379.17
425.83	456.40
426.01	353.42
426.20	374.49
426.39	395.55
426.58	416.62
426.77	395.55
426.96	440.02
427.15	367.46
427.33	353.42
427.52	393.21
427.71	402.57
427.90	400.23
428.09	435.34
428.28	433.00
428.46	304.27
428.65	400.23
428.84	433.00
429.03	465.77
429.22	390.87
429.40	442.36
429.59	411.93
429.78	421.30
429.97	351.08
430.16	430.66
430.34	444.70
430.53	409.59
430.72	407.25
430.91	414.27
431.10	440.02
431.28	411.93
431.47	400.23
431.66	425.98
431.85	376.83
432.03	400.23
432.22	465.77
432.41	449.38
432.60	393.21
432.79	461.09
432.97	409.59
433.16	421.30
433.35	425.98
433.54	421.30
433.72	400.23
433.91	421.30
434.10	365.12
434.28	468.11
434.47	390.87
434.66	444.70
434.85	351.08
435.03	411.93
435.22	409.59
435.41	451.72
435.59	374.49
435.78	428.32
435.97	437.68
436.16	400.23
436.34	428.32
436.53	454.06
436.72	416.62
436.90	428.32
437.09	418.96
437.28	374.49
437.46	409.59
437.65	393.21
437.84	470.45
438.02	407.25
438.21	404.91
438.40	407.25
438.58	376.83
438.77	360.44
438.96	430.66
439.14	402.57
439.33	430.66
439.52	418.96
439.70	369.80
439.89	468.11
440.08	344.06
440.26	330.02
440.45	411.93
440.63	442.36
440.82	440.02
441.01	355.76
441.19	348.74
441.38	365.12
441.57	430.66
441.75	425.98
441.94	435.34
442.12	367.46
442.31	390.87
442.50	334.70
442.68	454.06
442.87	430.66
443.05	362.78
443.24	390.87
443.43	435.34
443.61	411.93
443.80	402.57
443.98	397.89
444.17	418.96
444.35	421.30
444.54	425.98
444.73	416.62
444.91	465.77
445.10	477.47
445.28	332.36
445.47	430.66
445.65	390.87
445.84	430.66
446.02	407.25
446.21	397.89
446.39	404.91
446.58	423.64
446.77	388.53
446.95	388.53
447.14	430.66
447.32	437.68
447.51	355.76
447.69	491.51
447.88	402.57
448.06	440.02
448.25	383.85
448.43	428.32
448.62	428.32
448.80	409.59
448.99	430.66
449.17	477.47
449.36	404.91
449.54	421.30
449.73	425.98
449.91	458.74
450.10	393.21
450.28	442.36
450.46	369.80
450.65	374.49
450.83	418.96
451.02	404.91
451.20	369.80
451.39	437.68
451.57	430.66
451.76	447.04
451.94	407.25
452.13	402.57
452.31	451.72
452.49	379.17
452.68	402.57
452.86	423.64
453.05	418.96
453.23	411.93
453.42	348.74
453.60	444.70
453.78	444.70
453.97	397.89
454.15	428.32
454.34	393.21
454.52	334.70
454.70	416.62
454.89	421.30
455.07	404.91
455.26	393.21
455.44	423.64
455.62	433.00
455.81	414.27
455.99	421.30
456.17	416.62
456.36	400.23
456.54	390.87
456.73	425.98
456.91	388.53
457.09	428.32
457.28	397.89
457.46	456.40
457.64	477.47
457.83	409.59
458.01	353.42
458.19	402.57
458.38	353.42
458.56	365.12
458.74	369.80
458.93	428.32
459.11	430.66
459.29	402.57
459.48	374.49
459.66	409.59
459.84	465.77
460.03	428.32
460.21	425.98
460.39	402.57
460.57	449.38
460.76	400.23
460.94	505.56
461.12	376.83
461.31	468.11
461.49	381.51
461.67	486.83
461.85	383.85
462.04	374.49
462.22	737.27
462.40	442.36
462.59	414.27
462.77	358.10
462.95	393.21
463.13	425.98
463.32	458.74
463.50	395.55
463.68	411.93
463.86	404.91
464.05	416.62
464.23	475.13
464.41	421.30
464.59	362.78
464.78	358.10
464.96	376.83
465.14	388.53
465.32	383.85
465.50	414.27
465.69	390.87
465.87	395.55
466.05	351.08
466.23	360.44
466.41	444.70
466.60	421.30
466.78	437.68
466.96	470.45
467.14	358.10
467.32	367.46
467.51	402.57
467.69	402.57
467.87	430.66
468.05	374.49
468.23	381.51
468.41	397.89
468.60	416.62
468.78	444.70
468.96	416.62
469.14	468.11
469.32	395.55
469.50	348.74
469.69	402.57
469.87	379.17
470.05	440.02
470.23	402.57
470.41	402.57
470.59	418.96
470.77	402.57
470.95	402.57
471.14	411.93
471.32	355.76
471.50	365.12
471.68	418.96
471.86	404.91
472.04	358.10
472.22	367.46
472.40	367.46
472.58	411.93
472.77	414.27
472.95	397.89
473.13	425.98
473.31	433.00
473.49	355.76
473.67	395.55
473.85	444.70
474.03	482.15
474.21	449.38
474.39	421.30
474.57	423.64
474.75	414.27
474.93	386.19
475.12	451.72
475.30	397.89
475.48	414.27
475.66	430.66
475.84	411.93
476.02	454.06
476.20	479.81
476.38	348.74
476.56	482.15
476.74	409.59
476.92	425.98
477.10	414.27
477.28	461.09
477.46	421.30
477.64	475.13
477.82	376.83
478.00	355.76
478.18	411.93
478.36	407.25
478.54	430.66
478.72	414.27
478.90	358.10
479.08	425.98
479.26	407.25
479.44	470.45
479.62	348.74
479.80	344.06
479.98	440.02
480.16	388.53
480.34	493.85
480.52	411.93
480.70	395.55
480.88	461.09
481.06	433.00
481.24	346.40
481.41	456.40
481.59	393.21
481.77	397.89
481.95	472.79
482.13	433.00
482.31	376.83
482.49	503.22
482.67	435.34
482.85	454.06
483.03	393.21
483.21	400.23
483.39	400.23
483.57	383.85
483.74	458.74
483.92	402.57
484.10	367.46
484.28	428.32
484.46	416.62
484.64	433.00
484.82	374.49
485.00	440.02
485.18	468.11
485.35	442.36
485.53	381.51
485.71	414.27
485.89	395.55
486.07	423.64
486.25	491.51
486.43	437.68
486.61	435.34
486.78	440.02
486.96	376.83
487.14	395.55
487.32	381.51
487.50	437.68
487.68	430.66
487.85	418.96
488.03	479.81
488.21	468.11
488.39	409.59
488.57	411.93
488.75	423.64
488.92	472.79
489.10	444.70
489.28	433.00
489.46	390.87
489.64	358.10
489.81	411.93
489.99	409.59
490.17	440.02
490.35	447.04
490.53	376.83
490.70	365.12
490.88	397.89
491.06	369.80
491.24	355.76
491.41	435.34
491.59	444.70
491.77	407.25
491.95	369.80
492.13	369.80
492.30	383.85
492.48	402.57
492.66	393.21
492.84	409.59
493.01	379.17
493.19	433.00
493.37	482.15
493.54	411.93
493.72	402.57
493.90	400.23
494.08	388.53
494.25	400.23
494.43	447.04
494.61	454.06
494.79	372.15
494.96	437.68
495.14	416.62
495.32	454.06
495.49	414.27
495.67	418.96
495.85	430.66
496.02	442.36
496.20	397.89
496.38	379.17
496.55	465.77
496.73	339.38
496.91	372.15
497.09	472.79
497.26	383.85
497.44	397.89
497.62	470.45
497.79	395.55
497.97	491.51
498.14	374.49
498.32	393.21
498.50	430.66
498.67	442.36
498.85	414.27
499.03	428.32
499.20	294.91
499.38	367.46
499.56	397.89
499.73	463.43
499.91	479.81
500.08	404.91
500.26	423.64
500.44	468.11
500.61	444.70
500.79	421.30
500.97	440.02
501.14	435.34
501.32	383.85
501.49	447.04
501.67	447.04
501.84	383.85
502.02	372.15
502.20	411.93
502.37	451.72
502.55	322.99
502.72	416.62
502.90	386.19
503.07	428.32
503.25	472.79
503.43	407.25
503.60	393.21
503.78	447.04
503.95	435.34
504.13	393.21
504.30	421.30
504.48	388.53
504.65	505.56
504.83	475.13
505.01	383.85
505.18	339.38
505.36	425.98
505.53	428.32
505.71	423.64
505.88	414.27
506.06	433.00
506.23	402.57
506.41	362.78
506.58	351.08
506.76	465.77
506.93	388.53
507.11	425.98
507.28	393.21
507.46	428.32
507.63	381.51
507.81	482.15
507.98	393.21
508.16	418.96
508.33	400.23
508.50	322.99
508.68	430.66
508.85	362.78
509.03	428.32
509.20	416.62
509.38	383.85
509.55	449.38
509.73	430.66
509.90	397.89
510.08	416.62
510.25	388.53
510.42	395.55
510.60	418.96
510.77	444.70
510.95	442.36
511.12	456.40
511.30	458.74
511.47	388.53
511.64	512.58
511.82	416.62
511.99	458.74
512.17	458.74
512.34	414.27
512.51	416.62
512.69	465.77
512.86	500.87
513.04	451.72
513.21	428.32
513.38	390.87
513.56	463.43
513.73	383.85
513.90	468.11
514.08	409.59
514.25	463.43
514.43	461.09
514.60	365.12
514.77	409.59
514.95	402.57
515.12	367.46
515.29	358.10
515.47	332.36
515.64	376.83
515.81	397.89
515.99	379.17
516.16	390.87
516.33	428.32
516.51	416.62
516.68	346.40
516.85	355.76
517.03	383.85
517.20	447.04
517.37	393.21
517.54	430.66
517.72	433.00
517.89	379.17
518.06	367.46
518.24	374.49
518.41	442.36
518.58	416.62
518.75	400.23
518.93	421.30
519.10	414.27
519.27	395.55
519.45	449.38
519.62	402.57
519.79	447.04
519.96	411.93
520.14	397.89
520.31	519.60
520.48	397.89
520.65	390.87
520.83	383.85
521.00	416.62
521.17	404.91
521.34	503.22
521.52	411.93
521.69	381.51
521.86	433.00
522.03	386.19
522.20	496.19
522.38	425.98
522.55	367.46
522.72	362.78
522.89	477.47
523.07	456.40
523.24	395.55
523.41	458.74
523.58	430.66
523.75	388.53
523.92	386.19
524.10	421.30
524.27	311.29
524.44	358.10
524.61	418.96
524.78	376.83
524.96	440.02
525.13	433.00
525.30	477.47
525.47	482.15
525.64	395.55
525.81	369.80
525.98	400.23
526.16	411.93
526.33	435.34
526.50	390.87
526.67	376.83
526.84	341.72
527.01	379.17
527.18	374.49
527.36	383.85
527.53	337.04
527.70	411.93
527.87	400.23
528.04	393.21
528.21	454.06
528.38	404.91
528.55	402.57
528.72	421.30
528.89	435.34
529.07	451.72
529.24	425.98
529.41	435.34
529.58	402.57
529.75	379.17
529.92	393.21
530.09	416.62
530.26	435.34
530.43	463.43
530.60	418.96
530.77	388.53
530.94	442.36
531.11	442.36
531.28	388.53
531.46	421.30
531.63	430.66
531.80	489.17
531.97	454.06
532.14	458.74
532.31	334.70
532.48	416.62
532.65	425.98
532.82	411.93
532.99	430.66
533.16	428.32
533.33	440.02
533.50	421.30
533.67	444.70
533.84	388.53
534.01	470.45
534.18	355.76
534.35	404.91
534.52	365.12
534.69	407.25
534.86	400.23
535.03	397.89
535.20	348.74
535.37	468.11
535.54	423.64
535.71	393.21
535.88	430.66
536.05	395.55
536.22	416.62
536.38	451.72
536.55	449.38
536.72	423.64
536.89	411.93
537.06	388.53
537.23	449.38
537.40	402.57
537.57	367.46
537.74	484.49
537.91	395.55
538.08	440.02
538.25	414.27
538.42	402.57
538.59	437.68
538.75	348.74
538.92	386.19
539.09	503.22
539.26	390.87
539.43	423.64
539.60	390.87
539.77	369.80
539.94	430.66
540.11	411.93
540.28	484.49
540.44	456.40
540.61	407.25
540.78	395.55
540.95	447.04
541.12	437.68
541.29	404.91
541.46	447.04
541.62	430.66
541.79	379.17
541.96	451.72
542.13	379.17
542.30	402.57
542.47	409.59
542.63	390.87
542.80	416.62
542.97	428.32
543.14	407.25
543.31	381.51
543.48	451.72
543.64	386.19
543.81	428.32
543.98	402.57
544.15	423.64
544.32	395.55
544.48	461.09
544.65	442.36
544.82	437.68
544.99	423.64
545.16	479.81
545.32	414.27
545.49	376.83
545.66	374.49
545.83	367.46
546.00	409.59
546.16	411.93
546.33	407.25
546.50	407.25
546.67	451.72
546.83	400.23
547.00	365.12
547.17	332.36
547.34	447.04
547.50	404.91
547.67	414.27
547.84	440.02
548.00	421.30
548.17	458.74
548.34	404.91
548.51	428.32
548.67	414.27
548.84	404.91
549.01	447.04
549.18	402.57
549.34	414.27
549.51	414.27
549.68	437.68
549.84	447.04
550.01	418.96
550.18	435.34
550.34	528.96
550.51	444.70
550.68	449.38
550.84	423.64
551.01	486.83
551.18	454.06
551.34	386.19
551.51	416.62
551.68	512.58
551.84	423.64
552.01	425.98
552.18	416.62
552.34	421.30
552.51	379.17
552.68	411.93
552.84	465.77
553.01	440.02
553.18	465.77
553.34	428.32
553.51	358.10
553.67	369.80
553.84	463.43
554.01	444.70
554.17	463.43
554.34	367.46
554.51	486.83
554.67	463.43
554.84	367.46
555.00	489.17
555.17	449.38
555.33	456.40
555.50	421.30
555.67	463.43
555.83	393.21
556.00	409.59
556.16	447.04
556.33	500.87
556.50	393.21
556.66	447.04
556.83	395.55
556.99	362.78
557.16	409.59
557.32	442.36
557.49	435.34
557.65	353.42
557.82	376.83
557.98	358.10
558.15	379.17
558.32	409.59
558.48	346.40
558.65	372.15
558.81	409.59
558.98	430.66
559.14	468.11
559.31	425.98
559.47	346.40
559.64	362.78
559.80	395.55
559.97	454.06
560.13	379.17
560.30	332.36
560.46	435.34
560.63	425.98
560.79	402.57
560.96	451.72
561.12	355.76
561.29	414.27
561.45	341.72
561.61	400.23
561.78	528.96
561.94	416.62
562.11	402.57
562.27	402.57
562.44	374.49
562.60	393.21
562.77	421.30
562.93	456.40
563.10	435.34
563.26	421.30
563.42	479.81
563.59	337.04
563.75	437.68
563.92	475.13
564.08	463.43
564.24	461.09
564.41	435.34
564.57	430.66
564.74	388.53
564.90	416.62
565.07	416.62
565.23	381.51
565.39	463.43
565.56	402.57
565.72	393.21
565.88	393.21
566.05	454.06
566.21	444.70
566.38	489.17
566.54	348.74
566.70	414.27
566.87	381.51
567.03	351.08
567.19	437.68
567.36	369.80
567.52	397.89
567.68	407.25
567.85	409.59
568.01	425.98
568.17	470.45
568.34	437.68
568.50	425.98
568.66	407.25
568.83	531.30
568.99	442.36
569.15	449.38
569.32	400.23
569.48	428.32
569.64	390.87
569.81	404.91
569.97	365.12
570.13	404.91
570.30	402.57
570.46	423.64
570.62	409.59
570.78	381.51
570.95	442.36
571.11	489.17
571.27	428.32
571.43	430.66
571.60	456.40
571.76	372.15
571.92	383.85
572.09	355.76
572.25	425.98
572.41	407.25
572.57	397.89
572.74	470.45
572.90	393.21
573.06	388.53
573.22	470.45
573.38	430.66
573.55	402.57
573.71	503.22
573.87	458.74
574.03	390.87
574.20	547.69
574.36	418.96
574.52	435.34
574.68	430.66
574.84	456.40
575.01	496.19
575.17	390.87
575.33	379.17
575.49	449.38
575.65	409.59
575.82	404.91
575.98	463.43
576.14	397.89
576.30	449.38
576.46	500.87
576.62	444.70
576.79	456.40
576.95	423.64
577.11	465.77
577.27	393.21
577.43	393.21
577.59	451.72
577.75	430.66
577.92	402.57
578.08	386.19
578.24	409.59
578.40	386.19
578.56	411.93
578.72	430.66
578.88	409.59
579.04	425.98
579.21	400.23
579.37	381.51
579.53	379.17
579.69	348.74
579.85	325.33
580.01	440.02
580.17	390.87
580.33	472.79
580.49	477.47
580.65	404.91
580.82	440.02
580.98	463.43
581.14	386.19
581.30	465.77
581.46	463.43
581.62	463.43
581.78	418.96
581.94	475.13
582.10	449.38
582.26	437.68
582.42	402.57
582.58	444.70
582.74	538.32
582.90	484.49
583.06	456.40
583.22	451.72
583.38	421.30
583.54	454.06
583.70	407.25
583.86	458.74
584.02	430.66
584.18	442.36
584.34	423.64
584.50	421.30
584.66	395.55
584.82	423.64
584.98	437.68
585.14	404.91
585.30	465.77
585.46	414.27
585.62	423.64
585.78	414.27
585.94	402.57
586.10	524.28
586.26	367.46
586.42	503.22
586.58	535.98
586.74	423.64
586.90	397.89
587.06	437.68
587.22	416.62
587.38	411.93
587.54	355.76
587.70	472.79
587.86	447.04
588.02	442.36
588.18	447.04
588.34	428.32
588.49	425.98
588.65	428.32
588.81	451.72
588.97	404.91
589.13	425.98
589.29	435.34
589.45	418.96
589.61	496.19
589.77	465.77
589.93	411.93
590.08	484.49
590.24	409.59
590.40	428.32
590.56	472.79
590.72	393.21
590.88	447.04
591.04	486.83
591.20	383.85
591.35	486.83
591.51	451.72
591.67	402.57
591.83	353.42
591.99	475.13
592.15	416.62
592.31	465.77
592.46	390.87
592.62	449.38
592.78	414.27
592.94	402.57
593.10	421.30
593.26	414.27
593.41	442.36
593.57	468.11
593.73	458.74
593.89	444.70
594.05	404.91
594.20	379.17
594.36	484.49
594.52	423.64
594.68	367.46
594.84	477.47
594.99	505.56
595.15	447.04
595.31	449.38
595.47	482.15
595.62	386.19
595.78	449.38
595.94	423.64
596.10	447.04
596.25	416.62
596.41	381.51
596.57	428.32
596.73	421.30
596.88	428.32
597.04	461.09
597.20	456.40
597.36	468.11
597.51	447.04
597.67	344.06
597.83	437.68
597.99	468.11
598.14	411.93
598.30	500.87
598.46	437.68
598.61	507.90
598.77	456.40
598.93	386.19
599.09	423.64
599.24	397.89
599.40	528.96
599.56	442.36
599.71	400.23
599.87	395.55
600.03	444.70
600.18	416.62
600.34	425.98
600.50	454.06
600.65	379.17
600.81	440.02
600.97	461.09
601.12	433.00
601.28	423.64
601.44	418.96
601.59	407.25
601.75	372.15
601.91	369.80
602.06	390.87
602.22	472.79
602.37	390.87
602.53	388.53
602.69	451.72
602.84	381.51
603.00	451.72
603.16	428.32
603.31	493.85
603.47	428.32
603.62	362.78
603.78	435.34
603.94	407.25
604.09	484.49
604.25	421.30
604.40	440.02
604.56	374.49
604.71	454.06
604.87	365.12
605.03	418.96
605.18	390.87
605.34	362.78
605.49	477.47
605.65	362.78
605.80	437.68
605.96	425.98
606.12	425.98
606.27	402.57
606.43	496.19
606.58	461.09
606.74	383.85
606.89	421.30
607.05	369.80
607.20	475.13
607.36	416.62
607.51	353.42
607.67	437.68
607.82	407.25
607.98	409.59
608.13	468.11
608.29	444.70
608.44	456.40
608.60	409.59
608.75	510.24
608.91	428.32
609.06	528.96
609.22	447.04
609.37	395.55
609.53	374.49
609.68	428.32
609.84	339.38
609.99	383.85
610.15	449.38
