SpectraSuite Data File
++++++++++++++++++++++++++++++++++++
Date: Fri Oct 25 12:11:34 EDT 2013
User: price-jones
Dark Spectrum Present: No
Reference Spectrum Present: No
Number of Sampled Component Spectra: 1
Spectrometers: USB2+H05261
Integration Time (usec): 100000 (USB2+H05261)
Spectra Averaged: 1 (USB2+H05261)
Boxcar Smoothing: 0 (USB2+H05261)
Correct for Electrical Dark: No (USB2+H05261)
Strobe/Lamp Enabled: No (USB2+H05261)
Correct for Detector Non-linearity: No (USB2+H05261)
Correct for Stray Light: No (USB2+H05261)
Number of Pixels in Processed Spectrum: 2048
>>>>>Begin Processed Spectral Data<<<<<
365.73	358.10
365.92	358.10
366.12	358.10
366.32	245.76
366.52	266.82
366.72	301.93
366.91	173.20
367.11	241.08
367.31	184.90
367.51	222.35
367.70	262.14
367.90	243.42
368.10	229.37
368.30	220.01
368.49	147.45
368.69	245.76
368.89	299.59
369.09	297.25
369.28	262.14
369.48	283.20
369.68	259.80
369.87	315.97
370.07	313.63
370.27	358.10
370.47	318.31
370.66	393.21
370.86	287.89
371.06	376.83
371.25	425.98
371.45	362.78
371.65	372.15
371.84	341.72
372.04	351.08
372.24	423.64
372.44	362.78
372.63	461.09
372.83	365.12
373.03	468.11
373.22	409.59
373.42	421.30
373.62	390.87
373.81	435.34
374.01	409.59
374.21	390.87
374.40	451.72
374.60	402.57
374.79	425.98
374.99	428.32
375.19	409.59
375.38	395.55
375.58	414.27
375.78	409.59
375.97	444.70
376.17	400.23
376.37	348.74
376.56	442.36
376.76	423.64
376.95	421.30
377.15	461.09
377.35	433.00
377.54	421.30
377.74	407.25
377.93	437.68
378.13	365.12
378.33	383.85
378.52	325.33
378.72	351.08
378.91	374.49
379.11	388.53
379.31	423.64
379.50	386.19
379.70	360.44
379.89	409.59
380.09	430.66
380.28	379.17
380.48	395.55
380.68	442.36
380.87	365.12
381.07	421.30
381.26	334.70
381.46	414.27
381.65	416.62
381.85	390.87
382.04	386.19
382.24	386.19
382.43	304.27
382.63	411.93
382.83	376.83
383.02	437.68
383.22	346.40
383.41	297.25
383.61	407.25
383.80	447.04
384.00	409.59
384.19	437.68
384.39	393.21
384.58	395.55
384.78	425.98
384.97	407.25
385.17	360.44
385.36	341.72
385.56	472.79
385.75	372.15
385.95	477.47
386.14	496.19
386.34	374.49
386.53	416.62
386.72	423.64
386.92	425.98
387.11	402.57
387.31	428.32
387.50	372.15
387.70	404.91
387.89	418.96
388.09	388.53
388.28	351.08
388.48	337.04
388.67	421.30
388.86	433.00
389.06	423.64
389.25	449.38
389.45	393.21
389.64	397.89
389.84	430.66
390.03	344.06
390.22	400.23
390.42	388.53
390.61	358.10
390.81	376.83
391.00	400.23
391.19	440.02
391.39	341.72
391.58	486.83
391.78	425.98
391.97	369.80
392.16	437.68
392.36	414.27
392.55	447.04
392.75	351.08
392.94	461.09
393.13	449.38
393.33	404.91
393.52	456.40
393.71	500.87
393.91	465.77
394.10	437.68
394.29	428.32
394.49	374.49
394.68	472.79
394.88	418.96
395.07	435.34
395.26	365.12
395.46	383.85
395.65	414.27
395.84	428.32
396.04	393.21
396.23	402.57
396.42	402.57
396.62	430.66
396.81	390.87
397.00	423.64
397.19	463.43
397.39	367.46
397.58	386.19
397.77	416.62
397.97	409.59
398.16	416.62
398.35	409.59
398.55	418.96
398.74	444.70
398.93	402.57
399.12	404.91
399.32	447.04
399.51	367.46
399.70	482.15
399.90	409.59
400.09	430.66
400.28	388.53
400.47	344.06
400.67	386.19
400.86	449.38
401.05	470.45
401.24	477.47
401.44	435.34
401.63	381.51
401.82	365.12
402.01	442.36
402.21	428.32
402.40	400.23
402.59	388.53
402.78	416.62
402.97	376.83
403.17	409.59
403.36	435.34
403.55	414.27
403.74	390.87
403.93	407.25
404.13	456.40
404.32	475.13
404.51	344.06
404.70	407.25
404.89	381.51
405.09	449.38
405.28	456.40
405.47	285.55
405.66	386.19
405.85	468.11
406.05	337.04
406.24	337.04
406.43	449.38
406.62	395.55
406.81	390.87
407.00	479.81
407.20	390.87
407.39	437.68
407.58	418.96
407.77	332.36
407.96	325.33
408.15	458.74
408.34	409.59
408.54	376.83
408.73	360.44
408.92	437.68
409.11	465.77
409.30	458.74
409.49	421.30
409.68	318.31
409.87	430.66
410.07	418.96
410.26	400.23
410.45	397.89
410.64	390.87
410.83	381.51
411.02	341.72
411.21	442.36
411.40	463.43
411.59	428.32
411.78	528.96
411.98	526.62
412.17	407.25
412.36	416.62
412.55	418.96
412.74	355.76
412.93	393.21
413.12	397.89
413.31	442.36
413.50	414.27
413.69	393.21
413.88	435.34
414.07	407.25
414.26	400.23
414.45	376.83
414.64	369.80
414.83	433.00
415.02	334.70
415.22	484.49
415.41	425.98
415.60	365.12
415.79	388.53
415.98	437.68
416.17	456.40
416.36	416.62
416.55	383.85
416.74	390.87
416.93	461.09
417.12	454.06
417.31	451.72
417.50	409.59
417.69	454.06
417.88	414.27
418.07	456.40
418.26	421.30
418.45	367.46
418.64	482.15
418.83	458.74
419.02	318.31
419.21	411.93
419.39	365.12
419.58	395.55
419.77	425.98
419.96	423.64
420.15	456.40
420.34	404.91
420.53	341.72
420.72	482.15
420.91	421.30
421.10	388.53
421.29	407.25
421.48	393.21
421.67	330.02
421.86	381.51
422.05	423.64
422.24	456.40
422.43	421.30
422.61	386.19
422.80	454.06
422.99	397.89
423.18	372.15
423.37	472.79
423.56	397.89
423.75	348.74
423.94	407.25
424.13	409.59
424.32	472.79
424.50	383.85
424.69	400.23
424.88	454.06
425.07	362.78
425.26	388.53
425.45	421.30
425.64	365.12
425.83	393.21
426.01	400.23
426.20	500.87
426.39	376.83
426.58	414.27
426.77	444.70
426.96	437.68
427.15	414.27
427.33	414.27
427.52	416.62
427.71	465.77
427.90	400.23
428.09	416.62
428.28	322.99
428.46	440.02
428.65	395.55
428.84	402.57
429.03	477.47
429.22	397.89
429.40	475.13
429.59	435.34
429.78	440.02
429.97	510.24
430.16	428.32
430.34	409.59
430.53	355.76
430.72	421.30
430.91	465.77
431.10	390.87
431.28	388.53
431.47	407.25
431.66	430.66
431.85	449.38
432.03	421.30
432.22	440.02
432.41	447.04
432.60	355.76
432.79	355.76
432.97	444.70
433.16	421.30
433.35	454.06
433.54	454.06
433.72	409.59
433.91	447.04
434.10	379.17
434.28	447.04
434.47	386.19
434.66	447.04
434.85	390.87
435.03	451.72
435.22	477.47
435.41	498.53
435.59	461.09
435.78	440.02
435.97	433.00
436.16	442.36
436.34	407.25
436.53	362.78
436.72	322.99
436.90	524.28
437.09	390.87
437.28	428.32
437.46	414.27
437.65	369.80
437.84	458.74
438.02	414.27
438.21	397.89
438.40	414.27
438.58	409.59
438.77	386.19
438.96	428.32
439.14	353.42
439.33	395.55
439.52	421.30
439.70	353.42
439.89	435.34
440.08	407.25
440.26	369.80
440.45	454.06
440.63	388.53
440.82	330.02
441.01	503.22
441.19	390.87
441.38	468.11
441.57	379.17
441.75	423.64
441.94	393.21
442.12	360.44
442.31	447.04
442.50	500.87
442.68	402.57
442.87	477.47
443.05	388.53
443.24	404.91
443.43	372.15
443.61	454.06
443.80	449.38
443.98	409.59
444.17	442.36
444.35	463.43
444.54	430.66
444.73	428.32
444.91	411.93
445.10	388.53
445.28	435.34
445.47	376.83
445.65	437.68
445.84	388.53
446.02	433.00
446.21	409.59
446.39	416.62
446.58	444.70
446.77	440.02
446.95	418.96
447.14	484.49
447.32	386.19
447.51	407.25
447.69	360.44
447.88	409.59
448.06	409.59
448.25	383.85
448.43	365.12
448.62	388.53
448.80	369.80
448.99	383.85
449.17	369.80
449.36	369.80
449.54	421.30
449.73	454.06
449.91	440.02
450.10	411.93
450.28	514.92
450.46	437.68
450.65	395.55
450.83	479.81
451.02	407.25
451.20	400.23
451.39	402.57
451.57	348.74
451.76	409.59
451.94	397.89
452.13	390.87
452.31	463.43
452.49	365.12
452.68	454.06
452.86	461.09
453.05	435.34
453.23	416.62
453.42	376.83
453.60	428.32
453.78	442.36
453.97	416.62
454.15	379.17
454.34	404.91
454.52	390.87
454.70	477.47
454.89	355.76
455.07	376.83
455.26	383.85
455.44	402.57
455.62	414.27
455.81	437.68
455.99	491.51
456.17	519.60
456.36	491.51
456.54	388.53
456.73	334.70
456.91	395.55
457.09	477.47
457.28	360.44
457.46	409.59
457.64	372.15
457.83	402.57
458.01	451.72
458.19	500.87
458.38	341.72
458.56	423.64
458.74	407.25
458.93	381.51
459.11	386.19
459.29	374.49
459.48	402.57
459.66	395.55
459.84	379.17
460.03	444.70
460.21	456.40
460.39	440.02
460.57	456.40
460.76	456.40
460.94	465.77
461.12	425.98
461.31	458.74
461.49	376.83
461.67	348.74
461.85	411.93
462.04	463.43
462.22	746.63
462.40	440.02
462.59	458.74
462.77	416.62
462.95	430.66
463.13	411.93
463.32	416.62
463.50	449.38
463.68	390.87
463.86	374.49
464.05	456.40
464.23	402.57
464.41	479.81
464.59	348.74
464.78	414.27
464.96	423.64
465.14	433.00
465.32	437.68
465.50	437.68
465.69	479.81
465.87	456.40
466.05	433.00
466.23	400.23
466.41	449.38
466.60	449.38
466.78	376.83
466.96	383.85
467.14	390.87
467.32	404.91
467.51	416.62
467.69	404.91
467.87	444.70
468.05	411.93
468.23	470.45
468.41	435.34
468.60	435.34
468.78	421.30
468.96	484.49
469.14	407.25
469.32	411.93
469.50	369.80
469.69	465.77
469.87	395.55
470.05	454.06
470.23	435.34
470.41	435.34
470.59	407.25
470.77	463.43
470.95	421.30
471.14	379.17
471.32	351.08
471.50	470.45
471.68	346.40
471.86	334.70
472.04	425.98
472.22	430.66
472.40	390.87
472.58	341.72
472.77	451.72
472.95	465.77
473.13	451.72
473.31	449.38
473.49	400.23
473.67	430.66
473.85	440.02
474.03	418.96
474.21	327.68
474.39	461.09
474.57	468.11
474.75	386.19
474.93	367.46
475.12	428.32
475.30	383.85
475.48	393.21
475.66	416.62
475.84	437.68
476.02	376.83
476.20	416.62
476.38	428.32
476.56	451.72
476.74	433.00
476.92	425.98
477.10	383.85
477.28	433.00
477.46	393.21
477.64	390.87
477.82	442.36
478.00	428.32
478.18	351.08
478.36	367.46
478.54	344.06
478.72	472.79
478.90	369.80
479.08	381.51
479.26	379.17
479.44	463.43
479.62	433.00
479.80	440.02
479.98	428.32
480.16	374.49
480.34	418.96
480.52	451.72
480.70	451.72
480.88	435.34
481.06	374.49
481.24	383.85
481.41	369.80
481.59	428.32
481.77	479.81
481.95	390.87
482.13	442.36
482.31	493.85
482.49	435.34
482.67	381.51
482.85	395.55
483.03	339.38
483.21	402.57
483.39	404.91
483.57	433.00
483.74	423.64
483.92	353.42
484.10	423.64
484.28	433.00
484.46	421.30
484.64	461.09
484.82	395.55
485.00	383.85
485.18	404.91
485.35	423.64
485.53	440.02
485.71	376.83
485.89	351.08
486.07	414.27
486.25	451.72
486.43	414.27
486.61	404.91
486.78	379.17
486.96	395.55
487.14	416.62
487.32	458.74
487.50	458.74
487.68	341.72
487.85	409.59
488.03	379.17
488.21	440.02
488.39	360.44
488.57	404.91
488.75	433.00
488.92	493.85
489.10	400.23
489.28	421.30
489.46	400.23
489.64	451.72
489.81	423.64
489.99	372.15
490.17	407.25
490.35	486.83
490.53	416.62
490.70	351.08
490.88	418.96
491.06	428.32
491.24	451.72
491.41	437.68
491.59	423.64
491.77	327.68
491.95	376.83
492.13	381.51
492.30	421.30
492.48	440.02
492.66	440.02
492.84	360.44
493.01	388.53
493.19	379.17
493.37	416.62
493.54	409.59
493.72	433.00
493.90	437.68
494.08	367.46
494.25	475.13
494.43	498.53
494.61	430.66
494.79	440.02
494.96	447.04
495.14	461.09
495.32	416.62
495.49	411.93
495.67	386.19
495.85	411.93
496.02	358.10
496.20	376.83
496.38	330.02
496.55	477.47
496.73	482.15
496.91	390.87
497.09	461.09
497.26	383.85
497.44	388.53
497.62	428.32
497.79	407.25
497.97	404.91
498.14	358.10
498.32	444.70
498.50	402.57
498.67	435.34
498.85	372.15
499.03	348.74
499.20	358.10
499.38	425.98
499.56	374.49
499.73	437.68
499.91	395.55
500.08	393.21
500.26	397.89
500.44	421.30
500.61	423.64
500.79	360.44
500.97	433.00
501.14	454.06
501.32	407.25
501.49	407.25
501.67	369.80
501.84	437.68
502.02	472.79
502.20	472.79
502.37	383.85
502.55	428.32
502.72	404.91
502.90	400.23
503.07	503.22
503.25	433.00
503.43	433.00
503.60	409.59
503.78	425.98
503.95	442.36
504.13	400.23
504.30	346.40
504.48	404.91
504.65	449.38
504.83	395.55
505.01	353.42
505.18	430.66
505.36	369.80
505.53	353.42
505.71	365.12
505.88	468.11
506.06	383.85
506.23	428.32
506.41	411.93
506.58	404.91
506.76	430.66
506.93	421.30
507.11	407.25
507.28	395.55
507.46	437.68
507.63	447.04
507.81	409.59
507.98	376.83
508.16	456.40
508.33	395.55
508.50	465.77
508.68	353.42
508.85	325.33
509.03	416.62
509.20	395.55
509.38	489.17
509.55	447.04
509.73	416.62
509.90	430.66
510.08	489.17
510.25	433.00
510.42	409.59
510.60	395.55
510.77	470.45
510.95	407.25
511.12	409.59
511.30	430.66
511.47	402.57
511.64	463.43
511.82	433.00
511.99	397.89
512.17	437.68
512.34	360.44
512.51	404.91
512.69	386.19
512.86	456.40
513.04	447.04
513.21	461.09
513.38	402.57
513.56	430.66
513.73	362.78
513.90	379.17
514.08	425.98
514.25	421.30
514.43	430.66
514.60	395.55
514.77	388.53
514.95	430.66
515.12	339.38
515.29	351.08
515.47	433.00
515.64	372.15
515.81	440.02
515.99	444.70
516.16	433.00
516.33	447.04
516.51	404.91
516.68	449.38
516.85	411.93
517.03	430.66
517.20	493.85
517.37	301.93
517.54	386.19
517.72	402.57
517.89	430.66
518.06	388.53
518.24	414.27
518.41	425.98
518.58	437.68
518.75	362.78
518.93	407.25
519.10	388.53
519.27	341.72
519.45	388.53
519.62	390.87
519.79	428.32
519.96	477.47
520.14	440.02
520.31	503.22
520.48	468.11
520.65	475.13
520.83	372.15
521.00	407.25
521.17	376.83
521.34	479.81
521.52	425.98
521.69	339.38
521.86	390.87
522.03	365.12
522.20	451.72
522.38	404.91
522.55	447.04
522.72	423.64
522.89	461.09
523.07	533.64
523.24	421.30
523.41	381.51
523.58	425.98
523.75	437.68
523.92	407.25
524.10	482.15
524.27	379.17
524.44	325.33
524.61	470.45
524.78	409.59
524.96	430.66
525.13	451.72
525.30	433.00
525.47	423.64
525.64	400.23
525.81	470.45
525.98	402.57
526.16	407.25
526.33	409.59
526.50	418.96
526.67	414.27
526.84	400.23
527.01	414.27
527.18	437.68
527.36	470.45
527.53	358.10
527.70	414.27
527.87	397.89
528.04	418.96
528.21	491.51
528.38	395.55
528.55	395.55
528.72	433.00
528.89	456.40
529.07	425.98
529.24	437.68
529.41	510.24
529.58	447.04
529.75	418.96
529.92	407.25
530.09	472.79
530.26	433.00
530.43	458.74
530.60	425.98
530.77	510.24
530.94	409.59
531.11	475.13
531.28	423.64
531.46	381.51
531.63	442.36
531.80	456.40
531.97	421.30
532.14	433.00
532.31	418.96
532.48	428.32
532.65	400.23
532.82	397.89
532.99	409.59
533.16	451.72
533.33	458.74
533.50	393.21
533.67	428.32
533.84	388.53
534.01	491.51
534.18	397.89
534.35	397.89
534.52	465.77
534.69	535.98
534.86	437.68
535.03	465.77
535.20	407.25
535.37	430.66
535.54	395.55
535.71	421.30
535.88	505.56
536.05	409.59
536.22	381.51
536.38	381.51
536.55	344.06
536.72	479.81
536.89	334.70
537.06	395.55
537.23	404.91
537.40	526.62
537.57	425.98
537.74	425.98
537.91	390.87
538.08	472.79
538.25	435.34
538.42	411.93
538.59	440.02
538.75	379.17
538.92	423.64
539.09	390.87
539.26	435.34
539.43	475.13
539.60	414.27
539.77	369.80
539.94	402.57
540.11	503.22
540.28	423.64
540.44	447.04
540.61	437.68
540.78	430.66
540.95	458.74
541.12	428.32
541.29	372.15
541.46	416.62
541.62	374.49
541.79	451.72
541.96	421.30
542.13	409.59
542.30	421.30
542.47	458.74
542.63	402.57
542.80	444.70
542.97	440.02
543.14	444.70
543.31	411.93
543.48	437.68
543.64	477.47
543.81	400.23
543.98	409.59
544.15	421.30
544.32	402.57
544.48	411.93
544.65	383.85
544.82	496.19
544.99	365.12
545.16	477.47
545.32	433.00
545.49	428.32
545.66	404.91
545.83	475.13
546.00	386.19
546.16	369.80
546.33	444.70
546.50	430.66
546.67	472.79
546.83	416.62
547.00	411.93
547.17	381.51
547.34	383.85
547.50	418.96
547.67	358.10
547.84	322.99
548.00	458.74
548.17	388.53
548.34	409.59
548.51	456.40
548.67	461.09
548.84	421.30
549.01	416.62
549.18	435.34
549.34	407.25
549.51	397.89
549.68	397.89
549.84	433.00
550.01	437.68
550.18	456.40
550.34	461.09
550.51	442.36
550.68	395.55
550.84	491.51
551.01	430.66
551.18	500.87
551.34	362.78
551.51	447.04
551.68	454.06
551.84	423.64
552.01	353.42
552.18	369.80
552.34	397.89
552.51	407.25
552.68	437.68
552.84	379.17
553.01	414.27
553.18	493.85
553.34	418.96
553.51	376.83
553.67	372.15
553.84	465.77
554.01	421.30
554.17	351.08
554.34	418.96
554.51	374.49
554.67	372.15
554.84	400.23
555.00	421.30
555.17	393.21
555.33	470.45
555.50	360.44
555.67	444.70
555.83	330.02
556.00	463.43
556.16	528.96
556.33	386.19
556.50	430.66
556.66	337.04
556.83	365.12
556.99	444.70
557.16	379.17
557.32	444.70
557.49	421.30
557.65	428.32
557.82	402.57
557.98	393.21
558.15	365.12
558.32	379.17
558.48	458.74
558.65	498.53
558.81	416.62
558.98	428.32
559.14	451.72
559.31	416.62
559.47	458.74
559.64	433.00
559.80	360.44
559.97	367.46
560.13	374.49
560.30	489.17
560.46	430.66
560.63	461.09
560.79	461.09
560.96	339.38
561.12	381.51
561.29	489.17
561.45	414.27
561.61	425.98
561.78	421.30
561.94	416.62
562.11	435.34
562.27	451.72
562.44	400.23
562.60	383.85
562.77	461.09
562.93	472.79
563.10	402.57
563.26	379.17
563.42	407.25
563.59	416.62
563.75	468.11
563.92	430.66
564.08	395.55
564.24	421.30
564.41	442.36
564.57	402.57
564.74	416.62
564.90	411.93
565.07	496.19
565.23	470.45
565.39	362.78
565.56	470.45
565.72	430.66
565.88	428.32
566.05	454.06
566.21	463.43
566.38	440.02
566.54	451.72
566.70	423.64
566.87	489.17
567.03	330.02
567.19	472.79
567.36	360.44
567.52	409.59
567.68	416.62
567.85	402.57
568.01	454.06
568.17	402.57
568.34	386.19
568.50	404.91
568.66	454.06
568.83	444.70
568.99	379.17
569.15	463.43
569.32	395.55
569.48	442.36
569.64	433.00
569.81	374.49
569.97	404.91
570.13	379.17
570.30	322.99
570.46	440.02
570.62	456.40
570.78	416.62
570.95	472.79
571.11	449.38
571.27	458.74
571.43	376.83
571.60	411.93
571.76	423.64
571.92	330.02
572.09	386.19
572.25	449.38
572.41	393.21
572.57	404.91
572.74	470.45
572.90	440.02
573.06	418.96
573.22	465.77
573.38	451.72
573.55	404.91
573.71	411.93
573.87	472.79
574.03	416.62
574.20	458.74
574.36	465.77
574.52	414.27
574.68	437.68
574.84	411.93
575.01	400.23
575.17	425.98
575.33	376.83
575.49	416.62
575.65	423.64
575.82	428.32
575.98	400.23
576.14	365.12
576.30	397.89
576.46	341.72
576.62	404.91
576.79	365.12
576.95	397.89
577.11	418.96
577.27	381.51
577.43	416.62
577.59	465.77
577.75	416.62
577.92	475.13
578.08	418.96
578.24	458.74
578.40	440.02
578.56	496.19
578.72	362.78
578.88	447.04
579.04	442.36
579.21	416.62
579.37	447.04
579.53	447.04
579.69	437.68
579.85	421.30
580.01	444.70
580.17	358.10
580.33	369.80
580.49	362.78
580.65	416.62
580.82	444.70
580.98	400.23
581.14	451.72
581.30	430.66
581.46	334.70
581.62	402.57
581.78	409.59
581.94	428.32
582.10	337.04
582.26	454.06
582.42	454.06
582.58	428.32
582.74	442.36
582.90	421.30
583.06	444.70
583.22	360.44
583.38	397.89
583.54	484.49
583.70	454.06
583.86	409.59
584.02	447.04
584.18	463.43
584.34	444.70
584.50	402.57
584.66	423.64
584.82	355.76
584.98	440.02
585.14	390.87
585.30	411.93
585.46	454.06
585.62	428.32
585.78	409.59
585.94	402.57
586.10	362.78
586.26	451.72
586.42	482.15
586.58	362.78
586.74	428.32
586.90	447.04
587.06	433.00
587.22	451.72
587.38	409.59
587.54	430.66
587.70	468.11
587.86	390.87
588.02	437.68
588.18	533.64
588.34	489.17
588.49	374.49
588.65	393.21
588.81	397.89
588.97	433.00
589.13	486.83
589.29	507.90
589.45	482.15
589.61	444.70
589.77	372.15
589.93	470.45
590.08	409.59
590.24	458.74
590.40	440.02
590.56	472.79
590.72	454.06
590.88	407.25
591.04	428.32
591.20	482.15
591.35	372.15
591.51	388.53
591.67	414.27
591.83	362.78
591.99	461.09
592.15	416.62
592.31	369.80
592.46	442.36
592.62	428.32
592.78	397.89
592.94	353.42
593.10	390.87
593.26	348.74
593.41	374.49
593.57	348.74
593.73	365.12
593.89	386.19
594.05	440.02
594.20	393.21
594.36	433.00
594.52	393.21
594.68	479.81
594.84	400.23
594.99	442.36
595.15	397.89
595.31	423.64
595.47	423.64
595.62	355.76
595.78	409.59
595.94	313.63
596.10	470.45
596.25	454.06
596.41	442.36
596.57	437.68
596.73	400.23
596.88	425.98
597.04	367.46
597.20	339.38
597.36	425.98
597.51	379.17
597.67	299.59
597.83	407.25
597.99	402.57
598.14	489.17
598.30	411.93
598.46	437.68
598.61	400.23
598.77	433.00
598.93	416.62
599.09	360.44
599.24	407.25
599.40	505.56
599.56	411.93
599.71	425.98
599.87	437.68
600.03	444.70
600.18	344.06
600.34	407.25
600.50	456.40
600.65	360.44
600.81	418.96
600.97	386.19
601.12	437.68
601.28	430.66
601.44	374.49
601.59	444.70
601.75	456.40
601.91	428.32
602.06	423.64
602.22	505.56
602.37	447.04
602.53	397.89
602.69	430.66
602.84	339.38
603.00	447.04
603.16	383.85
603.31	435.34
603.47	437.68
603.62	421.30
603.78	360.44
603.94	379.17
604.09	418.96
604.25	381.51
604.40	428.32
604.56	409.59
604.71	416.62
604.87	402.57
605.03	407.25
605.18	442.36
605.34	440.02
605.49	388.53
605.65	437.68
605.80	437.68
605.96	360.44
606.12	475.13
606.27	456.40
606.43	503.22
606.58	423.64
606.74	503.22
606.89	442.36
607.05	451.72
607.20	418.96
607.36	386.19
607.51	360.44
607.67	404.91
607.82	418.96
607.98	463.43
608.13	423.64
608.29	381.51
608.44	416.62
608.60	395.55
608.75	435.34
608.91	447.04
609.06	402.57
609.22	421.30
609.37	404.91
609.53	411.93
609.68	411.93
609.84	421.30
609.99	454.06
610.15	358.10
