SpectraSuite Data File
++++++++++++++++++++++++++++++++++++
Date: Fri Oct 25 12:11:36 EDT 2013
User: price-jones
Dark Spectrum Present: No
Reference Spectrum Present: No
Number of Sampled Component Spectra: 1
Spectrometers: USB2+H05261
Integration Time (usec): 100000 (USB2+H05261)
Spectra Averaged: 1 (USB2+H05261)
Boxcar Smoothing: 0 (USB2+H05261)
Correct for Electrical Dark: No (USB2+H05261)
Strobe/Lamp Enabled: No (USB2+H05261)
Correct for Detector Non-linearity: No (USB2+H05261)
Correct for Stray Light: No (USB2+H05261)
Number of Pixels in Processed Spectrum: 2048
>>>>>Begin Processed Spectral Data<<<<<
365.73	397.89
365.92	397.89
366.12	397.89
366.32	262.14
366.52	262.14
366.72	205.97
366.91	217.67
367.11	198.95
367.31	257.46
367.51	266.82
367.70	243.42
367.90	198.95
368.10	152.13
368.30	278.52
368.49	196.60
368.69	212.99
368.89	252.78
369.09	318.31
369.28	276.18
369.48	285.55
369.68	308.95
369.87	320.65
370.07	311.29
370.27	330.02
370.47	334.70
370.66	353.42
370.86	297.25
371.06	339.38
371.25	383.85
371.45	341.72
371.65	379.17
371.84	404.91
372.04	358.10
372.24	362.78
372.44	416.62
372.63	386.19
372.83	440.02
373.03	484.49
373.22	369.80
373.42	437.68
373.62	393.21
373.81	423.64
374.01	411.93
374.21	433.00
374.40	369.80
374.60	390.87
374.79	433.00
374.99	500.87
375.19	451.72
375.38	449.38
375.58	475.13
375.78	503.22
375.97	470.45
376.17	367.46
376.37	402.57
376.56	425.98
376.76	388.53
376.95	421.30
377.15	395.55
377.35	395.55
377.54	451.72
377.74	353.42
377.93	362.78
378.13	421.30
378.33	428.32
378.52	416.62
378.72	353.42
378.91	358.10
379.11	411.93
379.31	395.55
379.50	348.74
379.70	498.53
379.89	458.74
380.09	393.21
380.28	395.55
380.48	404.91
380.68	404.91
380.87	322.99
381.07	444.70
381.26	433.00
381.46	390.87
381.65	435.34
381.85	505.56
382.04	395.55
382.24	447.04
382.43	451.72
382.63	313.63
382.83	449.38
383.02	402.57
383.22	386.19
383.41	423.64
383.61	376.83
383.80	475.13
384.00	402.57
384.19	388.53
384.39	367.46
384.58	294.91
384.78	477.47
384.97	395.55
385.17	407.25
385.36	386.19
385.56	517.26
385.75	374.49
385.95	411.93
386.14	447.04
386.34	421.30
386.53	463.43
386.72	367.46
386.92	407.25
387.11	510.24
387.31	482.15
387.50	376.83
387.70	372.15
387.89	442.36
388.09	388.53
388.28	409.59
388.48	325.33
388.67	421.30
388.86	407.25
389.06	442.36
389.25	341.72
389.45	374.49
389.64	421.30
389.84	475.13
390.03	360.44
390.22	330.02
390.42	418.96
390.61	376.83
390.81	425.98
391.00	421.30
391.19	390.87
391.39	337.04
391.58	444.70
391.78	372.15
391.97	393.21
392.16	379.17
392.36	433.00
392.55	407.25
392.75	381.51
392.94	447.04
393.13	411.93
393.33	400.23
393.52	332.36
393.71	425.98
393.91	425.98
394.10	404.91
394.29	433.00
394.49	376.83
394.68	397.89
394.88	454.06
395.07	477.47
395.26	383.85
395.46	365.12
395.65	430.66
395.84	454.06
396.04	465.77
396.23	428.32
396.42	418.96
396.62	433.00
396.81	409.59
397.00	393.21
397.19	421.30
397.39	397.89
397.58	498.53
397.77	407.25
397.97	395.55
398.16	500.87
398.35	388.53
398.55	454.06
398.74	402.57
398.93	435.34
399.12	374.49
399.32	388.53
399.51	339.38
399.70	369.80
399.90	416.62
400.09	386.19
400.28	411.93
400.47	440.02
400.67	416.62
400.86	418.96
401.05	489.17
401.24	388.53
401.44	395.55
401.63	383.85
401.82	393.21
402.01	362.78
402.21	369.80
402.40	421.30
402.59	379.17
402.78	425.98
402.97	423.64
403.17	390.87
403.36	416.62
403.55	360.44
403.74	449.38
403.93	386.19
404.13	449.38
404.32	416.62
404.51	414.27
404.70	425.98
404.89	383.85
405.09	397.89
405.28	379.17
405.47	414.27
405.66	388.53
405.85	409.59
406.05	510.24
406.24	430.66
406.43	428.32
406.62	409.59
406.81	402.57
407.00	353.42
407.20	425.98
407.39	475.13
407.58	388.53
407.77	379.17
407.96	388.53
408.15	433.00
408.34	454.06
408.54	404.91
408.73	393.21
408.92	454.06
409.11	437.68
409.30	409.59
409.49	418.96
409.68	358.10
409.87	433.00
410.07	425.98
410.26	386.19
410.45	337.04
410.64	388.53
410.83	308.95
411.02	348.74
411.21	475.13
411.40	397.89
411.59	365.12
411.78	407.25
411.98	390.87
412.17	461.09
412.36	374.49
412.55	493.85
412.74	276.18
412.93	411.93
413.12	397.89
413.31	472.79
413.50	451.72
413.69	402.57
413.88	367.46
414.07	355.76
414.26	433.00
414.45	390.87
414.64	409.59
414.83	379.17
415.02	465.77
415.22	470.45
415.41	395.55
415.60	421.30
415.79	393.21
415.98	430.66
416.17	369.80
416.36	383.85
416.55	379.17
416.74	351.08
416.93	407.25
417.12	428.32
417.31	477.47
417.50	442.36
417.69	442.36
417.88	425.98
418.07	400.23
418.26	397.89
418.45	465.77
418.64	447.04
418.83	423.64
419.02	416.62
419.21	500.87
419.39	465.77
419.58	334.70
419.77	332.36
419.96	430.66
420.15	397.89
420.34	388.53
420.53	458.74
420.72	482.15
420.91	355.76
421.10	381.51
421.29	418.96
421.48	383.85
421.67	381.51
421.86	418.96
422.05	416.62
422.24	470.45
422.43	435.34
422.61	374.49
422.80	411.93
422.99	416.62
423.18	369.80
423.37	433.00
423.56	416.62
423.75	395.55
423.94	451.72
424.13	456.40
424.32	414.27
424.50	416.62
424.69	383.85
424.88	461.09
425.07	475.13
425.26	451.72
425.45	397.89
425.64	430.66
425.83	386.19
426.01	393.21
426.20	437.68
426.39	395.55
426.58	379.17
426.77	416.62
426.96	395.55
427.15	397.89
427.33	374.49
427.52	414.27
427.71	430.66
427.90	376.83
428.09	404.91
428.28	369.80
428.46	425.98
428.65	351.08
428.84	318.31
429.03	411.93
429.22	435.34
429.40	425.98
429.59	423.64
429.78	390.87
429.97	395.55
430.16	430.66
430.34	458.74
430.53	449.38
430.72	381.51
430.91	463.43
431.10	430.66
431.28	379.17
431.47	510.24
431.66	397.89
431.85	423.64
432.03	421.30
432.22	435.34
432.41	400.23
432.60	428.32
432.79	388.53
432.97	362.78
433.16	430.66
433.35	369.80
433.54	402.57
433.72	360.44
433.91	430.66
434.10	421.30
434.28	416.62
434.47	418.96
434.66	425.98
434.85	379.17
435.03	458.74
435.22	414.27
435.41	407.25
435.59	409.59
435.78	435.34
435.97	393.21
436.16	440.02
436.34	500.87
436.53	379.17
436.72	395.55
436.90	381.51
437.09	414.27
437.28	421.30
437.46	390.87
437.65	374.49
437.84	507.90
438.02	470.45
438.21	425.98
438.40	411.93
438.58	355.76
438.77	447.04
438.96	409.59
439.14	433.00
439.33	393.21
439.52	404.91
439.70	449.38
439.89	433.00
440.08	416.62
440.26	404.91
440.45	440.02
440.63	486.83
440.82	418.96
441.01	414.27
441.19	400.23
441.38	376.83
441.57	437.68
441.75	454.06
441.94	435.34
442.12	351.08
442.31	414.27
442.50	435.34
442.68	430.66
442.87	397.89
443.05	451.72
443.24	435.34
443.43	339.38
443.61	451.72
443.80	435.34
443.98	411.93
444.17	379.17
444.35	425.98
444.54	360.44
444.73	355.76
444.91	477.47
445.10	440.02
445.28	400.23
445.47	416.62
445.65	407.25
445.84	402.57
446.02	374.49
446.21	346.40
446.39	376.83
446.58	416.62
446.77	416.62
446.95	411.93
447.14	416.62
447.32	454.06
447.51	379.17
447.69	393.21
447.88	425.98
448.06	437.68
448.25	484.49
448.43	381.51
448.62	433.00
448.80	409.59
448.99	400.23
449.17	524.28
449.36	304.27
449.54	337.04
449.73	344.06
449.91	456.40
450.10	454.06
450.28	416.62
450.46	404.91
450.65	425.98
450.83	425.98
451.02	418.96
451.20	397.89
451.39	458.74
451.57	447.04
451.76	456.40
451.94	425.98
452.13	430.66
452.31	444.70
452.49	430.66
452.68	465.77
452.86	456.40
453.05	393.21
453.23	442.36
453.42	435.34
453.60	463.43
453.78	421.30
453.97	430.66
454.15	386.19
454.34	404.91
454.52	346.40
454.70	444.70
454.89	444.70
455.07	423.64
455.26	327.68
455.44	482.15
455.62	404.91
455.81	470.45
455.99	397.89
456.17	458.74
456.36	421.30
456.54	489.17
456.73	435.34
456.91	362.78
457.09	440.02
457.28	440.02
457.46	447.04
457.64	360.44
457.83	465.77
458.01	454.06
458.19	367.46
458.38	330.02
458.56	388.53
458.74	435.34
458.93	344.06
459.11	388.53
459.29	393.21
459.48	367.46
459.66	444.70
459.84	367.46
460.03	437.68
460.21	404.91
460.39	358.10
460.57	409.59
460.76	423.64
460.94	423.64
461.12	409.59
461.31	477.47
461.49	416.62
461.67	400.23
461.85	451.72
462.04	447.04
462.22	713.86
462.40	463.43
462.59	425.98
462.77	327.68
462.95	376.83
463.13	404.91
463.32	404.91
463.50	318.31
463.68	397.89
463.86	479.81
464.05	423.64
464.23	440.02
464.41	437.68
464.59	421.30
464.78	353.42
464.96	472.79
465.14	440.02
465.32	458.74
465.50	425.98
465.69	500.87
465.87	407.25
466.05	374.49
466.23	372.15
466.41	482.15
466.60	416.62
466.78	454.06
466.96	444.70
467.14	344.06
467.32	472.79
467.51	388.53
467.69	449.38
467.87	475.13
468.05	404.91
468.23	409.59
468.41	388.53
468.60	430.66
468.78	402.57
468.96	447.04
469.14	393.21
469.32	344.06
469.50	421.30
469.69	395.55
469.87	407.25
470.05	433.00
470.23	433.00
470.41	435.34
470.59	407.25
470.77	386.19
470.95	358.10
471.14	449.38
471.32	411.93
471.50	507.90
471.68	388.53
471.86	418.96
472.04	425.98
472.22	416.62
472.40	358.10
472.58	416.62
472.77	388.53
472.95	451.72
473.13	486.83
473.31	461.09
473.49	500.87
473.67	397.89
473.85	400.23
474.03	411.93
474.21	367.46
474.39	386.19
474.57	472.79
474.75	372.15
474.93	449.38
475.12	496.19
475.30	404.91
475.48	360.44
475.66	402.57
475.84	374.49
476.02	383.85
476.20	416.62
476.38	505.56
476.56	428.32
476.74	430.66
476.92	421.30
477.10	414.27
477.28	454.06
477.46	411.93
477.64	435.34
477.82	451.72
478.00	407.25
478.18	447.04
478.36	344.06
478.54	395.55
478.72	369.80
478.90	428.32
479.08	348.74
479.26	386.19
479.44	393.21
479.62	402.57
479.80	327.68
479.98	388.53
480.16	416.62
480.34	337.04
480.52	386.19
480.70	416.62
480.88	458.74
481.06	475.13
481.24	337.04
481.41	465.77
481.59	440.02
481.77	411.93
481.95	430.66
482.13	440.02
482.31	414.27
482.49	486.83
482.67	444.70
482.85	498.53
483.03	430.66
483.21	479.81
483.39	322.99
483.57	376.83
483.74	435.34
483.92	425.98
484.10	395.55
484.28	430.66
484.46	496.19
484.64	402.57
484.82	358.10
485.00	374.49
485.18	423.64
485.35	411.93
485.53	374.49
485.71	444.70
485.89	390.87
486.07	404.91
486.25	428.32
486.43	451.72
486.61	388.53
486.78	409.59
486.96	372.15
487.14	482.15
487.32	449.38
487.50	463.43
487.68	456.40
487.85	430.66
488.03	407.25
488.21	470.45
488.39	397.89
488.57	393.21
488.75	423.64
488.92	526.62
489.10	404.91
489.28	468.11
489.46	388.53
489.64	477.47
489.81	386.19
489.99	447.04
490.17	362.78
490.35	479.81
490.53	437.68
490.70	428.32
490.88	475.13
491.06	433.00
491.24	409.59
491.41	461.09
491.59	498.53
491.77	388.53
491.95	390.87
492.13	344.06
492.30	353.42
492.48	400.23
492.66	393.21
492.84	395.55
493.01	458.74
493.19	461.09
493.37	409.59
493.54	463.43
493.72	393.21
493.90	388.53
494.08	395.55
494.25	423.64
494.43	423.64
494.61	418.96
494.79	442.36
494.96	472.79
495.14	442.36
495.32	458.74
495.49	402.57
495.67	418.96
495.85	381.51
496.02	381.51
496.20	397.89
496.38	409.59
496.55	411.93
496.73	433.00
496.91	374.49
497.09	418.96
497.26	423.64
497.44	353.42
497.62	355.76
497.79	393.21
497.97	468.11
498.14	409.59
498.32	465.77
498.50	355.76
498.67	379.17
498.85	360.44
499.03	346.40
499.20	372.15
499.38	425.98
499.56	367.46
499.73	411.93
499.91	388.53
500.08	440.02
500.26	404.91
500.44	397.89
500.61	421.30
500.79	386.19
500.97	386.19
501.14	425.98
501.32	442.36
501.49	470.45
501.67	430.66
501.84	447.04
502.02	325.33
502.20	498.53
502.37	433.00
502.55	393.21
502.72	404.91
502.90	472.79
503.07	425.98
503.25	402.57
503.43	437.68
503.60	437.68
503.78	482.15
503.95	423.64
504.13	402.57
504.30	365.12
504.48	451.72
504.65	425.98
504.83	468.11
505.01	418.96
505.18	402.57
505.36	402.57
505.53	461.09
505.71	383.85
505.88	470.45
506.06	393.21
506.23	351.08
506.41	374.49
506.58	376.83
506.76	351.08
506.93	423.64
507.11	486.83
507.28	365.12
507.46	402.57
507.63	376.83
507.81	386.19
507.98	400.23
508.16	472.79
508.33	390.87
508.50	367.46
508.68	411.93
508.85	411.93
509.03	348.74
509.20	365.12
509.38	411.93
509.55	388.53
509.73	416.62
509.90	440.02
510.08	353.42
510.25	470.45
510.42	482.15
510.60	463.43
510.77	477.47
510.95	500.87
511.12	386.19
511.30	425.98
511.47	472.79
511.64	416.62
511.82	493.85
511.99	418.96
512.17	442.36
512.34	428.32
512.51	451.72
512.69	397.89
512.86	435.34
513.04	404.91
513.21	454.06
513.38	365.12
513.56	367.46
513.73	362.78
513.90	386.19
514.08	400.23
514.25	407.25
514.43	461.09
514.60	388.53
514.77	362.78
514.95	388.53
515.12	386.19
515.29	425.98
515.47	367.46
515.64	440.02
515.81	435.34
515.99	454.06
516.16	414.27
516.33	418.96
516.51	383.85
516.68	386.19
516.85	416.62
517.03	447.04
517.20	400.23
517.37	400.23
517.54	482.15
517.72	447.04
517.89	458.74
518.06	390.87
518.24	498.53
518.41	454.06
518.58	458.74
518.75	428.32
518.93	379.17
519.10	416.62
519.27	362.78
519.45	397.89
519.62	393.21
519.79	407.25
519.96	411.93
520.14	456.40
520.31	447.04
520.48	360.44
520.65	395.55
520.83	444.70
521.00	397.89
521.17	454.06
521.34	320.65
521.52	433.00
521.69	386.19
521.86	390.87
522.03	503.22
522.20	430.66
522.38	404.91
522.55	437.68
522.72	390.87
522.89	433.00
523.07	458.74
523.24	390.87
523.41	393.21
523.58	435.34
523.75	411.93
523.92	447.04
524.10	379.17
524.27	444.70
524.44	404.91
524.61	470.45
524.78	444.70
524.96	411.93
525.13	402.57
525.30	454.06
525.47	423.64
525.64	365.12
525.81	407.25
525.98	482.15
526.16	411.93
526.33	435.34
526.50	425.98
526.67	456.40
526.84	437.68
527.01	367.46
527.18	463.43
527.36	444.70
527.53	416.62
527.70	435.34
527.87	468.11
528.04	454.06
528.21	458.74
528.38	428.32
528.55	425.98
528.72	407.25
528.89	421.30
529.07	339.38
529.24	425.98
529.41	442.36
529.58	402.57
529.75	454.06
529.92	482.15
530.09	395.55
530.26	528.96
530.43	400.23
530.60	472.79
530.77	353.42
530.94	376.83
531.11	397.89
531.28	428.32
531.46	458.74
531.63	458.74
531.80	430.66
531.97	458.74
532.14	437.68
532.31	470.45
532.48	404.91
532.65	449.38
532.82	435.34
532.99	461.09
533.16	409.59
533.33	407.25
533.50	374.49
533.67	411.93
533.84	397.89
534.01	433.00
534.18	435.34
534.35	411.93
534.52	374.49
534.69	491.51
534.86	423.64
535.03	383.85
535.20	411.93
535.37	369.80
535.54	411.93
535.71	414.27
535.88	458.74
536.05	423.64
536.22	393.21
536.38	430.66
536.55	400.23
536.72	386.19
536.89	407.25
537.06	383.85
537.23	400.23
537.40	372.15
537.57	433.00
537.74	430.66
537.91	409.59
538.08	414.27
538.25	461.09
538.42	379.17
538.59	435.34
538.75	402.57
538.92	411.93
539.09	463.43
539.26	386.19
539.43	418.96
539.60	430.66
539.77	456.40
539.94	430.66
540.11	463.43
540.28	496.19
540.44	402.57
540.61	437.68
540.78	376.83
540.95	423.64
541.12	521.94
541.29	449.38
541.46	477.47
541.62	423.64
541.79	365.12
541.96	393.21
542.13	440.02
542.30	456.40
542.47	416.62
542.63	437.68
542.80	475.13
542.97	379.17
543.14	409.59
543.31	416.62
543.48	461.09
543.64	365.12
543.81	425.98
543.98	437.68
544.15	301.93
544.32	402.57
544.48	447.04
544.65	444.70
544.82	409.59
544.99	421.30
545.16	414.27
545.32	362.78
545.49	418.96
545.66	437.68
545.83	433.00
546.00	344.06
546.16	360.44
546.33	383.85
546.50	407.25
546.67	437.68
546.83	463.43
547.00	374.49
547.17	407.25
547.34	423.64
547.50	369.80
547.67	425.98
547.84	393.21
548.00	395.55
548.17	425.98
548.34	397.89
548.51	451.72
548.67	484.49
548.84	435.34
549.01	437.68
549.18	437.68
549.34	402.57
549.51	421.30
549.68	451.72
549.84	416.62
550.01	409.59
550.18	486.83
550.34	524.28
550.51	393.21
550.68	423.64
550.84	484.49
551.01	365.12
551.18	468.11
551.34	423.64
551.51	449.38
551.68	423.64
551.84	486.83
552.01	358.10
552.18	409.59
552.34	416.62
552.51	397.89
552.68	421.30
552.84	390.87
553.01	379.17
553.18	367.46
553.34	433.00
553.51	416.62
553.67	418.96
553.84	425.98
554.01	414.27
554.17	454.06
554.34	468.11
554.51	400.23
554.67	491.51
554.84	447.04
555.00	475.13
555.17	437.68
555.33	468.11
555.50	367.46
555.67	437.68
555.83	425.98
556.00	503.22
556.16	498.53
556.33	486.83
556.50	451.72
556.66	393.21
556.83	409.59
556.99	423.64
557.16	414.27
557.32	449.38
557.49	402.57
557.65	416.62
557.82	454.06
557.98	367.46
558.15	414.27
558.32	393.21
558.48	489.17
558.65	344.06
558.81	484.49
558.98	346.40
559.14	428.32
559.31	442.36
559.47	393.21
559.64	421.30
559.80	454.06
559.97	430.66
560.13	491.51
560.30	479.81
560.46	430.66
560.63	400.23
560.79	393.21
560.96	435.34
561.12	456.40
561.29	402.57
561.45	407.25
561.61	322.99
561.78	468.11
561.94	454.06
562.11	383.85
562.27	437.68
562.44	369.80
562.60	388.53
562.77	440.02
562.93	512.58
563.10	416.62
563.26	425.98
563.42	416.62
563.59	365.12
563.75	447.04
563.92	433.00
564.08	372.15
564.24	400.23
564.41	440.02
564.57	414.27
564.74	386.19
564.90	395.55
565.07	440.02
565.23	411.93
565.39	383.85
565.56	440.02
565.72	461.09
565.88	404.91
566.05	493.85
566.21	416.62
566.38	458.74
566.54	437.68
566.70	381.51
566.87	386.19
567.03	400.23
567.19	435.34
567.36	433.00
567.52	390.87
567.68	472.79
567.85	482.15
568.01	479.81
568.17	423.64
568.34	418.96
568.50	416.62
568.66	407.25
568.83	519.60
568.99	390.87
569.15	425.98
569.32	351.08
569.48	388.53
569.64	376.83
569.81	430.66
569.97	404.91
570.13	388.53
570.30	475.13
570.46	386.19
570.62	409.59
570.78	442.36
570.95	423.64
571.11	404.91
571.27	465.77
571.43	430.66
571.60	411.93
571.76	388.53
571.92	411.93
572.09	325.33
572.25	428.32
572.41	400.23
572.57	407.25
572.74	454.06
572.90	411.93
573.06	423.64
573.22	465.77
573.38	416.62
573.55	393.21
573.71	458.74
573.87	379.17
574.03	423.64
574.20	360.44
574.36	447.04
574.52	411.93
574.68	418.96
574.84	423.64
575.01	449.38
575.17	407.25
575.33	477.47
575.49	433.00
575.65	421.30
575.82	348.74
575.98	404.91
576.14	442.36
576.30	468.11
576.46	423.64
576.62	416.62
576.79	414.27
576.95	411.93
577.11	430.66
577.27	397.89
577.43	428.32
577.59	461.09
577.75	463.43
577.92	421.30
578.08	397.89
578.24	381.51
578.40	458.74
578.56	402.57
578.72	449.38
578.88	386.19
579.04	397.89
579.21	393.21
579.37	425.98
579.53	353.42
579.69	489.17
579.85	376.83
580.01	451.72
580.17	461.09
580.33	388.53
580.49	496.19
580.65	505.56
580.82	414.27
580.98	423.64
581.14	367.46
581.30	468.11
581.46	423.64
581.62	430.66
581.78	381.51
581.94	355.76
582.10	409.59
582.26	404.91
582.42	411.93
582.58	393.21
582.74	381.51
582.90	433.00
583.06	400.23
583.22	407.25
583.38	411.93
583.54	404.91
583.70	451.72
583.86	395.55
584.02	447.04
584.18	440.02
584.34	315.97
584.50	416.62
584.66	353.42
584.82	334.70
584.98	451.72
585.14	395.55
585.30	477.47
585.46	411.93
585.62	444.70
585.78	456.40
585.94	388.53
586.10	376.83
586.26	402.57
586.42	440.02
586.58	470.45
586.74	498.53
586.90	433.00
587.06	428.32
587.22	409.59
587.38	437.68
587.54	332.36
587.70	411.93
587.86	374.49
588.02	388.53
588.18	451.72
588.34	465.77
588.49	428.32
588.65	451.72
588.81	442.36
588.97	421.30
589.13	491.51
589.29	461.09
589.45	479.81
589.61	376.83
589.77	461.09
589.93	456.40
590.08	365.12
590.24	456.40
590.40	418.96
590.56	477.47
590.72	423.64
590.88	463.43
591.04	411.93
591.20	433.00
591.35	475.13
591.51	433.00
591.67	376.83
591.83	416.62
591.99	379.17
592.15	442.36
592.31	437.68
592.46	376.83
592.62	433.00
592.78	425.98
592.94	425.98
593.10	407.25
593.26	428.32
593.41	491.51
593.57	414.27
593.73	433.00
593.89	402.57
594.05	367.46
594.20	402.57
594.36	418.96
594.52	397.89
594.68	372.15
594.84	395.55
594.99	428.32
595.15	454.06
595.31	388.53
595.47	451.72
595.62	437.68
595.78	393.21
595.94	367.46
596.10	388.53
596.25	360.44
596.41	418.96
596.57	397.89
596.73	379.17
596.88	362.78
597.04	463.43
597.20	407.25
597.36	498.53
597.51	454.06
597.67	428.32
597.83	423.64
597.99	428.32
598.14	393.21
598.30	430.66
598.46	348.74
598.61	409.59
598.77	374.49
598.93	390.87
599.09	386.19
599.24	463.43
599.40	479.81
599.56	404.91
599.71	393.21
599.87	393.21
600.03	491.51
600.18	369.80
600.34	425.98
600.50	367.46
600.65	372.15
600.81	367.46
600.97	442.36
601.12	400.23
601.28	365.12
601.44	414.27
601.59	400.23
601.75	411.93
601.91	411.93
602.06	472.79
602.22	524.28
602.37	421.30
602.53	414.27
602.69	447.04
602.84	435.34
603.00	444.70
603.16	423.64
603.31	461.09
603.47	461.09
603.62	381.51
603.78	428.32
603.94	435.34
604.09	367.46
604.25	437.68
604.40	437.68
604.56	454.06
604.71	468.11
604.87	402.57
605.03	463.43
605.18	400.23
605.34	458.74
605.49	468.11
605.65	400.23
605.80	428.32
605.96	376.83
606.12	458.74
606.27	393.21
606.43	433.00
606.58	442.36
606.74	393.21
606.89	411.93
607.05	409.59
607.20	369.80
607.36	374.49
607.51	442.36
607.67	465.77
607.82	393.21
607.98	505.56
608.13	503.22
608.29	454.06
608.44	489.17
608.60	435.34
608.75	489.17
608.91	402.57
609.06	400.23
609.22	423.64
609.37	390.87
609.53	360.44
609.68	482.15
609.84	470.45
609.99	421.30
610.15	416.62
