SpectraSuite Data File
++++++++++++++++++++++++++++++++++++
Date: Fri Oct 25 12:10:20 EDT 2013
User: price-jones
Dark Spectrum Present: No
Reference Spectrum Present: No
Number of Sampled Component Spectra: 1
Spectrometers: USB2+H05261
Integration Time (usec): 100000 (USB2+H05261)
Spectra Averaged: 1 (USB2+H05261)
Boxcar Smoothing: 0 (USB2+H05261)
Correct for Electrical Dark: No (USB2+H05261)
Strobe/Lamp Enabled: No (USB2+H05261)
Correct for Detector Non-linearity: No (USB2+H05261)
Correct for Stray Light: No (USB2+H05261)
Number of Pixels in Processed Spectrum: 2048
>>>>>Begin Processed Spectral Data<<<<<
365.73	360.44
365.92	360.44
366.12	360.44
366.32	262.14
366.52	163.84
366.72	217.67
366.91	217.67
367.11	198.95
367.31	196.60
367.51	161.50
367.70	241.08
367.90	264.48
368.10	257.46
368.30	290.23
368.49	224.69
368.69	285.55
368.89	264.48
369.09	198.95
369.28	269.16
369.48	278.52
369.68	255.12
369.87	306.61
370.07	306.61
370.27	243.42
370.47	334.70
370.66	290.23
370.86	318.31
371.06	358.10
371.25	454.06
371.45	379.17
371.65	358.10
371.84	355.76
372.04	402.57
372.24	381.51
372.44	388.53
372.63	397.89
372.83	458.74
373.03	540.66
373.22	372.15
373.42	418.96
373.62	376.83
373.81	388.53
374.01	435.34
374.21	407.25
374.40	475.13
374.60	414.27
374.79	395.55
374.99	409.59
375.19	416.62
375.38	433.00
375.58	468.11
375.78	498.53
375.97	444.70
376.17	421.30
376.37	451.72
376.56	388.53
376.76	435.34
376.95	400.23
377.15	451.72
377.35	463.43
377.54	496.19
377.74	437.68
377.93	421.30
378.13	313.63
378.33	430.66
378.52	423.64
378.72	369.80
378.91	355.76
379.11	390.87
379.31	386.19
379.50	353.42
379.70	423.64
379.89	482.15
380.09	372.15
380.28	369.80
380.48	379.17
380.68	425.98
380.87	388.53
381.07	421.30
381.26	444.70
381.46	428.32
381.65	416.62
381.85	465.77
382.04	435.34
382.24	456.40
382.43	425.98
382.63	416.62
382.83	409.59
383.02	404.91
383.22	428.32
383.41	372.15
383.61	339.38
383.80	440.02
384.00	418.96
384.19	337.04
384.39	393.21
384.58	421.30
384.78	477.47
384.97	362.78
385.17	360.44
385.36	435.34
385.56	418.96
385.75	418.96
385.95	444.70
386.14	355.76
386.34	362.78
386.53	433.00
386.72	367.46
386.92	416.62
387.11	465.77
387.31	400.23
387.50	407.25
387.70	458.74
387.89	390.87
388.09	402.57
388.28	477.47
388.48	369.80
388.67	348.74
388.86	393.21
389.06	383.85
389.25	365.12
389.45	451.72
389.64	376.83
389.84	454.06
390.03	390.87
390.22	409.59
390.42	390.87
390.61	416.62
390.81	479.81
391.00	393.21
391.19	458.74
391.39	395.55
391.58	421.30
391.78	428.32
391.97	348.74
392.16	393.21
392.36	397.89
392.55	416.62
392.75	348.74
392.94	407.25
393.13	430.66
393.33	386.19
393.52	381.51
393.71	407.25
393.91	447.04
394.10	402.57
394.29	402.57
394.49	454.06
394.68	400.23
394.88	440.02
395.07	390.87
395.26	437.68
395.46	379.17
395.65	477.47
395.84	456.40
396.04	456.40
396.23	442.36
396.42	390.87
396.62	423.64
396.81	358.10
397.00	390.87
397.19	479.81
397.39	428.32
397.58	395.55
397.77	299.59
397.97	421.30
398.16	360.44
398.35	390.87
398.55	400.23
398.74	465.77
398.93	423.64
399.12	416.62
399.32	365.12
399.51	395.55
399.70	430.66
399.90	400.23
400.09	418.96
400.28	348.74
400.47	421.30
400.67	440.02
400.86	475.13
401.05	409.59
401.24	407.25
401.44	353.42
401.63	390.87
401.82	421.30
402.01	421.30
402.21	440.02
402.40	397.89
402.59	454.06
402.78	430.66
402.97	383.85
403.17	379.17
403.36	404.91
403.55	418.96
403.74	423.64
403.93	454.06
404.13	461.09
404.32	449.38
404.51	425.98
404.70	393.21
404.89	374.49
405.09	496.19
405.28	344.06
405.47	440.02
405.66	470.45
405.85	486.83
406.05	458.74
406.24	402.57
406.43	440.02
406.62	404.91
406.81	477.47
407.00	447.04
407.20	383.85
407.39	411.93
407.58	393.21
407.77	372.15
407.96	433.00
408.15	400.23
408.34	337.04
408.54	388.53
408.73	437.68
408.92	409.59
409.11	409.59
409.30	416.62
409.49	430.66
409.68	402.57
409.87	360.44
410.07	414.27
410.26	390.87
410.45	334.70
410.64	337.04
410.83	472.79
411.02	395.55
411.21	365.12
411.40	397.89
411.59	400.23
411.78	313.63
411.98	360.44
412.17	358.10
412.36	351.08
412.55	407.25
412.74	421.30
412.93	390.87
413.12	372.15
413.31	409.59
413.50	397.89
413.69	376.83
413.88	449.38
414.07	414.27
414.26	479.81
414.45	475.13
414.64	421.30
414.83	393.21
415.02	430.66
415.22	477.47
415.41	407.25
415.60	451.72
415.79	381.51
415.98	449.38
416.17	444.70
416.36	404.91
416.55	425.98
416.74	461.09
416.93	409.59
417.12	362.78
417.31	379.17
417.50	449.38
417.69	425.98
417.88	447.04
418.07	397.89
418.26	433.00
418.45	362.78
418.64	423.64
418.83	393.21
419.02	330.02
419.21	442.36
419.39	339.38
419.58	367.46
419.77	386.19
419.96	369.80
420.15	393.21
420.34	418.96
420.53	491.51
420.72	404.91
420.91	395.55
421.10	330.02
421.29	444.70
421.48	402.57
421.67	454.06
421.86	440.02
422.05	404.91
422.24	437.68
422.43	383.85
422.61	353.42
422.80	414.27
422.99	400.23
423.18	339.38
423.37	456.40
423.56	491.51
423.75	437.68
423.94	423.64
424.13	472.79
424.32	383.85
424.50	461.09
424.69	383.85
424.88	435.34
425.07	372.15
425.26	390.87
425.45	369.80
425.64	437.68
425.83	407.25
426.01	411.93
426.20	388.53
426.39	376.83
426.58	400.23
426.77	437.68
426.96	463.43
427.15	437.68
427.33	468.11
427.52	367.46
427.71	397.89
427.90	397.89
428.09	383.85
428.28	395.55
428.46	358.10
428.65	435.34
428.84	425.98
429.03	379.17
429.22	395.55
429.40	425.98
429.59	390.87
429.78	458.74
429.97	409.59
430.16	358.10
430.34	379.17
430.53	421.30
430.72	376.83
430.91	386.19
431.10	463.43
431.28	402.57
431.47	325.33
431.66	461.09
431.85	339.38
432.03	346.40
432.22	526.62
432.41	395.55
432.60	421.30
432.79	411.93
432.97	386.19
433.16	381.51
433.35	367.46
433.54	351.08
433.72	465.77
433.91	365.12
434.10	418.96
434.28	479.81
434.47	381.51
434.66	463.43
434.85	416.62
435.03	383.85
435.22	430.66
435.41	421.30
435.59	454.06
435.78	400.23
435.97	421.30
436.16	418.96
436.34	416.62
436.53	447.04
436.72	454.06
436.90	454.06
437.09	376.83
437.28	383.85
437.46	381.51
437.65	425.98
437.84	411.93
438.02	414.27
438.21	433.00
438.40	379.17
438.58	440.02
438.77	418.96
438.96	397.89
439.14	425.98
439.33	428.32
439.52	475.13
439.70	402.57
439.89	414.27
440.08	395.55
440.26	479.81
440.45	379.17
440.63	435.34
440.82	437.68
441.01	402.57
441.19	444.70
441.38	423.64
441.57	451.72
441.75	498.53
441.94	440.02
442.12	402.57
442.31	465.77
442.50	454.06
442.68	423.64
442.87	395.55
443.05	374.49
443.24	383.85
443.43	393.21
443.61	423.64
443.80	416.62
443.98	407.25
444.17	435.34
444.35	376.83
444.54	421.30
444.73	449.38
444.91	402.57
445.10	435.34
445.28	397.89
445.47	376.83
445.65	444.70
445.84	423.64
446.02	400.23
446.21	444.70
446.39	365.12
446.58	461.09
446.77	379.17
446.95	358.10
447.14	402.57
447.32	388.53
447.51	393.21
447.69	425.98
447.88	430.66
448.06	400.23
448.25	404.91
448.43	404.91
448.62	404.91
448.80	332.36
448.99	440.02
449.17	388.53
449.36	442.36
449.54	437.68
449.73	437.68
449.91	428.32
450.10	458.74
450.28	454.06
450.46	369.80
450.65	423.64
450.83	388.53
451.02	411.93
451.20	404.91
451.39	444.70
451.57	437.68
451.76	477.47
451.94	442.36
452.13	421.30
452.31	433.00
452.49	463.43
452.68	409.59
452.86	393.21
453.05	444.70
453.23	447.04
453.42	442.36
453.60	433.00
453.78	416.62
453.97	383.85
454.15	358.10
454.34	386.19
454.52	397.89
454.70	416.62
454.89	315.97
455.07	397.89
455.26	379.17
455.44	458.74
455.62	493.85
455.81	425.98
455.99	351.08
456.17	484.49
456.36	428.32
456.54	374.49
456.73	339.38
456.91	383.85
457.09	386.19
457.28	383.85
457.46	369.80
457.64	404.91
457.83	465.77
458.01	383.85
458.19	435.34
458.38	395.55
458.56	402.57
458.74	409.59
458.93	339.38
459.11	381.51
459.29	430.66
459.48	465.77
459.66	440.02
459.84	416.62
460.03	489.17
460.21	409.59
460.39	362.78
460.57	411.93
460.76	397.89
460.94	381.51
461.12	414.27
461.31	400.23
461.49	435.34
461.67	421.30
461.85	440.02
462.04	365.12
462.22	748.97
462.40	372.15
462.59	414.27
462.77	367.46
462.95	418.96
463.13	393.21
463.32	435.34
463.50	358.10
463.68	435.34
463.86	442.36
464.05	444.70
464.23	477.47
464.41	465.77
464.59	311.29
464.78	437.68
464.96	409.59
465.14	400.23
465.32	425.98
465.50	421.30
465.69	435.34
465.87	416.62
466.05	472.79
466.23	454.06
466.41	341.72
466.60	360.44
466.78	435.34
466.96	409.59
467.14	367.46
467.32	421.30
467.51	491.51
467.69	454.06
467.87	437.68
468.05	433.00
468.23	418.96
468.41	437.68
468.60	418.96
468.78	388.53
468.96	397.89
469.14	421.30
469.32	418.96
469.50	383.85
469.69	470.45
469.87	404.91
470.05	421.30
470.23	442.36
470.41	330.02
470.59	381.51
470.77	376.83
470.95	470.45
471.14	470.45
471.32	386.19
471.50	374.49
471.68	409.59
471.86	421.30
472.04	390.87
472.22	367.46
472.40	416.62
472.58	437.68
472.77	393.21
472.95	472.79
473.13	524.28
473.31	468.11
473.49	360.44
473.67	381.51
473.85	365.12
474.03	379.17
474.21	430.66
474.39	402.57
474.57	435.34
474.75	437.68
474.93	416.62
475.12	451.72
475.30	404.91
475.48	465.77
475.66	393.21
475.84	411.93
476.02	421.30
476.20	440.02
476.38	433.00
476.56	447.04
476.74	367.46
476.92	397.89
477.10	374.49
477.28	442.36
477.46	409.59
477.64	503.22
477.82	400.23
478.00	484.49
478.18	353.42
478.36	418.96
478.54	418.96
478.72	463.43
478.90	402.57
479.08	374.49
479.26	423.64
479.44	425.98
479.62	327.68
479.80	440.02
479.98	421.30
480.16	395.55
480.34	423.64
480.52	414.27
480.70	404.91
480.88	372.15
481.06	449.38
481.24	376.83
481.41	435.34
481.59	477.47
481.77	477.47
481.95	456.40
482.13	449.38
482.31	449.38
482.49	395.55
482.67	421.30
482.85	407.25
483.03	454.06
483.21	425.98
483.39	383.85
483.57	386.19
483.74	454.06
483.92	437.68
484.10	381.51
484.28	425.98
484.46	503.22
484.64	421.30
484.82	287.89
485.00	409.59
485.18	423.64
485.35	456.40
485.53	404.91
485.71	433.00
485.89	346.40
486.07	404.91
486.25	461.09
486.43	393.21
486.61	442.36
486.78	425.98
486.96	418.96
487.14	416.62
487.32	449.38
487.50	423.64
487.68	414.27
487.85	435.34
488.03	498.53
488.21	456.40
488.39	390.87
488.57	465.77
488.75	351.08
488.92	496.19
489.10	400.23
489.28	465.77
489.46	425.98
489.64	409.59
489.81	409.59
489.99	482.15
490.17	397.89
490.35	496.19
490.53	404.91
490.70	477.47
490.88	409.59
491.06	409.59
491.24	489.17
491.41	454.06
491.59	428.32
491.77	461.09
491.95	341.72
492.13	428.32
492.30	414.27
492.48	411.93
492.66	400.23
492.84	472.79
493.01	362.78
493.19	351.08
493.37	435.34
493.54	418.96
493.72	423.64
493.90	388.53
494.08	318.31
494.25	456.40
494.43	332.36
494.61	440.02
494.79	433.00
494.96	344.06
495.14	402.57
495.32	454.06
495.49	367.46
495.67	468.11
495.85	428.32
496.02	383.85
496.20	404.91
496.38	416.62
496.55	425.98
496.73	435.34
496.91	425.98
497.09	421.30
497.26	479.81
497.44	397.89
497.62	414.27
497.79	433.00
497.97	498.53
498.14	395.55
498.32	486.83
498.50	414.27
498.67	451.72
498.85	482.15
499.03	388.53
499.20	409.59
499.38	491.51
499.56	449.38
499.73	458.74
499.91	367.46
500.08	393.21
500.26	337.04
500.44	383.85
500.61	435.34
500.79	360.44
500.97	416.62
501.14	435.34
501.32	381.51
501.49	456.40
501.67	346.40
501.84	470.45
502.02	404.91
502.20	489.17
502.37	435.34
502.55	318.31
502.72	365.12
502.90	435.34
503.07	400.23
503.25	407.25
503.43	327.68
503.60	423.64
503.78	428.32
503.95	395.55
504.13	416.62
504.30	386.19
504.48	358.10
504.65	491.51
504.83	510.24
505.01	395.55
505.18	463.43
505.36	411.93
505.53	463.43
505.71	484.49
505.88	404.91
506.06	440.02
506.23	435.34
506.41	444.70
506.58	463.43
506.76	449.38
506.93	407.25
507.11	418.96
507.28	442.36
507.46	407.25
507.63	425.98
507.81	407.25
507.98	409.59
508.16	362.78
508.33	397.89
508.50	374.49
508.68	421.30
508.85	369.80
509.03	433.00
509.20	365.12
509.38	489.17
509.55	454.06
509.73	411.93
509.90	393.21
510.08	437.68
510.25	458.74
510.42	416.62
510.60	477.47
510.77	407.25
510.95	407.25
511.12	374.49
511.30	463.43
511.47	444.70
511.64	348.74
511.82	379.17
511.99	397.89
512.17	376.83
512.34	414.27
512.51	418.96
512.69	393.21
512.86	428.32
513.04	456.40
513.21	400.23
513.38	397.89
513.56	437.68
513.73	421.30
513.90	393.21
514.08	386.19
514.25	475.13
514.43	402.57
514.60	397.89
514.77	393.21
514.95	397.89
515.12	390.87
515.29	367.46
515.47	365.12
515.64	404.91
515.81	451.72
515.99	409.59
516.16	435.34
516.33	421.30
516.51	348.74
516.68	386.19
516.85	358.10
517.03	468.11
517.20	444.70
517.37	461.09
517.54	463.43
517.72	416.62
517.89	344.06
518.06	365.12
518.24	447.04
518.41	496.19
518.58	425.98
518.75	374.49
518.93	451.72
519.10	456.40
519.27	367.46
519.45	386.19
519.62	437.68
519.79	465.77
519.96	409.59
520.14	381.51
520.31	486.83
520.48	372.15
520.65	388.53
520.83	465.77
521.00	414.27
521.17	430.66
521.34	440.02
521.52	435.34
521.69	435.34
521.86	397.89
522.03	383.85
522.20	472.79
522.38	433.00
522.55	379.17
522.72	418.96
522.89	416.62
523.07	517.26
523.24	390.87
523.41	484.49
523.58	414.27
523.75	468.11
523.92	353.42
524.10	428.32
524.27	409.59
524.44	360.44
524.61	451.72
524.78	402.57
524.96	440.02
525.13	362.78
525.30	430.66
525.47	503.22
525.64	388.53
525.81	447.04
525.98	489.17
526.16	393.21
526.33	379.17
526.50	374.49
526.67	304.27
526.84	301.93
527.01	330.02
527.18	400.23
527.36	442.36
527.53	416.62
527.70	440.02
527.87	407.25
528.04	423.64
528.21	362.78
528.38	425.98
528.55	414.27
528.72	461.09
528.89	428.32
529.07	365.12
529.24	433.00
529.41	376.83
529.58	435.34
529.75	367.46
529.92	395.55
530.09	402.57
530.26	425.98
530.43	468.11
530.60	395.55
530.77	423.64
530.94	447.04
531.11	435.34
531.28	365.12
531.46	409.59
531.63	388.53
531.80	390.87
531.97	358.10
532.14	376.83
532.31	468.11
532.48	360.44
532.65	442.36
532.82	395.55
532.99	388.53
533.16	411.93
533.33	491.51
533.50	437.68
533.67	395.55
533.84	390.87
534.01	337.04
534.18	425.98
534.35	404.91
534.52	442.36
534.69	418.96
534.86	348.74
535.03	435.34
535.20	367.46
535.37	376.83
535.54	440.02
535.71	346.40
535.88	430.66
536.05	411.93
536.22	369.80
536.38	409.59
536.55	470.45
536.72	423.64
536.89	400.23
537.06	388.53
537.23	397.89
537.40	458.74
537.57	407.25
537.74	503.22
537.91	463.43
538.08	442.36
538.25	390.87
538.42	372.15
538.59	379.17
538.75	456.40
538.92	407.25
539.09	447.04
539.26	400.23
539.43	489.17
539.60	386.19
539.77	407.25
539.94	341.72
540.11	355.76
540.28	381.51
540.44	404.91
540.61	379.17
540.78	414.27
540.95	435.34
541.12	414.27
541.29	409.59
541.46	456.40
541.62	397.89
541.79	486.83
541.96	442.36
542.13	381.51
542.30	400.23
542.47	477.47
542.63	442.36
542.80	430.66
542.97	475.13
543.14	414.27
543.31	437.68
543.48	322.99
543.64	402.57
543.81	454.06
543.98	433.00
544.15	355.76
544.32	353.42
544.48	414.27
544.65	416.62
544.82	355.76
544.99	461.09
545.16	465.77
545.32	449.38
545.49	400.23
545.66	365.12
545.83	470.45
546.00	313.63
546.16	404.91
546.33	418.96
546.50	376.83
546.67	428.32
546.83	409.59
547.00	372.15
547.17	435.34
547.34	418.96
547.50	430.66
547.67	423.64
547.84	409.59
548.00	379.17
548.17	479.81
548.34	475.13
548.51	418.96
548.67	379.17
548.84	358.10
549.01	376.83
549.18	404.91
549.34	433.00
549.51	395.55
549.68	407.25
549.84	449.38
550.01	458.74
550.18	484.49
550.34	521.94
550.51	409.59
550.68	428.32
550.84	395.55
551.01	379.17
551.18	358.10
551.34	496.19
551.51	358.10
551.68	395.55
551.84	411.93
552.01	383.85
552.18	360.44
552.34	360.44
552.51	470.45
552.68	386.19
552.84	386.19
553.01	397.89
553.18	477.47
553.34	367.46
553.51	435.34
553.67	440.02
553.84	486.83
554.01	416.62
554.17	433.00
554.34	383.85
554.51	381.51
554.67	491.51
554.84	437.68
555.00	425.98
555.17	414.27
555.33	451.72
555.50	489.17
555.67	430.66
555.83	344.06
556.00	386.19
556.16	512.58
556.33	477.47
556.50	425.98
556.66	465.77
556.83	397.89
556.99	346.40
557.16	430.66
557.32	449.38
557.49	407.25
557.65	444.70
557.82	442.36
557.98	444.70
558.15	411.93
558.32	433.00
558.48	442.36
558.65	437.68
558.81	472.79
558.98	451.72
559.14	388.53
559.31	465.77
559.47	393.21
559.64	468.11
559.80	496.19
559.97	479.81
560.13	430.66
560.30	491.51
560.46	440.02
560.63	416.62
560.79	479.81
560.96	493.85
561.12	404.91
561.29	447.04
561.45	463.43
561.61	397.89
561.78	512.58
561.94	372.15
562.11	407.25
562.27	458.74
562.44	409.59
562.60	369.80
562.77	407.25
562.93	500.87
563.10	454.06
563.26	449.38
563.42	425.98
563.59	411.93
563.75	449.38
563.92	425.98
564.08	379.17
564.24	423.64
564.41	447.04
564.57	458.74
564.74	395.55
564.90	372.15
565.07	428.32
565.23	379.17
565.39	454.06
565.56	507.90
565.72	355.76
565.88	440.02
566.05	376.83
566.21	404.91
566.38	423.64
566.54	414.27
566.70	341.72
566.87	348.74
567.03	362.78
567.19	524.28
567.36	388.53
567.52	418.96
567.68	465.77
567.85	360.44
568.01	372.15
568.17	411.93
568.34	477.47
568.50	482.15
568.66	421.30
568.83	507.90
568.99	430.66
569.15	507.90
569.32	416.62
569.48	402.57
569.64	330.02
569.81	330.02
569.97	437.68
570.13	393.21
570.30	414.27
570.46	381.51
570.62	351.08
570.78	388.53
570.95	362.78
571.11	486.83
571.27	430.66
571.43	444.70
571.60	454.06
571.76	400.23
571.92	423.64
572.09	442.36
572.25	407.25
572.41	477.47
572.57	437.68
572.74	475.13
572.90	482.15
573.06	421.30
573.22	374.49
573.38	409.59
573.55	435.34
573.71	444.70
573.87	465.77
574.03	397.89
574.20	397.89
574.36	421.30
574.52	428.32
574.68	365.12
574.84	416.62
575.01	404.91
575.17	393.21
575.33	334.70
575.49	468.11
575.65	503.22
575.82	484.49
575.98	390.87
576.14	486.83
576.30	524.28
576.46	437.68
576.62	440.02
576.79	430.66
576.95	428.32
577.11	447.04
577.27	353.42
577.43	482.15
577.59	411.93
577.75	463.43
577.92	447.04
578.08	442.36
578.24	416.62
578.40	355.76
578.56	397.89
578.72	468.11
578.88	437.68
579.04	388.53
579.21	390.87
579.37	447.04
579.53	411.93
579.69	451.72
579.85	379.17
580.01	440.02
580.17	437.68
580.33	414.27
580.49	421.30
580.65	369.80
580.82	400.23
580.98	444.70
581.14	442.36
581.30	397.89
581.46	442.36
581.62	388.53
581.78	451.72
581.94	449.38
582.10	437.68
582.26	454.06
582.42	465.77
582.58	416.62
582.74	421.30
582.90	379.17
583.06	477.47
583.22	397.89
583.38	449.38
583.54	475.13
583.70	409.59
583.86	411.93
584.02	510.24
584.18	458.74
584.34	463.43
584.50	451.72
584.66	421.30
584.82	390.87
584.98	451.72
585.14	454.06
585.30	475.13
585.46	397.89
585.62	386.19
585.78	390.87
585.94	437.68
586.10	397.89
586.26	440.02
586.42	505.56
586.58	414.27
586.74	360.44
586.90	421.30
587.06	416.62
587.22	388.53
587.38	409.59
587.54	416.62
587.70	435.34
587.86	365.12
588.02	416.62
588.18	374.49
588.34	395.55
588.49	442.36
588.65	409.59
588.81	444.70
588.97	416.62
589.13	369.80
589.29	496.19
589.45	477.47
589.61	414.27
589.77	454.06
589.93	475.13
590.08	390.87
590.24	383.85
590.40	407.25
590.56	430.66
590.72	486.83
590.88	395.55
591.04	461.09
591.20	425.98
591.35	428.32
591.51	454.06
591.67	407.25
591.83	397.89
591.99	407.25
592.15	521.94
592.31	407.25
592.46	447.04
592.62	435.34
592.78	390.87
592.94	383.85
593.10	367.46
593.26	454.06
593.41	425.98
593.57	444.70
593.73	388.53
593.89	500.87
594.05	489.17
594.20	456.40
594.36	428.32
594.52	411.93
594.68	390.87
594.84	423.64
594.99	447.04
595.15	440.02
595.31	435.34
595.47	449.38
595.62	458.74
595.78	409.59
595.94	407.25
596.10	414.27
596.25	449.38
596.41	425.98
596.57	451.72
596.73	440.02
596.88	425.98
597.04	400.23
597.20	372.15
597.36	435.34
597.51	372.15
597.67	456.40
597.83	428.32
597.99	393.21
598.14	362.78
598.30	449.38
598.46	425.98
598.61	435.34
598.77	500.87
598.93	369.80
599.09	376.83
599.24	409.59
599.40	468.11
599.56	428.32
599.71	411.93
599.87	421.30
600.03	425.98
600.18	376.83
600.34	447.04
600.50	451.72
600.65	425.98
600.81	461.09
600.97	435.34
601.12	437.68
601.28	458.74
601.44	397.89
601.59	425.98
601.75	437.68
601.91	393.21
602.06	423.64
602.22	386.19
602.37	451.72
602.53	463.43
602.69	388.53
602.84	360.44
603.00	430.66
603.16	423.64
603.31	425.98
603.47	458.74
603.62	402.57
603.78	379.17
603.94	440.02
604.09	397.89
604.25	421.30
604.40	465.77
604.56	395.55
604.71	362.78
604.87	353.42
605.03	402.57
605.18	330.02
605.34	458.74
605.49	383.85
605.65	430.66
605.80	337.04
605.96	423.64
606.12	496.19
606.27	465.77
606.43	395.55
606.58	425.98
606.74	407.25
606.89	355.76
607.05	421.30
607.20	409.59
607.36	409.59
607.51	449.38
607.67	390.87
607.82	430.66
607.98	435.34
608.13	402.57
608.29	468.11
608.44	353.42
608.60	500.87
608.75	423.64
608.91	430.66
609.06	477.47
609.22	444.70
609.37	390.87
609.53	351.08
609.68	397.89
609.84	381.51
609.99	505.56
610.15	442.36
