SpectraSuite Data File
++++++++++++++++++++++++++++++++++++
Date: Fri Oct 25 12:10:20 EDT 2013
User: price-jones
Dark Spectrum Present: No
Reference Spectrum Present: No
Number of Sampled Component Spectra: 1
Spectrometers: USB2+H05261
Integration Time (usec): 100000 (USB2+H05261)
Spectra Averaged: 1 (USB2+H05261)
Boxcar Smoothing: 0 (USB2+H05261)
Correct for Electrical Dark: No (USB2+H05261)
Strobe/Lamp Enabled: No (USB2+H05261)
Correct for Detector Non-linearity: No (USB2+H05261)
Correct for Stray Light: No (USB2+H05261)
Number of Pixels in Processed Spectrum: 2048
>>>>>Begin Processed Spectral Data<<<<<
365.73	337.04
365.92	337.04
366.12	337.04
366.32	236.39
366.52	163.84
366.72	224.69
366.91	198.95
367.11	217.67
367.31	217.67
367.51	173.20
367.70	250.44
367.90	224.69
368.10	266.82
368.30	238.73
368.49	245.76
368.69	266.82
368.89	250.44
369.09	304.27
369.28	243.42
369.48	250.44
369.68	236.39
369.87	332.36
370.07	271.50
370.27	294.91
370.47	367.46
370.66	330.02
370.86	322.99
371.06	418.96
371.25	358.10
371.45	348.74
371.65	386.19
371.84	355.76
372.04	369.80
372.24	470.45
372.44	433.00
372.63	374.49
372.83	458.74
373.03	416.62
373.22	334.70
373.42	430.66
373.62	395.55
373.81	479.81
374.01	442.36
374.21	397.89
374.40	355.76
374.60	395.55
374.79	395.55
374.99	353.42
375.19	355.76
375.38	472.79
375.58	444.70
375.78	423.64
375.97	395.55
376.17	468.11
376.37	395.55
376.56	409.59
376.76	386.19
376.95	456.40
377.15	409.59
377.35	433.00
377.54	397.89
377.74	388.53
377.93	346.40
378.13	428.32
378.33	383.85
378.52	374.49
378.72	404.91
378.91	365.12
379.11	379.17
379.31	339.38
379.50	407.25
379.70	372.15
379.89	451.72
380.09	379.17
380.28	393.21
380.48	367.46
380.68	379.17
380.87	440.02
381.07	372.15
381.26	400.23
381.46	337.04
381.65	414.27
381.85	390.87
382.04	367.46
382.24	397.89
382.43	362.78
382.63	437.68
382.83	486.83
383.02	383.85
383.22	423.64
383.41	402.57
383.61	369.80
383.80	444.70
384.00	332.36
384.19	374.49
384.39	404.91
384.58	421.30
384.78	477.47
384.97	386.19
385.17	372.15
385.36	414.27
385.56	372.15
385.75	348.74
385.95	468.11
386.14	425.98
386.34	381.51
386.53	351.08
386.72	383.85
386.92	418.96
387.11	390.87
387.31	454.06
387.50	395.55
387.70	355.76
387.89	402.57
388.09	390.87
388.28	374.49
388.48	381.51
388.67	388.53
388.86	421.30
389.06	395.55
389.25	416.62
389.45	409.59
389.64	339.38
389.84	402.57
390.03	383.85
390.22	456.40
390.42	358.10
390.61	369.80
390.81	362.78
391.00	440.02
391.19	475.13
391.39	381.51
391.58	456.40
391.78	388.53
391.97	381.51
392.16	407.25
392.36	395.55
392.55	435.34
392.75	407.25
392.94	411.93
393.13	463.43
393.33	435.34
393.52	383.85
393.71	379.17
393.91	489.17
394.10	374.49
394.29	383.85
394.49	390.87
394.68	383.85
394.88	404.91
395.07	458.74
395.26	402.57
395.46	360.44
395.65	451.72
395.84	463.43
396.04	409.59
396.23	374.49
396.42	402.57
396.62	376.83
396.81	400.23
397.00	393.21
397.19	447.04
397.39	402.57
397.58	379.17
397.77	421.30
397.97	379.17
398.16	367.46
398.35	416.62
398.55	320.65
398.74	379.17
398.93	337.04
399.12	327.68
399.32	447.04
399.51	393.21
399.70	325.33
399.90	339.38
400.09	423.64
400.28	423.64
400.47	393.21
400.67	430.66
400.86	374.49
401.05	418.96
401.24	402.57
401.44	390.87
401.63	390.87
401.82	414.27
402.01	425.98
402.21	390.87
402.40	341.72
402.59	423.64
402.78	360.44
402.97	430.66
403.17	383.85
403.36	332.36
403.55	355.76
403.74	372.15
403.93	461.09
404.13	421.30
404.32	348.74
404.51	400.23
404.70	451.72
404.89	407.25
405.09	428.32
405.28	458.74
405.47	461.09
405.66	402.57
405.85	454.06
406.05	395.55
406.24	458.74
406.43	407.25
406.62	409.59
406.81	500.87
407.00	416.62
407.20	355.76
407.39	393.21
407.58	407.25
407.77	369.80
407.96	407.25
408.15	362.78
408.34	411.93
408.54	369.80
408.73	348.74
408.92	470.45
409.11	421.30
409.30	468.11
409.49	327.68
409.68	411.93
409.87	449.38
410.07	479.81
410.26	386.19
410.45	390.87
410.64	367.46
410.83	341.72
411.02	442.36
411.21	407.25
411.40	428.32
411.59	421.30
411.78	444.70
411.98	393.21
412.17	348.74
412.36	416.62
412.55	339.38
412.74	393.21
412.93	414.27
413.12	425.98
413.31	388.53
413.50	365.12
413.69	372.15
413.88	367.46
414.07	421.30
414.26	379.17
414.45	407.25
414.64	381.51
414.83	374.49
415.02	409.59
415.22	367.46
415.41	409.59
415.60	369.80
415.79	386.19
415.98	383.85
416.17	339.38
416.36	444.70
416.55	400.23
416.74	334.70
416.93	411.93
417.12	330.02
417.31	407.25
417.50	428.32
417.69	433.00
417.88	351.08
418.07	402.57
418.26	414.27
418.45	374.49
418.64	451.72
418.83	411.93
419.02	437.68
419.21	327.68
419.39	407.25
419.58	409.59
419.77	411.93
419.96	393.21
420.15	428.32
420.34	397.89
420.53	449.38
420.72	388.53
420.91	402.57
421.10	411.93
421.29	404.91
421.48	519.60
421.67	397.89
421.86	454.06
422.05	449.38
422.24	360.44
422.43	425.98
422.61	430.66
422.80	416.62
422.99	444.70
423.18	411.93
423.37	425.98
423.56	390.87
423.75	440.02
423.94	437.68
424.13	411.93
424.32	400.23
424.50	386.19
424.69	414.27
424.88	430.66
425.07	400.23
425.26	411.93
425.45	475.13
425.64	454.06
425.83	447.04
426.01	404.91
426.20	449.38
426.39	400.23
426.58	397.89
426.77	421.30
426.96	344.06
427.15	400.23
427.33	428.32
427.52	425.98
427.71	421.30
427.90	348.74
428.09	404.91
428.28	416.62
428.46	397.89
428.65	430.66
428.84	367.46
429.03	479.81
429.22	397.89
429.40	407.25
429.59	404.91
429.78	447.04
429.97	381.51
430.16	447.04
430.34	367.46
430.53	390.87
430.72	325.33
430.91	440.02
431.10	358.10
431.28	461.09
431.47	447.04
431.66	411.93
431.85	411.93
432.03	379.17
432.22	447.04
432.41	451.72
432.60	411.93
432.79	372.15
432.97	393.21
433.16	367.46
433.35	456.40
433.54	491.51
433.72	411.93
433.91	369.80
434.10	456.40
434.28	454.06
434.47	437.68
434.66	411.93
434.85	362.78
435.03	423.64
435.22	519.60
435.41	519.60
435.59	367.46
435.78	402.57
435.97	379.17
436.16	400.23
436.34	390.87
436.53	465.77
436.72	411.93
436.90	423.64
437.09	418.96
437.28	435.34
437.46	428.32
437.65	437.68
437.84	365.12
438.02	433.00
438.21	372.15
438.40	456.40
438.58	358.10
438.77	458.74
438.96	369.80
439.14	322.99
439.33	433.00
439.52	505.56
439.70	341.72
439.89	388.53
440.08	353.42
440.26	353.42
440.45	428.32
440.63	409.59
440.82	430.66
441.01	421.30
441.19	355.76
441.38	437.68
441.57	465.77
441.75	440.02
441.94	423.64
442.12	376.83
442.31	449.38
442.50	386.19
442.68	421.30
442.87	470.45
443.05	416.62
443.24	428.32
443.43	465.77
443.61	374.49
443.80	461.09
443.98	435.34
444.17	390.87
444.35	390.87
444.54	397.89
444.73	475.13
444.91	442.36
445.10	404.91
445.28	390.87
445.47	334.70
445.65	372.15
445.84	447.04
446.02	416.62
446.21	440.02
446.39	411.93
446.58	372.15
446.77	423.64
446.95	407.25
447.14	418.96
447.32	423.64
447.51	535.98
447.69	468.11
447.88	458.74
448.06	339.38
448.25	449.38
448.43	395.55
448.62	402.57
448.80	449.38
448.99	390.87
449.17	346.40
449.36	407.25
449.54	327.68
449.73	388.53
449.91	397.89
450.10	409.59
450.28	435.34
450.46	423.64
450.65	414.27
450.83	388.53
451.02	402.57
451.20	372.15
451.39	442.36
451.57	421.30
451.76	411.93
451.94	395.55
452.13	430.66
452.31	437.68
452.49	477.47
452.68	435.34
452.86	376.83
453.05	547.69
453.23	465.77
453.42	393.21
453.60	423.64
453.78	327.68
453.97	379.17
454.15	472.79
454.34	365.12
454.52	458.74
454.70	447.04
454.89	435.34
455.07	376.83
455.26	372.15
455.44	449.38
455.62	458.74
455.81	411.93
455.99	468.11
456.17	379.17
456.36	442.36
456.54	353.42
456.73	400.23
456.91	379.17
457.09	430.66
457.28	435.34
457.46	395.55
457.64	365.12
457.83	367.46
458.01	414.27
458.19	414.27
458.38	458.74
458.56	444.70
458.74	374.49
458.93	360.44
459.11	482.15
459.29	395.55
459.48	407.25
459.66	442.36
459.84	456.40
460.03	477.47
460.21	447.04
460.39	369.80
460.57	449.38
460.76	386.19
460.94	454.06
461.12	433.00
461.31	376.83
461.49	411.93
461.67	355.76
461.85	372.15
462.04	407.25
462.22	763.01
462.40	423.64
462.59	395.55
462.77	397.89
462.95	397.89
463.13	367.46
463.32	404.91
463.50	355.76
463.68	414.27
463.86	418.96
464.05	400.23
464.23	435.34
464.41	428.32
464.59	447.04
464.78	400.23
464.96	400.23
465.14	402.57
465.32	358.10
465.50	479.81
465.69	458.74
465.87	395.55
466.05	449.38
466.23	451.72
466.41	498.53
466.60	376.83
466.78	339.38
466.96	409.59
467.14	400.23
467.32	409.59
467.51	444.70
467.69	404.91
467.87	458.74
468.05	334.70
468.23	425.98
468.41	447.04
468.60	456.40
468.78	414.27
468.96	456.40
469.14	472.79
469.32	379.17
469.50	444.70
469.69	346.40
469.87	451.72
470.05	442.36
470.23	414.27
470.41	404.91
470.59	402.57
470.77	376.83
470.95	383.85
471.14	465.77
471.32	444.70
471.50	433.00
471.68	470.45
471.86	442.36
472.04	437.68
472.22	402.57
472.40	428.32
472.58	407.25
472.77	437.68
472.95	409.59
473.13	383.85
473.31	337.04
473.49	393.21
473.67	449.38
473.85	425.98
474.03	425.98
474.21	479.81
474.39	397.89
474.57	418.96
474.75	369.80
474.93	451.72
475.12	365.12
475.30	418.96
475.48	458.74
475.66	425.98
475.84	388.53
476.02	468.11
476.20	472.79
476.38	395.55
476.56	486.83
476.74	414.27
476.92	416.62
477.10	388.53
477.28	409.59
477.46	440.02
477.64	418.96
477.82	437.68
478.00	449.38
478.18	386.19
478.36	407.25
478.54	430.66
478.72	376.83
478.90	390.87
479.08	447.04
479.26	437.68
479.44	416.62
479.62	379.17
479.80	404.91
479.98	374.49
480.16	390.87
480.34	379.17
480.52	341.72
480.70	409.59
480.88	435.34
481.06	411.93
481.24	381.51
481.41	507.90
481.59	390.87
481.77	400.23
481.95	397.89
482.13	418.96
482.31	454.06
482.49	407.25
482.67	428.32
482.85	421.30
483.03	475.13
483.21	458.74
483.39	435.34
483.57	447.04
483.74	393.21
483.92	393.21
484.10	395.55
484.28	479.81
484.46	428.32
484.64	430.66
484.82	409.59
485.00	454.06
485.18	374.49
485.35	449.38
485.53	400.23
485.71	440.02
485.89	435.34
486.07	393.21
486.25	479.81
486.43	411.93
486.61	425.98
486.78	435.34
486.96	388.53
487.14	379.17
487.32	437.68
487.50	381.51
487.68	433.00
487.85	433.00
488.03	449.38
488.21	463.43
488.39	433.00
488.57	435.34
488.75	404.91
488.92	416.62
489.10	360.44
489.28	472.79
489.46	477.47
489.64	404.91
489.81	423.64
489.99	437.68
490.17	365.12
490.35	418.96
490.53	393.21
490.70	440.02
490.88	456.40
491.06	475.13
491.24	437.68
491.41	440.02
491.59	444.70
491.77	451.72
491.95	386.19
492.13	416.62
492.30	381.51
492.48	365.12
492.66	390.87
492.84	416.62
493.01	479.81
493.19	418.96
493.37	465.77
493.54	325.33
493.72	440.02
493.90	341.72
494.08	409.59
494.25	449.38
494.43	449.38
494.61	386.19
494.79	444.70
494.96	376.83
495.14	444.70
495.32	390.87
495.49	435.34
495.67	416.62
495.85	376.83
496.02	411.93
496.20	454.06
496.38	425.98
496.55	400.23
496.73	402.57
496.91	407.25
497.09	416.62
497.26	465.77
497.44	472.79
497.62	374.49
497.79	428.32
497.97	414.27
498.14	372.15
498.32	360.44
498.50	444.70
498.67	416.62
498.85	404.91
499.03	402.57
499.20	421.30
499.38	362.78
499.56	430.66
499.73	477.47
499.91	425.98
500.08	393.21
500.26	358.10
500.44	437.68
500.61	346.40
500.79	360.44
500.97	404.91
501.14	435.34
501.32	395.55
501.49	491.51
501.67	414.27
501.84	470.45
502.02	414.27
502.20	458.74
502.37	423.64
502.55	390.87
502.72	425.98
502.90	447.04
503.07	402.57
503.25	444.70
503.43	400.23
503.60	414.27
503.78	430.66
503.95	416.62
504.13	341.72
504.30	409.59
504.48	414.27
504.65	484.49
504.83	360.44
505.01	376.83
505.18	404.91
505.36	365.12
505.53	407.25
505.71	425.98
505.88	322.99
506.06	341.72
506.23	407.25
506.41	425.98
506.58	416.62
506.76	437.68
506.93	416.62
507.11	379.17
507.28	386.19
507.46	428.32
507.63	416.62
507.81	330.02
507.98	400.23
508.16	325.33
508.33	376.83
508.50	435.34
508.68	390.87
508.85	411.93
509.03	355.76
509.20	498.53
509.38	454.06
509.55	411.93
509.73	423.64
509.90	465.77
510.08	379.17
510.25	430.66
510.42	477.47
510.60	414.27
510.77	383.85
510.95	393.21
511.12	404.91
511.30	411.93
511.47	397.89
511.64	435.34
511.82	362.78
511.99	409.59
512.17	407.25
512.34	369.80
512.51	395.55
512.69	395.55
512.86	435.34
513.04	407.25
513.21	425.98
513.38	400.23
513.56	379.17
513.73	430.66
513.90	428.32
514.08	351.08
514.25	404.91
514.43	425.98
514.60	395.55
514.77	381.51
514.95	372.15
515.12	395.55
515.29	325.33
515.47	437.68
515.64	454.06
515.81	372.15
515.99	456.40
516.16	411.93
516.33	421.30
516.51	369.80
516.68	425.98
516.85	421.30
517.03	416.62
517.20	493.85
517.37	388.53
517.54	437.68
517.72	381.51
517.89	407.25
518.06	407.25
518.24	517.26
518.41	461.09
518.58	395.55
518.75	416.62
518.93	461.09
519.10	421.30
519.27	435.34
519.45	346.40
519.62	430.66
519.79	428.32
519.96	409.59
520.14	414.27
520.31	411.93
520.48	454.06
520.65	484.49
520.83	517.26
521.00	393.21
521.17	388.53
521.34	365.12
521.52	390.87
521.69	425.98
521.86	393.21
522.03	456.40
522.20	491.51
522.38	449.38
522.55	442.36
522.72	409.59
522.89	468.11
523.07	461.09
523.24	395.55
523.41	372.15
523.58	421.30
523.75	416.62
523.92	383.85
524.10	397.89
524.27	425.98
524.44	313.63
524.61	498.53
524.78	360.44
524.96	376.83
525.13	449.38
525.30	428.32
525.47	461.09
525.64	404.91
525.81	430.66
525.98	409.59
526.16	442.36
526.33	416.62
526.50	386.19
526.67	423.64
526.84	425.98
527.01	358.10
527.18	355.76
527.36	386.19
527.53	397.89
527.70	440.02
527.87	418.96
528.04	414.27
528.21	369.80
528.38	402.57
528.55	479.81
528.72	435.34
528.89	451.72
529.07	433.00
529.24	397.89
529.41	461.09
529.58	416.62
529.75	395.55
529.92	463.43
530.09	353.42
530.26	402.57
530.43	407.25
530.60	425.98
530.77	430.66
530.94	440.02
531.11	411.93
531.28	409.59
531.46	374.49
531.63	482.15
531.80	428.32
531.97	442.36
532.14	479.81
532.31	468.11
532.48	409.59
532.65	454.06
532.82	369.80
532.99	423.64
533.16	414.27
533.33	437.68
533.50	348.74
533.67	442.36
533.84	402.57
534.01	388.53
534.18	393.21
534.35	468.11
534.52	355.76
534.69	383.85
534.86	395.55
535.03	374.49
535.20	423.64
535.37	526.62
535.54	414.27
535.71	425.98
535.88	458.74
536.05	463.43
536.22	372.15
536.38	423.64
536.55	372.15
536.72	433.00
536.89	367.46
537.06	372.15
537.23	442.36
537.40	418.96
537.57	475.13
537.74	423.64
537.91	397.89
538.08	360.44
538.25	355.76
538.42	395.55
538.59	433.00
538.75	425.98
538.92	437.68
539.09	435.34
539.26	334.70
539.43	430.66
539.60	454.06
539.77	423.64
539.94	400.23
540.11	400.23
540.28	430.66
540.44	489.17
540.61	346.40
540.78	433.00
540.95	444.70
541.12	421.30
541.29	395.55
541.46	475.13
541.62	386.19
541.79	402.57
541.96	404.91
542.13	383.85
542.30	327.68
542.47	472.79
542.63	440.02
542.80	409.59
542.97	465.77
543.14	411.93
543.31	442.36
543.48	355.76
543.64	451.72
543.81	393.21
543.98	442.36
544.15	397.89
544.32	397.89
544.48	425.98
544.65	414.27
544.82	395.55
544.99	407.25
545.16	454.06
545.32	346.40
545.49	383.85
545.66	425.98
545.83	395.55
546.00	402.57
546.16	423.64
546.33	358.10
546.50	423.64
546.67	449.38
546.83	416.62
547.00	486.83
547.17	416.62
547.34	416.62
547.50	395.55
547.67	505.56
547.84	454.06
548.00	390.87
548.17	355.76
548.34	386.19
548.51	468.11
548.67	458.74
548.84	383.85
549.01	346.40
549.18	390.87
549.34	407.25
549.51	402.57
549.68	421.30
549.84	456.40
550.01	395.55
550.18	479.81
550.34	402.57
550.51	402.57
550.68	503.22
550.84	458.74
551.01	365.12
551.18	393.21
551.34	416.62
551.51	416.62
551.68	435.34
551.84	383.85
552.01	414.27
552.18	308.95
552.34	423.64
552.51	428.32
552.68	416.62
552.84	393.21
553.01	479.81
553.18	454.06
553.34	390.87
553.51	409.59
553.67	454.06
553.84	418.96
554.01	484.49
554.17	423.64
554.34	376.83
554.51	414.27
554.67	444.70
554.84	393.21
555.00	425.98
555.17	376.83
555.33	430.66
555.50	339.38
555.67	423.64
555.83	414.27
556.00	386.19
556.16	528.96
556.33	451.72
556.50	369.80
556.66	348.74
556.83	362.78
556.99	397.89
557.16	468.11
557.32	456.40
557.49	369.80
557.65	465.77
557.82	440.02
557.98	454.06
558.15	376.83
558.32	351.08
558.48	390.87
558.65	489.17
558.81	444.70
558.98	388.53
559.14	351.08
559.31	440.02
559.47	458.74
559.64	383.85
559.80	472.79
559.97	390.87
560.13	351.08
560.30	397.89
560.46	386.19
560.63	402.57
560.79	428.32
560.96	449.38
561.12	447.04
561.29	402.57
561.45	421.30
561.61	414.27
561.78	489.17
561.94	409.59
562.11	337.04
562.27	423.64
562.44	458.74
562.60	379.17
562.77	358.10
562.93	519.60
563.10	388.53
563.26	358.10
563.42	430.66
563.59	451.72
563.75	414.27
563.92	437.68
564.08	360.44
564.24	442.36
564.41	374.49
564.57	411.93
564.74	407.25
564.90	407.25
565.07	423.64
565.23	404.91
565.39	430.66
565.56	437.68
565.72	393.21
565.88	461.09
566.05	360.44
566.21	449.38
566.38	411.93
566.54	425.98
566.70	379.17
566.87	386.19
567.03	355.76
567.19	393.21
567.36	456.40
567.52	433.00
567.68	395.55
567.85	365.12
568.01	418.96
568.17	348.74
568.34	395.55
568.50	491.51
568.66	353.42
568.83	475.13
568.99	421.30
569.15	477.47
569.32	297.25
569.48	334.70
569.64	421.30
569.81	381.51
569.97	358.10
570.13	423.64
570.30	400.23
570.46	449.38
570.62	414.27
570.78	428.32
570.95	470.45
571.11	416.62
571.27	402.57
571.43	339.38
571.60	440.02
571.76	433.00
571.92	468.11
572.09	369.80
572.25	472.79
572.41	414.27
572.57	423.64
572.74	512.58
572.90	393.21
573.06	409.59
573.22	475.13
573.38	470.45
573.55	411.93
573.71	423.64
573.87	409.59
574.03	430.66
574.20	353.42
574.36	498.53
574.52	374.49
574.68	395.55
574.84	346.40
575.01	409.59
575.17	463.43
575.33	465.77
575.49	416.62
575.65	433.00
575.82	479.81
575.98	400.23
576.14	447.04
576.30	383.85
576.46	456.40
576.62	440.02
576.79	479.81
576.95	470.45
577.11	400.23
577.27	416.62
577.43	425.98
577.59	425.98
577.75	491.51
577.92	372.15
578.08	346.40
578.24	374.49
578.40	423.64
578.56	411.93
578.72	421.30
578.88	423.64
579.04	383.85
579.21	393.21
579.37	397.89
579.53	402.57
579.69	500.87
579.85	447.04
580.01	470.45
580.17	470.45
580.33	400.23
580.49	423.64
580.65	414.27
580.82	447.04
580.98	395.55
581.14	376.83
581.30	416.62
581.46	416.62
581.62	365.12
581.78	411.93
581.94	409.59
582.10	472.79
582.26	458.74
582.42	430.66
582.58	472.79
582.74	379.17
582.90	444.70
583.06	456.40
583.22	428.32
583.38	440.02
583.54	430.66
583.70	393.21
583.86	400.23
584.02	454.06
584.18	461.09
584.34	444.70
584.50	383.85
584.66	423.64
584.82	341.72
584.98	409.59
585.14	437.68
585.30	479.81
585.46	318.31
585.62	341.72
585.78	353.42
585.94	447.04
586.10	409.59
586.26	425.98
586.42	435.34
586.58	418.96
586.74	376.83
586.90	376.83
587.06	374.49
587.22	477.47
587.38	348.74
587.54	423.64
587.70	388.53
587.86	503.22
588.02	442.36
588.18	339.38
588.34	402.57
588.49	402.57
588.65	383.85
588.81	528.96
588.97	393.21
589.13	379.17
589.29	369.80
589.45	449.38
589.61	440.02
589.77	505.56
589.93	414.27
590.08	484.49
590.24	360.44
590.40	437.68
590.56	402.57
590.72	393.21
590.88	388.53
591.04	435.34
591.20	400.23
591.35	472.79
591.51	372.15
591.67	463.43
591.83	372.15
591.99	386.19
592.15	484.49
592.31	421.30
592.46	390.87
592.62	407.25
592.78	376.83
592.94	346.40
593.10	395.55
593.26	409.59
593.41	407.25
593.57	407.25
593.73	444.70
593.89	425.98
594.05	435.34
594.20	365.12
594.36	472.79
594.52	395.55
594.68	456.40
594.84	390.87
594.99	390.87
595.15	433.00
595.31	386.19
595.47	397.89
595.62	407.25
595.78	376.83
595.94	362.78
596.10	533.64
596.25	390.87
596.41	395.55
596.57	435.34
596.73	332.36
596.88	425.98
597.04	456.40
597.20	435.34
597.36	397.89
597.51	428.32
597.67	416.62
597.83	360.44
597.99	390.87
598.14	456.40
598.30	437.68
598.46	407.25
598.61	397.89
598.77	388.53
598.93	440.02
599.09	395.55
599.24	472.79
599.40	433.00
599.56	411.93
599.71	428.32
599.87	313.63
600.03	430.66
600.18	444.70
600.34	428.32
600.50	397.89
600.65	402.57
600.81	393.21
600.97	447.04
601.12	447.04
601.28	404.91
601.44	337.04
601.59	430.66
601.75	411.93
601.91	416.62
602.06	433.00
602.22	365.12
602.37	461.09
602.53	475.13
602.69	444.70
602.84	435.34
603.00	418.96
603.16	414.27
603.31	423.64
603.47	407.25
603.62	376.83
603.78	451.72
603.94	421.30
604.09	423.64
604.25	456.40
604.40	444.70
604.56	367.46
604.71	423.64
604.87	355.76
605.03	416.62
605.18	379.17
605.34	358.10
605.49	402.57
605.65	388.53
605.80	393.21
605.96	421.30
606.12	468.11
606.27	395.55
606.43	465.77
606.58	407.25
606.74	484.49
606.89	402.57
607.05	362.78
607.20	348.74
607.36	416.62
607.51	442.36
607.67	414.27
607.82	416.62
607.98	454.06
608.13	400.23
608.29	416.62
608.44	400.23
608.60	444.70
608.75	423.64
608.91	500.87
609.06	418.96
609.22	435.34
609.37	430.66
609.53	358.10
609.68	407.25
609.84	369.80
609.99	397.89
610.15	428.32
