SpectraSuite Data File
++++++++++++++++++++++++++++++++++++
Date: Fri Oct 25 12:10:08 EDT 2013
User: price-jones
Dark Spectrum Present: No
Reference Spectrum Present: No
Number of Sampled Component Spectra: 1
Spectrometers: USB2+H05261
Integration Time (usec): 100000 (USB2+H05261)
Spectra Averaged: 1 (USB2+H05261)
Boxcar Smoothing: 0 (USB2+H05261)
Correct for Electrical Dark: No (USB2+H05261)
Strobe/Lamp Enabled: No (USB2+H05261)
Correct for Detector Non-linearity: No (USB2+H05261)
Correct for Stray Light: No (USB2+H05261)
Number of Pixels in Processed Spectrum: 2048
>>>>>Begin Processed Spectral Data<<<<<
365.73	365.12
365.92	365.12
366.12	365.12
366.32	250.44
366.52	227.03
366.72	290.23
366.91	208.31
367.11	280.86
367.31	250.44
367.51	208.31
367.70	262.14
367.90	252.78
368.10	212.99
368.30	229.37
368.49	161.50
368.69	273.84
368.89	332.36
369.09	358.10
369.28	306.61
369.48	217.67
369.68	318.31
369.87	255.12
370.07	308.95
370.27	414.27
370.47	341.72
370.66	341.72
370.86	369.80
371.06	362.78
371.25	341.72
371.45	327.68
371.65	407.25
371.84	423.64
372.04	351.08
372.24	334.70
372.44	395.55
372.63	479.81
372.83	421.30
373.03	374.49
373.22	442.36
373.42	400.23
373.62	393.21
373.81	372.15
374.01	428.32
374.21	402.57
374.40	451.72
374.60	458.74
374.79	444.70
374.99	402.57
375.19	407.25
375.38	383.85
375.58	383.85
375.78	456.40
375.97	400.23
376.17	507.90
376.37	388.53
376.56	416.62
376.76	465.77
376.95	407.25
377.15	449.38
377.35	430.66
377.54	411.93
377.74	423.64
377.93	416.62
378.13	416.62
378.33	447.04
378.52	407.25
378.72	472.79
378.91	489.17
379.11	344.06
379.31	381.51
379.50	416.62
379.70	383.85
379.89	451.72
380.09	400.23
380.28	362.78
380.48	390.87
380.68	442.36
380.87	374.49
381.07	416.62
381.26	402.57
381.46	433.00
381.65	376.83
381.85	468.11
382.04	358.10
382.24	362.78
382.43	325.33
382.63	358.10
382.83	390.87
383.02	411.93
383.22	402.57
383.41	404.91
383.61	369.80
383.80	379.17
384.00	402.57
384.19	411.93
384.39	430.66
384.58	374.49
384.78	393.21
384.97	379.17
385.17	376.83
385.36	367.46
385.56	404.91
385.75	418.96
385.95	400.23
386.14	449.38
386.34	376.83
386.53	489.17
386.72	397.89
386.92	531.30
387.11	320.65
387.31	393.21
387.50	348.74
387.70	348.74
387.89	465.77
388.09	388.53
388.28	322.99
388.48	423.64
388.67	407.25
388.86	468.11
389.06	442.36
389.25	465.77
389.45	402.57
389.64	379.17
389.84	465.77
390.03	409.59
390.22	409.59
390.42	421.30
390.61	472.79
390.81	404.91
391.00	395.55
391.19	411.93
391.39	414.27
391.58	407.25
391.78	379.17
391.97	397.89
392.16	409.59
392.36	372.15
392.55	449.38
392.75	386.19
392.94	402.57
393.13	402.57
393.33	444.70
393.52	365.12
393.71	437.68
393.91	416.62
394.10	423.64
394.29	437.68
394.49	369.80
394.68	325.33
394.88	428.32
395.07	372.15
395.26	461.09
395.46	416.62
395.65	433.00
395.84	461.09
396.04	430.66
396.23	383.85
396.42	388.53
396.62	440.02
396.81	472.79
397.00	400.23
397.19	423.64
397.39	435.34
397.58	430.66
397.77	407.25
397.97	444.70
398.16	362.78
398.35	404.91
398.55	327.68
398.74	320.65
398.93	428.32
399.12	341.72
399.32	390.87
399.51	393.21
399.70	404.91
399.90	365.12
400.09	402.57
400.28	409.59
400.47	486.83
400.67	393.21
400.86	367.46
401.05	435.34
401.24	372.15
401.44	346.40
401.63	388.53
401.82	299.59
402.01	365.12
402.21	397.89
402.40	470.45
402.59	390.87
402.78	367.46
402.97	393.21
403.17	365.12
403.36	395.55
403.55	379.17
403.74	332.36
403.93	416.62
404.13	376.83
404.32	423.64
404.51	421.30
404.70	365.12
404.89	376.83
405.09	433.00
405.28	416.62
405.47	390.87
405.66	397.89
405.85	468.11
406.05	374.49
406.24	393.21
406.43	400.23
406.62	430.66
406.81	451.72
407.00	411.93
407.20	428.32
407.39	358.10
407.58	348.74
407.77	437.68
407.96	486.83
408.15	564.07
408.34	390.87
408.54	407.25
408.73	358.10
408.92	493.85
409.11	320.65
409.30	437.68
409.49	435.34
409.68	414.27
409.87	414.27
410.07	465.77
410.26	397.89
410.45	407.25
410.64	400.23
410.83	362.78
411.02	407.25
411.21	402.57
411.40	430.66
411.59	423.64
411.78	423.64
411.98	454.06
412.17	355.76
412.36	407.25
412.55	416.62
412.74	409.59
412.93	484.49
413.12	437.68
413.31	456.40
413.50	400.23
413.69	433.00
413.88	383.85
414.07	381.51
414.26	449.38
414.45	486.83
414.64	430.66
414.83	369.80
415.02	407.25
415.22	440.02
415.41	421.30
415.60	339.38
415.79	365.12
415.98	407.25
416.17	407.25
416.36	447.04
416.55	367.46
416.74	397.89
416.93	468.11
417.12	402.57
417.31	358.10
417.50	440.02
417.69	421.30
417.88	388.53
418.07	353.42
418.26	409.59
418.45	297.25
418.64	411.93
418.83	355.76
419.02	454.06
419.21	440.02
419.39	393.21
419.58	407.25
419.77	330.02
419.96	435.34
420.15	519.60
420.34	498.53
420.53	372.15
420.72	388.53
420.91	388.53
421.10	400.23
421.29	470.45
421.48	479.81
421.67	395.55
421.86	423.64
422.05	348.74
422.24	454.06
422.43	334.70
422.61	386.19
422.80	437.68
422.99	456.40
423.18	344.06
423.37	449.38
423.56	388.53
423.75	395.55
423.94	437.68
424.13	374.49
424.32	409.59
424.50	449.38
424.69	430.66
424.88	435.34
425.07	465.77
425.26	393.21
425.45	395.55
425.64	465.77
425.83	451.72
426.01	433.00
426.20	447.04
426.39	383.85
426.58	390.87
426.77	400.23
426.96	411.93
427.15	402.57
427.33	416.62
427.52	414.27
427.71	379.17
427.90	418.96
428.09	390.87
428.28	472.79
428.46	365.12
428.65	423.64
428.84	337.04
429.03	463.43
429.22	395.55
429.40	334.70
429.59	379.17
429.78	414.27
429.97	404.91
430.16	400.23
430.34	444.70
430.53	360.44
430.72	442.36
430.91	482.15
431.10	418.96
431.28	369.80
431.47	388.53
431.66	393.21
431.85	355.76
432.03	433.00
432.22	472.79
432.41	440.02
432.60	470.45
432.79	433.00
432.97	374.49
433.16	388.53
433.35	381.51
433.54	447.04
433.72	447.04
433.91	395.55
434.10	358.10
434.28	430.66
434.47	435.34
434.66	386.19
434.85	411.93
435.03	414.27
435.22	517.26
435.41	390.87
435.59	472.79
435.78	491.51
435.97	372.15
436.16	418.96
436.34	409.59
436.53	402.57
436.72	447.04
436.90	433.00
437.09	454.06
437.28	381.51
437.46	463.43
437.65	407.25
437.84	491.51
438.02	449.38
438.21	418.96
438.40	395.55
438.58	404.91
438.77	425.98
438.96	428.32
439.14	351.08
439.33	365.12
439.52	351.08
439.70	411.93
439.89	367.46
440.08	390.87
440.26	423.64
440.45	486.83
440.63	423.64
440.82	365.12
441.01	372.15
441.19	456.40
441.38	423.64
441.57	430.66
441.75	418.96
441.94	388.53
442.12	379.17
442.31	397.89
442.50	397.89
442.68	421.30
442.87	358.10
443.05	393.21
443.24	367.46
443.43	390.87
443.61	454.06
443.80	409.59
443.98	390.87
444.17	414.27
444.35	376.83
444.54	423.64
444.73	454.06
444.91	447.04
445.10	330.02
445.28	421.30
445.47	423.64
445.65	369.80
445.84	411.93
446.02	360.44
446.21	369.80
446.39	383.85
446.58	425.98
446.77	386.19
446.95	451.72
447.14	400.23
447.32	470.45
447.51	496.19
447.69	393.21
447.88	344.06
448.06	449.38
448.25	379.17
448.43	437.68
448.62	425.98
448.80	395.55
448.99	430.66
449.17	440.02
449.36	421.30
449.54	437.68
449.73	451.72
449.91	369.80
450.10	451.72
450.28	433.00
450.46	390.87
450.65	390.87
450.83	447.04
451.02	433.00
451.20	404.91
451.39	379.17
451.57	374.49
451.76	400.23
451.94	397.89
452.13	472.79
452.31	442.36
452.49	491.51
452.68	390.87
452.86	451.72
453.05	407.25
453.23	505.56
453.42	397.89
453.60	404.91
453.78	409.59
453.97	407.25
454.15	383.85
454.34	411.93
454.52	402.57
454.70	379.17
454.89	344.06
455.07	402.57
455.26	334.70
455.44	465.77
455.62	433.00
455.81	416.62
455.99	390.87
456.17	393.21
456.36	397.89
456.54	418.96
456.73	327.68
456.91	425.98
457.09	444.70
457.28	458.74
457.46	437.68
457.64	411.93
457.83	442.36
458.01	421.30
458.19	416.62
458.38	402.57
458.56	444.70
458.74	327.68
458.93	433.00
459.11	367.46
459.29	355.76
459.48	418.96
459.66	451.72
459.84	381.51
460.03	524.28
460.21	393.21
460.39	400.23
460.57	395.55
460.76	425.98
460.94	411.93
461.12	461.09
461.31	425.98
461.49	418.96
461.67	411.93
461.85	451.72
462.04	407.25
462.22	746.63
462.40	390.87
462.59	365.12
462.77	402.57
462.95	346.40
463.13	353.42
463.32	395.55
463.50	388.53
463.68	433.00
463.86	440.02
464.05	423.64
464.23	454.06
464.41	454.06
464.59	355.76
464.78	379.17
464.96	402.57
465.14	433.00
465.32	369.80
465.50	388.53
465.69	414.27
465.87	330.02
466.05	374.49
466.23	437.68
466.41	372.15
466.60	390.87
466.78	458.74
466.96	458.74
467.14	440.02
467.32	379.17
467.51	386.19
467.69	444.70
467.87	468.11
468.05	369.80
468.23	447.04
468.41	411.93
468.60	435.34
468.78	421.30
468.96	486.83
469.14	374.49
469.32	360.44
469.50	325.33
469.69	510.24
469.87	433.00
470.05	400.23
470.23	358.10
470.41	458.74
470.59	372.15
470.77	325.33
470.95	477.47
471.14	444.70
471.32	456.40
471.50	425.98
471.68	489.17
471.86	423.64
472.04	503.22
472.22	358.10
472.40	369.80
472.58	437.68
472.77	365.12
472.95	444.70
473.13	402.57
473.31	379.17
473.49	428.32
473.67	418.96
473.85	418.96
474.03	397.89
474.21	393.21
474.39	421.30
474.57	479.81
474.75	444.70
474.93	379.17
475.12	369.80
475.30	397.89
475.48	395.55
475.66	313.63
475.84	433.00
476.02	440.02
476.20	447.04
476.38	395.55
476.56	402.57
476.74	404.91
476.92	355.76
477.10	447.04
477.28	449.38
477.46	397.89
477.64	444.70
477.82	418.96
478.00	430.66
478.18	327.68
478.36	402.57
478.54	444.70
478.72	407.25
478.90	435.34
479.08	395.55
479.26	409.59
479.44	397.89
479.62	376.83
479.80	404.91
479.98	418.96
480.16	374.49
480.34	423.64
480.52	374.49
480.70	444.70
480.88	428.32
481.06	388.53
481.24	402.57
481.41	388.53
481.59	425.98
481.77	306.61
481.95	393.21
482.13	425.98
482.31	447.04
482.49	428.32
482.67	477.47
482.85	386.19
483.03	472.79
483.21	428.32
483.39	430.66
483.57	411.93
483.74	451.72
483.92	423.64
484.10	425.98
484.28	414.27
484.46	496.19
484.64	433.00
484.82	376.83
485.00	428.32
485.18	416.62
485.35	418.96
485.53	435.34
485.71	421.30
485.89	416.62
486.07	365.12
486.25	416.62
486.43	451.72
486.61	433.00
486.78	414.27
486.96	418.96
487.14	451.72
487.32	409.59
487.50	421.30
487.68	442.36
487.85	390.87
488.03	383.85
488.21	437.68
488.39	437.68
488.57	400.23
488.75	369.80
488.92	493.85
489.10	449.38
489.28	454.06
489.46	393.21
489.64	409.59
489.81	414.27
489.99	458.74
490.17	433.00
490.35	484.49
490.53	404.91
490.70	355.76
490.88	433.00
491.06	379.17
491.24	383.85
491.41	442.36
491.59	442.36
491.77	386.19
491.95	388.53
492.13	397.89
492.30	449.38
492.48	418.96
492.66	376.83
492.84	379.17
493.01	374.49
493.19	386.19
493.37	437.68
493.54	430.66
493.72	442.36
493.90	407.25
494.08	465.77
494.25	456.40
494.43	407.25
494.61	425.98
494.79	444.70
494.96	437.68
495.14	409.59
495.32	411.93
495.49	414.27
495.67	451.72
495.85	456.40
496.02	351.08
496.20	435.34
496.38	374.49
496.55	470.45
496.73	411.93
496.91	390.87
497.09	344.06
497.26	414.27
497.44	425.98
497.62	463.43
497.79	411.93
497.97	449.38
498.14	451.72
498.32	437.68
498.50	397.89
498.67	393.21
498.85	449.38
499.03	348.74
499.20	461.09
499.38	374.49
499.56	437.68
499.73	425.98
499.91	456.40
500.08	454.06
500.26	451.72
500.44	479.81
500.61	402.57
500.79	507.90
500.97	440.02
501.14	444.70
501.32	463.43
501.49	500.87
501.67	421.30
501.84	416.62
502.02	482.15
502.20	451.72
502.37	341.72
502.55	390.87
502.72	418.96
502.90	517.26
503.07	407.25
503.25	414.27
503.43	421.30
503.60	449.38
503.78	433.00
503.95	383.85
504.13	465.77
504.30	348.74
504.48	451.72
504.65	425.98
504.83	440.02
505.01	407.25
505.18	430.66
505.36	404.91
505.53	444.70
505.71	383.85
505.88	365.12
506.06	421.30
506.23	425.98
506.41	425.98
506.58	395.55
506.76	421.30
506.93	416.62
507.11	435.34
507.28	388.53
507.46	433.00
507.63	416.62
507.81	451.72
507.98	341.72
508.16	451.72
508.33	414.27
508.50	397.89
508.68	386.19
508.85	423.64
509.03	383.85
509.20	404.91
509.38	435.34
509.55	418.96
509.73	395.55
509.90	372.15
510.08	407.25
510.25	465.77
510.42	381.51
510.60	367.46
510.77	440.02
510.95	425.98
511.12	397.89
511.30	393.21
511.47	355.76
511.64	423.64
511.82	365.12
511.99	397.89
512.17	411.93
512.34	444.70
512.51	411.93
512.69	395.55
512.86	451.72
513.04	418.96
513.21	409.59
513.38	383.85
513.56	416.62
513.73	322.99
513.90	407.25
514.08	463.43
514.25	393.21
514.43	395.55
514.60	404.91
514.77	416.62
514.95	381.51
515.12	376.83
515.29	461.09
515.47	428.32
515.64	449.38
515.81	475.13
515.99	404.91
516.16	428.32
516.33	454.06
516.51	444.70
516.68	367.46
516.85	400.23
517.03	433.00
517.20	395.55
517.37	465.77
517.54	468.11
517.72	400.23
517.89	390.87
518.06	423.64
518.24	472.79
518.41	362.78
518.58	425.98
518.75	320.65
518.93	458.74
519.10	423.64
519.27	451.72
519.45	461.09
519.62	475.13
519.79	425.98
519.96	390.87
520.14	456.40
520.31	428.32
520.48	388.53
520.65	437.68
520.83	442.36
521.00	451.72
521.17	404.91
521.34	318.31
521.52	404.91
521.69	433.00
521.86	423.64
522.03	381.51
522.20	433.00
522.38	433.00
522.55	388.53
522.72	451.72
522.89	411.93
523.07	507.90
523.24	353.42
523.41	400.23
523.58	430.66
523.75	433.00
523.92	369.80
524.10	411.93
524.27	433.00
524.44	456.40
524.61	402.57
524.78	388.53
524.96	421.30
525.13	402.57
525.30	454.06
525.47	458.74
525.64	404.91
525.81	369.80
525.98	503.22
526.16	440.02
526.33	386.19
526.50	358.10
526.67	437.68
526.84	461.09
527.01	421.30
527.18	376.83
527.36	402.57
527.53	379.17
527.70	365.12
527.87	428.32
528.04	414.27
528.21	458.74
528.38	374.49
528.55	428.32
528.72	423.64
528.89	425.98
529.07	416.62
529.24	315.97
529.41	418.96
529.58	425.98
529.75	407.25
529.92	416.62
530.09	437.68
530.26	428.32
530.43	397.89
530.60	372.15
530.77	346.40
530.94	468.11
531.11	468.11
531.28	428.32
531.46	428.32
531.63	442.36
531.80	437.68
531.97	388.53
532.14	433.00
532.31	374.49
532.48	369.80
532.65	449.38
532.82	409.59
532.99	416.62
533.16	390.87
533.33	444.70
533.50	456.40
533.67	472.79
533.84	327.68
534.01	440.02
534.18	421.30
534.35	400.23
534.52	433.00
534.69	320.65
534.86	423.64
535.03	381.51
535.20	362.78
535.37	428.32
535.54	411.93
535.71	355.76
535.88	430.66
536.05	514.92
536.22	458.74
536.38	472.79
536.55	407.25
536.72	463.43
536.89	456.40
537.06	451.72
537.23	496.19
537.40	383.85
537.57	379.17
537.74	454.06
537.91	425.98
538.08	411.93
538.25	482.15
538.42	407.25
538.59	486.83
538.75	458.74
538.92	425.98
539.09	433.00
539.26	393.21
539.43	437.68
539.60	461.09
539.77	393.21
539.94	390.87
540.11	489.17
540.28	468.11
540.44	393.21
540.61	428.32
540.78	407.25
540.95	414.27
541.12	416.62
541.29	386.19
541.46	433.00
541.62	388.53
541.79	388.53
541.96	409.59
542.13	330.02
542.30	393.21
542.47	425.98
542.63	355.76
542.80	442.36
542.97	472.79
543.14	341.72
543.31	433.00
543.48	411.93
543.64	421.30
543.81	416.62
543.98	442.36
544.15	433.00
544.32	425.98
544.48	358.10
544.65	433.00
544.82	414.27
544.99	430.66
545.16	461.09
545.32	379.17
545.49	451.72
545.66	348.74
545.83	435.34
546.00	404.91
546.16	397.89
546.33	381.51
546.50	442.36
546.67	454.06
546.83	409.59
547.00	437.68
547.17	362.78
547.34	440.02
547.50	418.96
547.67	416.62
547.84	437.68
548.00	444.70
548.17	386.19
548.34	454.06
548.51	430.66
548.67	393.21
548.84	414.27
549.01	379.17
549.18	414.27
549.34	428.32
549.51	369.80
549.68	463.43
549.84	435.34
550.01	428.32
550.18	456.40
550.34	435.34
550.51	421.30
550.68	550.03
550.84	477.47
551.01	482.15
551.18	449.38
551.34	468.11
551.51	454.06
551.68	433.00
551.84	425.98
552.01	372.15
552.18	430.66
552.34	437.68
552.51	372.15
552.68	500.87
552.84	421.30
553.01	390.87
553.18	449.38
553.34	404.91
553.51	365.12
553.67	477.47
553.84	447.04
554.01	500.87
554.17	372.15
554.34	360.44
554.51	416.62
554.67	451.72
554.84	477.47
555.00	411.93
555.17	362.78
555.33	463.43
555.50	444.70
555.67	444.70
555.83	372.15
556.00	407.25
556.16	580.45
556.33	444.70
556.50	404.91
556.66	458.74
556.83	451.72
556.99	418.96
557.16	425.98
557.32	437.68
557.49	388.53
557.65	456.40
557.82	369.80
557.98	404.91
558.15	458.74
558.32	395.55
558.48	388.53
558.65	491.51
558.81	463.43
558.98	428.32
559.14	409.59
559.31	435.34
559.47	414.27
559.64	386.19
559.80	430.66
559.97	369.80
560.13	451.72
560.30	442.36
560.46	402.57
560.63	395.55
560.79	479.81
560.96	381.51
561.12	397.89
561.29	355.76
561.45	388.53
561.61	463.43
561.78	491.51
561.94	383.85
562.11	376.83
562.27	379.17
562.44	395.55
562.60	395.55
562.77	320.65
562.93	425.98
563.10	454.06
563.26	395.55
563.42	414.27
563.59	407.25
563.75	433.00
563.92	416.62
564.08	447.04
564.24	451.72
564.41	421.30
564.57	402.57
564.74	367.46
564.90	402.57
565.07	435.34
565.23	423.64
565.39	397.89
565.56	477.47
565.72	358.10
565.88	397.89
566.05	411.93
566.21	402.57
566.38	449.38
566.54	463.43
566.70	400.23
566.87	465.77
567.03	416.62
567.19	444.70
567.36	428.32
567.52	486.83
567.68	393.21
567.85	395.55
568.01	369.80
568.17	388.53
568.34	437.68
568.50	456.40
568.66	379.17
568.83	402.57
568.99	472.79
569.15	449.38
569.32	463.43
569.48	444.70
569.64	444.70
569.81	447.04
569.97	297.25
570.13	442.36
570.30	491.51
570.46	379.17
570.62	374.49
570.78	449.38
570.95	402.57
571.11	411.93
571.27	400.23
571.43	414.27
571.60	386.19
571.76	383.85
571.92	339.38
572.09	362.78
572.25	444.70
572.41	425.98
572.57	367.46
572.74	411.93
572.90	402.57
573.06	315.97
573.22	486.83
573.38	423.64
573.55	372.15
573.71	451.72
573.87	456.40
574.03	339.38
574.20	454.06
574.36	470.45
574.52	395.55
574.68	472.79
574.84	386.19
575.01	409.59
575.17	425.98
575.33	353.42
575.49	449.38
575.65	404.91
575.82	472.79
575.98	468.11
576.14	435.34
576.30	393.21
576.46	402.57
576.62	428.32
576.79	423.64
576.95	498.53
577.11	407.25
577.27	337.04
577.43	397.89
577.59	411.93
577.75	353.42
577.92	397.89
578.08	376.83
578.24	444.70
578.40	383.85
578.56	430.66
578.72	493.85
578.88	397.89
579.04	402.57
579.21	454.06
579.37	447.04
579.53	421.30
579.69	435.34
579.85	433.00
580.01	414.27
580.17	374.49
580.33	461.09
580.49	362.78
580.65	386.19
580.82	465.77
580.98	376.83
581.14	517.26
581.30	447.04
581.46	447.04
581.62	451.72
581.78	447.04
581.94	444.70
582.10	367.46
582.26	388.53
582.42	433.00
582.58	447.04
582.74	442.36
582.90	374.49
583.06	456.40
583.22	437.68
583.38	397.89
583.54	428.32
583.70	411.93
583.86	463.43
584.02	400.23
584.18	514.92
584.34	442.36
584.50	496.19
584.66	475.13
584.82	374.49
584.98	407.25
585.14	404.91
585.30	472.79
585.46	465.77
585.62	414.27
585.78	423.64
585.94	423.64
586.10	451.72
586.26	430.66
586.42	397.89
586.58	507.90
586.74	374.49
586.90	400.23
587.06	456.40
587.22	411.93
587.38	404.91
587.54	390.87
587.70	454.06
587.86	411.93
588.02	444.70
588.18	458.74
588.34	465.77
588.49	369.80
588.65	411.93
588.81	393.21
588.97	376.83
589.13	440.02
589.29	393.21
589.45	437.68
589.61	374.49
589.77	414.27
589.93	498.53
590.08	301.93
590.24	369.80
590.40	353.42
590.56	449.38
590.72	423.64
590.88	402.57
591.04	456.40
591.20	379.17
591.35	451.72
591.51	346.40
591.67	458.74
591.83	454.06
591.99	433.00
592.15	472.79
592.31	346.40
592.46	428.32
592.62	416.62
592.78	430.66
592.94	433.00
593.10	404.91
593.26	416.62
593.41	440.02
593.57	463.43
593.73	372.15
593.89	458.74
594.05	397.89
594.20	449.38
594.36	475.13
594.52	400.23
594.68	351.08
594.84	402.57
594.99	418.96
595.15	470.45
595.31	519.60
595.47	381.51
595.62	372.15
595.78	428.32
595.94	367.46
596.10	400.23
596.25	322.99
596.41	418.96
596.57	430.66
596.73	451.72
596.88	435.34
597.04	409.59
597.20	482.15
597.36	381.51
597.51	395.55
597.67	386.19
597.83	339.38
597.99	447.04
598.14	358.10
598.30	409.59
598.46	414.27
598.61	311.29
598.77	421.30
598.93	402.57
599.09	440.02
599.24	477.47
599.40	505.56
599.56	402.57
599.71	430.66
599.87	442.36
600.03	360.44
600.18	360.44
600.34	545.34
600.50	472.79
600.65	468.11
600.81	395.55
600.97	332.36
601.12	411.93
601.28	395.55
601.44	407.25
601.59	472.79
601.75	493.85
601.91	346.40
602.06	449.38
602.22	458.74
602.37	486.83
602.53	461.09
602.69	414.27
602.84	411.93
603.00	397.89
603.16	409.59
603.31	411.93
603.47	360.44
603.62	430.66
603.78	463.43
603.94	440.02
604.09	433.00
604.25	414.27
604.40	418.96
604.56	386.19
604.71	407.25
604.87	421.30
605.03	367.46
605.18	458.74
605.34	524.28
605.49	423.64
605.65	404.91
605.80	351.08
605.96	416.62
606.12	374.49
606.27	451.72
606.43	393.21
606.58	383.85
606.74	411.93
606.89	433.00
607.05	442.36
607.20	433.00
607.36	430.66
607.51	351.08
607.67	458.74
607.82	437.68
607.98	505.56
608.13	386.19
608.29	444.70
608.44	409.59
608.60	484.49
608.75	507.90
608.91	404.91
609.06	461.09
609.22	503.22
609.37	449.38
609.53	334.70
609.68	444.70
609.84	360.44
609.99	437.68
610.15	433.00
