SpectraSuite Data File
++++++++++++++++++++++++++++++++++++
Date: Fri Oct 25 12:11:12 EDT 2013
User: price-jones
Dark Spectrum Present: No
Reference Spectrum Present: No
Number of Sampled Component Spectra: 1
Spectrometers: USB2+H05261
Integration Time (usec): 100000 (USB2+H05261)
Spectra Averaged: 1 (USB2+H05261)
Boxcar Smoothing: 0 (USB2+H05261)
Correct for Electrical Dark: No (USB2+H05261)
Strobe/Lamp Enabled: No (USB2+H05261)
Correct for Detector Non-linearity: No (USB2+H05261)
Correct for Stray Light: No (USB2+H05261)
Number of Pixels in Processed Spectrum: 2048
>>>>>Begin Processed Spectral Data<<<<<
365.73	344.06
365.92	344.06
366.12	344.06
366.32	327.68
366.52	234.05
366.72	259.80
366.91	236.39
367.11	208.31
367.31	271.50
367.51	180.22
367.70	231.71
367.90	264.48
368.10	269.16
368.30	320.65
368.49	231.71
368.69	264.48
368.89	222.35
369.09	215.33
369.28	320.65
369.48	234.05
369.68	252.78
369.87	308.95
370.07	334.70
370.27	301.93
370.47	353.42
370.66	306.61
370.86	407.25
371.06	416.62
371.25	379.17
371.45	409.59
371.65	358.10
371.84	346.40
372.04	341.72
372.24	400.23
372.44	404.91
372.63	285.55
372.83	400.23
373.03	433.00
373.22	362.78
373.42	423.64
373.62	454.06
373.81	454.06
374.01	456.40
374.21	421.30
374.40	397.89
374.60	388.53
374.79	404.91
374.99	458.74
375.19	451.72
375.38	454.06
375.58	433.00
375.78	442.36
375.97	458.74
376.17	491.51
376.37	456.40
376.56	400.23
376.76	449.38
376.95	397.89
377.15	493.85
377.35	411.93
377.54	386.19
377.74	353.42
377.93	381.51
378.13	400.23
378.33	421.30
378.52	444.70
378.72	442.36
378.91	461.09
379.11	379.17
379.31	418.96
379.50	421.30
379.70	465.77
379.89	365.12
380.09	416.62
380.28	407.25
380.48	414.27
380.68	360.44
380.87	402.57
381.07	407.25
381.26	409.59
381.46	433.00
381.65	437.68
381.85	449.38
382.04	440.02
382.24	374.49
382.43	393.21
382.63	402.57
382.83	423.64
383.02	442.36
383.22	458.74
383.41	393.21
383.61	458.74
383.80	444.70
384.00	393.21
384.19	355.76
384.39	416.62
384.58	388.53
384.78	423.64
384.97	390.87
385.17	440.02
385.36	337.04
385.56	447.04
385.75	407.25
385.95	383.85
386.14	414.27
386.34	416.62
386.53	402.57
386.72	425.98
386.92	379.17
387.11	454.06
387.31	379.17
387.50	395.55
387.70	376.83
387.89	430.66
388.09	374.49
388.28	346.40
388.48	358.10
388.67	423.64
388.86	407.25
389.06	388.53
389.25	430.66
389.45	353.42
389.64	362.78
389.84	381.51
390.03	351.08
390.22	409.59
390.42	379.17
390.61	407.25
390.81	395.55
391.00	404.91
391.19	461.09
391.39	416.62
391.58	447.04
391.78	372.15
391.97	374.49
392.16	388.53
392.36	409.59
392.55	409.59
392.75	365.12
392.94	435.34
393.13	430.66
393.33	374.49
393.52	348.74
393.71	433.00
393.91	402.57
394.10	430.66
394.29	402.57
394.49	407.25
394.68	433.00
394.88	402.57
395.07	367.46
395.26	451.72
395.46	411.93
395.65	482.15
395.84	397.89
396.04	465.77
396.23	430.66
396.42	409.59
396.62	346.40
396.81	463.43
397.00	381.51
397.19	435.34
397.39	456.40
397.58	425.98
397.77	327.68
397.97	433.00
398.16	430.66
398.35	423.64
398.55	381.51
398.74	369.80
398.93	400.23
399.12	425.98
399.32	447.04
399.51	383.85
399.70	456.40
399.90	393.21
400.09	437.68
400.28	456.40
400.47	416.62
400.67	388.53
400.86	372.15
401.05	475.13
401.24	383.85
401.44	425.98
401.63	388.53
401.82	411.93
402.01	346.40
402.21	435.34
402.40	388.53
402.59	383.85
402.78	418.96
402.97	393.21
403.17	493.85
403.36	491.51
403.55	423.64
403.74	416.62
403.93	418.96
404.13	400.23
404.32	442.36
404.51	430.66
404.70	381.51
404.89	454.06
405.09	418.96
405.28	388.53
405.47	348.74
405.66	463.43
405.85	440.02
406.05	451.72
406.24	463.43
406.43	393.21
406.62	440.02
406.81	451.72
407.00	421.30
407.20	362.78
407.39	463.43
407.58	397.89
407.77	388.53
407.96	547.69
408.15	423.64
408.34	402.57
408.54	451.72
408.73	353.42
408.92	390.87
409.11	374.49
409.30	486.83
409.49	379.17
409.68	404.91
409.87	308.95
410.07	414.27
410.26	416.62
410.45	425.98
410.64	456.40
410.83	447.04
411.02	409.59
411.21	440.02
411.40	383.85
411.59	454.06
411.78	369.80
411.98	425.98
412.17	418.96
412.36	346.40
412.55	397.89
412.74	393.21
412.93	435.34
413.12	449.38
413.31	418.96
413.50	430.66
413.69	358.10
413.88	477.47
414.07	433.00
414.26	365.12
414.45	390.87
414.64	433.00
414.83	400.23
415.02	390.87
415.22	402.57
415.41	444.70
415.60	437.68
415.79	484.49
415.98	517.26
416.17	435.34
416.36	411.93
416.55	362.78
416.74	393.21
416.93	451.72
417.12	470.45
417.31	393.21
417.50	358.10
417.69	440.02
417.88	461.09
418.07	388.53
418.26	430.66
418.45	418.96
418.64	388.53
418.83	425.98
419.02	383.85
419.21	414.27
419.39	374.49
419.58	360.44
419.77	449.38
419.96	407.25
420.15	395.55
420.34	353.42
420.53	386.19
420.72	437.68
420.91	360.44
421.10	367.46
421.29	456.40
421.48	444.70
421.67	411.93
421.86	416.62
422.05	294.91
422.24	388.53
422.43	397.89
422.61	374.49
422.80	449.38
422.99	379.17
423.18	397.89
423.37	468.11
423.56	369.80
423.75	440.02
423.94	442.36
424.13	430.66
424.32	440.02
424.50	425.98
424.69	404.91
424.88	477.47
425.07	386.19
425.26	411.93
425.45	479.81
425.64	421.30
425.83	346.40
426.01	458.74
426.20	390.87
426.39	414.27
426.58	381.51
426.77	393.21
426.96	435.34
427.15	416.62
427.33	458.74
427.52	430.66
427.71	428.32
427.90	440.02
428.09	496.19
428.28	390.87
428.46	437.68
428.65	388.53
428.84	465.77
429.03	493.85
429.22	393.21
429.40	428.32
429.59	416.62
429.78	458.74
429.97	400.23
430.16	334.70
430.34	383.85
430.53	421.30
430.72	437.68
430.91	451.72
431.10	388.53
431.28	381.51
431.47	381.51
431.66	397.89
431.85	393.21
432.03	409.59
432.22	463.43
432.41	423.64
432.60	425.98
432.79	463.43
432.97	425.98
433.16	367.46
433.35	472.79
433.54	362.78
433.72	447.04
433.91	454.06
434.10	486.83
434.28	351.08
434.47	393.21
434.66	505.56
434.85	414.27
435.03	437.68
435.22	421.30
435.41	458.74
435.59	421.30
435.78	430.66
435.97	400.23
436.16	449.38
436.34	418.96
436.53	376.83
436.72	451.72
436.90	454.06
437.09	416.62
437.28	491.51
437.46	444.70
437.65	477.47
437.84	386.19
438.02	435.34
438.21	402.57
438.40	334.70
438.58	463.43
438.77	395.55
438.96	353.42
439.14	344.06
439.33	428.32
439.52	407.25
439.70	465.77
439.89	421.30
440.08	425.98
440.26	395.55
440.45	421.30
440.63	269.16
440.82	440.02
441.01	388.53
441.19	407.25
441.38	355.76
441.57	442.36
441.75	447.04
441.94	449.38
442.12	383.85
442.31	360.44
442.50	449.38
442.68	425.98
442.87	425.98
443.05	400.23
443.24	437.68
443.43	372.15
443.61	514.92
443.80	407.25
443.98	374.49
444.17	369.80
444.35	395.55
444.54	465.77
444.73	374.49
444.91	503.22
445.10	360.44
445.28	360.44
445.47	402.57
445.65	407.25
445.84	376.83
446.02	430.66
446.21	381.51
446.39	484.49
446.58	376.83
446.77	395.55
446.95	465.77
447.14	423.64
447.32	475.13
447.51	418.96
447.69	468.11
447.88	449.38
448.06	500.87
448.25	402.57
448.43	449.38
448.62	435.34
448.80	514.92
448.99	367.46
449.17	404.91
449.36	430.66
449.54	395.55
449.73	360.44
449.91	383.85
450.10	386.19
450.28	435.34
450.46	416.62
450.65	437.68
450.83	369.80
451.02	369.80
451.20	379.17
451.39	454.06
451.57	461.09
451.76	430.66
451.94	435.34
452.13	440.02
452.31	421.30
452.49	404.91
452.68	369.80
452.86	374.49
453.05	381.51
453.23	425.98
453.42	444.70
453.60	358.10
453.78	374.49
453.97	400.23
454.15	383.85
454.34	416.62
454.52	414.27
454.70	440.02
454.89	386.19
455.07	477.47
455.26	486.83
455.44	435.34
455.62	416.62
455.81	414.27
455.99	486.83
456.17	489.17
456.36	461.09
456.54	411.93
456.73	456.40
456.91	447.04
457.09	383.85
457.28	430.66
457.46	425.98
457.64	425.98
457.83	442.36
458.01	400.23
458.19	463.43
458.38	376.83
458.56	388.53
458.74	425.98
458.93	472.79
459.11	409.59
459.29	404.91
459.48	482.15
459.66	456.40
459.84	430.66
460.03	414.27
460.21	414.27
460.39	351.08
460.57	461.09
460.76	409.59
460.94	416.62
461.12	444.70
461.31	449.38
461.49	388.53
461.67	393.21
461.85	421.30
462.04	447.04
462.22	777.06
462.40	435.34
462.59	386.19
462.77	433.00
462.95	440.02
463.13	393.21
463.32	440.02
463.50	449.38
463.68	367.46
463.86	444.70
464.05	486.83
464.23	489.17
464.41	388.53
464.59	386.19
464.78	414.27
464.96	367.46
465.14	400.23
465.32	414.27
465.50	360.44
465.69	409.59
465.87	404.91
466.05	472.79
466.23	465.77
466.41	411.93
466.60	437.68
466.78	449.38
466.96	381.51
467.14	397.89
467.32	367.46
467.51	379.17
467.69	449.38
467.87	390.87
468.05	379.17
468.23	496.19
468.41	400.23
468.60	440.02
468.78	442.36
468.96	428.32
469.14	388.53
469.32	395.55
469.50	428.32
469.69	451.72
469.87	393.21
470.05	430.66
470.23	404.91
470.41	390.87
470.59	355.76
470.77	365.12
470.95	423.64
471.14	404.91
471.32	442.36
471.50	435.34
471.68	454.06
471.86	395.55
472.04	421.30
472.22	447.04
472.40	393.21
472.58	393.21
472.77	435.34
472.95	437.68
473.13	423.64
473.31	461.09
473.49	425.98
473.67	407.25
473.85	491.51
474.03	418.96
474.21	386.19
474.39	451.72
474.57	440.02
474.75	351.08
474.93	472.79
475.12	411.93
475.30	479.81
475.48	344.06
475.66	418.96
475.84	388.53
476.02	428.32
476.20	404.91
476.38	461.09
476.56	416.62
476.74	390.87
476.92	397.89
477.10	388.53
477.28	456.40
477.46	425.98
477.64	425.98
477.82	383.85
478.00	404.91
478.18	390.87
478.36	470.45
478.54	379.17
478.72	369.80
478.90	407.25
479.08	458.74
479.26	433.00
479.44	376.83
479.62	381.51
479.80	479.81
479.98	477.47
480.16	395.55
480.34	437.68
480.52	454.06
480.70	477.47
480.88	383.85
481.06	430.66
481.24	358.10
481.41	433.00
481.59	463.43
481.77	407.25
481.95	369.80
482.13	458.74
482.31	395.55
482.49	383.85
482.67	463.43
482.85	486.83
483.03	388.53
483.21	428.32
483.39	416.62
483.57	393.21
483.74	425.98
483.92	437.68
484.10	390.87
484.28	447.04
484.46	500.87
484.64	397.89
484.82	440.02
485.00	414.27
485.18	390.87
485.35	447.04
485.53	400.23
485.71	475.13
485.89	393.21
486.07	447.04
486.25	465.77
486.43	409.59
486.61	425.98
486.78	507.90
486.96	463.43
487.14	383.85
487.32	386.19
487.50	404.91
487.68	407.25
487.85	395.55
488.03	395.55
488.21	383.85
488.39	418.96
488.57	397.89
488.75	430.66
488.92	510.24
489.10	404.91
489.28	440.02
489.46	423.64
489.64	454.06
489.81	421.30
489.99	381.51
490.17	367.46
490.35	428.32
490.53	423.64
490.70	393.21
490.88	451.72
491.06	421.30
491.24	428.32
491.41	435.34
491.59	395.55
491.77	435.34
491.95	402.57
492.13	379.17
492.30	400.23
492.48	421.30
492.66	435.34
492.84	397.89
493.01	444.70
493.19	386.19
493.37	416.62
493.54	433.00
493.72	407.25
493.90	418.96
494.08	425.98
494.25	402.57
494.43	400.23
494.61	468.11
494.79	393.21
494.96	463.43
495.14	437.68
495.32	440.02
495.49	372.15
495.67	482.15
495.85	451.72
496.02	409.59
496.20	451.72
496.38	465.77
496.55	454.06
496.73	353.42
496.91	367.46
497.09	393.21
497.26	404.91
497.44	397.89
497.62	486.83
497.79	465.77
497.97	407.25
498.14	461.09
498.32	433.00
498.50	421.30
498.67	320.65
498.85	414.27
499.03	397.89
499.20	411.93
499.38	416.62
499.56	435.34
499.73	423.64
499.91	517.26
500.08	411.93
500.26	400.23
500.44	433.00
500.61	482.15
500.79	386.19
500.97	362.78
501.14	409.59
501.32	449.38
501.49	421.30
501.67	365.12
501.84	444.70
502.02	468.11
502.20	390.87
502.37	414.27
502.55	397.89
502.72	355.76
502.90	461.09
503.07	414.27
503.25	421.30
503.43	421.30
503.60	500.87
503.78	383.85
503.95	393.21
504.13	458.74
504.30	435.34
504.48	411.93
504.65	456.40
504.83	470.45
505.01	390.87
505.18	411.93
505.36	386.19
505.53	374.49
505.71	365.12
505.88	440.02
506.06	458.74
506.23	465.77
506.41	386.19
506.58	433.00
506.76	486.83
506.93	411.93
507.11	435.34
507.28	465.77
507.46	449.38
507.63	418.96
507.81	416.62
507.98	379.17
508.16	425.98
508.33	440.02
508.50	454.06
508.68	440.02
508.85	447.04
509.03	407.25
509.20	386.19
509.38	479.81
509.55	472.79
509.73	451.72
509.90	479.81
510.08	477.47
510.25	463.43
510.42	442.36
510.60	437.68
510.77	451.72
510.95	470.45
511.12	372.15
511.30	372.15
511.47	437.68
511.64	526.62
511.82	421.30
511.99	458.74
512.17	425.98
512.34	372.15
512.51	379.17
512.69	381.51
512.86	472.79
513.04	449.38
513.21	407.25
513.38	360.44
513.56	397.89
513.73	421.30
513.90	395.55
514.08	425.98
514.25	393.21
514.43	447.04
514.60	437.68
514.77	341.72
514.95	421.30
515.12	395.55
515.29	440.02
515.47	351.08
515.64	414.27
515.81	430.66
515.99	444.70
516.16	538.32
516.33	470.45
516.51	388.53
516.68	477.47
516.85	454.06
517.03	482.15
517.20	388.53
517.37	449.38
517.54	435.34
517.72	346.40
517.89	334.70
518.06	337.04
518.24	519.60
518.41	479.81
518.58	449.38
518.75	416.62
518.93	388.53
519.10	447.04
519.27	320.65
519.45	402.57
519.62	416.62
519.79	440.02
519.96	383.85
520.14	463.43
520.31	386.19
520.48	414.27
520.65	472.79
520.83	447.04
521.00	491.51
521.17	376.83
521.34	433.00
521.52	367.46
521.69	442.36
521.86	442.36
522.03	421.30
522.20	416.62
522.38	437.68
522.55	367.46
522.72	379.17
522.89	437.68
523.07	404.91
523.24	428.32
523.41	379.17
523.58	383.85
523.75	475.13
523.92	411.93
524.10	414.27
524.27	367.46
524.44	362.78
524.61	414.27
524.78	409.59
524.96	461.09
525.13	440.02
525.30	440.02
525.47	388.53
525.64	395.55
525.81	449.38
525.98	397.89
526.16	337.04
526.33	407.25
526.50	355.76
526.67	383.85
526.84	388.53
527.01	440.02
527.18	496.19
527.36	393.21
527.53	418.96
527.70	355.76
527.87	416.62
528.04	430.66
528.21	425.98
528.38	407.25
528.55	402.57
528.72	440.02
528.89	489.17
529.07	428.32
529.24	425.98
529.41	390.87
529.58	451.72
529.75	402.57
529.92	454.06
530.09	468.11
530.26	442.36
530.43	435.34
530.60	411.93
530.77	442.36
530.94	442.36
531.11	404.91
531.28	433.00
531.46	442.36
531.63	425.98
531.80	346.40
531.97	505.56
532.14	346.40
532.31	400.23
532.48	512.58
532.65	423.64
532.82	383.85
532.99	393.21
533.16	369.80
533.33	430.66
533.50	409.59
533.67	374.49
533.84	325.33
534.01	402.57
534.18	447.04
534.35	390.87
534.52	477.47
534.69	421.30
534.86	428.32
535.03	409.59
535.20	400.23
535.37	411.93
535.54	468.11
535.71	486.83
535.88	402.57
536.05	351.08
536.22	458.74
536.38	440.02
536.55	449.38
536.72	468.11
536.89	454.06
537.06	416.62
537.23	404.91
537.40	475.13
537.57	418.96
537.74	500.87
537.91	449.38
538.08	376.83
538.25	500.87
538.42	390.87
538.59	395.55
538.75	390.87
538.92	379.17
539.09	360.44
539.26	374.49
539.43	465.77
539.60	376.83
539.77	454.06
539.94	372.15
540.11	397.89
540.28	521.94
540.44	461.09
540.61	456.40
540.78	437.68
540.95	425.98
541.12	379.17
541.29	447.04
541.46	418.96
541.62	442.36
541.79	372.15
541.96	458.74
542.13	470.45
542.30	351.08
542.47	421.30
542.63	430.66
542.80	430.66
542.97	472.79
543.14	433.00
543.31	442.36
543.48	461.09
543.64	461.09
543.81	409.59
543.98	372.15
544.15	393.21
544.32	404.91
544.48	414.27
544.65	365.12
544.82	451.72
544.99	402.57
545.16	418.96
545.32	400.23
545.49	482.15
545.66	411.93
545.83	451.72
546.00	388.53
546.16	353.42
546.33	416.62
546.50	470.45
546.67	463.43
546.83	489.17
547.00	397.89
547.17	381.51
547.34	390.87
547.50	407.25
547.67	409.59
547.84	388.53
548.00	379.17
548.17	402.57
548.34	430.66
548.51	486.83
548.67	379.17
548.84	372.15
549.01	397.89
549.18	411.93
549.34	381.51
549.51	458.74
549.68	479.81
549.84	421.30
550.01	435.34
550.18	470.45
550.34	479.81
550.51	374.49
550.68	402.57
550.84	442.36
551.01	433.00
551.18	461.09
551.34	444.70
551.51	411.93
551.68	416.62
551.84	388.53
552.01	430.66
552.18	393.21
552.34	428.32
552.51	414.27
552.68	458.74
552.84	402.57
553.01	397.89
553.18	440.02
553.34	390.87
553.51	369.80
553.67	383.85
553.84	477.47
554.01	440.02
554.17	435.34
554.34	390.87
554.51	362.78
554.67	390.87
554.84	496.19
555.00	433.00
555.17	383.85
555.33	444.70
555.50	433.00
555.67	449.38
555.83	369.80
556.00	402.57
556.16	561.73
556.33	416.62
556.50	411.93
556.66	465.77
556.83	440.02
556.99	409.59
557.16	437.68
557.32	390.87
557.49	428.32
557.65	374.49
557.82	470.45
557.98	386.19
558.15	416.62
558.32	372.15
558.48	414.27
558.65	454.06
558.81	365.12
558.98	418.96
559.14	376.83
559.31	395.55
559.47	369.80
559.64	449.38
559.80	404.91
559.97	425.98
560.13	402.57
560.30	386.19
560.46	381.51
560.63	437.68
560.79	383.85
560.96	365.12
561.12	404.91
561.29	451.72
561.45	402.57
561.61	386.19
561.78	491.51
561.94	463.43
562.11	440.02
562.27	444.70
562.44	386.19
562.60	447.04
562.77	332.36
562.93	421.30
563.10	383.85
563.26	425.98
563.42	418.96
563.59	381.51
563.75	355.76
563.92	414.27
564.08	423.64
564.24	456.40
564.41	454.06
564.57	395.55
564.74	425.98
564.90	447.04
565.07	454.06
565.23	463.43
565.39	454.06
565.56	444.70
565.72	451.72
565.88	379.17
566.05	423.64
566.21	425.98
566.38	404.91
566.54	430.66
566.70	461.09
566.87	390.87
567.03	325.33
567.19	423.64
567.36	437.68
567.52	344.06
567.68	489.17
567.85	423.64
568.01	411.93
568.17	470.45
568.34	468.11
568.50	447.04
568.66	400.23
568.83	491.51
568.99	418.96
569.15	411.93
569.32	421.30
569.48	416.62
569.64	393.21
569.81	379.17
569.97	423.64
570.13	442.36
570.30	482.15
570.46	428.32
570.62	334.70
570.78	414.27
570.95	414.27
571.11	538.32
571.27	414.27
571.43	369.80
571.60	393.21
571.76	407.25
571.92	519.60
572.09	397.89
572.25	442.36
572.41	388.53
572.57	463.43
572.74	484.49
572.90	388.53
573.06	440.02
573.22	437.68
573.38	404.91
573.55	365.12
573.71	390.87
573.87	367.46
574.03	470.45
574.20	449.38
574.36	423.64
574.52	437.68
574.68	330.02
574.84	416.62
575.01	351.08
575.17	423.64
575.33	428.32
575.49	418.96
575.65	393.21
575.82	461.09
575.98	353.42
576.14	449.38
576.30	353.42
576.46	425.98
576.62	442.36
576.79	414.27
576.95	444.70
577.11	421.30
577.27	334.70
577.43	411.93
577.59	475.13
577.75	463.43
577.92	411.93
578.08	393.21
578.24	404.91
578.40	407.25
578.56	430.66
578.72	409.59
578.88	397.89
579.04	430.66
579.21	423.64
579.37	484.49
579.53	433.00
579.69	475.13
579.85	440.02
580.01	435.34
580.17	433.00
580.33	381.51
580.49	430.66
580.65	416.62
580.82	454.06
580.98	465.77
581.14	369.80
581.30	428.32
581.46	440.02
581.62	463.43
581.78	414.27
581.94	411.93
582.10	402.57
582.26	365.12
582.42	346.40
582.58	414.27
582.74	397.89
582.90	393.21
583.06	437.68
583.22	383.85
583.38	325.33
583.54	404.91
583.70	433.00
583.86	407.25
584.02	423.64
584.18	433.00
584.34	388.53
584.50	411.93
584.66	456.40
584.82	365.12
584.98	416.62
585.14	493.85
585.30	407.25
585.46	442.36
585.62	402.57
585.78	440.02
585.94	437.68
586.10	442.36
586.26	463.43
586.42	447.04
586.58	433.00
586.74	456.40
586.90	386.19
587.06	421.30
587.22	397.89
587.38	388.53
587.54	447.04
587.70	465.77
587.86	393.21
588.02	416.62
588.18	437.68
588.34	489.17
588.49	402.57
588.65	454.06
588.81	465.77
588.97	440.02
589.13	374.49
589.29	355.76
589.45	435.34
589.61	458.74
589.77	482.15
589.93	351.08
590.08	402.57
590.24	440.02
590.40	428.32
590.56	400.23
590.72	339.38
590.88	409.59
591.04	442.36
591.20	440.02
591.35	425.98
591.51	430.66
591.67	341.72
591.83	341.72
591.99	433.00
592.15	428.32
592.31	379.17
592.46	451.72
592.62	433.00
592.78	315.97
592.94	358.10
593.10	381.51
593.26	395.55
593.41	425.98
593.57	423.64
593.73	456.40
593.89	397.89
594.05	393.21
594.20	444.70
594.36	404.91
594.52	421.30
594.68	463.43
594.84	430.66
594.99	489.17
595.15	418.96
595.31	435.34
595.47	465.77
595.62	447.04
595.78	451.72
595.94	477.47
596.10	507.90
596.25	472.79
596.41	437.68
596.57	337.04
596.73	444.70
596.88	374.49
597.04	472.79
597.20	367.46
597.36	442.36
597.51	409.59
597.67	360.44
597.83	390.87
597.99	449.38
598.14	386.19
598.30	353.42
598.46	355.76
598.61	388.53
598.77	425.98
598.93	376.83
599.09	411.93
599.24	433.00
599.40	437.68
599.56	393.21
599.71	454.06
599.87	379.17
600.03	409.59
600.18	409.59
600.34	386.19
600.50	442.36
600.65	491.51
600.81	381.51
600.97	416.62
601.12	383.85
601.28	479.81
601.44	402.57
601.59	360.44
601.75	344.06
601.91	416.62
602.06	430.66
602.22	449.38
602.37	397.89
602.53	407.25
602.69	433.00
602.84	409.59
603.00	404.91
603.16	409.59
603.31	428.32
603.47	416.62
603.62	444.70
603.78	374.49
603.94	465.77
604.09	463.43
604.25	463.43
604.40	381.51
604.56	418.96
604.71	381.51
604.87	355.76
605.03	442.36
605.18	454.06
605.34	477.47
605.49	404.91
605.65	454.06
605.80	362.78
605.96	358.10
606.12	397.89
606.27	437.68
606.43	451.72
606.58	395.55
606.74	451.72
606.89	463.43
607.05	456.40
607.20	435.34
607.36	374.49
607.51	365.12
607.67	433.00
607.82	421.30
607.98	463.43
608.13	444.70
608.29	444.70
608.44	486.83
608.60	402.57
608.75	442.36
608.91	444.70
609.06	423.64
609.22	411.93
609.37	442.36
609.53	358.10
609.68	465.77
609.84	442.36
609.99	381.51
610.15	400.23
