SpectraSuite Data File
++++++++++++++++++++++++++++++++++++
Date: Fri Oct 25 12:10:06 EDT 2013
User: price-jones
Dark Spectrum Present: No
Reference Spectrum Present: No
Number of Sampled Component Spectra: 1
Spectrometers: USB2+H05261
Integration Time (usec): 100000 (USB2+H05261)
Spectra Averaged: 1 (USB2+H05261)
Boxcar Smoothing: 0 (USB2+H05261)
Correct for Electrical Dark: No (USB2+H05261)
Strobe/Lamp Enabled: No (USB2+H05261)
Correct for Detector Non-linearity: No (USB2+H05261)
Correct for Stray Light: No (USB2+H05261)
Number of Pixels in Processed Spectrum: 2048
>>>>>Begin Processed Spectral Data<<<<<
365.73	390.87
365.92	390.87
366.12	390.87
366.32	234.05
366.52	285.55
366.72	236.39
366.91	241.08
367.11	255.12
367.31	222.35
367.51	229.37
367.70	145.11
367.90	304.27
368.10	308.95
368.30	227.03
368.49	217.67
368.69	330.02
368.89	243.42
369.09	271.50
369.28	215.33
369.48	266.82
369.68	252.78
369.87	250.44
370.07	287.89
370.27	337.04
370.47	334.70
370.66	341.72
370.86	339.38
371.06	337.04
371.25	327.68
371.45	369.80
371.65	386.19
371.84	346.40
372.04	365.12
372.24	423.64
372.44	388.53
372.63	374.49
372.83	355.76
373.03	390.87
373.22	425.98
373.42	409.59
373.62	456.40
373.81	447.04
374.01	416.62
374.21	433.00
374.40	334.70
374.60	390.87
374.79	437.68
374.99	433.00
375.19	449.38
375.38	344.06
375.58	451.72
375.78	465.77
375.97	421.30
376.17	461.09
376.37	301.93
376.56	416.62
376.76	458.74
376.95	341.72
377.15	362.78
377.35	430.66
377.54	393.21
377.74	365.12
377.93	416.62
378.13	344.06
378.33	430.66
378.52	428.32
378.72	355.76
378.91	489.17
379.11	428.32
379.31	379.17
379.50	374.49
379.70	400.23
379.89	418.96
380.09	430.66
380.28	400.23
380.48	440.02
380.68	358.10
380.87	367.46
381.07	393.21
381.26	374.49
381.46	449.38
381.65	393.21
381.85	435.34
382.04	397.89
382.24	458.74
382.43	346.40
382.63	372.15
382.83	428.32
383.02	430.66
383.22	468.11
383.41	369.80
383.61	386.19
383.80	386.19
384.00	411.93
384.19	402.57
384.39	444.70
384.58	395.55
384.78	383.85
384.97	433.00
385.17	339.38
385.36	402.57
385.56	454.06
385.75	416.62
385.95	379.17
386.14	442.36
386.34	397.89
386.53	339.38
386.72	358.10
386.92	358.10
387.11	346.40
387.31	449.38
387.50	423.64
387.70	353.42
387.89	430.66
388.09	489.17
388.28	379.17
388.48	430.66
388.67	454.06
388.86	447.04
389.06	388.53
389.25	353.42
389.45	433.00
389.64	425.98
389.84	437.68
390.03	388.53
390.22	376.83
390.42	388.53
390.61	383.85
390.81	341.72
391.00	512.58
391.19	402.57
391.39	454.06
391.58	341.72
391.78	407.25
391.97	437.68
392.16	341.72
392.36	451.72
392.55	477.47
392.75	447.04
392.94	425.98
393.13	379.17
393.33	409.59
393.52	346.40
393.71	428.32
393.91	362.78
394.10	397.89
394.29	402.57
394.49	456.40
394.68	447.04
394.88	430.66
395.07	383.85
395.26	423.64
395.46	414.27
395.65	521.94
395.84	411.93
396.04	440.02
396.23	447.04
396.42	372.15
396.62	414.27
396.81	423.64
397.00	367.46
397.19	386.19
397.39	437.68
397.58	447.04
397.77	407.25
397.97	369.80
398.16	351.08
398.35	433.00
398.55	337.04
398.74	449.38
398.93	358.10
399.12	400.23
399.32	440.02
399.51	433.00
399.70	437.68
399.90	400.23
400.09	461.09
400.28	339.38
400.47	421.30
400.67	369.80
400.86	435.34
401.05	416.62
401.24	533.64
401.44	402.57
401.63	447.04
401.82	383.85
402.01	379.17
402.21	341.72
402.40	374.49
402.59	456.40
402.78	376.83
402.97	386.19
403.17	395.55
403.36	416.62
403.55	362.78
403.74	407.25
403.93	388.53
404.13	367.46
404.32	339.38
404.51	416.62
404.70	388.53
404.89	346.40
405.09	484.49
405.28	449.38
405.47	365.12
405.66	421.30
405.85	461.09
406.05	421.30
406.24	416.62
406.43	355.76
406.62	404.91
406.81	411.93
407.00	425.98
407.20	313.63
407.39	397.89
407.58	388.53
407.77	388.53
407.96	409.59
408.15	421.30
408.34	454.06
408.54	400.23
408.73	435.34
408.92	404.91
409.11	421.30
409.30	397.89
409.49	433.00
409.68	463.43
409.87	416.62
410.07	475.13
410.26	418.96
410.45	372.15
410.64	376.83
410.83	425.98
411.02	447.04
411.21	423.64
411.40	400.23
411.59	381.51
411.78	400.23
411.98	388.53
412.17	447.04
412.36	358.10
412.55	404.91
412.74	411.93
412.93	381.51
413.12	381.51
413.31	477.47
413.50	423.64
413.69	388.53
413.88	491.51
414.07	425.98
414.26	404.91
414.45	430.66
414.64	433.00
414.83	367.46
415.02	449.38
415.22	416.62
415.41	362.78
415.60	388.53
415.79	465.77
415.98	496.19
416.17	437.68
416.36	374.49
416.55	407.25
416.74	414.27
416.93	433.00
417.12	449.38
417.31	433.00
417.50	440.02
417.69	421.30
417.88	395.55
418.07	386.19
418.26	435.34
418.45	458.74
418.64	402.57
418.83	376.83
419.02	339.38
419.21	395.55
419.39	386.19
419.58	388.53
419.77	395.55
419.96	440.02
420.15	451.72
420.34	367.46
420.53	367.46
420.72	400.23
420.91	421.30
421.10	402.57
421.29	423.64
421.48	463.43
421.67	397.89
421.86	390.87
422.05	409.59
422.24	402.57
422.43	447.04
422.61	458.74
422.80	353.42
422.99	411.93
423.18	440.02
423.37	458.74
423.56	388.53
423.75	423.64
423.94	362.78
424.13	386.19
424.32	362.78
424.50	435.34
424.69	400.23
424.88	484.49
425.07	362.78
425.26	463.43
425.45	421.30
425.64	411.93
425.83	374.49
426.01	512.58
426.20	421.30
426.39	390.87
426.58	414.27
426.77	414.27
426.96	397.89
427.15	505.56
427.33	402.57
427.52	423.64
427.71	407.25
427.90	379.17
428.09	444.70
428.28	393.21
428.46	374.49
428.65	418.96
428.84	423.64
429.03	498.53
429.22	341.72
429.40	421.30
429.59	451.72
429.78	409.59
429.97	465.77
430.16	372.15
430.34	409.59
430.53	348.74
430.72	421.30
430.91	407.25
431.10	456.40
431.28	353.42
431.47	430.66
431.66	503.22
431.85	358.10
432.03	369.80
432.22	397.89
432.41	365.12
432.60	407.25
432.79	390.87
432.97	475.13
433.16	353.42
433.35	348.74
433.54	416.62
433.72	383.85
433.91	442.36
434.10	447.04
434.28	353.42
434.47	404.91
434.66	414.27
434.85	402.57
435.03	470.45
435.22	463.43
435.41	479.81
435.59	383.85
435.78	423.64
435.97	465.77
436.16	400.23
436.34	379.17
436.53	416.62
436.72	503.22
436.90	421.30
437.09	440.02
437.28	449.38
437.46	423.64
437.65	428.32
437.84	463.43
438.02	388.53
438.21	400.23
438.40	365.12
438.58	416.62
438.77	421.30
438.96	428.32
439.14	383.85
439.33	372.15
439.52	444.70
439.70	454.06
439.89	393.21
440.08	369.80
440.26	407.25
440.45	374.49
440.63	416.62
440.82	418.96
441.01	447.04
441.19	447.04
441.38	411.93
441.57	402.57
441.75	449.38
441.94	421.30
442.12	402.57
442.31	463.43
442.50	386.19
442.68	390.87
442.87	479.81
443.05	388.53
443.24	372.15
443.43	475.13
443.61	447.04
443.80	341.72
443.98	402.57
444.17	400.23
444.35	425.98
444.54	372.15
444.73	404.91
444.91	433.00
445.10	400.23
445.28	337.04
445.47	449.38
445.65	339.38
445.84	379.17
446.02	365.12
446.21	423.64
446.39	449.38
446.58	383.85
446.77	400.23
446.95	383.85
447.14	416.62
447.32	386.19
447.51	390.87
447.69	486.83
447.88	423.64
448.06	461.09
448.25	404.91
448.43	344.06
448.62	388.53
448.80	491.51
448.99	390.87
449.17	351.08
449.36	360.44
449.54	369.80
449.73	360.44
449.91	428.32
450.10	402.57
450.28	458.74
450.46	458.74
450.65	440.02
450.83	383.85
451.02	444.70
451.20	477.47
451.39	397.89
451.57	388.53
451.76	379.17
451.94	437.68
452.13	393.21
452.31	397.89
452.49	437.68
452.68	395.55
452.86	458.74
453.05	440.02
453.23	369.80
453.42	355.76
453.60	409.59
453.78	386.19
453.97	461.09
454.15	418.96
454.34	484.49
454.52	374.49
454.70	390.87
454.89	414.27
455.07	468.11
455.26	393.21
455.44	433.00
455.62	381.51
455.81	388.53
455.99	402.57
456.17	454.06
456.36	355.76
456.54	388.53
456.73	430.66
456.91	404.91
457.09	435.34
457.28	456.40
457.46	409.59
457.64	461.09
457.83	327.68
458.01	367.46
458.19	367.46
458.38	372.15
458.56	461.09
458.74	322.99
458.93	472.79
459.11	386.19
459.29	400.23
459.48	440.02
459.66	468.11
459.84	468.11
460.03	447.04
460.21	456.40
460.39	362.78
460.57	414.27
460.76	414.27
460.94	421.30
461.12	493.85
461.31	437.68
461.49	383.85
461.67	414.27
461.85	416.62
462.04	346.40
462.22	823.87
462.40	449.38
462.59	482.15
462.77	393.21
462.95	404.91
463.13	339.38
463.32	425.98
463.50	435.34
463.68	423.64
463.86	381.51
464.05	409.59
464.23	407.25
464.41	407.25
464.59	383.85
464.78	435.34
464.96	407.25
465.14	339.38
465.32	383.85
465.50	386.19
465.69	433.00
465.87	437.68
466.05	404.91
466.23	425.98
466.41	400.23
466.60	425.98
466.78	456.40
466.96	461.09
467.14	386.19
467.32	463.43
467.51	362.78
467.69	433.00
467.87	435.34
468.05	383.85
468.23	479.81
468.41	397.89
468.60	477.47
468.78	383.85
468.96	440.02
469.14	367.46
469.32	463.43
469.50	475.13
469.69	400.23
469.87	451.72
470.05	411.93
470.23	397.89
470.41	404.91
470.59	435.34
470.77	360.44
470.95	451.72
471.14	489.17
471.32	421.30
471.50	428.32
471.68	386.19
471.86	440.02
472.04	442.36
472.22	402.57
472.40	376.83
472.58	409.59
472.77	414.27
472.95	407.25
473.13	423.64
473.31	404.91
473.49	337.04
473.67	367.46
473.85	414.27
474.03	454.06
474.21	358.10
474.39	458.74
474.57	430.66
474.75	440.02
474.93	461.09
475.12	491.51
475.30	379.17
475.48	397.89
475.66	451.72
475.84	395.55
476.02	306.61
476.20	428.32
476.38	440.02
476.56	491.51
476.74	414.27
476.92	388.53
477.10	379.17
477.28	454.06
477.46	383.85
477.64	489.17
477.82	404.91
478.00	472.79
478.18	407.25
478.36	425.98
478.54	402.57
478.72	404.91
478.90	395.55
479.08	353.42
479.26	425.98
479.44	430.66
479.62	454.06
479.80	369.80
479.98	379.17
480.16	379.17
480.34	369.80
480.52	369.80
480.70	411.93
480.88	386.19
481.06	447.04
481.24	390.87
481.41	456.40
481.59	484.49
481.77	425.98
481.95	397.89
482.13	449.38
482.31	318.31
482.49	381.51
482.67	463.43
482.85	463.43
483.03	407.25
483.21	411.93
483.39	404.91
483.57	421.30
483.74	374.49
483.92	411.93
484.10	409.59
484.28	444.70
484.46	521.94
484.64	381.51
484.82	411.93
485.00	416.62
485.18	465.77
485.35	374.49
485.53	404.91
485.71	425.98
485.89	442.36
486.07	379.17
486.25	465.77
486.43	428.32
486.61	341.72
486.78	472.79
486.96	397.89
487.14	404.91
487.32	365.12
487.50	372.15
487.68	390.87
487.85	433.00
488.03	479.81
488.21	425.98
488.39	409.59
488.57	402.57
488.75	409.59
488.92	454.06
489.10	358.10
489.28	372.15
489.46	435.34
489.64	388.53
489.81	421.30
489.99	393.21
490.17	461.09
490.35	472.79
490.53	477.47
490.70	468.11
490.88	440.02
491.06	393.21
491.24	404.91
491.41	458.74
491.59	411.93
491.77	400.23
491.95	442.36
492.13	496.19
492.30	428.32
492.48	362.78
492.66	402.57
492.84	353.42
493.01	442.36
493.19	442.36
493.37	386.19
493.54	414.27
493.72	454.06
493.90	418.96
494.08	379.17
494.25	456.40
494.43	414.27
494.61	395.55
494.79	430.66
494.96	407.25
495.14	442.36
495.32	414.27
495.49	348.74
495.67	414.27
495.85	315.97
496.02	393.21
496.20	383.85
496.38	416.62
496.55	433.00
496.73	423.64
496.91	379.17
497.09	423.64
497.26	365.12
497.44	463.43
497.62	367.46
497.79	400.23
497.97	372.15
498.14	414.27
498.32	353.42
498.50	496.19
498.67	388.53
498.85	409.59
499.03	374.49
499.20	386.19
499.38	369.80
499.56	388.53
499.73	437.68
499.91	491.51
500.08	414.27
500.26	372.15
500.44	411.93
500.61	379.17
500.79	395.55
500.97	454.06
501.14	421.30
501.32	472.79
501.49	421.30
501.67	416.62
501.84	475.13
502.02	454.06
502.20	498.53
502.37	393.21
502.55	472.79
502.72	402.57
502.90	400.23
503.07	418.96
503.25	386.19
503.43	402.57
503.60	386.19
503.78	421.30
503.95	390.87
504.13	372.15
504.30	416.62
504.48	402.57
504.65	386.19
504.83	461.09
505.01	379.17
505.18	425.98
505.36	358.10
505.53	381.51
505.71	440.02
505.88	428.32
506.06	430.66
506.23	451.72
506.41	421.30
506.58	451.72
506.76	386.19
506.93	367.46
507.11	402.57
507.28	451.72
507.46	435.34
507.63	451.72
507.81	386.19
507.98	390.87
508.16	400.23
508.33	395.55
508.50	461.09
508.68	423.64
508.85	470.45
509.03	425.98
509.20	414.27
509.38	411.93
509.55	468.11
509.73	393.21
509.90	425.98
510.08	379.17
510.25	393.21
510.42	367.46
510.60	390.87
510.77	447.04
510.95	423.64
511.12	376.83
511.30	402.57
511.47	425.98
511.64	409.59
511.82	353.42
511.99	360.44
512.17	395.55
512.34	404.91
512.51	362.78
512.69	423.64
512.86	437.68
513.04	407.25
513.21	400.23
513.38	416.62
513.56	418.96
513.73	491.51
513.90	365.12
514.08	437.68
514.25	435.34
514.43	395.55
514.60	407.25
514.77	468.11
514.95	360.44
515.12	418.96
515.29	465.77
515.47	397.89
515.64	346.40
515.81	463.43
515.99	437.68
516.16	376.83
516.33	503.22
516.51	437.68
516.68	428.32
516.85	381.51
517.03	404.91
517.20	449.38
517.37	421.30
517.54	428.32
517.72	421.30
517.89	379.17
518.06	381.51
518.24	442.36
518.41	409.59
518.58	442.36
518.75	414.27
518.93	404.91
519.10	404.91
519.27	435.34
519.45	437.68
519.62	430.66
519.79	433.00
519.96	348.74
520.14	362.78
520.31	430.66
520.48	402.57
520.65	456.40
520.83	397.89
521.00	416.62
521.17	470.45
521.34	428.32
521.52	376.83
521.69	411.93
521.86	442.36
522.03	381.51
522.20	423.64
522.38	433.00
522.55	435.34
522.72	397.89
522.89	449.38
523.07	498.53
523.24	479.81
523.41	414.27
523.58	416.62
523.75	397.89
523.92	423.64
524.10	367.46
524.27	395.55
524.44	435.34
524.61	463.43
524.78	297.25
524.96	465.77
525.13	402.57
525.30	416.62
525.47	416.62
525.64	430.66
525.81	388.53
525.98	388.53
526.16	430.66
526.33	430.66
526.50	407.25
526.67	437.68
526.84	344.06
527.01	388.53
527.18	414.27
527.36	444.70
527.53	355.76
527.70	433.00
527.87	430.66
528.04	496.19
528.21	430.66
528.38	379.17
528.55	414.27
528.72	407.25
528.89	435.34
529.07	388.53
529.24	404.91
529.41	482.15
529.58	442.36
529.75	437.68
529.92	388.53
530.09	428.32
530.26	477.47
530.43	388.53
530.60	390.87
530.77	440.02
530.94	482.15
531.11	456.40
531.28	390.87
531.46	416.62
531.63	360.44
531.80	393.21
531.97	397.89
532.14	449.38
532.31	437.68
532.48	425.98
532.65	374.49
532.82	404.91
532.99	430.66
533.16	390.87
533.33	479.81
533.50	409.59
533.67	402.57
533.84	433.00
534.01	465.77
534.18	444.70
534.35	447.04
534.52	388.53
534.69	435.34
534.86	442.36
535.03	418.96
535.20	365.12
535.37	423.64
535.54	416.62
535.71	395.55
535.88	430.66
536.05	358.10
536.22	402.57
536.38	425.98
536.55	421.30
536.72	468.11
536.89	409.59
537.06	379.17
537.23	416.62
537.40	437.68
537.57	348.74
537.74	535.98
537.91	407.25
538.08	447.04
538.25	425.98
538.42	423.64
538.59	418.96
538.75	449.38
538.92	369.80
539.09	451.72
539.26	444.70
539.43	430.66
539.60	440.02
539.77	425.98
539.94	423.64
540.11	372.15
540.28	489.17
540.44	496.19
540.61	433.00
540.78	395.55
540.95	416.62
541.12	404.91
541.29	381.51
541.46	461.09
541.62	386.19
541.79	381.51
541.96	440.02
542.13	388.53
542.30	369.80
542.47	463.43
542.63	423.64
542.80	454.06
542.97	395.55
543.14	379.17
543.31	383.85
543.48	442.36
543.64	404.91
543.81	411.93
543.98	355.76
544.15	418.96
544.32	367.46
544.48	386.19
544.65	409.59
544.82	306.61
544.99	425.98
545.16	444.70
545.32	423.64
545.49	442.36
545.66	346.40
545.83	409.59
546.00	390.87
546.16	430.66
546.33	444.70
546.50	407.25
546.67	451.72
546.83	386.19
547.00	423.64
547.17	425.98
547.34	456.40
547.50	381.51
547.67	404.91
547.84	386.19
548.00	379.17
548.17	435.34
548.34	372.15
548.51	409.59
548.67	402.57
548.84	367.46
549.01	386.19
549.18	491.51
549.34	435.34
549.51	440.02
549.68	430.66
549.84	402.57
550.01	407.25
550.18	517.26
550.34	428.32
550.51	414.27
550.68	409.59
550.84	383.85
551.01	409.59
551.18	404.91
551.34	386.19
551.51	353.42
551.68	372.15
551.84	465.77
552.01	400.23
552.18	435.34
552.34	400.23
552.51	414.27
552.68	449.38
552.84	411.93
553.01	465.77
553.18	407.25
553.34	451.72
553.51	402.57
553.67	367.46
553.84	418.96
554.01	414.27
554.17	447.04
554.34	423.64
554.51	433.00
554.67	390.87
554.84	407.25
555.00	463.43
555.17	383.85
555.33	447.04
555.50	447.04
555.67	468.11
555.83	484.49
556.00	435.34
556.16	564.07
556.33	411.93
556.50	444.70
556.66	425.98
556.83	479.81
556.99	395.55
557.16	475.13
557.32	449.38
557.49	442.36
557.65	383.85
557.82	351.08
557.98	334.70
558.15	454.06
558.32	472.79
558.48	418.96
558.65	423.64
558.81	416.62
558.98	428.32
559.14	437.68
559.31	402.57
559.47	362.78
559.64	428.32
559.80	468.11
559.97	390.87
560.13	454.06
560.30	341.72
560.46	430.66
560.63	381.51
560.79	458.74
560.96	351.08
561.12	365.12
561.29	477.47
561.45	393.21
561.61	376.83
561.78	447.04
561.94	397.89
562.11	395.55
562.27	400.23
562.44	451.72
562.60	425.98
562.77	437.68
562.93	477.47
563.10	433.00
563.26	437.68
563.42	451.72
563.59	416.62
563.75	423.64
563.92	540.66
564.08	402.57
564.24	428.32
564.41	440.02
564.57	395.55
564.74	374.49
564.90	411.93
565.07	484.49
565.23	386.19
565.39	409.59
565.56	449.38
565.72	489.17
565.88	463.43
566.05	386.19
566.21	400.23
566.38	423.64
566.54	421.30
566.70	388.53
566.87	430.66
567.03	423.64
567.19	374.49
567.36	400.23
567.52	397.89
567.68	383.85
567.85	421.30
568.01	400.23
568.17	407.25
568.34	374.49
568.50	447.04
568.66	440.02
568.83	482.15
568.99	407.25
569.15	449.38
569.32	447.04
569.48	449.38
569.64	383.85
569.81	404.91
569.97	365.12
570.13	433.00
570.30	484.49
570.46	442.36
570.62	407.25
570.78	393.21
570.95	444.70
571.11	456.40
571.27	442.36
571.43	454.06
571.60	428.32
571.76	458.74
571.92	416.62
572.09	428.32
572.25	334.70
572.41	379.17
572.57	458.74
572.74	390.87
572.90	418.96
573.06	430.66
573.22	447.04
573.38	393.21
573.55	486.83
573.71	451.72
573.87	425.98
574.03	411.93
574.20	430.66
574.36	433.00
574.52	421.30
574.68	433.00
574.84	433.00
575.01	468.11
575.17	353.42
575.33	369.80
575.49	383.85
575.65	489.17
575.82	479.81
575.98	416.62
576.14	416.62
576.30	435.34
576.46	353.42
576.62	358.10
576.79	421.30
576.95	390.87
577.11	402.57
577.27	447.04
577.43	402.57
577.59	465.77
577.75	433.00
577.92	442.36
578.08	458.74
578.24	379.17
578.40	440.02
578.56	449.38
578.72	397.89
578.88	402.57
579.04	402.57
579.21	337.04
579.37	418.96
579.53	423.64
579.69	418.96
579.85	456.40
580.01	411.93
580.17	379.17
580.33	454.06
580.49	397.89
580.65	442.36
580.82	454.06
580.98	402.57
581.14	360.44
581.30	484.49
581.46	348.74
581.62	430.66
581.78	465.77
581.94	383.85
582.10	400.23
582.26	451.72
582.42	402.57
582.58	489.17
582.74	400.23
582.90	416.62
583.06	388.53
583.22	379.17
583.38	383.85
583.54	318.31
583.70	484.49
583.86	360.44
584.02	418.96
584.18	456.40
584.34	421.30
584.50	379.17
584.66	430.66
584.82	404.91
584.98	425.98
585.14	465.77
585.30	416.62
585.46	414.27
585.62	421.30
585.78	397.89
585.94	416.62
586.10	496.19
586.26	418.96
586.42	470.45
586.58	414.27
586.74	484.49
586.90	435.34
587.06	456.40
587.22	421.30
587.38	393.21
587.54	383.85
587.70	393.21
587.86	355.76
588.02	414.27
588.18	411.93
588.34	372.15
588.49	358.10
588.65	444.70
588.81	400.23
588.97	454.06
589.13	425.98
589.29	381.51
589.45	433.00
589.61	411.93
589.77	465.77
589.93	374.49
590.08	376.83
590.24	470.45
590.40	402.57
590.56	491.51
590.72	414.27
590.88	402.57
591.04	456.40
591.20	451.72
591.35	440.02
591.51	418.96
591.67	390.87
591.83	440.02
591.99	433.00
592.15	400.23
592.31	404.91
592.46	383.85
592.62	383.85
592.78	365.12
592.94	444.70
593.10	458.74
593.26	430.66
593.41	395.55
593.57	409.59
593.73	339.38
593.89	456.40
594.05	503.22
594.20	421.30
594.36	428.32
594.52	383.85
594.68	390.87
594.84	421.30
594.99	456.40
595.15	381.51
595.31	376.83
595.47	409.59
595.62	437.68
595.78	437.68
595.94	388.53
596.10	440.02
596.25	489.17
596.41	477.47
596.57	400.23
596.73	374.49
596.88	372.15
597.04	411.93
597.20	381.51
597.36	411.93
597.51	421.30
597.67	409.59
597.83	418.96
597.99	402.57
598.14	433.00
598.30	402.57
598.46	472.79
598.61	395.55
598.77	468.11
598.93	407.25
599.09	423.64
599.24	421.30
599.40	440.02
599.56	493.85
599.71	407.25
599.87	355.76
600.03	484.49
600.18	407.25
600.34	320.65
600.50	395.55
600.65	386.19
600.81	444.70
600.97	404.91
601.12	442.36
601.28	393.21
601.44	397.89
601.59	376.83
601.75	397.89
601.91	379.17
602.06	423.64
602.22	414.27
602.37	449.38
602.53	404.91
602.69	437.68
602.84	463.43
603.00	428.32
603.16	402.57
603.31	447.04
603.47	409.59
603.62	397.89
603.78	383.85
603.94	463.43
604.09	423.64
604.25	414.27
604.40	402.57
604.56	421.30
604.71	414.27
604.87	411.93
605.03	311.29
605.18	463.43
605.34	458.74
605.49	362.78
605.65	353.42
605.80	395.55
605.96	388.53
606.12	402.57
606.27	447.04
606.43	444.70
606.58	458.74
606.74	376.83
606.89	383.85
607.05	425.98
607.20	449.38
607.36	444.70
607.51	449.38
607.67	404.91
607.82	416.62
607.98	461.09
608.13	400.23
608.29	421.30
608.44	510.24
608.60	374.49
608.75	390.87
608.91	327.68
609.06	458.74
609.22	407.25
609.37	430.66
609.53	430.66
609.68	367.46
609.84	425.98
609.99	383.85
610.15	437.68
