SpectraSuite Data File
++++++++++++++++++++++++++++++++++++
Date: Fri Oct 25 12:11:42 EDT 2013
User: price-jones
Dark Spectrum Present: No
Reference Spectrum Present: No
Number of Sampled Component Spectra: 1
Spectrometers: USB2+H05261
Integration Time (usec): 100000 (USB2+H05261)
Spectra Averaged: 1 (USB2+H05261)
Boxcar Smoothing: 0 (USB2+H05261)
Correct for Electrical Dark: No (USB2+H05261)
Strobe/Lamp Enabled: No (USB2+H05261)
Correct for Detector Non-linearity: No (USB2+H05261)
Correct for Stray Light: No (USB2+H05261)
Number of Pixels in Processed Spectrum: 2048
>>>>>Begin Processed Spectral Data<<<<<
365.73	341.72
365.92	341.72
366.12	341.72
366.32	222.35
366.52	266.82
366.72	250.44
366.91	220.01
367.11	243.42
367.31	236.39
367.51	166.18
367.70	255.12
367.90	299.59
368.10	264.48
368.30	257.46
368.49	189.58
368.69	245.76
368.89	262.14
369.09	255.12
369.28	257.46
369.48	276.18
369.68	337.04
369.87	297.25
370.07	262.14
370.27	337.04
370.47	327.68
370.66	346.40
370.86	379.17
371.06	367.46
371.25	442.36
371.45	339.38
371.65	430.66
371.84	376.83
372.04	339.38
372.24	369.80
372.44	390.87
372.63	353.42
372.83	397.89
373.03	425.98
373.22	374.49
373.42	428.32
373.62	407.25
373.81	430.66
374.01	416.62
374.21	397.89
374.40	395.55
374.60	472.79
374.79	418.96
374.99	379.17
375.19	409.59
375.38	414.27
375.58	418.96
375.78	409.59
375.97	482.15
376.17	456.40
376.37	477.47
376.56	449.38
376.76	369.80
376.95	404.91
377.15	449.38
377.35	440.02
377.54	442.36
377.74	395.55
377.93	425.98
378.13	362.78
378.33	447.04
378.52	418.96
378.72	470.45
378.91	423.64
379.11	411.93
379.31	414.27
379.50	353.42
379.70	442.36
379.89	374.49
380.09	411.93
380.28	346.40
380.48	388.53
380.68	442.36
380.87	411.93
381.07	393.21
381.26	372.15
381.46	414.27
381.65	440.02
381.85	437.68
382.04	433.00
382.24	440.02
382.43	395.55
382.63	334.70
382.83	388.53
383.02	416.62
383.22	433.00
383.41	407.25
383.61	458.74
383.80	344.06
384.00	411.93
384.19	390.87
384.39	444.70
384.58	386.19
384.78	360.44
384.97	442.36
385.17	351.08
385.36	400.23
385.56	376.83
385.75	407.25
385.95	386.19
386.14	386.19
386.34	369.80
386.53	409.59
386.72	404.91
386.92	423.64
387.11	362.78
387.31	461.09
387.50	423.64
387.70	395.55
387.89	393.21
388.09	440.02
388.28	379.17
388.48	409.59
388.67	437.68
388.86	372.15
389.06	376.83
389.25	402.57
389.45	339.38
389.64	442.36
389.84	472.79
390.03	404.91
390.22	421.30
390.42	484.49
390.61	360.44
390.81	400.23
391.00	395.55
391.19	435.34
391.39	388.53
391.58	433.00
391.78	425.98
391.97	404.91
392.16	386.19
392.36	433.00
392.55	397.89
392.75	409.59
392.94	493.85
393.13	456.40
393.33	358.10
393.52	358.10
393.71	411.93
393.91	374.49
394.10	362.78
394.29	381.51
394.49	367.46
394.68	353.42
394.88	517.26
395.07	465.77
395.26	428.32
395.46	407.25
395.65	381.51
395.84	400.23
396.04	486.83
396.23	416.62
396.42	388.53
396.62	397.89
396.81	404.91
397.00	397.89
397.19	337.04
397.39	407.25
397.58	393.21
397.77	447.04
397.97	381.51
398.16	451.72
398.35	428.32
398.55	433.00
398.74	393.21
398.93	407.25
399.12	425.98
399.32	388.53
399.51	355.76
399.70	365.12
399.90	393.21
400.09	367.46
400.28	407.25
400.47	402.57
400.67	418.96
400.86	322.99
401.05	416.62
401.24	409.59
401.44	416.62
401.63	365.12
401.82	444.70
402.01	341.72
402.21	388.53
402.40	393.21
402.59	449.38
402.78	386.19
402.97	337.04
403.17	423.64
403.36	395.55
403.55	353.42
403.74	442.36
403.93	421.30
404.13	444.70
404.32	407.25
404.51	416.62
404.70	407.25
404.89	440.02
405.09	505.56
405.28	409.59
405.47	416.62
405.66	414.27
405.85	421.30
406.05	395.55
406.24	360.44
406.43	369.80
406.62	447.04
406.81	423.64
407.00	372.15
407.20	334.70
407.39	358.10
407.58	404.91
407.77	444.70
407.96	404.91
408.15	493.85
408.34	397.89
408.54	397.89
408.73	435.34
408.92	423.64
409.11	414.27
409.30	433.00
409.49	411.93
409.68	425.98
409.87	414.27
410.07	458.74
410.26	339.38
410.45	374.49
410.64	381.51
410.83	418.96
411.02	390.87
411.21	451.72
411.40	393.21
411.59	351.08
411.78	444.70
411.98	416.62
412.17	393.21
412.36	435.34
412.55	395.55
412.74	433.00
412.93	360.44
413.12	386.19
413.31	486.83
413.50	390.87
413.69	381.51
413.88	449.38
414.07	369.80
414.26	423.64
414.45	421.30
414.64	383.85
414.83	409.59
415.02	447.04
415.22	414.27
415.41	374.49
415.60	400.23
415.79	383.85
415.98	416.62
416.17	447.04
416.36	461.09
416.55	400.23
416.74	418.96
416.93	458.74
417.12	437.68
417.31	360.44
417.50	430.66
417.69	458.74
417.88	442.36
418.07	381.51
418.26	444.70
418.45	404.91
418.64	491.51
418.83	409.59
419.02	451.72
419.21	482.15
419.39	440.02
419.58	395.55
419.77	442.36
419.96	421.30
420.15	425.98
420.34	449.38
420.53	458.74
420.72	407.25
420.91	428.32
421.10	437.68
421.29	383.85
421.48	402.57
421.67	447.04
421.86	430.66
422.05	402.57
422.24	393.21
422.43	416.62
422.61	423.64
422.80	435.34
422.99	383.85
423.18	458.74
423.37	414.27
423.56	362.78
423.75	468.11
423.94	372.15
424.13	454.06
424.32	332.36
424.50	388.53
424.69	393.21
424.88	402.57
425.07	414.27
425.26	433.00
425.45	440.02
425.64	423.64
425.83	423.64
426.01	416.62
426.20	479.81
426.39	470.45
426.58	458.74
426.77	365.12
426.96	397.89
427.15	430.66
427.33	404.91
427.52	449.38
427.71	402.57
427.90	454.06
428.09	416.62
428.28	449.38
428.46	383.85
428.65	404.91
428.84	404.91
429.03	383.85
429.22	393.21
429.40	400.23
429.59	346.40
429.78	379.17
429.97	372.15
430.16	395.55
430.34	395.55
430.53	395.55
430.72	400.23
430.91	416.62
431.10	440.02
431.28	447.04
431.47	456.40
431.66	430.66
431.85	411.93
432.03	461.09
432.22	449.38
432.41	369.80
432.60	447.04
432.79	433.00
432.97	440.02
433.16	358.10
433.35	409.59
433.54	442.36
433.72	428.32
433.91	440.02
434.10	393.21
434.28	395.55
434.47	351.08
434.66	437.68
434.85	358.10
435.03	458.74
435.22	463.43
435.41	482.15
435.59	493.85
435.78	425.98
435.97	421.30
436.16	407.25
436.34	395.55
436.53	465.77
436.72	414.27
436.90	400.23
437.09	475.13
437.28	435.34
437.46	440.02
437.65	404.91
437.84	390.87
438.02	379.17
438.21	404.91
438.40	458.74
438.58	322.99
438.77	416.62
438.96	400.23
439.14	397.89
439.33	339.38
439.52	411.93
439.70	463.43
439.89	433.00
440.08	395.55
440.26	435.34
440.45	470.45
440.63	393.21
440.82	348.74
441.01	418.96
441.19	447.04
441.38	383.85
441.57	454.06
441.75	449.38
441.94	421.30
442.12	433.00
442.31	458.74
442.50	468.11
442.68	407.25
442.87	451.72
443.05	442.36
443.24	414.27
443.43	383.85
443.61	414.27
443.80	397.89
443.98	390.87
444.17	355.76
444.35	397.89
444.54	358.10
444.73	407.25
444.91	414.27
445.10	437.68
445.28	327.68
445.47	442.36
445.65	407.25
445.84	397.89
446.02	416.62
446.21	440.02
446.39	388.53
446.58	358.10
446.77	365.12
446.95	381.51
447.14	418.96
447.32	423.64
447.51	404.91
447.69	402.57
447.88	435.34
448.06	414.27
448.25	437.68
448.43	344.06
448.62	428.32
448.80	449.38
448.99	451.72
449.17	421.30
449.36	425.98
449.54	395.55
449.73	381.51
449.91	437.68
450.10	411.93
450.28	512.58
450.46	449.38
450.65	402.57
450.83	404.91
451.02	514.92
451.20	334.70
451.39	411.93
451.57	418.96
451.76	430.66
451.94	440.02
452.13	433.00
452.31	421.30
452.49	306.61
452.68	425.98
452.86	440.02
453.05	416.62
453.23	411.93
453.42	433.00
453.60	440.02
453.78	423.64
453.97	404.91
454.15	400.23
454.34	435.34
454.52	428.32
454.70	451.72
454.89	444.70
455.07	346.40
455.26	407.25
455.44	407.25
455.62	407.25
455.81	433.00
455.99	416.62
456.17	407.25
456.36	451.72
456.54	402.57
456.73	404.91
456.91	355.76
457.09	454.06
457.28	430.66
457.46	402.57
457.64	374.49
457.83	468.11
458.01	414.27
458.19	411.93
458.38	381.51
458.56	444.70
458.74	365.12
458.93	444.70
459.11	416.62
459.29	397.89
459.48	468.11
459.66	505.56
459.84	437.68
460.03	454.06
460.21	416.62
460.39	388.53
460.57	461.09
460.76	477.47
460.94	383.85
461.12	423.64
461.31	512.58
461.49	393.21
461.67	404.91
461.85	468.11
462.04	372.15
462.22	767.70
462.40	468.11
462.59	372.15
462.77	416.62
462.95	414.27
463.13	425.98
463.32	465.77
463.50	411.93
463.68	397.89
463.86	299.59
464.05	465.77
464.23	470.45
464.41	379.17
464.59	449.38
464.78	376.83
464.96	433.00
465.14	430.66
465.32	440.02
465.50	397.89
465.69	430.66
465.87	348.74
466.05	435.34
466.23	404.91
466.41	395.55
466.60	425.98
466.78	381.51
466.96	390.87
467.14	468.11
467.32	397.89
467.51	369.80
467.69	491.51
467.87	388.53
468.05	440.02
468.23	433.00
468.41	442.36
468.60	465.77
468.78	365.12
468.96	411.93
469.14	402.57
469.32	435.34
469.50	402.57
469.69	416.62
469.87	433.00
470.05	407.25
470.23	437.68
470.41	435.34
470.59	461.09
470.77	435.34
470.95	407.25
471.14	475.13
471.32	409.59
471.50	423.64
471.68	404.91
471.86	390.87
472.04	428.32
472.22	407.25
472.40	397.89
472.58	409.59
472.77	395.55
472.95	374.49
473.13	486.83
473.31	465.77
473.49	383.85
473.67	351.08
473.85	400.23
474.03	451.72
474.21	444.70
474.39	425.98
474.57	456.40
474.75	407.25
474.93	456.40
475.12	402.57
475.30	435.34
475.48	470.45
475.66	451.72
475.84	470.45
476.02	468.11
476.20	367.46
476.38	451.72
476.56	472.79
476.74	308.95
476.92	407.25
477.10	416.62
477.28	440.02
477.46	435.34
477.64	437.68
477.82	395.55
478.00	475.13
478.18	393.21
478.36	360.44
478.54	433.00
478.72	374.49
478.90	435.34
479.08	423.64
479.26	416.62
479.44	447.04
479.62	337.04
479.80	362.78
479.98	393.21
480.16	428.32
480.34	463.43
480.52	411.93
480.70	374.49
480.88	421.30
481.06	435.34
481.24	418.96
481.41	355.76
481.59	294.91
481.77	472.79
481.95	404.91
482.13	442.36
482.31	369.80
482.49	411.93
482.67	463.43
482.85	433.00
483.03	346.40
483.21	477.47
483.39	435.34
483.57	402.57
483.74	376.83
483.92	407.25
484.10	454.06
484.28	486.83
484.46	421.30
484.64	468.11
484.82	425.98
485.00	416.62
485.18	411.93
485.35	437.68
485.53	402.57
485.71	425.98
485.89	435.34
486.07	383.85
486.25	493.85
486.43	358.10
486.61	463.43
486.78	444.70
486.96	472.79
487.14	369.80
487.32	433.00
487.50	423.64
487.68	428.32
487.85	451.72
488.03	358.10
488.21	496.19
488.39	433.00
488.57	416.62
488.75	456.40
488.92	503.22
489.10	421.30
489.28	411.93
489.46	386.19
489.64	400.23
489.81	437.68
489.99	409.59
490.17	423.64
490.35	484.49
490.53	493.85
490.70	435.34
490.88	447.04
491.06	414.27
491.24	400.23
491.41	433.00
491.59	395.55
491.77	423.64
491.95	372.15
492.13	479.81
492.30	437.68
492.48	395.55
492.66	433.00
492.84	372.15
493.01	461.09
493.19	409.59
493.37	475.13
493.54	346.40
493.72	400.23
493.90	365.12
494.08	390.87
494.25	463.43
494.43	444.70
494.61	407.25
494.79	444.70
494.96	440.02
495.14	411.93
495.32	458.74
495.49	402.57
495.67	484.49
495.85	400.23
496.02	400.23
496.20	484.49
496.38	505.56
496.55	381.51
496.73	433.00
496.91	390.87
497.09	404.91
497.26	451.72
497.44	454.06
497.62	430.66
497.79	416.62
497.97	386.19
498.14	479.81
498.32	358.10
498.50	479.81
498.67	411.93
498.85	437.68
499.03	404.91
499.20	416.62
499.38	458.74
499.56	374.49
499.73	463.43
499.91	435.34
500.08	402.57
500.26	482.15
500.44	433.00
500.61	435.34
500.79	416.62
500.97	435.34
501.14	444.70
501.32	472.79
501.49	402.57
501.67	454.06
501.84	500.87
502.02	463.43
502.20	374.49
502.37	498.53
502.55	404.91
502.72	433.00
502.90	437.68
503.07	400.23
503.25	470.45
503.43	418.96
503.60	411.93
503.78	444.70
503.95	325.33
504.13	395.55
504.30	477.47
504.48	484.49
504.65	454.06
504.83	437.68
505.01	400.23
505.18	344.06
505.36	351.08
505.53	416.62
505.71	442.36
505.88	470.45
506.06	400.23
506.23	397.89
506.41	390.87
506.58	435.34
506.76	393.21
506.93	367.46
507.11	393.21
507.28	503.22
507.46	393.21
507.63	395.55
507.81	425.98
507.98	381.51
508.16	379.17
508.33	393.21
508.50	397.89
508.68	374.49
508.85	416.62
509.03	397.89
509.20	297.25
509.38	435.34
509.55	414.27
509.73	421.30
509.90	390.87
510.08	454.06
510.25	440.02
510.42	400.23
510.60	397.89
510.77	440.02
510.95	468.11
511.12	404.91
511.30	421.30
511.47	510.24
511.64	468.11
511.82	397.89
511.99	386.19
512.17	423.64
512.34	353.42
512.51	430.66
512.69	416.62
512.86	470.45
513.04	383.85
513.21	500.87
513.38	442.36
513.56	346.40
513.73	409.59
513.90	330.02
514.08	416.62
514.25	362.78
514.43	449.38
514.60	463.43
514.77	444.70
514.95	404.91
515.12	407.25
515.29	425.98
515.47	397.89
515.64	444.70
515.81	402.57
515.99	423.64
516.16	374.49
516.33	430.66
516.51	428.32
516.68	421.30
516.85	409.59
517.03	465.77
517.20	447.04
517.37	435.34
517.54	407.25
517.72	411.93
517.89	440.02
518.06	393.21
518.24	404.91
518.41	428.32
518.58	407.25
518.75	428.32
518.93	458.74
519.10	430.66
519.27	400.23
519.45	386.19
519.62	461.09
519.79	407.25
519.96	393.21
520.14	421.30
520.31	428.32
520.48	416.62
520.65	402.57
520.83	376.83
521.00	374.49
521.17	376.83
521.34	416.62
521.52	491.51
521.69	425.98
521.86	423.64
522.03	444.70
522.20	503.22
522.38	376.83
522.55	418.96
522.72	447.04
522.89	449.38
523.07	381.51
523.24	496.19
523.41	379.17
523.58	414.27
523.75	430.66
523.92	437.68
524.10	416.62
524.27	442.36
524.44	341.72
524.61	407.25
524.78	360.44
524.96	447.04
525.13	475.13
525.30	409.59
525.47	393.21
525.64	423.64
525.81	407.25
525.98	440.02
526.16	409.59
526.33	479.81
526.50	376.83
526.67	388.53
526.84	416.62
527.01	416.62
527.18	461.09
527.36	388.53
527.53	458.74
527.70	416.62
527.87	388.53
528.04	447.04
528.21	397.89
528.38	475.13
528.55	418.96
528.72	411.93
528.89	409.59
529.07	449.38
529.24	421.30
529.41	489.17
529.58	475.13
529.75	402.57
529.92	390.87
530.09	379.17
530.26	421.30
530.43	465.77
530.60	468.11
530.77	372.15
530.94	454.06
531.11	489.17
531.28	428.32
531.46	362.78
531.63	437.68
531.80	397.89
531.97	444.70
532.14	423.64
532.31	440.02
532.48	428.32
532.65	407.25
532.82	423.64
532.99	327.68
533.16	362.78
533.33	521.94
533.50	402.57
533.67	379.17
533.84	435.34
534.01	400.23
534.18	407.25
534.35	390.87
534.52	397.89
534.69	416.62
534.86	358.10
535.03	400.23
535.20	423.64
535.37	475.13
535.54	353.42
535.71	447.04
535.88	463.43
536.05	409.59
536.22	411.93
536.38	411.93
536.55	491.51
536.72	465.77
536.89	400.23
537.06	376.83
537.23	360.44
537.40	400.23
537.57	461.09
537.74	486.83
537.91	433.00
538.08	414.27
538.25	472.79
538.42	472.79
538.59	442.36
538.75	407.25
538.92	411.93
539.09	440.02
539.26	404.91
539.43	425.98
539.60	411.93
539.77	397.89
539.94	454.06
540.11	442.36
540.28	411.93
540.44	430.66
540.61	493.85
540.78	421.30
540.95	482.15
541.12	458.74
541.29	468.11
541.46	421.30
541.62	395.55
541.79	404.91
541.96	388.53
542.13	393.21
542.30	444.70
542.47	400.23
542.63	397.89
542.80	458.74
542.97	393.21
543.14	365.12
543.31	402.57
543.48	383.85
543.64	421.30
543.81	393.21
543.98	381.51
544.15	393.21
544.32	379.17
544.48	428.32
544.65	407.25
544.82	402.57
544.99	444.70
545.16	386.19
545.32	390.87
545.49	442.36
545.66	463.43
545.83	409.59
546.00	454.06
546.16	416.62
546.33	411.93
546.50	402.57
546.67	479.81
546.83	484.49
547.00	428.32
547.17	444.70
547.34	463.43
547.50	416.62
547.67	461.09
547.84	411.93
548.00	468.11
548.17	423.64
548.34	402.57
548.51	435.34
548.67	409.59
548.84	475.13
549.01	423.64
549.18	400.23
549.34	416.62
549.51	430.66
549.68	383.85
549.84	390.87
550.01	477.47
550.18	461.09
550.34	461.09
550.51	463.43
550.68	461.09
550.84	376.83
551.01	428.32
551.18	409.59
551.34	416.62
551.51	435.34
551.68	444.70
551.84	383.85
552.01	372.15
552.18	454.06
552.34	449.38
552.51	493.85
552.68	423.64
552.84	386.19
553.01	409.59
553.18	386.19
553.34	456.40
553.51	360.44
553.67	421.30
553.84	365.12
554.01	416.62
554.17	454.06
554.34	433.00
554.51	423.64
554.67	437.68
554.84	423.64
555.00	449.38
555.17	449.38
555.33	435.34
555.50	437.68
555.67	360.44
555.83	365.12
556.00	430.66
556.16	496.19
556.33	414.27
556.50	374.49
556.66	315.97
556.83	393.21
556.99	423.64
557.16	416.62
557.32	411.93
557.49	402.57
557.65	437.68
557.82	365.12
557.98	463.43
558.15	444.70
558.32	390.87
558.48	409.59
558.65	416.62
558.81	337.04
558.98	418.96
559.14	400.23
559.31	416.62
559.47	449.38
559.64	395.55
559.80	374.49
559.97	409.59
560.13	449.38
560.30	381.51
560.46	437.68
560.63	386.19
560.79	414.27
560.96	416.62
561.12	451.72
561.29	428.32
561.45	433.00
561.61	428.32
561.78	461.09
561.94	390.87
562.11	411.93
562.27	381.51
562.44	409.59
562.60	491.51
562.77	395.55
562.93	493.85
563.10	379.17
563.26	402.57
563.42	491.51
563.59	444.70
563.75	388.53
563.92	477.47
564.08	425.98
564.24	451.72
564.41	454.06
564.57	360.44
564.74	400.23
564.90	444.70
565.07	351.08
565.23	482.15
565.39	414.27
565.56	461.09
565.72	395.55
565.88	449.38
566.05	461.09
566.21	390.87
566.38	489.17
566.54	498.53
566.70	447.04
566.87	477.47
567.03	369.80
567.19	393.21
567.36	334.70
567.52	465.77
567.68	475.13
567.85	407.25
568.01	440.02
568.17	351.08
568.34	428.32
568.50	355.76
568.66	414.27
568.83	510.24
568.99	442.36
569.15	437.68
569.32	423.64
569.48	360.44
569.64	402.57
569.81	430.66
569.97	386.19
570.13	475.13
570.30	369.80
570.46	367.46
570.62	433.00
570.78	421.30
570.95	393.21
571.11	470.45
571.27	477.47
571.43	458.74
571.60	482.15
571.76	435.34
571.92	416.62
572.09	395.55
572.25	372.15
572.41	369.80
572.57	498.53
572.74	430.66
572.90	416.62
573.06	393.21
573.22	383.85
573.38	458.74
573.55	451.72
573.71	489.17
573.87	435.34
574.03	393.21
574.20	409.59
574.36	440.02
574.52	465.77
574.68	421.30
574.84	402.57
575.01	421.30
575.17	409.59
575.33	454.06
575.49	437.68
575.65	447.04
575.82	442.36
575.98	418.96
576.14	451.72
576.30	442.36
576.46	505.56
576.62	400.23
576.79	414.27
576.95	533.64
577.11	372.15
577.27	351.08
577.43	463.43
577.59	489.17
577.75	463.43
577.92	360.44
578.08	430.66
578.24	477.47
578.40	442.36
578.56	437.68
578.72	442.36
578.88	433.00
579.04	409.59
579.21	372.15
579.37	449.38
579.53	430.66
579.69	388.53
579.85	362.78
580.01	444.70
580.17	458.74
580.33	390.87
580.49	449.38
580.65	456.40
580.82	409.59
580.98	414.27
581.14	374.49
581.30	437.68
581.46	379.17
581.62	428.32
581.78	411.93
581.94	463.43
582.10	360.44
582.26	411.93
582.42	442.36
582.58	374.49
582.74	402.57
582.90	456.40
583.06	411.93
583.22	374.49
583.38	362.78
583.54	390.87
583.70	369.80
583.86	430.66
584.02	463.43
584.18	407.25
584.34	449.38
584.50	402.57
584.66	407.25
584.82	458.74
584.98	358.10
585.14	299.59
585.30	351.08
585.46	458.74
585.62	454.06
585.78	447.04
585.94	425.98
586.10	365.12
586.26	423.64
586.42	491.51
586.58	388.53
586.74	411.93
586.90	402.57
587.06	409.59
587.22	423.64
587.38	465.77
587.54	458.74
587.70	447.04
587.86	442.36
588.02	435.34
588.18	404.91
588.34	484.49
588.49	447.04
588.65	442.36
588.81	463.43
588.97	402.57
589.13	388.53
589.29	416.62
589.45	423.64
589.61	486.83
589.77	456.40
589.93	407.25
590.08	482.15
590.24	428.32
590.40	395.55
590.56	388.53
590.72	461.09
590.88	388.53
591.04	407.25
591.20	402.57
591.35	351.08
591.51	409.59
591.67	409.59
591.83	404.91
591.99	416.62
592.15	383.85
592.31	397.89
592.46	346.40
592.62	390.87
592.78	386.19
592.94	404.91
593.10	402.57
593.26	404.91
593.41	404.91
593.57	416.62
593.73	395.55
593.89	468.11
594.05	355.76
594.20	372.15
594.36	425.98
594.52	423.64
594.68	360.44
594.84	463.43
594.99	355.76
595.15	416.62
595.31	430.66
595.47	440.02
595.62	411.93
595.78	374.49
595.94	477.47
596.10	421.30
596.25	386.19
596.41	461.09
596.57	367.46
596.73	425.98
596.88	440.02
597.04	454.06
597.20	461.09
597.36	414.27
597.51	428.32
597.67	369.80
597.83	414.27
597.99	425.98
598.14	428.32
598.30	433.00
598.46	430.66
598.61	437.68
598.77	416.62
598.93	400.23
599.09	442.36
599.24	407.25
599.40	470.45
599.56	430.66
599.71	355.76
599.87	411.93
600.03	383.85
600.18	334.70
600.34	365.12
600.50	362.78
600.65	353.42
600.81	430.66
600.97	463.43
601.12	416.62
601.28	451.72
601.44	397.89
601.59	414.27
601.75	451.72
601.91	372.15
602.06	454.06
602.22	498.53
602.37	451.72
602.53	390.87
602.69	428.32
602.84	425.98
603.00	458.74
603.16	484.49
603.31	409.59
603.47	423.64
603.62	395.55
603.78	393.21
603.94	407.25
604.09	421.30
604.25	400.23
604.40	376.83
604.56	496.19
604.71	402.57
604.87	414.27
605.03	397.89
605.18	463.43
605.34	437.68
605.49	449.38
605.65	465.77
605.80	362.78
605.96	437.68
606.12	461.09
606.27	447.04
606.43	411.93
606.58	440.02
606.74	386.19
606.89	416.62
607.05	458.74
607.20	409.59
607.36	479.81
607.51	444.70
607.67	379.17
607.82	369.80
607.98	458.74
608.13	397.89
608.29	421.30
608.44	517.26
608.60	435.34
608.75	435.34
608.91	388.53
609.06	355.76
609.22	454.06
609.37	365.12
609.53	416.62
609.68	416.62
609.84	407.25
609.99	407.25
610.15	374.49
