SpectraSuite Data File
++++++++++++++++++++++++++++++++++++
Date: Fri Oct 25 12:11:21 EDT 2013
User: price-jones
Dark Spectrum Present: No
Reference Spectrum Present: No
Number of Sampled Component Spectra: 1
Spectrometers: USB2+H05261
Integration Time (usec): 100000 (USB2+H05261)
Spectra Averaged: 1 (USB2+H05261)
Boxcar Smoothing: 0 (USB2+H05261)
Correct for Electrical Dark: No (USB2+H05261)
Strobe/Lamp Enabled: No (USB2+H05261)
Correct for Detector Non-linearity: No (USB2+H05261)
Correct for Stray Light: No (USB2+H05261)
Number of Pixels in Processed Spectrum: 2048
>>>>>Begin Processed Spectral Data<<<<<
365.73	351.08
365.92	351.08
366.12	351.08
366.32	325.33
366.52	166.18
366.72	315.97
366.91	166.18
367.11	147.45
367.31	266.82
367.51	220.01
367.70	222.35
367.90	330.02
368.10	231.71
368.30	215.33
368.49	203.63
368.69	264.48
368.89	299.59
369.09	273.84
369.28	252.78
369.48	220.01
369.68	273.84
369.87	266.82
370.07	255.12
370.27	344.06
370.47	320.65
370.66	271.50
370.86	306.61
371.06	360.44
371.25	470.45
371.45	346.40
371.65	358.10
371.84	386.19
372.04	374.49
372.24	388.53
372.44	418.96
372.63	365.12
372.83	449.38
373.03	440.02
373.22	388.53
373.42	339.38
373.62	411.93
373.81	526.62
374.01	442.36
374.21	411.93
374.40	393.21
374.60	496.19
374.79	414.27
374.99	388.53
375.19	418.96
375.38	383.85
375.58	313.63
375.78	397.89
375.97	454.06
376.17	444.70
376.37	416.62
376.56	470.45
376.76	416.62
376.95	423.64
377.15	465.77
377.35	376.83
377.54	374.49
377.74	381.51
377.93	425.98
378.13	433.00
378.33	400.23
378.52	433.00
378.72	425.98
378.91	411.93
379.11	374.49
379.31	358.10
379.50	358.10
379.70	433.00
379.89	402.57
380.09	320.65
380.28	425.98
380.48	367.46
380.68	404.91
380.87	440.02
381.07	456.40
381.26	425.98
381.46	395.55
381.65	386.19
381.85	395.55
382.04	388.53
382.24	421.30
382.43	477.47
382.63	456.40
382.83	306.61
383.02	482.15
383.22	402.57
383.41	402.57
383.61	386.19
383.80	465.77
384.00	383.85
384.19	404.91
384.39	397.89
384.58	353.42
384.78	449.38
384.97	437.68
385.17	390.87
385.36	372.15
385.56	421.30
385.75	402.57
385.95	386.19
386.14	425.98
386.34	414.27
386.53	472.79
386.72	393.21
386.92	414.27
387.11	372.15
387.31	334.70
387.50	388.53
387.70	390.87
387.89	404.91
388.09	421.30
388.28	435.34
388.48	404.91
388.67	517.26
388.86	510.24
389.06	341.72
389.25	414.27
389.45	435.34
389.64	433.00
389.84	409.59
390.03	416.62
390.22	433.00
390.42	428.32
390.61	416.62
390.81	358.10
391.00	402.57
391.19	489.17
391.39	395.55
391.58	430.66
391.78	425.98
391.97	433.00
392.16	444.70
392.36	435.34
392.55	437.68
392.75	458.74
392.94	402.57
393.13	386.19
393.33	463.43
393.52	425.98
393.71	447.04
393.91	421.30
394.10	381.51
394.29	407.25
394.49	395.55
394.68	418.96
394.88	463.43
395.07	440.02
395.26	437.68
395.46	444.70
395.65	397.89
395.84	414.27
396.04	442.36
396.23	358.10
396.42	341.72
396.62	423.64
396.81	414.27
397.00	400.23
397.19	379.17
397.39	444.70
397.58	358.10
397.77	397.89
397.97	404.91
398.16	409.59
398.35	454.06
398.55	435.34
398.74	376.83
398.93	358.10
399.12	381.51
399.32	397.89
399.51	449.38
399.70	411.93
399.90	362.78
400.09	358.10
400.28	468.11
400.47	437.68
400.67	381.51
400.86	454.06
401.05	421.30
401.24	376.83
401.44	411.93
401.63	447.04
401.82	407.25
402.01	449.38
402.21	440.02
402.40	369.80
402.59	372.15
402.78	383.85
402.97	444.70
403.17	351.08
403.36	411.93
403.55	386.19
403.74	365.12
403.93	367.46
404.13	341.72
404.32	301.93
404.51	433.00
404.70	421.30
404.89	353.42
405.09	407.25
405.28	407.25
405.47	369.80
405.66	433.00
405.85	477.47
406.05	393.21
406.24	372.15
406.43	409.59
406.62	386.19
406.81	463.43
407.00	400.23
407.20	409.59
407.39	393.21
407.58	339.38
407.77	344.06
407.96	376.83
408.15	379.17
408.34	442.36
408.54	400.23
408.73	402.57
408.92	449.38
409.11	404.91
409.30	379.17
409.49	372.15
409.68	435.34
409.87	367.46
410.07	358.10
410.26	374.49
410.45	407.25
410.64	369.80
410.83	458.74
411.02	468.11
411.21	449.38
411.40	348.74
411.59	468.11
411.78	402.57
411.98	428.32
412.17	433.00
412.36	414.27
412.55	440.02
412.74	472.79
412.93	397.89
413.12	360.44
413.31	404.91
413.50	442.36
413.69	416.62
413.88	404.91
414.07	435.34
414.26	442.36
414.45	402.57
414.64	390.87
414.83	390.87
415.02	365.12
415.22	458.74
415.41	454.06
415.60	451.72
415.79	407.25
415.98	461.09
416.17	416.62
416.36	470.45
416.55	386.19
416.74	430.66
416.93	409.59
417.12	435.34
417.31	393.21
417.50	437.68
417.69	437.68
417.88	397.89
418.07	418.96
418.26	407.25
418.45	372.15
418.64	414.27
418.83	388.53
419.02	414.27
419.21	477.47
419.39	409.59
419.58	414.27
419.77	379.17
419.96	428.32
420.15	407.25
420.34	383.85
420.53	416.62
420.72	458.74
420.91	465.77
421.10	395.55
421.29	383.85
421.48	379.17
421.67	463.43
421.86	444.70
422.05	414.27
422.24	425.98
422.43	346.40
422.61	322.99
422.80	358.10
422.99	411.93
423.18	411.93
423.37	418.96
423.56	393.21
423.75	437.68
423.94	416.62
424.13	433.00
424.32	444.70
424.50	440.02
424.69	379.17
424.88	479.81
425.07	454.06
425.26	414.27
425.45	444.70
425.64	365.12
425.83	414.27
426.01	414.27
426.20	379.17
426.39	386.19
426.58	355.76
426.77	411.93
426.96	374.49
427.15	465.77
427.33	437.68
427.52	437.68
427.71	463.43
427.90	381.51
428.09	346.40
428.28	358.10
428.46	393.21
428.65	360.44
428.84	444.70
429.03	411.93
429.22	411.93
429.40	367.46
429.59	414.27
429.78	390.87
429.97	468.11
430.16	381.51
430.34	442.36
430.53	442.36
430.72	358.10
430.91	402.57
431.10	437.68
431.28	454.06
431.47	468.11
431.66	358.10
431.85	416.62
432.03	428.32
432.22	430.66
432.41	430.66
432.60	442.36
432.79	379.17
432.97	456.40
433.16	358.10
433.35	444.70
433.54	411.93
433.72	416.62
433.91	362.78
434.10	386.19
434.28	388.53
434.47	458.74
434.66	400.23
434.85	353.42
435.03	475.13
435.22	416.62
435.41	479.81
435.59	437.68
435.78	414.27
435.97	489.17
436.16	447.04
436.34	404.91
436.53	477.47
436.72	404.91
436.90	411.93
437.09	425.98
437.28	421.30
437.46	411.93
437.65	376.83
437.84	397.89
438.02	390.87
438.21	433.00
438.40	376.83
438.58	454.06
438.77	388.53
438.96	360.44
439.14	365.12
439.33	451.72
439.52	393.21
439.70	421.30
439.89	423.64
440.08	416.62
440.26	451.72
440.45	395.55
440.63	435.34
440.82	423.64
441.01	433.00
441.19	397.89
441.38	411.93
441.57	346.40
441.75	402.57
441.94	435.34
442.12	388.53
442.31	374.49
442.50	341.72
442.68	404.91
442.87	362.78
443.05	421.30
443.24	442.36
443.43	454.06
443.61	400.23
443.80	451.72
443.98	353.42
444.17	369.80
444.35	433.00
444.54	425.98
444.73	386.19
444.91	482.15
445.10	411.93
445.28	409.59
445.47	407.25
445.65	393.21
445.84	353.42
446.02	379.17
446.21	339.38
446.39	444.70
446.58	428.32
446.77	411.93
446.95	383.85
447.14	430.66
447.32	414.27
447.51	395.55
447.69	339.38
447.88	409.59
448.06	486.83
448.25	437.68
448.43	376.83
448.62	299.59
448.80	400.23
448.99	451.72
449.17	435.34
449.36	425.98
449.54	482.15
449.73	369.80
449.91	463.43
450.10	418.96
450.28	402.57
450.46	411.93
450.65	507.90
450.83	372.15
451.02	407.25
451.20	440.02
451.39	365.12
451.57	409.59
451.76	444.70
451.94	379.17
452.13	425.98
452.31	440.02
452.49	449.38
452.68	365.12
452.86	421.30
453.05	337.04
453.23	409.59
453.42	381.51
453.60	395.55
453.78	334.70
453.97	451.72
454.15	414.27
454.34	454.06
454.52	435.34
454.70	425.98
454.89	402.57
455.07	486.83
455.26	372.15
455.44	437.68
455.62	369.80
455.81	428.32
455.99	397.89
456.17	383.85
456.36	461.09
456.54	423.64
456.73	344.06
456.91	395.55
457.09	400.23
457.28	444.70
457.46	435.34
457.64	442.36
457.83	381.51
458.01	428.32
458.19	367.46
458.38	416.62
458.56	430.66
458.74	465.77
458.93	447.04
459.11	456.40
459.29	395.55
459.48	325.33
459.66	468.11
459.84	477.47
460.03	484.49
460.21	407.25
460.39	344.06
460.57	458.74
460.76	383.85
460.94	484.49
461.12	376.83
461.31	449.38
461.49	388.53
461.67	407.25
461.85	465.77
462.04	367.46
462.22	805.14
462.40	500.87
462.59	418.96
462.77	318.31
462.95	402.57
463.13	454.06
463.32	395.55
463.50	374.49
463.68	451.72
463.86	461.09
464.05	411.93
464.23	458.74
464.41	449.38
464.59	404.91
464.78	374.49
464.96	334.70
465.14	514.92
465.32	437.68
465.50	414.27
465.69	416.62
465.87	388.53
466.05	444.70
466.23	428.32
466.41	425.98
466.60	383.85
466.78	447.04
466.96	447.04
467.14	339.38
467.32	397.89
467.51	367.46
467.69	400.23
467.87	397.89
468.05	362.78
468.23	451.72
468.41	425.98
468.60	393.21
468.78	423.64
468.96	407.25
469.14	468.11
469.32	442.36
469.50	388.53
469.69	435.34
469.87	416.62
470.05	468.11
470.23	421.30
470.41	381.51
470.59	407.25
470.77	383.85
470.95	433.00
471.14	489.17
471.32	397.89
471.50	411.93
471.68	353.42
471.86	390.87
472.04	458.74
472.22	393.21
472.40	393.21
472.58	421.30
472.77	339.38
472.95	423.64
473.13	479.81
473.31	472.79
473.49	348.74
473.67	428.32
473.85	444.70
474.03	367.46
474.21	400.23
474.39	376.83
474.57	461.09
474.75	458.74
474.93	397.89
475.12	411.93
475.30	397.89
475.48	388.53
475.66	440.02
475.84	374.49
476.02	388.53
476.20	381.51
476.38	433.00
476.56	489.17
476.74	440.02
476.92	463.43
477.10	437.68
477.28	433.00
477.46	397.89
477.64	393.21
477.82	461.09
478.00	381.51
478.18	362.78
478.36	376.83
478.54	437.68
478.72	435.34
478.90	458.74
479.08	397.89
479.26	425.98
479.44	437.68
479.62	379.17
479.80	397.89
479.98	433.00
480.16	322.99
480.34	468.11
480.52	311.29
480.70	428.32
480.88	369.80
481.06	386.19
481.24	376.83
481.41	510.24
481.59	470.45
481.77	442.36
481.95	468.11
482.13	468.11
482.31	507.90
482.49	421.30
482.67	437.68
482.85	320.65
483.03	437.68
483.21	383.85
483.39	402.57
483.57	421.30
483.74	418.96
483.92	304.27
484.10	437.68
484.28	442.36
484.46	489.17
484.64	479.81
484.82	388.53
485.00	404.91
485.18	435.34
485.35	400.23
485.53	454.06
485.71	430.66
485.89	395.55
486.07	393.21
486.25	430.66
486.43	423.64
486.61	409.59
486.78	470.45
486.96	404.91
487.14	437.68
487.32	383.85
487.50	351.08
487.68	379.17
487.85	330.02
488.03	393.21
488.21	414.27
488.39	362.78
488.57	437.68
488.75	407.25
488.92	475.13
489.10	348.74
489.28	409.59
489.46	428.32
489.64	397.89
489.81	339.38
489.99	379.17
490.17	444.70
490.35	514.92
490.53	423.64
490.70	461.09
490.88	376.83
491.06	374.49
491.24	390.87
491.41	360.44
491.59	390.87
491.77	330.02
491.95	416.62
492.13	484.49
492.30	454.06
492.48	418.96
492.66	379.17
492.84	442.36
493.01	395.55
493.19	376.83
493.37	451.72
493.54	470.45
493.72	477.47
493.90	444.70
494.08	425.98
494.25	435.34
494.43	435.34
494.61	353.42
494.79	372.15
494.96	395.55
495.14	416.62
495.32	306.61
495.49	379.17
495.67	348.74
495.85	379.17
496.02	337.04
496.20	423.64
496.38	383.85
496.55	341.72
496.73	444.70
496.91	437.68
497.09	402.57
497.26	463.43
497.44	376.83
497.62	409.59
497.79	409.59
497.97	440.02
498.14	393.21
498.32	376.83
498.50	440.02
498.67	390.87
498.85	425.98
499.03	393.21
499.20	416.62
499.38	428.32
499.56	425.98
499.73	407.25
499.91	411.93
500.08	397.89
500.26	404.91
500.44	367.46
500.61	430.66
500.79	395.55
500.97	465.77
501.14	372.15
501.32	402.57
501.49	381.51
501.67	486.83
501.84	470.45
502.02	416.62
502.20	468.11
502.37	418.96
502.55	397.89
502.72	360.44
502.90	407.25
503.07	393.21
503.25	383.85
503.43	416.62
503.60	465.77
503.78	433.00
503.95	468.11
504.13	400.23
504.30	456.40
504.48	409.59
504.65	433.00
504.83	465.77
505.01	360.44
505.18	451.72
505.36	433.00
505.53	381.51
505.71	348.74
505.88	386.19
506.06	390.87
506.23	477.47
506.41	465.77
506.58	376.83
506.76	421.30
506.93	435.34
507.11	421.30
507.28	416.62
507.46	374.49
507.63	423.64
507.81	367.46
507.98	425.98
508.16	397.89
508.33	348.74
508.50	344.06
508.68	440.02
508.85	409.59
509.03	390.87
509.20	390.87
509.38	468.11
509.55	486.83
509.73	430.66
509.90	465.77
510.08	322.99
510.25	461.09
510.42	435.34
510.60	486.83
510.77	454.06
510.95	425.98
511.12	381.51
511.30	397.89
511.47	451.72
511.64	409.59
511.82	348.74
511.99	442.36
512.17	376.83
512.34	388.53
512.51	435.34
512.69	376.83
512.86	393.21
513.04	395.55
513.21	482.15
513.38	444.70
513.56	423.64
513.73	400.23
513.90	500.87
514.08	435.34
514.25	367.46
514.43	416.62
514.60	423.64
514.77	358.10
514.95	444.70
515.12	369.80
515.29	433.00
515.47	440.02
515.64	367.46
515.81	414.27
515.99	362.78
516.16	425.98
516.33	437.68
516.51	360.44
516.68	458.74
516.85	407.25
517.03	468.11
517.20	461.09
517.37	421.30
517.54	395.55
517.72	409.59
517.89	376.83
518.06	362.78
518.24	421.30
518.41	475.13
518.58	491.51
518.75	311.29
518.93	339.38
519.10	372.15
519.27	416.62
519.45	451.72
519.62	451.72
519.79	447.04
519.96	374.49
520.14	425.98
520.31	428.32
520.48	496.19
520.65	374.49
520.83	472.79
521.00	369.80
521.17	430.66
521.34	390.87
521.52	503.22
521.69	390.87
521.86	383.85
522.03	388.53
522.20	468.11
522.38	493.85
522.55	334.70
522.72	407.25
522.89	409.59
523.07	458.74
523.24	423.64
523.41	409.59
523.58	362.78
523.75	395.55
523.92	388.53
524.10	372.15
524.27	479.81
524.44	404.91
524.61	416.62
524.78	458.74
524.96	442.36
525.13	440.02
525.30	418.96
525.47	395.55
525.64	402.57
525.81	456.40
525.98	435.34
526.16	390.87
526.33	465.77
526.50	428.32
526.67	444.70
526.84	458.74
527.01	397.89
527.18	388.53
527.36	393.21
527.53	433.00
527.70	379.17
527.87	386.19
528.04	451.72
528.21	337.04
528.38	414.27
528.55	451.72
528.72	456.40
528.89	437.68
529.07	428.32
529.24	393.21
529.41	397.89
529.58	454.06
529.75	395.55
529.92	348.74
530.09	418.96
530.26	334.70
530.43	423.64
530.60	463.43
530.77	458.74
530.94	414.27
531.11	486.83
531.28	444.70
531.46	416.62
531.63	402.57
531.80	463.43
531.97	397.89
532.14	411.93
532.31	444.70
532.48	360.44
532.65	416.62
532.82	423.64
532.99	409.59
533.16	411.93
533.33	500.87
533.50	411.93
533.67	381.51
533.84	421.30
534.01	435.34
534.18	393.21
534.35	449.38
534.52	390.87
534.69	496.19
534.86	376.83
535.03	386.19
535.20	397.89
535.37	411.93
535.54	390.87
535.71	388.53
535.88	383.85
536.05	388.53
536.22	402.57
536.38	388.53
536.55	472.79
536.72	461.09
536.89	388.53
537.06	418.96
537.23	383.85
537.40	390.87
537.57	465.77
537.74	393.21
537.91	465.77
538.08	456.40
538.25	400.23
538.42	421.30
538.59	395.55
538.75	421.30
538.92	383.85
539.09	440.02
539.26	397.89
539.43	500.87
539.60	442.36
539.77	447.04
539.94	414.27
540.11	351.08
540.28	416.62
540.44	440.02
540.61	358.10
540.78	444.70
540.95	402.57
541.12	468.11
541.29	433.00
541.46	409.59
541.62	435.34
541.79	435.34
541.96	381.51
542.13	411.93
542.30	388.53
542.47	470.45
542.63	486.83
542.80	400.23
542.97	383.85
543.14	332.36
543.31	425.98
543.48	437.68
543.64	381.51
543.81	355.76
543.98	489.17
544.15	374.49
544.32	416.62
544.48	400.23
544.65	409.59
544.82	404.91
544.99	421.30
545.16	433.00
545.32	451.72
545.49	430.66
545.66	365.12
545.83	521.94
546.00	510.24
546.16	437.68
546.33	440.02
546.50	470.45
546.67	449.38
546.83	470.45
547.00	369.80
547.17	339.38
547.34	463.43
547.50	423.64
547.67	440.02
547.84	372.15
548.00	458.74
548.17	430.66
548.34	379.17
548.51	430.66
548.67	433.00
548.84	411.93
549.01	407.25
549.18	437.68
549.34	416.62
549.51	484.49
549.68	425.98
549.84	428.32
550.01	379.17
550.18	472.79
550.34	428.32
550.51	444.70
550.68	435.34
550.84	421.30
551.01	423.64
551.18	402.57
551.34	374.49
551.51	409.59
551.68	437.68
551.84	433.00
552.01	395.55
552.18	388.53
552.34	416.62
552.51	411.93
552.68	442.36
552.84	423.64
553.01	461.09
553.18	489.17
553.34	313.63
553.51	418.96
553.67	418.96
553.84	428.32
554.01	400.23
554.17	381.51
554.34	416.62
554.51	407.25
554.67	463.43
554.84	400.23
555.00	442.36
555.17	442.36
555.33	458.74
555.50	425.98
555.67	475.13
555.83	503.22
556.00	402.57
556.16	566.41
556.33	458.74
556.50	468.11
556.66	423.64
556.83	437.68
556.99	409.59
557.16	437.68
557.32	400.23
557.49	365.12
557.65	334.70
557.82	376.83
557.98	411.93
558.15	486.83
558.32	381.51
558.48	374.49
558.65	390.87
558.81	472.79
558.98	409.59
559.14	447.04
559.31	421.30
559.47	451.72
559.64	400.23
559.80	414.27
559.97	416.62
560.13	411.93
560.30	463.43
560.46	444.70
560.63	418.96
560.79	425.98
560.96	465.77
561.12	444.70
561.29	444.70
561.45	416.62
561.61	437.68
561.78	484.49
561.94	442.36
562.11	430.66
562.27	381.51
562.44	351.08
562.60	433.00
562.77	411.93
562.93	479.81
563.10	404.91
563.26	402.57
563.42	456.40
563.59	500.87
563.75	425.98
563.92	407.25
564.08	372.15
564.24	463.43
564.41	496.19
564.57	416.62
564.74	477.47
564.90	447.04
565.07	386.19
565.23	337.04
565.39	458.74
565.56	423.64
565.72	449.38
565.88	454.06
566.05	477.47
566.21	409.59
566.38	456.40
566.54	351.08
566.70	437.68
566.87	444.70
567.03	404.91
567.19	337.04
567.36	444.70
567.52	395.55
567.68	414.27
567.85	395.55
568.01	482.15
568.17	414.27
568.34	425.98
568.50	379.17
568.66	348.74
568.83	421.30
568.99	430.66
569.15	411.93
569.32	418.96
569.48	470.45
569.64	425.98
569.81	367.46
569.97	372.15
570.13	493.85
570.30	353.42
570.46	395.55
570.62	433.00
570.78	400.23
570.95	416.62
571.11	435.34
571.27	510.24
571.43	374.49
571.60	407.25
571.76	404.91
571.92	475.13
572.09	402.57
572.25	440.02
572.41	409.59
572.57	437.68
572.74	449.38
572.90	449.38
573.06	535.98
573.22	451.72
573.38	395.55
573.55	440.02
573.71	456.40
573.87	475.13
574.03	433.00
574.20	416.62
574.36	472.79
574.52	360.44
574.68	479.81
574.84	435.34
575.01	379.17
575.17	477.47
575.33	374.49
575.49	423.64
575.65	484.49
575.82	472.79
575.98	491.51
576.14	400.23
576.30	402.57
576.46	369.80
576.62	386.19
576.79	400.23
576.95	425.98
577.11	437.68
577.27	395.55
577.43	346.40
577.59	454.06
577.75	463.43
577.92	400.23
578.08	376.83
578.24	475.13
578.40	491.51
578.56	444.70
578.72	503.22
578.88	428.32
579.04	425.98
579.21	409.59
579.37	409.59
579.53	416.62
579.69	449.38
579.85	388.53
580.01	339.38
580.17	421.30
580.33	418.96
580.49	414.27
580.65	390.87
580.82	397.89
580.98	388.53
581.14	404.91
581.30	507.90
581.46	369.80
581.62	475.13
581.78	386.19
581.94	383.85
582.10	362.78
582.26	444.70
582.42	411.93
582.58	390.87
582.74	411.93
582.90	390.87
583.06	381.51
583.22	496.19
583.38	442.36
583.54	416.62
583.70	428.32
583.86	402.57
584.02	397.89
584.18	465.77
584.34	437.68
584.50	423.64
584.66	393.21
584.82	397.89
584.98	435.34
585.14	451.72
585.30	414.27
585.46	367.46
585.62	341.72
585.78	414.27
585.94	393.21
586.10	442.36
586.26	442.36
586.42	423.64
586.58	418.96
586.74	463.43
586.90	395.55
587.06	465.77
587.22	397.89
587.38	433.00
587.54	402.57
587.70	376.83
587.86	421.30
588.02	425.98
588.18	461.09
588.34	358.10
588.49	430.66
588.65	393.21
588.81	437.68
588.97	374.49
589.13	475.13
589.29	463.43
589.45	449.38
589.61	383.85
589.77	484.49
589.93	458.74
590.08	386.19
590.24	442.36
590.40	402.57
590.56	444.70
590.72	397.89
590.88	428.32
591.04	447.04
591.20	449.38
591.35	416.62
591.51	360.44
591.67	386.19
591.83	449.38
591.99	454.06
592.15	428.32
592.31	402.57
592.46	456.40
592.62	430.66
592.78	444.70
592.94	423.64
593.10	388.53
593.26	330.02
593.41	393.21
593.57	402.57
593.73	388.53
593.89	397.89
594.05	449.38
594.20	425.98
594.36	425.98
594.52	425.98
594.68	416.62
594.84	388.53
594.99	437.68
595.15	444.70
595.31	404.91
595.47	374.49
595.62	418.96
595.78	334.70
595.94	430.66
596.10	428.32
596.25	411.93
596.41	421.30
596.57	411.93
596.73	435.34
596.88	500.87
597.04	454.06
597.20	440.02
597.36	433.00
597.51	365.12
597.67	454.06
597.83	447.04
597.99	454.06
598.14	374.49
598.30	456.40
598.46	397.89
598.61	451.72
598.77	470.45
598.93	463.43
599.09	486.83
599.24	447.04
599.40	477.47
599.56	414.27
599.71	447.04
599.87	416.62
600.03	444.70
600.18	386.19
600.34	407.25
600.50	386.19
600.65	447.04
600.81	454.06
600.97	383.85
601.12	402.57
601.28	442.36
601.44	503.22
601.59	414.27
601.75	458.74
601.91	411.93
602.06	496.19
602.22	472.79
602.37	381.51
602.53	372.15
602.69	437.68
602.84	376.83
603.00	358.10
603.16	456.40
603.31	416.62
603.47	428.32
603.62	388.53
603.78	444.70
603.94	428.32
604.09	456.40
604.25	433.00
604.40	416.62
604.56	383.85
604.71	437.68
604.87	411.93
605.03	374.49
605.18	428.32
605.34	449.38
605.49	388.53
605.65	379.17
605.80	383.85
605.96	358.10
606.12	463.43
606.27	388.53
606.43	428.32
606.58	425.98
606.74	395.55
606.89	423.64
607.05	388.53
607.20	472.79
607.36	381.51
607.51	414.27
607.67	365.12
607.82	444.70
607.98	461.09
608.13	456.40
608.29	404.91
608.44	517.26
608.60	440.02
608.75	454.06
608.91	423.64
609.06	416.62
609.22	451.72
609.37	414.27
609.53	425.98
609.68	454.06
609.84	404.91
609.99	411.93
610.15	411.93
