SpectraSuite Data File
++++++++++++++++++++++++++++++++++++
Date: Fri Oct 25 12:10:14 EDT 2013
User: price-jones
Dark Spectrum Present: No
Reference Spectrum Present: No
Number of Sampled Component Spectra: 1
Spectrometers: USB2+H05261
Integration Time (usec): 100000 (USB2+H05261)
Spectra Averaged: 1 (USB2+H05261)
Boxcar Smoothing: 0 (USB2+H05261)
Correct for Electrical Dark: No (USB2+H05261)
Strobe/Lamp Enabled: No (USB2+H05261)
Correct for Detector Non-linearity: No (USB2+H05261)
Correct for Stray Light: No (USB2+H05261)
Number of Pixels in Processed Spectrum: 2048
>>>>>Begin Processed Spectral Data<<<<<
365.73	304.27
365.92	304.27
366.12	304.27
366.32	212.99
366.52	196.60
366.72	227.03
366.91	210.65
367.11	255.12
367.31	327.68
367.51	217.67
367.70	217.67
367.90	210.65
368.10	283.20
368.30	264.48
368.49	236.39
368.69	290.23
368.89	234.05
369.09	276.18
369.28	297.25
369.48	301.93
369.68	208.31
369.87	297.25
370.07	320.65
370.27	285.55
370.47	381.51
370.66	308.95
370.86	311.29
371.06	397.89
371.25	374.49
371.45	355.76
371.65	465.77
371.84	353.42
372.04	311.29
372.24	374.49
372.44	411.93
372.63	418.96
372.83	440.02
373.03	381.51
373.22	437.68
373.42	465.77
373.62	470.45
373.81	421.30
374.01	435.34
374.21	423.64
374.40	407.25
374.60	362.78
374.79	416.62
374.99	416.62
375.19	390.87
375.38	433.00
375.58	430.66
375.78	409.59
375.97	491.51
376.17	442.36
376.37	409.59
376.56	442.36
376.76	414.27
376.95	423.64
377.15	386.19
377.35	472.79
377.54	442.36
377.74	393.21
377.93	393.21
378.13	393.21
378.33	379.17
378.52	402.57
378.72	421.30
378.91	418.96
379.11	425.98
379.31	365.12
379.50	362.78
379.70	498.53
379.89	402.57
380.09	365.12
380.28	337.04
380.48	470.45
380.68	444.70
380.87	393.21
381.07	372.15
381.26	402.57
381.46	404.91
381.65	355.76
381.85	477.47
382.04	365.12
382.24	442.36
382.43	369.80
382.63	416.62
382.83	393.21
383.02	430.66
383.22	386.19
383.41	418.96
383.61	449.38
383.80	440.02
384.00	381.51
384.19	397.89
384.39	404.91
384.58	381.51
384.78	386.19
384.97	411.93
385.17	433.00
385.36	397.89
385.56	339.38
385.75	320.65
385.95	416.62
386.14	388.53
386.34	381.51
386.53	414.27
386.72	404.91
386.92	430.66
387.11	407.25
387.31	425.98
387.50	421.30
387.70	416.62
387.89	409.59
388.09	493.85
388.28	362.78
388.48	430.66
388.67	475.13
388.86	433.00
389.06	381.51
389.25	451.72
389.45	402.57
389.64	491.51
389.84	409.59
390.03	428.32
390.22	362.78
390.42	402.57
390.61	393.21
390.81	381.51
391.00	395.55
391.19	484.49
391.39	409.59
391.58	409.59
391.78	390.87
391.97	440.02
392.16	404.91
392.36	367.46
392.55	407.25
392.75	461.09
392.94	433.00
393.13	386.19
393.33	451.72
393.52	369.80
393.71	393.21
393.91	367.46
394.10	437.68
394.29	440.02
394.49	397.89
394.68	409.59
394.88	428.32
395.07	390.87
395.26	404.91
395.46	397.89
395.65	484.49
395.84	322.99
396.04	367.46
396.23	388.53
396.42	330.02
396.62	458.74
396.81	358.10
397.00	351.08
397.19	311.29
397.39	358.10
397.58	390.87
397.77	449.38
397.97	425.98
398.16	442.36
398.35	458.74
398.55	416.62
398.74	411.93
398.93	428.32
399.12	428.32
399.32	409.59
399.51	430.66
399.70	416.62
399.90	355.76
400.09	444.70
400.28	449.38
400.47	400.23
400.67	468.11
400.86	355.76
401.05	299.59
401.24	451.72
401.44	407.25
401.63	416.62
401.82	367.46
402.01	404.91
402.21	381.51
402.40	376.83
402.59	400.23
402.78	404.91
402.97	374.49
403.17	365.12
403.36	435.34
403.55	397.89
403.74	334.70
403.93	482.15
404.13	337.04
404.32	425.98
404.51	339.38
404.70	393.21
404.89	395.55
405.09	381.51
405.28	418.96
405.47	400.23
405.66	379.17
405.85	430.66
406.05	411.93
406.24	430.66
406.43	358.10
406.62	514.92
406.81	468.11
407.00	379.17
407.20	428.32
407.39	418.96
407.58	393.21
407.77	414.27
407.96	472.79
408.15	381.51
408.34	435.34
408.54	409.59
408.73	416.62
408.92	435.34
409.11	379.17
409.30	407.25
409.49	330.02
409.68	465.77
409.87	365.12
410.07	418.96
410.26	491.51
410.45	374.49
410.64	458.74
410.83	482.15
411.02	388.53
411.21	418.96
411.40	418.96
411.59	393.21
411.78	437.68
411.98	416.62
412.17	379.17
412.36	344.06
412.55	428.32
412.74	470.45
412.93	404.91
413.12	358.10
413.31	414.27
413.50	454.06
413.69	365.12
413.88	454.06
414.07	339.38
414.26	428.32
414.45	449.38
414.64	418.96
414.83	388.53
415.02	365.12
415.22	397.89
415.41	475.13
415.60	332.36
415.79	407.25
415.98	463.43
416.17	365.12
416.36	360.44
416.55	383.85
416.74	362.78
416.93	407.25
417.12	416.62
417.31	376.83
417.50	404.91
417.69	435.34
417.88	440.02
418.07	400.23
418.26	362.78
418.45	367.46
418.64	397.89
418.83	337.04
419.02	414.27
419.21	465.77
419.39	381.51
419.58	442.36
419.77	379.17
419.96	409.59
420.15	454.06
420.34	362.78
420.53	369.80
420.72	416.62
420.91	447.04
421.10	468.11
421.29	435.34
421.48	416.62
421.67	430.66
421.86	360.44
422.05	383.85
422.24	393.21
422.43	447.04
422.61	421.30
422.80	400.23
422.99	381.51
423.18	372.15
423.37	411.93
423.56	348.74
423.75	367.46
423.94	390.87
424.13	397.89
424.32	416.62
424.50	400.23
424.69	381.51
424.88	435.34
425.07	423.64
425.26	369.80
425.45	390.87
425.64	397.89
425.83	442.36
426.01	435.34
426.20	360.44
426.39	388.53
426.58	400.23
426.77	414.27
426.96	437.68
427.15	411.93
427.33	365.12
427.52	430.66
427.71	381.51
427.90	414.27
428.09	376.83
428.28	435.34
428.46	428.32
428.65	411.93
428.84	454.06
429.03	430.66
429.22	346.40
429.40	414.27
429.59	372.15
429.78	407.25
429.97	468.11
430.16	414.27
430.34	383.85
430.53	421.30
430.72	388.53
430.91	414.27
431.10	397.89
431.28	369.80
431.47	428.32
431.66	421.30
431.85	355.76
432.03	430.66
432.22	475.13
432.41	435.34
432.60	451.72
432.79	416.62
432.97	395.55
433.16	430.66
433.35	318.31
433.54	456.40
433.72	407.25
433.91	465.77
434.10	423.64
434.28	461.09
434.47	444.70
434.66	374.49
434.85	444.70
435.03	362.78
435.22	444.70
435.41	472.79
435.59	358.10
435.78	465.77
435.97	393.21
436.16	397.89
436.34	404.91
436.53	430.66
436.72	428.32
436.90	421.30
437.09	449.38
437.28	425.98
437.46	381.51
437.65	381.51
437.84	435.34
438.02	372.15
438.21	388.53
438.40	447.04
438.58	397.89
438.77	311.29
438.96	386.19
439.14	409.59
439.33	461.09
439.52	407.25
439.70	393.21
439.89	433.00
440.08	407.25
440.26	367.46
440.45	400.23
440.63	428.32
440.82	437.68
441.01	411.93
441.19	407.25
441.38	486.83
441.57	407.25
441.75	388.53
441.94	416.62
442.12	386.19
442.31	428.32
442.50	414.27
442.68	397.89
442.87	440.02
443.05	388.53
443.24	360.44
443.43	444.70
443.61	404.91
443.80	409.59
443.98	449.38
444.17	393.21
444.35	425.98
444.54	334.70
444.73	313.63
444.91	458.74
445.10	376.83
445.28	395.55
445.47	411.93
445.65	468.11
445.84	423.64
446.02	423.64
446.21	447.04
446.39	411.93
446.58	402.57
446.77	353.42
446.95	444.70
447.14	388.53
447.32	456.40
447.51	411.93
447.69	369.80
447.88	444.70
448.06	402.57
448.25	425.98
448.43	400.23
448.62	362.78
448.80	444.70
448.99	454.06
449.17	456.40
449.36	386.19
449.54	454.06
449.73	458.74
449.91	358.10
450.10	491.51
450.28	430.66
450.46	447.04
450.65	397.89
450.83	379.17
451.02	425.98
451.20	451.72
451.39	379.17
451.57	390.87
451.76	372.15
451.94	479.81
452.13	395.55
452.31	461.09
452.49	442.36
452.68	456.40
452.86	374.49
453.05	451.72
453.23	330.02
453.42	372.15
453.60	411.93
453.78	320.65
453.97	461.09
454.15	362.78
454.34	433.00
454.52	369.80
454.70	456.40
454.89	381.51
455.07	470.45
455.26	376.83
455.44	418.96
455.62	376.83
455.81	437.68
455.99	444.70
456.17	393.21
456.36	407.25
456.54	416.62
456.73	411.93
456.91	388.53
457.09	442.36
457.28	414.27
457.46	484.49
457.64	411.93
457.83	397.89
458.01	461.09
458.19	440.02
458.38	397.89
458.56	386.19
458.74	383.85
458.93	404.91
459.11	376.83
459.29	433.00
459.48	416.62
459.66	386.19
459.84	421.30
460.03	484.49
460.21	440.02
460.39	430.66
460.57	458.74
460.76	430.66
460.94	414.27
461.12	440.02
461.31	390.87
461.49	365.12
461.67	411.93
461.85	409.59
462.04	435.34
462.22	765.36
462.40	442.36
462.59	402.57
462.77	409.59
462.95	390.87
463.13	334.70
463.32	407.25
463.50	393.21
463.68	388.53
463.86	430.66
464.05	388.53
464.23	423.64
464.41	444.70
464.59	451.72
464.78	404.91
464.96	374.49
465.14	484.49
465.32	430.66
465.50	435.34
465.69	372.15
465.87	369.80
466.05	423.64
466.23	341.72
466.41	390.87
466.60	379.17
466.78	374.49
466.96	435.34
467.14	440.02
467.32	440.02
467.51	430.66
467.69	423.64
467.87	442.36
468.05	437.68
468.23	486.83
468.41	374.49
468.60	397.89
468.78	423.64
468.96	475.13
469.14	440.02
469.32	372.15
469.50	409.59
469.69	393.21
469.87	334.70
470.05	339.38
470.23	437.68
470.41	379.17
470.59	330.02
470.77	402.57
470.95	390.87
471.14	447.04
471.32	421.30
471.50	498.53
471.68	421.30
471.86	442.36
472.04	421.30
472.22	414.27
472.40	355.76
472.58	428.32
472.77	414.27
472.95	407.25
473.13	475.13
473.31	353.42
473.49	404.91
473.67	362.78
473.85	383.85
474.03	421.30
474.21	440.02
474.39	491.51
474.57	418.96
474.75	400.23
474.93	388.53
475.12	430.66
475.30	365.12
475.48	482.15
475.66	472.79
475.84	442.36
476.02	414.27
476.20	470.45
476.38	386.19
476.56	421.30
476.74	416.62
476.92	402.57
477.10	430.66
477.28	402.57
477.46	433.00
477.64	402.57
477.82	444.70
478.00	388.53
478.18	433.00
478.36	477.47
478.54	440.02
478.72	390.87
478.90	388.53
479.08	433.00
479.26	425.98
479.44	423.64
479.62	315.97
479.80	355.76
479.98	416.62
480.16	414.27
480.34	540.66
480.52	400.23
480.70	442.36
480.88	428.32
481.06	454.06
481.24	334.70
481.41	421.30
481.59	430.66
481.77	351.08
481.95	372.15
482.13	383.85
482.31	437.68
482.49	388.53
482.67	411.93
482.85	418.96
483.03	475.13
483.21	433.00
483.39	428.32
483.57	423.64
483.74	404.91
483.92	428.32
484.10	461.09
484.28	437.68
484.46	531.30
484.64	346.40
484.82	383.85
485.00	365.12
485.18	372.15
485.35	440.02
485.53	381.51
485.71	449.38
485.89	421.30
486.07	475.13
486.25	444.70
486.43	477.47
486.61	407.25
486.78	395.55
486.96	418.96
487.14	341.72
487.32	435.34
487.50	414.27
487.68	425.98
487.85	411.93
488.03	386.19
488.21	407.25
488.39	414.27
488.57	428.32
488.75	409.59
488.92	498.53
489.10	360.44
489.28	451.72
489.46	414.27
489.64	351.08
489.81	346.40
489.99	423.64
490.17	351.08
490.35	458.74
490.53	423.64
490.70	376.83
490.88	468.11
491.06	388.53
491.24	423.64
491.41	407.25
491.59	409.59
491.77	411.93
491.95	379.17
492.13	425.98
492.30	416.62
492.48	397.89
492.66	430.66
492.84	376.83
493.01	397.89
493.19	379.17
493.37	514.92
493.54	395.55
493.72	461.09
493.90	418.96
494.08	367.46
494.25	411.93
494.43	402.57
494.61	351.08
494.79	428.32
494.96	374.49
495.14	421.30
495.32	355.76
495.49	468.11
495.67	421.30
495.85	437.68
496.02	395.55
496.20	442.36
496.38	465.77
496.55	440.02
496.73	440.02
496.91	428.32
497.09	458.74
497.26	409.59
497.44	440.02
497.62	383.85
497.79	402.57
497.97	472.79
498.14	402.57
498.32	372.15
498.50	437.68
498.67	425.98
498.85	461.09
499.03	430.66
499.20	440.02
499.38	418.96
499.56	435.34
499.73	489.17
499.91	489.17
500.08	411.93
500.26	416.62
500.44	447.04
500.61	425.98
500.79	425.98
500.97	440.02
501.14	493.85
501.32	372.15
501.49	510.24
501.67	402.57
501.84	402.57
502.02	360.44
502.20	367.46
502.37	402.57
502.55	393.21
502.72	437.68
502.90	411.93
503.07	390.87
503.25	442.36
503.43	409.59
503.60	346.40
503.78	409.59
503.95	327.68
504.13	388.53
504.30	433.00
504.48	402.57
504.65	418.96
504.83	353.42
505.01	386.19
505.18	468.11
505.36	379.17
505.53	428.32
505.71	465.77
505.88	477.47
506.06	440.02
506.23	402.57
506.41	386.19
506.58	451.72
506.76	374.49
506.93	425.98
507.11	421.30
507.28	330.02
507.46	386.19
507.63	458.74
507.81	393.21
507.98	440.02
508.16	447.04
508.33	365.12
508.50	409.59
508.68	435.34
508.85	346.40
509.03	393.21
509.20	437.68
509.38	381.51
509.55	440.02
509.73	454.06
509.90	418.96
510.08	425.98
510.25	433.00
510.42	393.21
510.60	365.12
510.77	404.91
510.95	503.22
511.12	482.15
511.30	428.32
511.47	407.25
511.64	451.72
511.82	395.55
511.99	428.32
512.17	409.59
512.34	383.85
512.51	421.30
512.69	376.83
512.86	440.02
513.04	433.00
513.21	390.87
513.38	367.46
513.56	388.53
513.73	414.27
513.90	348.74
514.08	376.83
514.25	407.25
514.43	381.51
514.60	465.77
514.77	369.80
514.95	290.23
515.12	362.78
515.29	397.89
515.47	353.42
515.64	397.89
515.81	447.04
515.99	444.70
516.16	470.45
516.33	454.06
516.51	407.25
516.68	369.80
516.85	416.62
517.03	402.57
517.20	418.96
517.37	451.72
517.54	423.64
517.72	402.57
517.89	418.96
518.06	475.13
518.24	411.93
518.41	440.02
518.58	428.32
518.75	355.76
518.93	409.59
519.10	442.36
519.27	348.74
519.45	433.00
519.62	430.66
519.79	498.53
519.96	414.27
520.14	440.02
520.31	355.76
520.48	390.87
520.65	435.34
520.83	475.13
521.00	425.98
521.17	440.02
521.34	430.66
521.52	437.68
521.69	400.23
521.86	418.96
522.03	416.62
522.20	440.02
522.38	386.19
522.55	470.45
522.72	360.44
522.89	421.30
523.07	458.74
523.24	437.68
523.41	369.80
523.58	388.53
523.75	400.23
523.92	407.25
524.10	418.96
524.27	341.72
524.44	341.72
524.61	461.09
524.78	404.91
524.96	458.74
525.13	397.89
525.30	425.98
525.47	526.62
525.64	447.04
525.81	418.96
525.98	346.40
526.16	383.85
526.33	479.81
526.50	423.64
526.67	395.55
526.84	444.70
527.01	442.36
527.18	353.42
527.36	322.99
527.53	411.93
527.70	390.87
527.87	421.30
528.04	411.93
528.21	409.59
528.38	423.64
528.55	472.79
528.72	461.09
528.89	479.81
529.07	440.02
529.24	393.21
529.41	437.68
529.58	404.91
529.75	355.76
529.92	344.06
530.09	344.06
530.26	411.93
530.43	433.00
530.60	489.17
530.77	355.76
530.94	423.64
531.11	365.12
531.28	348.74
531.46	390.87
531.63	409.59
531.80	395.55
531.97	463.43
532.14	449.38
532.31	397.89
532.48	386.19
532.65	437.68
532.82	400.23
532.99	435.34
533.16	442.36
533.33	411.93
533.50	423.64
533.67	423.64
533.84	435.34
534.01	496.19
534.18	400.23
534.35	423.64
534.52	407.25
534.69	386.19
534.86	430.66
535.03	407.25
535.20	358.10
535.37	489.17
535.54	418.96
535.71	360.44
535.88	449.38
536.05	456.40
536.22	409.59
536.38	409.59
536.55	393.21
536.72	395.55
536.89	404.91
537.06	447.04
537.23	348.74
537.40	374.49
537.57	425.98
537.74	514.92
537.91	454.06
538.08	418.96
538.25	379.17
538.42	395.55
538.59	416.62
538.75	404.91
538.92	416.62
539.09	447.04
539.26	367.46
539.43	433.00
539.60	390.87
539.77	442.36
539.94	444.70
540.11	468.11
540.28	440.02
540.44	456.40
540.61	454.06
540.78	388.53
540.95	423.64
541.12	477.47
541.29	400.23
541.46	374.49
541.62	486.83
541.79	414.27
541.96	348.74
542.13	388.53
542.30	386.19
542.47	388.53
542.63	386.19
542.80	428.32
542.97	421.30
543.14	444.70
543.31	435.34
543.48	454.06
543.64	433.00
543.81	407.25
543.98	449.38
544.15	393.21
544.32	465.77
544.48	458.74
544.65	397.89
544.82	386.19
544.99	388.53
545.16	376.83
545.32	451.72
545.49	428.32
545.66	517.26
545.83	362.78
546.00	425.98
546.16	456.40
546.33	402.57
546.50	393.21
546.67	444.70
546.83	423.64
547.00	397.89
547.17	372.15
547.34	402.57
547.50	482.15
547.67	383.85
547.84	418.96
548.00	393.21
548.17	416.62
548.34	400.23
548.51	416.62
548.67	386.19
548.84	430.66
549.01	447.04
549.18	372.15
549.34	418.96
549.51	400.23
549.68	395.55
549.84	400.23
550.01	381.51
550.18	407.25
550.34	477.47
550.51	425.98
550.68	393.21
550.84	337.04
551.01	388.53
551.18	505.56
551.34	381.51
551.51	418.96
551.68	402.57
551.84	418.96
552.01	411.93
552.18	433.00
552.34	456.40
552.51	390.87
552.68	440.02
552.84	390.87
553.01	381.51
553.18	365.12
553.34	367.46
553.51	425.98
553.67	430.66
553.84	461.09
554.01	395.55
554.17	451.72
554.34	407.25
554.51	383.85
554.67	454.06
554.84	416.62
555.00	470.45
555.17	367.46
555.33	395.55
555.50	402.57
555.67	416.62
555.83	404.91
556.00	433.00
556.16	475.13
556.33	465.77
556.50	428.32
556.66	437.68
556.83	358.10
556.99	428.32
557.16	451.72
557.32	447.04
557.49	437.68
557.65	404.91
557.82	402.57
557.98	386.19
558.15	376.83
558.32	393.21
558.48	318.31
558.65	437.68
558.81	440.02
558.98	395.55
559.14	442.36
559.31	409.59
559.47	395.55
559.64	428.32
559.80	397.89
559.97	365.12
560.13	447.04
560.30	500.87
560.46	447.04
560.63	386.19
560.79	395.55
560.96	421.30
561.12	416.62
561.29	411.93
561.45	346.40
561.61	372.15
561.78	479.81
561.94	395.55
562.11	358.10
562.27	440.02
562.44	414.27
562.60	440.02
562.77	444.70
562.93	451.72
563.10	503.22
563.26	374.49
563.42	491.51
563.59	461.09
563.75	404.91
563.92	442.36
564.08	414.27
564.24	407.25
564.41	440.02
564.57	442.36
564.74	325.33
564.90	400.23
565.07	383.85
565.23	407.25
565.39	418.96
565.56	402.57
565.72	381.51
565.88	395.55
566.05	381.51
566.21	374.49
566.38	393.21
566.54	468.11
566.70	451.72
566.87	416.62
567.03	421.30
567.19	423.64
567.36	472.79
567.52	388.53
567.68	440.02
567.85	470.45
568.01	437.68
568.17	416.62
568.34	477.47
568.50	465.77
568.66	367.46
568.83	545.34
568.99	433.00
569.15	461.09
569.32	376.83
569.48	411.93
569.64	374.49
569.81	404.91
569.97	386.19
570.13	435.34
570.30	440.02
570.46	468.11
570.62	393.21
570.78	397.89
570.95	397.89
571.11	484.49
571.27	461.09
571.43	416.62
571.60	423.64
571.76	393.21
571.92	402.57
572.09	463.43
572.25	402.57
572.41	430.66
572.57	449.38
572.74	486.83
572.90	458.74
573.06	423.64
573.22	407.25
573.38	423.64
573.55	376.83
573.71	472.79
573.87	491.51
574.03	379.17
574.20	390.87
574.36	447.04
574.52	456.40
574.68	402.57
574.84	390.87
575.01	388.53
575.17	491.51
575.33	433.00
575.49	444.70
575.65	418.96
575.82	458.74
575.98	461.09
576.14	351.08
576.30	440.02
576.46	386.19
576.62	425.98
576.79	395.55
576.95	479.81
577.11	449.38
577.27	468.11
577.43	437.68
577.59	416.62
577.75	484.49
577.92	477.47
578.08	433.00
578.24	407.25
578.40	472.79
578.56	449.38
578.72	423.64
578.88	465.77
579.04	390.87
579.21	517.26
579.37	491.51
579.53	416.62
579.69	449.38
579.85	496.19
580.01	512.58
580.17	416.62
580.33	423.64
580.49	409.59
580.65	435.34
580.82	402.57
580.98	397.89
581.14	451.72
581.30	470.45
581.46	404.91
581.62	425.98
581.78	407.25
581.94	435.34
582.10	411.93
582.26	425.98
582.42	440.02
582.58	437.68
582.74	451.72
582.90	372.15
583.06	458.74
583.22	339.38
583.38	353.42
583.54	381.51
583.70	437.68
583.86	418.96
584.02	416.62
584.18	479.81
584.34	414.27
584.50	404.91
584.66	369.80
584.82	472.79
584.98	414.27
585.14	428.32
585.30	425.98
585.46	468.11
585.62	440.02
585.78	383.85
585.94	416.62
586.10	369.80
586.26	374.49
586.42	477.47
586.58	393.21
586.74	454.06
586.90	386.19
587.06	360.44
587.22	369.80
587.38	414.27
587.54	425.98
587.70	437.68
587.86	454.06
588.02	458.74
588.18	390.87
588.34	465.77
588.49	472.79
588.65	472.79
588.81	381.51
588.97	381.51
589.13	425.98
589.29	463.43
589.45	386.19
589.61	428.32
589.77	433.00
589.93	430.66
590.08	418.96
590.24	435.34
590.40	404.91
590.56	463.43
590.72	400.23
590.88	442.36
591.04	416.62
591.20	430.66
591.35	402.57
591.51	386.19
591.67	472.79
591.83	425.98
591.99	468.11
592.15	393.21
592.31	465.77
592.46	407.25
592.62	433.00
592.78	496.19
592.94	449.38
593.10	461.09
593.26	414.27
593.41	386.19
593.57	334.70
593.73	397.89
593.89	386.19
594.05	449.38
594.20	409.59
594.36	360.44
594.52	418.96
594.68	353.42
594.84	458.74
594.99	500.87
595.15	465.77
595.31	456.40
595.47	425.98
595.62	369.80
595.78	374.49
595.94	411.93
596.10	442.36
596.25	425.98
596.41	437.68
596.57	454.06
596.73	442.36
596.88	393.21
597.04	475.13
597.20	381.51
597.36	479.81
597.51	386.19
597.67	372.15
597.83	402.57
597.99	374.49
598.14	437.68
598.30	395.55
598.46	414.27
598.61	428.32
598.77	430.66
598.93	339.38
599.09	358.10
599.24	472.79
599.40	510.24
599.56	423.64
599.71	348.74
599.87	451.72
600.03	414.27
600.18	430.66
600.34	402.57
600.50	484.49
600.65	365.12
600.81	437.68
600.97	374.49
601.12	411.93
601.28	472.79
601.44	463.43
601.59	411.93
601.75	407.25
601.91	386.19
602.06	498.53
602.22	447.04
602.37	407.25
602.53	442.36
602.69	447.04
602.84	414.27
603.00	348.74
603.16	437.68
603.31	428.32
603.47	468.11
603.62	372.15
603.78	444.70
603.94	491.51
604.09	397.89
604.25	346.40
604.40	498.53
604.56	411.93
604.71	414.27
604.87	425.98
605.03	393.21
605.18	500.87
605.34	496.19
605.49	449.38
605.65	374.49
605.80	437.68
605.96	433.00
606.12	404.91
606.27	442.36
606.43	435.34
606.58	472.79
606.74	379.17
606.89	374.49
607.05	444.70
607.20	498.53
607.36	447.04
607.51	367.46
607.67	444.70
607.82	409.59
607.98	468.11
608.13	454.06
608.29	512.58
608.44	449.38
608.60	379.17
608.75	386.19
608.91	418.96
609.06	526.62
609.22	395.55
609.37	479.81
609.53	402.57
609.68	341.72
609.84	428.32
609.99	461.09
610.15	440.02
