SpectraSuite Data File
++++++++++++++++++++++++++++++++++++
Date: Fri Oct 25 12:10:29 EDT 2013
User: price-jones
Dark Spectrum Present: No
Reference Spectrum Present: No
Number of Sampled Component Spectra: 1
Spectrometers: USB2+H05261
Integration Time (usec): 100000 (USB2+H05261)
Spectra Averaged: 1 (USB2+H05261)
Boxcar Smoothing: 0 (USB2+H05261)
Correct for Electrical Dark: No (USB2+H05261)
Strobe/Lamp Enabled: No (USB2+H05261)
Correct for Detector Non-linearity: No (USB2+H05261)
Correct for Stray Light: No (USB2+H05261)
Number of Pixels in Processed Spectrum: 2048
>>>>>Begin Processed Spectral Data<<<<<
365.73	318.31
365.92	318.31
366.12	318.31
366.32	255.12
366.52	201.29
366.72	297.25
366.91	234.05
367.11	231.71
367.31	189.58
367.51	203.63
367.70	234.05
367.90	306.61
368.10	241.08
368.30	201.29
368.49	210.65
368.69	187.24
368.89	255.12
369.09	224.69
369.28	339.38
369.48	271.50
369.68	287.89
369.87	337.04
370.07	283.20
370.27	294.91
370.47	332.36
370.66	341.72
370.86	299.59
371.06	374.49
371.25	379.17
371.45	339.38
371.65	421.30
371.84	339.38
372.04	400.23
372.24	404.91
372.44	444.70
372.63	372.15
372.83	463.43
373.03	395.55
373.22	421.30
373.42	390.87
373.62	463.43
373.81	414.27
374.01	400.23
374.21	423.64
374.40	421.30
374.60	435.34
374.79	456.40
374.99	433.00
375.19	353.42
375.38	463.43
375.58	423.64
375.78	418.96
375.97	395.55
376.17	447.04
376.37	409.59
376.56	463.43
376.76	449.38
376.95	442.36
377.15	414.27
377.35	393.21
377.54	400.23
377.74	372.15
377.93	334.70
378.13	351.08
378.33	400.23
378.52	442.36
378.72	386.19
378.91	390.87
379.11	344.06
379.31	379.17
379.50	271.50
379.70	454.06
379.89	400.23
380.09	376.83
380.28	395.55
380.48	440.02
380.68	433.00
380.87	390.87
381.07	404.91
381.26	425.98
381.46	386.19
381.65	425.98
381.85	374.49
382.04	365.12
382.24	447.04
382.43	376.83
382.63	444.70
382.83	409.59
383.02	325.33
383.22	451.72
383.41	400.23
383.61	379.17
383.80	447.04
384.00	397.89
384.19	449.38
384.39	334.70
384.58	374.49
384.78	468.11
384.97	486.83
385.17	463.43
385.36	475.13
385.56	465.77
385.75	411.93
385.95	423.64
386.14	482.15
386.34	461.09
386.53	449.38
386.72	308.95
386.92	433.00
387.11	390.87
387.31	435.34
387.50	383.85
387.70	337.04
387.89	493.85
388.09	444.70
388.28	388.53
388.48	322.99
388.67	418.96
388.86	451.72
389.06	465.77
389.25	449.38
389.45	411.93
389.64	409.59
389.84	367.46
390.03	451.72
390.22	421.30
390.42	376.83
390.61	369.80
390.81	381.51
391.00	362.78
391.19	407.25
391.39	386.19
391.58	421.30
391.78	386.19
391.97	463.43
392.16	409.59
392.36	379.17
392.55	418.96
392.75	383.85
392.94	414.27
393.13	341.72
393.33	390.87
393.52	400.23
393.71	496.19
393.91	407.25
394.10	411.93
394.29	383.85
394.49	402.57
394.68	458.74
394.88	404.91
395.07	376.83
395.26	374.49
395.46	407.25
395.65	440.02
395.84	409.59
396.04	390.87
396.23	390.87
396.42	430.66
396.62	449.38
396.81	423.64
397.00	390.87
397.19	430.66
397.39	458.74
397.58	411.93
397.77	386.19
397.97	503.22
398.16	477.47
398.35	404.91
398.55	315.97
398.74	365.12
398.93	390.87
399.12	454.06
399.32	423.64
399.51	416.62
399.70	379.17
399.90	428.32
400.09	409.59
400.28	454.06
400.47	388.53
400.67	334.70
400.86	468.11
401.05	479.81
401.24	379.17
401.44	416.62
401.63	386.19
401.82	425.98
402.01	330.02
402.21	358.10
402.40	430.66
402.59	388.53
402.78	318.31
402.97	327.68
403.17	425.98
403.36	383.85
403.55	414.27
403.74	421.30
403.93	447.04
404.13	491.51
404.32	383.85
404.51	360.44
404.70	388.53
404.89	435.34
405.09	386.19
405.28	341.72
405.47	372.15
405.66	447.04
405.85	500.87
406.05	358.10
406.24	355.76
406.43	397.89
406.62	423.64
406.81	475.13
407.00	397.89
407.20	435.34
407.39	416.62
407.58	388.53
407.77	428.32
407.96	407.25
408.15	360.44
408.34	425.98
408.54	365.12
408.73	388.53
408.92	425.98
409.11	482.15
409.30	386.19
409.49	388.53
409.68	353.42
409.87	437.68
410.07	318.31
410.26	400.23
410.45	372.15
410.64	440.02
410.83	435.34
411.02	388.53
411.21	411.93
411.40	428.32
411.59	409.59
411.78	414.27
411.98	397.89
412.17	367.46
412.36	454.06
412.55	416.62
412.74	390.87
412.93	428.32
413.12	393.21
413.31	404.91
413.50	433.00
413.69	353.42
413.88	414.27
414.07	475.13
414.26	407.25
414.45	449.38
414.64	332.36
414.83	449.38
415.02	388.53
415.22	383.85
415.41	423.64
415.60	409.59
415.79	374.49
415.98	407.25
416.17	351.08
416.36	418.96
416.55	367.46
416.74	414.27
416.93	388.53
417.12	355.76
417.31	409.59
417.50	397.89
417.69	433.00
417.88	404.91
418.07	318.31
418.26	388.53
418.45	463.43
418.64	395.55
418.83	351.08
419.02	374.49
419.21	369.80
419.39	383.85
419.58	376.83
419.77	475.13
419.96	372.15
420.15	393.21
420.34	383.85
420.53	416.62
420.72	397.89
420.91	400.23
421.10	468.11
421.29	500.87
421.48	379.17
421.67	388.53
421.86	423.64
422.05	388.53
422.24	374.49
422.43	418.96
422.61	409.59
422.80	444.70
422.99	411.93
423.18	444.70
423.37	400.23
423.56	423.64
423.75	470.45
423.94	400.23
424.13	369.80
424.32	365.12
424.50	383.85
424.69	430.66
424.88	454.06
425.07	388.53
425.26	461.09
425.45	425.98
425.64	404.91
425.83	374.49
426.01	461.09
426.20	379.17
426.39	414.27
426.58	468.11
426.77	367.46
426.96	472.79
427.15	442.36
427.33	397.89
427.52	425.98
427.71	386.19
427.90	390.87
428.09	402.57
428.28	383.85
428.46	470.45
428.65	395.55
428.84	451.72
429.03	386.19
429.22	428.32
429.40	468.11
429.59	402.57
429.78	430.66
429.97	402.57
430.16	423.64
430.34	372.15
430.53	411.93
430.72	374.49
430.91	461.09
431.10	388.53
431.28	344.06
431.47	456.40
431.66	390.87
431.85	425.98
432.03	346.40
432.22	433.00
432.41	381.51
432.60	425.98
432.79	400.23
432.97	416.62
433.16	362.78
433.35	397.89
433.54	369.80
433.72	407.25
433.91	407.25
434.10	407.25
434.28	374.49
434.47	381.51
434.66	418.96
434.85	362.78
435.03	423.64
435.22	468.11
435.41	440.02
435.59	369.80
435.78	414.27
435.97	416.62
436.16	500.87
436.34	470.45
436.53	414.27
436.72	400.23
436.90	421.30
437.09	463.43
437.28	444.70
437.46	280.86
437.65	428.32
437.84	351.08
438.02	449.38
438.21	416.62
438.40	402.57
438.58	451.72
438.77	477.47
438.96	334.70
439.14	397.89
439.33	416.62
439.52	454.06
439.70	372.15
439.89	409.59
440.08	514.92
440.26	395.55
440.45	463.43
440.63	449.38
440.82	407.25
441.01	376.83
441.19	374.49
441.38	409.59
441.57	379.17
441.75	379.17
441.94	397.89
442.12	449.38
442.31	332.36
442.50	362.78
442.68	395.55
442.87	435.34
443.05	472.79
443.24	458.74
443.43	386.19
443.61	456.40
443.80	411.93
443.98	381.51
444.17	383.85
444.35	383.85
444.54	411.93
444.73	414.27
444.91	463.43
445.10	416.62
445.28	428.32
445.47	390.87
445.65	440.02
445.84	369.80
446.02	435.34
446.21	376.83
446.39	372.15
446.58	433.00
446.77	463.43
446.95	388.53
447.14	414.27
447.32	402.57
447.51	428.32
447.69	411.93
447.88	414.27
448.06	395.55
448.25	451.72
448.43	374.49
448.62	353.42
448.80	372.15
448.99	351.08
449.17	409.59
449.36	400.23
449.54	468.11
449.73	440.02
449.91	414.27
450.10	395.55
450.28	451.72
450.46	409.59
450.65	355.76
450.83	383.85
451.02	440.02
451.20	337.04
451.39	465.77
451.57	442.36
451.76	409.59
451.94	435.34
452.13	416.62
452.31	524.28
452.49	376.83
452.68	416.62
452.86	379.17
453.05	437.68
453.23	416.62
453.42	442.36
453.60	442.36
453.78	433.00
453.97	404.91
454.15	468.11
454.34	383.85
454.52	362.78
454.70	416.62
454.89	442.36
455.07	461.09
455.26	407.25
455.44	454.06
455.62	442.36
455.81	433.00
455.99	381.51
456.17	409.59
456.36	400.23
456.54	390.87
456.73	390.87
456.91	425.98
457.09	430.66
457.28	472.79
457.46	402.57
457.64	383.85
457.83	416.62
458.01	423.64
458.19	390.87
458.38	393.21
458.56	449.38
458.74	346.40
458.93	456.40
459.11	372.15
459.29	360.44
459.48	435.34
459.66	493.85
459.84	383.85
460.03	414.27
460.21	425.98
460.39	411.93
460.57	388.53
460.76	407.25
460.94	367.46
461.12	449.38
461.31	477.47
461.49	409.59
461.67	407.25
461.85	372.15
462.04	376.83
462.22	788.76
462.40	442.36
462.59	388.53
462.77	437.68
462.95	465.77
463.13	430.66
463.32	386.19
463.50	458.74
463.68	458.74
463.86	428.32
464.05	374.49
464.23	313.63
464.41	423.64
464.59	456.40
464.78	386.19
464.96	379.17
465.14	367.46
465.32	353.42
465.50	510.24
465.69	440.02
465.87	386.19
466.05	376.83
466.23	402.57
466.41	404.91
466.60	400.23
466.78	374.49
466.96	451.72
467.14	411.93
467.32	418.96
467.51	402.57
467.69	390.87
467.87	402.57
468.05	383.85
468.23	409.59
468.41	418.96
468.60	404.91
468.78	444.70
468.96	456.40
469.14	451.72
469.32	379.17
469.50	463.43
469.69	461.09
469.87	390.87
470.05	409.59
470.23	416.62
470.41	393.21
470.59	397.89
470.77	451.72
470.95	346.40
471.14	444.70
471.32	390.87
471.50	444.70
471.68	355.76
471.86	346.40
472.04	440.02
472.22	418.96
472.40	482.15
472.58	318.31
472.77	369.80
472.95	334.70
473.13	372.15
473.31	489.17
473.49	407.25
473.67	407.25
473.85	381.51
474.03	423.64
474.21	433.00
474.39	449.38
474.57	454.06
474.75	418.96
474.93	451.72
475.12	463.43
475.30	444.70
475.48	514.92
475.66	379.17
475.84	397.89
476.02	386.19
476.20	376.83
476.38	337.04
476.56	475.13
476.74	430.66
476.92	383.85
477.10	402.57
477.28	416.62
477.46	379.17
477.64	416.62
477.82	411.93
478.00	341.72
478.18	362.78
478.36	346.40
478.54	393.21
478.72	360.44
478.90	376.83
479.08	421.30
479.26	449.38
479.44	423.64
479.62	416.62
479.80	318.31
479.98	407.25
480.16	365.12
480.34	477.47
480.52	416.62
480.70	365.12
480.88	388.53
481.06	435.34
481.24	390.87
481.41	383.85
481.59	470.45
481.77	395.55
481.95	409.59
482.13	416.62
482.31	416.62
482.49	425.98
482.67	395.55
482.85	400.23
483.03	374.49
483.21	458.74
483.39	444.70
483.57	404.91
483.74	416.62
483.92	423.64
484.10	348.74
484.28	411.93
484.46	425.98
484.64	456.40
484.82	390.87
485.00	496.19
485.18	407.25
485.35	433.00
485.53	411.93
485.71	440.02
485.89	470.45
486.07	447.04
486.25	475.13
486.43	468.11
486.61	437.68
486.78	442.36
486.96	374.49
487.14	407.25
487.32	379.17
487.50	365.12
487.68	503.22
487.85	339.38
488.03	402.57
488.21	395.55
488.39	430.66
488.57	418.96
488.75	411.93
488.92	582.79
489.10	463.43
489.28	390.87
489.46	421.30
489.64	425.98
489.81	383.85
489.99	360.44
490.17	381.51
490.35	454.06
490.53	348.74
490.70	386.19
490.88	402.57
491.06	374.49
491.24	393.21
491.41	475.13
491.59	376.83
491.77	421.30
491.95	351.08
492.13	423.64
492.30	404.91
492.48	360.44
492.66	386.19
492.84	334.70
493.01	407.25
493.19	425.98
493.37	468.11
493.54	395.55
493.72	358.10
493.90	400.23
494.08	411.93
494.25	430.66
494.43	386.19
494.61	409.59
494.79	353.42
494.96	348.74
495.14	411.93
495.32	372.15
495.49	393.21
495.67	407.25
495.85	400.23
496.02	447.04
496.20	397.89
496.38	339.38
496.55	379.17
496.73	421.30
496.91	395.55
497.09	500.87
497.26	433.00
497.44	383.85
497.62	409.59
497.79	449.38
497.97	449.38
498.14	465.77
498.32	348.74
498.50	409.59
498.67	461.09
498.85	339.38
499.03	447.04
499.20	458.74
499.38	458.74
499.56	428.32
499.73	374.49
499.91	425.98
500.08	447.04
500.26	397.89
500.44	456.40
500.61	423.64
500.79	428.32
500.97	447.04
501.14	428.32
501.32	416.62
501.49	428.32
501.67	330.02
501.84	409.59
502.02	400.23
502.20	423.64
502.37	472.79
502.55	383.85
502.72	402.57
502.90	402.57
503.07	383.85
503.25	484.49
503.43	407.25
503.60	407.25
503.78	451.72
503.95	425.98
504.13	383.85
504.30	388.53
504.48	444.70
504.65	397.89
504.83	430.66
505.01	379.17
505.18	395.55
505.36	479.81
505.53	425.98
505.71	430.66
505.88	454.06
506.06	428.32
506.23	388.53
506.41	437.68
506.58	423.64
506.76	416.62
506.93	337.04
507.11	383.85
507.28	390.87
507.46	376.83
507.63	374.49
507.81	360.44
507.98	465.77
508.16	360.44
508.33	430.66
508.50	362.78
508.68	414.27
508.85	325.33
509.03	461.09
509.20	423.64
509.38	395.55
509.55	421.30
509.73	388.53
509.90	500.87
510.08	360.44
510.25	465.77
510.42	416.62
510.60	341.72
510.77	360.44
510.95	543.00
511.12	367.46
511.30	430.66
511.47	442.36
511.64	397.89
511.82	470.45
511.99	484.49
512.17	409.59
512.34	444.70
512.51	458.74
512.69	390.87
512.86	475.13
513.04	416.62
513.21	409.59
513.38	437.68
513.56	421.30
513.73	435.34
513.90	447.04
514.08	425.98
514.25	416.62
514.43	437.68
514.60	386.19
514.77	447.04
514.95	418.96
515.12	372.15
515.29	458.74
515.47	414.27
515.64	461.09
515.81	444.70
515.99	430.66
516.16	442.36
516.33	411.93
516.51	379.17
516.68	409.59
516.85	393.21
517.03	400.23
517.20	433.00
517.37	463.43
517.54	376.83
517.72	374.49
517.89	472.79
518.06	444.70
518.24	500.87
518.41	444.70
518.58	397.89
518.75	339.38
518.93	360.44
519.10	414.27
519.27	395.55
519.45	418.96
519.62	407.25
519.79	409.59
519.96	355.76
520.14	442.36
520.31	461.09
520.48	421.30
520.65	442.36
520.83	451.72
521.00	437.68
521.17	437.68
521.34	379.17
521.52	379.17
521.69	479.81
521.86	447.04
522.03	444.70
522.20	418.96
522.38	367.46
522.55	425.98
522.72	425.98
522.89	360.44
523.07	400.23
523.24	397.89
523.41	390.87
523.58	365.12
523.75	353.42
523.92	411.93
524.10	409.59
524.27	388.53
524.44	390.87
524.61	404.91
524.78	430.66
524.96	454.06
525.13	416.62
525.30	433.00
525.47	379.17
525.64	407.25
525.81	465.77
525.98	475.13
526.16	409.59
526.33	374.49
526.50	430.66
526.67	404.91
526.84	421.30
527.01	390.87
527.18	362.78
527.36	475.13
527.53	444.70
527.70	379.17
527.87	454.06
528.04	465.77
528.21	411.93
528.38	332.36
528.55	404.91
528.72	388.53
528.89	449.38
529.07	362.78
529.24	433.00
529.41	456.40
529.58	433.00
529.75	376.83
529.92	442.36
530.09	418.96
530.26	489.17
530.43	414.27
530.60	388.53
530.77	416.62
530.94	444.70
531.11	325.33
531.28	440.02
531.46	379.17
531.63	381.51
531.80	372.15
531.97	414.27
532.14	421.30
532.31	376.83
532.48	409.59
532.65	437.68
532.82	365.12
532.99	411.93
533.16	407.25
533.33	468.11
533.50	418.96
533.67	444.70
533.84	468.11
534.01	433.00
534.18	423.64
534.35	416.62
534.52	468.11
534.69	365.12
534.86	435.34
535.03	475.13
535.20	475.13
535.37	402.57
535.54	404.91
535.71	458.74
535.88	463.43
536.05	355.76
536.22	407.25
536.38	332.36
536.55	397.89
536.72	433.00
536.89	390.87
537.06	402.57
537.23	479.81
537.40	393.21
537.57	449.38
537.74	440.02
537.91	435.34
538.08	400.23
538.25	437.68
538.42	435.34
538.59	442.36
538.75	428.32
538.92	390.87
539.09	440.02
539.26	369.80
539.43	411.93
539.60	390.87
539.77	397.89
539.94	423.64
540.11	430.66
540.28	440.02
540.44	418.96
540.61	418.96
540.78	486.83
540.95	351.08
541.12	421.30
541.29	428.32
541.46	461.09
541.62	383.85
541.79	454.06
541.96	334.70
542.13	393.21
542.30	435.34
542.47	425.98
542.63	374.49
542.80	416.62
542.97	425.98
543.14	477.47
543.31	397.89
543.48	402.57
543.64	484.49
543.81	505.56
543.98	421.30
544.15	376.83
544.32	376.83
544.48	458.74
544.65	421.30
544.82	374.49
544.99	395.55
545.16	400.23
545.32	451.72
545.49	379.17
545.66	458.74
545.83	407.25
546.00	381.51
546.16	447.04
546.33	433.00
546.50	470.45
546.67	407.25
546.83	440.02
547.00	484.49
547.17	355.76
547.34	416.62
547.50	437.68
547.67	475.13
547.84	414.27
548.00	381.51
548.17	437.68
548.34	411.93
548.51	435.34
548.67	440.02
548.84	409.59
549.01	430.66
549.18	425.98
549.34	390.87
549.51	381.51
549.68	444.70
549.84	428.32
550.01	404.91
550.18	444.70
550.34	440.02
550.51	477.47
550.68	477.47
550.84	411.93
551.01	440.02
551.18	409.59
551.34	388.53
551.51	416.62
551.68	395.55
551.84	465.77
552.01	468.11
552.18	388.53
552.34	475.13
552.51	332.36
552.68	482.15
552.84	449.38
553.01	414.27
553.18	388.53
553.34	386.19
553.51	383.85
553.67	383.85
553.84	397.89
554.01	461.09
554.17	348.74
554.34	435.34
554.51	435.34
554.67	447.04
554.84	435.34
555.00	407.25
555.17	437.68
555.33	472.79
555.50	418.96
555.67	489.17
555.83	341.72
556.00	484.49
556.16	550.03
556.33	475.13
556.50	395.55
556.66	407.25
556.83	395.55
556.99	447.04
557.16	447.04
557.32	458.74
557.49	379.17
557.65	468.11
557.82	388.53
557.98	411.93
558.15	400.23
558.32	414.27
558.48	397.89
558.65	449.38
558.81	456.40
558.98	440.02
559.14	409.59
559.31	374.49
559.47	465.77
559.64	414.27
559.80	423.64
559.97	447.04
560.13	456.40
560.30	449.38
560.46	360.44
560.63	447.04
560.79	379.17
560.96	435.34
561.12	381.51
561.29	468.11
561.45	379.17
561.61	400.23
561.78	454.06
561.94	465.77
562.11	390.87
562.27	484.49
562.44	395.55
562.60	442.36
562.77	409.59
562.93	500.87
563.10	372.15
563.26	404.91
563.42	421.30
563.59	409.59
563.75	351.08
563.92	435.34
564.08	379.17
564.24	461.09
564.41	421.30
564.57	365.12
564.74	411.93
564.90	456.40
565.07	411.93
565.23	470.45
565.39	411.93
565.56	479.81
565.72	489.17
565.88	393.21
566.05	390.87
566.21	418.96
566.38	465.77
566.54	388.53
566.70	428.32
566.87	440.02
567.03	367.46
567.19	402.57
567.36	496.19
567.52	449.38
567.68	407.25
567.85	472.79
568.01	461.09
568.17	409.59
568.34	428.32
568.50	482.15
568.66	472.79
568.83	407.25
568.99	411.93
569.15	414.27
569.32	402.57
569.48	470.45
569.64	397.89
569.81	456.40
569.97	418.96
570.13	414.27
570.30	475.13
570.46	475.13
570.62	423.64
570.78	425.98
570.95	386.19
571.11	437.68
571.27	407.25
571.43	397.89
571.60	402.57
571.76	447.04
571.92	421.30
572.09	372.15
572.25	409.59
572.41	451.72
572.57	458.74
572.74	482.15
572.90	461.09
573.06	433.00
573.22	433.00
573.38	447.04
573.55	519.60
573.71	458.74
573.87	423.64
574.03	454.06
574.20	379.17
574.36	411.93
574.52	440.02
574.68	367.46
574.84	442.36
575.01	390.87
575.17	425.98
575.33	341.72
575.49	365.12
575.65	465.77
575.82	409.59
575.98	468.11
576.14	381.51
576.30	400.23
576.46	463.43
576.62	430.66
576.79	425.98
576.95	444.70
577.11	369.80
577.27	440.02
577.43	472.79
577.59	379.17
577.75	409.59
577.92	390.87
578.08	425.98
578.24	409.59
578.40	400.23
578.56	346.40
578.72	454.06
578.88	498.53
579.04	414.27
579.21	397.89
579.37	444.70
579.53	447.04
579.69	458.74
579.85	442.36
580.01	451.72
580.17	374.49
580.33	358.10
580.49	475.13
580.65	451.72
580.82	458.74
580.98	433.00
581.14	442.36
581.30	388.53
581.46	463.43
581.62	435.34
581.78	393.21
581.94	493.85
582.10	407.25
582.26	409.59
582.42	367.46
582.58	433.00
582.74	369.80
582.90	456.40
583.06	367.46
583.22	383.85
583.38	407.25
583.54	381.51
583.70	463.43
583.86	402.57
584.02	395.55
584.18	437.68
584.34	425.98
584.50	381.51
584.66	433.00
584.82	454.06
584.98	362.78
585.14	383.85
585.30	411.93
585.46	447.04
585.62	390.87
585.78	362.78
585.94	402.57
586.10	379.17
586.26	379.17
586.42	484.49
586.58	435.34
586.74	362.78
586.90	416.62
587.06	409.59
587.22	386.19
587.38	433.00
587.54	374.49
587.70	430.66
587.86	449.38
588.02	416.62
588.18	365.12
588.34	393.21
588.49	353.42
588.65	407.25
588.81	468.11
588.97	411.93
589.13	449.38
589.29	456.40
589.45	444.70
589.61	430.66
589.77	437.68
589.93	447.04
590.08	409.59
590.24	351.08
590.40	369.80
590.56	451.72
590.72	468.11
590.88	458.74
591.04	437.68
591.20	411.93
591.35	355.76
591.51	447.04
591.67	416.62
591.83	430.66
591.99	472.79
592.15	383.85
592.31	376.83
592.46	386.19
592.62	409.59
592.78	404.91
592.94	386.19
593.10	390.87
593.26	372.15
593.41	477.47
593.57	475.13
593.73	369.80
593.89	402.57
594.05	404.91
594.20	454.06
594.36	423.64
594.52	386.19
594.68	365.12
594.84	414.27
594.99	409.59
595.15	449.38
595.31	475.13
595.47	430.66
595.62	388.53
595.78	348.74
595.94	400.23
596.10	458.74
596.25	463.43
596.41	440.02
596.57	360.44
596.73	411.93
596.88	400.23
597.04	423.64
597.20	428.32
597.36	475.13
597.51	430.66
597.67	337.04
597.83	397.89
597.99	442.36
598.14	454.06
598.30	418.96
598.46	449.38
598.61	407.25
598.77	442.36
598.93	372.15
599.09	416.62
599.24	400.23
599.40	458.74
599.56	372.15
599.71	454.06
599.87	433.00
600.03	393.21
600.18	421.30
600.34	451.72
600.50	416.62
600.65	393.21
600.81	442.36
600.97	367.46
601.12	500.87
601.28	442.36
601.44	407.25
601.59	414.27
601.75	444.70
601.91	409.59
602.06	388.53
602.22	472.79
602.37	402.57
602.53	475.13
602.69	404.91
602.84	388.53
603.00	437.68
603.16	444.70
603.31	433.00
603.47	470.45
603.62	440.02
603.78	421.30
603.94	411.93
604.09	404.91
604.25	482.15
604.40	470.45
604.56	388.53
604.71	390.87
604.87	374.49
605.03	395.55
605.18	355.76
605.34	435.34
605.49	339.38
605.65	369.80
605.80	416.62
605.96	414.27
606.12	386.19
606.27	428.32
606.43	472.79
606.58	437.68
606.74	376.83
606.89	425.98
607.05	463.43
607.20	400.23
607.36	463.43
607.51	397.89
607.67	416.62
607.82	332.36
607.98	416.62
608.13	414.27
608.29	395.55
608.44	330.02
608.60	395.55
608.75	390.87
608.91	482.15
609.06	386.19
609.22	414.27
609.37	402.57
609.53	390.87
609.68	428.32
609.84	313.63
609.99	360.44
610.15	416.62
