SpectraSuite Data File
++++++++++++++++++++++++++++++++++++
Date: Fri Oct 25 12:10:13 EDT 2013
User: price-jones
Dark Spectrum Present: No
Reference Spectrum Present: No
Number of Sampled Component Spectra: 1
Spectrometers: USB2+H05261
Integration Time (usec): 100000 (USB2+H05261)
Spectra Averaged: 1 (USB2+H05261)
Boxcar Smoothing: 0 (USB2+H05261)
Correct for Electrical Dark: No (USB2+H05261)
Strobe/Lamp Enabled: No (USB2+H05261)
Correct for Detector Non-linearity: No (USB2+H05261)
Correct for Stray Light: No (USB2+H05261)
Number of Pixels in Processed Spectrum: 2048
>>>>>Begin Processed Spectral Data<<<<<
365.73	327.68
365.92	327.68
366.12	327.68
366.32	280.86
366.52	259.80
366.72	271.50
366.91	208.31
367.11	276.18
367.31	238.73
367.51	238.73
367.70	224.69
367.90	227.03
368.10	203.63
368.30	229.37
368.49	222.35
368.69	243.42
368.89	231.71
369.09	308.95
369.28	311.29
369.48	266.82
369.68	264.48
369.87	283.20
370.07	327.68
370.27	346.40
370.47	313.63
370.66	334.70
370.86	337.04
371.06	402.57
371.25	393.21
371.45	374.49
371.65	341.72
371.84	388.53
372.04	383.85
372.24	456.40
372.44	421.30
372.63	372.15
372.83	435.34
373.03	348.74
373.22	425.98
373.42	383.85
373.62	423.64
373.81	367.46
374.01	484.49
374.21	395.55
374.40	440.02
374.60	451.72
374.79	404.91
374.99	425.98
375.19	381.51
375.38	404.91
375.58	418.96
375.78	416.62
375.97	360.44
376.17	449.38
376.37	395.55
376.56	355.76
376.76	402.57
376.95	381.51
377.15	465.77
377.35	360.44
377.54	440.02
377.74	397.89
377.93	369.80
378.13	433.00
378.33	411.93
378.52	402.57
378.72	369.80
378.91	472.79
379.11	355.76
379.31	404.91
379.50	348.74
379.70	397.89
379.89	428.32
380.09	374.49
380.28	346.40
380.48	351.08
380.68	397.89
380.87	395.55
381.07	390.87
381.26	442.36
381.46	379.17
381.65	346.40
381.85	395.55
382.04	493.85
382.24	411.93
382.43	444.70
382.63	440.02
382.83	397.89
383.02	365.12
383.22	404.91
383.41	414.27
383.61	505.56
383.80	362.78
384.00	386.19
384.19	360.44
384.39	379.17
384.58	383.85
384.78	418.96
384.97	362.78
385.17	428.32
385.36	383.85
385.56	447.04
385.75	425.98
385.95	435.34
386.14	433.00
386.34	360.44
386.53	402.57
386.72	428.32
386.92	470.45
387.11	407.25
387.31	397.89
387.50	400.23
387.70	386.19
387.89	418.96
388.09	440.02
388.28	397.89
388.48	390.87
388.67	416.62
388.86	407.25
389.06	395.55
389.25	440.02
389.45	456.40
389.64	407.25
389.84	414.27
390.03	456.40
390.22	402.57
390.42	458.74
390.61	374.49
390.81	402.57
391.00	311.29
391.19	374.49
391.39	400.23
391.58	402.57
391.78	411.93
391.97	425.98
392.16	393.21
392.36	442.36
392.55	395.55
392.75	374.49
392.94	383.85
393.13	425.98
393.33	386.19
393.52	379.17
393.71	421.30
393.91	442.36
394.10	383.85
394.29	383.85
394.49	416.62
394.68	395.55
394.88	416.62
395.07	381.51
395.26	437.68
395.46	458.74
395.65	360.44
395.84	344.06
396.04	437.68
396.23	381.51
396.42	393.21
396.62	444.70
396.81	374.49
397.00	332.36
397.19	430.66
397.39	425.98
397.58	442.36
397.77	290.23
397.97	358.10
398.16	404.91
398.35	428.32
398.55	393.21
398.74	407.25
398.93	402.57
399.12	374.49
399.32	411.93
399.51	409.59
399.70	416.62
399.90	444.70
400.09	425.98
400.28	365.12
400.47	418.96
400.67	444.70
400.86	430.66
401.05	404.91
401.24	449.38
401.44	425.98
401.63	409.59
401.82	472.79
402.01	404.91
402.21	404.91
402.40	376.83
402.59	390.87
402.78	344.06
402.97	449.38
403.17	404.91
403.36	381.51
403.55	386.19
403.74	395.55
403.93	435.34
404.13	423.64
404.32	381.51
404.51	416.62
404.70	355.76
404.89	409.59
405.09	440.02
405.28	440.02
405.47	355.76
405.66	402.57
405.85	414.27
406.05	437.68
406.24	365.12
406.43	348.74
406.62	430.66
406.81	351.08
407.00	451.72
407.20	369.80
407.39	421.30
407.58	411.93
407.77	486.83
407.96	390.87
408.15	374.49
408.34	376.83
408.54	397.89
408.73	416.62
408.92	362.78
409.11	409.59
409.30	416.62
409.49	428.32
409.68	428.32
409.87	390.87
410.07	456.40
410.26	442.36
410.45	470.45
410.64	433.00
410.83	383.85
411.02	433.00
411.21	395.55
411.40	433.00
411.59	437.68
411.78	472.79
411.98	435.34
412.17	390.87
412.36	379.17
412.55	362.78
412.74	395.55
412.93	390.87
413.12	421.30
413.31	470.45
413.50	477.47
413.69	376.83
413.88	447.04
414.07	372.15
414.26	383.85
414.45	416.62
414.64	425.98
414.83	425.98
415.02	421.30
415.22	440.02
415.41	402.57
415.60	367.46
415.79	358.10
415.98	421.30
416.17	369.80
416.36	444.70
416.55	348.74
416.74	435.34
416.93	475.13
417.12	393.21
417.31	351.08
417.50	320.65
417.69	425.98
417.88	418.96
418.07	418.96
418.26	381.51
418.45	400.23
418.64	414.27
418.83	461.09
419.02	407.25
419.21	374.49
419.39	421.30
419.58	337.04
419.77	402.57
419.96	397.89
420.15	440.02
420.34	407.25
420.53	416.62
420.72	423.64
420.91	404.91
421.10	451.72
421.29	369.80
421.48	376.83
421.67	397.89
421.86	334.70
422.05	362.78
422.24	383.85
422.43	400.23
422.61	393.21
422.80	489.17
422.99	416.62
423.18	381.51
423.37	428.32
423.56	386.19
423.75	440.02
423.94	442.36
424.13	367.46
424.32	430.66
424.50	428.32
424.69	397.89
424.88	433.00
425.07	388.53
425.26	395.55
425.45	482.15
425.64	433.00
425.83	393.21
426.01	433.00
426.20	390.87
426.39	400.23
426.58	411.93
426.77	442.36
426.96	442.36
427.15	407.25
427.33	404.91
427.52	411.93
427.71	362.78
427.90	468.11
428.09	409.59
428.28	416.62
428.46	318.31
428.65	383.85
428.84	458.74
429.03	449.38
429.22	353.42
429.40	416.62
429.59	454.06
429.78	447.04
429.97	395.55
430.16	425.98
430.34	365.12
430.53	372.15
430.72	374.49
430.91	416.62
431.10	376.83
431.28	374.49
431.47	498.53
431.66	414.27
431.85	292.57
432.03	416.62
432.22	428.32
432.41	442.36
432.60	458.74
432.79	440.02
432.97	393.21
433.16	400.23
433.35	435.34
433.54	451.72
433.72	449.38
433.91	421.30
434.10	383.85
434.28	409.59
434.47	360.44
434.66	395.55
434.85	430.66
435.03	395.55
435.22	430.66
435.41	435.34
435.59	388.53
435.78	407.25
435.97	351.08
436.16	348.74
436.34	416.62
436.53	411.93
436.72	421.30
436.90	414.27
437.09	444.70
437.28	411.93
437.46	360.44
437.65	479.81
437.84	397.89
438.02	430.66
438.21	428.32
438.40	362.78
438.58	383.85
438.77	449.38
438.96	496.19
439.14	447.04
439.33	456.40
439.52	440.02
439.70	376.83
439.89	486.83
440.08	423.64
440.26	409.59
440.45	404.91
440.63	423.64
440.82	327.68
441.01	451.72
441.19	397.89
441.38	376.83
441.57	372.15
441.75	486.83
441.94	414.27
442.12	386.19
442.31	393.21
442.50	500.87
442.68	397.89
442.87	519.60
443.05	411.93
443.24	440.02
443.43	437.68
443.61	456.40
443.80	456.40
443.98	339.38
444.17	486.83
444.35	360.44
444.54	428.32
444.73	454.06
444.91	456.40
445.10	437.68
445.28	348.74
445.47	372.15
445.65	376.83
445.84	393.21
446.02	440.02
446.21	304.27
446.39	430.66
446.58	454.06
446.77	456.40
446.95	465.77
447.14	425.98
447.32	416.62
447.51	444.70
447.69	435.34
447.88	454.06
448.06	414.27
448.25	437.68
448.43	397.89
448.62	454.06
448.80	365.12
448.99	381.51
449.17	376.83
449.36	421.30
449.54	372.15
449.73	402.57
449.91	465.77
450.10	454.06
450.28	472.79
450.46	374.49
450.65	416.62
450.83	451.72
451.02	358.10
451.20	454.06
451.39	465.77
451.57	348.74
451.76	411.93
451.94	411.93
452.13	414.27
452.31	393.21
452.49	386.19
452.68	388.53
452.86	425.98
453.05	447.04
453.23	451.72
453.42	339.38
453.60	407.25
453.78	454.06
453.97	482.15
454.15	451.72
454.34	425.98
454.52	390.87
454.70	351.08
454.89	428.32
455.07	393.21
455.26	421.30
455.44	451.72
455.62	437.68
455.81	437.68
455.99	381.51
456.17	355.76
456.36	360.44
456.54	374.49
456.73	447.04
456.91	421.30
457.09	435.34
457.28	477.47
457.46	372.15
457.64	454.06
457.83	458.74
458.01	362.78
458.19	400.23
458.38	362.78
458.56	409.59
458.74	386.19
458.93	493.85
459.11	386.19
459.29	400.23
459.48	358.10
459.66	379.17
459.84	468.11
460.03	503.22
460.21	442.36
460.39	486.83
460.57	416.62
460.76	318.31
460.94	402.57
461.12	475.13
461.31	390.87
461.49	433.00
461.67	414.27
461.85	416.62
462.04	369.80
462.22	732.59
462.40	430.66
462.59	479.81
462.77	425.98
462.95	430.66
463.13	418.96
463.32	444.70
463.50	421.30
463.68	433.00
463.86	414.27
464.05	484.49
464.23	491.51
464.41	407.25
464.59	402.57
464.78	337.04
464.96	449.38
465.14	369.80
465.32	404.91
465.50	442.36
465.69	414.27
465.87	418.96
466.05	433.00
466.23	409.59
466.41	423.64
466.60	454.06
466.78	365.12
466.96	393.21
467.14	425.98
467.32	418.96
467.51	447.04
467.69	465.77
467.87	500.87
468.05	421.30
468.23	393.21
468.41	428.32
468.60	414.27
468.78	369.80
468.96	386.19
469.14	332.36
469.32	395.55
469.50	327.68
469.69	383.85
469.87	428.32
470.05	409.59
470.23	463.43
470.41	360.44
470.59	433.00
470.77	397.89
470.95	369.80
471.14	433.00
471.32	423.64
471.50	435.34
471.68	447.04
471.86	444.70
472.04	397.89
472.22	433.00
472.40	444.70
472.58	409.59
472.77	322.99
472.95	348.74
473.13	449.38
473.31	477.47
473.49	383.85
473.67	311.29
473.85	447.04
474.03	379.17
474.21	449.38
474.39	407.25
474.57	437.68
474.75	367.46
474.93	379.17
475.12	454.06
475.30	409.59
475.48	362.78
475.66	498.53
475.84	337.04
476.02	379.17
476.20	390.87
476.38	390.87
476.56	461.09
476.74	484.49
476.92	379.17
477.10	428.32
477.28	447.04
477.46	411.93
477.64	440.02
477.82	430.66
478.00	454.06
478.18	421.30
478.36	414.27
478.54	393.21
478.72	440.02
478.90	451.72
479.08	421.30
479.26	367.46
479.44	428.32
479.62	346.40
479.80	447.04
479.98	451.72
480.16	425.98
480.34	418.96
480.52	421.30
480.70	360.44
480.88	372.15
481.06	428.32
481.24	348.74
481.41	425.98
481.59	430.66
481.77	337.04
481.95	376.83
482.13	449.38
482.31	409.59
482.49	449.38
482.67	547.69
482.85	395.55
483.03	454.06
483.21	402.57
483.39	407.25
483.57	383.85
483.74	425.98
483.92	411.93
484.10	451.72
484.28	423.64
484.46	409.59
484.64	383.85
484.82	381.51
485.00	477.47
485.18	430.66
485.35	437.68
485.53	383.85
485.71	465.77
485.89	365.12
486.07	369.80
486.25	486.83
486.43	461.09
486.61	454.06
486.78	400.23
486.96	360.44
487.14	416.62
487.32	404.91
487.50	400.23
487.68	407.25
487.85	416.62
488.03	400.23
488.21	444.70
488.39	400.23
488.57	440.02
488.75	411.93
488.92	461.09
489.10	418.96
489.28	482.15
489.46	463.43
489.64	334.70
489.81	435.34
489.99	397.89
490.17	386.19
490.35	475.13
490.53	440.02
490.70	390.87
490.88	393.21
491.06	430.66
491.24	430.66
491.41	449.38
491.59	409.59
491.77	437.68
491.95	367.46
492.13	435.34
492.30	423.64
492.48	449.38
492.66	376.83
492.84	409.59
493.01	491.51
493.19	425.98
493.37	479.81
493.54	433.00
493.72	386.19
493.90	456.40
494.08	308.95
494.25	393.21
494.43	440.02
494.61	440.02
494.79	339.38
494.96	402.57
495.14	444.70
495.32	461.09
495.49	411.93
495.67	414.27
495.85	393.21
496.02	416.62
496.20	444.70
496.38	360.44
496.55	400.23
496.73	456.40
496.91	344.06
497.09	451.72
497.26	379.17
497.44	472.79
497.62	358.10
497.79	421.30
497.97	372.15
498.14	414.27
498.32	425.98
498.50	428.32
498.67	390.87
498.85	421.30
499.03	421.30
499.20	393.21
499.38	402.57
499.56	428.32
499.73	524.28
499.91	334.70
500.08	390.87
500.26	379.17
500.44	444.70
500.61	458.74
500.79	437.68
500.97	400.23
501.14	440.02
501.32	454.06
501.49	390.87
501.67	360.44
501.84	383.85
502.02	435.34
502.20	440.02
502.37	362.78
502.55	393.21
502.72	360.44
502.90	430.66
503.07	381.51
503.25	402.57
503.43	402.57
503.60	383.85
503.78	449.38
503.95	400.23
504.13	327.68
504.30	388.53
504.48	383.85
504.65	479.81
504.83	397.89
505.01	400.23
505.18	369.80
505.36	472.79
505.53	383.85
505.71	393.21
505.88	421.30
506.06	416.62
506.23	365.12
506.41	482.15
506.58	409.59
506.76	430.66
506.93	458.74
507.11	482.15
507.28	344.06
507.46	472.79
507.63	437.68
507.81	489.17
507.98	407.25
508.16	428.32
508.33	376.83
508.50	393.21
508.68	390.87
508.85	348.74
509.03	433.00
509.20	421.30
509.38	440.02
509.55	458.74
509.73	397.89
509.90	458.74
510.08	451.72
510.25	402.57
510.42	421.30
510.60	423.64
510.77	365.12
510.95	386.19
511.12	374.49
511.30	451.72
511.47	402.57
511.64	409.59
511.82	379.17
511.99	411.93
512.17	379.17
512.34	379.17
512.51	402.57
512.69	393.21
512.86	442.36
513.04	444.70
513.21	414.27
513.38	423.64
513.56	428.32
513.73	428.32
513.90	437.68
514.08	428.32
514.25	404.91
514.43	437.68
514.60	397.89
514.77	421.30
514.95	404.91
515.12	344.06
515.29	463.43
515.47	465.77
515.64	442.36
515.81	404.91
515.99	430.66
516.16	440.02
516.33	337.04
516.51	425.98
516.68	435.34
516.85	388.53
517.03	433.00
517.20	503.22
517.37	409.59
517.54	341.72
517.72	400.23
517.89	388.53
518.06	395.55
518.24	451.72
518.41	440.02
518.58	381.51
518.75	423.64
518.93	388.53
519.10	433.00
519.27	482.15
519.45	383.85
519.62	451.72
519.79	421.30
519.96	454.06
520.14	369.80
520.31	500.87
520.48	372.15
520.65	475.13
520.83	470.45
521.00	456.40
521.17	416.62
521.34	433.00
521.52	358.10
521.69	409.59
521.86	376.83
522.03	404.91
522.20	472.79
522.38	461.09
522.55	395.55
522.72	388.53
522.89	421.30
523.07	465.77
523.24	397.89
523.41	339.38
523.58	365.12
523.75	442.36
523.92	414.27
524.10	465.77
524.27	425.98
524.44	400.23
524.61	477.47
524.78	395.55
524.96	346.40
525.13	416.62
525.30	477.47
525.47	376.83
525.64	360.44
525.81	442.36
525.98	414.27
526.16	390.87
526.33	388.53
526.50	470.45
526.67	397.89
526.84	428.32
527.01	397.89
527.18	414.27
527.36	348.74
527.53	386.19
527.70	423.64
527.87	454.06
528.04	514.92
528.21	383.85
528.38	428.32
528.55	416.62
528.72	472.79
528.89	397.89
529.07	463.43
529.24	311.29
529.41	447.04
529.58	393.21
529.75	423.64
529.92	414.27
530.09	442.36
530.26	486.83
530.43	411.93
530.60	402.57
530.77	397.89
530.94	454.06
531.11	428.32
531.28	360.44
531.46	341.72
531.63	428.32
531.80	400.23
531.97	468.11
532.14	414.27
532.31	465.77
532.48	421.30
532.65	482.15
532.82	386.19
532.99	341.72
533.16	372.15
533.33	330.02
533.50	367.46
533.67	365.12
533.84	496.19
534.01	423.64
534.18	447.04
534.35	407.25
534.52	449.38
534.69	421.30
534.86	402.57
535.03	425.98
535.20	447.04
535.37	433.00
535.54	374.49
535.71	376.83
535.88	423.64
536.05	360.44
536.22	451.72
536.38	451.72
536.55	465.77
536.72	449.38
536.89	414.27
537.06	393.21
537.23	428.32
537.40	411.93
537.57	393.21
537.74	486.83
537.91	416.62
538.08	437.68
538.25	437.68
538.42	337.04
538.59	428.32
538.75	428.32
538.92	454.06
539.09	463.43
539.26	322.99
539.43	433.00
539.60	433.00
539.77	404.91
539.94	465.77
540.11	367.46
540.28	475.13
540.44	482.15
540.61	379.17
540.78	360.44
540.95	376.83
541.12	465.77
541.29	444.70
541.46	423.64
541.62	411.93
541.79	442.36
541.96	402.57
542.13	346.40
542.30	365.12
542.47	376.83
542.63	397.89
542.80	425.98
542.97	418.96
543.14	468.11
543.31	397.89
543.48	428.32
543.64	484.49
543.81	442.36
543.98	411.93
544.15	397.89
544.32	395.55
544.48	334.70
544.65	414.27
544.82	433.00
544.99	433.00
545.16	355.76
545.32	449.38
545.49	463.43
545.66	442.36
545.83	458.74
546.00	390.87
546.16	482.15
546.33	337.04
546.50	437.68
546.67	454.06
546.83	428.32
547.00	416.62
547.17	390.87
547.34	397.89
547.50	416.62
547.67	386.19
547.84	381.51
548.00	400.23
548.17	409.59
548.34	388.53
548.51	418.96
548.67	367.46
548.84	465.77
549.01	402.57
549.18	454.06
549.34	463.43
549.51	447.04
549.68	416.62
549.84	421.30
550.01	407.25
550.18	451.72
550.34	440.02
550.51	379.17
550.68	435.34
550.84	414.27
551.01	339.38
551.18	416.62
551.34	388.53
551.51	458.74
551.68	456.40
551.84	374.49
552.01	376.83
552.18	430.66
552.34	447.04
552.51	442.36
552.68	367.46
552.84	456.40
553.01	423.64
553.18	374.49
553.34	367.46
553.51	397.89
553.67	440.02
553.84	505.56
554.01	407.25
554.17	430.66
554.34	433.00
554.51	416.62
554.67	421.30
554.84	435.34
555.00	402.57
555.17	390.87
555.33	390.87
555.50	407.25
555.67	383.85
555.83	400.23
556.00	433.00
556.16	533.64
556.33	423.64
556.50	390.87
556.66	397.89
556.83	402.57
556.99	411.93
557.16	465.77
557.32	346.40
557.49	393.21
557.65	489.17
557.82	425.98
557.98	351.08
558.15	374.49
558.32	372.15
558.48	425.98
558.65	369.80
558.81	470.45
558.98	454.06
559.14	383.85
559.31	447.04
559.47	397.89
559.64	414.27
559.80	458.74
559.97	365.12
560.13	395.55
560.30	390.87
560.46	430.66
560.63	435.34
560.79	437.68
560.96	411.93
561.12	470.45
561.29	404.91
561.45	388.53
561.61	435.34
561.78	440.02
561.94	388.53
562.11	395.55
562.27	395.55
562.44	470.45
562.60	393.21
562.77	414.27
562.93	517.26
563.10	390.87
563.26	440.02
563.42	475.13
563.59	395.55
563.75	353.42
563.92	404.91
564.08	449.38
564.24	484.49
564.41	454.06
564.57	430.66
564.74	362.78
564.90	430.66
565.07	447.04
565.23	519.60
565.39	372.15
565.56	404.91
565.72	388.53
565.88	440.02
566.05	435.34
566.21	386.19
566.38	397.89
566.54	332.36
566.70	440.02
566.87	395.55
567.03	404.91
567.19	423.64
567.36	400.23
567.52	397.89
567.68	402.57
567.85	358.10
568.01	379.17
568.17	414.27
568.34	430.66
568.50	388.53
568.66	358.10
568.83	491.51
568.99	428.32
569.15	423.64
569.32	479.81
569.48	383.85
569.64	369.80
569.81	400.23
569.97	463.43
570.13	482.15
570.30	409.59
570.46	423.64
570.62	346.40
570.78	400.23
570.95	400.23
571.11	395.55
571.27	437.68
571.43	423.64
571.60	505.56
571.76	395.55
571.92	390.87
572.09	449.38
572.25	402.57
572.41	484.49
572.57	315.97
572.74	498.53
572.90	414.27
573.06	348.74
573.22	341.72
573.38	437.68
573.55	472.79
573.71	430.66
573.87	369.80
574.03	383.85
574.20	402.57
574.36	437.68
574.52	416.62
574.68	458.74
574.84	358.10
575.01	374.49
575.17	402.57
575.33	430.66
575.49	444.70
575.65	390.87
575.82	393.21
575.98	376.83
576.14	397.89
576.30	414.27
576.46	444.70
576.62	421.30
576.79	444.70
576.95	465.77
577.11	397.89
577.27	437.68
577.43	425.98
577.59	479.81
577.75	402.57
577.92	414.27
578.08	444.70
578.24	407.25
578.40	491.51
578.56	435.34
578.72	444.70
578.88	376.83
579.04	435.34
579.21	430.66
579.37	393.21
579.53	414.27
579.69	407.25
579.85	362.78
580.01	355.76
580.17	353.42
580.33	320.65
580.49	383.85
580.65	397.89
580.82	379.17
580.98	393.21
581.14	465.77
581.30	411.93
581.46	482.15
581.62	421.30
581.78	407.25
581.94	423.64
582.10	390.87
582.26	456.40
582.42	358.10
582.58	414.27
582.74	386.19
582.90	395.55
583.06	404.91
583.22	421.30
583.38	393.21
583.54	365.12
583.70	437.68
583.86	395.55
584.02	315.97
584.18	435.34
584.34	407.25
584.50	472.79
584.66	428.32
584.82	372.15
584.98	393.21
585.14	397.89
585.30	430.66
585.46	430.66
585.62	404.91
585.78	404.91
585.94	367.46
586.10	362.78
586.26	433.00
586.42	440.02
586.58	414.27
586.74	402.57
586.90	444.70
587.06	428.32
587.22	486.83
587.38	416.62
587.54	393.21
587.70	442.36
587.86	500.87
588.02	411.93
588.18	433.00
588.34	407.25
588.49	444.70
588.65	442.36
588.81	411.93
588.97	386.19
589.13	374.49
589.29	456.40
589.45	395.55
589.61	507.90
589.77	491.51
589.93	404.91
590.08	358.10
590.24	416.62
590.40	379.17
590.56	470.45
590.72	414.27
590.88	404.91
591.04	423.64
591.20	465.77
591.35	416.62
591.51	393.21
591.67	362.78
591.83	423.64
591.99	416.62
592.15	465.77
592.31	470.45
592.46	440.02
592.62	425.98
592.78	337.04
592.94	404.91
593.10	447.04
593.26	463.43
593.41	400.23
593.57	418.96
593.73	404.91
593.89	428.32
594.05	400.23
594.20	411.93
594.36	428.32
594.52	383.85
594.68	470.45
594.84	397.89
594.99	437.68
595.15	433.00
595.31	407.25
595.47	461.09
595.62	372.15
595.78	376.83
595.94	411.93
596.10	449.38
596.25	482.15
596.41	369.80
596.57	442.36
596.73	388.53
596.88	386.19
597.04	409.59
597.20	425.98
597.36	468.11
597.51	393.21
597.67	360.44
597.83	395.55
597.99	404.91
598.14	456.40
598.30	402.57
598.46	390.87
598.61	449.38
598.77	451.72
598.93	390.87
599.09	304.27
599.24	407.25
599.40	444.70
599.56	465.77
599.71	395.55
599.87	402.57
600.03	442.36
600.18	425.98
600.34	456.40
600.50	437.68
600.65	458.74
600.81	421.30
600.97	430.66
601.12	444.70
601.28	514.92
601.44	407.25
601.59	437.68
601.75	355.76
601.91	390.87
602.06	463.43
602.22	451.72
602.37	409.59
602.53	458.74
602.69	397.89
602.84	374.49
603.00	411.93
603.16	442.36
603.31	449.38
603.47	444.70
603.62	456.40
603.78	395.55
603.94	416.62
604.09	449.38
604.25	442.36
604.40	430.66
604.56	355.76
604.71	454.06
604.87	386.19
605.03	372.15
605.18	383.85
605.34	470.45
605.49	400.23
605.65	404.91
605.80	423.64
605.96	409.59
606.12	344.06
606.27	409.59
606.43	372.15
606.58	353.42
606.74	451.72
606.89	400.23
607.05	444.70
607.20	386.19
607.36	437.68
607.51	414.27
607.67	444.70
607.82	440.02
607.98	437.68
608.13	346.40
608.29	421.30
608.44	397.89
608.60	430.66
608.75	395.55
608.91	404.91
609.06	430.66
609.22	447.04
609.37	416.62
609.53	411.93
609.68	418.96
609.84	411.93
609.99	395.55
610.15	320.65
