SpectraSuite Data File
++++++++++++++++++++++++++++++++++++
Date: Fri Oct 25 12:10:33 EDT 2013
User: price-jones
Dark Spectrum Present: No
Reference Spectrum Present: No
Number of Sampled Component Spectra: 1
Spectrometers: USB2+H05261
Integration Time (usec): 100000 (USB2+H05261)
Spectra Averaged: 1 (USB2+H05261)
Boxcar Smoothing: 0 (USB2+H05261)
Correct for Electrical Dark: No (USB2+H05261)
Strobe/Lamp Enabled: No (USB2+H05261)
Correct for Detector Non-linearity: No (USB2+H05261)
Correct for Stray Light: No (USB2+H05261)
Number of Pixels in Processed Spectrum: 2048
>>>>>Begin Processed Spectral Data<<<<<
365.73	290.23
365.92	290.23
366.12	290.23
366.32	308.95
366.52	224.69
366.72	273.84
366.91	238.73
367.11	203.63
367.31	140.43
367.51	280.86
367.70	215.33
367.90	255.12
368.10	229.37
368.30	269.16
368.49	196.60
368.69	269.16
368.89	280.86
369.09	257.46
369.28	271.50
369.48	238.73
369.68	337.04
369.87	308.95
370.07	259.80
370.27	259.80
370.47	337.04
370.66	318.31
370.86	292.57
371.06	341.72
371.25	362.78
371.45	395.55
371.65	402.57
371.84	425.98
372.04	414.27
372.24	330.02
372.44	369.80
372.63	437.68
372.83	353.42
373.03	362.78
373.22	355.76
373.42	407.25
373.62	418.96
373.81	444.70
374.01	362.78
374.21	463.43
374.40	430.66
374.60	388.53
374.79	421.30
374.99	449.38
375.19	440.02
375.38	472.79
375.58	383.85
375.78	433.00
375.97	351.08
376.17	500.87
376.37	454.06
376.56	454.06
376.76	388.53
376.95	428.32
377.15	367.46
377.35	397.89
377.54	411.93
377.74	386.19
377.93	416.62
378.13	423.64
378.33	437.68
378.52	404.91
378.72	402.57
378.91	428.32
379.11	397.89
379.31	416.62
379.50	327.68
379.70	372.15
379.89	470.45
380.09	421.30
380.28	400.23
380.48	421.30
380.68	379.17
380.87	273.84
381.07	407.25
381.26	465.77
381.46	386.19
381.65	409.59
381.85	299.59
382.04	418.96
382.24	430.66
382.43	397.89
382.63	423.64
382.83	416.62
383.02	442.36
383.22	442.36
383.41	414.27
383.61	402.57
383.80	339.38
384.00	451.72
384.19	430.66
384.39	411.93
384.58	416.62
384.78	402.57
384.97	475.13
385.17	411.93
385.36	449.38
385.56	374.49
385.75	383.85
385.95	454.06
386.14	433.00
386.34	402.57
386.53	472.79
386.72	440.02
386.92	468.11
387.11	414.27
387.31	369.80
387.50	400.23
387.70	456.40
387.89	421.30
388.09	386.19
388.28	451.72
388.48	379.17
388.67	444.70
388.86	447.04
389.06	365.12
389.25	411.93
389.45	402.57
389.64	451.72
389.84	397.89
390.03	395.55
390.22	437.68
390.42	397.89
390.61	433.00
390.81	365.12
391.00	404.91
391.19	367.46
391.39	528.96
391.58	454.06
391.78	442.36
391.97	388.53
392.16	409.59
392.36	402.57
392.55	451.72
392.75	386.19
392.94	425.98
393.13	376.83
393.33	416.62
393.52	400.23
393.71	454.06
393.91	449.38
394.10	287.89
394.29	423.64
394.49	428.32
394.68	475.13
394.88	433.00
395.07	402.57
395.26	376.83
395.46	386.19
395.65	395.55
395.84	348.74
396.04	486.83
396.23	346.40
396.42	381.51
396.62	416.62
396.81	367.46
397.00	334.70
397.19	456.40
397.39	423.64
397.58	404.91
397.77	315.97
397.97	376.83
398.16	423.64
398.35	430.66
398.55	376.83
398.74	430.66
398.93	397.89
399.12	390.87
399.32	428.32
399.51	376.83
399.70	437.68
399.90	397.89
400.09	404.91
400.28	425.98
400.47	425.98
400.67	435.34
400.86	355.76
401.05	348.74
401.24	397.89
401.44	381.51
401.63	428.32
401.82	430.66
402.01	386.19
402.21	404.91
402.40	367.46
402.59	341.72
402.78	435.34
402.97	428.32
403.17	503.22
403.36	465.77
403.55	409.59
403.74	451.72
403.93	404.91
404.13	376.83
404.32	351.08
404.51	390.87
404.70	421.30
404.89	447.04
405.09	409.59
405.28	442.36
405.47	386.19
405.66	386.19
405.85	449.38
406.05	299.59
406.24	414.27
406.43	463.43
406.62	383.85
406.81	458.74
407.00	454.06
407.20	353.42
407.39	458.74
407.58	409.59
407.77	379.17
407.96	414.27
408.15	418.96
408.34	390.87
408.54	397.89
408.73	360.44
408.92	400.23
409.11	418.96
409.30	402.57
409.49	428.32
409.68	379.17
409.87	454.06
410.07	388.53
410.26	386.19
410.45	454.06
410.64	379.17
410.83	442.36
411.02	390.87
411.21	339.38
411.40	400.23
411.59	437.68
411.78	409.59
411.98	374.49
412.17	416.62
412.36	404.91
412.55	437.68
412.74	400.23
412.93	374.49
413.12	402.57
413.31	400.23
413.50	388.53
413.69	458.74
413.88	393.21
414.07	372.15
414.26	449.38
414.45	355.76
414.64	454.06
414.83	414.27
415.02	379.17
415.22	402.57
415.41	416.62
415.60	468.11
415.79	404.91
415.98	451.72
416.17	397.89
416.36	320.65
416.55	362.78
416.74	440.02
416.93	327.68
417.12	440.02
417.31	425.98
417.50	344.06
417.69	400.23
417.88	362.78
418.07	423.64
418.26	468.11
418.45	423.64
418.64	479.81
418.83	414.27
419.02	449.38
419.21	414.27
419.39	346.40
419.58	409.59
419.77	423.64
419.96	351.08
420.15	400.23
420.34	386.19
420.53	351.08
420.72	489.17
420.91	358.10
421.10	440.02
421.29	411.93
421.48	498.53
421.67	425.98
421.86	376.83
422.05	400.23
422.24	346.40
422.43	468.11
422.61	397.89
422.80	433.00
422.99	411.93
423.18	393.21
423.37	402.57
423.56	475.13
423.75	451.72
423.94	416.62
424.13	458.74
424.32	463.43
424.50	454.06
424.69	442.36
424.88	433.00
425.07	407.25
425.26	409.59
425.45	397.89
425.64	468.11
425.83	451.72
426.01	437.68
426.20	372.15
426.39	440.02
426.58	402.57
426.77	428.32
426.96	376.83
427.15	433.00
427.33	358.10
427.52	449.38
427.71	442.36
427.90	390.87
428.09	367.46
428.28	355.76
428.46	386.19
428.65	458.74
428.84	330.02
429.03	444.70
429.22	383.85
429.40	397.89
429.59	346.40
429.78	500.87
429.97	461.09
430.16	390.87
430.34	451.72
430.53	444.70
430.72	423.64
430.91	409.59
431.10	390.87
431.28	418.96
431.47	334.70
431.66	376.83
431.85	369.80
432.03	402.57
432.22	472.79
432.41	395.55
432.60	425.98
432.79	425.98
432.97	386.19
433.16	414.27
433.35	386.19
433.54	372.15
433.72	416.62
433.91	425.98
434.10	430.66
434.28	414.27
434.47	421.30
434.66	411.93
434.85	400.23
435.03	355.76
435.22	337.04
435.41	482.15
435.59	449.38
435.78	433.00
435.97	435.34
436.16	468.11
436.34	367.46
436.53	425.98
436.72	468.11
436.90	386.19
437.09	428.32
437.28	407.25
437.46	416.62
437.65	416.62
437.84	491.51
438.02	381.51
438.21	433.00
438.40	341.72
438.58	367.46
438.77	393.21
438.96	374.49
439.14	353.42
439.33	437.68
439.52	435.34
439.70	386.19
439.89	411.93
440.08	367.46
440.26	425.98
440.45	428.32
440.63	395.55
440.82	402.57
441.01	374.49
441.19	369.80
441.38	379.17
441.57	402.57
441.75	491.51
441.94	395.55
442.12	423.64
442.31	379.17
442.50	458.74
442.68	395.55
442.87	470.45
443.05	430.66
443.24	390.87
443.43	414.27
443.61	395.55
443.80	374.49
443.98	365.12
444.17	397.89
444.35	447.04
444.54	435.34
444.73	383.85
444.91	498.53
445.10	376.83
445.28	491.51
445.47	437.68
445.65	486.83
445.84	421.30
446.02	409.59
446.21	442.36
446.39	423.64
446.58	423.64
446.77	447.04
446.95	409.59
447.14	418.96
447.32	437.68
447.51	437.68
447.69	414.27
447.88	456.40
448.06	430.66
448.25	386.19
448.43	400.23
448.62	402.57
448.80	355.76
448.99	458.74
449.17	437.68
449.36	362.78
449.54	404.91
449.73	397.89
449.91	493.85
450.10	437.68
450.28	458.74
450.46	407.25
450.65	498.53
450.83	376.83
451.02	402.57
451.20	374.49
451.39	425.98
451.57	407.25
451.76	367.46
451.94	381.51
452.13	430.66
452.31	418.96
452.49	428.32
452.68	372.15
452.86	376.83
453.05	521.94
453.23	479.81
453.42	367.46
453.60	428.32
453.78	447.04
453.97	386.19
454.15	369.80
454.34	388.53
454.52	383.85
454.70	454.06
454.89	411.93
455.07	433.00
455.26	397.89
455.44	430.66
455.62	433.00
455.81	383.85
455.99	369.80
456.17	444.70
456.36	409.59
456.54	425.98
456.73	383.85
456.91	414.27
457.09	449.38
457.28	430.66
457.46	411.93
457.64	395.55
457.83	428.32
458.01	411.93
458.19	411.93
458.38	395.55
458.56	416.62
458.74	430.66
458.93	510.24
459.11	383.85
459.29	451.72
459.48	337.04
459.66	367.46
459.84	430.66
460.03	456.40
460.21	440.02
460.39	402.57
460.57	362.78
460.76	418.96
460.94	489.17
461.12	428.32
461.31	416.62
461.49	519.60
461.67	313.63
461.85	376.83
462.04	393.21
462.22	671.73
462.40	437.68
462.59	416.62
462.77	440.02
462.95	362.78
463.13	421.30
463.32	423.64
463.50	395.55
463.68	430.66
463.86	395.55
464.05	423.64
464.23	416.62
464.41	503.22
464.59	400.23
464.78	379.17
464.96	334.70
465.14	397.89
465.32	360.44
465.50	395.55
465.69	489.17
465.87	444.70
466.05	395.55
466.23	348.74
466.41	451.72
466.60	421.30
466.78	418.96
466.96	454.06
467.14	479.81
467.32	437.68
467.51	477.47
467.69	449.38
467.87	440.02
468.05	447.04
468.23	409.59
468.41	437.68
468.60	454.06
468.78	379.17
468.96	393.21
469.14	393.21
469.32	348.74
469.50	381.51
469.69	390.87
469.87	409.59
470.05	365.12
470.23	397.89
470.41	418.96
470.59	404.91
470.77	449.38
470.95	425.98
471.14	433.00
471.32	411.93
471.50	400.23
471.68	397.89
471.86	418.96
472.04	425.98
472.22	414.27
472.40	416.62
472.58	458.74
472.77	374.49
472.95	395.55
473.13	489.17
473.31	503.22
473.49	266.82
473.67	369.80
473.85	468.11
474.03	425.98
474.21	425.98
474.39	461.09
474.57	386.19
474.75	369.80
474.93	437.68
475.12	423.64
475.30	416.62
475.48	479.81
475.66	428.32
475.84	388.53
476.02	400.23
476.20	397.89
476.38	461.09
476.56	472.79
476.74	456.40
476.92	418.96
477.10	437.68
477.28	454.06
477.46	435.34
477.64	435.34
477.82	397.89
478.00	451.72
478.18	400.23
478.36	407.25
478.54	400.23
478.72	444.70
478.90	421.30
479.08	421.30
479.26	425.98
479.44	418.96
479.62	428.32
479.80	505.56
479.98	479.81
480.16	423.64
480.34	376.83
480.52	428.32
480.70	367.46
480.88	447.04
481.06	433.00
481.24	407.25
481.41	388.53
481.59	472.79
481.77	449.38
481.95	414.27
482.13	416.62
482.31	430.66
482.49	397.89
482.67	456.40
482.85	470.45
483.03	461.09
483.21	421.30
483.39	374.49
483.57	369.80
483.74	472.79
483.92	402.57
484.10	409.59
484.28	456.40
484.46	517.26
484.64	421.30
484.82	435.34
485.00	425.98
485.18	395.55
485.35	447.04
485.53	458.74
485.71	404.91
485.89	395.55
486.07	395.55
486.25	404.91
486.43	416.62
486.61	414.27
486.78	416.62
486.96	416.62
487.14	400.23
487.32	414.27
487.50	383.85
487.68	390.87
487.85	395.55
488.03	425.98
488.21	456.40
488.39	423.64
488.57	437.68
488.75	428.32
488.92	493.85
489.10	376.83
489.28	447.04
489.46	411.93
489.64	428.32
489.81	341.72
489.99	386.19
490.17	407.25
490.35	461.09
490.53	404.91
490.70	418.96
490.88	458.74
491.06	362.78
491.24	458.74
491.41	479.81
491.59	407.25
491.77	461.09
491.95	374.49
492.13	447.04
492.30	416.62
492.48	341.72
492.66	463.43
492.84	404.91
493.01	386.19
493.19	388.53
493.37	447.04
493.54	519.60
493.72	458.74
493.90	402.57
494.08	402.57
494.25	393.21
494.43	407.25
494.61	402.57
494.79	393.21
494.96	421.30
495.14	395.55
495.32	372.15
495.49	414.27
495.67	461.09
495.85	348.74
496.02	397.89
496.20	407.25
496.38	423.64
496.55	458.74
496.73	393.21
496.91	407.25
497.09	442.36
497.26	428.32
497.44	421.30
497.62	404.91
497.79	447.04
497.97	421.30
498.14	423.64
498.32	463.43
498.50	451.72
498.67	409.59
498.85	421.30
499.03	472.79
499.20	461.09
499.38	423.64
499.56	428.32
499.73	498.53
499.91	414.27
500.08	428.32
500.26	383.85
500.44	379.17
500.61	407.25
500.79	470.45
500.97	430.66
501.14	454.06
501.32	484.49
501.49	526.62
501.67	369.80
501.84	388.53
502.02	355.76
502.20	451.72
502.37	442.36
502.55	435.34
502.72	404.91
502.90	451.72
503.07	402.57
503.25	390.87
503.43	365.12
503.60	433.00
503.78	411.93
503.95	374.49
504.13	304.27
504.30	442.36
504.48	393.21
504.65	430.66
504.83	444.70
505.01	528.96
505.18	449.38
505.36	463.43
505.53	444.70
505.71	393.21
505.88	528.96
506.06	437.68
506.23	409.59
506.41	362.78
506.58	442.36
506.76	456.40
506.93	447.04
507.11	402.57
507.28	425.98
507.46	461.09
507.63	454.06
507.81	430.66
507.98	461.09
508.16	463.43
508.33	353.42
508.50	449.38
508.68	353.42
508.85	451.72
509.03	451.72
509.20	362.78
509.38	411.93
509.55	442.36
509.73	468.11
509.90	411.93
510.08	388.53
510.25	479.81
510.42	461.09
510.60	458.74
510.77	425.98
510.95	344.06
511.12	393.21
511.30	404.91
511.47	402.57
511.64	477.47
511.82	409.59
511.99	428.32
512.17	381.51
512.34	430.66
512.51	341.72
512.69	339.38
512.86	425.98
513.04	388.53
513.21	435.34
513.38	322.99
513.56	407.25
513.73	409.59
513.90	400.23
514.08	369.80
514.25	390.87
514.43	388.53
514.60	381.51
514.77	463.43
514.95	402.57
515.12	430.66
515.29	430.66
515.47	475.13
515.64	414.27
515.81	468.11
515.99	451.72
516.16	500.87
516.33	444.70
516.51	444.70
516.68	423.64
516.85	376.83
517.03	381.51
517.20	379.17
517.37	475.13
517.54	379.17
517.72	409.59
517.89	416.62
518.06	395.55
518.24	442.36
518.41	365.12
518.58	433.00
518.75	379.17
518.93	395.55
519.10	428.32
519.27	409.59
519.45	486.83
519.62	423.64
519.79	479.81
519.96	435.34
520.14	395.55
520.31	435.34
520.48	449.38
520.65	491.51
520.83	421.30
521.00	475.13
521.17	388.53
521.34	421.30
521.52	397.89
521.69	414.27
521.86	437.68
522.03	463.43
522.20	451.72
522.38	386.19
522.55	407.25
522.72	468.11
522.89	484.49
523.07	479.81
523.24	383.85
523.41	374.49
523.58	320.65
523.75	409.59
523.92	383.85
524.10	465.77
524.27	372.15
524.44	463.43
524.61	472.79
524.78	381.51
524.96	433.00
525.13	367.46
525.30	414.27
525.47	475.13
525.64	402.57
525.81	397.89
525.98	479.81
526.16	463.43
526.33	435.34
526.50	341.72
526.67	414.27
526.84	353.42
527.01	393.21
527.18	421.30
527.36	362.78
527.53	423.64
527.70	400.23
527.87	365.12
528.04	444.70
528.21	468.11
528.38	407.25
528.55	407.25
528.72	414.27
528.89	421.30
529.07	365.12
529.24	421.30
529.41	390.87
529.58	433.00
529.75	468.11
529.92	437.68
530.09	451.72
530.26	379.17
530.43	390.87
530.60	433.00
530.77	433.00
530.94	475.13
531.11	395.55
531.28	472.79
531.46	414.27
531.63	442.36
531.80	442.36
531.97	454.06
532.14	414.27
532.31	491.51
532.48	437.68
532.65	437.68
532.82	463.43
532.99	477.47
533.16	461.09
533.33	353.42
533.50	465.77
533.67	437.68
533.84	491.51
534.01	437.68
534.18	390.87
534.35	379.17
534.52	409.59
534.69	353.42
534.86	416.62
535.03	435.34
535.20	374.49
535.37	400.23
535.54	447.04
535.71	400.23
535.88	369.80
536.05	397.89
536.22	416.62
536.38	390.87
536.55	416.62
536.72	395.55
536.89	409.59
537.06	425.98
537.23	334.70
537.40	386.19
537.57	409.59
537.74	489.17
537.91	435.34
538.08	454.06
538.25	390.87
538.42	477.47
538.59	489.17
538.75	430.66
538.92	437.68
539.09	444.70
539.26	451.72
539.43	376.83
539.60	411.93
539.77	484.49
539.94	393.21
540.11	463.43
540.28	402.57
540.44	400.23
540.61	475.13
540.78	442.36
540.95	327.68
541.12	500.87
541.29	442.36
541.46	465.77
541.62	390.87
541.79	395.55
541.96	430.66
542.13	442.36
542.30	407.25
542.47	458.74
542.63	449.38
542.80	372.15
542.97	414.27
543.14	414.27
543.31	411.93
543.48	468.11
543.64	456.40
543.81	383.85
543.98	397.89
544.15	433.00
544.32	416.62
544.48	440.02
544.65	421.30
544.82	407.25
544.99	470.45
545.16	458.74
545.32	365.12
545.49	486.83
545.66	348.74
545.83	334.70
546.00	379.17
546.16	470.45
546.33	388.53
546.50	411.93
546.67	447.04
546.83	514.92
547.00	444.70
547.17	409.59
547.34	362.78
547.50	491.51
547.67	491.51
547.84	402.57
548.00	447.04
548.17	397.89
548.34	491.51
548.51	447.04
548.67	428.32
548.84	447.04
549.01	421.30
549.18	397.89
549.34	416.62
549.51	423.64
549.68	339.38
549.84	393.21
550.01	365.12
550.18	404.91
550.34	442.36
550.51	404.91
550.68	470.45
550.84	351.08
551.01	379.17
551.18	414.27
551.34	519.60
551.51	418.96
551.68	411.93
551.84	475.13
552.01	348.74
552.18	421.30
552.34	367.46
552.51	404.91
552.68	416.62
552.84	407.25
553.01	461.09
553.18	360.44
553.34	437.68
553.51	440.02
553.67	505.56
553.84	458.74
554.01	440.02
554.17	425.98
554.34	395.55
554.51	444.70
554.67	444.70
554.84	397.89
555.00	435.34
555.17	423.64
555.33	397.89
555.50	425.98
555.67	465.77
555.83	442.36
556.00	428.32
556.16	521.94
556.33	404.91
556.50	369.80
556.66	444.70
556.83	472.79
556.99	444.70
557.16	416.62
557.32	456.40
557.49	517.26
557.65	421.30
557.82	435.34
557.98	442.36
558.15	451.72
558.32	397.89
558.48	386.19
558.65	477.47
558.81	435.34
558.98	470.45
559.14	456.40
559.31	447.04
559.47	397.89
559.64	418.96
559.80	390.87
559.97	430.66
560.13	390.87
560.30	411.93
560.46	351.08
560.63	400.23
560.79	470.45
560.96	433.00
561.12	423.64
561.29	442.36
561.45	397.89
561.61	414.27
561.78	447.04
561.94	447.04
562.11	416.62
562.27	486.83
562.44	435.34
562.60	437.68
562.77	409.59
562.93	454.06
563.10	414.27
563.26	428.32
563.42	437.68
563.59	447.04
563.75	442.36
563.92	454.06
564.08	416.62
564.24	418.96
564.41	454.06
564.57	451.72
564.74	390.87
564.90	442.36
565.07	489.17
565.23	496.19
565.39	407.25
565.56	411.93
565.72	374.49
565.88	383.85
566.05	433.00
566.21	418.96
566.38	411.93
566.54	442.36
566.70	404.91
566.87	365.12
567.03	449.38
567.19	381.51
567.36	381.51
567.52	461.09
567.68	421.30
567.85	393.21
568.01	416.62
568.17	430.66
568.34	379.17
568.50	449.38
568.66	458.74
568.83	430.66
568.99	355.76
569.15	449.38
569.32	418.96
569.48	400.23
569.64	430.66
569.81	482.15
569.97	451.72
570.13	428.32
570.30	383.85
570.46	365.12
570.62	423.64
570.78	404.91
570.95	407.25
571.11	379.17
571.27	468.11
571.43	437.68
571.60	379.17
571.76	456.40
571.92	458.74
572.09	393.21
572.25	425.98
572.41	365.12
572.57	416.62
572.74	428.32
572.90	421.30
573.06	395.55
573.22	416.62
573.38	409.59
573.55	430.66
573.71	447.04
573.87	430.66
574.03	437.68
574.20	397.89
574.36	456.40
574.52	454.06
574.68	376.83
574.84	372.15
575.01	456.40
575.17	435.34
575.33	411.93
575.49	393.21
575.65	409.59
575.82	433.00
575.98	418.96
576.14	461.09
576.30	376.83
576.46	425.98
576.62	390.87
576.79	400.23
576.95	475.13
577.11	383.85
577.27	355.76
577.43	400.23
577.59	418.96
577.75	461.09
577.92	428.32
578.08	341.72
578.24	437.68
578.40	430.66
578.56	386.19
578.72	411.93
578.88	451.72
579.04	477.47
579.21	372.15
579.37	454.06
579.53	404.91
579.69	512.58
579.85	416.62
580.01	447.04
580.17	482.15
580.33	381.51
580.49	411.93
580.65	411.93
580.82	430.66
580.98	486.83
581.14	463.43
581.30	538.32
581.46	437.68
581.62	428.32
581.78	416.62
581.94	400.23
582.10	440.02
582.26	463.43
582.42	376.83
582.58	425.98
582.74	397.89
582.90	327.68
583.06	421.30
583.22	411.93
583.38	372.15
583.54	418.96
583.70	510.24
583.86	395.55
584.02	435.34
584.18	437.68
584.34	435.34
584.50	425.98
584.66	433.00
584.82	362.78
584.98	372.15
585.14	376.83
585.30	486.83
585.46	503.22
585.62	444.70
585.78	365.12
585.94	440.02
586.10	407.25
586.26	374.49
586.42	437.68
586.58	486.83
586.74	475.13
586.90	437.68
587.06	463.43
587.22	486.83
587.38	418.96
587.54	433.00
587.70	440.02
587.86	386.19
588.02	381.51
588.18	400.23
588.34	418.96
588.49	404.91
588.65	430.66
588.81	430.66
588.97	407.25
589.13	390.87
589.29	407.25
589.45	433.00
589.61	489.17
589.77	414.27
589.93	358.10
590.08	414.27
590.24	428.32
590.40	449.38
590.56	456.40
590.72	374.49
590.88	362.78
591.04	437.68
591.20	269.16
591.35	496.19
591.51	451.72
591.67	344.06
591.83	421.30
591.99	437.68
592.15	379.17
592.31	409.59
592.46	449.38
592.62	402.57
592.78	451.72
592.94	461.09
593.10	409.59
593.26	449.38
593.41	449.38
593.57	421.30
593.73	367.46
593.89	393.21
594.05	365.12
594.20	386.19
594.36	433.00
594.52	416.62
594.68	423.64
594.84	503.22
594.99	451.72
595.15	484.49
595.31	416.62
595.47	440.02
595.62	372.15
595.78	414.27
595.94	407.25
596.10	404.91
596.25	437.68
596.41	472.79
596.57	461.09
596.73	451.72
596.88	411.93
597.04	334.70
597.20	386.19
597.36	425.98
597.51	463.43
597.67	393.21
597.83	442.36
597.99	362.78
598.14	423.64
598.30	418.96
598.46	477.47
598.61	489.17
598.77	442.36
598.93	437.68
599.09	341.72
599.24	484.49
599.40	423.64
599.56	395.55
599.71	409.59
599.87	381.51
600.03	423.64
600.18	355.76
600.34	468.11
600.50	390.87
600.65	409.59
600.81	442.36
600.97	367.46
601.12	423.64
601.28	381.51
601.44	360.44
601.59	444.70
601.75	428.32
601.91	414.27
602.06	407.25
602.22	465.77
602.37	404.91
602.53	433.00
602.69	477.47
602.84	379.17
603.00	409.59
603.16	400.23
603.31	484.49
603.47	437.68
603.62	397.89
603.78	500.87
603.94	430.66
604.09	390.87
604.25	526.62
604.40	409.59
604.56	404.91
604.71	461.09
604.87	372.15
605.03	409.59
605.18	437.68
605.34	451.72
605.49	353.42
605.65	433.00
605.80	404.91
605.96	411.93
606.12	407.25
606.27	545.34
606.43	454.06
606.58	437.68
606.74	411.93
606.89	451.72
607.05	360.44
607.20	404.91
607.36	458.74
607.51	433.00
607.67	437.68
607.82	444.70
607.98	442.36
608.13	430.66
608.29	454.06
608.44	458.74
608.60	423.64
608.75	437.68
608.91	421.30
609.06	411.93
609.22	341.72
609.37	393.21
609.53	409.59
609.68	433.00
609.84	463.43
609.99	496.19
610.15	444.70
