SpectraSuite Data File
++++++++++++++++++++++++++++++++++++
Date: Fri Oct 25 12:10:27 EDT 2013
User: price-jones
Dark Spectrum Present: No
Reference Spectrum Present: No
Number of Sampled Component Spectra: 1
Spectrometers: USB2+H05261
Integration Time (usec): 100000 (USB2+H05261)
Spectra Averaged: 1 (USB2+H05261)
Boxcar Smoothing: 0 (USB2+H05261)
Correct for Electrical Dark: No (USB2+H05261)
Strobe/Lamp Enabled: No (USB2+H05261)
Correct for Detector Non-linearity: No (USB2+H05261)
Correct for Stray Light: No (USB2+H05261)
Number of Pixels in Processed Spectrum: 2048
>>>>>Begin Processed Spectral Data<<<<<
365.73	280.86
365.92	280.86
366.12	280.86
366.32	308.95
366.52	208.31
366.72	266.82
366.91	290.23
367.11	175.54
367.31	234.05
367.51	177.88
367.70	194.26
367.90	278.52
368.10	271.50
368.30	194.26
368.49	210.65
368.69	330.02
368.89	266.82
369.09	245.76
369.28	299.59
369.48	372.15
369.68	299.59
369.87	287.89
370.07	280.86
370.27	311.29
370.47	369.80
370.66	292.57
370.86	315.97
371.06	428.32
371.25	393.21
371.45	383.85
371.65	454.06
371.84	318.31
372.04	440.02
372.24	376.83
372.44	435.34
372.63	395.55
372.83	425.98
373.03	430.66
373.22	411.93
373.42	411.93
373.62	414.27
373.81	496.19
374.01	400.23
374.21	374.49
374.40	358.10
374.60	440.02
374.79	416.62
374.99	477.47
375.19	362.78
375.38	430.66
375.58	440.02
375.78	416.62
375.97	447.04
376.17	463.43
376.37	362.78
376.56	381.51
376.76	379.17
376.95	451.72
377.15	374.49
377.35	463.43
377.54	416.62
377.74	411.93
377.93	388.53
378.13	468.11
378.33	388.53
378.52	444.70
378.72	447.04
378.91	521.94
379.11	404.91
379.31	395.55
379.50	393.21
379.70	395.55
379.89	418.96
380.09	423.64
380.28	390.87
380.48	418.96
380.68	411.93
380.87	388.53
381.07	358.10
381.26	402.57
381.46	447.04
381.65	395.55
381.85	416.62
382.04	397.89
382.24	411.93
382.43	346.40
382.63	430.66
382.83	332.36
383.02	402.57
383.22	447.04
383.41	346.40
383.61	456.40
383.80	393.21
384.00	437.68
384.19	393.21
384.39	339.38
384.58	390.87
384.78	451.72
384.97	381.51
385.17	381.51
385.36	437.68
385.56	425.98
385.75	421.30
385.95	374.49
386.14	358.10
386.34	353.42
386.53	416.62
386.72	404.91
386.92	425.98
387.11	376.83
387.31	433.00
387.50	414.27
387.70	407.25
387.89	372.15
388.09	360.44
388.28	414.27
388.48	353.42
388.67	454.06
388.86	353.42
389.06	397.89
389.25	428.32
389.45	344.06
389.64	379.17
389.84	423.64
390.03	440.02
390.22	449.38
390.42	393.21
390.61	451.72
390.81	414.27
391.00	381.51
391.19	428.32
391.39	435.34
391.58	416.62
391.78	409.59
391.97	376.83
392.16	367.46
392.36	414.27
392.55	416.62
392.75	374.49
392.94	365.12
393.13	386.19
393.33	348.74
393.52	337.04
393.71	400.23
393.91	421.30
394.10	428.32
394.29	402.57
394.49	423.64
394.68	437.68
394.88	397.89
395.07	442.36
395.26	423.64
395.46	411.93
395.65	379.17
395.84	433.00
396.04	472.79
396.23	407.25
396.42	416.62
396.62	491.51
396.81	362.78
397.00	395.55
397.19	437.68
397.39	393.21
397.58	393.21
397.77	341.72
397.97	386.19
398.16	416.62
398.35	390.87
398.55	332.36
398.74	433.00
398.93	433.00
399.12	341.72
399.32	425.98
399.51	437.68
399.70	496.19
399.90	376.83
400.09	463.43
400.28	470.45
400.47	428.32
400.67	440.02
400.86	374.49
401.05	425.98
401.24	414.27
401.44	355.76
401.63	479.81
401.82	376.83
402.01	433.00
402.21	407.25
402.40	411.93
402.59	423.64
402.78	404.91
402.97	365.12
403.17	468.11
403.36	411.93
403.55	358.10
403.74	383.85
403.93	451.72
404.13	442.36
404.32	362.78
404.51	425.98
404.70	407.25
404.89	416.62
405.09	425.98
405.28	362.78
405.47	463.43
405.66	411.93
405.85	402.57
406.05	416.62
406.24	433.00
406.43	454.06
406.62	440.02
406.81	402.57
407.00	444.70
407.20	404.91
407.39	404.91
407.58	388.53
407.77	425.98
407.96	397.89
408.15	418.96
408.34	411.93
408.54	395.55
408.73	341.72
408.92	444.70
409.11	397.89
409.30	409.59
409.49	351.08
409.68	383.85
409.87	344.06
410.07	332.36
410.26	465.77
410.45	402.57
410.64	428.32
410.83	397.89
411.02	425.98
411.21	393.21
411.40	425.98
411.59	458.74
411.78	416.62
411.98	346.40
412.17	379.17
412.36	418.96
412.55	440.02
412.74	440.02
412.93	463.43
413.12	369.80
413.31	543.00
413.50	411.93
413.69	388.53
413.88	484.49
414.07	404.91
414.26	423.64
414.45	409.59
414.64	369.80
414.83	397.89
415.02	475.13
415.22	416.62
415.41	442.36
415.60	390.87
415.79	451.72
415.98	456.40
416.17	379.17
416.36	428.32
416.55	383.85
416.74	409.59
416.93	449.38
417.12	435.34
417.31	484.49
417.50	510.24
417.69	444.70
417.88	428.32
418.07	388.53
418.26	395.55
418.45	379.17
418.64	449.38
418.83	428.32
419.02	409.59
419.21	435.34
419.39	383.85
419.58	386.19
419.77	395.55
419.96	409.59
420.15	414.27
420.34	393.21
420.53	402.57
420.72	433.00
420.91	330.02
421.10	400.23
421.29	463.43
421.48	475.13
421.67	468.11
421.86	360.44
422.05	395.55
422.24	498.53
422.43	407.25
422.61	339.38
422.80	449.38
422.99	421.30
423.18	447.04
423.37	461.09
423.56	386.19
423.75	411.93
423.94	428.32
424.13	407.25
424.32	416.62
424.50	393.21
424.69	435.34
424.88	444.70
425.07	437.68
425.26	433.00
425.45	416.62
425.64	407.25
425.83	425.98
426.01	461.09
426.20	465.77
426.39	416.62
426.58	346.40
426.77	383.85
426.96	397.89
427.15	360.44
427.33	414.27
427.52	451.72
427.71	397.89
427.90	416.62
428.09	416.62
428.28	367.46
428.46	458.74
428.65	442.36
428.84	444.70
429.03	404.91
429.22	430.66
429.40	449.38
429.59	369.80
429.78	374.49
429.97	472.79
430.16	442.36
430.34	388.53
430.53	416.62
430.72	404.91
430.91	475.13
431.10	414.27
431.28	402.57
431.47	447.04
431.66	461.09
431.85	395.55
432.03	458.74
432.22	484.49
432.41	463.43
432.60	484.49
432.79	388.53
432.97	360.44
433.16	386.19
433.35	376.83
433.54	395.55
433.72	407.25
433.91	407.25
434.10	383.85
434.28	341.72
434.47	423.64
434.66	472.79
434.85	386.19
435.03	449.38
435.22	547.69
435.41	470.45
435.59	440.02
435.78	381.51
435.97	421.30
436.16	423.64
436.34	379.17
436.53	365.12
436.72	416.62
436.90	395.55
437.09	388.53
437.28	386.19
437.46	449.38
437.65	353.42
437.84	437.68
438.02	465.77
438.21	416.62
438.40	393.21
438.58	362.78
438.77	435.34
438.96	472.79
439.14	418.96
439.33	437.68
439.52	379.17
439.70	423.64
439.89	395.55
440.08	430.66
440.26	386.19
440.45	418.96
440.63	449.38
440.82	407.25
441.01	421.30
441.19	440.02
441.38	418.96
441.57	355.76
441.75	409.59
441.94	447.04
442.12	442.36
442.31	449.38
442.50	418.96
442.68	458.74
442.87	440.02
443.05	386.19
443.24	456.40
443.43	428.32
443.61	421.30
443.80	437.68
443.98	379.17
444.17	461.09
444.35	454.06
444.54	454.06
444.73	376.83
444.91	400.23
445.10	416.62
445.28	433.00
445.47	360.44
445.65	451.72
445.84	393.21
446.02	440.02
446.21	435.34
446.39	433.00
446.58	444.70
446.77	346.40
446.95	416.62
447.14	402.57
447.32	456.40
447.51	477.47
447.69	388.53
447.88	437.68
448.06	470.45
448.25	383.85
448.43	355.76
448.62	416.62
448.80	397.89
448.99	454.06
449.17	414.27
449.36	411.93
449.54	468.11
449.73	365.12
449.91	444.70
450.10	397.89
450.28	461.09
450.46	456.40
450.65	379.17
450.83	440.02
451.02	402.57
451.20	414.27
451.39	421.30
451.57	355.76
451.76	444.70
451.94	360.44
452.13	367.46
452.31	369.80
452.49	430.66
452.68	409.59
452.86	484.49
453.05	500.87
453.23	355.76
453.42	411.93
453.60	411.93
453.78	468.11
453.97	456.40
454.15	463.43
454.34	451.72
454.52	435.34
454.70	479.81
454.89	390.87
455.07	477.47
455.26	383.85
455.44	400.23
455.62	423.64
455.81	388.53
455.99	369.80
456.17	402.57
456.36	360.44
456.54	372.15
456.73	430.66
456.91	421.30
457.09	472.79
457.28	507.90
457.46	379.17
457.64	442.36
457.83	486.83
458.01	407.25
458.19	367.46
458.38	461.09
458.56	440.02
458.74	386.19
458.93	454.06
459.11	456.40
459.29	465.77
459.48	379.17
459.66	390.87
459.84	463.43
460.03	468.11
460.21	411.93
460.39	425.98
460.57	397.89
460.76	489.17
460.94	482.15
461.12	421.30
461.31	451.72
461.49	418.96
461.67	444.70
461.85	376.83
462.04	472.79
462.22	842.59
462.40	493.85
462.59	489.17
462.77	407.25
462.95	388.53
463.13	397.89
463.32	397.89
463.50	393.21
463.68	433.00
463.86	386.19
464.05	456.40
464.23	435.34
464.41	421.30
464.59	465.77
464.78	465.77
464.96	418.96
465.14	395.55
465.32	454.06
465.50	458.74
465.69	444.70
465.87	390.87
466.05	531.30
466.23	376.83
466.41	388.53
466.60	402.57
466.78	376.83
466.96	435.34
467.14	376.83
467.32	416.62
467.51	411.93
467.69	421.30
467.87	428.32
468.05	416.62
468.23	379.17
468.41	430.66
468.60	479.81
468.78	440.02
468.96	461.09
469.14	409.59
469.32	411.93
469.50	374.49
469.69	348.74
469.87	456.40
470.05	376.83
470.23	472.79
470.41	400.23
470.59	397.89
470.77	400.23
470.95	400.23
471.14	465.77
471.32	421.30
471.50	456.40
471.68	397.89
471.86	404.91
472.04	444.70
472.22	411.93
472.40	475.13
472.58	383.85
472.77	409.59
472.95	400.23
473.13	423.64
473.31	397.89
473.49	390.87
473.67	430.66
473.85	383.85
474.03	493.85
474.21	463.43
474.39	491.51
474.57	444.70
474.75	456.40
474.93	353.42
475.12	430.66
475.30	449.38
475.48	379.17
475.66	414.27
475.84	376.83
476.02	360.44
476.20	482.15
476.38	442.36
476.56	404.91
476.74	386.19
476.92	425.98
477.10	468.11
477.28	461.09
477.46	358.10
477.64	393.21
477.82	381.51
478.00	400.23
478.18	454.06
478.36	393.21
478.54	348.74
478.72	418.96
478.90	397.89
479.08	449.38
479.26	428.32
479.44	442.36
479.62	449.38
479.80	421.30
479.98	423.64
480.16	444.70
480.34	451.72
480.52	425.98
480.70	397.89
480.88	458.74
481.06	428.32
481.24	395.55
481.41	390.87
481.59	500.87
481.77	447.04
481.95	374.49
482.13	416.62
482.31	433.00
482.49	379.17
482.67	393.21
482.85	428.32
483.03	418.96
483.21	360.44
483.39	451.72
483.57	376.83
483.74	437.68
483.92	397.89
484.10	442.36
484.28	332.36
484.46	447.04
484.64	372.15
484.82	433.00
485.00	428.32
485.18	374.49
485.35	454.06
485.53	447.04
485.71	440.02
485.89	372.15
486.07	433.00
486.25	465.77
486.43	416.62
486.61	421.30
486.78	418.96
486.96	393.21
487.14	411.93
487.32	449.38
487.50	362.78
487.68	430.66
487.85	442.36
488.03	435.34
488.21	433.00
488.39	491.51
488.57	428.32
488.75	430.66
488.92	496.19
489.10	489.17
489.28	414.27
489.46	449.38
489.64	383.85
489.81	397.89
489.99	447.04
490.17	402.57
490.35	503.22
490.53	393.21
490.70	421.30
490.88	435.34
491.06	397.89
491.24	479.81
491.41	430.66
491.59	397.89
491.77	381.51
491.95	407.25
492.13	402.57
492.30	390.87
492.48	475.13
492.66	463.43
492.84	447.04
493.01	421.30
493.19	482.15
493.37	430.66
493.54	430.66
493.72	367.46
493.90	395.55
494.08	322.99
494.25	475.13
494.43	383.85
494.61	372.15
494.79	393.21
494.96	348.74
495.14	367.46
495.32	425.98
495.49	423.64
495.67	418.96
495.85	395.55
496.02	388.53
496.20	421.30
496.38	416.62
496.55	367.46
496.73	454.06
496.91	451.72
497.09	437.68
497.26	440.02
497.44	390.87
497.62	430.66
497.79	440.02
497.97	374.49
498.14	402.57
498.32	475.13
498.50	440.02
498.67	407.25
498.85	386.19
499.03	435.34
499.20	372.15
499.38	390.87
499.56	400.23
499.73	463.43
499.91	458.74
500.08	507.90
500.26	416.62
500.44	348.74
500.61	416.62
500.79	404.91
500.97	524.28
501.14	425.98
501.32	433.00
501.49	465.77
501.67	348.74
501.84	493.85
502.02	372.15
502.20	437.68
502.37	418.96
502.55	470.45
502.72	383.85
502.90	507.90
503.07	463.43
503.25	388.53
503.43	383.85
503.60	454.06
503.78	362.78
503.95	353.42
504.13	409.59
504.30	365.12
504.48	458.74
504.65	442.36
504.83	416.62
505.01	362.78
505.18	362.78
505.36	388.53
505.53	411.93
505.71	435.34
505.88	421.30
506.06	397.89
506.23	465.77
506.41	416.62
506.58	372.15
506.76	458.74
506.93	383.85
507.11	374.49
507.28	341.72
507.46	390.87
507.63	393.21
507.81	414.27
507.98	407.25
508.16	404.91
508.33	444.70
508.50	411.93
508.68	505.56
508.85	423.64
509.03	404.91
509.20	423.64
509.38	479.81
509.55	437.68
509.73	430.66
509.90	435.34
510.08	447.04
510.25	449.38
510.42	430.66
510.60	393.21
510.77	393.21
510.95	440.02
511.12	437.68
511.30	416.62
511.47	463.43
511.64	404.91
511.82	421.30
511.99	393.21
512.17	416.62
512.34	449.38
512.51	383.85
512.69	468.11
512.86	381.51
513.04	365.12
513.21	409.59
513.38	503.22
513.56	381.51
513.73	425.98
513.90	311.29
514.08	390.87
514.25	365.12
514.43	423.64
514.60	440.02
514.77	433.00
514.95	409.59
515.12	414.27
515.29	397.89
515.47	395.55
515.64	362.78
515.81	372.15
515.99	369.80
516.16	447.04
516.33	428.32
516.51	416.62
516.68	416.62
516.85	505.56
517.03	404.91
517.20	383.85
517.37	435.34
517.54	447.04
517.72	299.59
517.89	414.27
518.06	397.89
518.24	402.57
518.41	531.30
518.58	430.66
518.75	404.91
518.93	416.62
519.10	472.79
519.27	435.34
519.45	360.44
519.62	425.98
519.79	414.27
519.96	388.53
520.14	454.06
520.31	503.22
520.48	421.30
520.65	442.36
520.83	500.87
521.00	425.98
521.17	435.34
521.34	475.13
521.52	407.25
521.69	463.43
521.86	306.61
522.03	433.00
522.20	397.89
522.38	496.19
522.55	479.81
522.72	360.44
522.89	407.25
523.07	470.45
523.24	416.62
523.41	393.21
523.58	393.21
523.75	397.89
523.92	430.66
524.10	376.83
524.27	416.62
524.44	430.66
524.61	505.56
524.78	425.98
524.96	421.30
525.13	411.93
525.30	461.09
525.47	458.74
525.64	390.87
525.81	418.96
525.98	447.04
526.16	381.51
526.33	442.36
526.50	421.30
526.67	390.87
526.84	514.92
527.01	430.66
527.18	451.72
527.36	421.30
527.53	425.98
527.70	400.23
527.87	423.64
528.04	444.70
528.21	397.89
528.38	477.47
528.55	435.34
528.72	411.93
528.89	425.98
529.07	397.89
529.24	465.77
529.41	454.06
529.58	437.68
529.75	430.66
529.92	353.42
530.09	479.81
530.26	465.77
530.43	395.55
530.60	390.87
530.77	376.83
530.94	414.27
531.11	418.96
531.28	411.93
531.46	451.72
531.63	423.64
531.80	411.93
531.97	416.62
532.14	301.93
532.31	500.87
532.48	381.51
532.65	369.80
532.82	402.57
532.99	461.09
533.16	372.15
533.33	365.12
533.50	351.08
533.67	440.02
533.84	461.09
534.01	393.21
534.18	402.57
534.35	484.49
534.52	414.27
534.69	428.32
534.86	435.34
535.03	418.96
535.20	404.91
535.37	425.98
535.54	437.68
535.71	423.64
535.88	437.68
536.05	400.23
536.22	393.21
536.38	442.36
536.55	400.23
536.72	425.98
536.89	407.25
537.06	411.93
537.23	332.36
537.40	418.96
537.57	358.10
537.74	393.21
537.91	458.74
538.08	461.09
538.25	470.45
538.42	414.27
538.59	454.06
538.75	451.72
538.92	458.74
539.09	456.40
539.26	416.62
539.43	423.64
539.60	386.19
539.77	379.17
539.94	414.27
540.11	440.02
540.28	393.21
540.44	407.25
540.61	381.51
540.78	411.93
540.95	390.87
541.12	430.66
541.29	400.23
541.46	442.36
541.62	421.30
541.79	407.25
541.96	376.83
542.13	397.89
542.30	402.57
542.47	423.64
542.63	379.17
542.80	444.70
542.97	482.15
543.14	425.98
543.31	484.49
543.48	433.00
543.64	386.19
543.81	463.43
543.98	414.27
544.15	325.33
544.32	351.08
544.48	397.89
544.65	444.70
544.82	383.85
544.99	489.17
545.16	423.64
545.32	374.49
545.49	414.27
545.66	390.87
545.83	379.17
546.00	341.72
546.16	435.34
546.33	437.68
546.50	475.13
546.67	369.80
546.83	433.00
547.00	418.96
547.17	339.38
547.34	411.93
547.50	402.57
547.67	425.98
547.84	395.55
548.00	465.77
548.17	402.57
548.34	500.87
548.51	442.36
548.67	437.68
548.84	393.21
549.01	461.09
549.18	421.30
549.34	390.87
549.51	425.98
549.68	301.93
549.84	337.04
550.01	435.34
550.18	421.30
550.34	479.81
550.51	425.98
550.68	442.36
550.84	421.30
551.01	421.30
551.18	414.27
551.34	470.45
551.51	482.15
551.68	402.57
551.84	456.40
552.01	425.98
552.18	395.55
552.34	393.21
552.51	456.40
552.68	407.25
552.84	463.43
553.01	409.59
553.18	402.57
553.34	425.98
553.51	367.46
553.67	407.25
553.84	456.40
554.01	374.49
554.17	428.32
554.34	425.98
554.51	404.91
554.67	418.96
554.84	440.02
555.00	458.74
555.17	458.74
555.33	491.51
555.50	458.74
555.67	393.21
555.83	433.00
556.00	416.62
556.16	538.32
556.33	512.58
556.50	379.17
556.66	458.74
556.83	470.45
556.99	411.93
557.16	367.46
557.32	386.19
557.49	433.00
557.65	418.96
557.82	423.64
557.98	411.93
558.15	484.49
558.32	489.17
558.48	461.09
558.65	346.40
558.81	372.15
558.98	376.83
559.14	479.81
559.31	355.76
559.47	449.38
559.64	386.19
559.80	430.66
559.97	454.06
560.13	388.53
560.30	454.06
560.46	411.93
560.63	400.23
560.79	433.00
560.96	367.46
561.12	393.21
561.29	444.70
561.45	386.19
561.61	407.25
561.78	428.32
561.94	433.00
562.11	468.11
562.27	442.36
562.44	379.17
562.60	393.21
562.77	369.80
562.93	500.87
563.10	388.53
563.26	402.57
563.42	423.64
563.59	362.78
563.75	421.30
563.92	482.15
564.08	383.85
564.24	454.06
564.41	442.36
564.57	430.66
564.74	444.70
564.90	442.36
565.07	463.43
565.23	383.85
565.39	465.77
565.56	376.83
565.72	411.93
565.88	458.74
566.05	409.59
566.21	414.27
566.38	433.00
566.54	376.83
566.70	484.49
566.87	440.02
567.03	379.17
567.19	430.66
567.36	346.40
567.52	365.12
567.68	440.02
567.85	404.91
568.01	430.66
568.17	411.93
568.34	339.38
568.50	418.96
568.66	423.64
568.83	463.43
568.99	397.89
569.15	470.45
569.32	365.12
569.48	383.85
569.64	458.74
569.81	465.77
569.97	437.68
570.13	416.62
570.30	372.15
570.46	386.19
570.62	470.45
570.78	425.98
570.95	325.33
571.11	440.02
571.27	465.77
571.43	449.38
571.60	425.98
571.76	440.02
571.92	437.68
572.09	451.72
572.25	449.38
572.41	458.74
572.57	421.30
572.74	463.43
572.90	461.09
573.06	388.53
573.22	526.62
573.38	463.43
573.55	472.79
573.71	465.77
573.87	407.25
574.03	421.30
574.20	435.34
574.36	510.24
574.52	367.46
574.68	325.33
574.84	468.11
575.01	411.93
575.17	388.53
575.33	388.53
575.49	430.66
575.65	517.26
575.82	400.23
575.98	374.49
576.14	411.93
576.30	365.12
576.46	416.62
576.62	425.98
576.79	458.74
576.95	428.32
577.11	360.44
577.27	395.55
577.43	458.74
577.59	388.53
577.75	423.64
577.92	468.11
578.08	423.64
578.24	451.72
578.40	482.15
578.56	451.72
578.72	397.89
578.88	433.00
579.04	390.87
579.21	400.23
579.37	365.12
579.53	395.55
579.69	362.78
579.85	411.93
580.01	449.38
580.17	407.25
580.33	409.59
580.49	440.02
580.65	411.93
580.82	416.62
580.98	465.77
581.14	435.34
581.30	463.43
581.46	440.02
581.62	388.53
581.78	383.85
581.94	463.43
582.10	402.57
582.26	407.25
582.42	388.53
582.58	376.83
582.74	428.32
582.90	400.23
583.06	451.72
583.22	404.91
583.38	421.30
583.54	404.91
583.70	435.34
583.86	416.62
584.02	468.11
584.18	425.98
584.34	421.30
584.50	379.17
584.66	381.51
584.82	449.38
584.98	374.49
585.14	353.42
585.30	477.47
585.46	440.02
585.62	400.23
585.78	442.36
585.94	425.98
586.10	451.72
586.26	400.23
586.42	414.27
586.58	465.77
586.74	447.04
586.90	465.77
587.06	374.49
587.22	418.96
587.38	418.96
587.54	479.81
587.70	411.93
587.86	442.36
588.02	433.00
588.18	414.27
588.34	547.69
588.49	489.17
588.65	416.62
588.81	418.96
588.97	451.72
589.13	355.76
589.29	386.19
589.45	423.64
589.61	430.66
589.77	421.30
589.93	390.87
590.08	390.87
590.24	383.85
590.40	386.19
590.56	440.02
590.72	367.46
590.88	437.68
591.04	451.72
591.20	414.27
591.35	449.38
591.51	400.23
591.67	425.98
591.83	486.83
591.99	411.93
592.15	435.34
592.31	388.53
592.46	395.55
592.62	444.70
592.78	456.40
592.94	407.25
593.10	376.83
593.26	393.21
593.41	465.77
593.57	449.38
593.73	479.81
593.89	416.62
594.05	414.27
594.20	407.25
594.36	360.44
594.52	388.53
594.68	381.51
594.84	404.91
594.99	470.45
595.15	458.74
595.31	404.91
595.47	545.34
595.62	395.55
595.78	456.40
595.94	400.23
596.10	404.91
596.25	337.04
596.41	407.25
596.57	470.45
596.73	423.64
596.88	414.27
597.04	409.59
597.20	425.98
597.36	418.96
597.51	397.89
597.67	411.93
597.83	442.36
597.99	428.32
598.14	414.27
598.30	404.91
598.46	404.91
598.61	397.89
598.77	390.87
598.93	442.36
599.09	447.04
599.24	418.96
599.40	451.72
599.56	484.49
599.71	470.45
599.87	376.83
600.03	461.09
600.18	435.34
600.34	421.30
600.50	390.87
600.65	332.36
600.81	351.08
600.97	444.70
601.12	372.15
601.28	433.00
601.44	395.55
601.59	402.57
601.75	435.34
601.91	402.57
602.06	407.25
602.22	463.43
602.37	451.72
602.53	477.47
602.69	341.72
602.84	425.98
603.00	440.02
603.16	475.13
603.31	430.66
603.47	442.36
603.62	416.62
603.78	454.06
603.94	362.78
604.09	388.53
604.25	411.93
604.40	397.89
604.56	409.59
604.71	430.66
604.87	390.87
605.03	421.30
605.18	416.62
605.34	437.68
605.49	393.21
605.65	418.96
605.80	444.70
605.96	425.98
606.12	369.80
606.27	416.62
606.43	486.83
606.58	451.72
606.74	456.40
606.89	472.79
607.05	421.30
607.20	390.87
607.36	458.74
607.51	409.59
607.67	421.30
607.82	423.64
607.98	447.04
608.13	444.70
608.29	430.66
608.44	472.79
608.60	423.64
608.75	428.32
608.91	458.74
609.06	475.13
609.22	479.81
609.37	435.34
609.53	372.15
609.68	390.87
609.84	374.49
609.99	395.55
610.15	437.68
