SpectraSuite Data File
++++++++++++++++++++++++++++++++++++
Date: Fri Oct 25 12:11:45 EDT 2013
User: price-jones
Dark Spectrum Present: No
Reference Spectrum Present: No
Number of Sampled Component Spectra: 1
Spectrometers: USB2+H05261
Integration Time (usec): 100000 (USB2+H05261)
Spectra Averaged: 1 (USB2+H05261)
Boxcar Smoothing: 0 (USB2+H05261)
Correct for Electrical Dark: No (USB2+H05261)
Strobe/Lamp Enabled: No (USB2+H05261)
Correct for Detector Non-linearity: No (USB2+H05261)
Correct for Stray Light: No (USB2+H05261)
Number of Pixels in Processed Spectrum: 2048
>>>>>Begin Processed Spectral Data<<<<<
365.73	294.91
365.92	294.91
366.12	294.91
366.32	318.31
366.52	182.56
366.72	320.65
366.91	290.23
367.11	238.73
367.31	184.90
367.51	238.73
367.70	215.33
367.90	187.24
368.10	257.46
368.30	248.10
368.49	325.33
368.69	257.46
368.89	212.99
369.09	205.97
369.28	227.03
369.48	264.48
369.68	243.42
369.87	306.61
370.07	287.89
370.27	341.72
370.47	308.95
370.66	301.93
370.86	325.33
371.06	290.23
371.25	372.15
371.45	332.36
371.65	367.46
371.84	418.96
372.04	318.31
372.24	306.61
372.44	372.15
372.63	451.72
372.83	418.96
373.03	346.40
373.22	383.85
373.42	472.79
373.62	383.85
373.81	372.15
374.01	360.44
374.21	374.49
374.40	510.24
374.60	437.68
374.79	433.00
374.99	433.00
375.19	444.70
375.38	475.13
375.58	442.36
375.78	416.62
375.97	449.38
376.17	440.02
376.37	365.12
376.56	435.34
376.76	358.10
376.95	390.87
377.15	463.43
377.35	428.32
377.54	411.93
377.74	355.76
377.93	451.72
378.13	430.66
378.33	414.27
378.52	344.06
378.72	386.19
378.91	402.57
379.11	400.23
379.31	388.53
379.50	440.02
379.70	437.68
379.89	393.21
380.09	353.42
380.28	346.40
380.48	433.00
380.68	416.62
380.87	379.17
381.07	407.25
381.26	454.06
381.46	390.87
381.65	388.53
381.85	379.17
382.04	411.93
382.24	407.25
382.43	358.10
382.63	402.57
382.83	374.49
383.02	493.85
383.22	397.89
383.41	421.30
383.61	362.78
383.80	456.40
384.00	351.08
384.19	351.08
384.39	449.38
384.58	400.23
384.78	404.91
384.97	369.80
385.17	390.87
385.36	367.46
385.56	414.27
385.75	341.72
385.95	327.68
386.14	484.49
386.34	404.91
386.53	425.98
386.72	465.77
386.92	440.02
387.11	421.30
387.31	397.89
387.50	409.59
387.70	379.17
387.89	437.68
388.09	409.59
388.28	407.25
388.48	334.70
388.67	416.62
388.86	369.80
389.06	334.70
389.25	425.98
389.45	334.70
389.64	421.30
389.84	472.79
390.03	416.62
390.22	449.38
390.42	369.80
390.61	423.64
390.81	351.08
391.00	402.57
391.19	409.59
391.39	330.02
391.58	461.09
391.78	404.91
391.97	411.93
392.16	468.11
392.36	404.91
392.55	348.74
392.75	358.10
392.94	367.46
393.13	456.40
393.33	404.91
393.52	397.89
393.71	463.43
393.91	369.80
394.10	358.10
394.29	379.17
394.49	360.44
394.68	397.89
394.88	360.44
395.07	362.78
395.26	423.64
395.46	468.11
395.65	388.53
395.84	393.21
396.04	496.19
396.23	411.93
396.42	425.98
396.62	379.17
396.81	327.68
397.00	407.25
397.19	479.81
397.39	407.25
397.58	379.17
397.77	411.93
397.97	397.89
398.16	409.59
398.35	433.00
398.55	435.34
398.74	425.98
398.93	526.62
399.12	433.00
399.32	437.68
399.51	379.17
399.70	379.17
399.90	510.24
400.09	334.70
400.28	353.42
400.47	325.33
400.67	430.66
400.86	404.91
401.05	355.76
401.24	393.21
401.44	339.38
401.63	388.53
401.82	414.27
402.01	409.59
402.21	454.06
402.40	402.57
402.59	367.46
402.78	386.19
402.97	444.70
403.17	395.55
403.36	430.66
403.55	451.72
403.74	444.70
403.93	386.19
404.13	418.96
404.32	447.04
404.51	355.76
404.70	381.51
404.89	376.83
405.09	479.81
405.28	383.85
405.47	358.10
405.66	351.08
405.85	451.72
406.05	437.68
406.24	395.55
406.43	514.92
406.62	386.19
406.81	456.40
407.00	433.00
407.20	442.36
407.39	344.06
407.58	337.04
407.77	404.91
407.96	407.25
408.15	386.19
408.34	404.91
408.54	414.27
408.73	458.74
408.92	444.70
409.11	435.34
409.30	423.64
409.49	390.87
409.68	325.33
409.87	393.21
410.07	372.15
410.26	381.51
410.45	433.00
410.64	358.10
410.83	404.91
411.02	400.23
411.21	440.02
411.40	421.30
411.59	435.34
411.78	360.44
411.98	425.98
412.17	393.21
412.36	402.57
412.55	435.34
412.74	395.55
412.93	472.79
413.12	407.25
413.31	437.68
413.50	365.12
413.69	397.89
413.88	369.80
414.07	386.19
414.26	423.64
414.45	404.91
414.64	367.46
414.83	404.91
415.02	418.96
415.22	423.64
415.41	397.89
415.60	393.21
415.79	470.45
415.98	421.30
416.17	381.51
416.36	458.74
416.55	477.47
416.74	348.74
416.93	447.04
417.12	465.77
417.31	358.10
417.50	435.34
417.69	393.21
417.88	425.98
418.07	475.13
418.26	461.09
418.45	393.21
418.64	433.00
418.83	400.23
419.02	404.91
419.21	388.53
419.39	409.59
419.58	409.59
419.77	379.17
419.96	454.06
420.15	425.98
420.34	386.19
420.53	411.93
420.72	482.15
420.91	477.47
421.10	393.21
421.29	404.91
421.48	428.32
421.67	411.93
421.86	463.43
422.05	461.09
422.24	358.10
422.43	409.59
422.61	440.02
422.80	379.17
422.99	332.36
423.18	433.00
423.37	393.21
423.56	379.17
423.75	442.36
423.94	390.87
424.13	390.87
424.32	470.45
424.50	461.09
424.69	395.55
424.88	409.59
425.07	470.45
425.26	409.59
425.45	376.83
425.64	390.87
425.83	400.23
426.01	444.70
426.20	428.32
426.39	383.85
426.58	407.25
426.77	472.79
426.96	409.59
427.15	428.32
427.33	404.91
427.52	393.21
427.71	411.93
427.90	367.46
428.09	393.21
428.28	407.25
428.46	411.93
428.65	397.89
428.84	386.19
429.03	479.81
429.22	475.13
429.40	421.30
429.59	416.62
429.78	411.93
429.97	409.59
430.16	351.08
430.34	451.72
430.53	376.83
430.72	365.12
430.91	409.59
431.10	390.87
431.28	416.62
431.47	421.30
431.66	397.89
431.85	416.62
432.03	358.10
432.22	444.70
432.41	369.80
432.60	430.66
432.79	367.46
432.97	383.85
433.16	458.74
433.35	449.38
433.54	383.85
433.72	421.30
433.91	451.72
434.10	442.36
434.28	393.21
434.47	416.62
434.66	456.40
434.85	381.51
435.03	362.78
435.22	409.59
435.41	421.30
435.59	372.15
435.78	428.32
435.97	362.78
436.16	421.30
436.34	451.72
436.53	414.27
436.72	500.87
436.90	386.19
437.09	425.98
437.28	374.49
437.46	360.44
437.65	470.45
437.84	421.30
438.02	421.30
438.21	461.09
438.40	456.40
438.58	379.17
438.77	472.79
438.96	454.06
439.14	337.04
439.33	376.83
439.52	447.04
439.70	423.64
439.89	421.30
440.08	440.02
440.26	365.12
440.45	421.30
440.63	416.62
440.82	402.57
441.01	437.68
441.19	454.06
441.38	416.62
441.57	376.83
441.75	461.09
441.94	390.87
442.12	390.87
442.31	414.27
442.50	411.93
442.68	421.30
442.87	435.34
443.05	437.68
443.24	423.64
443.43	465.77
443.61	402.57
443.80	409.59
443.98	409.59
444.17	449.38
444.35	360.44
444.54	440.02
444.73	372.15
444.91	507.90
445.10	369.80
445.28	381.51
445.47	416.62
445.65	409.59
445.84	362.78
446.02	395.55
446.21	393.21
446.39	381.51
446.58	423.64
446.77	397.89
446.95	404.91
447.14	362.78
447.32	383.85
447.51	388.53
447.69	418.96
447.88	425.98
448.06	433.00
448.25	416.62
448.43	404.91
448.62	395.55
448.80	463.43
448.99	407.25
449.17	369.80
449.36	379.17
449.54	402.57
449.73	388.53
449.91	482.15
450.10	404.91
450.28	512.58
450.46	454.06
450.65	433.00
450.83	397.89
451.02	355.76
451.20	402.57
451.39	400.23
451.57	409.59
451.76	470.45
451.94	423.64
452.13	470.45
452.31	435.34
452.49	402.57
452.68	390.87
452.86	442.36
453.05	449.38
453.23	402.57
453.42	416.62
453.60	444.70
453.78	400.23
453.97	304.27
454.15	402.57
454.34	440.02
454.52	416.62
454.70	444.70
454.89	374.49
455.07	411.93
455.26	491.51
455.44	500.87
455.62	318.31
455.81	372.15
455.99	449.38
456.17	409.59
456.36	456.40
456.54	416.62
456.73	423.64
456.91	423.64
457.09	388.53
457.28	374.49
457.46	402.57
457.64	360.44
457.83	395.55
458.01	393.21
458.19	430.66
458.38	414.27
458.56	447.04
458.74	411.93
458.93	425.98
459.11	358.10
459.29	409.59
459.48	400.23
459.66	402.57
459.84	433.00
460.03	456.40
460.21	425.98
460.39	437.68
460.57	489.17
460.76	400.23
460.94	472.79
461.12	470.45
461.31	402.57
461.49	437.68
461.67	383.85
461.85	390.87
462.04	411.93
462.22	765.36
462.40	402.57
462.59	395.55
462.77	404.91
462.95	486.83
463.13	332.36
463.32	421.30
463.50	486.83
463.68	447.04
463.86	409.59
464.05	409.59
464.23	393.21
464.41	416.62
464.59	344.06
464.78	376.83
464.96	365.12
465.14	482.15
465.32	409.59
465.50	423.64
465.69	423.64
465.87	395.55
466.05	409.59
466.23	449.38
466.41	418.96
466.60	381.51
466.78	416.62
466.96	397.89
467.14	430.66
467.32	397.89
467.51	437.68
467.69	421.30
467.87	461.09
468.05	440.02
468.23	411.93
468.41	477.47
468.60	463.43
468.78	409.59
468.96	447.04
469.14	402.57
469.32	374.49
469.50	369.80
469.69	397.89
469.87	386.19
470.05	400.23
470.23	433.00
470.41	327.68
470.59	430.66
470.77	414.27
470.95	383.85
471.14	388.53
471.32	397.89
471.50	416.62
471.68	425.98
471.86	421.30
472.04	353.42
472.22	381.51
472.40	414.27
472.58	451.72
472.77	393.21
472.95	418.96
473.13	479.81
473.31	416.62
473.49	428.32
473.67	390.87
473.85	442.36
474.03	390.87
474.21	404.91
474.39	341.72
474.57	409.59
474.75	418.96
474.93	425.98
475.12	376.83
475.30	468.11
475.48	468.11
475.66	395.55
475.84	435.34
476.02	367.46
476.20	418.96
476.38	440.02
476.56	440.02
476.74	381.51
476.92	341.72
477.10	367.46
477.28	407.25
477.46	388.53
477.64	507.90
477.82	430.66
478.00	393.21
478.18	402.57
478.36	397.89
478.54	346.40
478.72	414.27
478.90	414.27
479.08	381.51
479.26	418.96
479.44	440.02
479.62	381.51
479.80	442.36
479.98	390.87
480.16	402.57
480.34	440.02
480.52	442.36
480.70	454.06
480.88	362.78
481.06	362.78
481.24	390.87
481.41	374.49
481.59	397.89
481.77	355.76
481.95	393.21
482.13	388.53
482.31	379.17
482.49	390.87
482.67	444.70
482.85	395.55
483.03	381.51
483.21	393.21
483.39	379.17
483.57	344.06
483.74	388.53
483.92	447.04
484.10	330.02
484.28	362.78
484.46	435.34
484.64	461.09
484.82	437.68
485.00	440.02
485.18	437.68
485.35	423.64
485.53	440.02
485.71	535.98
485.89	465.77
486.07	369.80
486.25	376.83
486.43	360.44
486.61	449.38
486.78	433.00
486.96	411.93
487.14	418.96
487.32	454.06
487.50	442.36
487.68	402.57
487.85	414.27
488.03	423.64
488.21	456.40
488.39	400.23
488.57	498.53
488.75	355.76
488.92	465.77
489.10	388.53
489.28	447.04
489.46	355.76
489.64	416.62
489.81	393.21
489.99	437.68
490.17	425.98
490.35	461.09
490.53	407.25
490.70	381.51
490.88	463.43
491.06	475.13
491.24	360.44
491.41	500.87
491.59	433.00
491.77	440.02
491.95	348.74
492.13	390.87
492.30	418.96
492.48	372.15
492.66	416.62
492.84	404.91
493.01	395.55
493.19	418.96
493.37	388.53
493.54	433.00
493.72	447.04
493.90	418.96
494.08	440.02
494.25	430.66
494.43	430.66
494.61	374.49
494.79	414.27
494.96	397.89
495.14	407.25
495.32	383.85
495.49	418.96
495.67	475.13
495.85	435.34
496.02	498.53
496.20	416.62
496.38	400.23
496.55	461.09
496.73	482.15
496.91	454.06
497.09	500.87
497.26	395.55
497.44	351.08
497.62	393.21
497.79	423.64
497.97	425.98
498.14	454.06
498.32	463.43
498.50	428.32
498.67	390.87
498.85	404.91
499.03	440.02
499.20	423.64
499.38	374.49
499.56	402.57
499.73	435.34
499.91	440.02
500.08	379.17
500.26	409.59
500.44	433.00
500.61	414.27
500.79	355.76
500.97	372.15
501.14	423.64
501.32	454.06
501.49	435.34
501.67	400.23
501.84	470.45
502.02	411.93
502.20	489.17
502.37	390.87
502.55	400.23
502.72	372.15
502.90	393.21
503.07	383.85
503.25	507.90
503.43	395.55
503.60	477.47
503.78	416.62
503.95	393.21
504.13	442.36
504.30	435.34
504.48	449.38
504.65	479.81
504.83	376.83
505.01	358.10
505.18	397.89
505.36	437.68
505.53	433.00
505.71	454.06
505.88	437.68
506.06	395.55
506.23	402.57
506.41	428.32
506.58	418.96
506.76	435.34
506.93	369.80
507.11	425.98
507.28	402.57
507.46	348.74
507.63	428.32
507.81	440.02
507.98	383.85
508.16	390.87
508.33	482.15
508.50	416.62
508.68	395.55
508.85	456.40
509.03	449.38
509.20	447.04
509.38	496.19
509.55	479.81
509.73	397.89
509.90	437.68
510.08	442.36
510.25	367.46
510.42	463.43
510.60	475.13
510.77	430.66
510.95	475.13
511.12	383.85
511.30	341.72
511.47	360.44
511.64	444.70
511.82	404.91
511.99	414.27
512.17	351.08
512.34	435.34
512.51	454.06
512.69	376.83
512.86	472.79
513.04	416.62
513.21	374.49
513.38	395.55
513.56	402.57
513.73	437.68
513.90	444.70
514.08	482.15
514.25	400.23
514.43	397.89
514.60	390.87
514.77	454.06
514.95	416.62
515.12	437.68
515.29	402.57
515.47	386.19
515.64	430.66
515.81	411.93
515.99	479.81
516.16	418.96
516.33	507.90
516.51	416.62
516.68	411.93
516.85	440.02
517.03	433.00
517.20	381.51
517.37	360.44
517.54	456.40
517.72	423.64
517.89	383.85
518.06	414.27
518.24	421.30
518.41	423.64
518.58	430.66
518.75	451.72
518.93	514.92
519.10	418.96
519.27	470.45
519.45	423.64
519.62	463.43
519.79	428.32
519.96	433.00
520.14	433.00
520.31	423.64
520.48	454.06
520.65	374.49
520.83	505.56
521.00	433.00
521.17	383.85
521.34	355.76
521.52	407.25
521.69	374.49
521.86	440.02
522.03	496.19
522.20	500.87
522.38	402.57
522.55	414.27
522.72	395.55
522.89	447.04
523.07	409.59
523.24	475.13
523.41	425.98
523.58	456.40
523.75	397.89
523.92	409.59
524.10	454.06
524.27	449.38
524.44	475.13
524.61	503.22
524.78	393.21
524.96	456.40
525.13	493.85
525.30	454.06
525.47	472.79
525.64	458.74
525.81	400.23
525.98	447.04
526.16	416.62
526.33	383.85
526.50	388.53
526.67	388.53
526.84	449.38
527.01	425.98
527.18	428.32
527.36	416.62
527.53	449.38
527.70	367.46
527.87	404.91
528.04	486.83
528.21	383.85
528.38	395.55
528.55	395.55
528.72	461.09
528.89	456.40
529.07	454.06
529.24	372.15
529.41	456.40
529.58	395.55
529.75	430.66
529.92	411.93
530.09	486.83
530.26	465.77
530.43	498.53
530.60	358.10
530.77	477.47
530.94	472.79
531.11	330.02
531.28	507.90
531.46	411.93
531.63	433.00
531.80	388.53
531.97	484.49
532.14	430.66
532.31	421.30
532.48	397.89
532.65	390.87
532.82	442.36
532.99	425.98
533.16	463.43
533.33	416.62
533.50	393.21
533.67	411.93
533.84	414.27
534.01	538.32
534.18	442.36
534.35	407.25
534.52	383.85
534.69	386.19
534.86	486.83
535.03	379.17
535.20	444.70
535.37	409.59
535.54	421.30
535.71	421.30
535.88	454.06
536.05	390.87
536.22	437.68
536.38	449.38
536.55	451.72
536.72	440.02
536.89	404.91
537.06	423.64
537.23	440.02
537.40	381.51
537.57	479.81
537.74	435.34
537.91	440.02
538.08	444.70
538.25	402.57
538.42	393.21
538.59	442.36
538.75	421.30
538.92	421.30
539.09	397.89
539.26	372.15
539.43	390.87
539.60	437.68
539.77	423.64
539.94	418.96
540.11	437.68
540.28	395.55
540.44	465.77
540.61	444.70
540.78	421.30
540.95	416.62
541.12	465.77
541.29	468.11
541.46	444.70
541.62	454.06
541.79	404.91
541.96	411.93
542.13	461.09
542.30	402.57
542.47	449.38
542.63	498.53
542.80	409.59
542.97	369.80
543.14	486.83
543.31	444.70
543.48	386.19
543.64	437.68
543.81	404.91
543.98	365.12
544.15	372.15
544.32	423.64
544.48	440.02
544.65	421.30
544.82	381.51
544.99	486.83
545.16	400.23
545.32	440.02
545.49	447.04
545.66	442.36
545.83	449.38
546.00	421.30
546.16	397.89
546.33	334.70
546.50	388.53
546.67	386.19
546.83	456.40
547.00	437.68
547.17	456.40
547.34	369.80
547.50	433.00
547.67	454.06
547.84	414.27
548.00	440.02
548.17	465.77
548.34	423.64
548.51	440.02
548.67	435.34
548.84	435.34
549.01	414.27
549.18	470.45
549.34	397.89
549.51	416.62
549.68	433.00
549.84	400.23
550.01	451.72
550.18	489.17
550.34	435.34
550.51	437.68
550.68	435.34
550.84	458.74
551.01	433.00
551.18	482.15
551.34	444.70
551.51	435.34
551.68	411.93
551.84	440.02
552.01	402.57
552.18	465.77
552.34	430.66
552.51	397.89
552.68	458.74
552.84	421.30
553.01	355.76
553.18	430.66
553.34	407.25
553.51	379.17
553.67	423.64
553.84	425.98
554.01	353.42
554.17	390.87
554.34	393.21
554.51	425.98
554.67	461.09
554.84	395.55
555.00	430.66
555.17	475.13
555.33	404.91
555.50	376.83
555.67	397.89
555.83	386.19
556.00	482.15
556.16	533.64
556.33	416.62
556.50	395.55
556.66	397.89
556.83	435.34
556.99	430.66
557.16	449.38
557.32	447.04
557.49	339.38
557.65	437.68
557.82	339.38
557.98	367.46
558.15	425.98
558.32	442.36
558.48	409.59
558.65	416.62
558.81	416.62
558.98	339.38
559.14	440.02
559.31	386.19
559.47	404.91
559.64	447.04
559.80	430.66
559.97	397.89
560.13	458.74
560.30	376.83
560.46	386.19
560.63	381.51
560.79	381.51
560.96	411.93
561.12	379.17
561.29	421.30
561.45	369.80
561.61	404.91
561.78	435.34
561.94	416.62
562.11	397.89
562.27	430.66
562.44	367.46
562.60	440.02
562.77	337.04
562.93	486.83
563.10	369.80
563.26	468.11
563.42	451.72
563.59	461.09
563.75	454.06
563.92	372.15
564.08	414.27
564.24	414.27
564.41	470.45
564.57	451.72
564.74	442.36
564.90	425.98
565.07	470.45
565.23	423.64
565.39	418.96
565.56	442.36
565.72	402.57
565.88	397.89
566.05	397.89
566.21	411.93
566.38	421.30
566.54	433.00
566.70	425.98
566.87	348.74
567.03	355.76
567.19	353.42
567.36	400.23
567.52	397.89
567.68	442.36
567.85	475.13
568.01	372.15
568.17	376.83
568.34	418.96
568.50	374.49
568.66	449.38
568.83	496.19
568.99	351.08
569.15	411.93
569.32	465.77
569.48	442.36
569.64	367.46
569.81	440.02
569.97	449.38
570.13	418.96
570.30	395.55
570.46	458.74
570.62	404.91
570.78	341.72
570.95	409.59
571.11	376.83
571.27	390.87
571.43	510.24
571.60	449.38
571.76	337.04
571.92	468.11
572.09	409.59
572.25	510.24
572.41	491.51
572.57	440.02
572.74	416.62
572.90	435.34
573.06	437.68
573.22	500.87
573.38	407.25
573.55	404.91
573.71	407.25
573.87	397.89
574.03	395.55
574.20	486.83
574.36	463.43
574.52	421.30
574.68	425.98
574.84	416.62
575.01	374.49
575.17	409.59
575.33	369.80
575.49	428.32
575.65	451.72
575.82	402.57
575.98	444.70
576.14	388.53
576.30	388.53
576.46	315.97
576.62	383.85
576.79	372.15
576.95	449.38
577.11	435.34
577.27	393.21
577.43	433.00
577.59	484.49
577.75	451.72
577.92	421.30
578.08	393.21
578.24	372.15
578.40	447.04
578.56	407.25
578.72	374.49
578.88	423.64
579.04	447.04
579.21	468.11
579.37	402.57
579.53	341.72
579.69	496.19
579.85	400.23
580.01	435.34
580.17	477.47
580.33	421.30
580.49	456.40
580.65	463.43
580.82	423.64
580.98	486.83
581.14	435.34
581.30	404.91
581.46	437.68
581.62	393.21
581.78	407.25
581.94	449.38
582.10	379.17
582.26	407.25
582.42	463.43
582.58	421.30
582.74	428.32
582.90	393.21
583.06	486.83
583.22	423.64
583.38	416.62
583.54	397.89
583.70	430.66
583.86	425.98
584.02	397.89
584.18	472.79
584.34	390.87
584.50	454.06
584.66	444.70
584.82	334.70
584.98	400.23
585.14	477.47
585.30	461.09
585.46	444.70
585.62	409.59
585.78	402.57
585.94	421.30
586.10	353.42
586.26	428.32
586.42	489.17
586.58	407.25
586.74	400.23
586.90	414.27
587.06	379.17
587.22	416.62
587.38	348.74
587.54	444.70
587.70	430.66
587.86	437.68
588.02	484.49
588.18	409.59
588.34	463.43
588.49	372.15
588.65	458.74
588.81	390.87
588.97	358.10
589.13	442.36
589.29	430.66
589.45	451.72
589.61	433.00
589.77	444.70
589.93	376.83
590.08	358.10
590.24	475.13
590.40	433.00
590.56	428.32
590.72	444.70
590.88	423.64
591.04	472.79
591.20	407.25
591.35	451.72
591.51	397.89
591.67	435.34
591.83	428.32
591.99	407.25
592.15	430.66
592.31	383.85
592.46	402.57
592.62	416.62
592.78	409.59
592.94	477.47
593.10	416.62
593.26	407.25
593.41	395.55
593.57	440.02
593.73	454.06
593.89	379.17
594.05	428.32
594.20	395.55
594.36	381.51
594.52	430.66
594.68	423.64
594.84	437.68
594.99	383.85
595.15	414.27
595.31	374.49
595.47	407.25
595.62	379.17
595.78	428.32
595.94	418.96
596.10	500.87
596.25	461.09
596.41	486.83
596.57	451.72
596.73	414.27
596.88	498.53
597.04	416.62
597.20	418.96
597.36	428.32
597.51	456.40
597.67	442.36
597.83	468.11
597.99	407.25
598.14	465.77
598.30	414.27
598.46	351.08
598.61	470.45
598.77	458.74
598.93	358.10
599.09	458.74
599.24	440.02
599.40	491.51
599.56	381.51
599.71	416.62
599.87	449.38
600.03	428.32
600.18	418.96
600.34	381.51
600.50	330.02
600.65	390.87
600.81	386.19
600.97	355.76
601.12	416.62
601.28	470.45
601.44	388.53
601.59	325.33
601.75	393.21
601.91	393.21
602.06	414.27
602.22	468.11
602.37	379.17
602.53	416.62
602.69	416.62
602.84	433.00
603.00	458.74
603.16	395.55
603.31	449.38
603.47	402.57
603.62	374.49
603.78	416.62
603.94	423.64
604.09	393.21
604.25	505.56
604.40	379.17
604.56	360.44
604.71	482.15
604.87	386.19
605.03	414.27
605.18	400.23
605.34	435.34
605.49	407.25
605.65	407.25
605.80	428.32
605.96	407.25
606.12	442.36
606.27	407.25
606.43	397.89
606.58	351.08
606.74	348.74
606.89	458.74
607.05	456.40
607.20	465.77
607.36	437.68
607.51	440.02
607.67	402.57
607.82	435.34
607.98	463.43
608.13	372.15
608.29	374.49
608.44	470.45
608.60	444.70
608.75	451.72
608.91	433.00
609.06	461.09
609.22	411.93
609.37	482.15
609.53	407.25
609.68	379.17
609.84	435.34
609.99	369.80
610.15	447.04
