SpectraSuite Data File
++++++++++++++++++++++++++++++++++++
Date: Fri Oct 25 12:10:09 EDT 2013
User: price-jones
Dark Spectrum Present: No
Reference Spectrum Present: No
Number of Sampled Component Spectra: 1
Spectrometers: USB2+H05261
Integration Time (usec): 100000 (USB2+H05261)
Spectra Averaged: 1 (USB2+H05261)
Boxcar Smoothing: 0 (USB2+H05261)
Correct for Electrical Dark: No (USB2+H05261)
Strobe/Lamp Enabled: No (USB2+H05261)
Correct for Detector Non-linearity: No (USB2+H05261)
Correct for Stray Light: No (USB2+H05261)
Number of Pixels in Processed Spectrum: 2048
>>>>>Begin Processed Spectral Data<<<<<
365.73	351.08
365.92	351.08
366.12	351.08
366.32	297.25
366.52	313.63
366.72	257.46
366.91	304.27
367.11	217.67
367.31	262.14
367.51	238.73
367.70	285.55
367.90	177.88
368.10	215.33
368.30	182.56
368.49	184.90
368.69	257.46
368.89	273.84
369.09	255.12
369.28	255.12
369.48	271.50
369.68	236.39
369.87	311.29
370.07	381.51
370.27	294.91
370.47	273.84
370.66	430.66
370.86	339.38
371.06	404.91
371.25	465.77
371.45	344.06
371.65	355.76
371.84	416.62
372.04	369.80
372.24	374.49
372.44	367.46
372.63	435.34
372.83	358.10
373.03	414.27
373.22	395.55
373.42	393.21
373.62	418.96
373.81	379.17
374.01	435.34
374.21	454.06
374.40	433.00
374.60	425.98
374.79	444.70
374.99	428.32
375.19	411.93
375.38	386.19
375.58	330.02
375.78	402.57
375.97	383.85
376.17	507.90
376.37	418.96
376.56	423.64
376.76	472.79
376.95	376.83
377.15	404.91
377.35	322.99
377.54	346.40
377.74	433.00
377.93	390.87
378.13	348.74
378.33	416.62
378.52	463.43
378.72	369.80
378.91	421.30
379.11	306.61
379.31	374.49
379.50	433.00
379.70	409.59
379.89	397.89
380.09	449.38
380.28	379.17
380.48	374.49
380.68	430.66
380.87	351.08
381.07	315.97
381.26	447.04
381.46	395.55
381.65	461.09
381.85	395.55
382.04	365.12
382.24	362.78
382.43	393.21
382.63	428.32
382.83	386.19
383.02	442.36
383.22	468.11
383.41	355.76
383.61	451.72
383.80	407.25
384.00	437.68
384.19	351.08
384.39	503.22
384.58	411.93
384.78	458.74
384.97	355.76
385.17	416.62
385.36	444.70
385.56	341.72
385.75	423.64
385.95	402.57
386.14	449.38
386.34	337.04
386.53	440.02
386.72	433.00
386.92	411.93
387.11	458.74
387.31	407.25
387.50	376.83
387.70	355.76
387.89	475.13
388.09	404.91
388.28	437.68
388.48	402.57
388.67	496.19
388.86	451.72
389.06	369.80
389.25	348.74
389.45	379.17
389.64	402.57
389.84	416.62
390.03	500.87
390.22	386.19
390.42	381.51
390.61	325.33
390.81	351.08
391.00	400.23
391.19	440.02
391.39	416.62
391.58	414.27
391.78	433.00
391.97	444.70
392.16	379.17
392.36	433.00
392.55	458.74
392.75	444.70
392.94	337.04
393.13	433.00
393.33	402.57
393.52	428.32
393.71	390.87
393.91	409.59
394.10	414.27
394.29	470.45
394.49	435.34
394.68	421.30
394.88	416.62
395.07	418.96
395.26	425.98
395.46	433.00
395.65	411.93
395.84	433.00
396.04	477.47
396.23	421.30
396.42	395.55
396.62	360.44
396.81	348.74
397.00	400.23
397.19	369.80
397.39	437.68
397.58	491.51
397.77	313.63
397.97	355.76
398.16	386.19
398.35	444.70
398.55	372.15
398.74	381.51
398.93	390.87
399.12	430.66
399.32	372.15
399.51	411.93
399.70	449.38
399.90	425.98
400.09	367.46
400.28	428.32
400.47	400.23
400.67	482.15
400.86	451.72
401.05	421.30
401.24	400.23
401.44	430.66
401.63	430.66
401.82	376.83
402.01	402.57
402.21	379.17
402.40	397.89
402.59	365.12
402.78	355.76
402.97	479.81
403.17	463.43
403.36	400.23
403.55	472.79
403.74	404.91
403.93	437.68
404.13	411.93
404.32	381.51
404.51	402.57
404.70	344.06
404.89	379.17
405.09	451.72
405.28	330.02
405.47	454.06
405.66	482.15
405.85	444.70
406.05	360.44
406.24	369.80
406.43	393.21
406.62	397.89
406.81	475.13
407.00	428.32
407.20	454.06
407.39	407.25
407.58	353.42
407.77	344.06
407.96	388.53
408.15	435.34
408.34	456.40
408.54	407.25
408.73	411.93
408.92	425.98
409.11	386.19
409.30	376.83
409.49	430.66
409.68	433.00
409.87	451.72
410.07	468.11
410.26	454.06
410.45	353.42
410.64	449.38
410.83	358.10
411.02	376.83
411.21	430.66
411.40	390.87
411.59	311.29
411.78	407.25
411.98	411.93
412.17	468.11
412.36	454.06
412.55	365.12
412.74	390.87
412.93	484.49
413.12	404.91
413.31	493.85
413.50	395.55
413.69	430.66
413.88	472.79
414.07	447.04
414.26	381.51
414.45	477.47
414.64	402.57
414.83	402.57
415.02	348.74
415.22	407.25
415.41	402.57
415.60	337.04
415.79	461.09
415.98	407.25
416.17	409.59
416.36	414.27
416.55	470.45
416.74	442.36
416.93	505.56
417.12	437.68
417.31	414.27
417.50	407.25
417.69	402.57
417.88	400.23
418.07	404.91
418.26	374.49
418.45	365.12
418.64	444.70
418.83	400.23
419.02	428.32
419.21	383.85
419.39	423.64
419.58	376.83
419.77	411.93
419.96	386.19
420.15	423.64
420.34	433.00
420.53	407.25
420.72	468.11
420.91	416.62
421.10	477.47
421.29	379.17
421.48	404.91
421.67	390.87
421.86	393.21
422.05	376.83
422.24	447.04
422.43	360.44
422.61	383.85
422.80	365.12
422.99	402.57
423.18	416.62
423.37	437.68
423.56	442.36
423.75	425.98
423.94	423.64
424.13	397.89
424.32	367.46
424.50	372.15
424.69	421.30
424.88	456.40
425.07	402.57
425.26	388.53
425.45	372.15
425.64	458.74
425.83	433.00
426.01	475.13
426.20	500.87
426.39	458.74
426.58	402.57
426.77	425.98
426.96	456.40
427.15	404.91
427.33	470.45
427.52	454.06
427.71	388.53
427.90	376.83
428.09	437.68
428.28	449.38
428.46	428.32
428.65	416.62
428.84	358.10
429.03	470.45
429.22	447.04
429.40	411.93
429.59	397.89
429.78	421.30
429.97	402.57
430.16	386.19
430.34	435.34
430.53	409.59
430.72	365.12
430.91	423.64
431.10	454.06
431.28	423.64
431.47	433.00
431.66	393.21
431.85	383.85
432.03	353.42
432.22	416.62
432.41	430.66
432.60	482.15
432.79	433.00
432.97	374.49
433.16	381.51
433.35	421.30
433.54	395.55
433.72	421.30
433.91	386.19
434.10	358.10
434.28	454.06
434.47	433.00
434.66	374.49
434.85	325.33
435.03	388.53
435.22	482.15
435.41	428.32
435.59	444.70
435.78	465.77
435.97	397.89
436.16	400.23
436.34	442.36
436.53	451.72
436.72	386.19
436.90	404.91
437.09	416.62
437.28	369.80
437.46	414.27
437.65	400.23
437.84	435.34
438.02	425.98
438.21	416.62
438.40	308.95
438.58	369.80
438.77	465.77
438.96	379.17
439.14	402.57
439.33	447.04
439.52	390.87
439.70	386.19
439.89	447.04
440.08	409.59
440.26	421.30
440.45	395.55
440.63	404.91
440.82	442.36
441.01	414.27
441.19	358.10
441.38	449.38
441.57	339.38
441.75	416.62
441.94	472.79
442.12	411.93
442.31	435.34
442.50	400.23
442.68	386.19
442.87	456.40
443.05	402.57
443.24	409.59
443.43	397.89
443.61	402.57
443.80	386.19
443.98	416.62
444.17	428.32
444.35	435.34
444.54	330.02
444.73	372.15
444.91	421.30
445.10	484.49
445.28	351.08
445.47	395.55
445.65	386.19
445.84	411.93
446.02	456.40
446.21	367.46
446.39	421.30
446.58	489.17
446.77	339.38
446.95	362.78
447.14	393.21
447.32	428.32
447.51	383.85
447.69	355.76
447.88	454.06
448.06	353.42
448.25	388.53
448.43	449.38
448.62	430.66
448.80	411.93
448.99	477.47
449.17	418.96
449.36	416.62
449.54	447.04
449.73	390.87
449.91	468.11
450.10	425.98
450.28	475.13
450.46	458.74
450.65	416.62
450.83	484.49
451.02	346.40
451.20	374.49
451.39	425.98
451.57	416.62
451.76	416.62
451.94	404.91
452.13	360.44
452.31	449.38
452.49	425.98
452.68	407.25
452.86	404.91
453.05	442.36
453.23	404.91
453.42	400.23
453.60	409.59
453.78	421.30
453.97	440.02
454.15	351.08
454.34	355.76
454.52	421.30
454.70	444.70
454.89	447.04
455.07	344.06
455.26	407.25
455.44	351.08
455.62	447.04
455.81	344.06
455.99	418.96
456.17	325.33
456.36	360.44
456.54	411.93
456.73	393.21
456.91	472.79
457.09	414.27
457.28	388.53
457.46	435.34
457.64	334.70
457.83	365.12
458.01	395.55
458.19	395.55
458.38	393.21
458.56	390.87
458.74	346.40
458.93	379.17
459.11	339.38
459.29	437.68
459.48	451.72
459.66	442.36
459.84	397.89
460.03	416.62
460.21	430.66
460.39	381.51
460.57	456.40
460.76	428.32
460.94	444.70
461.12	463.43
461.31	390.87
461.49	374.49
461.67	489.17
461.85	348.74
462.04	451.72
462.22	760.67
462.40	372.15
462.59	444.70
462.77	414.27
462.95	458.74
463.13	327.68
463.32	404.91
463.50	435.34
463.68	428.32
463.86	437.68
464.05	433.00
464.23	383.85
464.41	430.66
464.59	388.53
464.78	484.49
464.96	475.13
465.14	421.30
465.32	402.57
465.50	390.87
465.69	362.78
465.87	458.74
466.05	524.28
466.23	440.02
466.41	369.80
466.60	425.98
466.78	351.08
466.96	475.13
467.14	386.19
467.32	407.25
467.51	418.96
467.69	437.68
467.87	362.78
468.05	393.21
468.23	461.09
468.41	456.40
468.60	409.59
468.78	416.62
468.96	456.40
469.14	421.30
469.32	435.34
469.50	332.36
469.69	374.49
469.87	386.19
470.05	430.66
470.23	416.62
470.41	390.87
470.59	435.34
470.77	379.17
470.95	468.11
471.14	425.98
471.32	433.00
471.50	390.87
471.68	414.27
471.86	479.81
472.04	400.23
472.22	367.46
472.40	430.66
472.58	355.76
472.77	421.30
472.95	388.53
473.13	430.66
473.31	489.17
473.49	351.08
473.67	421.30
473.85	484.49
474.03	383.85
474.21	447.04
474.39	503.22
474.57	372.15
474.75	463.43
474.93	449.38
475.12	416.62
475.30	458.74
475.48	482.15
475.66	411.93
475.84	414.27
476.02	449.38
476.20	411.93
476.38	425.98
476.56	388.53
476.74	339.38
476.92	339.38
477.10	418.96
477.28	395.55
477.46	388.53
477.64	425.98
477.82	390.87
478.00	442.36
478.18	423.64
478.36	411.93
478.54	458.74
478.72	379.17
478.90	461.09
479.08	433.00
479.26	379.17
479.44	388.53
479.62	411.93
479.80	395.55
479.98	355.76
480.16	369.80
480.34	512.58
480.52	458.74
480.70	395.55
480.88	390.87
481.06	337.04
481.24	379.17
481.41	463.43
481.59	444.70
481.77	411.93
481.95	372.15
482.13	423.64
482.31	458.74
482.49	386.19
482.67	484.49
482.85	400.23
483.03	440.02
483.21	449.38
483.39	411.93
483.57	346.40
483.74	381.51
483.92	393.21
484.10	365.12
484.28	423.64
484.46	456.40
484.64	404.91
484.82	390.87
485.00	376.83
485.18	421.30
485.35	353.42
485.53	409.59
485.71	454.06
485.89	472.79
486.07	440.02
486.25	477.47
486.43	407.25
486.61	367.46
486.78	409.59
486.96	367.46
487.14	388.53
487.32	407.25
487.50	402.57
487.68	416.62
487.85	358.10
488.03	409.59
488.21	437.68
488.39	411.93
488.57	449.38
488.75	418.96
488.92	489.17
489.10	402.57
489.28	482.15
489.46	355.76
489.64	411.93
489.81	416.62
489.99	369.80
490.17	395.55
490.35	465.77
490.53	351.08
490.70	337.04
490.88	430.66
491.06	433.00
491.24	444.70
491.41	416.62
491.59	393.21
491.77	393.21
491.95	383.85
492.13	423.64
492.30	458.74
492.48	337.04
492.66	360.44
492.84	393.21
493.01	458.74
493.19	425.98
493.37	470.45
493.54	409.59
493.72	433.00
493.90	418.96
494.08	395.55
494.25	456.40
494.43	442.36
494.61	369.80
494.79	428.32
494.96	374.49
495.14	395.55
495.32	372.15
495.49	491.51
495.67	444.70
495.85	416.62
496.02	402.57
496.20	447.04
496.38	409.59
496.55	486.83
496.73	416.62
496.91	414.27
497.09	447.04
497.26	383.85
497.44	468.11
497.62	444.70
497.79	369.80
497.97	404.91
498.14	479.81
498.32	472.79
498.50	372.15
498.67	369.80
498.85	456.40
499.03	444.70
499.20	315.97
499.38	416.62
499.56	344.06
499.73	533.64
499.91	358.10
500.08	407.25
500.26	475.13
500.44	404.91
500.61	475.13
500.79	449.38
500.97	411.93
501.14	397.89
501.32	451.72
501.49	425.98
501.67	388.53
501.84	374.49
502.02	402.57
502.20	463.43
502.37	418.96
502.55	454.06
502.72	421.30
502.90	318.31
503.07	395.55
503.25	386.19
503.43	421.30
503.60	428.32
503.78	421.30
503.95	423.64
504.13	489.17
504.30	463.43
504.48	440.02
504.65	472.79
504.83	491.51
505.01	402.57
505.18	456.40
505.36	433.00
505.53	383.85
505.71	416.62
505.88	451.72
506.06	418.96
506.23	411.93
506.41	496.19
506.58	428.32
506.76	376.83
506.93	404.91
507.11	402.57
507.28	458.74
507.46	418.96
507.63	442.36
507.81	376.83
507.98	414.27
508.16	355.76
508.33	400.23
508.50	472.79
508.68	404.91
508.85	437.68
509.03	407.25
509.20	404.91
509.38	416.62
509.55	454.06
509.73	444.70
509.90	400.23
510.08	421.30
510.25	407.25
510.42	428.32
510.60	454.06
510.77	416.62
510.95	477.47
511.12	444.70
511.30	442.36
511.47	503.22
511.64	472.79
511.82	367.46
511.99	397.89
512.17	416.62
512.34	376.83
512.51	346.40
512.69	423.64
512.86	458.74
513.04	379.17
513.21	447.04
513.38	421.30
513.56	390.87
513.73	397.89
513.90	430.66
514.08	435.34
514.25	440.02
514.43	397.89
514.60	458.74
514.77	437.68
514.95	414.27
515.12	397.89
515.29	407.25
515.47	484.49
515.64	416.62
515.81	369.80
515.99	461.09
516.16	365.12
516.33	355.76
516.51	440.02
516.68	411.93
516.85	447.04
517.03	313.63
517.20	390.87
517.37	447.04
517.54	395.55
517.72	423.64
517.89	346.40
518.06	404.91
518.24	444.70
518.41	465.77
518.58	463.43
518.75	421.30
518.93	400.23
519.10	519.60
519.27	397.89
519.45	390.87
519.62	435.34
519.79	407.25
519.96	320.65
520.14	351.08
520.31	489.17
520.48	376.83
520.65	423.64
520.83	414.27
521.00	362.78
521.17	435.34
521.34	433.00
521.52	395.55
521.69	540.66
521.86	358.10
522.03	425.98
522.20	444.70
522.38	456.40
522.55	414.27
522.72	447.04
522.89	486.83
523.07	440.02
523.24	414.27
523.41	393.21
523.58	388.53
523.75	402.57
523.92	491.51
524.10	437.68
524.27	416.62
524.44	397.89
524.61	409.59
524.78	388.53
524.96	430.66
525.13	395.55
525.30	465.77
525.47	475.13
525.64	428.32
525.81	407.25
525.98	388.53
526.16	479.81
526.33	411.93
526.50	442.36
526.67	454.06
526.84	423.64
527.01	416.62
527.18	409.59
527.36	397.89
527.53	402.57
527.70	472.79
527.87	461.09
528.04	435.34
528.21	372.15
528.38	510.24
528.55	435.34
528.72	423.64
528.89	463.43
529.07	425.98
529.24	451.72
529.41	435.34
529.58	358.10
529.75	418.96
529.92	404.91
530.09	374.49
530.26	461.09
530.43	381.51
530.60	416.62
530.77	360.44
530.94	463.43
531.11	393.21
531.28	418.96
531.46	386.19
531.63	425.98
531.80	503.22
531.97	463.43
532.14	346.40
532.31	437.68
532.48	449.38
532.65	411.93
532.82	360.44
532.99	404.91
533.16	372.15
533.33	374.49
533.50	367.46
533.67	367.46
533.84	416.62
534.01	369.80
534.18	433.00
534.35	454.06
534.52	416.62
534.69	404.91
534.86	461.09
535.03	449.38
535.20	545.34
535.37	442.36
535.54	388.53
535.71	428.32
535.88	458.74
536.05	362.78
536.22	402.57
536.38	400.23
536.55	346.40
536.72	444.70
536.89	479.81
537.06	400.23
537.23	463.43
537.40	411.93
537.57	407.25
537.74	383.85
537.91	386.19
538.08	409.59
538.25	519.60
538.42	386.19
538.59	433.00
538.75	400.23
538.92	416.62
539.09	376.83
539.26	470.45
539.43	421.30
539.60	435.34
539.77	360.44
539.94	404.91
540.11	397.89
540.28	407.25
540.44	435.34
540.61	435.34
540.78	386.19
540.95	308.95
541.12	367.46
541.29	351.08
541.46	470.45
541.62	379.17
541.79	454.06
541.96	402.57
542.13	376.83
542.30	360.44
542.47	395.55
542.63	395.55
542.80	454.06
542.97	423.64
543.14	395.55
543.31	433.00
543.48	472.79
543.64	461.09
543.81	519.60
543.98	346.40
544.15	388.53
544.32	444.70
544.48	409.59
544.65	442.36
544.82	369.80
544.99	465.77
545.16	507.90
545.32	367.46
545.49	404.91
545.66	409.59
545.83	430.66
546.00	411.93
546.16	447.04
546.33	444.70
546.50	425.98
546.67	397.89
546.83	493.85
547.00	372.15
547.17	362.78
547.34	454.06
547.50	337.04
547.67	386.19
547.84	449.38
548.00	491.51
548.17	376.83
548.34	411.93
548.51	468.11
548.67	461.09
548.84	463.43
549.01	360.44
549.18	449.38
549.34	447.04
549.51	409.59
549.68	433.00
549.84	425.98
550.01	435.34
550.18	517.26
550.34	470.45
550.51	428.32
550.68	475.13
550.84	423.64
551.01	407.25
551.18	444.70
551.34	388.53
551.51	442.36
551.68	388.53
551.84	353.42
552.01	395.55
552.18	423.64
552.34	465.77
552.51	447.04
552.68	442.36
552.84	425.98
553.01	486.83
553.18	421.30
553.34	444.70
553.51	437.68
553.67	440.02
553.84	454.06
554.01	437.68
554.17	475.13
554.34	400.23
554.51	468.11
554.67	449.38
554.84	409.59
555.00	456.40
555.17	421.30
555.33	430.66
555.50	402.57
555.67	447.04
555.83	454.06
556.00	454.06
556.16	526.62
556.33	425.98
556.50	400.23
556.66	435.34
556.83	421.30
556.99	442.36
557.16	425.98
557.32	437.68
557.49	461.09
557.65	381.51
557.82	428.32
557.98	421.30
558.15	444.70
558.32	470.45
558.48	456.40
558.65	463.43
558.81	416.62
558.98	325.33
559.14	292.57
559.31	348.74
559.47	437.68
559.64	381.51
559.80	388.53
559.97	379.17
560.13	472.79
560.30	411.93
560.46	477.47
560.63	447.04
560.79	362.78
560.96	440.02
561.12	360.44
561.29	435.34
561.45	454.06
561.61	414.27
561.78	531.30
561.94	428.32
562.11	407.25
562.27	430.66
562.44	435.34
562.60	383.85
562.77	416.62
562.93	440.02
563.10	407.25
563.26	367.46
563.42	376.83
563.59	341.72
563.75	381.51
563.92	458.74
564.08	456.40
564.24	425.98
564.41	447.04
564.57	465.77
564.74	465.77
564.90	447.04
565.07	400.23
565.23	374.49
565.39	451.72
565.56	411.93
565.72	402.57
565.88	421.30
566.05	468.11
566.21	395.55
566.38	383.85
566.54	411.93
566.70	458.74
566.87	395.55
567.03	465.77
567.19	383.85
567.36	334.70
567.52	388.53
567.68	463.43
567.85	423.64
568.01	407.25
568.17	437.68
568.34	454.06
568.50	407.25
568.66	407.25
568.83	463.43
568.99	346.40
569.15	437.68
569.32	444.70
569.48	418.96
569.64	486.83
569.81	461.09
569.97	458.74
570.13	355.76
570.30	421.30
570.46	379.17
570.62	451.72
570.78	383.85
570.95	444.70
571.11	465.77
571.27	456.40
571.43	444.70
571.60	423.64
571.76	407.25
571.92	430.66
572.09	369.80
572.25	404.91
572.41	393.21
572.57	449.38
572.74	421.30
572.90	428.32
573.06	395.55
573.22	458.74
573.38	381.51
573.55	411.93
573.71	423.64
573.87	447.04
574.03	423.64
574.20	468.11
574.36	449.38
574.52	456.40
574.68	421.30
574.84	451.72
575.01	423.64
575.17	430.66
575.33	428.32
575.49	351.08
575.65	489.17
575.82	395.55
575.98	395.55
576.14	346.40
576.30	416.62
576.46	468.11
576.62	493.85
576.79	390.87
576.95	393.21
577.11	425.98
577.27	428.32
577.43	472.79
577.59	440.02
577.75	411.93
577.92	435.34
578.08	444.70
578.24	397.89
578.40	355.76
578.56	430.66
578.72	407.25
578.88	379.17
579.04	414.27
579.21	491.51
579.37	510.24
579.53	379.17
579.69	423.64
579.85	411.93
580.01	482.15
580.17	437.68
580.33	461.09
580.49	423.64
580.65	435.34
580.82	423.64
580.98	510.24
581.14	456.40
581.30	463.43
581.46	409.59
581.62	390.87
581.78	390.87
581.94	442.36
582.10	355.76
582.26	374.49
582.42	430.66
582.58	484.49
582.74	402.57
582.90	383.85
583.06	433.00
583.22	369.80
583.38	435.34
583.54	430.66
583.70	428.32
583.86	479.81
584.02	411.93
584.18	425.98
584.34	423.64
584.50	404.91
584.66	423.64
584.82	414.27
584.98	423.64
585.14	449.38
585.30	463.43
585.46	404.91
585.62	365.12
585.78	423.64
585.94	376.83
586.10	440.02
586.26	428.32
586.42	491.51
586.58	468.11
586.74	416.62
586.90	472.79
587.06	414.27
587.22	430.66
587.38	374.49
587.54	400.23
587.70	402.57
587.86	442.36
588.02	402.57
588.18	397.89
588.34	409.59
588.49	433.00
588.65	379.17
588.81	500.87
588.97	395.55
589.13	428.32
589.29	465.77
589.45	517.26
589.61	358.10
589.77	367.46
589.93	344.06
590.08	418.96
590.24	388.53
590.40	416.62
590.56	430.66
590.72	477.47
590.88	440.02
591.04	379.17
591.20	433.00
591.35	411.93
591.51	407.25
591.67	414.27
591.83	325.33
591.99	367.46
592.15	437.68
592.31	402.57
592.46	402.57
592.62	409.59
592.78	376.83
592.94	416.62
593.10	500.87
593.26	418.96
593.41	409.59
593.57	404.91
593.73	330.02
593.89	447.04
594.05	416.62
594.20	386.19
594.36	411.93
594.52	475.13
594.68	444.70
594.84	440.02
594.99	414.27
595.15	465.77
595.31	491.51
595.47	395.55
595.62	400.23
595.78	400.23
595.94	425.98
596.10	454.06
596.25	383.85
596.41	437.68
596.57	437.68
596.73	416.62
596.88	395.55
597.04	454.06
597.20	407.25
597.36	437.68
597.51	355.76
597.67	351.08
597.83	388.53
597.99	440.02
598.14	423.64
598.30	482.15
598.46	423.64
598.61	461.09
598.77	463.43
598.93	383.85
599.09	388.53
599.24	456.40
599.40	433.00
599.56	388.53
599.71	369.80
599.87	379.17
600.03	423.64
600.18	372.15
600.34	440.02
600.50	428.32
600.65	379.17
600.81	393.21
600.97	423.64
601.12	428.32
601.28	421.30
601.44	365.12
601.59	365.12
601.75	400.23
601.91	433.00
602.06	437.68
602.22	435.34
602.37	423.64
602.53	435.34
602.69	470.45
602.84	372.15
603.00	383.85
603.16	447.04
603.31	437.68
603.47	414.27
603.62	411.93
603.78	411.93
603.94	397.89
604.09	358.10
604.25	425.98
604.40	383.85
604.56	430.66
604.71	388.53
604.87	374.49
605.03	425.98
605.18	423.64
605.34	421.30
605.49	414.27
605.65	407.25
605.80	381.51
605.96	477.47
606.12	416.62
606.27	430.66
606.43	472.79
606.58	444.70
606.74	414.27
606.89	369.80
607.05	369.80
607.20	461.09
607.36	423.64
607.51	461.09
607.67	411.93
607.82	444.70
607.98	390.87
608.13	437.68
608.29	404.91
608.44	411.93
608.60	404.91
608.75	411.93
608.91	416.62
609.06	402.57
609.22	404.91
609.37	433.00
609.53	381.51
609.68	409.59
609.84	372.15
609.99	390.87
610.15	400.23
