SpectraSuite Data File
++++++++++++++++++++++++++++++++++++
Date: Fri Oct 25 12:10:32 EDT 2013
User: price-jones
Dark Spectrum Present: No
Reference Spectrum Present: No
Number of Sampled Component Spectra: 1
Spectrometers: USB2+H05261
Integration Time (usec): 100000 (USB2+H05261)
Spectra Averaged: 1 (USB2+H05261)
Boxcar Smoothing: 0 (USB2+H05261)
Correct for Electrical Dark: No (USB2+H05261)
Strobe/Lamp Enabled: No (USB2+H05261)
Correct for Detector Non-linearity: No (USB2+H05261)
Correct for Stray Light: No (USB2+H05261)
Number of Pixels in Processed Spectrum: 2048
>>>>>Begin Processed Spectral Data<<<<<
365.73	360.44
365.92	360.44
366.12	360.44
366.32	320.65
366.52	285.55
366.72	245.76
366.91	212.99
367.11	259.80
367.31	283.20
367.51	278.52
367.70	248.10
367.90	229.37
368.10	191.92
368.30	191.92
368.49	283.20
368.69	276.18
368.89	313.63
369.09	266.82
369.28	325.33
369.48	287.89
369.68	297.25
369.87	292.57
370.07	320.65
370.27	236.39
370.47	280.86
370.66	374.49
370.86	283.20
371.06	381.51
371.25	372.15
371.45	393.21
371.65	383.85
371.84	313.63
372.04	388.53
372.24	388.53
372.44	477.47
372.63	498.53
372.83	346.40
373.03	383.85
373.22	418.96
373.42	428.32
373.62	435.34
373.81	421.30
374.01	393.21
374.21	407.25
374.40	425.98
374.60	416.62
374.79	400.23
374.99	414.27
375.19	437.68
375.38	383.85
375.58	341.72
375.78	372.15
375.97	454.06
376.17	437.68
376.37	423.64
376.56	435.34
376.76	411.93
376.95	348.74
377.15	440.02
377.35	486.83
377.54	435.34
377.74	463.43
377.93	367.46
378.13	400.23
378.33	479.81
378.52	414.27
378.72	468.11
378.91	430.66
379.11	346.40
379.31	388.53
379.50	416.62
379.70	400.23
379.89	411.93
380.09	407.25
380.28	358.10
380.48	313.63
380.68	418.96
380.87	386.19
381.07	332.36
381.26	454.06
381.46	386.19
381.65	493.85
381.85	409.59
382.04	374.49
382.24	463.43
382.43	402.57
382.63	395.55
382.83	351.08
383.02	390.87
383.22	433.00
383.41	418.96
383.61	381.51
383.80	397.89
384.00	425.98
384.19	400.23
384.39	358.10
384.58	393.21
384.78	341.72
384.97	381.51
385.17	477.47
385.36	327.68
385.56	411.93
385.75	351.08
385.95	369.80
386.14	407.25
386.34	400.23
386.53	379.17
386.72	437.68
386.92	456.40
387.11	411.93
387.31	407.25
387.50	416.62
387.70	360.44
387.89	379.17
388.09	374.49
388.28	416.62
388.48	416.62
388.67	393.21
388.86	411.93
389.06	407.25
389.25	454.06
389.45	397.89
389.64	402.57
389.84	442.36
390.03	400.23
390.22	390.87
390.42	379.17
390.61	360.44
390.81	465.77
391.00	414.27
391.19	437.68
391.39	388.53
391.58	358.10
391.78	381.51
391.97	358.10
392.16	393.21
392.36	423.64
392.55	421.30
392.75	470.45
392.94	440.02
393.13	423.64
393.33	346.40
393.52	372.15
393.71	456.40
393.91	411.93
394.10	397.89
394.29	458.74
394.49	456.40
394.68	390.87
394.88	440.02
395.07	435.34
395.26	365.12
395.46	437.68
395.65	456.40
395.84	390.87
396.04	411.93
396.23	418.96
396.42	437.68
396.62	482.15
396.81	409.59
397.00	383.85
397.19	397.89
397.39	393.21
397.58	456.40
397.77	440.02
397.97	423.64
398.16	339.38
398.35	355.76
398.55	435.34
398.74	409.59
398.93	346.40
399.12	353.42
399.32	411.93
399.51	428.32
399.70	404.91
399.90	507.90
400.09	365.12
400.28	486.83
400.47	400.23
400.67	404.91
400.86	367.46
401.05	390.87
401.24	435.34
401.44	435.34
401.63	454.06
401.82	440.02
402.01	423.64
402.21	404.91
402.40	404.91
402.59	383.85
402.78	397.89
402.97	376.83
403.17	376.83
403.36	367.46
403.55	411.93
403.74	409.59
403.93	388.53
404.13	390.87
404.32	411.93
404.51	374.49
404.70	421.30
404.89	393.21
405.09	442.36
405.28	379.17
405.47	367.46
405.66	454.06
405.85	458.74
406.05	397.89
406.24	423.64
406.43	442.36
406.62	416.62
406.81	440.02
407.00	409.59
407.20	386.19
407.39	386.19
407.58	390.87
407.77	423.64
407.96	409.59
408.15	360.44
408.34	386.19
408.54	428.32
408.73	430.66
408.92	397.89
409.11	425.98
409.30	451.72
409.49	341.72
409.68	463.43
409.87	416.62
410.07	351.08
410.26	433.00
410.45	402.57
410.64	437.68
410.83	386.19
411.02	458.74
411.21	383.85
411.40	425.98
411.59	433.00
411.78	454.06
411.98	444.70
412.17	468.11
412.36	383.85
412.55	411.93
412.74	425.98
412.93	505.56
413.12	411.93
413.31	411.93
413.50	449.38
413.69	348.74
413.88	421.30
414.07	383.85
414.26	435.34
414.45	383.85
414.64	346.40
414.83	351.08
415.02	337.04
415.22	393.21
415.41	416.62
415.60	421.30
415.79	402.57
415.98	468.11
416.17	372.15
416.36	409.59
416.55	269.16
416.74	496.19
416.93	421.30
417.12	362.78
417.31	341.72
417.50	355.76
417.69	465.77
417.88	411.93
418.07	418.96
418.26	400.23
418.45	386.19
418.64	498.53
418.83	416.62
419.02	468.11
419.21	379.17
419.39	411.93
419.58	458.74
419.77	437.68
419.96	458.74
420.15	418.96
420.34	435.34
420.53	355.76
420.72	369.80
420.91	297.25
421.10	407.25
421.29	404.91
421.48	386.19
421.67	411.93
421.86	444.70
422.05	390.87
422.24	411.93
422.43	388.53
422.61	451.72
422.80	435.34
422.99	433.00
423.18	395.55
423.37	409.59
423.56	348.74
423.75	402.57
423.94	433.00
424.13	428.32
424.32	355.76
424.50	414.27
424.69	409.59
424.88	407.25
425.07	418.96
425.26	451.72
425.45	407.25
425.64	423.64
425.83	388.53
426.01	456.40
426.20	379.17
426.39	414.27
426.58	348.74
426.77	421.30
426.96	362.78
427.15	397.89
427.33	442.36
427.52	423.64
427.71	337.04
427.90	437.68
428.09	353.42
428.28	386.19
428.46	334.70
428.65	383.85
428.84	360.44
429.03	414.27
429.22	388.53
429.40	374.49
429.59	409.59
429.78	479.81
429.97	468.11
430.16	409.59
430.34	430.66
430.53	465.77
430.72	404.91
430.91	433.00
431.10	458.74
431.28	367.46
431.47	444.70
431.66	379.17
431.85	381.51
432.03	400.23
432.22	456.40
432.41	353.42
432.60	470.45
432.79	416.62
432.97	327.68
433.16	376.83
433.35	372.15
433.54	404.91
433.72	388.53
433.91	374.49
434.10	414.27
434.28	423.64
434.47	393.21
434.66	468.11
434.85	360.44
435.03	348.74
435.22	454.06
435.41	423.64
435.59	425.98
435.78	409.59
435.97	376.83
436.16	449.38
436.34	430.66
436.53	409.59
436.72	400.23
436.90	451.72
437.09	402.57
437.28	374.49
437.46	362.78
437.65	402.57
437.84	500.87
438.02	433.00
438.21	442.36
438.40	313.63
438.58	372.15
438.77	376.83
438.96	470.45
439.14	374.49
439.33	386.19
439.52	369.80
439.70	365.12
439.89	409.59
440.08	458.74
440.26	444.70
440.45	463.43
440.63	409.59
440.82	402.57
441.01	465.77
441.19	367.46
441.38	414.27
441.57	390.87
441.75	365.12
441.94	397.89
442.12	397.89
442.31	367.46
442.50	416.62
442.68	367.46
442.87	465.77
443.05	376.83
443.24	437.68
443.43	397.89
443.61	418.96
443.80	390.87
443.98	411.93
444.17	503.22
444.35	376.83
444.54	395.55
444.73	418.96
444.91	465.77
445.10	330.02
445.28	358.10
445.47	376.83
445.65	332.36
445.84	475.13
446.02	367.46
446.21	379.17
446.39	301.93
446.58	402.57
446.77	388.53
446.95	414.27
447.14	411.93
447.32	409.59
447.51	402.57
447.69	454.06
447.88	404.91
448.06	468.11
448.25	482.15
448.43	404.91
448.62	449.38
448.80	395.55
448.99	376.83
449.17	468.11
449.36	400.23
449.54	475.13
449.73	372.15
449.91	383.85
450.10	334.70
450.28	395.55
450.46	428.32
450.65	468.11
450.83	440.02
451.02	402.57
451.20	318.31
451.39	411.93
451.57	397.89
451.76	472.79
451.94	372.15
452.13	421.30
452.31	376.83
452.49	416.62
452.68	376.83
452.86	358.10
453.05	369.80
453.23	402.57
453.42	400.23
453.60	353.42
453.78	395.55
453.97	393.21
454.15	400.23
454.34	322.99
454.52	411.93
454.70	362.78
454.89	383.85
455.07	374.49
455.26	395.55
455.44	468.11
455.62	409.59
455.81	444.70
455.99	358.10
456.17	367.46
456.36	423.64
456.54	369.80
456.73	379.17
456.91	362.78
457.09	355.76
457.28	437.68
457.46	404.91
457.64	360.44
457.83	379.17
458.01	388.53
458.19	414.27
458.38	416.62
458.56	397.89
458.74	390.87
458.93	491.51
459.11	435.34
459.29	421.30
459.48	449.38
459.66	418.96
459.84	386.19
460.03	458.74
460.21	458.74
460.39	390.87
460.57	454.06
460.76	379.17
460.94	416.62
461.12	430.66
461.31	430.66
461.49	369.80
461.67	409.59
461.85	442.36
462.04	435.34
462.22	758.33
462.40	437.68
462.59	390.87
462.77	348.74
462.95	395.55
463.13	416.62
463.32	440.02
463.50	416.62
463.68	423.64
463.86	414.27
464.05	397.89
464.23	376.83
464.41	395.55
464.59	461.09
464.78	344.06
464.96	383.85
465.14	442.36
465.32	407.25
465.50	425.98
465.69	355.76
465.87	381.51
466.05	456.40
466.23	379.17
466.41	418.96
466.60	416.62
466.78	428.32
466.96	477.47
467.14	430.66
467.32	404.91
467.51	383.85
467.69	505.56
467.87	428.32
468.05	458.74
468.23	454.06
468.41	484.49
468.60	393.21
468.78	444.70
468.96	421.30
469.14	444.70
469.32	393.21
469.50	414.27
469.69	442.36
469.87	430.66
470.05	465.77
470.23	383.85
470.41	444.70
470.59	407.25
470.77	461.09
470.95	433.00
471.14	451.72
471.32	379.17
471.50	465.77
471.68	402.57
471.86	435.34
472.04	451.72
472.22	423.64
472.40	407.25
472.58	402.57
472.77	418.96
472.95	493.85
473.13	517.26
473.31	435.34
473.49	425.98
473.67	416.62
473.85	407.25
474.03	425.98
474.21	372.15
474.39	400.23
474.57	381.51
474.75	414.27
474.93	404.91
475.12	365.12
475.30	353.42
475.48	393.21
475.66	440.02
475.84	489.17
476.02	440.02
476.20	402.57
476.38	376.83
476.56	505.56
476.74	435.34
476.92	482.15
477.10	379.17
477.28	393.21
477.46	388.53
477.64	465.77
477.82	367.46
478.00	381.51
478.18	423.64
478.36	341.72
478.54	414.27
478.72	397.89
478.90	353.42
479.08	360.44
479.26	409.59
479.44	409.59
479.62	358.10
479.80	346.40
479.98	397.89
480.16	418.96
480.34	409.59
480.52	472.79
480.70	402.57
480.88	332.36
481.06	372.15
481.24	430.66
481.41	458.74
481.59	360.44
481.77	411.93
481.95	395.55
482.13	451.72
482.31	433.00
482.49	400.23
482.67	402.57
482.85	388.53
483.03	447.04
483.21	461.09
483.39	416.62
483.57	353.42
483.74	416.62
483.92	397.89
484.10	379.17
484.28	489.17
484.46	395.55
484.64	444.70
484.82	346.40
485.00	374.49
485.18	355.76
485.35	411.93
485.53	367.46
485.71	418.96
485.89	339.38
486.07	482.15
486.25	486.83
486.43	528.96
486.61	404.91
486.78	360.44
486.96	395.55
487.14	423.64
487.32	510.24
487.50	386.19
487.68	468.11
487.85	397.89
488.03	447.04
488.21	416.62
488.39	369.80
488.57	465.77
488.75	383.85
488.92	521.94
489.10	386.19
489.28	447.04
489.46	425.98
489.64	428.32
489.81	447.04
489.99	440.02
490.17	442.36
490.35	463.43
490.53	397.89
490.70	379.17
490.88	421.30
491.06	362.78
491.24	411.93
491.41	425.98
491.59	423.64
491.77	388.53
491.95	414.27
492.13	393.21
492.30	444.70
492.48	372.15
492.66	388.53
492.84	425.98
493.01	451.72
493.19	402.57
493.37	442.36
493.54	374.49
493.72	400.23
493.90	407.25
494.08	470.45
494.25	440.02
494.43	479.81
494.61	411.93
494.79	416.62
494.96	386.19
495.14	393.21
495.32	404.91
495.49	411.93
495.67	409.59
495.85	379.17
496.02	393.21
496.20	454.06
496.38	416.62
496.55	376.83
496.73	433.00
496.91	341.72
497.09	442.36
497.26	456.40
497.44	402.57
497.62	421.30
497.79	454.06
497.97	526.62
498.14	421.30
498.32	416.62
498.50	381.51
498.67	409.59
498.85	479.81
499.03	395.55
499.20	393.21
499.38	423.64
499.56	381.51
499.73	484.49
499.91	397.89
500.08	395.55
500.26	397.89
500.44	393.21
500.61	374.49
500.79	372.15
500.97	372.15
501.14	395.55
501.32	393.21
501.49	458.74
501.67	423.64
501.84	437.68
502.02	320.65
502.20	468.11
502.37	386.19
502.55	433.00
502.72	407.25
502.90	430.66
503.07	472.79
503.25	411.93
503.43	365.12
503.60	383.85
503.78	367.46
503.95	365.12
504.13	449.38
504.30	428.32
504.48	409.59
504.65	425.98
504.83	554.71
505.01	444.70
505.18	428.32
505.36	493.85
505.53	437.68
505.71	330.02
505.88	433.00
506.06	430.66
506.23	400.23
506.41	386.19
506.58	358.10
506.76	397.89
506.93	458.74
507.11	479.81
507.28	397.89
507.46	348.74
507.63	383.85
507.81	454.06
507.98	414.27
508.16	414.27
508.33	397.89
508.50	414.27
508.68	456.40
508.85	379.17
509.03	461.09
509.20	341.72
509.38	372.15
509.55	386.19
509.73	404.91
509.90	433.00
510.08	393.21
510.25	421.30
510.42	433.00
510.60	411.93
510.77	486.83
510.95	449.38
511.12	367.46
511.30	407.25
511.47	454.06
511.64	454.06
511.82	454.06
511.99	400.23
512.17	435.34
512.34	416.62
512.51	458.74
512.69	416.62
512.86	472.79
513.04	362.78
513.21	388.53
513.38	386.19
513.56	475.13
513.73	337.04
513.90	400.23
514.08	400.23
514.25	447.04
514.43	341.72
514.60	407.25
514.77	318.31
514.95	442.36
515.12	360.44
515.29	428.32
515.47	348.74
515.64	402.57
515.81	447.04
515.99	433.00
516.16	404.91
516.33	428.32
516.51	440.02
516.68	393.21
516.85	334.70
517.03	433.00
517.20	423.64
517.37	381.51
517.54	365.12
517.72	418.96
517.89	330.02
518.06	395.55
518.24	505.56
518.41	444.70
518.58	484.49
518.75	379.17
518.93	390.87
519.10	461.09
519.27	425.98
519.45	411.93
519.62	414.27
519.79	404.91
519.96	421.30
520.14	454.06
520.31	461.09
520.48	383.85
520.65	390.87
520.83	390.87
521.00	367.46
521.17	425.98
521.34	372.15
521.52	444.70
521.69	461.09
521.86	351.08
522.03	337.04
522.20	428.32
522.38	409.59
522.55	365.12
522.72	367.46
522.89	440.02
523.07	414.27
523.24	390.87
523.41	367.46
523.58	444.70
523.75	402.57
523.92	353.42
524.10	402.57
524.27	388.53
524.44	369.80
524.61	486.83
524.78	383.85
524.96	421.30
525.13	470.45
525.30	449.38
525.47	365.12
525.64	421.30
525.81	376.83
525.98	390.87
526.16	397.89
526.33	386.19
526.50	388.53
526.67	430.66
526.84	430.66
527.01	346.40
527.18	463.43
527.36	344.06
527.53	388.53
527.70	386.19
527.87	428.32
528.04	458.74
528.21	393.21
528.38	421.30
528.55	454.06
528.72	416.62
528.89	404.91
529.07	425.98
529.24	451.72
529.41	407.25
529.58	423.64
529.75	484.49
529.92	409.59
530.09	435.34
530.26	421.30
530.43	440.02
530.60	449.38
530.77	411.93
530.94	458.74
531.11	486.83
531.28	374.49
531.46	395.55
531.63	360.44
531.80	479.81
531.97	404.91
532.14	430.66
532.31	369.80
532.48	404.91
532.65	505.56
532.82	334.70
532.99	409.59
533.16	404.91
533.33	381.51
533.50	397.89
533.67	386.19
533.84	411.93
534.01	402.57
534.18	351.08
534.35	437.68
534.52	379.17
534.69	353.42
534.86	430.66
535.03	395.55
535.20	414.27
535.37	477.47
535.54	411.93
535.71	416.62
535.88	454.06
536.05	362.78
536.22	383.85
536.38	376.83
536.55	407.25
536.72	477.47
536.89	451.72
537.06	379.17
537.23	390.87
537.40	423.64
537.57	334.70
537.74	505.56
537.91	468.11
538.08	456.40
538.25	423.64
538.42	381.51
538.59	430.66
538.75	409.59
538.92	409.59
539.09	416.62
539.26	472.79
539.43	484.49
539.60	430.66
539.77	496.19
539.94	365.12
540.11	418.96
540.28	418.96
540.44	435.34
540.61	390.87
540.78	369.80
540.95	365.12
541.12	425.98
541.29	454.06
541.46	465.77
541.62	416.62
541.79	423.64
541.96	442.36
542.13	430.66
542.30	390.87
542.47	486.83
542.63	400.23
542.80	433.00
542.97	463.43
543.14	390.87
543.31	346.40
543.48	393.21
543.64	407.25
543.81	393.21
543.98	374.49
544.15	421.30
544.32	372.15
544.48	468.11
544.65	374.49
544.82	386.19
544.99	367.46
545.16	367.46
545.32	402.57
545.49	423.64
545.66	393.21
545.83	437.68
546.00	440.02
546.16	395.55
546.33	395.55
546.50	435.34
546.67	444.70
546.83	440.02
547.00	367.46
547.17	447.04
547.34	372.15
547.50	390.87
547.67	418.96
547.84	456.40
548.00	475.13
548.17	339.38
548.34	404.91
548.51	479.81
548.67	503.22
548.84	344.06
549.01	463.43
549.18	444.70
549.34	367.46
549.51	397.89
549.68	388.53
549.84	381.51
550.01	435.34
550.18	465.77
550.34	428.32
550.51	421.30
550.68	442.36
550.84	397.89
551.01	482.15
551.18	470.45
551.34	374.49
551.51	454.06
551.68	470.45
551.84	463.43
552.01	341.72
552.18	379.17
552.34	381.51
552.51	465.77
552.68	416.62
552.84	433.00
553.01	365.12
553.18	430.66
553.34	411.93
553.51	402.57
553.67	407.25
553.84	444.70
554.01	423.64
554.17	440.02
554.34	435.34
554.51	372.15
554.67	440.02
554.84	435.34
555.00	416.62
555.17	465.77
555.33	458.74
555.50	383.85
555.67	435.34
555.83	393.21
556.00	449.38
556.16	486.83
556.33	423.64
556.50	442.36
556.66	409.59
556.83	365.12
556.99	362.78
557.16	327.68
557.32	440.02
557.49	440.02
557.65	337.04
557.82	388.53
557.98	435.34
558.15	503.22
558.32	400.23
558.48	386.19
558.65	456.40
558.81	503.22
558.98	402.57
559.14	472.79
559.31	386.19
559.47	397.89
559.64	416.62
559.80	456.40
559.97	414.27
560.13	414.27
560.30	423.64
560.46	423.64
560.63	409.59
560.79	425.98
560.96	383.85
561.12	458.74
561.29	470.45
561.45	425.98
561.61	425.98
561.78	510.24
561.94	423.64
562.11	423.64
562.27	458.74
562.44	468.11
562.60	477.47
562.77	390.87
562.93	507.90
563.10	418.96
563.26	358.10
563.42	461.09
563.59	430.66
563.75	440.02
563.92	362.78
564.08	472.79
564.24	472.79
564.41	500.87
564.57	395.55
564.74	369.80
564.90	468.11
565.07	404.91
565.23	440.02
565.39	383.85
565.56	416.62
565.72	411.93
565.88	397.89
566.05	390.87
566.21	454.06
566.38	440.02
566.54	320.65
566.70	437.68
566.87	414.27
567.03	376.83
567.19	390.87
567.36	402.57
567.52	411.93
567.68	442.36
567.85	390.87
568.01	390.87
568.17	367.46
568.34	493.85
568.50	454.06
568.66	425.98
568.83	477.47
568.99	416.62
569.15	475.13
569.32	372.15
569.48	470.45
569.64	418.96
569.81	404.91
569.97	456.40
570.13	397.89
570.30	456.40
570.46	418.96
570.62	414.27
570.78	407.25
570.95	470.45
571.11	484.49
571.27	465.77
571.43	418.96
571.60	428.32
571.76	386.19
571.92	472.79
572.09	383.85
572.25	421.30
572.41	444.70
572.57	444.70
572.74	418.96
572.90	381.51
573.06	437.68
573.22	472.79
573.38	433.00
573.55	367.46
573.71	454.06
573.87	388.53
574.03	449.38
574.20	451.72
574.36	421.30
574.52	411.93
574.68	411.93
574.84	447.04
575.01	376.83
575.17	444.70
575.33	440.02
575.49	433.00
575.65	447.04
575.82	447.04
575.98	402.57
576.14	353.42
576.30	402.57
576.46	482.15
576.62	372.15
576.79	461.09
576.95	465.77
577.11	418.96
577.27	442.36
577.43	404.91
577.59	470.45
577.75	414.27
577.92	423.64
578.08	449.38
578.24	400.23
578.40	421.30
578.56	477.47
578.72	428.32
578.88	444.70
579.04	461.09
579.21	383.85
579.37	362.78
579.53	355.76
579.69	376.83
579.85	344.06
580.01	435.34
580.17	456.40
580.33	454.06
580.49	383.85
580.65	442.36
580.82	491.51
580.98	454.06
581.14	472.79
581.30	447.04
581.46	353.42
581.62	498.53
581.78	360.44
581.94	451.72
582.10	348.74
582.26	458.74
582.42	388.53
582.58	383.85
582.74	407.25
582.90	437.68
583.06	388.53
583.22	348.74
583.38	407.25
583.54	430.66
583.70	512.58
583.86	440.02
584.02	386.19
584.18	430.66
584.34	381.51
584.50	341.72
584.66	400.23
584.82	381.51
584.98	421.30
585.14	430.66
585.30	421.30
585.46	407.25
585.62	470.45
585.78	425.98
585.94	451.72
586.10	404.91
586.26	489.17
586.42	437.68
586.58	418.96
586.74	353.42
586.90	428.32
587.06	435.34
587.22	437.68
587.38	449.38
587.54	388.53
587.70	400.23
587.86	407.25
588.02	479.81
588.18	430.66
588.34	484.49
588.49	423.64
588.65	393.21
588.81	358.10
588.97	425.98
589.13	411.93
589.29	395.55
589.45	449.38
589.61	423.64
589.77	465.77
589.93	395.55
590.08	425.98
590.24	449.38
590.40	421.30
590.56	470.45
590.72	454.06
590.88	465.77
591.04	463.43
591.20	416.62
591.35	437.68
591.51	355.76
591.67	425.98
591.83	395.55
591.99	355.76
592.15	360.44
592.31	393.21
592.46	437.68
592.62	437.68
592.78	507.90
592.94	433.00
593.10	409.59
593.26	414.27
593.41	437.68
593.57	386.19
593.73	430.66
593.89	458.74
594.05	402.57
594.20	374.49
594.36	463.43
594.52	463.43
594.68	339.38
594.84	440.02
594.99	355.76
595.15	374.49
595.31	334.70
595.47	468.11
595.62	369.80
595.78	341.72
595.94	407.25
596.10	423.64
596.25	468.11
596.41	484.49
596.57	341.72
596.73	355.76
596.88	362.78
597.04	414.27
597.20	416.62
597.36	395.55
597.51	346.40
597.67	379.17
597.83	360.44
597.99	463.43
598.14	428.32
598.30	390.87
598.46	400.23
598.61	388.53
598.77	468.11
598.93	435.34
599.09	390.87
599.24	475.13
599.40	433.00
599.56	365.12
599.71	379.17
599.87	465.77
600.03	393.21
600.18	379.17
600.34	440.02
600.50	388.53
600.65	390.87
600.81	418.96
600.97	409.59
601.12	435.34
601.28	402.57
601.44	435.34
601.59	379.17
601.75	456.40
601.91	454.06
602.06	397.89
602.22	444.70
602.37	444.70
602.53	435.34
602.69	463.43
602.84	400.23
603.00	346.40
603.16	475.13
603.31	418.96
603.47	451.72
603.62	372.15
603.78	369.80
603.94	524.28
604.09	311.29
604.25	374.49
604.40	372.15
604.56	440.02
604.71	416.62
604.87	409.59
605.03	409.59
605.18	393.21
605.34	479.81
605.49	454.06
605.65	379.17
605.80	339.38
605.96	451.72
606.12	360.44
606.27	402.57
606.43	372.15
606.58	465.77
606.74	472.79
606.89	489.17
607.05	461.09
607.20	367.46
607.36	447.04
607.51	425.98
607.67	388.53
607.82	395.55
607.98	397.89
608.13	367.46
608.29	418.96
608.44	400.23
608.60	407.25
608.75	416.62
608.91	411.93
609.06	444.70
609.22	447.04
609.37	355.76
609.53	369.80
609.68	393.21
609.84	379.17
609.99	489.17
610.15	486.83
