SpectraSuite Data File
++++++++++++++++++++++++++++++++++++
Date: Fri Oct 25 12:11:24 EDT 2013
User: price-jones
Dark Spectrum Present: No
Reference Spectrum Present: No
Number of Sampled Component Spectra: 1
Spectrometers: USB2+H05261
Integration Time (usec): 100000 (USB2+H05261)
Spectra Averaged: 1 (USB2+H05261)
Boxcar Smoothing: 0 (USB2+H05261)
Correct for Electrical Dark: No (USB2+H05261)
Strobe/Lamp Enabled: No (USB2+H05261)
Correct for Detector Non-linearity: No (USB2+H05261)
Correct for Stray Light: No (USB2+H05261)
Number of Pixels in Processed Spectrum: 2048
>>>>>Begin Processed Spectral Data<<<<<
365.73	358.10
365.92	358.10
366.12	358.10
366.32	308.95
366.52	257.46
366.72	236.39
366.91	250.44
367.11	173.20
367.31	198.95
367.51	301.93
367.70	196.60
367.90	229.37
368.10	227.03
368.30	224.69
368.49	269.16
368.69	311.29
368.89	273.84
369.09	203.63
369.28	250.44
369.48	273.84
369.68	271.50
369.87	322.99
370.07	337.04
370.27	334.70
370.47	315.97
370.66	355.76
370.86	348.74
371.06	411.93
371.25	425.98
371.45	346.40
371.65	468.11
371.84	322.99
372.04	376.83
372.24	388.53
372.44	320.65
372.63	379.17
372.83	411.93
373.03	404.91
373.22	383.85
373.42	416.62
373.62	393.21
373.81	421.30
374.01	397.89
374.21	418.96
374.40	374.49
374.60	374.49
374.79	383.85
374.99	470.45
375.19	390.87
375.38	386.19
375.58	496.19
375.78	421.30
375.97	442.36
376.17	414.27
376.37	486.83
376.56	416.62
376.76	376.83
376.95	433.00
377.15	390.87
377.35	381.51
377.54	376.83
377.74	353.42
377.93	449.38
378.13	433.00
378.33	461.09
378.52	390.87
378.72	430.66
378.91	388.53
379.11	372.15
379.31	437.68
379.50	402.57
379.70	437.68
379.89	489.17
380.09	360.44
380.28	355.76
380.48	395.55
380.68	318.31
380.87	362.78
381.07	458.74
381.26	477.47
381.46	400.23
381.65	395.55
381.85	393.21
382.04	369.80
382.24	411.93
382.43	433.00
382.63	400.23
382.83	388.53
383.02	458.74
383.22	470.45
383.41	395.55
383.61	374.49
383.80	447.04
384.00	444.70
384.19	395.55
384.39	397.89
384.58	383.85
384.78	395.55
384.97	414.27
385.17	386.19
385.36	365.12
385.56	400.23
385.75	353.42
385.95	390.87
386.14	477.47
386.34	393.21
386.53	400.23
386.72	468.11
386.92	407.25
387.11	376.83
387.31	421.30
387.50	325.33
387.70	425.98
387.89	358.10
388.09	393.21
388.28	372.15
388.48	376.83
388.67	325.33
388.86	407.25
389.06	362.78
389.25	411.93
389.45	409.59
389.64	423.64
389.84	402.57
390.03	358.10
390.22	416.62
390.42	372.15
390.61	358.10
390.81	374.49
391.00	404.91
391.19	435.34
391.39	358.10
391.58	416.62
391.78	472.79
391.97	423.64
392.16	369.80
392.36	395.55
392.55	425.98
392.75	418.96
392.94	454.06
393.13	461.09
393.33	362.78
393.52	430.66
393.71	409.59
393.91	383.85
394.10	351.08
394.29	374.49
394.49	393.21
394.68	402.57
394.88	447.04
395.07	458.74
395.26	351.08
395.46	381.51
395.65	353.42
395.84	449.38
396.04	540.66
396.23	404.91
396.42	397.89
396.62	386.19
396.81	414.27
397.00	451.72
397.19	433.00
397.39	472.79
397.58	437.68
397.77	393.21
397.97	463.43
398.16	442.36
398.35	400.23
398.55	397.89
398.74	407.25
398.93	444.70
399.12	442.36
399.32	440.02
399.51	430.66
399.70	454.06
399.90	379.17
400.09	404.91
400.28	463.43
400.47	362.78
400.67	440.02
400.86	472.79
401.05	414.27
401.24	456.40
401.44	414.27
401.63	437.68
401.82	393.21
402.01	407.25
402.21	395.55
402.40	400.23
402.59	416.62
402.78	416.62
402.97	397.89
403.17	416.62
403.36	369.80
403.55	372.15
403.74	437.68
403.93	341.72
404.13	414.27
404.32	418.96
404.51	437.68
404.70	414.27
404.89	381.51
405.09	510.24
405.28	313.63
405.47	337.04
405.66	418.96
405.85	414.27
406.05	402.57
406.24	386.19
406.43	348.74
406.62	458.74
406.81	454.06
407.00	428.32
407.20	376.83
407.39	425.98
407.58	397.89
407.77	367.46
407.96	393.21
408.15	435.34
408.34	423.64
408.54	397.89
408.73	475.13
408.92	381.51
409.11	433.00
409.30	346.40
409.49	421.30
409.68	440.02
409.87	383.85
410.07	411.93
410.26	379.17
410.45	418.96
410.64	421.30
410.83	390.87
411.02	430.66
411.21	484.49
411.40	409.59
411.59	402.57
411.78	425.98
411.98	416.62
412.17	444.70
412.36	416.62
412.55	379.17
412.74	395.55
412.93	416.62
413.12	418.96
413.31	442.36
413.50	411.93
413.69	440.02
413.88	421.30
414.07	369.80
414.26	400.23
414.45	393.21
414.64	407.25
414.83	388.53
415.02	383.85
415.22	404.91
415.41	433.00
415.60	411.93
415.79	407.25
415.98	461.09
416.17	400.23
416.36	404.91
416.55	330.02
416.74	465.77
416.93	489.17
417.12	400.23
417.31	346.40
417.50	372.15
417.69	421.30
417.88	482.15
418.07	404.91
418.26	442.36
418.45	395.55
418.64	454.06
418.83	428.32
419.02	400.23
419.21	388.53
419.39	430.66
419.58	414.27
419.77	428.32
419.96	390.87
420.15	404.91
420.34	409.59
420.53	447.04
420.72	456.40
420.91	430.66
421.10	341.72
421.29	346.40
421.48	386.19
421.67	440.02
421.86	449.38
422.05	393.21
422.24	475.13
422.43	451.72
422.61	369.80
422.80	365.12
422.99	447.04
423.18	423.64
423.37	470.45
423.56	435.34
423.75	447.04
423.94	428.32
424.13	411.93
424.32	381.51
424.50	383.85
424.69	458.74
424.88	440.02
425.07	472.79
425.26	393.21
425.45	454.06
425.64	477.47
425.83	421.30
426.01	444.70
426.20	416.62
426.39	395.55
426.58	386.19
426.77	421.30
426.96	449.38
427.15	358.10
427.33	428.32
427.52	430.66
427.71	444.70
427.90	454.06
428.09	409.59
428.28	414.27
428.46	425.98
428.65	458.74
428.84	416.62
429.03	484.49
429.22	404.91
429.40	470.45
429.59	414.27
429.78	383.85
429.97	479.81
430.16	383.85
430.34	400.23
430.53	411.93
430.72	397.89
430.91	463.43
431.10	402.57
431.28	437.68
431.47	379.17
431.66	383.85
431.85	369.80
432.03	383.85
432.22	428.32
432.41	400.23
432.60	393.21
432.79	362.78
432.97	390.87
433.16	386.19
433.35	451.72
433.54	472.79
433.72	425.98
433.91	463.43
434.10	416.62
434.28	407.25
434.47	390.87
434.66	381.51
434.85	365.12
435.03	367.46
435.22	447.04
435.41	517.26
435.59	451.72
435.78	365.12
435.97	379.17
436.16	402.57
436.34	379.17
436.53	449.38
436.72	454.06
436.90	456.40
437.09	418.96
437.28	458.74
437.46	402.57
437.65	503.22
437.84	397.89
438.02	386.19
438.21	454.06
438.40	428.32
438.58	388.53
438.77	447.04
438.96	482.15
439.14	435.34
439.33	449.38
439.52	418.96
439.70	402.57
439.89	409.59
440.08	437.68
440.26	435.34
440.45	374.49
440.63	381.51
440.82	465.77
441.01	393.21
441.19	418.96
441.38	423.64
441.57	374.49
441.75	397.89
441.94	409.59
442.12	402.57
442.31	362.78
442.50	458.74
442.68	423.64
442.87	395.55
443.05	470.45
443.24	400.23
443.43	390.87
443.61	468.11
443.80	416.62
443.98	461.09
444.17	447.04
444.35	484.49
444.54	418.96
444.73	411.93
444.91	421.30
445.10	360.44
445.28	421.30
445.47	416.62
445.65	388.53
445.84	379.17
446.02	418.96
446.21	306.61
446.39	409.59
446.58	454.06
446.77	468.11
446.95	414.27
447.14	372.15
447.32	425.98
447.51	411.93
447.69	390.87
447.88	486.83
448.06	414.27
448.25	404.91
448.43	376.83
448.62	428.32
448.80	449.38
448.99	411.93
449.17	428.32
449.36	454.06
449.54	435.34
449.73	407.25
449.91	358.10
450.10	367.46
450.28	400.23
450.46	493.85
450.65	397.89
450.83	477.47
451.02	465.77
451.20	454.06
451.39	355.76
451.57	407.25
451.76	327.68
451.94	454.06
452.13	423.64
452.31	423.64
452.49	428.32
452.68	409.59
452.86	418.96
453.05	472.79
453.23	421.30
453.42	409.59
453.60	409.59
453.78	383.85
453.97	470.45
454.15	388.53
454.34	463.43
454.52	425.98
454.70	404.91
454.89	435.34
455.07	491.51
455.26	444.70
455.44	407.25
455.62	404.91
455.81	393.21
455.99	320.65
456.17	404.91
456.36	416.62
456.54	362.78
456.73	407.25
456.91	444.70
457.09	458.74
457.28	411.93
457.46	414.27
457.64	386.19
457.83	383.85
458.01	456.40
458.19	369.80
458.38	411.93
458.56	379.17
458.74	428.32
458.93	447.04
459.11	369.80
459.29	461.09
459.48	390.87
459.66	407.25
459.84	463.43
460.03	475.13
460.21	461.09
460.39	369.80
460.57	437.68
460.76	411.93
460.94	430.66
461.12	505.56
461.31	468.11
461.49	454.06
461.67	435.34
461.85	383.85
462.04	409.59
462.22	856.64
462.40	430.66
462.59	362.78
462.77	425.98
462.95	475.13
463.13	395.55
463.32	418.96
463.50	379.17
463.68	477.47
463.86	479.81
464.05	458.74
464.23	468.11
464.41	447.04
464.59	379.17
464.78	479.81
464.96	388.53
465.14	461.09
465.32	414.27
465.50	430.66
465.69	428.32
465.87	444.70
466.05	430.66
466.23	372.15
466.41	411.93
466.60	477.47
466.78	461.09
466.96	428.32
467.14	468.11
467.32	433.00
467.51	414.27
467.69	444.70
467.87	442.36
468.05	437.68
468.23	433.00
468.41	409.59
468.60	414.27
468.78	491.51
468.96	475.13
469.14	425.98
469.32	388.53
469.50	437.68
469.69	489.17
469.87	411.93
470.05	440.02
470.23	458.74
470.41	383.85
470.59	404.91
470.77	386.19
470.95	442.36
471.14	418.96
471.32	440.02
471.50	444.70
471.68	451.72
471.86	421.30
472.04	447.04
472.22	407.25
472.40	414.27
472.58	454.06
472.77	346.40
472.95	416.62
473.13	433.00
473.31	433.00
473.49	395.55
473.67	379.17
473.85	400.23
474.03	449.38
474.21	404.91
474.39	433.00
474.57	388.53
474.75	386.19
474.93	383.85
475.12	409.59
475.30	411.93
475.48	465.77
475.66	463.43
475.84	381.51
476.02	376.83
476.20	472.79
476.38	416.62
476.56	496.19
476.74	379.17
476.92	484.49
477.10	402.57
477.28	500.87
477.46	379.17
477.64	409.59
477.82	477.47
478.00	454.06
478.18	444.70
478.36	411.93
478.54	395.55
478.72	390.87
478.90	442.36
479.08	416.62
479.26	402.57
479.44	404.91
479.62	395.55
479.80	358.10
479.98	433.00
480.16	423.64
480.34	395.55
480.52	360.44
480.70	430.66
480.88	447.04
481.06	390.87
481.24	344.06
481.41	367.46
481.59	418.96
481.77	416.62
481.95	355.76
482.13	362.78
482.31	409.59
482.49	461.09
482.67	440.02
482.85	449.38
483.03	379.17
483.21	383.85
483.39	374.49
483.57	386.19
483.74	543.00
483.92	365.12
484.10	400.23
484.28	433.00
484.46	489.17
484.64	402.57
484.82	437.68
485.00	416.62
485.18	409.59
485.35	437.68
485.53	428.32
485.71	519.60
485.89	376.83
486.07	442.36
486.25	400.23
486.43	418.96
486.61	411.93
486.78	372.15
486.96	418.96
487.14	411.93
487.32	407.25
487.50	369.80
487.68	414.27
487.85	416.62
488.03	418.96
488.21	470.45
488.39	428.32
488.57	414.27
488.75	435.34
488.92	486.83
489.10	416.62
489.28	475.13
489.46	393.21
489.64	411.93
489.81	400.23
489.99	407.25
490.17	379.17
490.35	416.62
490.53	435.34
490.70	386.19
490.88	409.59
491.06	388.53
491.24	425.98
491.41	493.85
491.59	454.06
491.77	330.02
491.95	416.62
492.13	409.59
492.30	402.57
492.48	365.12
492.66	411.93
492.84	440.02
493.01	472.79
493.19	411.93
493.37	435.34
493.54	409.59
493.72	402.57
493.90	430.66
494.08	489.17
494.25	475.13
494.43	458.74
494.61	425.98
494.79	374.49
494.96	451.72
495.14	447.04
495.32	409.59
495.49	437.68
495.67	379.17
495.85	425.98
496.02	433.00
496.20	395.55
496.38	440.02
496.55	451.72
496.73	411.93
496.91	444.70
497.09	458.74
497.26	409.59
497.44	409.59
497.62	388.53
497.79	496.19
497.97	402.57
498.14	472.79
498.32	374.49
498.50	444.70
498.67	386.19
498.85	449.38
499.03	348.74
499.20	407.25
499.38	379.17
499.56	430.66
499.73	472.79
499.91	416.62
500.08	355.76
500.26	423.64
500.44	386.19
500.61	468.11
500.79	491.51
500.97	425.98
501.14	397.89
501.32	440.02
501.49	383.85
501.67	411.93
501.84	414.27
502.02	442.36
502.20	456.40
502.37	418.96
502.55	409.59
502.72	428.32
502.90	447.04
503.07	416.62
503.25	451.72
503.43	379.17
503.60	430.66
503.78	367.46
503.95	388.53
504.13	437.68
504.30	402.57
504.48	390.87
504.65	428.32
504.83	381.51
505.01	442.36
505.18	440.02
505.36	447.04
505.53	433.00
505.71	411.93
505.88	433.00
506.06	428.32
506.23	407.25
506.41	423.64
506.58	437.68
506.76	442.36
506.93	414.27
507.11	425.98
507.28	381.51
507.46	484.49
507.63	404.91
507.81	444.70
507.98	388.53
508.16	435.34
508.33	442.36
508.50	425.98
508.68	451.72
508.85	407.25
509.03	421.30
509.20	397.89
509.38	451.72
509.55	440.02
509.73	437.68
509.90	489.17
510.08	402.57
510.25	407.25
510.42	512.58
510.60	390.87
510.77	442.36
510.95	468.11
511.12	411.93
511.30	411.93
511.47	402.57
511.64	395.55
511.82	351.08
511.99	465.77
512.17	404.91
512.34	428.32
512.51	425.98
512.69	397.89
512.86	440.02
513.04	425.98
513.21	423.64
513.38	423.64
513.56	383.85
513.73	447.04
513.90	430.66
514.08	393.21
514.25	482.15
514.43	393.21
514.60	437.68
514.77	468.11
514.95	390.87
515.12	362.78
515.29	430.66
515.47	428.32
515.64	386.19
515.81	433.00
515.99	404.91
516.16	423.64
516.33	451.72
516.51	425.98
516.68	428.32
516.85	421.30
517.03	477.47
517.20	470.45
517.37	524.28
517.54	379.17
517.72	334.70
517.89	411.93
518.06	447.04
518.24	458.74
518.41	456.40
518.58	449.38
518.75	400.23
518.93	400.23
519.10	447.04
519.27	388.53
519.45	369.80
519.62	400.23
519.79	440.02
519.96	409.59
520.14	437.68
520.31	489.17
520.48	435.34
520.65	411.93
520.83	383.85
521.00	418.96
521.17	423.64
521.34	444.70
521.52	393.21
521.69	456.40
521.86	397.89
522.03	435.34
522.20	411.93
522.38	428.32
522.55	470.45
522.72	414.27
522.89	400.23
523.07	496.19
523.24	461.09
523.41	435.34
523.58	376.83
523.75	353.42
523.92	351.08
524.10	440.02
524.27	444.70
524.44	423.64
524.61	444.70
524.78	447.04
524.96	447.04
525.13	503.22
525.30	458.74
525.47	477.47
525.64	456.40
525.81	468.11
525.98	409.59
526.16	365.12
526.33	395.55
526.50	365.12
526.67	383.85
526.84	456.40
527.01	472.79
527.18	449.38
527.36	430.66
527.53	458.74
527.70	437.68
527.87	440.02
528.04	503.22
528.21	425.98
528.38	461.09
528.55	423.64
528.72	444.70
528.89	461.09
529.07	470.45
529.24	404.91
529.41	397.89
529.58	418.96
529.75	418.96
529.92	430.66
530.09	397.89
530.26	435.34
530.43	435.34
530.60	416.62
530.77	393.21
530.94	383.85
531.11	386.19
531.28	397.89
531.46	433.00
531.63	395.55
531.80	430.66
531.97	430.66
532.14	458.74
532.31	423.64
532.48	496.19
532.65	428.32
532.82	414.27
532.99	505.56
533.16	430.66
533.33	407.25
533.50	470.45
533.67	353.42
533.84	374.49
534.01	425.98
534.18	430.66
534.35	444.70
534.52	482.15
534.69	418.96
534.86	395.55
535.03	376.83
535.20	421.30
535.37	465.77
535.54	447.04
535.71	425.98
535.88	414.27
536.05	458.74
536.22	477.47
536.38	458.74
536.55	421.30
536.72	498.53
536.89	351.08
537.06	442.36
537.23	346.40
537.40	402.57
537.57	458.74
537.74	496.19
537.91	489.17
538.08	435.34
538.25	402.57
538.42	425.98
538.59	440.02
538.75	404.91
538.92	428.32
539.09	404.91
539.26	449.38
539.43	404.91
539.60	423.64
539.77	496.19
539.94	425.98
540.11	407.25
540.28	456.40
540.44	440.02
540.61	402.57
540.78	407.25
540.95	421.30
541.12	482.15
541.29	416.62
541.46	430.66
541.62	465.77
541.79	414.27
541.96	409.59
542.13	402.57
542.30	376.83
542.47	451.72
542.63	468.11
542.80	425.98
542.97	496.19
543.14	416.62
543.31	484.49
543.48	388.53
543.64	454.06
543.81	425.98
543.98	404.91
544.15	355.76
544.32	374.49
544.48	386.19
544.65	348.74
544.82	374.49
544.99	451.72
545.16	454.06
545.32	372.15
545.49	402.57
545.66	339.38
545.83	372.15
546.00	451.72
546.16	379.17
546.33	393.21
546.50	414.27
546.67	479.81
546.83	454.06
547.00	404.91
547.17	411.93
547.34	435.34
547.50	496.19
547.67	428.32
547.84	374.49
548.00	496.19
548.17	393.21
548.34	458.74
548.51	404.91
548.67	355.76
548.84	437.68
549.01	386.19
549.18	337.04
549.34	416.62
549.51	421.30
549.68	463.43
549.84	444.70
550.01	358.10
550.18	461.09
550.34	510.24
550.51	465.77
550.68	447.04
550.84	421.30
551.01	461.09
551.18	435.34
551.34	479.81
551.51	367.46
551.68	402.57
551.84	395.55
552.01	320.65
552.18	416.62
552.34	428.32
552.51	442.36
552.68	444.70
552.84	437.68
553.01	402.57
553.18	379.17
553.34	421.30
553.51	400.23
553.67	404.91
553.84	442.36
554.01	367.46
554.17	470.45
554.34	395.55
554.51	440.02
554.67	498.53
554.84	447.04
555.00	440.02
555.17	395.55
555.33	479.81
555.50	433.00
555.67	444.70
555.83	376.83
556.00	428.32
556.16	557.05
556.33	435.34
556.50	451.72
556.66	386.19
556.83	428.32
556.99	344.06
557.16	358.10
557.32	388.53
557.49	365.12
557.65	411.93
557.82	414.27
557.98	418.96
558.15	400.23
558.32	447.04
558.48	423.64
558.65	386.19
558.81	461.09
558.98	414.27
559.14	440.02
559.31	433.00
559.47	386.19
559.64	416.62
559.80	409.59
559.97	379.17
560.13	395.55
560.30	437.68
560.46	351.08
560.63	409.59
560.79	465.77
560.96	372.15
561.12	411.93
561.29	397.89
561.45	472.79
561.61	421.30
561.78	451.72
561.94	433.00
562.11	430.66
562.27	435.34
562.44	430.66
562.60	456.40
562.77	407.25
562.93	561.73
563.10	430.66
563.26	365.12
563.42	444.70
563.59	454.06
563.75	397.89
563.92	400.23
564.08	444.70
564.24	470.45
564.41	498.53
564.57	437.68
564.74	411.93
564.90	444.70
565.07	482.15
565.23	442.36
565.39	458.74
565.56	510.24
565.72	381.51
565.88	496.19
566.05	470.45
566.21	411.93
566.38	421.30
566.54	376.83
566.70	425.98
566.87	374.49
567.03	458.74
567.19	442.36
567.36	423.64
567.52	463.43
567.68	425.98
567.85	423.64
568.01	407.25
568.17	447.04
568.34	411.93
568.50	477.47
568.66	440.02
568.83	470.45
568.99	322.99
569.15	416.62
569.32	386.19
569.48	372.15
569.64	435.34
569.81	411.93
569.97	409.59
570.13	404.91
570.30	421.30
570.46	510.24
570.62	423.64
570.78	435.34
570.95	402.57
571.11	437.68
571.27	433.00
571.43	409.59
571.60	430.66
571.76	447.04
571.92	376.83
572.09	437.68
572.25	479.81
572.41	496.19
572.57	425.98
572.74	482.15
572.90	407.25
573.06	404.91
573.22	463.43
573.38	428.32
573.55	535.98
573.71	411.93
573.87	393.21
574.03	418.96
574.20	390.87
574.36	397.89
574.52	447.04
574.68	341.72
574.84	465.77
575.01	449.38
575.17	372.15
575.33	374.49
575.49	397.89
575.65	472.79
575.82	484.49
575.98	447.04
576.14	461.09
576.30	402.57
576.46	369.80
576.62	409.59
576.79	435.34
576.95	433.00
577.11	407.25
577.27	470.45
577.43	440.02
577.59	510.24
577.75	362.78
577.92	418.96
578.08	479.81
578.24	461.09
578.40	428.32
578.56	414.27
578.72	440.02
578.88	416.62
579.04	409.59
579.21	435.34
579.37	409.59
579.53	447.04
579.69	447.04
579.85	416.62
580.01	447.04
580.17	433.00
580.33	458.74
580.49	428.32
580.65	442.36
580.82	404.91
580.98	428.32
581.14	463.43
581.30	451.72
581.46	388.53
581.62	444.70
581.78	416.62
581.94	400.23
582.10	416.62
582.26	440.02
582.42	470.45
582.58	388.53
582.74	379.17
582.90	381.51
583.06	386.19
583.22	423.64
583.38	395.55
583.54	390.87
583.70	526.62
583.86	374.49
584.02	421.30
584.18	430.66
584.34	421.30
584.50	351.08
584.66	402.57
584.82	365.12
584.98	425.98
585.14	376.83
585.30	414.27
585.46	409.59
585.62	393.21
585.78	449.38
585.94	407.25
586.10	407.25
586.26	418.96
586.42	437.68
586.58	444.70
586.74	372.15
586.90	407.25
587.06	423.64
587.22	411.93
587.38	423.64
587.54	458.74
587.70	470.45
587.86	386.19
588.02	458.74
588.18	353.42
588.34	400.23
588.49	407.25
588.65	486.83
588.81	423.64
588.97	414.27
589.13	461.09
589.29	376.83
589.45	444.70
589.61	461.09
589.77	472.79
589.93	461.09
590.08	409.59
590.24	374.49
590.40	379.17
590.56	498.53
590.72	374.49
590.88	440.02
591.04	421.30
591.20	449.38
591.35	514.92
591.51	449.38
591.67	449.38
591.83	458.74
591.99	418.96
592.15	395.55
592.31	372.15
592.46	393.21
592.62	397.89
592.78	428.32
592.94	440.02
593.10	365.12
593.26	388.53
593.41	388.53
593.57	383.85
593.73	383.85
593.89	421.30
594.05	402.57
594.20	454.06
594.36	468.11
594.52	360.44
594.68	365.12
594.84	416.62
594.99	479.81
595.15	430.66
595.31	437.68
595.47	421.30
595.62	416.62
595.78	428.32
595.94	372.15
596.10	388.53
596.25	425.98
596.41	379.17
596.57	461.09
596.73	449.38
596.88	421.30
597.04	397.89
597.20	416.62
597.36	442.36
597.51	444.70
597.67	416.62
597.83	442.36
597.99	454.06
598.14	496.19
598.30	521.94
598.46	440.02
598.61	454.06
598.77	407.25
598.93	374.49
599.09	421.30
599.24	437.68
599.40	407.25
599.56	402.57
599.71	414.27
599.87	411.93
600.03	390.87
600.18	435.34
600.34	447.04
600.50	393.21
600.65	376.83
600.81	451.72
600.97	411.93
601.12	465.77
601.28	458.74
601.44	433.00
601.59	421.30
601.75	409.59
601.91	414.27
602.06	407.25
602.22	512.58
602.37	454.06
602.53	482.15
602.69	444.70
602.84	414.27
603.00	428.32
603.16	430.66
603.31	367.46
603.47	418.96
603.62	355.76
603.78	454.06
603.94	390.87
604.09	395.55
604.25	362.78
604.40	423.64
604.56	351.08
604.71	353.42
604.87	416.62
605.03	322.99
605.18	463.43
605.34	393.21
605.49	442.36
605.65	379.17
605.80	423.64
605.96	393.21
606.12	458.74
606.27	397.89
606.43	395.55
606.58	468.11
606.74	351.08
606.89	390.87
607.05	374.49
607.20	451.72
607.36	407.25
607.51	330.02
607.67	379.17
607.82	425.98
607.98	433.00
608.13	411.93
608.29	390.87
608.44	484.49
608.60	456.40
608.75	433.00
608.91	447.04
609.06	416.62
609.22	365.12
609.37	374.49
609.53	376.83
609.68	416.62
609.84	400.23
609.99	397.89
610.15	339.38
