SpectraSuite Data File
++++++++++++++++++++++++++++++++++++
Date: Fri Oct 25 12:11:30 EDT 2013
User: price-jones
Dark Spectrum Present: No
Reference Spectrum Present: No
Number of Sampled Component Spectra: 1
Spectrometers: USB2+H05261
Integration Time (usec): 100000 (USB2+H05261)
Spectra Averaged: 1 (USB2+H05261)
Boxcar Smoothing: 0 (USB2+H05261)
Correct for Electrical Dark: No (USB2+H05261)
Strobe/Lamp Enabled: No (USB2+H05261)
Correct for Detector Non-linearity: No (USB2+H05261)
Correct for Stray Light: No (USB2+H05261)
Number of Pixels in Processed Spectrum: 2048
>>>>>Begin Processed Spectral Data<<<<<
365.73	390.87
365.92	390.87
366.12	390.87
366.32	250.44
366.52	220.01
366.72	306.61
366.91	259.80
367.11	210.65
367.31	138.09
367.51	273.84
367.70	229.37
367.90	229.37
368.10	248.10
368.30	262.14
368.49	205.97
368.69	332.36
368.89	299.59
369.09	163.84
369.28	250.44
369.48	220.01
369.68	320.65
369.87	339.38
370.07	334.70
370.27	318.31
370.47	393.21
370.66	334.70
370.86	360.44
371.06	468.11
371.25	376.83
371.45	360.44
371.65	393.21
371.84	334.70
372.04	327.68
372.24	386.19
372.44	339.38
372.63	425.98
372.83	400.23
373.03	332.36
373.22	348.74
373.42	433.00
373.62	409.59
373.81	407.25
374.01	402.57
374.21	442.36
374.40	430.66
374.60	397.89
374.79	484.49
374.99	454.06
375.19	428.32
375.38	496.19
375.58	444.70
375.78	397.89
375.97	430.66
376.17	409.59
376.37	358.10
376.56	365.12
376.76	430.66
376.95	325.33
377.15	416.62
377.35	475.13
377.54	470.45
377.74	440.02
377.93	433.00
378.13	379.17
378.33	395.55
378.52	355.76
378.72	486.83
378.91	437.68
379.11	449.38
379.31	315.97
379.50	393.21
379.70	428.32
379.89	374.49
380.09	442.36
380.28	393.21
380.48	421.30
380.68	411.93
380.87	388.53
381.07	346.40
381.26	353.42
381.46	383.85
381.65	381.51
381.85	367.46
382.04	414.27
382.24	496.19
382.43	435.34
382.63	322.99
382.83	334.70
383.02	409.59
383.22	386.19
383.41	383.85
383.61	393.21
383.80	339.38
384.00	411.93
384.19	386.19
384.39	428.32
384.58	311.29
384.78	505.56
384.97	388.53
385.17	442.36
385.36	416.62
385.56	379.17
385.75	440.02
385.95	416.62
386.14	484.49
386.34	404.91
386.53	421.30
386.72	379.17
386.92	337.04
387.11	395.55
387.31	423.64
387.50	355.76
387.70	428.32
387.89	369.80
388.09	477.47
388.28	435.34
388.48	472.79
388.67	416.62
388.86	393.21
389.06	369.80
389.25	447.04
389.45	353.42
389.64	332.36
389.84	524.28
390.03	386.19
390.22	402.57
390.42	461.09
390.61	428.32
390.81	402.57
391.00	374.49
391.19	383.85
391.39	383.85
391.58	402.57
391.78	411.93
391.97	386.19
392.16	430.66
392.36	383.85
392.55	402.57
392.75	440.02
392.94	388.53
393.13	484.49
393.33	374.49
393.52	344.06
393.71	400.23
393.91	374.49
394.10	351.08
394.29	430.66
394.49	280.86
394.68	437.68
394.88	404.91
395.07	365.12
395.26	358.10
395.46	461.09
395.65	400.23
395.84	454.06
396.04	496.19
396.23	348.74
396.42	411.93
396.62	451.72
396.81	484.49
397.00	468.11
397.19	456.40
397.39	390.87
397.58	369.80
397.77	330.02
397.97	360.44
398.16	421.30
398.35	383.85
398.55	404.91
398.74	395.55
398.93	330.02
399.12	411.93
399.32	447.04
399.51	409.59
399.70	397.89
399.90	367.46
400.09	475.13
400.28	454.06
400.47	456.40
400.67	411.93
400.86	379.17
401.05	397.89
401.24	372.15
401.44	442.36
401.63	430.66
401.82	381.51
402.01	344.06
402.21	409.59
402.40	484.49
402.59	442.36
402.78	379.17
402.97	411.93
403.17	383.85
403.36	461.09
403.55	383.85
403.74	440.02
403.93	353.42
404.13	407.25
404.32	411.93
404.51	376.83
404.70	451.72
404.89	397.89
405.09	447.04
405.28	418.96
405.47	411.93
405.66	451.72
405.85	393.21
406.05	456.40
406.24	447.04
406.43	475.13
406.62	416.62
406.81	456.40
407.00	400.23
407.20	421.30
407.39	437.68
407.58	381.51
407.77	388.53
407.96	433.00
408.15	482.15
408.34	493.85
408.54	395.55
408.73	402.57
408.92	510.24
409.11	397.89
409.30	444.70
409.49	376.83
409.68	444.70
409.87	416.62
410.07	418.96
410.26	414.27
410.45	393.21
410.64	458.74
410.83	482.15
411.02	449.38
411.21	376.83
411.40	407.25
411.59	416.62
411.78	372.15
411.98	297.25
412.17	376.83
412.36	444.70
412.55	315.97
412.74	379.17
412.93	428.32
413.12	468.11
413.31	449.38
413.50	430.66
413.69	433.00
413.88	409.59
414.07	358.10
414.26	435.34
414.45	341.72
414.64	407.25
414.83	397.89
415.02	383.85
415.22	409.59
415.41	397.89
415.60	444.70
415.79	362.78
415.98	449.38
416.17	407.25
416.36	449.38
416.55	358.10
416.74	407.25
416.93	358.10
417.12	383.85
417.31	358.10
417.50	395.55
417.69	440.02
417.88	411.93
418.07	437.68
418.26	444.70
418.45	435.34
418.64	428.32
418.83	470.45
419.02	442.36
419.21	531.30
419.39	421.30
419.58	430.66
419.77	425.98
419.96	348.74
420.15	440.02
420.34	444.70
420.53	379.17
420.72	355.76
420.91	386.19
421.10	428.32
421.29	402.57
421.48	372.15
421.67	390.87
421.86	388.53
422.05	425.98
422.24	374.49
422.43	390.87
422.61	393.21
422.80	482.15
422.99	404.91
423.18	400.23
423.37	465.77
423.56	507.90
423.75	414.27
423.94	407.25
424.13	411.93
424.32	369.80
424.50	341.72
424.69	423.64
424.88	430.66
425.07	449.38
425.26	374.49
425.45	402.57
425.64	404.91
425.83	423.64
426.01	465.77
426.20	447.04
426.39	440.02
426.58	402.57
426.77	472.79
426.96	407.25
427.15	379.17
427.33	388.53
427.52	383.85
427.71	330.02
427.90	444.70
428.09	400.23
428.28	306.61
428.46	402.57
428.65	418.96
428.84	409.59
429.03	456.40
429.22	407.25
429.40	393.21
429.59	362.78
429.78	423.64
429.97	442.36
430.16	433.00
430.34	379.17
430.53	421.30
430.72	393.21
430.91	425.98
431.10	421.30
431.28	386.19
431.47	425.98
431.66	423.64
431.85	395.55
432.03	381.51
432.22	402.57
432.41	425.98
432.60	451.72
432.79	463.43
432.97	367.46
433.16	355.76
433.35	416.62
433.54	400.23
433.72	456.40
433.91	414.27
434.10	390.87
434.28	433.00
434.47	484.49
434.66	444.70
434.85	414.27
435.03	407.25
435.22	461.09
435.41	442.36
435.59	442.36
435.78	379.17
435.97	430.66
436.16	463.43
436.34	381.51
436.53	454.06
436.72	454.06
436.90	407.25
437.09	433.00
437.28	353.42
437.46	411.93
437.65	416.62
437.84	425.98
438.02	447.04
438.21	430.66
438.40	383.85
438.58	390.87
438.77	386.19
438.96	344.06
439.14	418.96
439.33	390.87
439.52	425.98
439.70	421.30
439.89	454.06
440.08	407.25
440.26	397.89
440.45	428.32
440.63	435.34
440.82	388.53
441.01	409.59
441.19	381.51
441.38	484.49
441.57	400.23
441.75	447.04
441.94	409.59
442.12	395.55
442.31	395.55
442.50	386.19
442.68	414.27
442.87	451.72
443.05	397.89
443.24	348.74
443.43	456.40
443.61	390.87
443.80	407.25
443.98	395.55
444.17	332.36
444.35	454.06
444.54	475.13
444.73	395.55
444.91	449.38
445.10	447.04
445.28	442.36
445.47	430.66
445.65	411.93
445.84	456.40
446.02	404.91
446.21	454.06
446.39	407.25
446.58	425.98
446.77	404.91
446.95	489.17
447.14	411.93
447.32	458.74
447.51	447.04
447.69	407.25
447.88	411.93
448.06	458.74
448.25	367.46
448.43	414.27
448.62	416.62
448.80	407.25
448.99	428.32
449.17	369.80
449.36	397.89
449.54	451.72
449.73	397.89
449.91	423.64
450.10	409.59
450.28	379.17
450.46	416.62
450.65	451.72
450.83	425.98
451.02	440.02
451.20	454.06
451.39	407.25
451.57	388.53
451.76	404.91
451.94	400.23
452.13	503.22
452.31	423.64
452.49	407.25
452.68	437.68
452.86	489.17
453.05	456.40
453.23	468.11
453.42	423.64
453.60	435.34
453.78	397.89
453.97	418.96
454.15	386.19
454.34	353.42
454.52	461.09
454.70	407.25
454.89	468.11
455.07	433.00
455.26	414.27
455.44	411.93
455.62	376.83
455.81	351.08
455.99	411.93
456.17	521.94
456.36	404.91
456.54	301.93
456.73	407.25
456.91	400.23
457.09	374.49
457.28	458.74
457.46	409.59
457.64	411.93
457.83	381.51
458.01	437.68
458.19	435.34
458.38	397.89
458.56	447.04
458.74	386.19
458.93	397.89
459.11	383.85
459.29	479.81
459.48	346.40
459.66	388.53
459.84	433.00
460.03	463.43
460.21	449.38
460.39	428.32
460.57	496.19
460.76	423.64
460.94	414.27
461.12	475.13
461.31	479.81
461.49	449.38
461.67	339.38
461.85	402.57
462.04	423.64
462.22	681.10
462.40	444.70
462.59	421.30
462.77	435.34
462.95	442.36
463.13	414.27
463.32	386.19
463.50	458.74
463.68	421.30
463.86	383.85
464.05	437.68
464.23	447.04
464.41	444.70
464.59	411.93
464.78	379.17
464.96	346.40
465.14	374.49
465.32	390.87
465.50	435.34
465.69	428.32
465.87	407.25
466.05	395.55
466.23	320.65
466.41	437.68
466.60	428.32
466.78	435.34
466.96	484.49
467.14	416.62
467.32	386.19
467.51	402.57
467.69	505.56
467.87	456.40
468.05	388.53
468.23	477.47
468.41	358.10
468.60	414.27
468.78	376.83
468.96	493.85
469.14	442.36
469.32	348.74
469.50	411.93
469.69	414.27
469.87	374.49
470.05	444.70
470.23	437.68
470.41	409.59
470.59	388.53
470.77	440.02
470.95	444.70
471.14	472.79
471.32	437.68
471.50	470.45
471.68	440.02
471.86	397.89
472.04	374.49
472.22	348.74
472.40	353.42
472.58	409.59
472.77	409.59
472.95	458.74
473.13	423.64
473.31	451.72
473.49	425.98
473.67	475.13
473.85	456.40
474.03	388.53
474.21	414.27
474.39	505.56
474.57	433.00
474.75	458.74
474.93	400.23
475.12	395.55
475.30	416.62
475.48	346.40
475.66	447.04
475.84	421.30
476.02	372.15
476.20	454.06
476.38	451.72
476.56	435.34
476.74	416.62
476.92	404.91
477.10	421.30
477.28	461.09
477.46	397.89
477.64	444.70
477.82	386.19
478.00	395.55
478.18	402.57
478.36	388.53
478.54	402.57
478.72	472.79
478.90	379.17
479.08	353.42
479.26	379.17
479.44	465.77
479.62	358.10
479.80	353.42
479.98	311.29
480.16	435.34
480.34	423.64
480.52	447.04
480.70	360.44
480.88	379.17
481.06	381.51
481.24	393.21
481.41	397.89
481.59	423.64
481.77	444.70
481.95	433.00
482.13	491.51
482.31	390.87
482.49	428.32
482.67	454.06
482.85	465.77
483.03	402.57
483.21	400.23
483.39	430.66
483.57	414.27
483.74	421.30
483.92	456.40
484.10	400.23
484.28	468.11
484.46	458.74
484.64	423.64
484.82	365.12
485.00	440.02
485.18	444.70
485.35	496.19
485.53	341.72
485.71	418.96
485.89	482.15
486.07	341.72
486.25	465.77
486.43	404.91
486.61	468.11
486.78	423.64
486.96	447.04
487.14	428.32
487.32	411.93
487.50	355.76
487.68	423.64
487.85	390.87
488.03	388.53
488.21	358.10
488.39	383.85
488.57	404.91
488.75	468.11
488.92	531.30
489.10	369.80
489.28	393.21
489.46	430.66
489.64	444.70
489.81	430.66
489.99	376.83
490.17	346.40
490.35	458.74
490.53	383.85
490.70	425.98
490.88	416.62
491.06	379.17
491.24	393.21
491.41	402.57
491.59	442.36
491.77	454.06
491.95	449.38
492.13	407.25
492.30	428.32
492.48	430.66
492.66	367.46
492.84	367.46
493.01	400.23
493.19	374.49
493.37	425.98
493.54	449.38
493.72	423.64
493.90	428.32
494.08	421.30
494.25	449.38
494.43	418.96
494.61	360.44
494.79	435.34
494.96	440.02
495.14	461.09
495.32	454.06
495.49	367.46
495.67	414.27
495.85	433.00
496.02	418.96
496.20	386.19
496.38	479.81
496.55	381.51
496.73	400.23
496.91	369.80
497.09	430.66
497.26	372.15
497.44	397.89
497.62	353.42
497.79	360.44
497.97	482.15
498.14	404.91
498.32	383.85
498.50	414.27
498.67	461.09
498.85	454.06
499.03	404.91
499.20	404.91
499.38	383.85
499.56	454.06
499.73	402.57
499.91	404.91
500.08	393.21
500.26	388.53
500.44	402.57
500.61	514.92
500.79	414.27
500.97	414.27
501.14	465.77
501.32	351.08
501.49	468.11
501.67	388.53
501.84	397.89
502.02	351.08
502.20	472.79
502.37	400.23
502.55	411.93
502.72	386.19
502.90	531.30
503.07	484.49
503.25	421.30
503.43	400.23
503.60	400.23
503.78	428.32
503.95	468.11
504.13	400.23
504.30	376.83
504.48	491.51
504.65	449.38
504.83	397.89
505.01	430.66
505.18	414.27
505.36	402.57
505.53	388.53
505.71	437.68
505.88	428.32
506.06	430.66
506.23	416.62
506.41	418.96
506.58	440.02
506.76	423.64
506.93	444.70
507.11	433.00
507.28	425.98
507.46	369.80
507.63	418.96
507.81	376.83
507.98	360.44
508.16	374.49
508.33	351.08
508.50	437.68
508.68	376.83
508.85	416.62
509.03	437.68
509.20	369.80
509.38	409.59
509.55	475.13
509.73	395.55
509.90	528.96
510.08	435.34
510.25	458.74
510.42	482.15
510.60	479.81
510.77	423.64
510.95	435.34
511.12	400.23
511.30	435.34
511.47	444.70
511.64	465.77
511.82	418.96
511.99	430.66
512.17	496.19
512.34	430.66
512.51	421.30
512.69	341.72
512.86	444.70
513.04	360.44
513.21	449.38
513.38	400.23
513.56	341.72
513.73	414.27
513.90	397.89
514.08	393.21
514.25	465.77
514.43	425.98
514.60	411.93
514.77	475.13
514.95	437.68
515.12	423.64
515.29	514.92
515.47	512.58
515.64	421.30
515.81	444.70
515.99	472.79
516.16	440.02
516.33	458.74
516.51	400.23
516.68	395.55
516.85	456.40
517.03	416.62
517.20	444.70
517.37	451.72
517.54	360.44
517.72	454.06
517.89	334.70
518.06	428.32
518.24	421.30
518.41	393.21
518.58	470.45
518.75	393.21
518.93	411.93
519.10	440.02
519.27	451.72
519.45	393.21
519.62	397.89
519.79	407.25
519.96	416.62
520.14	454.06
520.31	475.13
520.48	411.93
520.65	442.36
520.83	456.40
521.00	407.25
521.17	447.04
521.34	390.87
521.52	435.34
521.69	404.91
521.86	454.06
522.03	489.17
522.20	521.94
522.38	374.49
522.55	479.81
522.72	386.19
522.89	379.17
523.07	395.55
523.24	416.62
523.41	418.96
523.58	379.17
523.75	353.42
523.92	416.62
524.10	365.12
524.27	463.43
524.44	454.06
524.61	444.70
524.78	346.40
524.96	418.96
525.13	418.96
525.30	425.98
525.47	521.94
525.64	353.42
525.81	470.45
525.98	472.79
526.16	400.23
526.33	393.21
526.50	409.59
526.67	428.32
526.84	379.17
527.01	418.96
527.18	449.38
527.36	386.19
527.53	444.70
527.70	411.93
527.87	376.83
528.04	428.32
528.21	447.04
528.38	486.83
528.55	409.59
528.72	414.27
528.89	465.77
529.07	383.85
529.24	449.38
529.41	451.72
529.58	430.66
529.75	367.46
529.92	423.64
530.09	348.74
530.26	475.13
530.43	447.04
530.60	383.85
530.77	351.08
530.94	447.04
531.11	425.98
531.28	421.30
531.46	395.55
531.63	425.98
531.80	386.19
531.97	433.00
532.14	449.38
532.31	416.62
532.48	433.00
532.65	409.59
532.82	411.93
532.99	395.55
533.16	470.45
533.33	409.59
533.50	379.17
533.67	397.89
533.84	404.91
534.01	411.93
534.18	404.91
534.35	447.04
534.52	423.64
534.69	383.85
534.86	395.55
535.03	362.78
535.20	388.53
535.37	444.70
535.54	423.64
535.71	390.87
535.88	470.45
536.05	411.93
536.22	437.68
536.38	442.36
536.55	379.17
536.72	416.62
536.89	379.17
537.06	400.23
537.23	346.40
537.40	400.23
537.57	369.80
537.74	430.66
537.91	489.17
538.08	465.77
538.25	397.89
538.42	381.51
538.59	362.78
538.75	521.94
538.92	330.02
539.09	393.21
539.26	442.36
539.43	468.11
539.60	468.11
539.77	423.64
539.94	449.38
540.11	421.30
540.28	524.28
540.44	433.00
540.61	421.30
540.78	454.06
540.95	472.79
541.12	440.02
541.29	449.38
541.46	388.53
541.62	395.55
541.79	395.55
541.96	395.55
542.13	404.91
542.30	416.62
542.47	404.91
542.63	425.98
542.80	404.91
542.97	425.98
543.14	390.87
543.31	411.93
543.48	423.64
543.64	409.59
543.81	334.70
543.98	440.02
544.15	414.27
544.32	376.83
544.48	332.36
544.65	400.23
544.82	344.06
544.99	451.72
545.16	397.89
545.32	372.15
545.49	418.96
545.66	503.22
545.83	341.72
546.00	454.06
546.16	407.25
546.33	386.19
546.50	374.49
546.67	444.70
546.83	402.57
547.00	458.74
547.17	393.21
547.34	407.25
547.50	475.13
547.67	423.64
547.84	397.89
548.00	395.55
548.17	435.34
548.34	414.27
548.51	470.45
548.67	428.32
548.84	400.23
549.01	383.85
549.18	381.51
549.34	360.44
549.51	440.02
549.68	353.42
549.84	409.59
550.01	383.85
550.18	524.28
550.34	491.51
550.51	479.81
550.68	505.56
550.84	423.64
551.01	372.15
551.18	423.64
551.34	386.19
551.51	407.25
551.68	456.40
551.84	433.00
552.01	423.64
552.18	465.77
552.34	444.70
552.51	393.21
552.68	444.70
552.84	440.02
553.01	425.98
553.18	456.40
553.34	404.91
553.51	297.25
553.67	463.43
553.84	423.64
554.01	472.79
554.17	397.89
554.34	447.04
554.51	355.76
554.67	423.64
554.84	409.59
555.00	386.19
555.17	465.77
555.33	442.36
555.50	337.04
555.67	376.83
555.83	437.68
556.00	440.02
556.16	535.98
556.33	423.64
556.50	327.68
556.66	461.09
556.83	358.10
556.99	402.57
557.16	449.38
557.32	365.12
557.49	381.51
557.65	418.96
557.82	362.78
557.98	418.96
558.15	337.04
558.32	428.32
558.48	400.23
558.65	388.53
558.81	486.83
558.98	348.74
559.14	449.38
559.31	472.79
559.47	339.38
559.64	402.57
559.80	421.30
559.97	386.19
560.13	449.38
560.30	404.91
560.46	388.53
560.63	442.36
560.79	400.23
560.96	433.00
561.12	442.36
561.29	470.45
561.45	404.91
561.61	400.23
561.78	484.49
561.94	437.68
562.11	423.64
562.27	402.57
562.44	404.91
562.60	433.00
562.77	407.25
562.93	381.51
563.10	414.27
563.26	393.21
563.42	463.43
563.59	428.32
563.75	404.91
563.92	442.36
564.08	465.77
564.24	358.10
564.41	416.62
564.57	390.87
564.74	433.00
564.90	430.66
565.07	418.96
565.23	475.13
565.39	430.66
565.56	493.85
565.72	435.34
565.88	383.85
566.05	437.68
566.21	351.08
566.38	447.04
566.54	475.13
566.70	388.53
566.87	421.30
567.03	421.30
567.19	479.81
567.36	369.80
567.52	423.64
567.68	430.66
567.85	454.06
568.01	409.59
568.17	414.27
568.34	472.79
568.50	472.79
568.66	444.70
568.83	437.68
568.99	374.49
569.15	433.00
569.32	353.42
569.48	404.91
569.64	470.45
569.81	404.91
569.97	353.42
570.13	341.72
570.30	416.62
570.46	416.62
570.62	404.91
570.78	395.55
570.95	397.89
571.11	475.13
571.27	400.23
571.43	376.83
571.60	376.83
571.76	414.27
571.92	447.04
572.09	381.51
572.25	390.87
572.41	414.27
572.57	454.06
572.74	463.43
572.90	454.06
573.06	407.25
573.22	418.96
573.38	447.04
573.55	397.89
573.71	477.47
573.87	374.49
574.03	346.40
574.20	369.80
574.36	437.68
574.52	458.74
574.68	423.64
574.84	416.62
575.01	358.10
575.17	475.13
575.33	418.96
575.49	456.40
575.65	456.40
575.82	423.64
575.98	414.27
576.14	407.25
576.30	414.27
576.46	470.45
576.62	442.36
576.79	442.36
576.95	470.45
577.11	393.21
577.27	395.55
577.43	484.49
577.59	475.13
577.75	440.02
577.92	440.02
578.08	407.25
578.24	444.70
578.40	423.64
578.56	454.06
578.72	484.49
578.88	435.34
579.04	440.02
579.21	400.23
579.37	395.55
579.53	397.89
579.69	454.06
579.85	418.96
580.01	451.72
580.17	423.64
580.33	374.49
580.49	421.30
580.65	458.74
580.82	489.17
580.98	416.62
581.14	374.49
581.30	433.00
581.46	414.27
581.62	454.06
581.78	386.19
581.94	491.51
582.10	456.40
582.26	454.06
582.42	414.27
582.58	344.06
582.74	339.38
582.90	444.70
583.06	468.11
583.22	498.53
583.38	407.25
583.54	376.83
583.70	437.68
583.86	484.49
584.02	547.69
584.18	472.79
584.34	470.45
584.50	451.72
584.66	428.32
584.82	458.74
584.98	440.02
585.14	402.57
585.30	411.93
585.46	386.19
585.62	425.98
585.78	416.62
585.94	421.30
586.10	400.23
586.26	416.62
586.42	461.09
586.58	400.23
586.74	369.80
586.90	442.36
587.06	344.06
587.22	435.34
587.38	386.19
587.54	374.49
587.70	411.93
587.86	470.45
588.02	407.25
588.18	482.15
588.34	425.98
588.49	372.15
588.65	369.80
588.81	402.57
588.97	435.34
589.13	409.59
589.29	418.96
589.45	456.40
589.61	447.04
589.77	451.72
589.93	433.00
590.08	362.78
590.24	372.15
590.40	477.47
590.56	447.04
590.72	470.45
590.88	395.55
591.04	449.38
591.20	374.49
591.35	477.47
591.51	369.80
591.67	393.21
591.83	454.06
591.99	383.85
592.15	440.02
592.31	440.02
592.46	433.00
592.62	409.59
592.78	437.68
592.94	437.68
593.10	353.42
593.26	411.93
593.41	437.68
593.57	421.30
593.73	365.12
593.89	456.40
594.05	428.32
594.20	411.93
594.36	447.04
594.52	418.96
594.68	388.53
594.84	442.36
594.99	437.68
595.15	470.45
595.31	407.25
595.47	463.43
595.62	407.25
595.78	435.34
595.94	435.34
596.10	456.40
596.25	407.25
596.41	493.85
596.57	369.80
596.73	477.47
596.88	433.00
597.04	491.51
597.20	440.02
597.36	346.40
597.51	465.77
597.67	454.06
597.83	425.98
597.99	421.30
598.14	248.10
598.30	416.62
598.46	451.72
598.61	400.23
598.77	400.23
598.93	461.09
599.09	461.09
599.24	411.93
599.40	435.34
599.56	388.53
599.71	390.87
599.87	360.44
600.03	423.64
600.18	447.04
600.34	526.62
600.50	337.04
600.65	409.59
600.81	386.19
600.97	421.30
601.12	414.27
601.28	470.45
601.44	430.66
601.59	456.40
601.75	418.96
601.91	440.02
602.06	470.45
602.22	477.47
602.37	414.27
602.53	444.70
602.69	430.66
602.84	404.91
603.00	444.70
603.16	458.74
603.31	444.70
603.47	423.64
603.62	400.23
603.78	400.23
603.94	437.68
604.09	440.02
604.25	400.23
604.40	444.70
604.56	449.38
604.71	489.17
604.87	376.83
605.03	397.89
605.18	379.17
605.34	395.55
605.49	383.85
605.65	402.57
605.80	468.11
605.96	411.93
606.12	437.68
606.27	418.96
606.43	411.93
606.58	404.91
606.74	360.44
606.89	479.81
607.05	369.80
607.20	425.98
607.36	435.34
607.51	393.21
607.67	425.98
607.82	407.25
607.98	430.66
608.13	519.60
608.29	416.62
608.44	379.17
608.60	433.00
608.75	433.00
608.91	411.93
609.06	400.23
609.22	444.70
609.37	388.53
609.53	367.46
609.68	421.30
609.84	330.02
609.99	411.93
610.15	465.77
