SpectraSuite Data File
++++++++++++++++++++++++++++++++++++
Date: Fri Oct 25 12:10:51 EDT 2013
User: price-jones
Dark Spectrum Present: No
Reference Spectrum Present: No
Number of Sampled Component Spectra: 1
Spectrometers: USB2+H05261
Integration Time (usec): 100000 (USB2+H05261)
Spectra Averaged: 1 (USB2+H05261)
Boxcar Smoothing: 0 (USB2+H05261)
Correct for Electrical Dark: No (USB2+H05261)
Strobe/Lamp Enabled: No (USB2+H05261)
Correct for Detector Non-linearity: No (USB2+H05261)
Correct for Stray Light: No (USB2+H05261)
Number of Pixels in Processed Spectrum: 2048
>>>>>Begin Processed Spectral Data<<<<<
365.73	365.12
365.92	365.12
366.12	365.12
366.32	299.59
366.52	308.95
366.72	196.60
366.91	138.09
367.11	231.71
367.31	229.37
367.51	236.39
367.70	208.31
367.90	220.01
368.10	222.35
368.30	325.33
368.49	236.39
368.69	304.27
368.89	271.50
369.09	259.80
369.28	259.80
369.48	269.16
369.68	313.63
369.87	315.97
370.07	315.97
370.27	320.65
370.47	395.55
370.66	332.36
370.86	330.02
371.06	365.12
371.25	358.10
371.45	306.61
371.65	360.44
371.84	362.78
372.04	388.53
372.24	376.83
372.44	414.27
372.63	381.51
372.83	376.83
373.03	444.70
373.22	369.80
373.42	409.59
373.62	341.72
373.81	372.15
374.01	418.96
374.21	390.87
374.40	393.21
374.60	386.19
374.79	456.40
374.99	475.13
375.19	461.09
375.38	430.66
375.58	404.91
375.78	451.72
375.97	500.87
376.17	475.13
376.37	449.38
376.56	444.70
376.76	428.32
376.95	418.96
377.15	433.00
377.35	369.80
377.54	465.77
377.74	456.40
377.93	442.36
378.13	418.96
378.33	449.38
378.52	425.98
378.72	400.23
378.91	386.19
379.11	341.72
379.31	428.32
379.50	348.74
379.70	414.27
379.89	442.36
380.09	409.59
380.28	351.08
380.48	407.25
380.68	418.96
380.87	327.68
381.07	376.83
381.26	369.80
381.46	458.74
381.65	463.43
381.85	388.53
382.04	437.68
382.24	395.55
382.43	379.17
382.63	395.55
382.83	404.91
383.02	397.89
383.22	397.89
383.41	411.93
383.61	322.99
383.80	456.40
384.00	397.89
384.19	379.17
384.39	444.70
384.58	437.68
384.78	435.34
384.97	454.06
385.17	442.36
385.36	390.87
385.56	402.57
385.75	353.42
385.95	395.55
386.14	379.17
386.34	372.15
386.53	367.46
386.72	381.51
386.92	421.30
387.11	402.57
387.31	521.94
387.50	390.87
387.70	423.64
387.89	421.30
388.09	430.66
388.28	346.40
388.48	376.83
388.67	449.38
388.86	444.70
389.06	409.59
389.25	386.19
389.45	344.06
389.64	390.87
389.84	409.59
390.03	416.62
390.22	421.30
390.42	428.32
390.61	376.83
390.81	353.42
391.00	369.80
391.19	456.40
391.39	404.91
391.58	404.91
391.78	365.12
391.97	362.78
392.16	351.08
392.36	411.93
392.55	461.09
392.75	397.89
392.94	334.70
393.13	482.15
393.33	367.46
393.52	383.85
393.71	376.83
393.91	395.55
394.10	404.91
394.29	414.27
394.49	444.70
394.68	397.89
394.88	407.25
395.07	362.78
395.26	353.42
395.46	397.89
395.65	449.38
395.84	397.89
396.04	404.91
396.23	451.72
396.42	397.89
396.62	435.34
396.81	428.32
397.00	402.57
397.19	418.96
397.39	315.97
397.58	383.85
397.77	451.72
397.97	407.25
398.16	367.46
398.35	454.06
398.55	421.30
398.74	351.08
398.93	376.83
399.12	374.49
399.32	369.80
399.51	369.80
399.70	393.21
399.90	390.87
400.09	400.23
400.28	421.30
400.47	390.87
400.67	404.91
400.86	421.30
401.05	416.62
401.24	470.45
401.44	484.49
401.63	379.17
401.82	402.57
402.01	454.06
402.21	472.79
402.40	411.93
402.59	458.74
402.78	411.93
402.97	423.64
403.17	402.57
403.36	351.08
403.55	414.27
403.74	376.83
403.93	376.83
404.13	407.25
404.32	409.59
404.51	353.42
404.70	463.43
404.89	407.25
405.09	440.02
405.28	386.19
405.47	362.78
405.66	344.06
405.85	461.09
406.05	440.02
406.24	386.19
406.43	484.49
406.62	444.70
406.81	451.72
407.00	404.91
407.20	383.85
407.39	414.27
407.58	390.87
407.77	400.23
407.96	418.96
408.15	411.93
408.34	376.83
408.54	397.89
408.73	423.64
408.92	381.51
409.11	444.70
409.30	416.62
409.49	402.57
409.68	369.80
409.87	421.30
410.07	430.66
410.26	402.57
410.45	379.17
410.64	374.49
410.83	447.04
411.02	402.57
411.21	369.80
411.40	482.15
411.59	397.89
411.78	381.51
411.98	341.72
412.17	404.91
412.36	393.21
412.55	416.62
412.74	369.80
412.93	475.13
413.12	458.74
413.31	421.30
413.50	482.15
413.69	425.98
413.88	482.15
414.07	440.02
414.26	418.96
414.45	397.89
414.64	433.00
414.83	374.49
415.02	407.25
415.22	327.68
415.41	388.53
415.60	507.90
415.79	376.83
415.98	491.51
416.17	360.44
416.36	411.93
416.55	402.57
416.74	458.74
416.93	449.38
417.12	409.59
417.31	435.34
417.50	479.81
417.69	496.19
417.88	327.68
418.07	393.21
418.26	339.38
418.45	365.12
418.64	409.59
418.83	440.02
419.02	390.87
419.21	379.17
419.39	435.34
419.58	388.53
419.77	461.09
419.96	374.49
420.15	514.92
420.34	379.17
420.53	360.44
420.72	388.53
420.91	379.17
421.10	318.31
421.29	449.38
421.48	381.51
421.67	397.89
421.86	346.40
422.05	353.42
422.24	484.49
422.43	421.30
422.61	407.25
422.80	430.66
422.99	428.32
423.18	470.45
423.37	411.93
423.56	381.51
423.75	461.09
423.94	360.44
424.13	425.98
424.32	411.93
424.50	379.17
424.69	418.96
424.88	416.62
425.07	461.09
425.26	425.98
425.45	451.72
425.64	393.21
425.83	404.91
426.01	428.32
426.20	461.09
426.39	395.55
426.58	374.49
426.77	449.38
426.96	376.83
427.15	379.17
427.33	304.27
427.52	454.06
427.71	458.74
427.90	496.19
428.09	435.34
428.28	411.93
428.46	344.06
428.65	386.19
428.84	362.78
429.03	468.11
429.22	393.21
429.40	365.12
429.59	451.72
429.78	402.57
429.97	369.80
430.16	330.02
430.34	402.57
430.53	414.27
430.72	374.49
430.91	454.06
431.10	372.15
431.28	388.53
431.47	355.76
431.66	430.66
431.85	395.55
432.03	433.00
432.22	486.83
432.41	418.96
432.60	379.17
432.79	381.51
432.97	440.02
433.16	451.72
433.35	491.51
433.54	454.06
433.72	428.32
433.91	423.64
434.10	395.55
434.28	425.98
434.47	437.68
434.66	437.68
434.85	468.11
435.03	372.15
435.22	418.96
435.41	447.04
435.59	402.57
435.78	463.43
435.97	353.42
436.16	430.66
436.34	411.93
436.53	477.47
436.72	395.55
436.90	444.70
437.09	468.11
437.28	486.83
437.46	421.30
437.65	362.78
437.84	433.00
438.02	388.53
438.21	468.11
438.40	339.38
438.58	369.80
438.77	362.78
438.96	404.91
439.14	423.64
439.33	435.34
439.52	442.36
439.70	414.27
439.89	430.66
440.08	306.61
440.26	376.83
440.45	498.53
440.63	477.47
440.82	421.30
441.01	397.89
441.19	418.96
441.38	386.19
441.57	372.15
441.75	458.74
441.94	433.00
442.12	383.85
442.31	390.87
442.50	458.74
442.68	395.55
442.87	423.64
443.05	435.34
443.24	388.53
443.43	437.68
443.61	369.80
443.80	458.74
443.98	360.44
444.17	447.04
444.35	477.47
444.54	376.83
444.73	407.25
444.91	449.38
445.10	449.38
445.28	472.79
445.47	376.83
445.65	376.83
445.84	418.96
446.02	346.40
446.21	440.02
446.39	400.23
446.58	416.62
446.77	374.49
446.95	416.62
447.14	390.87
447.32	433.00
447.51	428.32
447.69	351.08
447.88	351.08
448.06	454.06
448.25	376.83
448.43	334.70
448.62	395.55
448.80	444.70
448.99	414.27
449.17	330.02
449.36	395.55
449.54	465.77
449.73	388.53
449.91	465.77
450.10	416.62
450.28	414.27
450.46	400.23
450.65	440.02
450.83	454.06
451.02	416.62
451.20	397.89
451.39	395.55
451.57	381.51
451.76	437.68
451.94	379.17
452.13	393.21
452.31	430.66
452.49	451.72
452.68	383.85
452.86	440.02
453.05	393.21
453.23	402.57
453.42	372.15
453.60	376.83
453.78	402.57
453.97	411.93
454.15	400.23
454.34	468.11
454.52	383.85
454.70	393.21
454.89	423.64
455.07	407.25
455.26	400.23
455.44	346.40
455.62	388.53
455.81	397.89
455.99	444.70
456.17	348.74
456.36	381.51
456.54	421.30
456.73	435.34
456.91	322.99
457.09	430.66
457.28	414.27
457.46	463.43
457.64	372.15
457.83	374.49
458.01	290.23
458.19	458.74
458.38	365.12
458.56	367.46
458.74	367.46
458.93	444.70
459.11	325.33
459.29	325.33
459.48	388.53
459.66	503.22
459.84	404.91
460.03	535.98
460.21	428.32
460.39	400.23
460.57	461.09
460.76	411.93
460.94	402.57
461.12	447.04
461.31	458.74
461.49	475.13
461.67	430.66
461.85	451.72
462.04	390.87
462.22	688.12
462.40	500.87
462.59	423.64
462.77	425.98
462.95	454.06
463.13	374.49
463.32	388.53
463.50	475.13
463.68	337.04
463.86	369.80
464.05	482.15
464.23	407.25
464.41	383.85
464.59	437.68
464.78	374.49
464.96	381.51
465.14	327.68
465.32	414.27
465.50	376.83
465.69	421.30
465.87	390.87
466.05	475.13
466.23	365.12
466.41	395.55
466.60	367.46
466.78	397.89
466.96	416.62
467.14	458.74
467.32	493.85
467.51	451.72
467.69	442.36
467.87	458.74
468.05	348.74
468.23	503.22
468.41	395.55
468.60	400.23
468.78	395.55
468.96	456.40
469.14	447.04
469.32	397.89
469.50	339.38
469.69	477.47
469.87	367.46
470.05	468.11
470.23	414.27
470.41	369.80
470.59	421.30
470.77	444.70
470.95	379.17
471.14	440.02
471.32	386.19
471.50	425.98
471.68	423.64
471.86	421.30
472.04	374.49
472.22	390.87
472.40	407.25
472.58	461.09
472.77	404.91
472.95	334.70
473.13	421.30
473.31	514.92
473.49	379.17
473.67	454.06
473.85	507.90
474.03	416.62
474.21	397.89
474.39	468.11
474.57	498.53
474.75	430.66
474.93	362.78
475.12	351.08
475.30	414.27
475.48	393.21
475.66	442.36
475.84	486.83
476.02	348.74
476.20	351.08
476.38	360.44
476.56	433.00
476.74	407.25
476.92	451.72
477.10	365.12
477.28	418.96
477.46	388.53
477.64	402.57
477.82	451.72
478.00	369.80
478.18	393.21
478.36	404.91
478.54	430.66
478.72	383.85
478.90	440.02
479.08	400.23
479.26	414.27
479.44	454.06
479.62	463.43
479.80	428.32
479.98	423.64
480.16	330.02
480.34	444.70
480.52	372.15
480.70	402.57
480.88	381.51
481.06	337.04
481.24	379.17
481.41	379.17
481.59	416.62
481.77	437.68
481.95	407.25
482.13	444.70
482.31	360.44
482.49	393.21
482.67	461.09
482.85	411.93
483.03	456.40
483.21	440.02
483.39	369.80
483.57	383.85
483.74	503.22
483.92	393.21
484.10	397.89
484.28	341.72
484.46	479.81
484.64	376.83
484.82	479.81
485.00	390.87
485.18	404.91
485.35	381.51
485.53	344.06
485.71	447.04
485.89	294.91
486.07	454.06
486.25	404.91
486.43	402.57
486.61	435.34
486.78	423.64
486.96	346.40
487.14	381.51
487.32	383.85
487.50	465.77
487.68	428.32
487.85	376.83
488.03	414.27
488.21	435.34
488.39	393.21
488.57	383.85
488.75	369.80
488.92	557.05
489.10	416.62
489.28	360.44
489.46	400.23
489.64	500.87
489.81	386.19
489.99	491.51
490.17	472.79
490.35	486.83
490.53	423.64
490.70	456.40
490.88	451.72
491.06	292.57
491.24	421.30
491.41	341.72
491.59	447.04
491.77	372.15
491.95	395.55
492.13	388.53
492.30	465.77
492.48	372.15
492.66	407.25
492.84	416.62
493.01	360.44
493.19	339.38
493.37	465.77
493.54	416.62
493.72	482.15
493.90	402.57
494.08	388.53
494.25	362.78
494.43	407.25
494.61	418.96
494.79	365.12
494.96	435.34
495.14	456.40
495.32	461.09
495.49	360.44
495.67	404.91
495.85	381.51
496.02	313.63
496.20	383.85
496.38	414.27
496.55	362.78
496.73	411.93
496.91	407.25
497.09	500.87
497.26	430.66
497.44	463.43
497.62	451.72
497.79	407.25
497.97	421.30
498.14	437.68
498.32	442.36
498.50	456.40
498.67	409.59
498.85	379.17
499.03	299.59
499.20	379.17
499.38	388.53
499.56	440.02
499.73	433.00
499.91	435.34
500.08	409.59
500.26	381.51
500.44	407.25
500.61	404.91
500.79	416.62
500.97	430.66
501.14	472.79
501.32	444.70
501.49	484.49
501.67	402.57
501.84	430.66
502.02	325.33
502.20	489.17
502.37	479.81
502.55	421.30
502.72	358.10
502.90	428.32
503.07	449.38
503.25	458.74
503.43	425.98
503.60	411.93
503.78	428.32
503.95	454.06
504.13	404.91
504.30	433.00
504.48	397.89
504.65	418.96
504.83	440.02
505.01	477.47
505.18	430.66
505.36	409.59
505.53	311.29
505.71	388.53
505.88	414.27
506.06	430.66
506.23	418.96
506.41	435.34
506.58	435.34
506.76	418.96
506.93	402.57
507.11	454.06
507.28	360.44
507.46	409.59
507.63	393.21
507.81	388.53
507.98	372.15
508.16	395.55
508.33	397.89
508.50	404.91
508.68	390.87
508.85	435.34
509.03	341.72
509.20	409.59
509.38	421.30
509.55	416.62
509.73	440.02
509.90	470.45
510.08	449.38
510.25	444.70
510.42	381.51
510.60	423.64
510.77	386.19
510.95	400.23
511.12	379.17
511.30	409.59
511.47	376.83
511.64	449.38
511.82	479.81
511.99	433.00
512.17	381.51
512.34	386.19
512.51	461.09
512.69	407.25
512.86	425.98
513.04	351.08
513.21	425.98
513.38	435.34
513.56	337.04
513.73	395.55
513.90	442.36
514.08	346.40
514.25	465.77
514.43	421.30
514.60	444.70
514.77	390.87
514.95	393.21
515.12	414.27
515.29	388.53
515.47	421.30
515.64	414.27
515.81	442.36
515.99	447.04
516.16	397.89
516.33	491.51
516.51	390.87
516.68	372.15
516.85	397.89
517.03	390.87
517.20	409.59
517.37	374.49
517.54	400.23
517.72	442.36
517.89	390.87
518.06	379.17
518.24	472.79
518.41	400.23
518.58	433.00
518.75	339.38
518.93	374.49
519.10	355.76
519.27	414.27
519.45	397.89
519.62	416.62
519.79	458.74
519.96	411.93
520.14	463.43
520.31	379.17
520.48	409.59
520.65	379.17
520.83	428.32
521.00	414.27
521.17	393.21
521.34	393.21
521.52	367.46
521.69	421.30
521.86	456.40
522.03	397.89
522.20	486.83
522.38	442.36
522.55	411.93
522.72	351.08
522.89	423.64
523.07	449.38
523.24	433.00
523.41	404.91
523.58	407.25
523.75	461.09
523.92	409.59
524.10	407.25
524.27	362.78
524.44	346.40
524.61	416.62
524.78	372.15
524.96	369.80
525.13	433.00
525.30	425.98
525.47	430.66
525.64	449.38
525.81	414.27
525.98	397.89
526.16	383.85
526.33	369.80
526.50	414.27
526.67	456.40
526.84	421.30
527.01	383.85
527.18	423.64
527.36	397.89
527.53	393.21
527.70	407.25
527.87	374.49
528.04	458.74
528.21	416.62
528.38	374.49
528.55	477.47
528.72	428.32
528.89	400.23
529.07	433.00
529.24	400.23
529.41	440.02
529.58	461.09
529.75	379.17
529.92	444.70
530.09	437.68
530.26	484.49
530.43	383.85
530.60	435.34
530.77	376.83
530.94	454.06
531.11	449.38
531.28	369.80
531.46	383.85
531.63	360.44
531.80	386.19
531.97	447.04
532.14	447.04
532.31	409.59
532.48	416.62
532.65	395.55
532.82	374.49
532.99	390.87
533.16	411.93
533.33	458.74
533.50	386.19
533.67	463.43
533.84	369.80
534.01	374.49
534.18	344.06
534.35	442.36
534.52	360.44
534.69	355.76
534.86	470.45
535.03	348.74
535.20	416.62
535.37	465.77
535.54	418.96
535.71	449.38
535.88	348.74
536.05	360.44
536.22	365.12
536.38	428.32
536.55	362.78
536.72	472.79
536.89	468.11
537.06	409.59
537.23	414.27
537.40	486.83
537.57	344.06
537.74	468.11
537.91	447.04
538.08	381.51
538.25	390.87
538.42	440.02
538.59	411.93
538.75	386.19
538.92	430.66
539.09	519.60
539.26	465.77
539.43	451.72
539.60	397.89
539.77	346.40
539.94	395.55
540.11	440.02
540.28	379.17
540.44	425.98
540.61	388.53
540.78	416.62
540.95	416.62
541.12	414.27
541.29	397.89
541.46	379.17
541.62	435.34
541.79	395.55
541.96	430.66
542.13	311.29
542.30	407.25
542.47	477.47
542.63	449.38
542.80	447.04
542.97	440.02
543.14	355.76
543.31	383.85
543.48	479.81
543.64	353.42
543.81	388.53
543.98	355.76
544.15	418.96
544.32	381.51
544.48	395.55
544.65	477.47
544.82	458.74
544.99	360.44
545.16	383.85
545.32	433.00
545.49	472.79
545.66	358.10
545.83	374.49
546.00	404.91
546.16	383.85
546.33	430.66
546.50	390.87
546.67	468.11
546.83	437.68
547.00	484.49
547.17	428.32
547.34	390.87
547.50	423.64
547.67	374.49
547.84	416.62
548.00	435.34
548.17	344.06
548.34	440.02
548.51	393.21
548.67	358.10
548.84	411.93
549.01	444.70
549.18	376.83
549.34	358.10
549.51	374.49
549.68	414.27
549.84	489.17
550.01	322.99
550.18	475.13
550.34	416.62
550.51	440.02
550.68	519.60
550.84	456.40
551.01	339.38
551.18	416.62
551.34	447.04
551.51	374.49
551.68	454.06
551.84	458.74
552.01	402.57
552.18	383.85
552.34	367.46
552.51	428.32
552.68	409.59
552.84	379.17
553.01	454.06
553.18	475.13
553.34	374.49
553.51	395.55
553.67	456.40
553.84	372.15
554.01	500.87
554.17	383.85
554.34	395.55
554.51	404.91
554.67	430.66
554.84	486.83
555.00	404.91
555.17	463.43
555.33	470.45
555.50	337.04
555.67	475.13
555.83	442.36
556.00	360.44
556.16	575.77
556.33	442.36
556.50	437.68
556.66	444.70
556.83	393.21
556.99	374.49
557.16	493.85
557.32	423.64
557.49	425.98
557.65	348.74
557.82	421.30
557.98	390.87
558.15	416.62
558.32	475.13
558.48	433.00
558.65	421.30
558.81	442.36
558.98	500.87
559.14	458.74
559.31	397.89
559.47	505.56
559.64	430.66
559.80	402.57
559.97	400.23
560.13	440.02
560.30	435.34
560.46	421.30
560.63	451.72
560.79	435.34
560.96	433.00
561.12	395.55
561.29	414.27
561.45	433.00
561.61	463.43
561.78	493.85
561.94	535.98
562.11	383.85
562.27	346.40
562.44	369.80
562.60	416.62
562.77	362.78
562.93	409.59
563.10	451.72
563.26	414.27
563.42	440.02
563.59	407.25
563.75	475.13
563.92	447.04
564.08	500.87
564.24	433.00
564.41	397.89
564.57	388.53
564.74	421.30
564.90	407.25
565.07	388.53
565.23	411.93
565.39	468.11
565.56	421.30
565.72	381.51
565.88	386.19
566.05	428.32
566.21	409.59
566.38	449.38
566.54	440.02
566.70	400.23
566.87	381.51
567.03	411.93
567.19	395.55
567.36	489.17
567.52	411.93
567.68	402.57
567.85	465.77
568.01	425.98
568.17	330.02
568.34	451.72
568.50	493.85
568.66	397.89
568.83	468.11
568.99	367.46
569.15	505.56
569.32	479.81
569.48	372.15
569.64	433.00
569.81	374.49
569.97	435.34
570.13	461.09
570.30	421.30
570.46	411.93
570.62	383.85
570.78	425.98
570.95	355.76
571.11	449.38
571.27	397.89
571.43	433.00
571.60	414.27
571.76	388.53
571.92	461.09
572.09	428.32
572.25	390.87
572.41	402.57
572.57	416.62
572.74	489.17
572.90	440.02
573.06	435.34
573.22	458.74
573.38	479.81
573.55	402.57
573.71	458.74
573.87	425.98
574.03	442.36
574.20	390.87
574.36	379.17
574.52	433.00
574.68	386.19
574.84	395.55
575.01	388.53
575.17	435.34
575.33	393.21
575.49	489.17
575.65	416.62
575.82	376.83
575.98	393.21
576.14	402.57
576.30	451.72
576.46	433.00
576.62	461.09
576.79	433.00
576.95	475.13
577.11	456.40
577.27	395.55
577.43	472.79
577.59	400.23
577.75	430.66
577.92	461.09
578.08	433.00
578.24	379.17
578.40	461.09
578.56	451.72
578.72	440.02
578.88	421.30
579.04	414.27
579.21	454.06
579.37	475.13
579.53	386.19
579.69	472.79
579.85	404.91
580.01	407.25
580.17	437.68
580.33	367.46
580.49	449.38
580.65	395.55
580.82	327.68
580.98	379.17
581.14	418.96
581.30	465.77
581.46	409.59
581.62	440.02
581.78	411.93
581.94	416.62
582.10	381.51
582.26	390.87
582.42	472.79
582.58	447.04
582.74	339.38
582.90	367.46
583.06	463.43
583.22	374.49
583.38	397.89
583.54	344.06
583.70	418.96
583.86	421.30
584.02	418.96
584.18	365.12
584.34	409.59
584.50	423.64
584.66	353.42
584.82	433.00
584.98	437.68
585.14	379.17
585.30	400.23
585.46	358.10
585.62	346.40
585.78	468.11
585.94	479.81
586.10	454.06
586.26	348.74
586.42	440.02
586.58	416.62
586.74	393.21
586.90	517.26
587.06	379.17
587.22	437.68
587.38	489.17
587.54	433.00
587.70	465.77
587.86	470.45
588.02	456.40
588.18	444.70
588.34	437.68
588.49	442.36
588.65	393.21
588.81	430.66
588.97	425.98
589.13	400.23
589.29	393.21
589.45	379.17
589.61	418.96
589.77	472.79
589.93	351.08
590.08	393.21
590.24	458.74
590.40	482.15
590.56	475.13
590.72	423.64
590.88	440.02
591.04	376.83
591.20	421.30
591.35	449.38
591.51	404.91
591.67	311.29
591.83	416.62
591.99	423.64
592.15	418.96
592.31	433.00
592.46	351.08
592.62	449.38
592.78	376.83
592.94	402.57
593.10	477.47
593.26	376.83
593.41	416.62
593.57	437.68
593.73	433.00
593.89	397.89
594.05	433.00
594.20	423.64
594.36	404.91
594.52	362.78
594.68	400.23
594.84	468.11
594.99	320.65
595.15	386.19
595.31	482.15
595.47	418.96
595.62	440.02
595.78	407.25
595.94	423.64
596.10	507.90
596.25	393.21
596.41	437.68
596.57	435.34
596.73	521.94
596.88	381.51
597.04	407.25
597.20	365.12
597.36	461.09
597.51	393.21
597.67	416.62
597.83	433.00
597.99	388.53
598.14	498.53
598.30	425.98
598.46	386.19
598.61	411.93
598.77	409.59
598.93	346.40
599.09	414.27
599.24	435.34
599.40	454.06
599.56	428.32
599.71	348.74
599.87	397.89
600.03	486.83
600.18	400.23
600.34	402.57
600.50	442.36
600.65	449.38
600.81	381.51
600.97	379.17
601.12	379.17
601.28	484.49
601.44	433.00
601.59	468.11
601.75	409.59
601.91	381.51
602.06	411.93
602.22	433.00
602.37	465.77
602.53	397.89
602.69	411.93
602.84	372.15
603.00	390.87
603.16	369.80
603.31	449.38
603.47	367.46
603.62	409.59
603.78	383.85
603.94	411.93
604.09	397.89
604.25	433.00
604.40	449.38
604.56	458.74
604.71	444.70
604.87	437.68
605.03	456.40
605.18	456.40
605.34	482.15
605.49	353.42
605.65	430.66
605.80	435.34
605.96	421.30
606.12	358.10
606.27	402.57
606.43	360.44
606.58	402.57
606.74	409.59
606.89	425.98
607.05	414.27
607.20	376.83
607.36	463.43
607.51	444.70
607.67	374.49
607.82	465.77
607.98	386.19
608.13	449.38
608.29	397.89
608.44	379.17
608.60	369.80
608.75	418.96
608.91	425.98
609.06	411.93
609.22	512.58
609.37	372.15
609.53	393.21
609.68	428.32
609.84	400.23
609.99	407.25
610.15	458.74
