SpectraSuite Data File
++++++++++++++++++++++++++++++++++++
Date: Fri Oct 25 12:11:31 EDT 2013
User: price-jones
Dark Spectrum Present: No
Reference Spectrum Present: No
Number of Sampled Component Spectra: 1
Spectrometers: USB2+H05261
Integration Time (usec): 100000 (USB2+H05261)
Spectra Averaged: 1 (USB2+H05261)
Boxcar Smoothing: 0 (USB2+H05261)
Correct for Electrical Dark: No (USB2+H05261)
Strobe/Lamp Enabled: No (USB2+H05261)
Correct for Detector Non-linearity: No (USB2+H05261)
Correct for Stray Light: No (USB2+H05261)
Number of Pixels in Processed Spectrum: 2048
>>>>>Begin Processed Spectral Data<<<<<
365.73	351.08
365.92	351.08
366.12	351.08
366.32	264.48
366.52	234.05
366.72	212.99
366.91	180.22
367.11	177.88
367.31	222.35
367.51	259.80
367.70	245.76
367.90	257.46
368.10	212.99
368.30	257.46
368.49	215.33
368.69	238.73
368.89	255.12
369.09	189.58
369.28	327.68
369.48	194.26
369.68	273.84
369.87	355.76
370.07	234.05
370.27	360.44
370.47	327.68
370.66	332.36
370.86	369.80
371.06	383.85
371.25	374.49
371.45	341.72
371.65	451.72
371.84	355.76
372.04	304.27
372.24	397.89
372.44	381.51
372.63	430.66
372.83	372.15
373.03	390.87
373.22	421.30
373.42	374.49
373.62	388.53
373.81	400.23
374.01	374.49
374.21	411.93
374.40	351.08
374.60	479.81
374.79	400.23
374.99	447.04
375.19	428.32
375.38	407.25
375.58	458.74
375.78	409.59
375.97	390.87
376.17	428.32
376.37	468.11
376.56	390.87
376.76	407.25
376.95	358.10
377.15	430.66
377.35	372.15
377.54	390.87
377.74	423.64
377.93	425.98
378.13	411.93
378.33	379.17
378.52	388.53
378.72	388.53
378.91	449.38
379.11	456.40
379.31	414.27
379.50	416.62
379.70	400.23
379.89	423.64
380.09	393.21
380.28	468.11
380.48	430.66
380.68	379.17
380.87	400.23
381.07	388.53
381.26	437.68
381.46	355.76
381.65	435.34
381.85	393.21
382.04	423.64
382.24	388.53
382.43	381.51
382.63	358.10
382.83	379.17
383.02	383.85
383.22	376.83
383.41	348.74
383.61	428.32
383.80	374.49
384.00	442.36
384.19	388.53
384.39	355.76
384.58	372.15
384.78	416.62
384.97	472.79
385.17	416.62
385.36	418.96
385.56	404.91
385.75	454.06
385.95	425.98
386.14	397.89
386.34	386.19
386.53	381.51
386.72	374.49
386.92	409.59
387.11	430.66
387.31	395.55
387.50	423.64
387.70	395.55
387.89	423.64
388.09	428.32
388.28	353.42
388.48	400.23
388.67	383.85
388.86	400.23
389.06	395.55
389.25	435.34
389.45	365.12
389.64	500.87
389.84	404.91
390.03	421.30
390.22	395.55
390.42	379.17
390.61	395.55
390.81	358.10
391.00	360.44
391.19	407.25
391.39	400.23
391.58	425.98
391.78	472.79
391.97	454.06
392.16	348.74
392.36	381.51
392.55	463.43
392.75	400.23
392.94	353.42
393.13	433.00
393.33	379.17
393.52	416.62
393.71	395.55
393.91	449.38
394.10	416.62
394.29	400.23
394.49	421.30
394.68	421.30
394.88	400.23
395.07	433.00
395.26	430.66
395.46	407.25
395.65	383.85
395.84	404.91
396.04	470.45
396.23	482.15
396.42	358.10
396.62	407.25
396.81	390.87
397.00	421.30
397.19	327.68
397.39	355.76
397.58	472.79
397.77	418.96
397.97	435.34
398.16	383.85
398.35	430.66
398.55	348.74
398.74	421.30
398.93	449.38
399.12	365.12
399.32	435.34
399.51	393.21
399.70	402.57
399.90	421.30
400.09	353.42
400.28	454.06
400.47	425.98
400.67	472.79
400.86	416.62
401.05	379.17
401.24	372.15
401.44	411.93
401.63	416.62
401.82	440.02
402.01	369.80
402.21	402.57
402.40	418.96
402.59	341.72
402.78	358.10
402.97	428.32
403.17	416.62
403.36	416.62
403.55	411.93
403.74	362.78
403.93	358.10
404.13	418.96
404.32	386.19
404.51	397.89
404.70	423.64
404.89	388.53
405.09	409.59
405.28	428.32
405.47	362.78
405.66	360.44
405.85	437.68
406.05	472.79
406.24	447.04
406.43	433.00
406.62	355.76
406.81	538.32
407.00	365.12
407.20	388.53
407.39	355.76
407.58	430.66
407.77	470.45
407.96	435.34
408.15	435.34
408.34	444.70
408.54	374.49
408.73	411.93
408.92	402.57
409.11	425.98
409.30	442.36
409.49	386.19
409.68	512.58
409.87	465.77
410.07	451.72
410.26	442.36
410.45	470.45
410.64	351.08
410.83	416.62
411.02	437.68
411.21	369.80
411.40	425.98
411.59	409.59
411.78	407.25
411.98	351.08
412.17	395.55
412.36	390.87
412.55	402.57
412.74	416.62
412.93	458.74
413.12	437.68
413.31	388.53
413.50	369.80
413.69	367.46
413.88	402.57
414.07	423.64
414.26	395.55
414.45	362.78
414.64	409.59
414.83	461.09
415.02	358.10
415.22	407.25
415.41	428.32
415.60	414.27
415.79	402.57
415.98	435.34
416.17	435.34
416.36	379.17
416.55	372.15
416.74	437.68
416.93	362.78
417.12	433.00
417.31	355.76
417.50	369.80
417.69	461.09
417.88	383.85
418.07	414.27
418.26	463.43
418.45	411.93
418.64	407.25
418.83	404.91
419.02	440.02
419.21	376.83
419.39	404.91
419.58	400.23
419.77	360.44
419.96	409.59
420.15	409.59
420.34	423.64
420.53	390.87
420.72	430.66
420.91	461.09
421.10	400.23
421.29	390.87
421.48	451.72
421.67	454.06
421.86	435.34
422.05	372.15
422.24	416.62
422.43	358.10
422.61	393.21
422.80	367.46
422.99	376.83
423.18	435.34
423.37	444.70
423.56	430.66
423.75	381.51
423.94	397.89
424.13	381.51
424.32	390.87
424.50	425.98
424.69	458.74
424.88	390.87
425.07	390.87
425.26	402.57
425.45	374.49
425.64	374.49
425.83	381.51
426.01	397.89
426.20	458.74
426.39	330.02
426.58	444.70
426.77	475.13
426.96	390.87
427.15	418.96
427.33	337.04
427.52	423.64
427.71	402.57
427.90	395.55
428.09	433.00
428.28	400.23
428.46	402.57
428.65	393.21
428.84	379.17
429.03	430.66
429.22	435.34
429.40	435.34
429.59	402.57
429.78	489.17
429.97	430.66
430.16	416.62
430.34	423.64
430.53	362.78
430.72	358.10
430.91	435.34
431.10	418.96
431.28	484.49
431.47	442.36
431.66	430.66
431.85	395.55
432.03	409.59
432.22	409.59
432.41	437.68
432.60	409.59
432.79	414.27
432.97	414.27
433.16	404.91
433.35	365.12
433.54	379.17
433.72	386.19
433.91	276.18
434.10	383.85
434.28	440.02
434.47	367.46
434.66	500.87
434.85	414.27
435.03	414.27
435.22	482.15
435.41	428.32
435.59	402.57
435.78	400.23
435.97	390.87
436.16	386.19
436.34	374.49
436.53	435.34
436.72	381.51
436.90	470.45
437.09	442.36
437.28	404.91
437.46	390.87
437.65	393.21
437.84	447.04
438.02	418.96
438.21	351.08
438.40	404.91
438.58	383.85
438.77	388.53
438.96	409.59
439.14	407.25
439.33	372.15
439.52	416.62
439.70	416.62
439.89	449.38
440.08	430.66
440.26	468.11
440.45	376.83
440.63	397.89
440.82	360.44
441.01	440.02
441.19	421.30
441.38	397.89
441.57	437.68
441.75	400.23
441.94	437.68
442.12	407.25
442.31	372.15
442.50	381.51
442.68	404.91
442.87	393.21
443.05	418.96
443.24	381.51
443.43	435.34
443.61	475.13
443.80	369.80
443.98	397.89
444.17	440.02
444.35	386.19
444.54	409.59
444.73	402.57
444.91	514.92
445.10	369.80
445.28	400.23
445.47	470.45
445.65	397.89
445.84	362.78
446.02	327.68
446.21	395.55
446.39	388.53
446.58	400.23
446.77	425.98
446.95	330.02
447.14	442.36
447.32	449.38
447.51	423.64
447.69	428.32
447.88	386.19
448.06	423.64
448.25	428.32
448.43	433.00
448.62	414.27
448.80	414.27
448.99	423.64
449.17	379.17
449.36	374.49
449.54	491.51
449.73	440.02
449.91	430.66
450.10	358.10
450.28	383.85
450.46	440.02
450.65	409.59
450.83	397.89
451.02	348.74
451.20	404.91
451.39	388.53
451.57	421.30
451.76	430.66
451.94	400.23
452.13	447.04
452.31	440.02
452.49	440.02
452.68	353.42
452.86	393.21
453.05	437.68
453.23	423.64
453.42	395.55
453.60	423.64
453.78	468.11
453.97	411.93
454.15	365.12
454.34	430.66
454.52	390.87
454.70	514.92
454.89	395.55
455.07	418.96
455.26	491.51
455.44	440.02
455.62	409.59
455.81	376.83
455.99	360.44
456.17	435.34
456.36	402.57
456.54	374.49
456.73	386.19
456.91	407.25
457.09	416.62
457.28	477.47
457.46	407.25
457.64	454.06
457.83	402.57
458.01	351.08
458.19	404.91
458.38	416.62
458.56	449.38
458.74	395.55
458.93	454.06
459.11	437.68
459.29	411.93
459.48	442.36
459.66	421.30
459.84	428.32
460.03	503.22
460.21	386.19
460.39	404.91
460.57	442.36
460.76	442.36
460.94	327.68
461.12	451.72
461.31	456.40
461.49	400.23
461.67	388.53
461.85	393.21
462.04	358.10
462.22	753.65
462.40	489.17
462.59	491.51
462.77	435.34
462.95	407.25
463.13	379.17
463.32	456.40
463.50	418.96
463.68	372.15
463.86	421.30
464.05	341.72
464.23	489.17
464.41	458.74
464.59	397.89
464.78	451.72
464.96	386.19
465.14	442.36
465.32	400.23
465.50	386.19
465.69	482.15
465.87	442.36
466.05	454.06
466.23	414.27
466.41	437.68
466.60	437.68
466.78	461.09
466.96	486.83
467.14	430.66
467.32	425.98
467.51	334.70
467.69	376.83
467.87	517.26
468.05	358.10
468.23	463.43
468.41	409.59
468.60	493.85
468.78	454.06
468.96	376.83
469.14	465.77
469.32	355.76
469.50	425.98
469.69	386.19
469.87	395.55
470.05	430.66
470.23	367.46
470.41	416.62
470.59	365.12
470.77	407.25
470.95	458.74
471.14	477.47
471.32	393.21
471.50	358.10
471.68	423.64
471.86	425.98
472.04	411.93
472.22	484.49
472.40	433.00
472.58	437.68
472.77	358.10
472.95	411.93
473.13	428.32
473.31	421.30
473.49	437.68
473.67	362.78
473.85	454.06
474.03	402.57
474.21	477.47
474.39	423.64
474.57	409.59
474.75	388.53
474.93	444.70
475.12	379.17
475.30	435.34
475.48	430.66
475.66	435.34
475.84	407.25
476.02	414.27
476.20	475.13
476.38	416.62
476.56	472.79
476.74	489.17
476.92	449.38
477.10	425.98
477.28	376.83
477.46	552.37
477.64	484.49
477.82	465.77
478.00	425.98
478.18	404.91
478.36	435.34
478.54	388.53
478.72	372.15
478.90	386.19
479.08	428.32
479.26	447.04
479.44	493.85
479.62	379.17
479.80	388.53
479.98	414.27
480.16	388.53
480.34	435.34
480.52	437.68
480.70	337.04
480.88	348.74
481.06	388.53
481.24	390.87
481.41	409.59
481.59	400.23
481.77	395.55
481.95	414.27
482.13	416.62
482.31	416.62
482.49	463.43
482.67	428.32
482.85	433.00
483.03	383.85
483.21	402.57
483.39	411.93
483.57	414.27
483.74	437.68
483.92	393.21
484.10	266.82
484.28	440.02
484.46	411.93
484.64	414.27
484.82	418.96
485.00	383.85
485.18	395.55
485.35	390.87
485.53	440.02
485.71	435.34
485.89	351.08
486.07	458.74
486.25	486.83
486.43	397.89
486.61	376.83
486.78	390.87
486.96	351.08
487.14	447.04
487.32	421.30
487.50	374.49
487.68	379.17
487.85	355.76
488.03	348.74
488.21	395.55
488.39	461.09
488.57	463.43
488.75	381.51
488.92	468.11
489.10	414.27
489.28	484.49
489.46	414.27
489.64	390.87
489.81	411.93
489.99	360.44
490.17	416.62
490.35	484.49
490.53	425.98
490.70	383.85
490.88	411.93
491.06	477.47
491.24	425.98
491.41	500.87
491.59	407.25
491.77	425.98
491.95	421.30
492.13	447.04
492.30	531.30
492.48	416.62
492.66	428.32
492.84	435.34
493.01	407.25
493.19	428.32
493.37	442.36
493.54	395.55
493.72	414.27
493.90	423.64
494.08	367.46
494.25	440.02
494.43	409.59
494.61	430.66
494.79	458.74
494.96	407.25
495.14	423.64
495.32	463.43
495.49	425.98
495.67	367.46
495.85	430.66
496.02	388.53
496.20	428.32
496.38	470.45
496.55	433.00
496.73	393.21
496.91	390.87
497.09	433.00
497.26	404.91
497.44	397.89
497.62	435.34
497.79	379.17
497.97	414.27
498.14	409.59
498.32	425.98
498.50	411.93
498.67	421.30
498.85	376.83
499.03	395.55
499.20	372.15
499.38	383.85
499.56	400.23
499.73	489.17
499.91	376.83
500.08	393.21
500.26	393.21
500.44	402.57
500.61	409.59
500.79	407.25
500.97	475.13
501.14	454.06
501.32	395.55
501.49	451.72
501.67	428.32
501.84	388.53
502.02	400.23
502.20	430.66
502.37	395.55
502.55	393.21
502.72	397.89
502.90	414.27
503.07	416.62
503.25	388.53
503.43	449.38
503.60	421.30
503.78	449.38
503.95	367.46
504.13	374.49
504.30	463.43
504.48	416.62
504.65	425.98
504.83	475.13
505.01	381.51
505.18	402.57
505.36	442.36
505.53	409.59
505.71	388.53
505.88	379.17
506.06	414.27
506.23	344.06
506.41	386.19
506.58	414.27
506.76	369.80
506.93	386.19
507.11	435.34
507.28	416.62
507.46	374.49
507.63	388.53
507.81	444.70
507.98	330.02
508.16	407.25
508.33	423.64
508.50	416.62
508.68	447.04
508.85	374.49
509.03	388.53
509.20	397.89
509.38	383.85
509.55	479.81
509.73	393.21
509.90	430.66
510.08	425.98
510.25	470.45
510.42	440.02
510.60	395.55
510.77	407.25
510.95	447.04
511.12	402.57
511.30	407.25
511.47	395.55
511.64	435.34
511.82	372.15
511.99	510.24
512.17	360.44
512.34	418.96
512.51	444.70
512.69	416.62
512.86	383.85
513.04	409.59
513.21	468.11
513.38	454.06
513.56	484.49
513.73	367.46
513.90	414.27
514.08	416.62
514.25	428.32
514.43	353.42
514.60	435.34
514.77	358.10
514.95	430.66
515.12	404.91
515.29	416.62
515.47	425.98
515.64	442.36
515.81	404.91
515.99	447.04
516.16	440.02
516.33	428.32
516.51	346.40
516.68	369.80
516.85	458.74
517.03	404.91
517.20	397.89
517.37	451.72
517.54	461.09
517.72	458.74
517.89	379.17
518.06	395.55
518.24	524.28
518.41	428.32
518.58	489.17
518.75	447.04
518.93	465.77
519.10	486.83
519.27	444.70
519.45	418.96
519.62	418.96
519.79	491.51
519.96	386.19
520.14	339.38
520.31	411.93
520.48	423.64
520.65	341.72
520.83	421.30
521.00	465.77
521.17	425.98
521.34	397.89
521.52	416.62
521.69	437.68
521.86	454.06
522.03	505.56
522.20	458.74
522.38	421.30
522.55	414.27
522.72	367.46
522.89	461.09
523.07	435.34
523.24	447.04
523.41	411.93
523.58	376.83
523.75	472.79
523.92	383.85
524.10	428.32
524.27	416.62
524.44	437.68
524.61	440.02
524.78	425.98
524.96	468.11
525.13	465.77
525.30	435.34
525.47	444.70
525.64	411.93
525.81	430.66
525.98	414.27
526.16	390.87
526.33	332.36
526.50	400.23
526.67	379.17
526.84	367.46
527.01	395.55
527.18	451.72
527.36	472.79
527.53	390.87
527.70	496.19
527.87	430.66
528.04	430.66
528.21	379.17
528.38	444.70
528.55	386.19
528.72	416.62
528.89	372.15
529.07	421.30
529.24	437.68
529.41	435.34
529.58	465.77
529.75	416.62
529.92	390.87
530.09	383.85
530.26	437.68
530.43	402.57
530.60	388.53
530.77	435.34
530.94	411.93
531.11	376.83
531.28	421.30
531.46	383.85
531.63	421.30
531.80	456.40
531.97	433.00
532.14	369.80
532.31	386.19
532.48	404.91
532.65	468.11
532.82	362.78
532.99	376.83
533.16	397.89
533.33	397.89
533.50	411.93
533.67	322.99
533.84	430.66
534.01	348.74
534.18	409.59
534.35	423.64
534.52	496.19
534.69	472.79
534.86	400.23
535.03	402.57
535.20	409.59
535.37	437.68
535.54	407.25
535.71	404.91
535.88	465.77
536.05	353.42
536.22	400.23
536.38	416.62
536.55	369.80
536.72	458.74
536.89	409.59
537.06	374.49
537.23	402.57
537.40	397.89
537.57	433.00
537.74	395.55
537.91	402.57
538.08	463.43
538.25	395.55
538.42	379.17
538.59	418.96
538.75	390.87
538.92	416.62
539.09	388.53
539.26	402.57
539.43	428.32
539.60	395.55
539.77	393.21
539.94	451.72
540.11	362.78
540.28	395.55
540.44	470.45
540.61	400.23
540.78	433.00
540.95	390.87
541.12	430.66
541.29	358.10
541.46	463.43
541.62	423.64
541.79	402.57
541.96	491.51
542.13	386.19
542.30	435.34
542.47	393.21
542.63	433.00
542.80	442.36
542.97	447.04
543.14	449.38
543.31	447.04
543.48	388.53
543.64	372.15
543.81	433.00
543.98	355.76
544.15	411.93
544.32	337.04
544.48	397.89
544.65	435.34
544.82	425.98
544.99	400.23
545.16	449.38
545.32	360.44
545.49	475.13
545.66	461.09
545.83	393.21
546.00	404.91
546.16	430.66
546.33	435.34
546.50	454.06
546.67	454.06
546.83	388.53
547.00	461.09
547.17	421.30
547.34	423.64
547.50	475.13
547.67	372.15
547.84	407.25
548.00	416.62
548.17	425.98
548.34	414.27
548.51	397.89
548.67	402.57
548.84	379.17
549.01	430.66
549.18	411.93
549.34	409.59
549.51	400.23
549.68	482.15
549.84	400.23
550.01	449.38
550.18	437.68
550.34	477.47
550.51	381.51
550.68	416.62
550.84	362.78
551.01	379.17
551.18	456.40
551.34	393.21
551.51	472.79
551.68	416.62
551.84	313.63
552.01	381.51
552.18	482.15
552.34	435.34
552.51	442.36
552.68	386.19
552.84	425.98
553.01	365.12
553.18	454.06
553.34	402.57
553.51	447.04
553.67	447.04
553.84	416.62
554.01	435.34
554.17	393.21
554.34	358.10
554.51	512.58
554.67	374.49
554.84	425.98
555.00	367.46
555.17	454.06
555.33	409.59
555.50	425.98
555.67	414.27
555.83	440.02
556.00	383.85
556.16	545.34
556.33	447.04
556.50	458.74
556.66	430.66
556.83	386.19
556.99	414.27
557.16	395.55
557.32	430.66
557.49	414.27
557.65	407.25
557.82	416.62
557.98	416.62
558.15	463.43
558.32	414.27
558.48	421.30
558.65	381.51
558.81	369.80
558.98	346.40
559.14	484.49
559.31	404.91
559.47	461.09
559.64	414.27
559.80	379.17
559.97	409.59
560.13	388.53
560.30	388.53
560.46	425.98
560.63	447.04
560.79	435.34
560.96	409.59
561.12	435.34
561.29	411.93
561.45	425.98
561.61	397.89
561.78	517.26
561.94	411.93
562.11	423.64
562.27	468.11
562.44	423.64
562.60	372.15
562.77	456.40
562.93	440.02
563.10	409.59
563.26	423.64
563.42	386.19
563.59	393.21
563.75	409.59
563.92	447.04
564.08	376.83
564.24	484.49
564.41	411.93
564.57	416.62
564.74	341.72
564.90	430.66
565.07	428.32
565.23	428.32
565.39	404.91
565.56	503.22
565.72	435.34
565.88	393.21
566.05	465.77
566.21	440.02
566.38	433.00
566.54	404.91
566.70	369.80
566.87	416.62
567.03	428.32
567.19	463.43
567.36	395.55
567.52	353.42
567.68	376.83
567.85	444.70
568.01	472.79
568.17	416.62
568.34	423.64
568.50	447.04
568.66	376.83
568.83	454.06
568.99	400.23
569.15	388.53
569.32	433.00
569.48	390.87
569.64	423.64
569.81	395.55
569.97	402.57
570.13	425.98
570.30	327.68
570.46	381.51
570.62	414.27
570.78	379.17
570.95	369.80
571.11	437.68
571.27	475.13
571.43	393.21
571.60	430.66
571.76	421.30
571.92	456.40
572.09	430.66
572.25	433.00
572.41	334.70
572.57	360.44
572.74	421.30
572.90	397.89
573.06	433.00
573.22	388.53
573.38	468.11
573.55	451.72
573.71	423.64
573.87	442.36
574.03	414.27
574.20	440.02
574.36	430.66
574.52	435.34
574.68	425.98
574.84	437.68
575.01	395.55
575.17	414.27
575.33	397.89
575.49	402.57
575.65	388.53
575.82	458.74
575.98	468.11
576.14	395.55
576.30	372.15
576.46	407.25
576.62	379.17
576.79	437.68
576.95	498.53
577.11	442.36
577.27	430.66
577.43	418.96
577.59	433.00
577.75	393.21
577.92	486.83
578.08	339.38
578.24	365.12
578.40	395.55
578.56	418.96
578.72	463.43
578.88	447.04
579.04	421.30
579.21	409.59
579.37	437.68
579.53	428.32
579.69	428.32
579.85	400.23
580.01	395.55
580.17	454.06
580.33	447.04
580.49	351.08
580.65	400.23
580.82	397.89
580.98	418.96
581.14	430.66
581.30	433.00
581.46	409.59
581.62	425.98
581.78	435.34
581.94	400.23
582.10	355.76
582.26	402.57
582.42	379.17
582.58	418.96
582.74	470.45
582.90	369.80
583.06	425.98
583.22	435.34
583.38	423.64
583.54	423.64
583.70	418.96
583.86	388.53
584.02	496.19
584.18	428.32
584.34	451.72
584.50	381.51
584.66	402.57
584.82	444.70
584.98	442.36
585.14	414.27
585.30	430.66
585.46	402.57
585.62	386.19
585.78	435.34
585.94	418.96
586.10	416.62
586.26	425.98
586.42	477.47
586.58	388.53
586.74	390.87
586.90	416.62
587.06	407.25
587.22	414.27
587.38	404.91
587.54	376.83
587.70	451.72
587.86	421.30
588.02	444.70
588.18	414.27
588.34	428.32
588.49	411.93
588.65	379.17
588.81	449.38
588.97	416.62
589.13	468.11
589.29	383.85
589.45	472.79
589.61	397.89
589.77	393.21
589.93	372.15
590.08	390.87
590.24	486.83
590.40	393.21
590.56	454.06
590.72	383.85
590.88	386.19
591.04	444.70
591.20	395.55
591.35	433.00
591.51	435.34
591.67	360.44
591.83	458.74
591.99	470.45
592.15	428.32
592.31	435.34
592.46	402.57
592.62	454.06
592.78	395.55
592.94	421.30
593.10	430.66
593.26	315.97
593.41	449.38
593.57	365.12
593.73	409.59
593.89	437.68
594.05	369.80
594.20	421.30
594.36	465.77
594.52	395.55
594.68	404.91
594.84	528.96
594.99	442.36
595.15	444.70
595.31	421.30
595.47	397.89
595.62	388.53
595.78	447.04
595.94	407.25
596.10	498.53
596.25	484.49
596.41	407.25
596.57	442.36
596.73	430.66
596.88	374.49
597.04	393.21
597.20	372.15
597.36	421.30
597.51	430.66
597.67	362.78
597.83	468.11
597.99	416.62
598.14	461.09
598.30	407.25
598.46	440.02
598.61	379.17
598.77	379.17
598.93	409.59
599.09	360.44
599.24	402.57
599.40	421.30
599.56	458.74
599.71	423.64
599.87	402.57
600.03	496.19
600.18	411.93
600.34	374.49
600.50	416.62
600.65	442.36
600.81	435.34
600.97	440.02
601.12	435.34
601.28	376.83
601.44	437.68
601.59	381.51
601.75	425.98
601.91	449.38
602.06	489.17
602.22	535.98
602.37	379.17
602.53	327.68
602.69	344.06
602.84	407.25
603.00	367.46
603.16	397.89
603.31	442.36
603.47	395.55
603.62	437.68
603.78	454.06
603.94	468.11
604.09	402.57
604.25	423.64
604.40	423.64
604.56	440.02
604.71	411.93
604.87	442.36
605.03	355.76
605.18	416.62
605.34	449.38
605.49	458.74
605.65	402.57
605.80	430.66
605.96	437.68
606.12	404.91
606.27	477.47
606.43	353.42
606.58	395.55
606.74	430.66
606.89	484.49
607.05	418.96
607.20	435.34
607.36	461.09
607.51	395.55
607.67	390.87
607.82	479.81
607.98	435.34
608.13	421.30
608.29	430.66
608.44	472.79
608.60	440.02
608.75	456.40
608.91	444.70
609.06	465.77
609.22	393.21
609.37	421.30
609.53	390.87
609.68	388.53
609.84	463.43
609.99	400.23
610.15	397.89
