SpectraSuite Data File
++++++++++++++++++++++++++++++++++++
Date: Fri Oct 25 12:10:36 EDT 2013
User: price-jones
Dark Spectrum Present: No
Reference Spectrum Present: No
Number of Sampled Component Spectra: 1
Spectrometers: USB2+H05261
Integration Time (usec): 100000 (USB2+H05261)
Spectra Averaged: 1 (USB2+H05261)
Boxcar Smoothing: 0 (USB2+H05261)
Correct for Electrical Dark: No (USB2+H05261)
Strobe/Lamp Enabled: No (USB2+H05261)
Correct for Detector Non-linearity: No (USB2+H05261)
Correct for Stray Light: No (USB2+H05261)
Number of Pixels in Processed Spectrum: 2048
>>>>>Begin Processed Spectral Data<<<<<
365.73	266.82
365.92	266.82
366.12	266.82
366.32	234.05
366.52	280.86
366.72	271.50
366.91	217.67
367.11	142.77
367.31	231.71
367.51	142.77
367.70	203.63
367.90	217.67
368.10	271.50
368.30	257.46
368.49	255.12
368.69	255.12
368.89	201.29
369.09	180.22
369.28	210.65
369.48	297.25
369.68	271.50
369.87	259.80
370.07	320.65
370.27	330.02
370.47	259.80
370.66	313.63
370.86	346.40
371.06	379.17
371.25	367.46
371.45	332.36
371.65	337.04
371.84	348.74
372.04	330.02
372.24	418.96
372.44	423.64
372.63	388.53
372.83	472.79
373.03	383.85
373.22	355.76
373.42	428.32
373.62	404.91
373.81	379.17
374.01	390.87
374.21	444.70
374.40	388.53
374.60	416.62
374.79	393.21
374.99	381.51
375.19	489.17
375.38	369.80
375.58	407.25
375.78	568.75
375.97	414.27
376.17	433.00
376.37	351.08
376.56	421.30
376.76	379.17
376.95	484.49
377.15	414.27
377.35	346.40
377.54	400.23
377.74	304.27
377.93	430.66
378.13	400.23
378.33	404.91
378.52	393.21
378.72	461.09
378.91	454.06
379.11	393.21
379.31	411.93
379.50	367.46
379.70	468.11
379.89	418.96
380.09	344.06
380.28	423.64
380.48	416.62
380.68	421.30
380.87	362.78
381.07	346.40
381.26	409.59
381.46	414.27
381.65	440.02
381.85	477.47
382.04	386.19
382.24	386.19
382.43	444.70
382.63	395.55
382.83	376.83
383.02	514.92
383.22	505.56
383.41	442.36
383.61	500.87
383.80	458.74
384.00	402.57
384.19	418.96
384.39	411.93
384.58	383.85
384.78	444.70
384.97	435.34
385.17	388.53
385.36	425.98
385.56	348.74
385.75	400.23
385.95	404.91
386.14	404.91
386.34	362.78
386.53	411.93
386.72	374.49
386.92	444.70
387.11	388.53
387.31	362.78
387.50	421.30
387.70	458.74
387.89	433.00
388.09	395.55
388.28	374.49
388.48	416.62
388.67	454.06
388.86	376.83
389.06	409.59
389.25	430.66
389.45	388.53
389.64	327.68
389.84	449.38
390.03	414.27
390.22	393.21
390.42	374.49
390.61	379.17
390.81	360.44
391.00	409.59
391.19	428.32
391.39	360.44
391.58	351.08
391.78	351.08
391.97	376.83
392.16	407.25
392.36	395.55
392.55	418.96
392.75	411.93
392.94	409.59
393.13	421.30
393.33	369.80
393.52	360.44
393.71	449.38
393.91	374.49
394.10	355.76
394.29	341.72
394.49	416.62
394.68	404.91
394.88	411.93
395.07	465.77
395.26	407.25
395.46	348.74
395.65	430.66
395.84	489.17
396.04	454.06
396.23	360.44
396.42	425.98
396.62	447.04
396.81	428.32
397.00	470.45
397.19	397.89
397.39	395.55
397.58	421.30
397.77	353.42
397.97	383.85
398.16	416.62
398.35	372.15
398.55	402.57
398.74	442.36
398.93	397.89
399.12	449.38
399.32	416.62
399.51	386.19
399.70	388.53
399.90	390.87
400.09	411.93
400.28	355.76
400.47	442.36
400.67	362.78
400.86	358.10
401.05	423.64
401.24	465.77
401.44	383.85
401.63	421.30
401.82	327.68
402.01	411.93
402.21	435.34
402.40	355.76
402.59	461.09
402.78	369.80
402.97	400.23
403.17	369.80
403.36	379.17
403.55	332.36
403.74	355.76
403.93	449.38
404.13	393.21
404.32	374.49
404.51	383.85
404.70	397.89
404.89	325.33
405.09	423.64
405.28	388.53
405.47	355.76
405.66	444.70
405.85	397.89
406.05	423.64
406.24	428.32
406.43	355.76
406.62	376.83
406.81	433.00
407.00	344.06
407.20	362.78
407.39	430.66
407.58	421.30
407.77	465.77
407.96	393.21
408.15	435.34
408.34	400.23
408.54	440.02
408.73	421.30
408.92	418.96
409.11	418.96
409.30	374.49
409.49	447.04
409.68	390.87
409.87	456.40
410.07	411.93
410.26	365.12
410.45	332.36
410.64	402.57
410.83	393.21
411.02	369.80
411.21	418.96
411.40	367.46
411.59	503.22
411.78	400.23
411.98	456.40
412.17	388.53
412.36	414.27
412.55	475.13
412.74	465.77
412.93	451.72
413.12	388.53
413.31	372.15
413.50	428.32
413.69	437.68
413.88	447.04
414.07	383.85
414.26	425.98
414.45	461.09
414.64	503.22
414.83	416.62
415.02	444.70
415.22	367.46
415.41	472.79
415.60	423.64
415.79	449.38
415.98	447.04
416.17	468.11
416.36	388.53
416.55	407.25
416.74	479.81
416.93	416.62
417.12	465.77
417.31	440.02
417.50	421.30
417.69	442.36
417.88	454.06
418.07	402.57
418.26	400.23
418.45	393.21
418.64	404.91
418.83	365.12
419.02	383.85
419.21	393.21
419.39	355.76
419.58	376.83
419.77	407.25
419.96	400.23
420.15	402.57
420.34	458.74
420.53	360.44
420.72	425.98
420.91	353.42
421.10	423.64
421.29	433.00
421.48	362.78
421.67	414.27
421.86	430.66
422.05	423.64
422.24	362.78
422.43	407.25
422.61	374.49
422.80	468.11
422.99	428.32
423.18	372.15
423.37	386.19
423.56	351.08
423.75	407.25
423.94	388.53
424.13	428.32
424.32	440.02
424.50	388.53
424.69	477.47
424.88	393.21
425.07	395.55
425.26	332.36
425.45	386.19
425.64	351.08
425.83	294.91
426.01	376.83
426.20	402.57
426.39	348.74
426.58	383.85
426.77	430.66
426.96	386.19
427.15	400.23
427.33	440.02
427.52	454.06
427.71	416.62
427.90	430.66
428.09	402.57
428.28	454.06
428.46	437.68
428.65	442.36
428.84	451.72
429.03	491.51
429.22	376.83
429.40	475.13
429.59	416.62
429.78	505.56
429.97	409.59
430.16	465.77
430.34	402.57
430.53	414.27
430.72	379.17
430.91	395.55
431.10	388.53
431.28	425.98
431.47	388.53
431.66	388.53
431.85	435.34
432.03	454.06
432.22	461.09
432.41	461.09
432.60	470.45
432.79	365.12
432.97	418.96
433.16	383.85
433.35	442.36
433.54	372.15
433.72	346.40
433.91	421.30
434.10	411.93
434.28	435.34
434.47	400.23
434.66	383.85
434.85	433.00
435.03	383.85
435.22	386.19
435.41	428.32
435.59	390.87
435.78	409.59
435.97	423.64
436.16	404.91
436.34	418.96
436.53	404.91
436.72	395.55
436.90	449.38
437.09	449.38
437.28	418.96
437.46	381.51
437.65	454.06
437.84	475.13
438.02	400.23
438.21	444.70
438.40	390.87
438.58	484.49
438.77	409.59
438.96	437.68
439.14	433.00
439.33	425.98
439.52	482.15
439.70	395.55
439.89	423.64
440.08	386.19
440.26	421.30
440.45	425.98
440.63	393.21
440.82	416.62
441.01	456.40
441.19	435.34
441.38	440.02
441.57	409.59
441.75	435.34
441.94	451.72
442.12	437.68
442.31	388.53
442.50	365.12
442.68	409.59
442.87	395.55
443.05	430.66
443.24	411.93
443.43	440.02
443.61	428.32
443.80	388.53
443.98	395.55
444.17	404.91
444.35	348.74
444.54	372.15
444.73	400.23
444.91	451.72
445.10	470.45
445.28	395.55
445.47	390.87
445.65	397.89
445.84	418.96
446.02	461.09
446.21	409.59
446.39	379.17
446.58	472.79
446.77	395.55
446.95	416.62
447.14	430.66
447.32	433.00
447.51	411.93
447.69	367.46
447.88	407.25
448.06	458.74
448.25	337.04
448.43	344.06
448.62	276.18
448.80	416.62
448.99	475.13
449.17	411.93
449.36	425.98
449.54	411.93
449.73	383.85
449.91	409.59
450.10	491.51
450.28	500.87
450.46	418.96
450.65	435.34
450.83	362.78
451.02	374.49
451.20	425.98
451.39	416.62
451.57	440.02
451.76	367.46
451.94	442.36
452.13	512.58
452.31	465.77
452.49	393.21
452.68	444.70
452.86	484.49
453.05	454.06
453.23	416.62
453.42	449.38
453.60	428.32
453.78	383.85
453.97	365.12
454.15	395.55
454.34	355.76
454.52	416.62
454.70	442.36
454.89	514.92
455.07	386.19
455.26	418.96
455.44	355.76
455.62	400.23
455.81	330.02
455.99	383.85
456.17	451.72
456.36	468.11
456.54	414.27
456.73	402.57
456.91	437.68
457.09	376.83
457.28	433.00
457.46	337.04
457.64	397.89
457.83	418.96
458.01	390.87
458.19	381.51
458.38	409.59
458.56	365.12
458.74	388.53
458.93	407.25
459.11	440.02
459.29	404.91
459.48	447.04
459.66	393.21
459.84	341.72
460.03	472.79
460.21	383.85
460.39	379.17
460.57	407.25
460.76	440.02
460.94	425.98
461.12	444.70
461.31	449.38
461.49	407.25
461.67	400.23
461.85	360.44
462.04	411.93
462.22	723.23
462.40	400.23
462.59	449.38
462.77	388.53
462.95	409.59
463.13	404.91
463.32	407.25
463.50	437.68
463.68	454.06
463.86	428.32
464.05	390.87
464.23	407.25
464.41	425.98
464.59	318.31
464.78	332.36
464.96	376.83
465.14	400.23
465.32	456.40
465.50	397.89
465.69	400.23
465.87	402.57
466.05	463.43
466.23	372.15
466.41	451.72
466.60	447.04
466.78	409.59
466.96	472.79
467.14	388.53
467.32	463.43
467.51	472.79
467.69	458.74
467.87	468.11
468.05	358.10
468.23	465.77
468.41	433.00
468.60	498.53
468.78	407.25
468.96	430.66
469.14	409.59
469.32	442.36
469.50	390.87
469.69	435.34
469.87	379.17
470.05	472.79
470.23	433.00
470.41	421.30
470.59	411.93
470.77	404.91
470.95	397.89
471.14	425.98
471.32	461.09
471.50	407.25
471.68	393.21
471.86	397.89
472.04	367.46
472.22	330.02
472.40	365.12
472.58	458.74
472.77	442.36
472.95	456.40
473.13	482.15
473.31	451.72
473.49	454.06
473.67	369.80
473.85	496.19
474.03	433.00
474.21	454.06
474.39	489.17
474.57	404.91
474.75	440.02
474.93	383.85
475.12	348.74
475.30	393.21
475.48	397.89
475.66	482.15
475.84	465.77
476.02	409.59
476.20	440.02
476.38	409.59
476.56	416.62
476.74	442.36
476.92	383.85
477.10	386.19
477.28	362.78
477.46	442.36
477.64	400.23
477.82	418.96
478.00	425.98
478.18	449.38
478.36	428.32
478.54	440.02
478.72	421.30
478.90	390.87
479.08	458.74
479.26	409.59
479.44	341.72
479.62	383.85
479.80	465.77
479.98	444.70
480.16	386.19
480.34	425.98
480.52	404.91
480.70	472.79
480.88	486.83
481.06	411.93
481.24	435.34
481.41	362.78
481.59	414.27
481.77	423.64
481.95	428.32
482.13	482.15
482.31	461.09
482.49	351.08
482.67	379.17
482.85	404.91
483.03	351.08
483.21	421.30
483.39	355.76
483.57	369.80
483.74	416.62
483.92	383.85
484.10	374.49
484.28	486.83
484.46	461.09
484.64	386.19
484.82	437.68
485.00	465.77
485.18	421.30
485.35	414.27
485.53	407.25
485.71	423.64
485.89	374.49
486.07	418.96
486.25	444.70
486.43	425.98
486.61	430.66
486.78	440.02
486.96	360.44
487.14	402.57
487.32	379.17
487.50	411.93
487.68	458.74
487.85	430.66
488.03	447.04
488.21	397.89
488.39	491.51
488.57	442.36
488.75	390.87
488.92	512.58
489.10	362.78
489.28	400.23
489.46	351.08
489.64	482.15
489.81	423.64
489.99	351.08
490.17	360.44
490.35	461.09
490.53	421.30
490.70	458.74
490.88	414.27
491.06	423.64
491.24	390.87
491.41	479.81
491.59	449.38
491.77	334.70
491.95	440.02
492.13	381.51
492.30	402.57
492.48	414.27
492.66	430.66
492.84	386.19
493.01	337.04
493.19	510.24
493.37	440.02
493.54	407.25
493.72	393.21
493.90	362.78
494.08	423.64
494.25	381.51
494.43	383.85
494.61	463.43
494.79	404.91
494.96	418.96
495.14	425.98
495.32	458.74
495.49	414.27
495.67	383.85
495.85	416.62
496.02	348.74
496.20	458.74
496.38	418.96
496.55	374.49
496.73	360.44
496.91	449.38
497.09	440.02
497.26	344.06
497.44	376.83
497.62	430.66
497.79	374.49
497.97	388.53
498.14	456.40
498.32	505.56
498.50	409.59
498.67	433.00
498.85	425.98
499.03	400.23
499.20	390.87
499.38	418.96
499.56	414.27
499.73	346.40
499.91	397.89
500.08	437.68
500.26	362.78
500.44	367.46
500.61	425.98
500.79	447.04
500.97	454.06
501.14	383.85
501.32	402.57
501.49	418.96
501.67	383.85
501.84	374.49
502.02	440.02
502.20	379.17
502.37	393.21
502.55	360.44
502.72	451.72
502.90	416.62
503.07	430.66
503.25	414.27
503.43	458.74
503.60	395.55
503.78	444.70
503.95	430.66
504.13	475.13
504.30	393.21
504.48	369.80
504.65	428.32
504.83	404.91
505.01	435.34
505.18	425.98
505.36	365.12
505.53	444.70
505.71	358.10
505.88	435.34
506.06	332.36
506.23	425.98
506.41	430.66
506.58	404.91
506.76	442.36
506.93	362.78
507.11	430.66
507.28	355.76
507.46	374.49
507.63	411.93
507.81	381.51
507.98	430.66
508.16	376.83
508.33	440.02
508.50	409.59
508.68	437.68
508.85	379.17
509.03	454.06
509.20	330.02
509.38	451.72
509.55	425.98
509.73	409.59
509.90	337.04
510.08	416.62
510.25	409.59
510.42	407.25
510.60	374.49
510.77	489.17
510.95	465.77
511.12	421.30
511.30	468.11
511.47	369.80
511.64	418.96
511.82	447.04
511.99	376.83
512.17	411.93
512.34	299.59
512.51	442.36
512.69	404.91
512.86	442.36
513.04	381.51
513.21	374.49
513.38	423.64
513.56	421.30
513.73	435.34
513.90	421.30
514.08	407.25
514.25	449.38
514.43	397.89
514.60	393.21
514.77	454.06
514.95	416.62
515.12	360.44
515.29	360.44
515.47	388.53
515.64	477.47
515.81	456.40
515.99	376.83
516.16	451.72
516.33	465.77
516.51	437.68
516.68	372.15
516.85	393.21
517.03	386.19
517.20	379.17
517.37	367.46
517.54	414.27
517.72	414.27
517.89	447.04
518.06	381.51
518.24	465.77
518.41	379.17
518.58	418.96
518.75	442.36
518.93	416.62
519.10	374.49
519.27	386.19
519.45	383.85
519.62	444.70
519.79	367.46
519.96	400.23
520.14	353.42
520.31	470.45
520.48	425.98
520.65	376.83
520.83	440.02
521.00	416.62
521.17	397.89
521.34	365.12
521.52	533.64
521.69	386.19
521.86	486.83
522.03	411.93
522.20	489.17
522.38	444.70
522.55	444.70
522.72	339.38
522.89	414.27
523.07	393.21
523.24	362.78
523.41	409.59
523.58	299.59
523.75	390.87
523.92	337.04
524.10	428.32
524.27	440.02
524.44	454.06
524.61	400.23
524.78	365.12
524.96	428.32
525.13	416.62
525.30	400.23
525.47	498.53
525.64	433.00
525.81	411.93
525.98	425.98
526.16	463.43
526.33	404.91
526.50	381.51
526.67	369.80
526.84	418.96
527.01	407.25
527.18	353.42
527.36	372.15
527.53	409.59
527.70	423.64
527.87	409.59
528.04	416.62
528.21	411.93
528.38	528.96
528.55	442.36
528.72	454.06
528.89	400.23
529.07	393.21
529.24	447.04
529.41	418.96
529.58	400.23
529.75	341.72
529.92	463.43
530.09	461.09
530.26	458.74
530.43	407.25
530.60	428.32
530.77	414.27
530.94	386.19
531.11	386.19
531.28	397.89
531.46	362.78
531.63	440.02
531.80	367.46
531.97	440.02
532.14	355.76
532.31	421.30
532.48	397.89
532.65	421.30
532.82	383.85
532.99	374.49
533.16	447.04
533.33	411.93
533.50	428.32
533.67	383.85
533.84	437.68
534.01	437.68
534.18	374.49
534.35	435.34
534.52	358.10
534.69	444.70
534.86	402.57
535.03	430.66
535.20	407.25
535.37	500.87
535.54	451.72
535.71	374.49
535.88	414.27
536.05	388.53
536.22	437.68
536.38	442.36
536.55	334.70
536.72	456.40
536.89	395.55
537.06	358.10
537.23	407.25
537.40	341.72
537.57	360.44
537.74	423.64
537.91	411.93
538.08	402.57
538.25	414.27
538.42	416.62
538.59	393.21
538.75	393.21
538.92	444.70
539.09	379.17
539.26	444.70
539.43	437.68
539.60	393.21
539.77	374.49
539.94	409.59
540.11	451.72
540.28	468.11
540.44	402.57
540.61	425.98
540.78	463.43
540.95	458.74
541.12	491.51
541.29	386.19
541.46	458.74
541.62	458.74
541.79	386.19
541.96	341.72
542.13	440.02
542.30	360.44
542.47	468.11
542.63	437.68
542.80	416.62
542.97	442.36
543.14	386.19
543.31	465.77
543.48	454.06
543.64	498.53
543.81	430.66
543.98	425.98
544.15	454.06
544.32	402.57
544.48	372.15
544.65	393.21
544.82	358.10
544.99	433.00
545.16	379.17
545.32	437.68
545.49	440.02
545.66	395.55
545.83	421.30
546.00	407.25
546.16	416.62
546.33	440.02
546.50	425.98
546.67	449.38
546.83	423.64
547.00	365.12
547.17	344.06
547.34	346.40
547.50	409.59
547.67	421.30
547.84	400.23
548.00	414.27
548.17	440.02
548.34	362.78
548.51	472.79
548.67	407.25
548.84	451.72
549.01	435.34
549.18	505.56
549.34	458.74
549.51	463.43
549.68	454.06
549.84	428.32
550.01	477.47
550.18	454.06
550.34	491.51
550.51	393.21
550.68	440.02
550.84	365.12
551.01	411.93
551.18	433.00
551.34	376.83
551.51	428.32
551.68	449.38
551.84	393.21
552.01	372.15
552.18	435.34
552.34	475.13
552.51	402.57
552.68	468.11
552.84	400.23
553.01	360.44
553.18	435.34
553.34	414.27
553.51	402.57
553.67	493.85
553.84	414.27
554.01	421.30
554.17	395.55
554.34	458.74
554.51	376.83
554.67	376.83
554.84	407.25
555.00	461.09
555.17	433.00
555.33	397.89
555.50	388.53
555.67	428.32
555.83	414.27
556.00	355.76
556.16	521.94
556.33	447.04
556.50	423.64
556.66	388.53
556.83	390.87
556.99	437.68
557.16	404.91
557.32	451.72
557.49	365.12
557.65	395.55
557.82	390.87
557.98	449.38
558.15	386.19
558.32	440.02
558.48	454.06
558.65	376.83
558.81	404.91
558.98	440.02
559.14	402.57
559.31	435.34
559.47	407.25
559.64	409.59
559.80	421.30
559.97	402.57
560.13	425.98
560.30	402.57
560.46	402.57
560.63	376.83
560.79	388.53
560.96	440.02
561.12	381.51
561.29	458.74
561.45	447.04
561.61	416.62
561.78	454.06
561.94	433.00
562.11	407.25
562.27	402.57
562.44	421.30
562.60	344.06
562.77	393.21
562.93	414.27
563.10	442.36
563.26	428.32
563.42	456.40
563.59	451.72
563.75	454.06
563.92	383.85
564.08	409.59
564.24	393.21
564.41	472.79
564.57	346.40
564.74	472.79
564.90	418.96
565.07	423.64
565.23	505.56
565.39	444.70
565.56	402.57
565.72	437.68
565.88	430.66
566.05	440.02
566.21	379.17
566.38	451.72
566.54	388.53
566.70	348.74
566.87	444.70
567.03	437.68
567.19	372.15
567.36	444.70
567.52	414.27
567.68	397.89
567.85	442.36
568.01	388.53
568.17	369.80
568.34	383.85
568.50	430.66
568.66	360.44
568.83	484.49
568.99	519.60
569.15	468.11
569.32	372.15
569.48	444.70
569.64	372.15
569.81	437.68
569.97	395.55
570.13	372.15
570.30	407.25
570.46	428.32
570.62	440.02
570.78	390.87
570.95	348.74
571.11	395.55
571.27	393.21
571.43	411.93
571.60	376.83
571.76	390.87
571.92	404.91
572.09	454.06
572.25	397.89
572.41	393.21
572.57	372.15
572.74	470.45
572.90	409.59
573.06	444.70
573.22	503.22
573.38	409.59
573.55	416.62
573.71	437.68
573.87	493.85
574.03	360.44
574.20	383.85
574.36	454.06
574.52	407.25
574.68	381.51
574.84	458.74
575.01	421.30
575.17	386.19
575.33	451.72
575.49	386.19
575.65	451.72
575.82	428.32
575.98	463.43
576.14	393.21
576.30	383.85
576.46	418.96
576.62	423.64
576.79	386.19
576.95	430.66
577.11	362.78
577.27	425.98
577.43	486.83
577.59	425.98
577.75	404.91
577.92	346.40
578.08	388.53
578.24	416.62
578.40	524.28
578.56	379.17
578.72	451.72
578.88	451.72
579.04	388.53
579.21	454.06
579.37	437.68
579.53	437.68
579.69	468.11
579.85	376.83
580.01	425.98
580.17	433.00
580.33	332.36
580.49	388.53
580.65	397.89
580.82	430.66
580.98	397.89
581.14	355.76
581.30	430.66
581.46	428.32
581.62	479.81
581.78	505.56
581.94	351.08
582.10	440.02
582.26	435.34
582.42	433.00
582.58	437.68
582.74	463.43
582.90	358.10
583.06	353.42
583.22	407.25
583.38	334.70
583.54	437.68
583.70	514.92
583.86	451.72
584.02	416.62
584.18	402.57
584.34	416.62
584.50	463.43
584.66	407.25
584.82	451.72
584.98	451.72
585.14	358.10
585.30	411.93
585.46	358.10
585.62	388.53
585.78	388.53
585.94	425.98
586.10	458.74
586.26	358.10
586.42	425.98
586.58	355.76
586.74	386.19
586.90	416.62
587.06	404.91
587.22	397.89
587.38	423.64
587.54	353.42
587.70	351.08
587.86	362.78
588.02	348.74
588.18	388.53
588.34	465.77
588.49	454.06
588.65	458.74
588.81	372.15
588.97	365.12
589.13	365.12
589.29	397.89
589.45	507.90
589.61	421.30
589.77	440.02
589.93	393.21
590.08	351.08
590.24	411.93
590.40	360.44
590.56	360.44
590.72	433.00
590.88	362.78
591.04	416.62
591.20	449.38
591.35	409.59
591.51	395.55
591.67	346.40
591.83	463.43
591.99	416.62
592.15	510.24
592.31	404.91
592.46	454.06
592.62	414.27
592.78	306.61
592.94	348.74
593.10	407.25
593.26	444.70
593.41	400.23
593.57	386.19
593.73	500.87
593.89	362.78
594.05	407.25
594.20	409.59
594.36	479.81
594.52	472.79
594.68	362.78
594.84	433.00
594.99	400.23
595.15	334.70
595.31	440.02
595.47	479.81
595.62	416.62
595.78	437.68
595.94	423.64
596.10	397.89
596.25	468.11
596.41	454.06
596.57	458.74
596.73	454.06
596.88	379.17
597.04	341.72
597.20	374.49
597.36	374.49
597.51	440.02
597.67	402.57
597.83	470.45
597.99	444.70
598.14	374.49
598.30	383.85
598.46	374.49
598.61	451.72
598.77	411.93
598.93	402.57
599.09	390.87
599.24	407.25
599.40	461.09
599.56	477.47
599.71	477.47
599.87	416.62
600.03	489.17
600.18	425.98
600.34	376.83
600.50	404.91
600.65	355.76
600.81	360.44
600.97	447.04
601.12	442.36
601.28	379.17
601.44	381.51
601.59	404.91
601.75	400.23
601.91	421.30
602.06	435.34
602.22	465.77
602.37	451.72
602.53	433.00
602.69	472.79
602.84	397.89
603.00	472.79
603.16	421.30
603.31	433.00
603.47	411.93
603.62	416.62
603.78	386.19
603.94	404.91
604.09	325.33
604.25	465.77
604.40	390.87
604.56	404.91
604.71	465.77
604.87	442.36
605.03	414.27
605.18	376.83
605.34	421.30
605.49	456.40
605.65	393.21
605.80	409.59
605.96	404.91
606.12	369.80
606.27	472.79
606.43	454.06
606.58	407.25
606.74	433.00
606.89	348.74
607.05	449.38
607.20	484.49
607.36	484.49
607.51	447.04
607.67	395.55
607.82	425.98
607.98	482.15
608.13	430.66
608.29	414.27
608.44	472.79
608.60	442.36
608.75	407.25
608.91	491.51
609.06	433.00
609.22	421.30
609.37	404.91
609.53	344.06
609.68	362.78
609.84	383.85
609.99	353.42
610.15	425.98
