SpectraSuite Data File
++++++++++++++++++++++++++++++++++++
Date: Fri Oct 25 12:10:39 EDT 2013
User: price-jones
Dark Spectrum Present: No
Reference Spectrum Present: No
Number of Sampled Component Spectra: 1
Spectrometers: USB2+H05261
Integration Time (usec): 100000 (USB2+H05261)
Spectra Averaged: 1 (USB2+H05261)
Boxcar Smoothing: 0 (USB2+H05261)
Correct for Electrical Dark: No (USB2+H05261)
Strobe/Lamp Enabled: No (USB2+H05261)
Correct for Detector Non-linearity: No (USB2+H05261)
Correct for Stray Light: No (USB2+H05261)
Number of Pixels in Processed Spectrum: 2048
>>>>>Begin Processed Spectral Data<<<<<
365.73	367.46
365.92	367.46
366.12	367.46
366.32	271.50
366.52	252.78
366.72	266.82
366.91	220.01
367.11	220.01
367.31	205.97
367.51	187.24
367.70	222.35
367.90	273.84
368.10	224.69
368.30	227.03
368.49	245.76
368.69	210.65
368.89	264.48
369.09	248.10
369.28	224.69
369.48	227.03
369.68	217.67
369.87	292.57
370.07	264.48
370.27	255.12
370.47	330.02
370.66	311.29
370.86	262.14
371.06	304.27
371.25	383.85
371.45	388.53
371.65	418.96
371.84	421.30
372.04	393.21
372.24	365.12
372.44	409.59
372.63	409.59
372.83	402.57
373.03	411.93
373.22	465.77
373.42	472.79
373.62	425.98
373.81	418.96
374.01	461.09
374.21	390.87
374.40	414.27
374.60	374.49
374.79	444.70
374.99	428.32
375.19	409.59
375.38	404.91
375.58	444.70
375.78	435.34
375.97	442.36
376.17	535.98
376.37	400.23
376.56	414.27
376.76	411.93
376.95	325.33
377.15	444.70
377.35	409.59
377.54	383.85
377.74	353.42
377.93	428.32
378.13	395.55
378.33	365.12
378.52	388.53
378.72	388.53
378.91	388.53
379.11	367.46
379.31	397.89
379.50	402.57
379.70	468.11
379.89	397.89
380.09	362.78
380.28	421.30
380.48	418.96
380.68	388.53
380.87	428.32
381.07	395.55
381.26	444.70
381.46	393.21
381.65	414.27
381.85	390.87
382.04	407.25
382.24	390.87
382.43	369.80
382.63	390.87
382.83	355.76
383.02	397.89
383.22	390.87
383.41	449.38
383.61	414.27
383.80	411.93
384.00	393.21
384.19	479.81
384.39	437.68
384.58	437.68
384.78	470.45
384.97	416.62
385.17	388.53
385.36	339.38
385.56	463.43
385.75	486.83
385.95	447.04
386.14	468.11
386.34	369.80
386.53	400.23
386.72	379.17
386.92	418.96
387.11	421.30
387.31	376.83
387.50	346.40
387.70	383.85
387.89	386.19
388.09	440.02
388.28	381.51
388.48	416.62
388.67	402.57
388.86	374.49
389.06	437.68
389.25	372.15
389.45	472.79
389.64	428.32
389.84	477.47
390.03	397.89
390.22	351.08
390.42	409.59
390.61	367.46
390.81	402.57
391.00	423.64
391.19	344.06
391.39	414.27
391.58	411.93
391.78	416.62
391.97	470.45
392.16	330.02
392.36	404.91
392.55	379.17
392.75	400.23
392.94	416.62
393.13	442.36
393.33	409.59
393.52	477.47
393.71	402.57
393.91	386.19
394.10	400.23
394.29	355.76
394.49	390.87
394.68	472.79
394.88	444.70
395.07	428.32
395.26	362.78
395.46	397.89
395.65	435.34
395.84	433.00
396.04	409.59
396.23	388.53
396.42	400.23
396.62	407.25
396.81	383.85
397.00	449.38
397.19	451.72
397.39	376.83
397.58	409.59
397.77	437.68
397.97	390.87
398.16	435.34
398.35	372.15
398.55	358.10
398.74	456.40
398.93	437.68
399.12	390.87
399.32	395.55
399.51	421.30
399.70	433.00
399.90	454.06
400.09	435.34
400.28	318.31
400.47	416.62
400.67	425.98
400.86	369.80
401.05	442.36
401.24	402.57
401.44	423.64
401.63	475.13
401.82	440.02
402.01	395.55
402.21	390.87
402.40	421.30
402.59	409.59
402.78	470.45
402.97	362.78
403.17	381.51
403.36	383.85
403.55	383.85
403.74	425.98
403.93	393.21
404.13	411.93
404.32	421.30
404.51	421.30
404.70	449.38
404.89	461.09
405.09	437.68
405.28	418.96
405.47	367.46
405.66	395.55
405.85	416.62
406.05	390.87
406.24	325.33
406.43	388.53
406.62	503.22
406.81	409.59
407.00	383.85
407.20	463.43
407.39	355.76
407.58	355.76
407.77	514.92
407.96	379.17
408.15	390.87
408.34	458.74
408.54	463.43
408.73	390.87
408.92	411.93
409.11	411.93
409.30	372.15
409.49	362.78
409.68	360.44
409.87	381.51
410.07	351.08
410.26	407.25
410.45	444.70
410.64	341.72
410.83	423.64
411.02	383.85
411.21	397.89
411.40	416.62
411.59	369.80
411.78	395.55
411.98	362.78
412.17	463.43
412.36	369.80
412.55	430.66
412.74	404.91
412.93	416.62
413.12	409.59
413.31	470.45
413.50	475.13
413.69	435.34
413.88	425.98
414.07	360.44
414.26	404.91
414.45	379.17
414.64	423.64
414.83	458.74
415.02	458.74
415.22	365.12
415.41	346.40
415.60	404.91
415.79	418.96
415.98	430.66
416.17	421.30
416.36	416.62
416.55	374.49
416.74	470.45
416.93	428.32
417.12	404.91
417.31	369.80
417.50	367.46
417.69	449.38
417.88	451.72
418.07	362.78
418.26	430.66
418.45	404.91
418.64	416.62
418.83	367.46
419.02	416.62
419.21	423.64
419.39	348.74
419.58	416.62
419.77	372.15
419.96	428.32
420.15	402.57
420.34	386.19
420.53	402.57
420.72	411.93
420.91	425.98
421.10	468.11
421.29	346.40
421.48	341.72
421.67	404.91
421.86	477.47
422.05	416.62
422.24	383.85
422.43	376.83
422.61	463.43
422.80	400.23
422.99	461.09
423.18	416.62
423.37	491.51
423.56	369.80
423.75	423.64
423.94	372.15
424.13	500.87
424.32	376.83
424.50	425.98
424.69	355.76
424.88	484.49
425.07	374.49
425.26	433.00
425.45	423.64
425.64	418.96
425.83	430.66
426.01	519.60
426.20	421.30
426.39	428.32
426.58	475.13
426.77	367.46
426.96	414.27
427.15	461.09
427.33	381.51
427.52	454.06
427.71	393.21
427.90	416.62
428.09	440.02
428.28	440.02
428.46	458.74
428.65	433.00
428.84	428.32
429.03	425.98
429.22	449.38
429.40	353.42
429.59	381.51
429.78	416.62
429.97	379.17
430.16	390.87
430.34	454.06
430.53	423.64
430.72	393.21
430.91	386.19
431.10	447.04
431.28	414.27
431.47	421.30
431.66	493.85
431.85	369.80
432.03	433.00
432.22	463.43
432.41	433.00
432.60	421.30
432.79	348.74
432.97	379.17
433.16	367.46
433.35	362.78
433.54	395.55
433.72	437.68
433.91	411.93
434.10	414.27
434.28	358.10
434.47	423.64
434.66	383.85
434.85	395.55
435.03	435.34
435.22	411.93
435.41	442.36
435.59	400.23
435.78	397.89
435.97	404.91
436.16	437.68
436.34	418.96
436.53	411.93
436.72	451.72
436.90	400.23
437.09	472.79
437.28	409.59
437.46	341.72
437.65	463.43
437.84	376.83
438.02	454.06
438.21	435.34
438.40	430.66
438.58	386.19
438.77	414.27
438.96	433.00
439.14	381.51
439.33	374.49
439.52	402.57
439.70	376.83
439.89	381.51
440.08	400.23
440.26	423.64
440.45	451.72
440.63	454.06
440.82	390.87
441.01	440.02
441.19	351.08
441.38	390.87
441.57	416.62
441.75	447.04
441.94	402.57
442.12	428.32
442.31	367.46
442.50	437.68
442.68	435.34
442.87	456.40
443.05	386.19
443.24	383.85
443.43	428.32
443.61	475.13
443.80	393.21
443.98	393.21
444.17	421.30
444.35	383.85
444.54	395.55
444.73	421.30
444.91	421.30
445.10	381.51
445.28	393.21
445.47	386.19
445.65	475.13
445.84	379.17
446.02	330.02
446.21	341.72
446.39	374.49
446.58	414.27
446.77	428.32
446.95	393.21
447.14	404.91
447.32	447.04
447.51	397.89
447.69	463.43
447.88	381.51
448.06	463.43
448.25	388.53
448.43	320.65
448.62	374.49
448.80	447.04
448.99	409.59
449.17	351.08
449.36	360.44
449.54	428.32
449.73	414.27
449.91	388.53
450.10	362.78
450.28	461.09
450.46	461.09
450.65	451.72
450.83	456.40
451.02	461.09
451.20	435.34
451.39	444.70
451.57	381.51
451.76	374.49
451.94	381.51
452.13	421.30
452.31	437.68
452.49	358.10
452.68	416.62
452.86	388.53
453.05	449.38
453.23	351.08
453.42	414.27
453.60	425.98
453.78	442.36
453.97	381.51
454.15	344.06
454.34	482.15
454.52	388.53
454.70	393.21
454.89	409.59
455.07	411.93
455.26	435.34
455.44	423.64
455.62	341.72
455.81	393.21
455.99	425.98
456.17	496.19
456.36	367.46
456.54	425.98
456.73	397.89
456.91	442.36
457.09	409.59
457.28	433.00
457.46	444.70
457.64	440.02
457.83	421.30
458.01	404.91
458.19	404.91
458.38	369.80
458.56	418.96
458.74	381.51
458.93	423.64
459.11	381.51
459.29	479.81
459.48	383.85
459.66	344.06
459.84	421.30
460.03	526.62
460.21	437.68
460.39	454.06
460.57	451.72
460.76	360.44
460.94	374.49
461.12	379.17
461.31	379.17
461.49	386.19
461.67	404.91
461.85	395.55
462.04	388.53
462.22	868.34
462.40	444.70
462.59	486.83
462.77	416.62
462.95	430.66
463.13	463.43
463.32	433.00
463.50	425.98
463.68	428.32
463.86	416.62
464.05	414.27
464.23	407.25
464.41	430.66
464.59	491.51
464.78	346.40
464.96	379.17
465.14	376.83
465.32	454.06
465.50	500.87
465.69	411.93
465.87	374.49
466.05	465.77
466.23	444.70
466.41	407.25
466.60	362.78
466.78	465.77
466.96	404.91
467.14	428.32
467.32	437.68
467.51	393.21
467.69	465.77
467.87	507.90
468.05	449.38
468.23	531.30
468.41	425.98
468.60	355.76
468.78	437.68
468.96	479.81
469.14	491.51
469.32	402.57
469.50	411.93
469.69	411.93
469.87	503.22
470.05	442.36
470.23	465.77
470.41	362.78
470.59	456.40
470.77	418.96
470.95	428.32
471.14	372.15
471.32	332.36
471.50	430.66
471.68	407.25
471.86	358.10
472.04	376.83
472.22	337.04
472.40	414.27
472.58	381.51
472.77	383.85
472.95	376.83
473.13	423.64
473.31	433.00
473.49	390.87
473.67	454.06
473.85	418.96
474.03	437.68
474.21	454.06
474.39	482.15
474.57	491.51
474.75	402.57
474.93	461.09
475.12	388.53
475.30	418.96
475.48	383.85
475.66	447.04
475.84	402.57
476.02	388.53
476.20	409.59
476.38	395.55
476.56	554.71
476.74	479.81
476.92	409.59
477.10	402.57
477.28	449.38
477.46	425.98
477.64	339.38
477.82	383.85
478.00	358.10
478.18	367.46
478.36	365.12
478.54	381.51
478.72	404.91
478.90	437.68
479.08	451.72
479.26	386.19
479.44	369.80
479.62	362.78
479.80	388.53
479.98	339.38
480.16	388.53
480.34	411.93
480.52	407.25
480.70	418.96
480.88	365.12
481.06	365.12
481.24	421.30
481.41	440.02
481.59	388.53
481.77	463.43
481.95	428.32
482.13	428.32
482.31	454.06
482.49	355.76
482.67	425.98
482.85	390.87
483.03	400.23
483.21	409.59
483.39	425.98
483.57	444.70
483.74	451.72
483.92	433.00
484.10	461.09
484.28	390.87
484.46	393.21
484.64	423.64
484.82	440.02
485.00	372.15
485.18	442.36
485.35	414.27
485.53	423.64
485.71	468.11
485.89	421.30
486.07	404.91
486.25	425.98
486.43	437.68
486.61	540.66
486.78	440.02
486.96	430.66
487.14	428.32
487.32	404.91
487.50	451.72
487.68	444.70
487.85	355.76
488.03	388.53
488.21	479.81
488.39	372.15
488.57	470.45
488.75	430.66
488.92	512.58
489.10	465.77
489.28	430.66
489.46	440.02
489.64	444.70
489.81	458.74
489.99	402.57
490.17	468.11
490.35	421.30
490.53	430.66
490.70	383.85
490.88	440.02
491.06	425.98
491.24	416.62
491.41	451.72
491.59	409.59
491.77	397.89
491.95	395.55
492.13	437.68
492.30	442.36
492.48	423.64
492.66	390.87
492.84	402.57
493.01	379.17
493.19	437.68
493.37	440.02
493.54	440.02
493.72	402.57
493.90	461.09
494.08	416.62
494.25	416.62
494.43	400.23
494.61	402.57
494.79	355.76
494.96	449.38
495.14	404.91
495.32	416.62
495.49	369.80
495.67	404.91
495.85	416.62
496.02	411.93
496.20	339.38
496.38	475.13
496.55	407.25
496.73	421.30
496.91	468.11
497.09	461.09
497.26	442.36
497.44	425.98
497.62	395.55
497.79	395.55
497.97	521.94
498.14	444.70
498.32	440.02
498.50	449.38
498.67	493.85
498.85	348.74
499.03	411.93
499.20	397.89
499.38	348.74
499.56	440.02
499.73	491.51
499.91	428.32
500.08	484.49
500.26	402.57
500.44	353.42
500.61	393.21
500.79	421.30
500.97	447.04
501.14	404.91
501.32	407.25
501.49	451.72
501.67	498.53
501.84	409.59
502.02	421.30
502.20	360.44
502.37	388.53
502.55	418.96
502.72	397.89
502.90	411.93
503.07	421.30
503.25	351.08
503.43	344.06
503.60	435.34
503.78	393.21
503.95	489.17
504.13	374.49
504.30	500.87
504.48	458.74
504.65	479.81
504.83	449.38
505.01	388.53
505.18	381.51
505.36	362.78
505.53	374.49
505.71	411.93
505.88	454.06
506.06	400.23
506.23	360.44
506.41	393.21
506.58	447.04
506.76	442.36
506.93	348.74
507.11	421.30
507.28	393.21
507.46	365.12
507.63	360.44
507.81	416.62
507.98	400.23
508.16	397.89
508.33	447.04
508.50	372.15
508.68	437.68
508.85	414.27
509.03	486.83
509.20	461.09
509.38	435.34
509.55	545.34
509.73	393.21
509.90	479.81
510.08	390.87
510.25	468.11
510.42	367.46
510.60	430.66
510.77	456.40
510.95	430.66
511.12	482.15
511.30	433.00
511.47	423.64
511.64	510.24
511.82	433.00
511.99	386.19
512.17	397.89
512.34	465.77
512.51	400.23
512.69	383.85
512.86	425.98
513.04	379.17
513.21	444.70
513.38	416.62
513.56	411.93
513.73	379.17
513.90	552.37
514.08	393.21
514.25	393.21
514.43	397.89
514.60	437.68
514.77	451.72
514.95	395.55
515.12	461.09
515.29	388.53
515.47	353.42
515.64	425.98
515.81	442.36
515.99	463.43
516.16	440.02
516.33	458.74
516.51	486.83
516.68	433.00
516.85	376.83
517.03	395.55
517.20	416.62
517.37	435.34
517.54	372.15
517.72	379.17
517.89	430.66
518.06	447.04
518.24	484.49
518.41	531.30
518.58	421.30
518.75	454.06
518.93	468.11
519.10	475.13
519.27	468.11
519.45	456.40
519.62	397.89
519.79	393.21
519.96	400.23
520.14	472.79
520.31	437.68
520.48	337.04
520.65	379.17
520.83	468.11
521.00	400.23
521.17	430.66
521.34	433.00
521.52	344.06
521.69	388.53
521.86	423.64
522.03	400.23
522.20	442.36
522.38	454.06
522.55	411.93
522.72	390.87
522.89	416.62
523.07	472.79
523.24	421.30
523.41	402.57
523.58	449.38
523.75	372.15
523.92	330.02
524.10	470.45
524.27	428.32
524.44	409.59
524.61	411.93
524.78	428.32
524.96	479.81
525.13	369.80
525.30	386.19
525.47	409.59
525.64	470.45
525.81	451.72
525.98	393.21
526.16	454.06
526.33	435.34
526.50	409.59
526.67	440.02
526.84	393.21
527.01	449.38
527.18	430.66
527.36	416.62
527.53	393.21
527.70	404.91
527.87	414.27
528.04	437.68
528.21	423.64
528.38	400.23
528.55	411.93
528.72	435.34
528.89	423.64
529.07	374.49
529.24	442.36
529.41	423.64
529.58	444.70
529.75	456.40
529.92	468.11
530.09	353.42
530.26	470.45
530.43	423.64
530.60	437.68
530.77	393.21
530.94	383.85
531.11	440.02
531.28	390.87
531.46	428.32
531.63	362.78
531.80	374.49
531.97	393.21
532.14	402.57
532.31	341.72
532.48	430.66
532.65	444.70
532.82	344.06
532.99	416.62
533.16	376.83
533.33	423.64
533.50	444.70
533.67	451.72
533.84	407.25
534.01	388.53
534.18	407.25
534.35	390.87
534.52	447.04
534.69	454.06
534.86	334.70
535.03	414.27
535.20	355.76
535.37	475.13
535.54	430.66
535.71	425.98
535.88	423.64
536.05	395.55
536.22	458.74
536.38	468.11
536.55	447.04
536.72	470.45
536.89	376.83
537.06	444.70
537.23	437.68
537.40	395.55
537.57	428.32
537.74	400.23
537.91	418.96
538.08	374.49
538.25	433.00
538.42	386.19
538.59	353.42
538.75	454.06
538.92	435.34
539.09	381.51
539.26	491.51
539.43	407.25
539.60	411.93
539.77	395.55
539.94	421.30
540.11	402.57
540.28	430.66
540.44	451.72
540.61	390.87
540.78	421.30
540.95	351.08
541.12	512.58
541.29	407.25
541.46	433.00
541.62	400.23
541.79	393.21
541.96	454.06
542.13	454.06
542.30	400.23
542.47	400.23
542.63	407.25
542.80	461.09
542.97	379.17
543.14	489.17
543.31	468.11
543.48	381.51
543.64	449.38
543.81	423.64
543.98	351.08
544.15	390.87
544.32	376.83
544.48	493.85
544.65	463.43
544.82	411.93
544.99	409.59
545.16	402.57
545.32	402.57
545.49	444.70
545.66	435.34
545.83	393.21
546.00	433.00
546.16	383.85
546.33	416.62
546.50	360.44
546.67	449.38
546.83	365.12
547.00	348.74
547.17	449.38
547.34	365.12
547.50	383.85
547.67	416.62
547.84	489.17
548.00	479.81
548.17	430.66
548.34	407.25
548.51	463.43
548.67	435.34
548.84	447.04
549.01	369.80
549.18	386.19
549.34	404.91
549.51	423.64
549.68	428.32
549.84	449.38
550.01	360.44
550.18	449.38
550.34	472.79
550.51	400.23
550.68	393.21
550.84	437.68
551.01	397.89
551.18	386.19
551.34	360.44
551.51	346.40
551.68	437.68
551.84	456.40
552.01	416.62
552.18	470.45
552.34	355.76
552.51	379.17
552.68	416.62
552.84	395.55
553.01	418.96
553.18	456.40
553.34	423.64
553.51	379.17
553.67	484.49
553.84	491.51
554.01	414.27
554.17	418.96
554.34	365.12
554.51	414.27
554.67	435.34
554.84	393.21
555.00	468.11
555.17	421.30
555.33	428.32
555.50	411.93
555.67	411.93
555.83	374.49
556.00	430.66
556.16	561.73
556.33	468.11
556.50	365.12
556.66	425.98
556.83	407.25
556.99	421.30
557.16	496.19
557.32	379.17
557.49	351.08
557.65	383.85
557.82	374.49
557.98	458.74
558.15	372.15
558.32	400.23
558.48	332.36
558.65	465.77
558.81	404.91
558.98	440.02
559.14	395.55
559.31	456.40
559.47	449.38
559.64	435.34
559.80	421.30
559.97	402.57
560.13	411.93
560.30	332.36
560.46	449.38
560.63	421.30
560.79	386.19
560.96	407.25
561.12	428.32
561.29	400.23
561.45	477.47
561.61	416.62
561.78	447.04
561.94	440.02
562.11	449.38
562.27	374.49
562.44	358.10
562.60	496.19
562.77	395.55
562.93	411.93
563.10	327.68
563.26	414.27
563.42	479.81
563.59	437.68
563.75	409.59
563.92	510.24
564.08	423.64
564.24	421.30
564.41	402.57
564.57	322.99
564.74	456.40
564.90	442.36
565.07	409.59
565.23	425.98
565.39	365.12
565.56	411.93
565.72	393.21
565.88	353.42
566.05	470.45
566.21	402.57
566.38	433.00
566.54	496.19
566.70	393.21
566.87	423.64
567.03	449.38
567.19	407.25
567.36	374.49
567.52	433.00
567.68	388.53
567.85	456.40
568.01	383.85
568.17	425.98
568.34	498.53
568.50	400.23
568.66	435.34
568.83	447.04
568.99	449.38
569.15	456.40
569.32	428.32
569.48	423.64
569.64	383.85
569.81	374.49
569.97	383.85
570.13	425.98
570.30	388.53
570.46	365.12
570.62	465.77
570.78	425.98
570.95	437.68
571.11	421.30
571.27	468.11
571.43	482.15
571.60	369.80
571.76	393.21
571.92	393.21
572.09	372.15
572.25	451.72
572.41	386.19
572.57	397.89
572.74	433.00
572.90	381.51
573.06	428.32
573.22	454.06
573.38	404.91
573.55	388.53
573.71	425.98
573.87	435.34
574.03	367.46
574.20	397.89
574.36	433.00
574.52	411.93
574.68	367.46
574.84	400.23
575.01	390.87
575.17	458.74
575.33	395.55
575.49	484.49
575.65	407.25
575.82	360.44
575.98	369.80
576.14	374.49
576.30	400.23
576.46	496.19
576.62	451.72
576.79	409.59
576.95	400.23
577.11	381.51
577.27	433.00
577.43	430.66
577.59	433.00
577.75	393.21
577.92	430.66
578.08	404.91
578.24	374.49
578.40	374.49
578.56	475.13
578.72	465.77
578.88	493.85
579.04	390.87
579.21	470.45
579.37	404.91
579.53	433.00
579.69	503.22
579.85	372.15
580.01	477.47
580.17	442.36
580.33	411.93
580.49	339.38
580.65	461.09
580.82	475.13
580.98	339.38
581.14	400.23
581.30	454.06
581.46	395.55
581.62	463.43
581.78	411.93
581.94	428.32
582.10	395.55
582.26	463.43
582.42	442.36
582.58	454.06
582.74	416.62
582.90	440.02
583.06	479.81
583.22	411.93
583.38	433.00
583.54	414.27
583.70	482.15
583.86	425.98
584.02	390.87
584.18	470.45
584.34	409.59
584.50	388.53
584.66	411.93
584.82	400.23
584.98	428.32
585.14	397.89
585.30	421.30
585.46	388.53
585.62	393.21
585.78	351.08
585.94	416.62
586.10	402.57
586.26	425.98
586.42	447.04
586.58	409.59
586.74	447.04
586.90	456.40
587.06	454.06
587.22	449.38
587.38	440.02
587.54	440.02
587.70	447.04
587.86	456.40
588.02	433.00
588.18	444.70
588.34	409.59
588.49	411.93
588.65	416.62
588.81	433.00
588.97	341.72
589.13	423.64
589.29	444.70
589.45	421.30
589.61	397.89
589.77	414.27
589.93	449.38
590.08	435.34
590.24	327.68
590.40	311.29
590.56	416.62
590.72	444.70
590.88	470.45
591.04	367.46
591.20	433.00
591.35	395.55
591.51	390.87
591.67	442.36
591.83	437.68
591.99	388.53
592.15	404.91
592.31	428.32
592.46	444.70
592.62	472.79
592.78	418.96
592.94	440.02
593.10	416.62
593.26	425.98
593.41	376.83
593.57	430.66
593.73	468.11
593.89	449.38
594.05	444.70
594.20	451.72
594.36	414.27
594.52	397.89
594.68	433.00
594.84	472.79
594.99	435.34
595.15	414.27
595.31	407.25
595.47	435.34
595.62	404.91
595.78	444.70
595.94	374.49
596.10	477.47
596.25	372.15
596.41	395.55
596.57	400.23
596.73	433.00
596.88	447.04
597.04	428.32
597.20	372.15
597.36	437.68
597.51	444.70
597.67	353.42
597.83	397.89
597.99	528.96
598.14	411.93
598.30	414.27
598.46	470.45
598.61	421.30
598.77	400.23
598.93	367.46
599.09	372.15
599.24	461.09
599.40	437.68
599.56	400.23
599.71	374.49
599.87	414.27
600.03	470.45
600.18	461.09
600.34	451.72
600.50	330.02
600.65	404.91
600.81	416.62
600.97	437.68
601.12	442.36
601.28	444.70
601.44	470.45
601.59	447.04
601.75	463.43
601.91	351.08
602.06	433.00
602.22	447.04
602.37	390.87
602.53	461.09
602.69	430.66
602.84	334.70
603.00	418.96
603.16	311.29
603.31	491.51
603.47	407.25
603.62	421.30
603.78	451.72
603.94	351.08
604.09	435.34
604.25	496.19
604.40	402.57
604.56	402.57
604.71	365.12
604.87	393.21
605.03	376.83
605.18	372.15
605.34	407.25
605.49	407.25
605.65	456.40
605.80	421.30
605.96	397.89
606.12	486.83
606.27	456.40
606.43	433.00
606.58	372.15
606.74	386.19
606.89	470.45
607.05	332.36
607.20	468.11
607.36	409.59
607.51	381.51
607.67	484.49
607.82	454.06
607.98	449.38
608.13	416.62
608.29	423.64
608.44	409.59
608.60	421.30
608.75	437.68
608.91	372.15
609.06	411.93
609.22	409.59
609.37	416.62
609.53	423.64
609.68	465.77
609.84	442.36
609.99	418.96
610.15	423.64
