SpectraSuite Data File
++++++++++++++++++++++++++++++++++++
Date: Fri Oct 25 12:10:17 EDT 2013
User: price-jones
Dark Spectrum Present: No
Reference Spectrum Present: No
Number of Sampled Component Spectra: 1
Spectrometers: USB2+H05261
Integration Time (usec): 100000 (USB2+H05261)
Spectra Averaged: 1 (USB2+H05261)
Boxcar Smoothing: 0 (USB2+H05261)
Correct for Electrical Dark: No (USB2+H05261)
Strobe/Lamp Enabled: No (USB2+H05261)
Correct for Detector Non-linearity: No (USB2+H05261)
Correct for Stray Light: No (USB2+H05261)
Number of Pixels in Processed Spectrum: 2048
>>>>>Begin Processed Spectral Data<<<<<
365.73	320.65
365.92	320.65
366.12	320.65
366.32	201.29
366.52	259.80
366.72	297.25
366.91	177.88
367.11	212.99
367.31	191.92
367.51	212.99
367.70	250.44
367.90	259.80
368.10	236.39
368.30	231.71
368.49	222.35
368.69	259.80
368.89	255.12
369.09	327.68
369.28	266.82
369.48	245.76
369.68	245.76
369.87	273.84
370.07	266.82
370.27	306.61
370.47	320.65
370.66	315.97
370.86	367.46
371.06	379.17
371.25	388.53
371.45	367.46
371.65	327.68
371.84	395.55
372.04	447.04
372.24	351.08
372.44	411.93
372.63	376.83
372.83	355.76
373.03	393.21
373.22	292.57
373.42	421.30
373.62	440.02
373.81	393.21
374.01	416.62
374.21	425.98
374.40	414.27
374.60	435.34
374.79	416.62
374.99	435.34
375.19	425.98
375.38	388.53
375.58	433.00
375.78	353.42
375.97	402.57
376.17	437.68
376.37	423.64
376.56	383.85
376.76	351.08
376.95	367.46
377.15	306.61
377.35	418.96
377.54	381.51
377.74	416.62
377.93	416.62
378.13	367.46
378.33	421.30
378.52	425.98
378.72	430.66
378.91	463.43
379.11	390.87
379.31	351.08
379.50	414.27
379.70	381.51
379.89	416.62
380.09	358.10
380.28	367.46
380.48	428.32
380.68	411.93
380.87	365.12
381.07	386.19
381.26	463.43
381.46	351.08
381.65	374.49
381.85	425.98
382.04	407.25
382.24	449.38
382.43	365.12
382.63	461.09
382.83	367.46
383.02	425.98
383.22	479.81
383.41	372.15
383.61	442.36
383.80	411.93
384.00	437.68
384.19	407.25
384.39	376.83
384.58	369.80
384.78	425.98
384.97	444.70
385.17	334.70
385.36	351.08
385.56	418.96
385.75	325.33
385.95	381.51
386.14	388.53
386.34	404.91
386.53	421.30
386.72	449.38
386.92	440.02
387.11	430.66
387.31	435.34
387.50	400.23
387.70	440.02
387.89	416.62
388.09	479.81
388.28	386.19
388.48	454.06
388.67	346.40
388.86	397.89
389.06	407.25
389.25	451.72
389.45	418.96
389.64	440.02
389.84	414.27
390.03	362.78
390.22	362.78
390.42	381.51
390.61	407.25
390.81	358.10
391.00	442.36
391.19	463.43
391.39	414.27
391.58	369.80
391.78	362.78
391.97	400.23
392.16	433.00
392.36	386.19
392.55	521.94
392.75	451.72
392.94	409.59
393.13	423.64
393.33	395.55
393.52	409.59
393.71	365.12
393.91	379.17
394.10	458.74
394.29	334.70
394.49	397.89
394.68	381.51
394.88	393.21
395.07	437.68
395.26	461.09
395.46	461.09
395.65	376.83
395.84	437.68
396.04	425.98
396.23	416.62
396.42	423.64
396.62	402.57
396.81	437.68
397.00	332.36
397.19	416.62
397.39	397.89
397.58	561.73
397.77	402.57
397.97	402.57
398.16	395.55
398.35	449.38
398.55	379.17
398.74	388.53
398.93	414.27
399.12	362.78
399.32	411.93
399.51	374.49
399.70	425.98
399.90	330.02
400.09	393.21
400.28	447.04
400.47	386.19
400.67	418.96
400.86	355.76
401.05	416.62
401.24	381.51
401.44	440.02
401.63	355.76
401.82	334.70
402.01	376.83
402.21	358.10
402.40	402.57
402.59	395.55
402.78	404.91
402.97	421.30
403.17	332.36
403.36	447.04
403.55	381.51
403.74	386.19
403.93	407.25
404.13	440.02
404.32	407.25
404.51	411.93
404.70	397.89
404.89	433.00
405.09	348.74
405.28	400.23
405.47	416.62
405.66	404.91
405.85	421.30
406.05	367.46
406.24	440.02
406.43	409.59
406.62	444.70
406.81	477.47
407.00	454.06
407.20	451.72
407.39	440.02
407.58	379.17
407.77	334.70
407.96	411.93
408.15	437.68
408.34	351.08
408.54	411.93
408.73	418.96
408.92	433.00
409.11	433.00
409.30	404.91
409.49	346.40
409.68	435.34
409.87	430.66
410.07	447.04
410.26	421.30
410.45	374.49
410.64	388.53
410.83	491.51
411.02	430.66
411.21	456.40
411.40	397.89
411.59	440.02
411.78	400.23
411.98	376.83
412.17	400.23
412.36	390.87
412.55	374.49
412.74	383.85
412.93	388.53
413.12	362.78
413.31	423.64
413.50	423.64
413.69	390.87
413.88	442.36
414.07	383.85
414.26	393.21
414.45	358.10
414.64	402.57
414.83	475.13
415.02	386.19
415.22	430.66
415.41	444.70
415.60	374.49
415.79	428.32
415.98	400.23
416.17	355.76
416.36	454.06
416.55	425.98
416.74	430.66
416.93	372.15
417.12	435.34
417.31	468.11
417.50	407.25
417.69	348.74
417.88	390.87
418.07	330.02
418.26	395.55
418.45	404.91
418.64	463.43
418.83	376.83
419.02	416.62
419.21	468.11
419.39	421.30
419.58	463.43
419.77	435.34
419.96	416.62
420.15	383.85
420.34	313.63
420.53	393.21
420.72	416.62
420.91	421.30
421.10	397.89
421.29	496.19
421.48	327.68
421.67	418.96
421.86	454.06
422.05	301.93
422.24	404.91
422.43	458.74
422.61	414.27
422.80	400.23
422.99	411.93
423.18	449.38
423.37	554.71
423.56	402.57
423.75	428.32
423.94	290.23
424.13	430.66
424.32	433.00
424.50	423.64
424.69	435.34
424.88	470.45
425.07	358.10
425.26	440.02
425.45	454.06
425.64	390.87
425.83	393.21
426.01	414.27
426.20	416.62
426.39	381.51
426.58	454.06
426.77	461.09
426.96	411.93
427.15	456.40
427.33	390.87
427.52	395.55
427.71	393.21
427.90	383.85
428.09	416.62
428.28	332.36
428.46	397.89
428.65	430.66
428.84	433.00
429.03	428.32
429.22	423.64
429.40	381.51
429.59	451.72
429.78	444.70
429.97	388.53
430.16	341.72
430.34	358.10
430.53	421.30
430.72	409.59
430.91	418.96
431.10	379.17
431.28	393.21
431.47	374.49
431.66	367.46
431.85	407.25
432.03	456.40
432.22	447.04
432.41	390.87
432.60	379.17
432.79	409.59
432.97	383.85
433.16	393.21
433.35	367.46
433.54	367.46
433.72	423.64
433.91	524.28
434.10	456.40
434.28	402.57
434.47	433.00
434.66	418.96
434.85	428.32
435.03	418.96
435.22	472.79
435.41	435.34
435.59	367.46
435.78	435.34
435.97	414.27
436.16	411.93
436.34	395.55
436.53	400.23
436.72	433.00
436.90	442.36
437.09	416.62
437.28	454.06
437.46	344.06
437.65	477.47
437.84	475.13
438.02	383.85
438.21	458.74
438.40	444.70
438.58	444.70
438.77	421.30
438.96	418.96
439.14	407.25
439.33	425.98
439.52	447.04
439.70	442.36
439.89	414.27
440.08	437.68
440.26	442.36
440.45	477.47
440.63	397.89
440.82	379.17
441.01	442.36
441.19	425.98
441.38	423.64
441.57	346.40
441.75	418.96
441.94	456.40
442.12	486.83
442.31	449.38
442.50	390.87
442.68	383.85
442.87	393.21
443.05	442.36
443.24	411.93
443.43	428.32
443.61	461.09
443.80	383.85
443.98	449.38
444.17	440.02
444.35	409.59
444.54	365.12
444.73	327.68
444.91	379.17
445.10	390.87
445.28	395.55
445.47	379.17
445.65	414.27
445.84	381.51
446.02	491.51
446.21	414.27
446.39	346.40
446.58	397.89
446.77	397.89
446.95	428.32
447.14	498.53
447.32	472.79
447.51	468.11
447.69	456.40
447.88	411.93
448.06	423.64
448.25	383.85
448.43	407.25
448.62	365.12
448.80	372.15
448.99	411.93
449.17	423.64
449.36	449.38
449.54	414.27
449.73	390.87
449.91	383.85
450.10	421.30
450.28	444.70
450.46	484.49
450.65	444.70
450.83	407.25
451.02	332.36
451.20	369.80
451.39	372.15
451.57	400.23
451.76	365.12
451.94	482.15
452.13	442.36
452.31	498.53
452.49	468.11
452.68	423.64
452.86	461.09
453.05	468.11
453.23	383.85
453.42	437.68
453.60	444.70
453.78	437.68
453.97	430.66
454.15	402.57
454.34	337.04
454.52	423.64
454.70	442.36
454.89	491.51
455.07	416.62
455.26	397.89
455.44	376.83
455.62	367.46
455.81	390.87
455.99	489.17
456.17	468.11
456.36	479.81
456.54	416.62
456.73	358.10
456.91	440.02
457.09	390.87
457.28	381.51
457.46	423.64
457.64	416.62
457.83	428.32
458.01	360.44
458.19	475.13
458.38	449.38
458.56	388.53
458.74	379.17
458.93	409.59
459.11	348.74
459.29	346.40
459.48	409.59
459.66	447.04
459.84	411.93
460.03	519.60
460.21	444.70
460.39	440.02
460.57	430.66
460.76	484.49
460.94	437.68
461.12	503.22
461.31	482.15
461.49	449.38
461.67	423.64
461.85	404.91
462.04	421.30
462.22	791.10
462.40	484.49
462.59	465.77
462.77	437.68
462.95	454.06
463.13	358.10
463.32	437.68
463.50	411.93
463.68	440.02
463.86	404.91
464.05	414.27
464.23	355.76
464.41	454.06
464.59	430.66
464.78	421.30
464.96	332.36
465.14	496.19
465.32	414.27
465.50	397.89
465.69	454.06
465.87	414.27
466.05	493.85
466.23	390.87
466.41	320.65
466.60	486.83
466.78	433.00
466.96	395.55
467.14	381.51
467.32	491.51
467.51	433.00
467.69	402.57
467.87	400.23
468.05	395.55
468.23	491.51
468.41	425.98
468.60	430.66
468.78	381.51
468.96	456.40
469.14	435.34
469.32	383.85
469.50	411.93
469.69	454.06
469.87	372.15
470.05	425.98
470.23	362.78
470.41	423.64
470.59	454.06
470.77	418.96
470.95	500.87
471.14	433.00
471.32	341.72
471.50	423.64
471.68	456.40
471.86	367.46
472.04	355.76
472.22	449.38
472.40	344.06
472.58	468.11
472.77	463.43
472.95	397.89
473.13	489.17
473.31	376.83
473.49	416.62
473.67	496.19
473.85	348.74
474.03	435.34
474.21	355.76
474.39	451.72
474.57	482.15
474.75	479.81
474.93	400.23
475.12	475.13
475.30	430.66
475.48	449.38
475.66	393.21
475.84	362.78
476.02	418.96
476.20	379.17
476.38	444.70
476.56	437.68
476.74	456.40
476.92	475.13
477.10	388.53
477.28	447.04
477.46	402.57
477.64	339.38
477.82	423.64
478.00	358.10
478.18	425.98
478.36	468.11
478.54	404.91
478.72	435.34
478.90	416.62
479.08	355.76
479.26	376.83
479.44	416.62
479.62	430.66
479.80	390.87
479.98	325.33
480.16	428.32
480.34	409.59
480.52	440.02
480.70	393.21
480.88	433.00
481.06	423.64
481.24	365.12
481.41	479.81
481.59	386.19
481.77	430.66
481.95	409.59
482.13	372.15
482.31	374.49
482.49	404.91
482.67	456.40
482.85	404.91
483.03	383.85
483.21	465.77
483.39	414.27
483.57	407.25
483.74	425.98
483.92	402.57
484.10	390.87
484.28	351.08
484.46	479.81
484.64	475.13
484.82	372.15
485.00	418.96
485.18	390.87
485.35	322.99
485.53	435.34
485.71	423.64
485.89	355.76
486.07	423.64
486.25	404.91
486.43	421.30
486.61	355.76
486.78	428.32
486.96	437.68
487.14	468.11
487.32	365.12
487.50	416.62
487.68	447.04
487.85	367.46
488.03	381.51
488.21	507.90
488.39	463.43
488.57	341.72
488.75	332.36
488.92	533.64
489.10	358.10
489.28	383.85
489.46	407.25
489.64	414.27
489.81	433.00
489.99	461.09
490.17	367.46
490.35	454.06
490.53	451.72
490.70	358.10
490.88	402.57
491.06	348.74
491.24	407.25
491.41	465.77
491.59	454.06
491.77	425.98
491.95	360.44
492.13	428.32
492.30	402.57
492.48	442.36
492.66	440.02
492.84	433.00
493.01	395.55
493.19	367.46
493.37	465.77
493.54	367.46
493.72	400.23
493.90	416.62
494.08	416.62
494.25	433.00
494.43	491.51
494.61	337.04
494.79	423.64
494.96	397.89
495.14	437.68
495.32	386.19
495.49	493.85
495.67	397.89
495.85	437.68
496.02	416.62
496.20	416.62
496.38	440.02
496.55	376.83
496.73	395.55
496.91	318.31
497.09	463.43
497.26	383.85
497.44	372.15
497.62	468.11
497.79	482.15
497.97	425.98
498.14	444.70
498.32	425.98
498.50	372.15
498.67	433.00
498.85	484.49
499.03	388.53
499.20	367.46
499.38	440.02
499.56	428.32
499.73	425.98
499.91	418.96
500.08	379.17
500.26	372.15
500.44	461.09
500.61	503.22
500.79	526.62
500.97	451.72
501.14	470.45
501.32	437.68
501.49	395.55
501.67	327.68
501.84	416.62
502.02	376.83
502.20	402.57
502.37	461.09
502.55	397.89
502.72	374.49
502.90	479.81
503.07	390.87
503.25	437.68
503.43	402.57
503.60	388.53
503.78	433.00
503.95	409.59
504.13	330.02
504.30	475.13
504.48	475.13
504.65	379.17
504.83	374.49
505.01	374.49
505.18	414.27
505.36	437.68
505.53	299.59
505.71	425.98
505.88	404.91
506.06	367.46
506.23	451.72
506.41	397.89
506.58	397.89
506.76	430.66
506.93	379.17
507.11	376.83
507.28	339.38
507.46	430.66
507.63	390.87
507.81	416.62
507.98	360.44
508.16	393.21
508.33	437.68
508.50	451.72
508.68	390.87
508.85	372.15
509.03	407.25
509.20	456.40
509.38	362.78
509.55	402.57
509.73	418.96
509.90	421.30
510.08	428.32
510.25	400.23
510.42	440.02
510.60	451.72
510.77	440.02
510.95	409.59
511.12	433.00
511.30	409.59
511.47	393.21
511.64	374.49
511.82	386.19
511.99	447.04
512.17	409.59
512.34	425.98
512.51	407.25
512.69	411.93
512.86	456.40
513.04	351.08
513.21	407.25
513.38	407.25
513.56	421.30
513.73	411.93
513.90	430.66
514.08	386.19
514.25	402.57
514.43	383.85
514.60	447.04
514.77	367.46
514.95	440.02
515.12	411.93
515.29	416.62
515.47	348.74
515.64	390.87
515.81	442.36
515.99	456.40
516.16	346.40
516.33	451.72
516.51	369.80
516.68	313.63
516.85	470.45
517.03	409.59
517.20	472.79
517.37	454.06
517.54	430.66
517.72	444.70
517.89	416.62
518.06	379.17
518.24	440.02
518.41	470.45
518.58	456.40
518.75	372.15
518.93	397.89
519.10	402.57
519.27	358.10
519.45	416.62
519.62	433.00
519.79	339.38
519.96	402.57
520.14	411.93
520.31	372.15
520.48	390.87
520.65	362.78
520.83	402.57
521.00	451.72
521.17	458.74
521.34	393.21
521.52	468.11
521.69	362.78
521.86	388.53
522.03	425.98
522.20	489.17
522.38	365.12
522.55	379.17
522.72	437.68
522.89	430.66
523.07	479.81
523.24	418.96
523.41	400.23
523.58	395.55
523.75	447.04
523.92	397.89
524.10	423.64
524.27	461.09
524.44	381.51
524.61	383.85
524.78	454.06
524.96	409.59
525.13	447.04
525.30	369.80
525.47	454.06
525.64	418.96
525.81	428.32
525.98	493.85
526.16	428.32
526.33	425.98
526.50	411.93
526.67	397.89
526.84	362.78
527.01	372.15
527.18	400.23
527.36	402.57
527.53	383.85
527.70	472.79
527.87	404.91
528.04	442.36
528.21	395.55
528.38	433.00
528.55	423.64
528.72	442.36
528.89	489.17
529.07	404.91
529.24	440.02
529.41	421.30
529.58	379.17
529.75	395.55
529.92	383.85
530.09	395.55
530.26	404.91
530.43	475.13
530.60	393.21
530.77	395.55
530.94	414.27
531.11	416.62
531.28	402.57
531.46	388.53
531.63	456.40
531.80	337.04
531.97	418.96
532.14	388.53
532.31	416.62
532.48	423.64
532.65	425.98
532.82	355.76
532.99	402.57
533.16	440.02
533.33	423.64
533.50	381.51
533.67	390.87
533.84	404.91
534.01	447.04
534.18	344.06
534.35	435.34
534.52	456.40
534.69	442.36
534.86	388.53
535.03	425.98
535.20	397.89
535.37	435.34
535.54	423.64
535.71	388.53
535.88	367.46
536.05	430.66
536.22	423.64
536.38	404.91
536.55	437.68
536.72	456.40
536.89	437.68
537.06	425.98
537.23	376.83
537.40	400.23
537.57	435.34
537.74	449.38
537.91	362.78
538.08	404.91
538.25	421.30
538.42	388.53
538.59	440.02
538.75	344.06
538.92	362.78
539.09	428.32
539.26	404.91
539.43	433.00
539.60	339.38
539.77	444.70
539.94	374.49
540.11	437.68
540.28	470.45
540.44	461.09
540.61	416.62
540.78	367.46
540.95	411.93
541.12	418.96
541.29	395.55
541.46	425.98
541.62	491.51
541.79	400.23
541.96	444.70
542.13	402.57
542.30	397.89
542.47	365.12
542.63	315.97
542.80	407.25
542.97	367.46
543.14	383.85
543.31	454.06
543.48	430.66
543.64	435.34
543.81	421.30
543.98	468.11
544.15	365.12
544.32	442.36
544.48	430.66
544.65	423.64
544.82	447.04
544.99	437.68
545.16	423.64
545.32	428.32
545.49	470.45
545.66	390.87
545.83	454.06
546.00	407.25
546.16	390.87
546.33	400.23
546.50	411.93
546.67	449.38
546.83	393.21
547.00	433.00
547.17	379.17
547.34	437.68
547.50	425.98
547.67	337.04
547.84	402.57
548.00	400.23
548.17	433.00
548.34	458.74
548.51	444.70
548.67	433.00
548.84	400.23
549.01	383.85
549.18	400.23
549.34	440.02
549.51	414.27
549.68	421.30
549.84	425.98
550.01	388.53
550.18	470.45
550.34	411.93
550.51	491.51
550.68	425.98
550.84	386.19
551.01	395.55
551.18	407.25
551.34	456.40
551.51	451.72
551.68	468.11
551.84	416.62
552.01	362.78
552.18	472.79
552.34	395.55
552.51	475.13
552.68	447.04
552.84	369.80
553.01	447.04
553.18	376.83
553.34	346.40
553.51	365.12
553.67	437.68
553.84	433.00
554.01	472.79
554.17	423.64
554.34	456.40
554.51	421.30
554.67	440.02
554.84	418.96
555.00	489.17
555.17	444.70
555.33	461.09
555.50	414.27
555.67	386.19
555.83	421.30
556.00	451.72
556.16	514.92
556.33	449.38
556.50	379.17
556.66	395.55
556.83	425.98
556.99	428.32
557.16	407.25
557.32	358.10
557.49	390.87
557.65	418.96
557.82	451.72
557.98	437.68
558.15	430.66
558.32	393.21
558.48	423.64
558.65	440.02
558.81	421.30
558.98	362.78
559.14	390.87
559.31	477.47
559.47	428.32
559.64	381.51
559.80	411.93
559.97	461.09
560.13	428.32
560.30	409.59
560.46	334.70
560.63	386.19
560.79	409.59
560.96	362.78
561.12	379.17
561.29	496.19
561.45	365.12
561.61	393.21
561.78	526.62
561.94	390.87
562.11	341.72
562.27	507.90
562.44	456.40
562.60	407.25
562.77	414.27
562.93	510.24
563.10	484.49
563.26	416.62
563.42	402.57
563.59	435.34
563.75	393.21
563.92	411.93
564.08	414.27
564.24	416.62
564.41	447.04
564.57	400.23
564.74	374.49
564.90	482.15
565.07	449.38
565.23	407.25
565.39	402.57
565.56	411.93
565.72	411.93
565.88	390.87
566.05	388.53
566.21	514.92
566.38	449.38
566.54	376.83
566.70	430.66
566.87	407.25
567.03	390.87
567.19	395.55
567.36	430.66
567.52	393.21
567.68	358.10
567.85	402.57
568.01	407.25
568.17	390.87
568.34	440.02
568.50	400.23
568.66	397.89
568.83	489.17
568.99	400.23
569.15	465.77
569.32	348.74
569.48	322.99
569.64	341.72
569.81	428.32
569.97	393.21
570.13	355.76
570.30	360.44
570.46	418.96
570.62	416.62
570.78	437.68
570.95	482.15
571.11	430.66
571.27	418.96
571.43	407.25
571.60	475.13
571.76	430.66
571.92	437.68
572.09	416.62
572.25	400.23
572.41	374.49
572.57	423.64
572.74	388.53
572.90	435.34
573.06	430.66
573.22	472.79
573.38	397.89
573.55	395.55
573.71	395.55
573.87	418.96
574.03	367.46
574.20	423.64
574.36	411.93
574.52	407.25
574.68	437.68
574.84	402.57
575.01	306.61
575.17	482.15
575.33	339.38
575.49	458.74
575.65	423.64
575.82	416.62
575.98	423.64
576.14	456.40
576.30	404.91
576.46	383.85
576.62	416.62
576.79	379.17
576.95	461.09
577.11	454.06
577.27	365.12
577.43	365.12
577.59	444.70
577.75	421.30
577.92	395.55
578.08	440.02
578.24	369.80
578.40	442.36
578.56	409.59
578.72	465.77
578.88	425.98
579.04	367.46
579.21	418.96
579.37	463.43
579.53	395.55
579.69	379.17
579.85	402.57
580.01	482.15
580.17	376.83
580.33	395.55
580.49	425.98
580.65	416.62
580.82	346.40
580.98	454.06
581.14	332.36
581.30	376.83
581.46	348.74
581.62	421.30
581.78	393.21
581.94	461.09
582.10	386.19
582.26	430.66
582.42	430.66
582.58	454.06
582.74	418.96
582.90	428.32
583.06	365.12
583.22	470.45
583.38	428.32
583.54	423.64
583.70	437.68
583.86	367.46
584.02	477.47
584.18	409.59
584.34	425.98
584.50	397.89
584.66	379.17
584.82	447.04
584.98	365.12
585.14	393.21
585.30	470.45
585.46	423.64
585.62	475.13
585.78	374.49
585.94	351.08
586.10	372.15
586.26	393.21
586.42	425.98
586.58	397.89
586.74	414.27
586.90	386.19
587.06	397.89
587.22	451.72
587.38	400.23
587.54	400.23
587.70	447.04
587.86	369.80
588.02	435.34
588.18	458.74
588.34	477.47
588.49	430.66
588.65	353.42
588.81	381.51
588.97	297.25
589.13	397.89
589.29	482.15
589.45	409.59
589.61	381.51
589.77	454.06
589.93	355.76
590.08	383.85
590.24	482.15
590.40	486.83
590.56	456.40
590.72	362.78
590.88	463.43
591.04	428.32
591.20	407.25
591.35	440.02
591.51	404.91
591.67	451.72
591.83	447.04
591.99	465.77
592.15	383.85
592.31	374.49
592.46	430.66
592.62	379.17
592.78	430.66
592.94	409.59
593.10	428.32
593.26	348.74
593.41	465.77
593.57	440.02
593.73	369.80
593.89	416.62
594.05	407.25
594.20	344.06
594.36	348.74
594.52	372.15
594.68	376.83
594.84	367.46
594.99	451.72
595.15	421.30
595.31	388.53
595.47	456.40
595.62	468.11
595.78	437.68
595.94	482.15
596.10	411.93
596.25	362.78
596.41	411.93
596.57	416.62
596.73	395.55
596.88	346.40
597.04	393.21
597.20	409.59
597.36	367.46
597.51	444.70
597.67	379.17
597.83	500.87
597.99	402.57
598.14	425.98
598.30	416.62
598.46	404.91
598.61	447.04
598.77	437.68
598.93	437.68
599.09	440.02
599.24	400.23
599.40	400.23
599.56	374.49
599.71	416.62
599.87	423.64
600.03	355.76
600.18	447.04
600.34	397.89
600.50	411.93
600.65	397.89
600.81	433.00
600.97	465.77
601.12	444.70
601.28	475.13
601.44	458.74
601.59	386.19
601.75	444.70
601.91	388.53
602.06	416.62
602.22	416.62
602.37	433.00
602.53	374.49
602.69	411.93
602.84	330.02
603.00	409.59
603.16	444.70
603.31	411.93
603.47	395.55
603.62	339.38
603.78	491.51
603.94	442.36
604.09	433.00
604.25	411.93
604.40	332.36
604.56	402.57
604.71	369.80
604.87	430.66
605.03	404.91
605.18	418.96
605.34	430.66
605.49	393.21
605.65	369.80
605.80	421.30
605.96	428.32
606.12	386.19
606.27	456.40
606.43	444.70
606.58	449.38
606.74	358.10
606.89	402.57
607.05	430.66
607.20	402.57
607.36	386.19
607.51	339.38
607.67	409.59
607.82	367.46
607.98	402.57
608.13	482.15
608.29	425.98
608.44	416.62
608.60	416.62
608.75	414.27
608.91	332.36
609.06	440.02
609.22	416.62
609.37	381.51
609.53	360.44
609.68	421.30
609.84	430.66
609.99	442.36
610.15	402.57
