SpectraSuite Data File
++++++++++++++++++++++++++++++++++++
Date: Fri Oct 25 12:11:04 EDT 2013
User: price-jones
Dark Spectrum Present: No
Reference Spectrum Present: No
Number of Sampled Component Spectra: 1
Spectrometers: USB2+H05261
Integration Time (usec): 100000 (USB2+H05261)
Spectra Averaged: 1 (USB2+H05261)
Boxcar Smoothing: 0 (USB2+H05261)
Correct for Electrical Dark: No (USB2+H05261)
Strobe/Lamp Enabled: No (USB2+H05261)
Correct for Detector Non-linearity: No (USB2+H05261)
Correct for Stray Light: No (USB2+H05261)
Number of Pixels in Processed Spectrum: 2048
>>>>>Begin Processed Spectral Data<<<<<
365.73	311.29
365.92	311.29
366.12	311.29
366.32	257.46
366.52	262.14
366.72	313.63
366.91	248.10
367.11	220.01
367.31	222.35
367.51	220.01
367.70	252.78
367.90	173.20
368.10	224.69
368.30	248.10
368.49	280.86
368.69	212.99
368.89	269.16
369.09	266.82
369.28	292.57
369.48	285.55
369.68	285.55
369.87	306.61
370.07	252.78
370.27	341.72
370.47	348.74
370.66	320.65
370.86	273.84
371.06	355.76
371.25	440.02
371.45	348.74
371.65	395.55
371.84	348.74
372.04	409.59
372.24	442.36
372.44	444.70
372.63	386.19
372.83	440.02
373.03	404.91
373.22	440.02
373.42	414.27
373.62	348.74
373.81	404.91
374.01	528.96
374.21	430.66
374.40	348.74
374.60	500.87
374.79	486.83
374.99	369.80
375.19	433.00
375.38	372.15
375.58	472.79
375.78	479.81
375.97	411.93
376.17	463.43
376.37	411.93
376.56	362.78
376.76	416.62
376.95	418.96
377.15	507.90
377.35	416.62
377.54	379.17
377.74	386.19
377.93	301.93
378.13	339.38
378.33	482.15
378.52	393.21
378.72	458.74
378.91	402.57
379.11	397.89
379.31	418.96
379.50	393.21
379.70	433.00
379.89	444.70
380.09	372.15
380.28	458.74
380.48	425.98
380.68	353.42
380.87	402.57
381.07	402.57
381.26	449.38
381.46	440.02
381.65	374.49
381.85	433.00
382.04	337.04
382.24	430.66
382.43	337.04
382.63	376.83
382.83	322.99
383.02	369.80
383.22	360.44
383.41	400.23
383.61	411.93
383.80	454.06
384.00	411.93
384.19	423.64
384.39	400.23
384.58	486.83
384.78	409.59
384.97	414.27
385.17	388.53
385.36	407.25
385.56	365.12
385.75	397.89
385.95	381.51
386.14	444.70
386.34	447.04
386.53	463.43
386.72	358.10
386.92	365.12
387.11	454.06
387.31	444.70
387.50	374.49
387.70	376.83
387.89	397.89
388.09	365.12
388.28	395.55
388.48	376.83
388.67	374.49
388.86	393.21
389.06	334.70
389.25	332.36
389.45	407.25
389.64	442.36
389.84	477.47
390.03	414.27
390.22	435.34
390.42	369.80
390.61	416.62
390.81	327.68
391.00	369.80
391.19	470.45
391.39	421.30
391.58	477.47
391.78	365.12
391.97	404.91
392.16	409.59
392.36	444.70
392.55	475.13
392.75	330.02
392.94	404.91
393.13	367.46
393.33	411.93
393.52	475.13
393.71	477.47
393.91	418.96
394.10	376.83
394.29	454.06
394.49	433.00
394.68	418.96
394.88	437.68
395.07	404.91
395.26	362.78
395.46	390.87
395.65	468.11
395.84	355.76
396.04	425.98
396.23	414.27
396.42	341.72
396.62	388.53
396.81	414.27
397.00	386.19
397.19	388.53
397.39	365.12
397.58	428.32
397.77	409.59
397.97	367.46
398.16	367.46
398.35	362.78
398.55	407.25
398.74	484.49
398.93	416.62
399.12	334.70
399.32	379.17
399.51	386.19
399.70	451.72
399.90	320.65
400.09	489.17
400.28	416.62
400.47	402.57
400.67	430.66
400.86	465.77
401.05	409.59
401.24	393.21
401.44	468.11
401.63	414.27
401.82	390.87
402.01	376.83
402.21	404.91
402.40	428.32
402.59	440.02
402.78	435.34
402.97	355.76
403.17	454.06
403.36	355.76
403.55	411.93
403.74	489.17
403.93	383.85
404.13	465.77
404.32	381.51
404.51	404.91
404.70	402.57
404.89	351.08
405.09	430.66
405.28	423.64
405.47	416.62
405.66	397.89
405.85	418.96
406.05	409.59
406.24	477.47
406.43	376.83
406.62	346.40
406.81	470.45
407.00	376.83
407.20	402.57
407.39	458.74
407.58	344.06
407.77	447.04
407.96	458.74
408.15	428.32
408.34	372.15
408.54	400.23
408.73	442.36
408.92	388.53
409.11	433.00
409.30	430.66
409.49	411.93
409.68	440.02
409.87	468.11
410.07	362.78
410.26	393.21
410.45	383.85
410.64	435.34
410.83	437.68
411.02	362.78
411.21	383.85
411.40	416.62
411.59	421.30
411.78	470.45
411.98	376.83
412.17	337.04
412.36	337.04
412.55	381.51
412.74	449.38
412.93	416.62
413.12	372.15
413.31	379.17
413.50	390.87
413.69	407.25
413.88	367.46
414.07	386.19
414.26	444.70
414.45	411.93
414.64	489.17
414.83	463.43
415.02	505.56
415.22	334.70
415.41	409.59
415.60	383.85
415.79	449.38
415.98	437.68
416.17	348.74
416.36	430.66
416.55	458.74
416.74	416.62
416.93	449.38
417.12	425.98
417.31	388.53
417.50	390.87
417.69	411.93
417.88	421.30
418.07	365.12
418.26	425.98
418.45	348.74
418.64	416.62
418.83	425.98
419.02	362.78
419.21	304.27
419.39	362.78
419.58	402.57
419.77	414.27
419.96	435.34
420.15	416.62
420.34	351.08
420.53	421.30
420.72	437.68
420.91	388.53
421.10	388.53
421.29	404.91
421.48	428.32
421.67	407.25
421.86	435.34
422.05	400.23
422.24	315.97
422.43	365.12
422.61	386.19
422.80	425.98
422.99	444.70
423.18	430.66
423.37	451.72
423.56	465.77
423.75	470.45
423.94	379.17
424.13	404.91
424.32	456.40
424.50	383.85
424.69	440.02
424.88	454.06
425.07	332.36
425.26	435.34
425.45	386.19
425.64	433.00
425.83	428.32
426.01	369.80
426.20	440.02
426.39	369.80
426.58	393.21
426.77	388.53
426.96	461.09
427.15	414.27
427.33	418.96
427.52	360.44
427.71	402.57
427.90	397.89
428.09	367.46
428.28	442.36
428.46	404.91
428.65	477.47
428.84	423.64
429.03	454.06
429.22	313.63
429.40	386.19
429.59	458.74
429.78	454.06
429.97	374.49
430.16	372.15
430.34	425.98
430.53	400.23
430.72	404.91
430.91	458.74
431.10	421.30
431.28	437.68
431.47	404.91
431.66	454.06
431.85	442.36
432.03	418.96
432.22	477.47
432.41	379.17
432.60	477.47
432.79	381.51
432.97	395.55
433.16	416.62
433.35	390.87
433.54	444.70
433.72	444.70
433.91	400.23
434.10	421.30
434.28	428.32
434.47	337.04
434.66	397.89
434.85	341.72
435.03	418.96
435.22	517.26
435.41	430.66
435.59	404.91
435.78	423.64
435.97	463.43
436.16	414.27
436.34	435.34
436.53	400.23
436.72	418.96
436.90	341.72
437.09	475.13
437.28	421.30
437.46	407.25
437.65	524.28
437.84	444.70
438.02	418.96
438.21	390.87
438.40	358.10
438.58	353.42
438.77	355.76
438.96	390.87
439.14	449.38
439.33	411.93
439.52	437.68
439.70	430.66
439.89	440.02
440.08	437.68
440.26	423.64
440.45	437.68
440.63	451.72
440.82	386.19
441.01	477.47
441.19	454.06
441.38	449.38
441.57	470.45
441.75	447.04
441.94	486.83
442.12	465.77
442.31	456.40
442.50	411.93
442.68	409.59
442.87	402.57
443.05	421.30
443.24	465.77
443.43	442.36
443.61	425.98
443.80	395.55
443.98	360.44
444.17	402.57
444.35	463.43
444.54	322.99
444.73	386.19
444.91	418.96
445.10	421.30
445.28	299.59
445.47	402.57
445.65	379.17
445.84	400.23
446.02	386.19
446.21	386.19
446.39	388.53
446.58	468.11
446.77	458.74
446.95	353.42
447.14	348.74
447.32	425.98
447.51	437.68
447.69	360.44
447.88	447.04
448.06	461.09
448.25	437.68
448.43	437.68
448.62	454.06
448.80	416.62
448.99	418.96
449.17	376.83
449.36	397.89
449.54	390.87
449.73	498.53
449.91	435.34
450.10	437.68
450.28	416.62
450.46	496.19
450.65	491.51
450.83	404.91
451.02	395.55
451.20	402.57
451.39	390.87
451.57	425.98
451.76	386.19
451.94	402.57
452.13	496.19
452.31	437.68
452.49	411.93
452.68	425.98
452.86	383.85
453.05	454.06
453.23	475.13
453.42	435.34
453.60	430.66
453.78	383.85
453.97	393.21
454.15	318.31
454.34	397.89
454.52	489.17
454.70	461.09
454.89	442.36
455.07	388.53
455.26	447.04
455.44	379.17
455.62	383.85
455.81	411.93
455.99	440.02
456.17	346.40
456.36	402.57
456.54	404.91
456.73	433.00
456.91	337.04
457.09	374.49
457.28	451.72
457.46	425.98
457.64	416.62
457.83	355.76
458.01	451.72
458.19	468.11
458.38	463.43
458.56	388.53
458.74	365.12
458.93	400.23
459.11	400.23
459.29	346.40
459.48	402.57
459.66	393.21
459.84	475.13
460.03	454.06
460.21	428.32
460.39	482.15
460.57	461.09
460.76	395.55
460.94	341.72
461.12	447.04
461.31	470.45
461.49	379.17
461.67	454.06
461.85	358.10
462.04	393.21
462.22	819.19
462.40	404.91
462.59	404.91
462.77	374.49
462.95	290.23
463.13	447.04
463.32	447.04
463.50	472.79
463.68	390.87
463.86	456.40
464.05	449.38
464.23	404.91
464.41	393.21
464.59	397.89
464.78	397.89
464.96	393.21
465.14	425.98
465.32	414.27
465.50	400.23
465.69	500.87
465.87	393.21
466.05	383.85
466.23	400.23
466.41	360.44
466.60	381.51
466.78	468.11
466.96	447.04
467.14	449.38
467.32	454.06
467.51	390.87
467.69	400.23
467.87	524.28
468.05	379.17
468.23	447.04
468.41	421.30
468.60	390.87
468.78	442.36
468.96	444.70
469.14	358.10
469.32	339.38
469.50	451.72
469.69	428.32
469.87	447.04
470.05	372.15
470.23	365.12
470.41	337.04
470.59	430.66
470.77	428.32
470.95	430.66
471.14	447.04
471.32	484.49
471.50	388.53
471.68	381.51
471.86	463.43
472.04	374.49
472.22	449.38
472.40	388.53
472.58	404.91
472.77	440.02
472.95	381.51
473.13	421.30
473.31	404.91
473.49	428.32
473.67	433.00
473.85	449.38
474.03	456.40
474.21	430.66
474.39	430.66
474.57	503.22
474.75	423.64
474.93	374.49
475.12	414.27
475.30	458.74
475.48	365.12
475.66	372.15
475.84	379.17
476.02	418.96
476.20	428.32
476.38	379.17
476.56	451.72
476.74	388.53
476.92	421.30
477.10	449.38
477.28	463.43
477.46	440.02
477.64	456.40
477.82	454.06
478.00	341.72
478.18	484.49
478.36	458.74
478.54	355.76
478.72	463.43
478.90	397.89
479.08	425.98
479.26	479.81
479.44	400.23
479.62	468.11
479.80	465.77
479.98	430.66
480.16	461.09
480.34	337.04
480.52	372.15
480.70	416.62
480.88	451.72
481.06	409.59
481.24	414.27
481.41	491.51
481.59	456.40
481.77	390.87
481.95	456.40
482.13	400.23
482.31	430.66
482.49	454.06
482.67	491.51
482.85	390.87
483.03	430.66
483.21	400.23
483.39	337.04
483.57	409.59
483.74	486.83
483.92	430.66
484.10	437.68
484.28	407.25
484.46	423.64
484.64	383.85
484.82	409.59
485.00	428.32
485.18	402.57
485.35	407.25
485.53	411.93
485.71	449.38
485.89	344.06
486.07	425.98
486.25	510.24
486.43	425.98
486.61	393.21
486.78	435.34
486.96	414.27
487.14	407.25
487.32	428.32
487.50	341.72
487.68	442.36
487.85	421.30
488.03	468.11
488.21	437.68
488.39	447.04
488.57	409.59
488.75	447.04
488.92	484.49
489.10	379.17
489.28	475.13
489.46	421.30
489.64	442.36
489.81	430.66
489.99	437.68
490.17	402.57
490.35	423.64
490.53	461.09
490.70	383.85
490.88	444.70
491.06	404.91
491.24	393.21
491.41	383.85
491.59	489.17
491.77	365.12
491.95	308.95
492.13	376.83
492.30	444.70
492.48	407.25
492.66	383.85
492.84	372.15
493.01	402.57
493.19	470.45
493.37	463.43
493.54	402.57
493.72	442.36
493.90	393.21
494.08	376.83
494.25	362.78
494.43	395.55
494.61	414.27
494.79	463.43
494.96	423.64
495.14	463.43
495.32	505.56
495.49	362.78
495.67	458.74
495.85	479.81
496.02	341.72
496.20	344.06
496.38	507.90
496.55	355.76
496.73	379.17
496.91	355.76
497.09	388.53
497.26	437.68
497.44	332.36
497.62	414.27
497.79	397.89
497.97	463.43
498.14	433.00
498.32	435.34
498.50	411.93
498.67	449.38
498.85	454.06
499.03	418.96
499.20	397.89
499.38	416.62
499.56	449.38
499.73	472.79
499.91	500.87
500.08	416.62
500.26	435.34
500.44	411.93
500.61	397.89
500.79	435.34
500.97	369.80
501.14	442.36
501.32	458.74
501.49	442.36
501.67	437.68
501.84	505.56
502.02	390.87
502.20	461.09
502.37	409.59
502.55	379.17
502.72	383.85
502.90	409.59
503.07	423.64
503.25	372.15
503.43	463.43
503.60	374.49
503.78	435.34
503.95	411.93
504.13	447.04
504.30	409.59
504.48	470.45
504.65	428.32
504.83	479.81
505.01	430.66
505.18	407.25
505.36	376.83
505.53	381.51
505.71	393.21
505.88	433.00
506.06	367.46
506.23	447.04
506.41	440.02
506.58	355.76
506.76	409.59
506.93	414.27
507.11	381.51
507.28	402.57
507.46	433.00
507.63	416.62
507.81	397.89
507.98	440.02
508.16	402.57
508.33	423.64
508.50	447.04
508.68	437.68
508.85	414.27
509.03	351.08
509.20	409.59
509.38	395.55
509.55	489.17
509.73	444.70
509.90	451.72
510.08	397.89
510.25	386.19
510.42	369.80
510.60	388.53
510.77	379.17
510.95	433.00
511.12	479.81
511.30	390.87
511.47	484.49
511.64	447.04
511.82	327.68
511.99	430.66
512.17	383.85
512.34	386.19
512.51	386.19
512.69	393.21
512.86	435.34
513.04	425.98
513.21	423.64
513.38	404.91
513.56	430.66
513.73	376.83
513.90	414.27
514.08	407.25
514.25	348.74
514.43	372.15
514.60	379.17
514.77	395.55
514.95	418.96
515.12	425.98
515.29	435.34
515.47	433.00
515.64	381.51
515.81	444.70
515.99	409.59
516.16	435.34
516.33	461.09
516.51	393.21
516.68	327.68
516.85	442.36
517.03	435.34
517.20	407.25
517.37	411.93
517.54	407.25
517.72	397.89
517.89	423.64
518.06	362.78
518.24	465.77
518.41	411.93
518.58	440.02
518.75	411.93
518.93	449.38
519.10	444.70
519.27	416.62
519.45	402.57
519.62	416.62
519.79	416.62
519.96	402.57
520.14	374.49
520.31	407.25
520.48	416.62
520.65	409.59
520.83	430.66
521.00	369.80
521.17	400.23
521.34	390.87
521.52	418.96
521.69	463.43
521.86	486.83
522.03	500.87
522.20	409.59
522.38	411.93
522.55	360.44
522.72	416.62
522.89	451.72
523.07	435.34
523.24	418.96
523.41	454.06
523.58	442.36
523.75	400.23
523.92	376.83
524.10	475.13
524.27	461.09
524.44	400.23
524.61	386.19
524.78	433.00
524.96	435.34
525.13	397.89
525.30	435.34
525.47	383.85
525.64	407.25
525.81	449.38
525.98	418.96
526.16	470.45
526.33	407.25
526.50	411.93
526.67	386.19
526.84	369.80
527.01	388.53
527.18	376.83
527.36	458.74
527.53	374.49
527.70	425.98
527.87	423.64
528.04	437.68
528.21	421.30
528.38	423.64
528.55	465.77
528.72	475.13
528.89	479.81
529.07	367.46
529.24	472.79
529.41	493.85
529.58	390.87
529.75	425.98
529.92	449.38
530.09	470.45
530.26	470.45
530.43	433.00
530.60	395.55
530.77	402.57
530.94	425.98
531.11	465.77
531.28	454.06
531.46	374.49
531.63	458.74
531.80	472.79
531.97	386.19
532.14	423.64
532.31	442.36
532.48	388.53
532.65	425.98
532.82	379.17
532.99	381.51
533.16	395.55
533.33	416.62
533.50	355.76
533.67	351.08
533.84	489.17
534.01	400.23
534.18	411.93
534.35	421.30
534.52	447.04
534.69	416.62
534.86	498.53
535.03	416.62
535.20	358.10
535.37	416.62
535.54	376.83
535.71	404.91
535.88	484.49
536.05	421.30
536.22	423.64
536.38	407.25
536.55	451.72
536.72	379.17
536.89	355.76
537.06	433.00
537.23	400.23
537.40	416.62
537.57	390.87
537.74	400.23
537.91	411.93
538.08	367.46
538.25	402.57
538.42	414.27
538.59	475.13
538.75	386.19
538.92	465.77
539.09	418.96
539.26	454.06
539.43	404.91
539.60	491.51
539.77	454.06
539.94	435.34
540.11	477.47
540.28	451.72
540.44	395.55
540.61	451.72
540.78	402.57
540.95	358.10
541.12	433.00
541.29	383.85
541.46	442.36
541.62	425.98
541.79	404.91
541.96	381.51
542.13	416.62
542.30	493.85
542.47	463.43
542.63	428.32
542.80	374.49
542.97	395.55
543.14	402.57
543.31	428.32
543.48	475.13
543.64	437.68
543.81	379.17
543.98	395.55
544.15	388.53
544.32	442.36
544.48	379.17
544.65	402.57
544.82	393.21
544.99	425.98
545.16	395.55
545.32	421.30
545.49	421.30
545.66	433.00
545.83	423.64
546.00	447.04
546.16	418.96
546.33	407.25
546.50	437.68
546.67	369.80
546.83	442.36
547.00	318.31
547.17	414.27
547.34	388.53
547.50	454.06
547.67	423.64
547.84	376.83
548.00	400.23
548.17	393.21
548.34	421.30
548.51	468.11
548.67	461.09
548.84	376.83
549.01	395.55
549.18	407.25
549.34	393.21
549.51	440.02
549.68	402.57
549.84	496.19
550.01	437.68
550.18	465.77
550.34	496.19
550.51	425.98
550.68	468.11
550.84	376.83
551.01	386.19
551.18	421.30
551.34	355.76
551.51	461.09
551.68	379.17
551.84	423.64
552.01	470.45
552.18	372.15
552.34	454.06
552.51	496.19
552.68	437.68
552.84	418.96
553.01	430.66
553.18	451.72
553.34	496.19
553.51	407.25
553.67	402.57
553.84	489.17
554.01	397.89
554.17	454.06
554.34	355.76
554.51	416.62
554.67	423.64
554.84	458.74
555.00	365.12
555.17	435.34
555.33	369.80
555.50	414.27
555.67	397.89
555.83	430.66
556.00	428.32
556.16	517.26
556.33	409.59
556.50	397.89
556.66	454.06
556.83	411.93
556.99	416.62
557.16	454.06
557.32	365.12
557.49	402.57
557.65	421.30
557.82	437.68
557.98	423.64
558.15	428.32
558.32	479.81
558.48	430.66
558.65	402.57
558.81	449.38
558.98	451.72
559.14	395.55
559.31	463.43
559.47	447.04
559.64	430.66
559.80	484.49
559.97	421.30
560.13	463.43
560.30	465.77
560.46	435.34
560.63	510.24
560.79	435.34
560.96	442.36
561.12	465.77
561.29	435.34
561.45	376.83
561.61	414.27
561.78	479.81
561.94	416.62
562.11	365.12
562.27	395.55
562.44	449.38
562.60	444.70
562.77	458.74
562.93	440.02
563.10	435.34
563.26	423.64
563.42	447.04
563.59	437.68
563.75	395.55
563.92	421.30
564.08	379.17
564.24	416.62
564.41	477.47
564.57	418.96
564.74	393.21
564.90	461.09
565.07	442.36
565.23	435.34
565.39	393.21
565.56	407.25
565.72	437.68
565.88	411.93
566.05	330.02
566.21	428.32
566.38	477.47
566.54	355.76
566.70	404.91
566.87	351.08
567.03	301.93
567.19	423.64
567.36	454.06
567.52	425.98
567.68	489.17
567.85	416.62
568.01	367.46
568.17	433.00
568.34	372.15
568.50	465.77
568.66	397.89
568.83	442.36
568.99	411.93
569.15	491.51
569.32	493.85
569.48	423.64
569.64	503.22
569.81	418.96
569.97	409.59
570.13	374.49
570.30	425.98
570.46	407.25
570.62	449.38
570.78	393.21
570.95	379.17
571.11	435.34
571.27	463.43
571.43	440.02
571.60	355.76
571.76	430.66
571.92	395.55
572.09	447.04
572.25	421.30
572.41	362.78
572.57	486.83
572.74	383.85
572.90	383.85
573.06	444.70
573.22	358.10
573.38	395.55
573.55	482.15
573.71	428.32
573.87	493.85
574.03	322.99
574.20	409.59
574.36	425.98
574.52	390.87
574.68	407.25
574.84	470.45
575.01	423.64
575.17	365.12
575.33	351.08
575.49	486.83
575.65	521.94
575.82	428.32
575.98	409.59
576.14	367.46
576.30	407.25
576.46	367.46
576.62	365.12
576.79	404.91
576.95	390.87
577.11	433.00
577.27	337.04
577.43	491.51
577.59	425.98
577.75	372.15
577.92	393.21
578.08	402.57
578.24	421.30
578.40	435.34
578.56	454.06
578.72	425.98
578.88	456.40
579.04	472.79
579.21	472.79
579.37	425.98
579.53	402.57
579.69	444.70
579.85	358.10
580.01	369.80
580.17	376.83
580.33	465.77
580.49	362.78
580.65	482.15
580.82	435.34
580.98	411.93
581.14	423.64
581.30	402.57
581.46	435.34
581.62	465.77
581.78	430.66
581.94	393.21
582.10	397.89
582.26	482.15
582.42	393.21
582.58	461.09
582.74	418.96
582.90	465.77
583.06	435.34
583.22	411.93
583.38	367.46
583.54	458.74
583.70	510.24
583.86	365.12
584.02	449.38
584.18	444.70
584.34	472.79
584.50	503.22
584.66	425.98
584.82	423.64
584.98	475.13
585.14	402.57
585.30	430.66
585.46	379.17
585.62	341.72
585.78	416.62
585.94	421.30
586.10	461.09
586.26	421.30
586.42	435.34
586.58	376.83
586.74	397.89
586.90	442.36
587.06	383.85
587.22	447.04
587.38	414.27
587.54	456.40
587.70	475.13
587.86	433.00
588.02	454.06
588.18	402.57
588.34	346.40
588.49	489.17
588.65	369.80
588.81	465.77
588.97	386.19
589.13	407.25
589.29	428.32
589.45	475.13
589.61	505.56
589.77	416.62
589.93	397.89
590.08	425.98
590.24	339.38
590.40	315.97
590.56	414.27
590.72	367.46
590.88	379.17
591.04	442.36
591.20	369.80
591.35	491.51
591.51	395.55
591.67	379.17
591.83	379.17
591.99	505.56
592.15	362.78
592.31	351.08
592.46	397.89
592.62	463.43
592.78	442.36
592.94	416.62
593.10	386.19
593.26	411.93
593.41	458.74
593.57	437.68
593.73	430.66
593.89	437.68
594.05	461.09
594.20	351.08
594.36	433.00
594.52	397.89
594.68	386.19
594.84	409.59
594.99	421.30
595.15	407.25
595.31	433.00
595.47	416.62
595.62	383.85
595.78	435.34
595.94	344.06
596.10	423.64
596.25	442.36
596.41	404.91
596.57	409.59
596.73	348.74
596.88	433.00
597.04	411.93
597.20	393.21
597.36	510.24
597.51	449.38
597.67	358.10
597.83	407.25
597.99	397.89
598.14	416.62
598.30	393.21
598.46	437.68
598.61	456.40
598.77	472.79
598.93	479.81
599.09	407.25
599.24	463.43
599.40	404.91
599.56	440.02
599.71	430.66
599.87	449.38
600.03	409.59
600.18	411.93
600.34	491.51
600.50	451.72
600.65	416.62
600.81	470.45
600.97	393.21
601.12	395.55
601.28	454.06
601.44	470.45
601.59	435.34
601.75	447.04
601.91	358.10
602.06	447.04
602.22	500.87
602.37	456.40
602.53	386.19
602.69	465.77
602.84	418.96
603.00	383.85
603.16	458.74
603.31	461.09
603.47	367.46
603.62	330.02
603.78	456.40
603.94	404.91
604.09	418.96
604.25	407.25
604.40	458.74
604.56	390.87
604.71	461.09
604.87	386.19
605.03	463.43
605.18	362.78
605.34	407.25
605.49	449.38
605.65	390.87
605.80	437.68
605.96	407.25
606.12	409.59
606.27	402.57
606.43	376.83
606.58	416.62
606.74	376.83
606.89	418.96
607.05	414.27
607.20	400.23
607.36	360.44
607.51	437.68
607.67	449.38
607.82	442.36
607.98	461.09
608.13	454.06
608.29	425.98
608.44	442.36
608.60	423.64
608.75	437.68
608.91	379.17
609.06	423.64
609.22	355.76
609.37	367.46
609.53	461.09
609.68	379.17
609.84	421.30
609.99	337.04
610.15	505.56
