SpectraSuite Data File
++++++++++++++++++++++++++++++++++++
Date: Fri Oct 25 12:11:27 EDT 2013
User: price-jones
Dark Spectrum Present: No
Reference Spectrum Present: No
Number of Sampled Component Spectra: 1
Spectrometers: USB2+H05261
Integration Time (usec): 100000 (USB2+H05261)
Spectra Averaged: 1 (USB2+H05261)
Boxcar Smoothing: 0 (USB2+H05261)
Correct for Electrical Dark: No (USB2+H05261)
Strobe/Lamp Enabled: No (USB2+H05261)
Correct for Detector Non-linearity: No (USB2+H05261)
Correct for Stray Light: No (USB2+H05261)
Number of Pixels in Processed Spectrum: 2048
>>>>>Begin Processed Spectral Data<<<<<
365.73	348.74
365.92	348.74
366.12	348.74
366.32	250.44
366.52	138.09
366.72	243.42
366.91	217.67
367.11	187.24
367.31	241.08
367.51	208.31
367.70	243.42
367.90	287.89
368.10	236.39
368.30	262.14
368.49	177.88
368.69	215.33
368.89	304.27
369.09	224.69
369.28	273.84
369.48	269.16
369.68	313.63
369.87	315.97
370.07	283.20
370.27	327.68
370.47	320.65
370.66	278.52
370.86	334.70
371.06	400.23
371.25	388.53
371.45	358.10
371.65	322.99
371.84	372.15
372.04	423.64
372.24	379.17
372.44	418.96
372.63	404.91
372.83	463.43
373.03	430.66
373.22	433.00
373.42	390.87
373.62	421.30
373.81	416.62
374.01	428.32
374.21	430.66
374.40	454.06
374.60	475.13
374.79	369.80
374.99	383.85
375.19	444.70
375.38	442.36
375.58	402.57
375.78	458.74
375.97	475.13
376.17	503.22
376.37	428.32
376.56	456.40
376.76	388.53
376.95	337.04
377.15	458.74
377.35	451.72
377.54	402.57
377.74	428.32
377.93	407.25
378.13	475.13
378.33	407.25
378.52	418.96
378.72	444.70
378.91	437.68
379.11	388.53
379.31	362.78
379.50	379.17
379.70	465.77
379.89	454.06
380.09	360.44
380.28	313.63
380.48	397.89
380.68	351.08
380.87	414.27
381.07	456.40
381.26	428.32
381.46	397.89
381.65	376.83
381.85	397.89
382.04	344.06
382.24	386.19
382.43	430.66
382.63	337.04
382.83	447.04
383.02	456.40
383.22	416.62
383.41	437.68
383.61	454.06
383.80	386.19
384.00	444.70
384.19	346.40
384.39	381.51
384.58	372.15
384.78	425.98
384.97	362.78
385.17	458.74
385.36	362.78
385.56	353.42
385.75	397.89
385.95	414.27
386.14	418.96
386.34	418.96
386.53	418.96
386.72	425.98
386.92	472.79
387.11	418.96
387.31	332.36
387.50	390.87
387.70	418.96
387.89	444.70
388.09	447.04
388.28	402.57
388.48	374.49
388.67	315.97
388.86	444.70
389.06	444.70
389.25	454.06
389.45	386.19
389.64	400.23
389.84	468.11
390.03	341.72
390.22	388.53
390.42	355.76
390.61	337.04
390.81	416.62
391.00	447.04
391.19	451.72
391.39	388.53
391.58	472.79
391.78	404.91
391.97	397.89
392.16	400.23
392.36	407.25
392.55	470.45
392.75	451.72
392.94	390.87
393.13	388.53
393.33	325.33
393.52	402.57
393.71	383.85
393.91	423.64
394.10	360.44
394.29	444.70
394.49	376.83
394.68	285.55
394.88	351.08
395.07	428.32
395.26	484.49
395.46	416.62
395.65	397.89
395.84	327.68
396.04	416.62
396.23	367.46
396.42	447.04
396.62	372.15
396.81	397.89
397.00	428.32
397.19	454.06
397.39	472.79
397.58	430.66
397.77	442.36
397.97	395.55
398.16	360.44
398.35	456.40
398.55	423.64
398.74	388.53
398.93	437.68
399.12	433.00
399.32	458.74
399.51	447.04
399.70	393.21
399.90	383.85
400.09	458.74
400.28	409.59
400.47	348.74
400.67	470.45
400.86	372.15
401.05	393.21
401.24	470.45
401.44	383.85
401.63	409.59
401.82	409.59
402.01	465.77
402.21	397.89
402.40	358.10
402.59	425.98
402.78	339.38
402.97	435.34
403.17	386.19
403.36	376.83
403.55	390.87
403.74	372.15
403.93	383.85
404.13	435.34
404.32	372.15
404.51	337.04
404.70	400.23
404.89	421.30
405.09	465.77
405.28	404.91
405.47	407.25
405.66	367.46
405.85	449.38
406.05	414.27
406.24	430.66
406.43	379.17
406.62	461.09
406.81	454.06
407.00	402.57
407.20	465.77
407.39	369.80
407.58	421.30
407.77	428.32
407.96	475.13
408.15	393.21
408.34	400.23
408.54	458.74
408.73	386.19
408.92	440.02
409.11	454.06
409.30	386.19
409.49	383.85
409.68	463.43
409.87	358.10
410.07	409.59
410.26	421.30
410.45	306.61
410.64	500.87
410.83	430.66
411.02	311.29
411.21	386.19
411.40	519.60
411.59	397.89
411.78	344.06
411.98	433.00
412.17	367.46
412.36	327.68
412.55	416.62
412.74	428.32
412.93	468.11
413.12	353.42
413.31	383.85
413.50	402.57
413.69	351.08
413.88	390.87
414.07	416.62
414.26	437.68
414.45	313.63
414.64	423.64
414.83	451.72
415.02	442.36
415.22	381.51
415.41	456.40
415.60	379.17
415.79	383.85
415.98	418.96
416.17	489.17
416.36	437.68
416.55	400.23
416.74	344.06
416.93	332.36
417.12	386.19
417.31	390.87
417.50	400.23
417.69	447.04
417.88	409.59
418.07	344.06
418.26	397.89
418.45	374.49
418.64	369.80
418.83	437.68
419.02	376.83
419.21	461.09
419.39	400.23
419.58	402.57
419.77	414.27
419.96	390.87
420.15	402.57
420.34	386.19
420.53	372.15
420.72	437.68
420.91	444.70
421.10	416.62
421.29	437.68
421.48	442.36
421.67	465.77
421.86	365.12
422.05	379.17
422.24	397.89
422.43	433.00
422.61	379.17
422.80	372.15
422.99	393.21
423.18	390.87
423.37	461.09
423.56	374.49
423.75	414.27
423.94	430.66
424.13	411.93
424.32	390.87
424.50	362.78
424.69	397.89
424.88	484.49
425.07	433.00
425.26	444.70
425.45	423.64
425.64	461.09
425.83	456.40
426.01	430.66
426.20	393.21
426.39	397.89
426.58	367.46
426.77	421.30
426.96	386.19
427.15	395.55
427.33	418.96
427.52	433.00
427.71	369.80
427.90	440.02
428.09	393.21
428.28	409.59
428.46	489.17
428.65	351.08
428.84	421.30
429.03	428.32
429.22	388.53
429.40	416.62
429.59	390.87
429.78	428.32
429.97	461.09
430.16	404.91
430.34	451.72
430.53	409.59
430.72	416.62
430.91	390.87
431.10	390.87
431.28	381.51
431.47	362.78
431.66	351.08
431.85	397.89
432.03	458.74
432.22	458.74
432.41	428.32
432.60	404.91
432.79	315.97
432.97	318.31
433.16	493.85
433.35	418.96
433.54	425.98
433.72	388.53
433.91	463.43
434.10	458.74
434.28	388.53
434.47	418.96
434.66	512.58
434.85	437.68
435.03	454.06
435.22	454.06
435.41	545.34
435.59	383.85
435.78	397.89
435.97	374.49
436.16	409.59
436.34	447.04
436.53	390.87
436.72	362.78
436.90	423.64
437.09	491.51
437.28	435.34
437.46	416.62
437.65	416.62
437.84	411.93
438.02	395.55
438.21	388.53
438.40	470.45
438.58	395.55
438.77	376.83
438.96	414.27
439.14	355.76
439.33	425.98
439.52	526.62
439.70	376.83
439.89	386.19
440.08	395.55
440.26	451.72
440.45	435.34
440.63	418.96
440.82	414.27
441.01	383.85
441.19	358.10
441.38	379.17
441.57	472.79
441.75	465.77
441.94	402.57
442.12	456.40
442.31	416.62
442.50	416.62
442.68	376.83
442.87	449.38
443.05	437.68
443.24	416.62
443.43	440.02
443.61	451.72
443.80	411.93
443.98	383.85
444.17	409.59
444.35	365.12
444.54	409.59
444.73	477.47
444.91	433.00
445.10	421.30
445.28	402.57
445.47	461.09
445.65	393.21
445.84	383.85
446.02	437.68
446.21	465.77
446.39	369.80
446.58	489.17
446.77	435.34
446.95	365.12
447.14	400.23
447.32	472.79
447.51	407.25
447.69	421.30
447.88	407.25
448.06	383.85
448.25	454.06
448.43	433.00
448.62	418.96
448.80	421.30
448.99	428.32
449.17	369.80
449.36	374.49
449.54	423.64
449.73	433.00
449.91	451.72
450.10	372.15
450.28	404.91
450.46	388.53
450.65	365.12
450.83	447.04
451.02	428.32
451.20	379.17
451.39	400.23
451.57	418.96
451.76	404.91
451.94	428.32
452.13	402.57
452.31	416.62
452.49	484.49
452.68	423.64
452.86	388.53
453.05	444.70
453.23	433.00
453.42	430.66
453.60	451.72
453.78	468.11
453.97	425.98
454.15	421.30
454.34	369.80
454.52	461.09
454.70	423.64
454.89	397.89
455.07	414.27
455.26	348.74
455.44	461.09
455.62	372.15
455.81	409.59
455.99	449.38
456.17	449.38
456.36	465.77
456.54	428.32
456.73	411.93
456.91	379.17
457.09	395.55
457.28	444.70
457.46	433.00
457.64	449.38
457.83	451.72
458.01	444.70
458.19	414.27
458.38	383.85
458.56	402.57
458.74	395.55
458.93	475.13
459.11	372.15
459.29	397.89
459.48	383.85
459.66	484.49
459.84	423.64
460.03	465.77
460.21	447.04
460.39	402.57
460.57	491.51
460.76	461.09
460.94	435.34
461.12	477.47
461.31	367.46
461.49	393.21
461.67	388.53
461.85	512.58
462.04	486.83
462.22	711.52
462.40	435.34
462.59	407.25
462.77	365.12
462.95	376.83
463.13	400.23
463.32	369.80
463.50	484.49
463.68	395.55
463.86	482.15
464.05	381.51
464.23	456.40
464.41	418.96
464.59	402.57
464.78	407.25
464.96	351.08
465.14	463.43
465.32	376.83
465.50	440.02
465.69	407.25
465.87	414.27
466.05	407.25
466.23	383.85
466.41	421.30
466.60	433.00
466.78	418.96
466.96	468.11
467.14	409.59
467.32	458.74
467.51	461.09
467.69	477.47
467.87	327.68
468.05	447.04
468.23	416.62
468.41	362.78
468.60	374.49
468.78	404.91
468.96	418.96
469.14	411.93
469.32	362.78
469.50	411.93
469.69	440.02
469.87	358.10
470.05	404.91
470.23	428.32
470.41	367.46
470.59	472.79
470.77	393.21
470.95	297.25
471.14	449.38
471.32	409.59
471.50	423.64
471.68	475.13
471.86	447.04
472.04	428.32
472.22	402.57
472.40	351.08
472.58	421.30
472.77	407.25
472.95	449.38
473.13	390.87
473.31	362.78
473.49	393.21
473.67	400.23
473.85	402.57
474.03	425.98
474.21	379.17
474.39	484.49
474.57	482.15
474.75	440.02
474.93	414.27
475.12	440.02
475.30	477.47
475.48	456.40
475.66	358.10
475.84	454.06
476.02	407.25
476.20	440.02
476.38	444.70
476.56	433.00
476.74	461.09
476.92	407.25
477.10	428.32
477.28	433.00
477.46	367.46
477.64	433.00
477.82	421.30
478.00	421.30
478.18	451.72
478.36	404.91
478.54	386.19
478.72	433.00
478.90	468.11
479.08	425.98
479.26	395.55
479.44	365.12
479.62	416.62
479.80	447.04
479.98	433.00
480.16	407.25
480.34	372.15
480.52	428.32
480.70	447.04
480.88	414.27
481.06	421.30
481.24	465.77
481.41	411.93
481.59	428.32
481.77	386.19
481.95	393.21
482.13	395.55
482.31	435.34
482.49	369.80
482.67	418.96
482.85	402.57
483.03	395.55
483.21	493.85
483.39	442.36
483.57	383.85
483.74	428.32
483.92	414.27
484.10	376.83
484.28	402.57
484.46	496.19
484.64	362.78
484.82	433.00
485.00	402.57
485.18	379.17
485.35	440.02
485.53	463.43
485.71	435.34
485.89	397.89
486.07	397.89
486.25	418.96
486.43	468.11
486.61	444.70
486.78	454.06
486.96	421.30
487.14	390.87
487.32	430.66
487.50	430.66
487.68	442.36
487.85	472.79
488.03	414.27
488.21	449.38
488.39	440.02
488.57	470.45
488.75	407.25
488.92	545.34
489.10	407.25
489.28	503.22
489.46	376.83
489.64	414.27
489.81	379.17
489.99	397.89
490.17	411.93
490.35	465.77
490.53	435.34
490.70	395.55
490.88	430.66
491.06	461.09
491.24	393.21
491.41	435.34
491.59	489.17
491.77	395.55
491.95	421.30
492.13	472.79
492.30	475.13
492.48	407.25
492.66	472.79
492.84	397.89
493.01	482.15
493.19	367.46
493.37	486.83
493.54	435.34
493.72	444.70
493.90	451.72
494.08	409.59
494.25	358.10
494.43	423.64
494.61	414.27
494.79	341.72
494.96	404.91
495.14	421.30
495.32	390.87
495.49	407.25
495.67	402.57
495.85	442.36
496.02	421.30
496.20	447.04
496.38	369.80
496.55	409.59
496.73	355.76
496.91	425.98
497.09	407.25
497.26	423.64
497.44	430.66
497.62	435.34
497.79	386.19
497.97	444.70
498.14	472.79
498.32	442.36
498.50	346.40
498.67	444.70
498.85	404.91
499.03	393.21
499.20	409.59
499.38	416.62
499.56	344.06
499.73	386.19
499.91	458.74
500.08	414.27
500.26	437.68
500.44	454.06
500.61	451.72
500.79	418.96
500.97	489.17
501.14	519.60
501.32	440.02
501.49	414.27
501.67	447.04
501.84	395.55
502.02	407.25
502.20	444.70
502.37	379.17
502.55	423.64
502.72	482.15
502.90	444.70
503.07	472.79
503.25	404.91
503.43	423.64
503.60	351.08
503.78	454.06
503.95	411.93
504.13	393.21
504.30	395.55
504.48	416.62
504.65	444.70
504.83	428.32
505.01	376.83
505.18	379.17
505.36	430.66
505.53	430.66
505.71	386.19
505.88	435.34
506.06	463.43
506.23	388.53
506.41	395.55
506.58	383.85
506.76	411.93
506.93	404.91
507.11	461.09
507.28	416.62
507.46	425.98
507.63	433.00
507.81	428.32
507.98	418.96
508.16	435.34
508.33	507.90
508.50	458.74
508.68	470.45
508.85	482.15
509.03	421.30
509.20	514.92
509.38	428.32
509.55	447.04
509.73	404.91
509.90	531.30
510.08	407.25
510.25	428.32
510.42	475.13
510.60	372.15
510.77	458.74
510.95	433.00
511.12	461.09
511.30	416.62
511.47	444.70
511.64	461.09
511.82	447.04
511.99	416.62
512.17	402.57
512.34	400.23
512.51	379.17
512.69	442.36
512.86	402.57
513.04	372.15
513.21	437.68
513.38	400.23
513.56	376.83
513.73	430.66
513.90	383.85
514.08	465.77
514.25	421.30
514.43	402.57
514.60	416.62
514.77	449.38
514.95	435.34
515.12	379.17
515.29	414.27
515.47	451.72
515.64	444.70
515.81	400.23
515.99	402.57
516.16	433.00
516.33	524.28
516.51	435.34
516.68	407.25
516.85	416.62
517.03	437.68
517.20	468.11
517.37	433.00
517.54	435.34
517.72	416.62
517.89	383.85
518.06	411.93
518.24	486.83
518.41	454.06
518.58	388.53
518.75	503.22
518.93	414.27
519.10	425.98
519.27	400.23
519.45	416.62
519.62	369.80
519.79	496.19
519.96	440.02
520.14	400.23
520.31	379.17
520.48	383.85
520.65	418.96
520.83	418.96
521.00	407.25
521.17	444.70
521.34	355.76
521.52	442.36
521.69	374.49
521.86	430.66
522.03	423.64
522.20	411.93
522.38	397.89
522.55	463.43
522.72	440.02
522.89	411.93
523.07	421.30
523.24	411.93
523.41	367.46
523.58	425.98
523.75	402.57
523.92	411.93
524.10	376.83
524.27	404.91
524.44	348.74
524.61	397.89
524.78	458.74
524.96	428.32
525.13	425.98
525.30	433.00
525.47	386.19
525.64	458.74
525.81	451.72
525.98	465.77
526.16	433.00
526.33	461.09
526.50	428.32
526.67	421.30
526.84	395.55
527.01	423.64
527.18	425.98
527.36	425.98
527.53	416.62
527.70	407.25
527.87	461.09
528.04	400.23
528.21	358.10
528.38	489.17
528.55	379.17
528.72	458.74
528.89	486.83
529.07	393.21
529.24	440.02
529.41	421.30
529.58	409.59
529.75	416.62
529.92	414.27
530.09	435.34
530.26	437.68
530.43	470.45
530.60	337.04
530.77	433.00
530.94	400.23
531.11	435.34
531.28	388.53
531.46	442.36
531.63	400.23
531.80	510.24
531.97	444.70
532.14	442.36
532.31	411.93
532.48	472.79
532.65	376.83
532.82	393.21
532.99	454.06
533.16	404.91
533.33	428.32
533.50	496.19
533.67	409.59
533.84	440.02
534.01	435.34
534.18	374.49
534.35	447.04
534.52	482.15
534.69	486.83
534.86	425.98
535.03	475.13
535.20	397.89
535.37	449.38
535.54	418.96
535.71	376.83
535.88	440.02
536.05	463.43
536.22	470.45
536.38	423.64
536.55	381.51
536.72	512.58
536.89	395.55
537.06	472.79
537.23	390.87
537.40	435.34
537.57	409.59
537.74	449.38
537.91	404.91
538.08	351.08
538.25	442.36
538.42	332.36
538.59	365.12
538.75	407.25
538.92	447.04
539.09	409.59
539.26	433.00
539.43	458.74
539.60	376.83
539.77	411.93
539.94	339.38
540.11	458.74
540.28	423.64
540.44	468.11
540.61	465.77
540.78	374.49
540.95	437.68
541.12	465.77
541.29	393.21
541.46	416.62
541.62	381.51
541.79	381.51
541.96	362.78
542.13	435.34
542.30	458.74
542.47	425.98
542.63	411.93
542.80	454.06
542.97	383.85
543.14	423.64
543.31	458.74
543.48	395.55
543.64	423.64
543.81	388.53
543.98	348.74
544.15	400.23
544.32	402.57
544.48	437.68
544.65	458.74
544.82	402.57
544.99	369.80
545.16	400.23
545.32	390.87
545.49	374.49
545.66	372.15
545.83	421.30
546.00	390.87
546.16	411.93
546.33	351.08
546.50	442.36
546.67	477.47
546.83	400.23
547.00	395.55
547.17	447.04
547.34	388.53
547.50	414.27
547.67	472.79
547.84	423.64
548.00	402.57
548.17	409.59
548.34	400.23
548.51	402.57
548.67	449.38
548.84	454.06
549.01	404.91
549.18	472.79
549.34	369.80
549.51	388.53
549.68	376.83
549.84	383.85
550.01	404.91
550.18	489.17
550.34	472.79
550.51	414.27
550.68	440.02
550.84	437.68
551.01	386.19
551.18	440.02
551.34	433.00
551.51	447.04
551.68	414.27
551.84	514.92
552.01	400.23
552.18	418.96
552.34	360.44
552.51	348.74
552.68	428.32
552.84	423.64
553.01	402.57
553.18	442.36
553.34	470.45
553.51	477.47
553.67	425.98
553.84	395.55
554.01	430.66
554.17	369.80
554.34	451.72
554.51	423.64
554.67	449.38
554.84	477.47
555.00	407.25
555.17	411.93
555.33	449.38
555.50	416.62
555.67	397.89
555.83	449.38
556.00	402.57
556.16	521.94
556.33	362.78
556.50	402.57
556.66	489.17
556.83	468.11
556.99	430.66
557.16	409.59
557.32	360.44
557.49	315.97
557.65	376.83
557.82	454.06
557.98	451.72
558.15	407.25
558.32	423.64
558.48	353.42
558.65	407.25
558.81	435.34
558.98	414.27
559.14	404.91
559.31	376.83
559.47	430.66
559.64	411.93
559.80	407.25
559.97	372.15
560.13	489.17
560.30	388.53
560.46	372.15
560.63	383.85
560.79	437.68
560.96	390.87
561.12	278.52
561.29	365.12
561.45	442.36
561.61	407.25
561.78	458.74
561.94	437.68
562.11	442.36
562.27	416.62
562.44	414.27
562.60	428.32
562.77	435.34
562.93	503.22
563.10	393.21
563.26	414.27
563.42	449.38
563.59	433.00
563.75	503.22
563.92	362.78
564.08	442.36
564.24	447.04
564.41	416.62
564.57	360.44
564.74	437.68
564.90	435.34
565.07	369.80
565.23	390.87
565.39	430.66
565.56	367.46
565.72	456.40
565.88	390.87
566.05	442.36
566.21	437.68
566.38	440.02
566.54	402.57
566.70	400.23
566.87	451.72
567.03	416.62
567.19	433.00
567.36	451.72
567.52	456.40
567.68	437.68
567.85	477.47
568.01	447.04
568.17	381.51
568.34	334.70
568.50	416.62
568.66	435.34
568.83	493.85
568.99	397.89
569.15	369.80
569.32	404.91
569.48	423.64
569.64	430.66
569.81	430.66
569.97	416.62
570.13	395.55
570.30	411.93
570.46	374.49
570.62	428.32
570.78	418.96
570.95	395.55
571.11	493.85
571.27	442.36
571.43	414.27
571.60	369.80
571.76	416.62
571.92	472.79
572.09	397.89
572.25	428.32
572.41	327.68
572.57	346.40
572.74	437.68
572.90	383.85
573.06	414.27
573.22	479.81
573.38	449.38
573.55	367.46
573.71	327.68
573.87	390.87
574.03	388.53
574.20	447.04
574.36	407.25
574.52	442.36
574.68	470.45
574.84	351.08
575.01	416.62
575.17	456.40
575.33	409.59
575.49	341.72
575.65	535.98
575.82	510.24
575.98	451.72
576.14	496.19
576.30	379.17
576.46	418.96
576.62	440.02
576.79	386.19
576.95	475.13
577.11	437.68
577.27	440.02
577.43	435.34
577.59	458.74
577.75	468.11
577.92	395.55
578.08	372.15
578.24	402.57
578.40	437.68
578.56	346.40
578.72	454.06
578.88	456.40
579.04	414.27
579.21	379.17
579.37	433.00
579.53	475.13
579.69	526.62
579.85	395.55
580.01	421.30
580.17	468.11
580.33	437.68
580.49	411.93
580.65	440.02
580.82	437.68
580.98	421.30
581.14	395.55
581.30	402.57
581.46	414.27
581.62	444.70
581.78	421.30
581.94	379.17
582.10	402.57
582.26	407.25
582.42	400.23
582.58	458.74
582.74	425.98
582.90	449.38
583.06	386.19
583.22	367.46
583.38	404.91
583.54	451.72
583.70	477.47
583.86	461.09
584.02	454.06
584.18	381.51
584.34	395.55
584.50	402.57
584.66	411.93
584.82	409.59
584.98	454.06
585.14	397.89
585.30	428.32
585.46	411.93
585.62	482.15
585.78	404.91
585.94	390.87
586.10	402.57
586.26	428.32
586.42	507.90
586.58	428.32
586.74	341.72
586.90	421.30
587.06	456.40
587.22	346.40
587.38	449.38
587.54	414.27
587.70	442.36
587.86	383.85
588.02	390.87
588.18	388.53
588.34	421.30
588.49	404.91
588.65	454.06
588.81	407.25
588.97	395.55
589.13	346.40
589.29	372.15
589.45	388.53
589.61	451.72
589.77	409.59
589.93	379.17
590.08	423.64
590.24	367.46
590.40	409.59
590.56	353.42
590.72	341.72
590.88	376.83
591.04	437.68
591.20	393.21
591.35	526.62
591.51	383.85
591.67	383.85
591.83	425.98
591.99	404.91
592.15	423.64
592.31	416.62
592.46	454.06
592.62	449.38
592.78	404.91
592.94	463.43
593.10	388.53
593.26	393.21
593.41	416.62
593.57	440.02
593.73	440.02
593.89	409.59
594.05	418.96
594.20	390.87
594.36	475.13
594.52	404.91
594.68	397.89
594.84	400.23
594.99	451.72
595.15	395.55
595.31	430.66
595.47	449.38
595.62	463.43
595.78	418.96
595.94	428.32
596.10	433.00
596.25	367.46
596.41	395.55
596.57	411.93
596.73	376.83
596.88	386.19
597.04	442.36
597.20	418.96
597.36	433.00
597.51	416.62
597.67	388.53
597.83	414.27
597.99	449.38
598.14	393.21
598.30	482.15
598.46	402.57
598.61	414.27
598.77	416.62
598.93	414.27
599.09	430.66
599.24	423.64
599.40	442.36
599.56	355.76
599.71	437.68
599.87	379.17
600.03	369.80
600.18	372.15
600.34	451.72
600.50	395.55
600.65	400.23
600.81	428.32
600.97	404.91
601.12	442.36
601.28	416.62
601.44	393.21
601.59	367.46
601.75	411.93
601.91	510.24
602.06	418.96
602.22	430.66
602.37	486.83
602.53	416.62
602.69	465.77
602.84	416.62
603.00	484.49
603.16	423.64
603.31	458.74
603.47	430.66
603.62	404.91
603.78	411.93
603.94	416.62
604.09	465.77
604.25	404.91
604.40	397.89
604.56	458.74
604.71	493.85
604.87	383.85
605.03	400.23
605.18	456.40
605.34	400.23
605.49	425.98
605.65	334.70
605.80	344.06
605.96	442.36
606.12	374.49
606.27	449.38
606.43	416.62
606.58	449.38
606.74	395.55
606.89	472.79
607.05	479.81
607.20	395.55
607.36	447.04
607.51	407.25
607.67	397.89
607.82	482.15
607.98	435.34
608.13	421.30
608.29	435.34
608.44	461.09
608.60	393.21
608.75	437.68
608.91	440.02
609.06	397.89
609.22	407.25
609.37	447.04
609.53	468.11
609.68	358.10
609.84	407.25
609.99	430.66
610.15	388.53
