SpectraSuite Data File
++++++++++++++++++++++++++++++++++++
Date: Fri Oct 25 12:11:47 EDT 2013
User: price-jones
Dark Spectrum Present: No
Reference Spectrum Present: No
Number of Sampled Component Spectra: 1
Spectrometers: USB2+H05261
Integration Time (usec): 100000 (USB2+H05261)
Spectra Averaged: 1 (USB2+H05261)
Boxcar Smoothing: 0 (USB2+H05261)
Correct for Electrical Dark: No (USB2+H05261)
Strobe/Lamp Enabled: No (USB2+H05261)
Correct for Detector Non-linearity: No (USB2+H05261)
Correct for Stray Light: No (USB2+H05261)
Number of Pixels in Processed Spectrum: 2048
>>>>>Begin Processed Spectral Data<<<<<
365.73	358.10
365.92	358.10
366.12	358.10
366.32	308.95
366.52	229.37
366.72	229.37
366.91	205.97
367.11	259.80
367.31	276.18
367.51	301.93
367.70	217.67
367.90	304.27
368.10	257.46
368.30	203.63
368.49	318.31
368.69	292.57
368.89	236.39
369.09	266.82
369.28	222.35
369.48	318.31
369.68	322.99
369.87	358.10
370.07	287.89
370.27	341.72
370.47	294.91
370.66	362.78
370.86	358.10
371.06	327.68
371.25	433.00
371.45	381.51
371.65	388.53
371.84	414.27
372.04	428.32
372.24	486.83
372.44	402.57
372.63	407.25
372.83	400.23
373.03	442.36
373.22	440.02
373.42	472.79
373.62	386.19
373.81	421.30
374.01	475.13
374.21	437.68
374.40	409.59
374.60	470.45
374.79	395.55
374.99	442.36
375.19	425.98
375.38	407.25
375.58	414.27
375.78	423.64
375.97	514.92
376.17	433.00
376.37	379.17
376.56	337.04
376.76	355.76
376.95	421.30
377.15	447.04
377.35	482.15
377.54	468.11
377.74	465.77
377.93	407.25
378.13	468.11
378.33	435.34
378.52	402.57
378.72	416.62
378.91	447.04
379.11	440.02
379.31	402.57
379.50	458.74
379.70	418.96
379.89	430.66
380.09	411.93
380.28	381.51
380.48	411.93
380.68	423.64
380.87	428.32
381.07	430.66
381.26	503.22
381.46	447.04
381.65	456.40
381.85	351.08
382.04	390.87
382.24	430.66
382.43	397.89
382.63	390.87
382.83	383.85
383.02	421.30
383.22	425.98
383.41	372.15
383.61	421.30
383.80	402.57
384.00	433.00
384.19	461.09
384.39	465.77
384.58	346.40
384.78	416.62
384.97	395.55
385.17	428.32
385.36	409.59
385.56	372.15
385.75	416.62
385.95	416.62
386.14	430.66
386.34	451.72
386.53	395.55
386.72	444.70
386.92	414.27
387.11	472.79
387.31	475.13
387.50	383.85
387.70	418.96
387.89	397.89
388.09	416.62
388.28	421.30
388.48	395.55
388.67	463.43
388.86	372.15
389.06	390.87
389.25	418.96
389.45	425.98
389.64	407.25
389.84	472.79
390.03	402.57
390.22	428.32
390.42	423.64
390.61	341.72
390.81	388.53
391.00	428.32
391.19	397.89
391.39	397.89
391.58	423.64
391.78	458.74
391.97	468.11
392.16	376.83
392.36	468.11
392.55	416.62
392.75	423.64
392.94	388.53
393.13	423.64
393.33	435.34
393.52	418.96
393.71	430.66
393.91	386.19
394.10	365.12
394.29	395.55
394.49	442.36
394.68	395.55
394.88	351.08
395.07	428.32
395.26	435.34
395.46	400.23
395.65	468.11
395.84	456.40
396.04	430.66
396.23	486.83
396.42	458.74
396.62	423.64
396.81	414.27
397.00	397.89
397.19	423.64
397.39	414.27
397.58	414.27
397.77	414.27
397.97	367.46
398.16	418.96
398.35	372.15
398.55	503.22
398.74	458.74
398.93	360.44
399.12	362.78
399.32	423.64
399.51	456.40
399.70	355.76
399.90	425.98
400.09	418.96
400.28	421.30
400.47	404.91
400.67	489.17
400.86	388.53
401.05	444.70
401.24	472.79
401.44	435.34
401.63	493.85
401.82	447.04
402.01	390.87
402.21	456.40
402.40	386.19
402.59	402.57
402.78	388.53
402.97	402.57
403.17	358.10
403.36	339.38
403.55	411.93
403.74	500.87
403.93	367.46
404.13	440.02
404.32	311.29
404.51	416.62
404.70	444.70
404.89	404.91
405.09	414.27
405.28	393.21
405.47	423.64
405.66	421.30
405.85	430.66
406.05	402.57
406.24	402.57
406.43	383.85
406.62	449.38
406.81	404.91
407.00	423.64
407.20	388.53
407.39	388.53
407.58	458.74
407.77	416.62
407.96	409.59
408.15	425.98
408.34	367.46
408.54	374.49
408.73	435.34
408.92	428.32
409.11	411.93
409.30	416.62
409.49	397.89
409.68	451.72
409.87	472.79
410.07	433.00
410.26	458.74
410.45	428.32
410.64	409.59
410.83	379.17
411.02	447.04
411.21	440.02
411.40	402.57
411.59	407.25
411.78	397.89
411.98	409.59
412.17	423.64
412.36	369.80
412.55	454.06
412.74	404.91
412.93	510.24
413.12	407.25
413.31	388.53
413.50	402.57
413.69	442.36
413.88	381.51
414.07	437.68
414.26	430.66
414.45	409.59
414.64	496.19
414.83	444.70
415.02	463.43
415.22	393.21
415.41	496.19
415.60	423.64
415.79	421.30
415.98	454.06
416.17	379.17
416.36	425.98
416.55	418.96
416.74	404.91
416.93	447.04
417.12	451.72
417.31	454.06
417.50	386.19
417.69	416.62
417.88	386.19
418.07	416.62
418.26	374.49
418.45	435.34
418.64	465.77
418.83	381.51
419.02	337.04
419.21	414.27
419.39	404.91
419.58	393.21
419.77	416.62
419.96	383.85
420.15	440.02
420.34	418.96
420.53	362.78
420.72	444.70
420.91	414.27
421.10	454.06
421.29	414.27
421.48	369.80
421.67	411.93
421.86	437.68
422.05	418.96
422.24	358.10
422.43	451.72
422.61	409.59
422.80	468.11
422.99	444.70
423.18	409.59
423.37	444.70
423.56	386.19
423.75	407.25
423.94	400.23
424.13	433.00
424.32	369.80
424.50	475.13
424.69	486.83
424.88	435.34
425.07	376.83
425.26	369.80
425.45	416.62
425.64	407.25
425.83	418.96
426.01	461.09
426.20	433.00
426.39	388.53
426.58	381.51
426.77	458.74
426.96	379.17
427.15	430.66
427.33	397.89
427.52	433.00
427.71	409.59
427.90	388.53
428.09	388.53
428.28	414.27
428.46	376.83
428.65	444.70
428.84	447.04
429.03	498.53
429.22	407.25
429.40	365.12
429.59	381.51
429.78	465.77
429.97	449.38
430.16	400.23
430.34	468.11
430.53	383.85
430.72	425.98
430.91	435.34
431.10	416.62
431.28	355.76
431.47	383.85
431.66	425.98
431.85	383.85
432.03	458.74
432.22	437.68
432.41	437.68
432.60	411.93
432.79	404.91
432.97	423.64
433.16	397.89
433.35	409.59
433.54	425.98
433.72	379.17
433.91	468.11
434.10	444.70
434.28	386.19
434.47	421.30
434.66	421.30
434.85	376.83
435.03	407.25
435.22	433.00
435.41	435.34
435.59	367.46
435.78	433.00
435.97	416.62
436.16	421.30
436.34	442.36
436.53	449.38
436.72	447.04
436.90	449.38
437.09	409.59
437.28	482.15
437.46	451.72
437.65	337.04
437.84	440.02
438.02	409.59
438.21	456.40
438.40	451.72
438.58	383.85
438.77	416.62
438.96	437.68
439.14	472.79
439.33	430.66
439.52	346.40
439.70	435.34
439.89	447.04
440.08	400.23
440.26	477.47
440.45	430.66
440.63	475.13
440.82	404.91
441.01	430.66
441.19	390.87
441.38	402.57
441.57	447.04
441.75	489.17
441.94	428.32
442.12	400.23
442.31	423.64
442.50	367.46
442.68	402.57
442.87	416.62
443.05	339.38
443.24	360.44
443.43	425.98
443.61	404.91
443.80	425.98
443.98	411.93
444.17	369.80
444.35	454.06
444.54	348.74
444.73	433.00
444.91	418.96
445.10	423.64
445.28	416.62
445.47	411.93
445.65	386.19
445.84	376.83
446.02	425.98
446.21	393.21
446.39	440.02
446.58	315.97
446.77	433.00
446.95	447.04
447.14	444.70
447.32	425.98
447.51	425.98
447.69	332.36
447.88	414.27
448.06	470.45
448.25	388.53
448.43	397.89
448.62	383.85
448.80	421.30
448.99	451.72
449.17	390.87
449.36	353.42
449.54	411.93
449.73	358.10
449.91	372.15
450.10	404.91
450.28	348.74
450.46	390.87
450.65	428.32
450.83	433.00
451.02	458.74
451.20	409.59
451.39	388.53
451.57	442.36
451.76	404.91
451.94	425.98
452.13	400.23
452.31	418.96
452.49	416.62
452.68	348.74
452.86	489.17
453.05	400.23
453.23	346.40
453.42	472.79
453.60	374.49
453.78	425.98
453.97	393.21
454.15	348.74
454.34	379.17
454.52	421.30
454.70	440.02
454.89	440.02
455.07	374.49
455.26	404.91
455.44	416.62
455.62	418.96
455.81	411.93
455.99	468.11
456.17	351.08
456.36	379.17
456.54	440.02
456.73	500.87
456.91	355.76
457.09	388.53
457.28	407.25
457.46	425.98
457.64	388.53
457.83	383.85
458.01	367.46
458.19	444.70
458.38	409.59
458.56	381.51
458.74	404.91
458.93	358.10
459.11	425.98
459.29	421.30
459.48	423.64
459.66	367.46
459.84	470.45
460.03	470.45
460.21	440.02
460.39	440.02
460.57	400.23
460.76	379.17
460.94	435.34
461.12	454.06
461.31	491.51
461.49	470.45
461.67	395.55
461.85	454.06
462.04	486.83
462.22	802.80
462.40	444.70
462.59	454.06
462.77	425.98
462.95	447.04
463.13	416.62
463.32	454.06
463.50	463.43
463.68	454.06
463.86	430.66
464.05	372.15
464.23	411.93
464.41	404.91
464.59	409.59
464.78	397.89
464.96	404.91
465.14	477.47
465.32	456.40
465.50	437.68
465.69	498.53
465.87	411.93
466.05	503.22
466.23	365.12
466.41	470.45
466.60	348.74
466.78	376.83
466.96	444.70
467.14	472.79
467.32	362.78
467.51	369.80
467.69	500.87
467.87	430.66
468.05	341.72
468.23	372.15
468.41	393.21
468.60	372.15
468.78	437.68
468.96	465.77
469.14	442.36
469.32	465.77
469.50	463.43
469.69	372.15
469.87	423.64
470.05	402.57
470.23	468.11
470.41	369.80
470.59	423.64
470.77	447.04
470.95	425.98
471.14	449.38
471.32	425.98
471.50	463.43
471.68	365.12
471.86	339.38
472.04	395.55
472.22	407.25
472.40	400.23
472.58	435.34
472.77	407.25
472.95	409.59
473.13	414.27
473.31	482.15
473.49	451.72
473.67	379.17
473.85	374.49
474.03	367.46
474.21	458.74
474.39	463.43
474.57	475.13
474.75	423.64
474.93	416.62
475.12	393.21
475.30	447.04
475.48	477.47
475.66	379.17
475.84	444.70
476.02	458.74
476.20	447.04
476.38	404.91
476.56	479.81
476.74	397.89
476.92	449.38
477.10	447.04
477.28	379.17
477.46	437.68
477.64	463.43
477.82	428.32
478.00	423.64
478.18	435.34
478.36	404.91
478.54	442.36
478.72	346.40
478.90	437.68
479.08	322.99
479.26	376.83
479.44	386.19
479.62	444.70
479.80	447.04
479.98	383.85
480.16	458.74
480.34	430.66
480.52	404.91
480.70	456.40
480.88	414.27
481.06	365.12
481.24	425.98
481.41	435.34
481.59	416.62
481.77	402.57
481.95	409.59
482.13	440.02
482.31	376.83
482.49	322.99
482.67	447.04
482.85	414.27
483.03	404.91
483.21	400.23
483.39	376.83
483.57	407.25
483.74	442.36
483.92	374.49
484.10	358.10
484.28	472.79
484.46	444.70
484.64	388.53
484.82	393.21
485.00	442.36
485.18	411.93
485.35	421.30
485.53	407.25
485.71	444.70
485.89	414.27
486.07	334.70
486.25	386.19
486.43	449.38
486.61	517.26
486.78	479.81
486.96	454.06
487.14	386.19
487.32	332.36
487.50	390.87
487.68	472.79
487.85	458.74
488.03	372.15
488.21	397.89
488.39	416.62
488.57	428.32
488.75	461.09
488.92	468.11
489.10	470.45
489.28	442.36
489.46	409.59
489.64	428.32
489.81	435.34
489.99	414.27
490.17	400.23
490.35	472.79
490.53	491.51
490.70	325.33
490.88	372.15
491.06	444.70
491.24	341.72
491.41	348.74
491.59	376.83
491.77	381.51
491.95	404.91
492.13	386.19
492.30	440.02
492.48	341.72
492.66	369.80
492.84	423.64
493.01	411.93
493.19	372.15
493.37	454.06
493.54	449.38
493.72	449.38
493.90	456.40
494.08	369.80
494.25	433.00
494.43	468.11
494.61	369.80
494.79	505.56
494.96	440.02
495.14	381.51
495.32	379.17
495.49	339.38
495.67	472.79
495.85	409.59
496.02	402.57
496.20	461.09
496.38	369.80
496.55	423.64
496.73	437.68
496.91	421.30
497.09	404.91
497.26	458.74
497.44	454.06
497.62	475.13
497.79	437.68
497.97	463.43
498.14	409.59
498.32	397.89
498.50	414.27
498.67	393.21
498.85	425.98
499.03	400.23
499.20	374.49
499.38	421.30
499.56	390.87
499.73	393.21
499.91	470.45
500.08	414.27
500.26	458.74
500.44	421.30
500.61	519.60
500.79	433.00
500.97	416.62
501.14	444.70
501.32	470.45
501.49	411.93
501.67	454.06
501.84	437.68
502.02	332.36
502.20	435.34
502.37	421.30
502.55	435.34
502.72	421.30
502.90	437.68
503.07	388.53
503.25	458.74
503.43	376.83
503.60	411.93
503.78	489.17
503.95	395.55
504.13	346.40
504.30	428.32
504.48	402.57
504.65	454.06
504.83	428.32
505.01	388.53
505.18	400.23
505.36	449.38
505.53	367.46
505.71	386.19
505.88	477.47
506.06	404.91
506.23	479.81
506.41	442.36
506.58	433.00
506.76	414.27
506.93	442.36
507.11	346.40
507.28	411.93
507.46	369.80
507.63	397.89
507.81	381.51
507.98	381.51
508.16	390.87
508.33	447.04
508.50	404.91
508.68	393.21
508.85	421.30
509.03	435.34
509.20	421.30
509.38	404.91
509.55	428.32
509.73	416.62
509.90	423.64
510.08	395.55
510.25	479.81
510.42	388.53
510.60	374.49
510.77	433.00
510.95	395.55
511.12	402.57
511.30	444.70
511.47	418.96
511.64	475.13
511.82	404.91
511.99	442.36
512.17	416.62
512.34	365.12
512.51	411.93
512.69	425.98
512.86	442.36
513.04	379.17
513.21	388.53
513.38	428.32
513.56	397.89
513.73	414.27
513.90	308.95
514.08	386.19
514.25	402.57
514.43	416.62
514.60	409.59
514.77	397.89
514.95	423.64
515.12	393.21
515.29	433.00
515.47	451.72
515.64	433.00
515.81	482.15
515.99	449.38
516.16	463.43
516.33	449.38
516.51	444.70
516.68	374.49
516.85	437.68
517.03	421.30
517.20	379.17
517.37	416.62
517.54	435.34
517.72	414.27
517.89	470.45
518.06	390.87
518.24	409.59
518.41	472.79
518.58	379.17
518.75	365.12
518.93	355.76
519.10	390.87
519.27	369.80
519.45	416.62
519.62	397.89
519.79	454.06
519.96	369.80
520.14	414.27
520.31	362.78
520.48	397.89
520.65	433.00
520.83	437.68
521.00	409.59
521.17	447.04
521.34	397.89
521.52	423.64
521.69	414.27
521.86	414.27
522.03	442.36
522.20	440.02
522.38	388.53
522.55	372.15
522.72	449.38
522.89	526.62
523.07	517.26
523.24	379.17
523.41	451.72
523.58	433.00
523.75	472.79
523.92	440.02
524.10	388.53
524.27	442.36
524.44	418.96
524.61	491.51
524.78	418.96
524.96	486.83
525.13	435.34
525.30	390.87
525.47	435.34
525.64	475.13
525.81	433.00
525.98	437.68
526.16	376.83
526.33	386.19
526.50	493.85
526.67	414.27
526.84	353.42
527.01	386.19
527.18	433.00
527.36	402.57
527.53	320.65
527.70	479.81
527.87	423.64
528.04	479.81
528.21	454.06
528.38	428.32
528.55	402.57
528.72	437.68
528.89	430.66
529.07	367.46
529.24	472.79
529.41	468.11
529.58	428.32
529.75	447.04
529.92	458.74
530.09	393.21
530.26	470.45
530.43	397.89
530.60	442.36
530.77	435.34
530.94	465.77
531.11	433.00
531.28	428.32
531.46	372.15
531.63	461.09
531.80	416.62
531.97	468.11
532.14	489.17
532.31	472.79
532.48	444.70
532.65	428.32
532.82	318.31
532.99	421.30
533.16	383.85
533.33	369.80
533.50	421.30
533.67	423.64
533.84	423.64
534.01	397.89
534.18	411.93
534.35	381.51
534.52	416.62
534.69	444.70
534.86	386.19
535.03	423.64
535.20	376.83
535.37	351.08
535.54	346.40
535.71	477.47
535.88	388.53
536.05	416.62
536.22	428.32
536.38	418.96
536.55	353.42
536.72	421.30
536.89	479.81
537.06	358.10
537.23	383.85
537.40	430.66
537.57	411.93
537.74	463.43
537.91	444.70
538.08	479.81
538.25	461.09
538.42	423.64
538.59	390.87
538.75	472.79
538.92	404.91
539.09	414.27
539.26	353.42
539.43	484.49
539.60	390.87
539.77	402.57
539.94	458.74
540.11	388.53
540.28	484.49
540.44	416.62
540.61	435.34
540.78	402.57
540.95	372.15
541.12	449.38
541.29	449.38
541.46	393.21
541.62	372.15
541.79	482.15
541.96	381.51
542.13	402.57
542.30	451.72
542.47	418.96
542.63	440.02
542.80	472.79
542.97	475.13
543.14	409.59
543.31	430.66
543.48	444.70
543.64	486.83
543.81	395.55
543.98	461.09
544.15	414.27
544.32	449.38
544.48	458.74
544.65	395.55
544.82	402.57
544.99	531.30
545.16	493.85
545.32	372.15
545.49	381.51
545.66	430.66
545.83	430.66
546.00	330.02
546.16	390.87
546.33	437.68
546.50	468.11
546.67	458.74
546.83	440.02
547.00	458.74
547.17	475.13
547.34	367.46
547.50	360.44
547.67	440.02
547.84	456.40
548.00	491.51
548.17	472.79
548.34	355.76
548.51	376.83
548.67	486.83
548.84	461.09
549.01	475.13
549.18	372.15
549.34	433.00
549.51	440.02
549.68	461.09
549.84	381.51
550.01	451.72
550.18	440.02
550.34	409.59
550.51	390.87
550.68	477.47
550.84	404.91
551.01	402.57
551.18	409.59
551.34	421.30
551.51	332.36
551.68	458.74
551.84	456.40
552.01	379.17
552.18	411.93
552.34	402.57
552.51	411.93
552.68	444.70
552.84	465.77
553.01	428.32
553.18	435.34
553.34	414.27
553.51	395.55
553.67	404.91
553.84	479.81
554.01	365.12
554.17	447.04
554.34	411.93
554.51	416.62
554.67	442.36
554.84	386.19
555.00	404.91
555.17	440.02
555.33	437.68
555.50	425.98
555.67	390.87
555.83	386.19
556.00	351.08
556.16	543.00
556.33	425.98
556.50	435.34
556.66	395.55
556.83	409.59
556.99	397.89
557.16	437.68
557.32	409.59
557.49	414.27
557.65	390.87
557.82	428.32
557.98	404.91
558.15	367.46
558.32	414.27
558.48	411.93
558.65	407.25
558.81	451.72
558.98	421.30
559.14	444.70
559.31	451.72
559.47	400.23
559.64	395.55
559.80	435.34
559.97	393.21
560.13	435.34
560.30	489.17
560.46	451.72
560.63	454.06
560.79	423.64
560.96	421.30
561.12	404.91
561.29	430.66
561.45	400.23
561.61	442.36
561.78	493.85
561.94	409.59
562.11	416.62
562.27	447.04
562.44	418.96
562.60	421.30
562.77	400.23
562.93	435.34
563.10	407.25
563.26	409.59
563.42	442.36
563.59	369.80
563.75	393.21
563.92	433.00
564.08	461.09
564.24	421.30
564.41	454.06
564.57	393.21
564.74	348.74
564.90	433.00
565.07	484.49
565.23	454.06
565.39	379.17
565.56	496.19
565.72	381.51
565.88	503.22
566.05	435.34
566.21	407.25
566.38	421.30
566.54	418.96
566.70	383.85
566.87	341.72
567.03	355.76
567.19	468.11
567.36	397.89
567.52	418.96
567.68	404.91
567.85	507.90
568.01	376.83
568.17	435.34
568.34	393.21
568.50	454.06
568.66	388.53
568.83	519.60
568.99	418.96
569.15	486.83
569.32	433.00
569.48	416.62
569.64	414.27
569.81	458.74
569.97	411.93
570.13	435.34
570.30	355.76
570.46	407.25
570.62	411.93
570.78	451.72
570.95	381.51
571.11	430.66
571.27	395.55
571.43	414.27
571.60	386.19
571.76	351.08
571.92	416.62
572.09	416.62
572.25	430.66
572.41	414.27
572.57	383.85
572.74	538.32
572.90	447.04
573.06	344.06
573.22	411.93
573.38	447.04
573.55	437.68
573.71	409.59
573.87	402.57
574.03	440.02
574.20	447.04
574.36	451.72
574.52	451.72
574.68	400.23
574.84	381.51
575.01	407.25
575.17	379.17
575.33	402.57
575.49	416.62
575.65	489.17
575.82	376.83
575.98	388.53
576.14	430.66
576.30	374.49
576.46	454.06
576.62	444.70
576.79	407.25
576.95	369.80
577.11	418.96
577.27	395.55
577.43	428.32
577.59	397.89
577.75	390.87
577.92	404.91
578.08	475.13
578.24	440.02
578.40	414.27
578.56	414.27
578.72	437.68
578.88	447.04
579.04	358.10
579.21	390.87
579.37	425.98
579.53	411.93
579.69	383.85
579.85	514.92
580.01	423.64
580.17	409.59
580.33	433.00
580.49	411.93
580.65	355.76
580.82	442.36
580.98	437.68
581.14	388.53
581.30	468.11
581.46	344.06
581.62	388.53
581.78	379.17
581.94	383.85
582.10	355.76
582.26	435.34
582.42	458.74
582.58	435.34
582.74	456.40
582.90	341.72
583.06	449.38
583.22	372.15
583.38	437.68
583.54	437.68
583.70	456.40
583.86	407.25
584.02	334.70
584.18	454.06
584.34	430.66
584.50	440.02
584.66	428.32
584.82	425.98
584.98	400.23
585.14	430.66
585.30	430.66
585.46	393.21
585.62	440.02
585.78	489.17
585.94	416.62
586.10	390.87
586.26	442.36
586.42	456.40
586.58	440.02
586.74	458.74
586.90	425.98
587.06	461.09
587.22	444.70
587.38	425.98
587.54	430.66
587.70	395.55
587.86	421.30
588.02	414.27
588.18	379.17
588.34	477.47
588.49	468.11
588.65	468.11
588.81	374.49
588.97	437.68
589.13	440.02
589.29	435.34
589.45	409.59
589.61	421.30
589.77	388.53
589.93	423.64
590.08	383.85
590.24	414.27
590.40	484.49
590.56	454.06
590.72	435.34
590.88	418.96
591.04	430.66
591.20	397.89
591.35	472.79
591.51	423.64
591.67	372.15
591.83	411.93
591.99	465.77
592.15	447.04
592.31	383.85
592.46	400.23
592.62	444.70
592.78	376.83
592.94	353.42
593.10	362.78
593.26	400.23
593.41	440.02
593.57	397.89
593.73	404.91
593.89	388.53
594.05	444.70
594.20	444.70
594.36	470.45
594.52	428.32
594.68	365.12
594.84	416.62
594.99	425.98
595.15	442.36
595.31	423.64
595.47	489.17
595.62	470.45
595.78	418.96
595.94	374.49
596.10	327.68
596.25	369.80
596.41	421.30
596.57	414.27
596.73	416.62
596.88	421.30
597.04	367.46
597.20	374.49
597.36	454.06
597.51	379.17
597.67	393.21
597.83	454.06
597.99	425.98
598.14	458.74
598.30	465.77
598.46	491.51
598.61	393.21
598.77	421.30
598.93	334.70
599.09	400.23
599.24	430.66
599.40	418.96
599.56	451.72
599.71	437.68
599.87	397.89
600.03	381.51
600.18	475.13
600.34	435.34
600.50	386.19
600.65	362.78
600.81	330.02
600.97	390.87
601.12	484.49
601.28	397.89
601.44	372.15
601.59	440.02
601.75	416.62
601.91	411.93
602.06	400.23
602.22	390.87
602.37	344.06
602.53	447.04
602.69	423.64
602.84	395.55
603.00	449.38
603.16	437.68
603.31	428.32
603.47	447.04
603.62	383.85
603.78	353.42
603.94	428.32
604.09	447.04
604.25	411.93
604.40	447.04
604.56	423.64
604.71	395.55
604.87	430.66
605.03	386.19
605.18	414.27
605.34	442.36
605.49	444.70
605.65	393.21
605.80	428.32
605.96	402.57
606.12	440.02
606.27	409.59
606.43	468.11
606.58	395.55
606.74	428.32
606.89	442.36
607.05	428.32
607.20	421.30
607.36	437.68
607.51	447.04
607.67	470.45
607.82	416.62
607.98	517.26
608.13	498.53
608.29	428.32
608.44	463.43
608.60	390.87
608.75	395.55
608.91	395.55
609.06	444.70
609.22	404.91
609.37	421.30
609.53	454.06
609.68	433.00
609.84	507.90
609.99	414.27
610.15	423.64
