SpectraSuite Data File
++++++++++++++++++++++++++++++++++++
Date: Fri Oct 25 12:11:22 EDT 2013
User: price-jones
Dark Spectrum Present: No
Reference Spectrum Present: No
Number of Sampled Component Spectra: 1
Spectrometers: USB2+H05261
Integration Time (usec): 100000 (USB2+H05261)
Spectra Averaged: 1 (USB2+H05261)
Boxcar Smoothing: 0 (USB2+H05261)
Correct for Electrical Dark: No (USB2+H05261)
Strobe/Lamp Enabled: No (USB2+H05261)
Correct for Detector Non-linearity: No (USB2+H05261)
Correct for Stray Light: No (USB2+H05261)
Number of Pixels in Processed Spectrum: 2048
>>>>>Begin Processed Spectral Data<<<<<
365.73	283.20
365.92	283.20
366.12	283.20
366.32	224.69
366.52	208.31
366.72	205.97
366.91	271.50
367.11	259.80
367.31	222.35
367.51	220.01
367.70	276.18
367.90	311.29
368.10	313.63
368.30	269.16
368.49	182.56
368.69	304.27
368.89	271.50
369.09	341.72
369.28	322.99
369.48	276.18
369.68	306.61
369.87	287.89
370.07	271.50
370.27	355.76
370.47	369.80
370.66	381.51
370.86	320.65
371.06	320.65
371.25	397.89
371.45	372.15
371.65	320.65
371.84	393.21
372.04	404.91
372.24	390.87
372.44	407.25
372.63	411.93
372.83	442.36
373.03	372.15
373.22	355.76
373.42	411.93
373.62	397.89
373.81	500.87
374.01	351.08
374.21	400.23
374.40	383.85
374.60	416.62
374.79	395.55
374.99	454.06
375.19	503.22
375.38	458.74
375.58	491.51
375.78	390.87
375.97	433.00
376.17	451.72
376.37	435.34
376.56	402.57
376.76	428.32
376.95	400.23
377.15	456.40
377.35	491.51
377.54	351.08
377.74	393.21
377.93	409.59
378.13	416.62
378.33	463.43
378.52	397.89
378.72	454.06
378.91	418.96
379.11	409.59
379.31	440.02
379.50	372.15
379.70	362.78
379.89	381.51
380.09	404.91
380.28	383.85
380.48	400.23
380.68	433.00
380.87	379.17
381.07	393.21
381.26	404.91
381.46	383.85
381.65	449.38
381.85	397.89
382.04	379.17
382.24	416.62
382.43	451.72
382.63	379.17
382.83	411.93
383.02	435.34
383.22	498.53
383.41	395.55
383.61	430.66
383.80	440.02
384.00	461.09
384.19	479.81
384.39	416.62
384.58	372.15
384.78	390.87
384.97	369.80
385.17	447.04
385.36	437.68
385.56	381.51
385.75	390.87
385.95	365.12
386.14	468.11
386.34	416.62
386.53	437.68
386.72	468.11
386.92	456.40
387.11	367.46
387.31	475.13
387.50	430.66
387.70	390.87
387.89	489.17
388.09	433.00
388.28	451.72
388.48	393.21
388.67	463.43
388.86	418.96
389.06	461.09
389.25	390.87
389.45	414.27
389.64	383.85
389.84	447.04
390.03	372.15
390.22	428.32
390.42	397.89
390.61	421.30
390.81	372.15
391.00	397.89
391.19	409.59
391.39	428.32
391.58	372.15
391.78	479.81
391.97	440.02
392.16	435.34
392.36	433.00
392.55	465.77
392.75	440.02
392.94	425.98
393.13	428.32
393.33	416.62
393.52	430.66
393.71	430.66
393.91	395.55
394.10	339.38
394.29	435.34
394.49	435.34
394.68	442.36
394.88	421.30
395.07	482.15
395.26	447.04
395.46	360.44
395.65	407.25
395.84	442.36
396.04	346.40
396.23	404.91
396.42	428.32
396.62	468.11
396.81	397.89
397.00	404.91
397.19	320.65
397.39	433.00
397.58	374.49
397.77	388.53
397.97	374.49
398.16	440.02
398.35	411.93
398.55	372.15
398.74	425.98
398.93	332.36
399.12	393.21
399.32	442.36
399.51	430.66
399.70	477.47
399.90	358.10
400.09	383.85
400.28	404.91
400.47	386.19
400.67	381.51
400.86	409.59
401.05	400.23
401.24	449.38
401.44	442.36
401.63	383.85
401.82	379.17
402.01	376.83
402.21	437.68
402.40	395.55
402.59	365.12
402.78	393.21
402.97	470.45
403.17	407.25
403.36	423.64
403.55	456.40
403.74	418.96
403.93	376.83
404.13	381.51
404.32	376.83
404.51	456.40
404.70	437.68
404.89	386.19
405.09	505.56
405.28	393.21
405.47	421.30
405.66	433.00
405.85	400.23
406.05	365.12
406.24	367.46
406.43	341.72
406.62	414.27
406.81	477.47
407.00	463.43
407.20	437.68
407.39	322.99
407.58	400.23
407.77	418.96
407.96	404.91
408.15	411.93
408.34	449.38
408.54	409.59
408.73	428.32
408.92	407.25
409.11	411.93
409.30	479.81
409.49	379.17
409.68	414.27
409.87	433.00
410.07	367.46
410.26	369.80
410.45	435.34
410.64	451.72
410.83	442.36
411.02	458.74
411.21	400.23
411.40	463.43
411.59	407.25
411.78	421.30
411.98	418.96
412.17	367.46
412.36	407.25
412.55	447.04
412.74	390.87
412.93	454.06
413.12	423.64
413.31	390.87
413.50	386.19
413.69	397.89
413.88	416.62
414.07	489.17
414.26	388.53
414.45	423.64
414.64	440.02
414.83	500.87
415.02	407.25
415.22	346.40
415.41	418.96
415.60	379.17
415.79	381.51
415.98	409.59
416.17	390.87
416.36	430.66
416.55	411.93
416.74	402.57
416.93	411.93
417.12	461.09
417.31	358.10
417.50	341.72
417.69	435.34
417.88	486.83
418.07	376.83
418.26	346.40
418.45	367.46
418.64	470.45
418.83	376.83
419.02	430.66
419.21	379.17
419.39	465.77
419.58	449.38
419.77	416.62
419.96	449.38
420.15	440.02
420.34	397.89
420.53	447.04
420.72	458.74
420.91	451.72
421.10	355.76
421.29	430.66
421.48	437.68
421.67	418.96
421.86	322.99
422.05	369.80
422.24	409.59
422.43	477.47
422.61	461.09
422.80	393.21
422.99	407.25
423.18	411.93
423.37	400.23
423.56	421.30
423.75	386.19
423.94	379.17
424.13	404.91
424.32	428.32
424.50	400.23
424.69	397.89
424.88	449.38
425.07	400.23
425.26	322.99
425.45	486.83
425.64	402.57
425.83	369.80
426.01	470.45
426.20	425.98
426.39	421.30
426.58	423.64
426.77	355.76
426.96	491.51
427.15	411.93
427.33	369.80
427.52	416.62
427.71	409.59
427.90	395.55
428.09	409.59
428.28	456.40
428.46	444.70
428.65	475.13
428.84	348.74
429.03	409.59
429.22	423.64
429.40	362.78
429.59	423.64
429.78	418.96
429.97	456.40
430.16	407.25
430.34	397.89
430.53	425.98
430.72	388.53
430.91	465.77
431.10	430.66
431.28	411.93
431.47	418.96
431.66	447.04
431.85	390.87
432.03	430.66
432.22	421.30
432.41	472.79
432.60	465.77
432.79	397.89
432.97	404.91
433.16	395.55
433.35	379.17
433.54	418.96
433.72	430.66
433.91	409.59
434.10	390.87
434.28	435.34
434.47	414.27
434.66	383.85
434.85	374.49
435.03	409.59
435.22	367.46
435.41	442.36
435.59	400.23
435.78	451.72
435.97	442.36
436.16	454.06
436.34	414.27
436.53	451.72
436.72	479.81
436.90	444.70
437.09	388.53
437.28	348.74
437.46	339.38
437.65	423.64
437.84	397.89
438.02	379.17
438.21	416.62
438.40	468.11
438.58	428.32
438.77	433.00
438.96	367.46
439.14	428.32
439.33	454.06
439.52	386.19
439.70	346.40
439.89	507.90
440.08	423.64
440.26	421.30
440.45	447.04
440.63	393.21
440.82	341.72
441.01	425.98
441.19	433.00
441.38	425.98
441.57	458.74
441.75	435.34
441.94	428.32
442.12	433.00
442.31	418.96
442.50	334.70
442.68	369.80
442.87	365.12
443.05	386.19
443.24	376.83
443.43	409.59
443.61	451.72
443.80	376.83
443.98	397.89
444.17	463.43
444.35	461.09
444.54	482.15
444.73	402.57
444.91	470.45
445.10	360.44
445.28	400.23
445.47	456.40
445.65	388.53
445.84	400.23
446.02	397.89
446.21	341.72
446.39	383.85
446.58	526.62
446.77	402.57
446.95	393.21
447.14	477.47
447.32	411.93
447.51	390.87
447.69	372.15
447.88	409.59
448.06	409.59
448.25	491.51
448.43	395.55
448.62	421.30
448.80	409.59
448.99	440.02
449.17	348.74
449.36	386.19
449.54	418.96
449.73	369.80
449.91	444.70
450.10	416.62
450.28	404.91
450.46	421.30
450.65	468.11
450.83	351.08
451.02	456.40
451.20	400.23
451.39	388.53
451.57	397.89
451.76	451.72
451.94	372.15
452.13	393.21
452.31	437.68
452.49	442.36
452.68	362.78
452.86	320.65
453.05	418.96
453.23	381.51
453.42	388.53
453.60	379.17
453.78	393.21
453.97	456.40
454.15	372.15
454.34	358.10
454.52	395.55
454.70	430.66
454.89	374.49
455.07	442.36
455.26	477.47
455.44	421.30
455.62	400.23
455.81	362.78
455.99	456.40
456.17	395.55
456.36	433.00
456.54	451.72
456.73	449.38
456.91	454.06
457.09	381.51
457.28	367.46
457.46	400.23
457.64	449.38
457.83	353.42
458.01	470.45
458.19	430.66
458.38	346.40
458.56	320.65
458.74	402.57
458.93	456.40
459.11	386.19
459.29	379.17
459.48	468.11
459.66	433.00
459.84	407.25
460.03	442.36
460.21	468.11
460.39	423.64
460.57	334.70
460.76	409.59
460.94	416.62
461.12	421.30
461.31	416.62
461.49	411.93
461.67	393.21
461.85	402.57
462.04	348.74
462.22	765.36
462.40	395.55
462.59	435.34
462.77	437.68
462.95	442.36
463.13	416.62
463.32	521.94
463.50	374.49
463.68	339.38
463.86	442.36
464.05	372.15
464.23	461.09
464.41	393.21
464.59	503.22
464.78	418.96
464.96	404.91
465.14	416.62
465.32	386.19
465.50	423.64
465.69	421.30
465.87	341.72
466.05	444.70
466.23	395.55
466.41	463.43
466.60	477.47
466.78	430.66
466.96	433.00
467.14	411.93
467.32	489.17
467.51	353.42
467.69	414.27
467.87	379.17
468.05	484.49
468.23	423.64
468.41	491.51
468.60	383.85
468.78	421.30
468.96	418.96
469.14	421.30
469.32	421.30
469.50	355.76
469.69	404.91
469.87	449.38
470.05	468.11
470.23	463.43
470.41	435.34
470.59	404.91
470.77	440.02
470.95	425.98
471.14	393.21
471.32	491.51
471.50	468.11
471.68	397.89
471.86	402.57
472.04	395.55
472.22	428.32
472.40	409.59
472.58	418.96
472.77	435.34
472.95	367.46
473.13	444.70
473.31	461.09
473.49	381.51
473.67	393.21
473.85	388.53
474.03	433.00
474.21	365.12
474.39	442.36
474.57	465.77
474.75	444.70
474.93	404.91
475.12	374.49
475.30	325.33
475.48	416.62
475.66	376.83
475.84	414.27
476.02	393.21
476.20	423.64
476.38	423.64
476.56	512.58
476.74	393.21
476.92	442.36
477.10	355.76
477.28	423.64
477.46	430.66
477.64	477.47
477.82	409.59
478.00	381.51
478.18	367.46
478.36	442.36
478.54	437.68
478.72	351.08
478.90	444.70
479.08	400.23
479.26	348.74
479.44	372.15
479.62	390.87
479.80	418.96
479.98	372.15
480.16	402.57
480.34	369.80
480.52	365.12
480.70	421.30
480.88	334.70
481.06	379.17
481.24	416.62
481.41	404.91
481.59	463.43
481.77	416.62
481.95	407.25
482.13	416.62
482.31	421.30
482.49	414.27
482.67	346.40
482.85	435.34
483.03	390.87
483.21	341.72
483.39	374.49
483.57	437.68
483.74	388.53
483.92	430.66
484.10	402.57
484.28	510.24
484.46	390.87
484.64	463.43
484.82	404.91
485.00	388.53
485.18	376.83
485.35	414.27
485.53	456.40
485.71	425.98
485.89	400.23
486.07	388.53
486.25	468.11
486.43	503.22
486.61	402.57
486.78	372.15
486.96	409.59
487.14	444.70
487.32	458.74
487.50	379.17
487.68	414.27
487.85	402.57
488.03	486.83
488.21	372.15
488.39	369.80
488.57	421.30
488.75	421.30
488.92	458.74
489.10	447.04
489.28	491.51
489.46	454.06
489.64	393.21
489.81	358.10
489.99	372.15
490.17	311.29
490.35	433.00
490.53	430.66
490.70	425.98
490.88	444.70
491.06	461.09
491.24	355.76
491.41	416.62
491.59	407.25
491.77	409.59
491.95	461.09
492.13	442.36
492.30	402.57
492.48	397.89
492.66	411.93
492.84	425.98
493.01	367.46
493.19	404.91
493.37	400.23
493.54	400.23
493.72	454.06
493.90	435.34
494.08	407.25
494.25	407.25
494.43	435.34
494.61	430.66
494.79	421.30
494.96	372.15
495.14	376.83
495.32	362.78
495.49	411.93
495.67	351.08
495.85	353.42
496.02	409.59
496.20	390.87
496.38	376.83
496.55	388.53
496.73	489.17
496.91	402.57
497.09	409.59
497.26	416.62
497.44	442.36
497.62	362.78
497.79	479.81
497.97	423.64
498.14	423.64
498.32	374.49
498.50	383.85
498.67	395.55
498.85	440.02
499.03	365.12
499.20	386.19
499.38	374.49
499.56	414.27
499.73	479.81
499.91	393.21
500.08	444.70
500.26	367.46
500.44	421.30
500.61	440.02
500.79	315.97
500.97	353.42
501.14	390.87
501.32	409.59
501.49	454.06
501.67	484.49
501.84	456.40
502.02	348.74
502.20	428.32
502.37	430.66
502.55	351.08
502.72	390.87
502.90	425.98
503.07	425.98
503.25	379.17
503.43	435.34
503.60	346.40
503.78	388.53
503.95	449.38
504.13	334.70
504.30	463.43
504.48	433.00
504.65	489.17
504.83	433.00
505.01	456.40
505.18	440.02
505.36	437.68
505.53	362.78
505.71	409.59
505.88	388.53
506.06	411.93
506.23	454.06
506.41	437.68
506.58	367.46
506.76	444.70
506.93	376.83
507.11	475.13
507.28	386.19
507.46	425.98
507.63	411.93
507.81	402.57
507.98	369.80
508.16	465.77
508.33	430.66
508.50	435.34
508.68	409.59
508.85	416.62
509.03	468.11
509.20	362.78
509.38	423.64
509.55	379.17
509.73	395.55
509.90	479.81
510.08	451.72
510.25	442.36
510.42	433.00
510.60	421.30
510.77	393.21
510.95	461.09
511.12	388.53
511.30	437.68
511.47	411.93
511.64	376.83
511.82	358.10
511.99	395.55
512.17	353.42
512.34	358.10
512.51	374.49
512.69	409.59
512.86	449.38
513.04	451.72
513.21	451.72
513.38	388.53
513.56	433.00
513.73	369.80
513.90	360.44
514.08	414.27
514.25	416.62
514.43	400.23
514.60	435.34
514.77	416.62
514.95	379.17
515.12	416.62
515.29	404.91
515.47	369.80
515.64	395.55
515.81	496.19
515.99	498.53
516.16	409.59
516.33	456.40
516.51	381.51
516.68	416.62
516.85	465.77
517.03	421.30
517.20	444.70
517.37	400.23
517.54	402.57
517.72	369.80
517.89	388.53
518.06	433.00
518.24	435.34
518.41	383.85
518.58	418.96
518.75	433.00
518.93	381.51
519.10	409.59
519.27	449.38
519.45	416.62
519.62	440.02
519.79	458.74
519.96	344.06
520.14	461.09
520.31	496.19
520.48	421.30
520.65	423.64
520.83	470.45
521.00	379.17
521.17	458.74
521.34	447.04
521.52	493.85
521.69	402.57
521.86	351.08
522.03	353.42
522.20	411.93
522.38	456.40
522.55	482.15
522.72	442.36
522.89	447.04
523.07	383.85
523.24	433.00
523.41	423.64
523.58	421.30
523.75	451.72
523.92	498.53
524.10	409.59
524.27	409.59
524.44	362.78
524.61	489.17
524.78	458.74
524.96	416.62
525.13	444.70
525.30	442.36
525.47	381.51
525.64	379.17
525.81	407.25
525.98	409.59
526.16	395.55
526.33	365.12
526.50	402.57
526.67	433.00
526.84	409.59
527.01	437.68
527.18	486.83
527.36	372.15
527.53	393.21
527.70	461.09
527.87	418.96
528.04	496.19
528.21	440.02
528.38	374.49
528.55	477.47
528.72	372.15
528.89	451.72
529.07	402.57
529.24	449.38
529.41	472.79
529.58	456.40
529.75	397.89
529.92	449.38
530.09	440.02
530.26	491.51
530.43	418.96
530.60	369.80
530.77	423.64
530.94	397.89
531.11	435.34
531.28	433.00
531.46	421.30
531.63	409.59
531.80	383.85
531.97	379.17
532.14	430.66
532.31	486.83
532.48	421.30
532.65	339.38
532.82	425.98
532.99	402.57
533.16	374.49
533.33	409.59
533.50	418.96
533.67	393.21
533.84	369.80
534.01	390.87
534.18	425.98
534.35	428.32
534.52	442.36
534.69	327.68
534.86	404.91
535.03	395.55
535.20	416.62
535.37	440.02
535.54	383.85
535.71	374.49
535.88	465.77
536.05	395.55
536.22	430.66
536.38	444.70
536.55	470.45
536.72	477.47
536.89	449.38
537.06	421.30
537.23	444.70
537.40	390.87
537.57	397.89
537.74	411.93
537.91	433.00
538.08	386.19
538.25	369.80
538.42	390.87
538.59	411.93
538.75	341.72
538.92	393.21
539.09	430.66
539.26	425.98
539.43	409.59
539.60	454.06
539.77	449.38
539.94	418.96
540.11	491.51
540.28	482.15
540.44	491.51
540.61	433.00
540.78	395.55
540.95	442.36
541.12	416.62
541.29	461.09
541.46	472.79
541.62	423.64
541.79	416.62
541.96	491.51
542.13	409.59
542.30	435.34
542.47	435.34
542.63	353.42
542.80	454.06
542.97	512.58
543.14	430.66
543.31	372.15
543.48	393.21
543.64	414.27
543.81	402.57
543.98	456.40
544.15	414.27
544.32	304.27
544.48	458.74
544.65	489.17
544.82	372.15
544.99	409.59
545.16	409.59
545.32	404.91
545.49	407.25
545.66	414.27
545.83	376.83
546.00	458.74
546.16	444.70
546.33	369.80
546.50	463.43
546.67	486.83
546.83	376.83
547.00	407.25
547.17	395.55
547.34	369.80
547.50	437.68
547.67	397.89
547.84	433.00
548.00	404.91
548.17	367.46
548.34	425.98
548.51	451.72
548.67	440.02
548.84	479.81
549.01	442.36
549.18	498.53
549.34	418.96
549.51	463.43
549.68	407.25
549.84	440.02
550.01	402.57
550.18	524.28
550.34	507.90
550.51	402.57
550.68	444.70
550.84	409.59
551.01	430.66
551.18	409.59
551.34	423.64
551.51	395.55
551.68	423.64
551.84	447.04
552.01	425.98
552.18	367.46
552.34	444.70
552.51	362.78
552.68	428.32
552.84	409.59
553.01	454.06
553.18	454.06
553.34	407.25
553.51	407.25
553.67	447.04
553.84	430.66
554.01	472.79
554.17	472.79
554.34	416.62
554.51	449.38
554.67	360.44
554.84	358.10
555.00	421.30
555.17	409.59
555.33	416.62
555.50	435.34
555.67	395.55
555.83	365.12
556.00	397.89
556.16	514.92
556.33	475.13
556.50	482.15
556.66	404.91
556.83	433.00
556.99	362.78
557.16	407.25
557.32	404.91
557.49	461.09
557.65	411.93
557.82	362.78
557.98	383.85
558.15	390.87
558.32	489.17
558.48	442.36
558.65	402.57
558.81	381.51
558.98	444.70
559.14	407.25
559.31	409.59
559.47	458.74
559.64	456.40
559.80	360.44
559.97	404.91
560.13	421.30
560.30	418.96
560.46	358.10
560.63	449.38
560.79	414.27
560.96	416.62
561.12	330.02
561.29	372.15
561.45	440.02
561.61	402.57
561.78	468.11
561.94	430.66
562.11	472.79
562.27	395.55
562.44	433.00
562.60	421.30
562.77	416.62
562.93	442.36
563.10	514.92
563.26	463.43
563.42	379.17
563.59	451.72
563.75	369.80
563.92	444.70
564.08	383.85
564.24	409.59
564.41	496.19
564.57	369.80
564.74	358.10
564.90	447.04
565.07	498.53
565.23	514.92
565.39	440.02
565.56	447.04
565.72	433.00
565.88	414.27
566.05	428.32
566.21	407.25
566.38	503.22
566.54	358.10
566.70	423.64
566.87	372.15
567.03	461.09
567.19	404.91
567.36	379.17
567.52	421.30
567.68	482.15
567.85	465.77
568.01	383.85
568.17	470.45
568.34	395.55
568.50	437.68
568.66	327.68
568.83	425.98
568.99	402.57
569.15	454.06
569.32	353.42
569.48	393.21
569.64	348.74
569.81	437.68
569.97	440.02
570.13	383.85
570.30	402.57
570.46	409.59
570.62	388.53
570.78	402.57
570.95	334.70
571.11	437.68
571.27	477.47
571.43	458.74
571.60	458.74
571.76	414.27
571.92	428.32
572.09	421.30
572.25	418.96
572.41	468.11
572.57	416.62
572.74	451.72
572.90	440.02
573.06	402.57
573.22	421.30
573.38	456.40
573.55	423.64
573.71	423.64
573.87	463.43
574.03	374.49
574.20	407.25
574.36	400.23
574.52	451.72
574.68	428.32
574.84	367.46
575.01	444.70
575.17	416.62
575.33	407.25
575.49	491.51
575.65	505.56
575.82	449.38
575.98	376.83
576.14	411.93
576.30	496.19
576.46	402.57
576.62	437.68
576.79	472.79
576.95	411.93
577.11	409.59
577.27	437.68
577.43	421.30
577.59	416.62
577.75	402.57
577.92	433.00
578.08	484.49
578.24	400.23
578.40	390.87
578.56	430.66
578.72	475.13
578.88	428.32
579.04	468.11
579.21	416.62
579.37	461.09
579.53	372.15
579.69	351.08
579.85	414.27
580.01	454.06
580.17	353.42
580.33	421.30
580.49	376.83
580.65	379.17
580.82	414.27
580.98	379.17
581.14	355.76
581.30	454.06
581.46	437.68
581.62	447.04
581.78	348.74
581.94	472.79
582.10	430.66
582.26	388.53
582.42	372.15
582.58	388.53
582.74	428.32
582.90	437.68
583.06	463.43
583.22	386.19
583.38	337.04
583.54	435.34
583.70	437.68
583.86	404.91
584.02	447.04
584.18	430.66
584.34	404.91
584.50	400.23
584.66	400.23
584.82	365.12
584.98	472.79
585.14	414.27
585.30	458.74
585.46	449.38
585.62	411.93
585.78	407.25
585.94	362.78
586.10	400.23
586.26	362.78
586.42	421.30
586.58	500.87
586.74	433.00
586.90	365.12
587.06	491.51
587.22	400.23
587.38	402.57
587.54	397.89
587.70	425.98
587.86	475.13
588.02	456.40
588.18	376.83
588.34	407.25
588.49	388.53
588.65	433.00
588.81	397.89
588.97	376.83
589.13	416.62
589.29	433.00
589.45	418.96
589.61	465.77
589.77	435.34
589.93	365.12
590.08	397.89
590.24	454.06
590.40	404.91
590.56	442.36
590.72	411.93
590.88	444.70
591.04	475.13
591.20	456.40
591.35	461.09
591.51	449.38
591.67	454.06
591.83	465.77
591.99	369.80
592.15	435.34
592.31	454.06
592.46	400.23
592.62	449.38
592.78	423.64
592.94	440.02
593.10	400.23
593.26	365.12
593.41	369.80
593.57	409.59
593.73	332.36
593.89	425.98
594.05	393.21
594.20	353.42
594.36	451.72
594.52	376.83
594.68	423.64
594.84	374.49
594.99	421.30
595.15	369.80
595.31	372.15
595.47	444.70
595.62	477.47
595.78	435.34
595.94	498.53
596.10	376.83
596.25	402.57
596.41	435.34
596.57	442.36
596.73	465.77
596.88	468.11
597.04	411.93
597.20	423.64
597.36	477.47
597.51	430.66
597.67	379.17
597.83	465.77
597.99	454.06
598.14	465.77
598.30	463.43
598.46	383.85
598.61	479.81
598.77	458.74
598.93	447.04
599.09	407.25
599.24	461.09
599.40	437.68
599.56	423.64
599.71	388.53
599.87	346.40
600.03	416.62
600.18	395.55
600.34	505.56
600.50	386.19
600.65	393.21
600.81	430.66
600.97	430.66
601.12	381.51
601.28	404.91
601.44	400.23
601.59	425.98
601.75	379.17
601.91	444.70
602.06	418.96
602.22	491.51
602.37	414.27
602.53	425.98
602.69	449.38
602.84	400.23
603.00	397.89
603.16	390.87
603.31	386.19
603.47	449.38
603.62	423.64
603.78	440.02
603.94	433.00
604.09	383.85
604.25	425.98
604.40	383.85
604.56	411.93
604.71	416.62
604.87	365.12
605.03	470.45
605.18	470.45
605.34	430.66
605.49	353.42
605.65	355.76
605.80	386.19
605.96	425.98
606.12	409.59
606.27	444.70
606.43	397.89
606.58	440.02
606.74	444.70
606.89	468.11
607.05	442.36
607.20	428.32
607.36	369.80
607.51	430.66
607.67	423.64
607.82	395.55
607.98	458.74
608.13	449.38
608.29	435.34
608.44	442.36
608.60	463.43
608.75	423.64
608.91	428.32
609.06	421.30
609.22	503.22
609.37	383.85
609.53	358.10
609.68	400.23
609.84	376.83
609.99	353.42
610.15	458.74
