SpectraSuite Data File
++++++++++++++++++++++++++++++++++++
Date: Fri Oct 25 12:11:23 EDT 2013
User: price-jones
Dark Spectrum Present: No
Reference Spectrum Present: No
Number of Sampled Component Spectra: 1
Spectrometers: USB2+H05261
Integration Time (usec): 100000 (USB2+H05261)
Spectra Averaged: 1 (USB2+H05261)
Boxcar Smoothing: 0 (USB2+H05261)
Correct for Electrical Dark: No (USB2+H05261)
Strobe/Lamp Enabled: No (USB2+H05261)
Correct for Detector Non-linearity: No (USB2+H05261)
Correct for Stray Light: No (USB2+H05261)
Number of Pixels in Processed Spectrum: 2048
>>>>>Begin Processed Spectral Data<<<<<
365.73	318.31
365.92	318.31
366.12	318.31
366.32	297.25
366.52	257.46
366.72	339.38
366.91	217.67
367.11	217.67
367.31	236.39
367.51	297.25
367.70	269.16
367.90	287.89
368.10	290.23
368.30	189.58
368.49	243.42
368.69	229.37
368.89	194.26
369.09	257.46
369.28	273.84
369.48	189.58
369.68	283.20
369.87	262.14
370.07	322.99
370.27	320.65
370.47	339.38
370.66	315.97
370.86	418.96
371.06	425.98
371.25	395.55
371.45	386.19
371.65	379.17
371.84	334.70
372.04	362.78
372.24	376.83
372.44	353.42
372.63	376.83
372.83	404.91
373.03	428.32
373.22	400.23
373.42	409.59
373.62	472.79
373.81	433.00
374.01	468.11
374.21	435.34
374.40	390.87
374.60	442.36
374.79	451.72
374.99	447.04
375.19	496.19
375.38	442.36
375.58	409.59
375.78	440.02
375.97	430.66
376.17	496.19
376.37	374.49
376.56	475.13
376.76	433.00
376.95	353.42
377.15	456.40
377.35	374.49
377.54	402.57
377.74	365.12
377.93	348.74
378.13	482.15
378.33	430.66
378.52	402.57
378.72	381.51
378.91	435.34
379.11	388.53
379.31	404.91
379.50	358.10
379.70	428.32
379.89	447.04
380.09	374.49
380.28	369.80
380.48	344.06
380.68	334.70
380.87	341.72
381.07	393.21
381.26	512.58
381.46	379.17
381.65	456.40
381.85	425.98
382.04	423.64
382.24	376.83
382.43	379.17
382.63	425.98
382.83	477.47
383.02	472.79
383.22	435.34
383.41	369.80
383.61	393.21
383.80	430.66
384.00	430.66
384.19	351.08
384.39	379.17
384.58	402.57
384.78	435.34
384.97	425.98
385.17	397.89
385.36	388.53
385.56	393.21
385.75	430.66
385.95	369.80
386.14	416.62
386.34	414.27
386.53	454.06
386.72	360.44
386.92	451.72
387.11	388.53
387.31	437.68
387.50	430.66
387.70	423.64
387.89	374.49
388.09	315.97
388.28	430.66
388.48	395.55
388.67	414.27
388.86	435.34
389.06	435.34
389.25	437.68
389.45	388.53
389.64	365.12
389.84	456.40
390.03	425.98
390.22	430.66
390.42	433.00
390.61	416.62
390.81	381.51
391.00	409.59
391.19	442.36
391.39	374.49
391.58	409.59
391.78	421.30
391.97	416.62
392.16	388.53
392.36	407.25
392.55	477.47
392.75	411.93
392.94	386.19
393.13	416.62
393.33	407.25
393.52	421.30
393.71	458.74
393.91	454.06
394.10	404.91
394.29	351.08
394.49	416.62
394.68	454.06
394.88	444.70
395.07	383.85
395.26	330.02
395.46	447.04
395.65	379.17
395.84	451.72
396.04	454.06
396.23	433.00
396.42	351.08
396.62	442.36
396.81	414.27
397.00	425.98
397.19	379.17
397.39	430.66
397.58	433.00
397.77	437.68
397.97	461.09
398.16	421.30
398.35	381.51
398.55	351.08
398.74	339.38
398.93	421.30
399.12	397.89
399.32	411.93
399.51	369.80
399.70	397.89
399.90	381.51
400.09	416.62
400.28	418.96
400.47	423.64
400.67	351.08
400.86	341.72
401.05	437.68
401.24	414.27
401.44	339.38
401.63	409.59
401.82	402.57
402.01	449.38
402.21	421.30
402.40	414.27
402.59	435.34
402.78	393.21
402.97	379.17
403.17	344.06
403.36	421.30
403.55	442.36
403.74	397.89
403.93	397.89
404.13	416.62
404.32	393.21
404.51	407.25
404.70	383.85
404.89	456.40
405.09	418.96
405.28	383.85
405.47	355.76
405.66	463.43
405.85	393.21
406.05	451.72
406.24	414.27
406.43	367.46
406.62	421.30
406.81	470.45
407.00	376.83
407.20	442.36
407.39	418.96
407.58	423.64
407.77	383.85
407.96	435.34
408.15	404.91
408.34	451.72
408.54	390.87
408.73	355.76
408.92	404.91
409.11	407.25
409.30	379.17
409.49	400.23
409.68	390.87
409.87	397.89
410.07	444.70
410.26	395.55
410.45	348.74
410.64	351.08
410.83	383.85
411.02	320.65
411.21	379.17
411.40	362.78
411.59	407.25
411.78	393.21
411.98	404.91
412.17	416.62
412.36	379.17
412.55	379.17
412.74	393.21
412.93	468.11
413.12	416.62
413.31	440.02
413.50	409.59
413.69	437.68
413.88	458.74
414.07	388.53
414.26	418.96
414.45	400.23
414.64	407.25
414.83	454.06
415.02	411.93
415.22	409.59
415.41	423.64
415.60	447.04
415.79	404.91
415.98	404.91
416.17	365.12
416.36	444.70
416.55	367.46
416.74	369.80
416.93	433.00
417.12	414.27
417.31	486.83
417.50	423.64
417.69	482.15
417.88	390.87
418.07	388.53
418.26	367.46
418.45	322.99
418.64	461.09
418.83	351.08
419.02	414.27
419.21	388.53
419.39	362.78
419.58	404.91
419.77	351.08
419.96	376.83
420.15	470.45
420.34	388.53
420.53	496.19
420.72	468.11
420.91	421.30
421.10	416.62
421.29	367.46
421.48	435.34
421.67	407.25
421.86	390.87
422.05	447.04
422.24	365.12
422.43	416.62
422.61	390.87
422.80	421.30
422.99	414.27
423.18	372.15
423.37	428.32
423.56	444.70
423.75	390.87
423.94	383.85
424.13	456.40
424.32	372.15
424.50	400.23
424.69	433.00
424.88	458.74
425.07	447.04
425.26	435.34
425.45	454.06
425.64	346.40
425.83	386.19
426.01	456.40
426.20	393.21
426.39	421.30
426.58	425.98
426.77	409.59
426.96	442.36
427.15	496.19
427.33	418.96
427.52	472.79
427.71	353.42
427.90	395.55
428.09	425.98
428.28	449.38
428.46	395.55
428.65	362.78
428.84	407.25
429.03	425.98
429.22	472.79
429.40	423.64
429.59	409.59
429.78	482.15
429.97	472.79
430.16	435.34
430.34	397.89
430.53	411.93
430.72	400.23
430.91	442.36
431.10	313.63
431.28	397.89
431.47	458.74
431.66	458.74
431.85	355.76
432.03	383.85
432.22	458.74
432.41	402.57
432.60	362.78
432.79	362.78
432.97	369.80
433.16	407.25
433.35	400.23
433.54	353.42
433.72	360.44
433.91	409.59
434.10	411.93
434.28	482.15
434.47	386.19
434.66	372.15
434.85	456.40
435.03	491.51
435.22	440.02
435.41	540.66
435.59	430.66
435.78	411.93
435.97	416.62
436.16	421.30
436.34	454.06
436.53	449.38
436.72	367.46
436.90	411.93
437.09	390.87
437.28	442.36
437.46	444.70
437.65	402.57
437.84	468.11
438.02	383.85
438.21	369.80
438.40	381.51
438.58	313.63
438.77	322.99
438.96	372.15
439.14	486.83
439.33	517.26
439.52	493.85
439.70	386.19
439.89	442.36
440.08	425.98
440.26	479.81
440.45	418.96
440.63	369.80
440.82	339.38
441.01	454.06
441.19	400.23
441.38	325.33
441.57	397.89
441.75	411.93
441.94	383.85
442.12	465.77
442.31	449.38
442.50	461.09
442.68	351.08
442.87	468.11
443.05	397.89
443.24	395.55
443.43	374.49
443.61	423.64
443.80	411.93
443.98	486.83
444.17	468.11
444.35	451.72
444.54	416.62
444.73	433.00
444.91	493.85
445.10	372.15
445.28	463.43
445.47	435.34
445.65	444.70
445.84	355.76
446.02	355.76
446.21	369.80
446.39	409.59
446.58	458.74
446.77	451.72
446.95	404.91
447.14	404.91
447.32	402.57
447.51	379.17
447.69	418.96
447.88	442.36
448.06	472.79
448.25	395.55
448.43	437.68
448.62	440.02
448.80	451.72
448.99	463.43
449.17	388.53
449.36	402.57
449.54	423.64
449.73	423.64
449.91	435.34
450.10	491.51
450.28	414.27
450.46	451.72
450.65	437.68
450.83	416.62
451.02	409.59
451.20	421.30
451.39	372.15
451.57	414.27
451.76	435.34
451.94	379.17
452.13	386.19
452.31	395.55
452.49	365.12
452.68	409.59
452.86	435.34
453.05	498.53
453.23	451.72
453.42	388.53
453.60	447.04
453.78	397.89
453.97	386.19
454.15	498.53
454.34	374.49
454.52	411.93
454.70	393.21
454.89	447.04
455.07	425.98
455.26	486.83
455.44	425.98
455.62	421.30
455.81	416.62
455.99	433.00
456.17	449.38
456.36	447.04
456.54	344.06
456.73	372.15
456.91	355.76
457.09	341.72
457.28	437.68
457.46	435.34
457.64	372.15
457.83	416.62
458.01	456.40
458.19	404.91
458.38	414.27
458.56	461.09
458.74	444.70
458.93	411.93
459.11	388.53
459.29	407.25
459.48	430.66
459.66	449.38
459.84	390.87
460.03	400.23
460.21	374.49
460.39	425.98
460.57	362.78
460.76	451.72
460.94	437.68
461.12	411.93
461.31	421.30
461.49	369.80
461.67	430.66
461.85	456.40
462.04	393.21
462.22	760.67
462.40	479.81
462.59	470.45
462.77	449.38
462.95	440.02
463.13	390.87
463.32	395.55
463.50	433.00
463.68	365.12
463.86	395.55
464.05	447.04
464.23	411.93
464.41	411.93
464.59	362.78
464.78	379.17
464.96	447.04
465.14	348.74
465.32	477.47
465.50	447.04
465.69	395.55
465.87	388.53
466.05	463.43
466.23	337.04
466.41	402.57
466.60	442.36
466.78	493.85
466.96	463.43
467.14	383.85
467.32	407.25
467.51	400.23
467.69	435.34
467.87	404.91
468.05	404.91
468.23	442.36
468.41	435.34
468.60	372.15
468.78	418.96
468.96	507.90
469.14	486.83
469.32	388.53
469.50	393.21
469.69	344.06
469.87	435.34
470.05	425.98
470.23	454.06
470.41	428.32
470.59	369.80
470.77	430.66
470.95	414.27
471.14	491.51
471.32	388.53
471.50	411.93
471.68	435.34
471.86	425.98
472.04	447.04
472.22	346.40
472.40	447.04
472.58	355.76
472.77	433.00
472.95	374.49
473.13	435.34
473.31	437.68
473.49	411.93
473.67	362.78
473.85	454.06
474.03	351.08
474.21	407.25
474.39	493.85
474.57	367.46
474.75	379.17
474.93	444.70
475.12	409.59
475.30	402.57
475.48	435.34
475.66	390.87
475.84	409.59
476.02	416.62
476.20	442.36
476.38	404.91
476.56	411.93
476.74	465.77
476.92	313.63
477.10	447.04
477.28	421.30
477.46	409.59
477.64	435.34
477.82	348.74
478.00	449.38
478.18	449.38
478.36	409.59
478.54	383.85
478.72	365.12
478.90	383.85
479.08	435.34
479.26	430.66
479.44	407.25
479.62	416.62
479.80	423.64
479.98	379.17
480.16	404.91
480.34	374.49
480.52	388.53
480.70	393.21
480.88	435.34
481.06	372.15
481.24	416.62
481.41	409.59
481.59	414.27
481.77	440.02
481.95	341.72
482.13	421.30
482.31	397.89
482.49	369.80
482.67	475.13
482.85	451.72
483.03	468.11
483.21	470.45
483.39	374.49
483.57	358.10
483.74	423.64
483.92	402.57
484.10	388.53
484.28	414.27
484.46	409.59
484.64	393.21
484.82	440.02
485.00	372.15
485.18	379.17
485.35	425.98
485.53	397.89
485.71	411.93
485.89	372.15
486.07	440.02
486.25	423.64
486.43	461.09
486.61	411.93
486.78	376.83
486.96	418.96
487.14	400.23
487.32	393.21
487.50	362.78
487.68	470.45
487.85	416.62
488.03	449.38
488.21	416.62
488.39	383.85
488.57	362.78
488.75	346.40
488.92	512.58
489.10	414.27
489.28	461.09
489.46	388.53
489.64	442.36
489.81	365.12
489.99	393.21
490.17	447.04
490.35	395.55
490.53	365.12
490.70	367.46
490.88	440.02
491.06	414.27
491.24	428.32
491.41	416.62
491.59	348.74
491.77	409.59
491.95	423.64
492.13	411.93
492.30	409.59
492.48	433.00
492.66	440.02
492.84	372.15
493.01	463.43
493.19	327.68
493.37	418.96
493.54	400.23
493.72	437.68
493.90	369.80
494.08	411.93
494.25	393.21
494.43	388.53
494.61	414.27
494.79	407.25
494.96	390.87
495.14	404.91
495.32	411.93
495.49	409.59
495.67	332.36
495.85	381.51
496.02	388.53
496.20	369.80
496.38	372.15
496.55	425.98
496.73	512.58
496.91	404.91
497.09	449.38
497.26	376.83
497.44	482.15
497.62	430.66
497.79	433.00
497.97	376.83
498.14	442.36
498.32	440.02
498.50	479.81
498.67	430.66
498.85	353.42
499.03	437.68
499.20	400.23
499.38	395.55
499.56	351.08
499.73	435.34
499.91	454.06
500.08	456.40
500.26	404.91
500.44	402.57
500.61	402.57
500.79	362.78
500.97	411.93
501.14	447.04
501.32	418.96
501.49	454.06
501.67	409.59
501.84	423.64
502.02	456.40
502.20	430.66
502.37	435.34
502.55	440.02
502.72	290.23
502.90	414.27
503.07	456.40
503.25	409.59
503.43	386.19
503.60	388.53
503.78	369.80
503.95	383.85
504.13	355.76
504.30	409.59
504.48	400.23
504.65	456.40
504.83	496.19
505.01	400.23
505.18	430.66
505.36	421.30
505.53	404.91
505.71	447.04
505.88	458.74
506.06	386.19
506.23	472.79
506.41	430.66
506.58	400.23
506.76	407.25
506.93	397.89
507.11	404.91
507.28	411.93
507.46	414.27
507.63	514.92
507.81	437.68
507.98	430.66
508.16	414.27
508.33	416.62
508.50	400.23
508.68	470.45
508.85	362.78
509.03	524.28
509.20	388.53
509.38	404.91
509.55	411.93
509.73	461.09
509.90	416.62
510.08	365.12
510.25	465.77
510.42	402.57
510.60	477.47
510.77	456.40
510.95	479.81
511.12	381.51
511.30	461.09
511.47	390.87
511.64	430.66
511.82	381.51
511.99	411.93
512.17	468.11
512.34	454.06
512.51	475.13
512.69	442.36
512.86	461.09
513.04	407.25
513.21	407.25
513.38	430.66
513.56	433.00
513.73	376.83
513.90	414.27
514.08	355.76
514.25	433.00
514.43	482.15
514.60	423.64
514.77	402.57
514.95	322.99
515.12	383.85
515.29	444.70
515.47	458.74
515.64	407.25
515.81	351.08
515.99	458.74
516.16	423.64
516.33	456.40
516.51	421.30
516.68	381.51
516.85	353.42
517.03	407.25
517.20	421.30
517.37	383.85
517.54	395.55
517.72	395.55
517.89	425.98
518.06	472.79
518.24	409.59
518.41	430.66
518.58	433.00
518.75	409.59
518.93	437.68
519.10	449.38
519.27	393.21
519.45	400.23
519.62	369.80
519.79	470.45
519.96	404.91
520.14	416.62
520.31	451.72
520.48	369.80
520.65	482.15
520.83	447.04
521.00	416.62
521.17	414.27
521.34	433.00
521.52	458.74
521.69	461.09
521.86	451.72
522.03	447.04
522.20	430.66
522.38	433.00
522.55	386.19
522.72	435.34
522.89	430.66
523.07	397.89
523.24	397.89
523.41	353.42
523.58	423.64
523.75	512.58
523.92	451.72
524.10	442.36
524.27	395.55
524.44	461.09
524.61	449.38
524.78	449.38
524.96	409.59
525.13	367.46
525.30	414.27
525.47	463.43
525.64	449.38
525.81	395.55
525.98	402.57
526.16	414.27
526.33	393.21
526.50	390.87
526.67	442.36
526.84	409.59
527.01	447.04
527.18	376.83
527.36	393.21
527.53	395.55
527.70	404.91
527.87	418.96
528.04	433.00
528.21	402.57
528.38	440.02
528.55	381.51
528.72	414.27
528.89	425.98
529.07	423.64
529.24	442.36
529.41	479.81
529.58	362.78
529.75	458.74
529.92	451.72
530.09	428.32
530.26	470.45
530.43	421.30
530.60	435.34
530.77	437.68
530.94	421.30
531.11	397.89
531.28	435.34
531.46	456.40
531.63	428.32
531.80	421.30
531.97	404.91
532.14	454.06
532.31	393.21
532.48	500.87
532.65	407.25
532.82	372.15
532.99	428.32
533.16	451.72
533.33	418.96
533.50	449.38
533.67	468.11
533.84	388.53
534.01	334.70
534.18	372.15
534.35	386.19
534.52	376.83
534.69	411.93
534.86	404.91
535.03	407.25
535.20	337.04
535.37	425.98
535.54	421.30
535.71	362.78
535.88	444.70
536.05	418.96
536.22	454.06
536.38	411.93
536.55	484.49
536.72	463.43
536.89	400.23
537.06	414.27
537.23	397.89
537.40	407.25
537.57	395.55
537.74	425.98
537.91	430.66
538.08	421.30
538.25	414.27
538.42	365.12
538.59	458.74
538.75	353.42
538.92	414.27
539.09	435.34
539.26	423.64
539.43	409.59
539.60	475.13
539.77	388.53
539.94	386.19
540.11	379.17
540.28	454.06
540.44	388.53
540.61	362.78
540.78	418.96
540.95	451.72
541.12	461.09
541.29	346.40
541.46	486.83
541.62	444.70
541.79	489.17
541.96	397.89
542.13	458.74
542.30	418.96
542.47	435.34
542.63	404.91
542.80	388.53
542.97	365.12
543.14	402.57
543.31	421.30
543.48	404.91
543.64	463.43
543.81	430.66
543.98	318.31
544.15	463.43
544.32	451.72
544.48	442.36
544.65	444.70
544.82	400.23
544.99	397.89
545.16	465.77
545.32	388.53
545.49	437.68
545.66	376.83
545.83	379.17
546.00	425.98
546.16	400.23
546.33	400.23
546.50	440.02
546.67	470.45
546.83	505.56
547.00	395.55
547.17	416.62
547.34	468.11
547.50	461.09
547.67	351.08
547.84	404.91
548.00	425.98
548.17	449.38
548.34	362.78
548.51	472.79
548.67	369.80
548.84	404.91
549.01	402.57
549.18	444.70
549.34	456.40
549.51	463.43
549.68	440.02
549.84	388.53
550.01	454.06
550.18	491.51
550.34	521.94
550.51	393.21
550.68	454.06
550.84	430.66
551.01	475.13
551.18	430.66
551.34	402.57
551.51	402.57
551.68	437.68
551.84	400.23
552.01	475.13
552.18	372.15
552.34	407.25
552.51	463.43
552.68	479.81
552.84	463.43
553.01	442.36
553.18	423.64
553.34	372.15
553.51	414.27
553.67	381.51
553.84	503.22
554.01	433.00
554.17	531.30
554.34	402.57
554.51	369.80
554.67	383.85
554.84	454.06
555.00	475.13
555.17	458.74
555.33	440.02
555.50	444.70
555.67	414.27
555.83	365.12
556.00	421.30
556.16	521.94
556.33	475.13
556.50	430.66
556.66	454.06
556.83	470.45
556.99	461.09
557.16	409.59
557.32	451.72
557.49	430.66
557.65	379.17
557.82	421.30
557.98	440.02
558.15	306.61
558.32	397.89
558.48	477.47
558.65	409.59
558.81	414.27
558.98	421.30
559.14	451.72
559.31	428.32
559.47	416.62
559.64	425.98
559.80	400.23
559.97	477.47
560.13	444.70
560.30	470.45
560.46	404.91
560.63	409.59
560.79	435.34
560.96	409.59
561.12	454.06
561.29	447.04
561.45	433.00
561.61	411.93
561.78	475.13
561.94	454.06
562.11	447.04
562.27	383.85
562.44	458.74
562.60	430.66
562.77	451.72
562.93	461.09
563.10	416.62
563.26	390.87
563.42	442.36
563.59	409.59
563.75	430.66
563.92	423.64
564.08	437.68
564.24	456.40
564.41	512.58
564.57	425.98
564.74	334.70
564.90	461.09
565.07	388.53
565.23	383.85
565.39	400.23
565.56	442.36
565.72	397.89
565.88	428.32
566.05	339.38
566.21	444.70
566.38	365.12
566.54	451.72
566.70	477.47
566.87	355.76
567.03	414.27
567.19	425.98
567.36	383.85
567.52	425.98
567.68	451.72
567.85	451.72
568.01	358.10
568.17	367.46
568.34	428.32
568.50	433.00
568.66	418.96
568.83	414.27
568.99	388.53
569.15	433.00
569.32	543.00
569.48	348.74
569.64	369.80
569.81	395.55
569.97	369.80
570.13	390.87
570.30	440.02
570.46	428.32
570.62	421.30
570.78	456.40
570.95	437.68
571.11	463.43
571.27	491.51
571.43	400.23
571.60	468.11
571.76	360.44
571.92	414.27
572.09	397.89
572.25	404.91
572.41	447.04
572.57	379.17
572.74	433.00
572.90	454.06
573.06	463.43
573.22	482.15
573.38	451.72
573.55	397.89
573.71	437.68
573.87	397.89
574.03	472.79
574.20	447.04
574.36	390.87
574.52	390.87
574.68	386.19
574.84	428.32
575.01	416.62
575.17	425.98
575.33	379.17
575.49	388.53
575.65	433.00
575.82	550.03
575.98	507.90
576.14	409.59
576.30	421.30
576.46	423.64
576.62	355.76
576.79	390.87
576.95	470.45
577.11	372.15
577.27	372.15
577.43	402.57
577.59	372.15
577.75	386.19
577.92	348.74
578.08	404.91
578.24	285.55
578.40	479.81
578.56	362.78
578.72	440.02
578.88	351.08
579.04	451.72
579.21	409.59
579.37	503.22
579.53	402.57
579.69	337.04
579.85	353.42
580.01	383.85
580.17	379.17
580.33	505.56
580.49	395.55
580.65	362.78
580.82	383.85
580.98	397.89
581.14	421.30
581.30	383.85
581.46	418.96
581.62	463.43
581.78	423.64
581.94	435.34
582.10	423.64
582.26	369.80
582.42	463.43
582.58	456.40
582.74	388.53
582.90	454.06
583.06	414.27
583.22	416.62
583.38	369.80
583.54	458.74
583.70	407.25
583.86	435.34
584.02	369.80
584.18	475.13
584.34	381.51
584.50	444.70
584.66	437.68
584.82	409.59
584.98	400.23
585.14	444.70
585.30	435.34
585.46	421.30
585.62	393.21
585.78	416.62
585.94	425.98
586.10	421.30
586.26	409.59
586.42	351.08
586.58	538.32
586.74	411.93
586.90	404.91
587.06	386.19
587.22	512.58
587.38	430.66
587.54	393.21
587.70	360.44
587.86	465.77
588.02	351.08
588.18	390.87
588.34	355.76
588.49	318.31
588.65	430.66
588.81	407.25
588.97	416.62
589.13	440.02
589.29	472.79
589.45	433.00
589.61	444.70
589.77	423.64
589.93	425.98
590.08	444.70
590.24	477.47
590.40	414.27
590.56	400.23
590.72	404.91
590.88	475.13
591.04	435.34
591.20	428.32
591.35	482.15
591.51	374.49
591.67	479.81
591.83	440.02
591.99	362.78
592.15	477.47
592.31	489.17
592.46	444.70
592.62	496.19
592.78	365.12
592.94	456.40
593.10	358.10
593.26	355.76
593.41	423.64
593.57	414.27
593.73	404.91
593.89	374.49
594.05	327.68
594.20	367.46
594.36	404.91
594.52	447.04
594.68	468.11
594.84	435.34
594.99	435.34
595.15	468.11
595.31	367.46
595.47	386.19
595.62	418.96
595.78	404.91
595.94	393.21
596.10	458.74
596.25	444.70
596.41	472.79
596.57	416.62
596.73	425.98
596.88	470.45
597.04	421.30
597.20	400.23
597.36	428.32
597.51	421.30
597.67	451.72
597.83	397.89
597.99	486.83
598.14	416.62
598.30	409.59
598.46	407.25
598.61	430.66
598.77	351.08
598.93	421.30
599.09	395.55
599.24	444.70
599.40	421.30
599.56	376.83
599.71	395.55
599.87	428.32
600.03	397.89
600.18	407.25
600.34	369.80
600.50	393.21
600.65	400.23
600.81	395.55
600.97	423.64
601.12	376.83
601.28	531.30
601.44	465.77
601.59	383.85
601.75	430.66
601.91	442.36
602.06	381.51
602.22	526.62
602.37	428.32
602.53	435.34
602.69	465.77
602.84	430.66
603.00	428.32
603.16	423.64
603.31	421.30
603.47	447.04
603.62	430.66
603.78	411.93
603.94	397.89
604.09	386.19
604.25	470.45
604.40	437.68
604.56	400.23
604.71	397.89
604.87	418.96
605.03	435.34
605.18	458.74
605.34	421.30
605.49	447.04
605.65	421.30
605.80	304.27
605.96	475.13
606.12	362.78
606.27	411.93
606.43	416.62
606.58	447.04
606.74	435.34
606.89	404.91
607.05	468.11
607.20	402.57
607.36	442.36
607.51	470.45
607.67	465.77
607.82	390.87
607.98	388.53
608.13	383.85
608.29	458.74
608.44	397.89
608.60	421.30
608.75	402.57
608.91	461.09
609.06	351.08
609.22	397.89
609.37	411.93
609.53	442.36
609.68	437.68
609.84	423.64
609.99	409.59
610.15	465.77
