SpectraSuite Data File
++++++++++++++++++++++++++++++++++++
Date: Fri Oct 25 12:11:30 EDT 2013
User: price-jones
Dark Spectrum Present: No
Reference Spectrum Present: No
Number of Sampled Component Spectra: 1
Spectrometers: USB2+H05261
Integration Time (usec): 100000 (USB2+H05261)
Spectra Averaged: 1 (USB2+H05261)
Boxcar Smoothing: 0 (USB2+H05261)
Correct for Electrical Dark: No (USB2+H05261)
Strobe/Lamp Enabled: No (USB2+H05261)
Correct for Detector Non-linearity: No (USB2+H05261)
Correct for Stray Light: No (USB2+H05261)
Number of Pixels in Processed Spectrum: 2048
>>>>>Begin Processed Spectral Data<<<<<
365.73	351.08
365.92	351.08
366.12	351.08
366.32	320.65
366.52	262.14
366.72	351.08
366.91	227.03
367.11	231.71
367.31	234.05
367.51	287.89
367.70	222.35
367.90	222.35
368.10	224.69
368.30	255.12
368.49	259.80
368.69	229.37
368.89	154.48
369.09	255.12
369.28	269.16
369.48	269.16
369.68	355.76
369.87	355.76
370.07	348.74
370.27	355.76
370.47	332.36
370.66	306.61
370.86	322.99
371.06	332.36
371.25	402.57
371.45	369.80
371.65	414.27
371.84	344.06
372.04	332.36
372.24	374.49
372.44	372.15
372.63	435.34
372.83	404.91
373.03	367.46
373.22	409.59
373.42	390.87
373.62	395.55
373.81	388.53
374.01	456.40
374.21	435.34
374.40	400.23
374.60	393.21
374.79	404.91
374.99	395.55
375.19	341.72
375.38	395.55
375.58	348.74
375.78	489.17
375.97	362.78
376.17	463.43
376.37	376.83
376.56	468.11
376.76	409.59
376.95	402.57
377.15	376.83
377.35	442.36
377.54	402.57
377.74	273.84
377.93	402.57
378.13	435.34
378.33	433.00
378.52	344.06
378.72	393.21
378.91	430.66
379.11	381.51
379.31	365.12
379.50	442.36
379.70	451.72
379.89	428.32
380.09	404.91
380.28	416.62
380.48	393.21
380.68	353.42
380.87	411.93
381.07	442.36
381.26	395.55
381.46	430.66
381.65	400.23
381.85	414.27
382.04	430.66
382.24	409.59
382.43	355.76
382.63	344.06
382.83	374.49
383.02	358.10
383.22	433.00
383.41	428.32
383.61	416.62
383.80	491.51
384.00	376.83
384.19	442.36
384.39	475.13
384.58	395.55
384.78	468.11
384.97	423.64
385.17	374.49
385.36	463.43
385.56	334.70
385.75	414.27
385.95	381.51
386.14	421.30
386.34	393.21
386.53	388.53
386.72	442.36
386.92	442.36
387.11	397.89
387.31	390.87
387.50	393.21
387.70	322.99
387.89	404.91
388.09	435.34
388.28	430.66
388.48	332.36
388.67	447.04
388.86	388.53
389.06	358.10
389.25	397.89
389.45	358.10
389.64	421.30
389.84	449.38
390.03	409.59
390.22	454.06
390.42	440.02
390.61	400.23
390.81	344.06
391.00	430.66
391.19	465.77
391.39	449.38
391.58	479.81
391.78	374.49
391.97	409.59
392.16	402.57
392.36	444.70
392.55	416.62
392.75	383.85
392.94	400.23
393.13	416.62
393.33	425.98
393.52	409.59
393.71	437.68
393.91	442.36
394.10	407.25
394.29	390.87
394.49	437.68
394.68	395.55
394.88	407.25
395.07	390.87
395.26	458.74
395.46	468.11
395.65	397.89
395.84	442.36
396.04	414.27
396.23	440.02
396.42	447.04
396.62	435.34
396.81	433.00
397.00	339.38
397.19	400.23
397.39	386.19
397.58	433.00
397.77	425.98
397.97	409.59
398.16	461.09
398.35	411.93
398.55	374.49
398.74	444.70
398.93	430.66
399.12	428.32
399.32	437.68
399.51	367.46
399.70	456.40
399.90	407.25
400.09	386.19
400.28	407.25
400.47	430.66
400.67	409.59
400.86	294.91
401.05	397.89
401.24	465.77
401.44	463.43
401.63	402.57
401.82	491.51
402.01	397.89
402.21	486.83
402.40	440.02
402.59	458.74
402.78	463.43
402.97	435.34
403.17	362.78
403.36	383.85
403.55	435.34
403.74	390.87
403.93	334.70
404.13	451.72
404.32	404.91
404.51	414.27
404.70	442.36
404.89	339.38
405.09	418.96
405.28	465.77
405.47	442.36
405.66	456.40
405.85	395.55
406.05	397.89
406.24	451.72
406.43	393.21
406.62	435.34
406.81	451.72
407.00	456.40
407.20	461.09
407.39	400.23
407.58	409.59
407.77	411.93
407.96	416.62
408.15	425.98
408.34	451.72
408.54	425.98
408.73	379.17
408.92	393.21
409.11	491.51
409.30	423.64
409.49	362.78
409.68	428.32
409.87	365.12
410.07	465.77
410.26	400.23
410.45	362.78
410.64	421.30
410.83	393.21
411.02	367.46
411.21	362.78
411.40	397.89
411.59	411.93
411.78	379.17
411.98	381.51
412.17	414.27
412.36	390.87
412.55	393.21
412.74	379.17
412.93	442.36
413.12	423.64
413.31	374.49
413.50	390.87
413.69	442.36
413.88	449.38
414.07	444.70
414.26	337.04
414.45	428.32
414.64	440.02
414.83	442.36
415.02	386.19
415.22	362.78
415.41	477.47
415.60	449.38
415.79	402.57
415.98	395.55
416.17	383.85
416.36	433.00
416.55	414.27
416.74	388.53
416.93	421.30
417.12	437.68
417.31	327.68
417.50	416.62
417.69	367.46
417.88	397.89
418.07	390.87
418.26	447.04
418.45	423.64
418.64	470.45
418.83	386.19
419.02	348.74
419.21	433.00
419.39	463.43
419.58	433.00
419.77	374.49
419.96	414.27
420.15	454.06
420.34	425.98
420.53	507.90
420.72	458.74
420.91	423.64
421.10	407.25
421.29	437.68
421.48	414.27
421.67	407.25
421.86	433.00
422.05	400.23
422.24	344.06
422.43	365.12
422.61	411.93
422.80	376.83
422.99	461.09
423.18	421.30
423.37	414.27
423.56	442.36
423.75	414.27
423.94	447.04
424.13	411.93
424.32	346.40
424.50	421.30
424.69	468.11
424.88	461.09
425.07	442.36
425.26	353.42
425.45	402.57
425.64	351.08
425.83	456.40
426.01	472.79
426.20	397.89
426.39	433.00
426.58	444.70
426.77	451.72
426.96	442.36
427.15	404.91
427.33	372.15
427.52	358.10
427.71	390.87
427.90	465.77
428.09	440.02
428.28	372.15
428.46	437.68
428.65	421.30
428.84	397.89
429.03	435.34
429.22	470.45
429.40	355.76
429.59	404.91
429.78	411.93
429.97	388.53
430.16	365.12
430.34	416.62
430.53	353.42
430.72	414.27
430.91	402.57
431.10	299.59
431.28	395.55
431.47	444.70
431.66	407.25
431.85	418.96
432.03	348.74
432.22	435.34
432.41	423.64
432.60	393.21
432.79	433.00
432.97	451.72
433.16	440.02
433.35	318.31
433.54	435.34
433.72	496.19
433.91	423.64
434.10	428.32
434.28	428.32
434.47	402.57
434.66	456.40
434.85	365.12
435.03	402.57
435.22	418.96
435.41	454.06
435.59	425.98
435.78	479.81
435.97	358.10
436.16	365.12
436.34	390.87
436.53	372.15
436.72	486.83
436.90	409.59
437.09	423.64
437.28	362.78
437.46	430.66
437.65	430.66
437.84	388.53
438.02	440.02
438.21	411.93
438.40	484.49
438.58	407.25
438.77	416.62
438.96	397.89
439.14	395.55
439.33	390.87
439.52	444.70
439.70	400.23
439.89	404.91
440.08	407.25
440.26	440.02
440.45	454.06
440.63	486.83
440.82	475.13
441.01	428.32
441.19	353.42
441.38	404.91
441.57	451.72
441.75	395.55
441.94	510.24
442.12	341.72
442.31	423.64
442.50	463.43
442.68	437.68
442.87	388.53
443.05	402.57
443.24	390.87
443.43	402.57
443.61	358.10
443.80	414.27
443.98	425.98
444.17	386.19
444.35	376.83
444.54	458.74
444.73	465.77
444.91	404.91
445.10	418.96
445.28	404.91
445.47	362.78
445.65	477.47
445.84	430.66
446.02	442.36
446.21	437.68
446.39	428.32
446.58	463.43
446.77	421.30
446.95	423.64
447.14	491.51
447.32	402.57
447.51	425.98
447.69	407.25
447.88	433.00
448.06	470.45
448.25	409.59
448.43	400.23
448.62	428.32
448.80	411.93
448.99	425.98
449.17	397.89
449.36	390.87
449.54	423.64
449.73	358.10
449.91	383.85
450.10	486.83
450.28	498.53
450.46	374.49
450.65	428.32
450.83	468.11
451.02	423.64
451.20	409.59
451.39	402.57
451.57	435.34
451.76	444.70
451.94	437.68
452.13	369.80
452.31	442.36
452.49	365.12
452.68	442.36
452.86	444.70
453.05	409.59
453.23	407.25
453.42	414.27
453.60	369.80
453.78	423.64
453.97	353.42
454.15	306.61
454.34	339.38
454.52	411.93
454.70	486.83
454.89	416.62
455.07	390.87
455.26	442.36
455.44	468.11
455.62	402.57
455.81	397.89
455.99	418.96
456.17	454.06
456.36	444.70
456.54	477.47
456.73	463.43
456.91	418.96
457.09	423.64
457.28	430.66
457.46	437.68
457.64	503.22
457.83	442.36
458.01	423.64
458.19	447.04
458.38	437.68
458.56	358.10
458.74	404.91
458.93	379.17
459.11	381.51
459.29	376.83
459.48	423.64
459.66	433.00
459.84	447.04
460.03	463.43
460.21	468.11
460.39	360.44
460.57	456.40
460.76	376.83
460.94	418.96
461.12	390.87
461.31	447.04
461.49	423.64
461.67	428.32
461.85	390.87
462.04	456.40
462.22	786.42
462.40	442.36
462.59	397.89
462.77	465.77
462.95	411.93
463.13	428.32
463.32	489.17
463.50	383.85
463.68	416.62
463.86	456.40
464.05	381.51
464.23	442.36
464.41	404.91
464.59	393.21
464.78	461.09
464.96	458.74
465.14	470.45
465.32	465.77
465.50	472.79
465.69	386.19
465.87	355.76
466.05	395.55
466.23	421.30
466.41	402.57
466.60	379.17
466.78	458.74
466.96	425.98
467.14	428.32
467.32	503.22
467.51	465.77
467.69	414.27
467.87	447.04
468.05	477.47
468.23	486.83
468.41	440.02
468.60	416.62
468.78	395.55
468.96	433.00
469.14	386.19
469.32	423.64
469.50	430.66
469.69	423.64
469.87	411.93
470.05	414.27
470.23	486.83
470.41	430.66
470.59	449.38
470.77	376.83
470.95	435.34
471.14	418.96
471.32	437.68
471.50	388.53
471.68	409.59
471.86	433.00
472.04	442.36
472.22	313.63
472.40	407.25
472.58	479.81
472.77	400.23
472.95	360.44
473.13	500.87
473.31	407.25
473.49	447.04
473.67	418.96
473.85	433.00
474.03	409.59
474.21	423.64
474.39	414.27
474.57	411.93
474.75	418.96
474.93	414.27
475.12	346.40
475.30	386.19
475.48	463.43
475.66	451.72
475.84	463.43
476.02	339.38
476.20	442.36
476.38	320.65
476.56	477.47
476.74	435.34
476.92	484.49
477.10	433.00
477.28	360.44
477.46	442.36
477.64	437.68
477.82	411.93
478.00	388.53
478.18	418.96
478.36	435.34
478.54	430.66
478.72	407.25
478.90	390.87
479.08	414.27
479.26	402.57
479.44	430.66
479.62	433.00
479.80	390.87
479.98	449.38
480.16	428.32
480.34	402.57
480.52	372.15
480.70	498.53
480.88	414.27
481.06	440.02
481.24	390.87
481.41	423.64
481.59	374.49
481.77	454.06
481.95	393.21
482.13	440.02
482.31	421.30
482.49	479.81
482.67	402.57
482.85	407.25
483.03	395.55
483.21	482.15
483.39	440.02
483.57	468.11
483.74	416.62
483.92	358.10
484.10	374.49
484.28	430.66
484.46	411.93
484.64	386.19
484.82	444.70
485.00	311.29
485.18	465.77
485.35	430.66
485.53	409.59
485.71	400.23
485.89	437.68
486.07	463.43
486.25	447.04
486.43	402.57
486.61	458.74
486.78	442.36
486.96	440.02
487.14	404.91
487.32	428.32
487.50	416.62
487.68	423.64
487.85	423.64
488.03	447.04
488.21	416.62
488.39	440.02
488.57	454.06
488.75	430.66
488.92	493.85
489.10	435.34
489.28	397.89
489.46	383.85
489.64	383.85
489.81	346.40
489.99	425.98
490.17	447.04
490.35	402.57
490.53	454.06
490.70	374.49
490.88	407.25
491.06	435.34
491.24	367.46
491.41	397.89
491.59	442.36
491.77	449.38
491.95	397.89
492.13	465.77
492.30	411.93
492.48	449.38
492.66	374.49
492.84	374.49
493.01	421.30
493.19	416.62
493.37	430.66
493.54	334.70
493.72	351.08
493.90	477.47
494.08	388.53
494.25	514.92
494.43	411.93
494.61	348.74
494.79	376.83
494.96	400.23
495.14	430.66
495.32	379.17
495.49	397.89
495.67	425.98
495.85	374.49
496.02	365.12
496.20	400.23
496.38	454.06
496.55	369.80
496.73	383.85
496.91	351.08
497.09	404.91
497.26	461.09
497.44	425.98
497.62	397.89
497.79	465.77
497.97	414.27
498.14	428.32
498.32	365.12
498.50	468.11
498.67	435.34
498.85	390.87
499.03	376.83
499.20	447.04
499.38	414.27
499.56	383.85
499.73	418.96
499.91	390.87
500.08	493.85
500.26	456.40
500.44	379.17
500.61	468.11
500.79	409.59
500.97	372.15
501.14	456.40
501.32	379.17
501.49	454.06
501.67	397.89
501.84	381.51
502.02	339.38
502.20	456.40
502.37	402.57
502.55	461.09
502.72	360.44
502.90	390.87
503.07	395.55
503.25	400.23
503.43	418.96
503.60	454.06
503.78	449.38
503.95	458.74
504.13	374.49
504.30	386.19
504.48	414.27
504.65	503.22
504.83	486.83
505.01	390.87
505.18	390.87
505.36	393.21
505.53	491.51
505.71	468.11
505.88	442.36
506.06	365.12
506.23	444.70
506.41	430.66
506.58	444.70
506.76	407.25
506.93	379.17
507.11	423.64
507.28	407.25
507.46	367.46
507.63	374.49
507.81	447.04
507.98	421.30
508.16	421.30
508.33	428.32
508.50	484.49
508.68	463.43
508.85	416.62
509.03	400.23
509.20	376.83
509.38	381.51
509.55	449.38
509.73	418.96
509.90	463.43
510.08	428.32
510.25	393.21
510.42	435.34
510.60	390.87
510.77	416.62
510.95	418.96
511.12	482.15
511.30	397.89
511.47	416.62
511.64	454.06
511.82	402.57
511.99	479.81
512.17	400.23
512.34	437.68
512.51	369.80
512.69	435.34
512.86	463.43
513.04	395.55
513.21	400.23
513.38	400.23
513.56	447.04
513.73	367.46
513.90	369.80
514.08	407.25
514.25	477.47
514.43	440.02
514.60	379.17
514.77	367.46
514.95	386.19
515.12	372.15
515.29	411.93
515.47	402.57
515.64	440.02
515.81	428.32
515.99	376.83
516.16	479.81
516.33	447.04
516.51	348.74
516.68	390.87
516.85	458.74
517.03	425.98
517.20	430.66
517.37	414.27
517.54	395.55
517.72	449.38
517.89	414.27
518.06	358.10
518.24	451.72
518.41	379.17
518.58	397.89
518.75	407.25
518.93	435.34
519.10	402.57
519.27	374.49
519.45	493.85
519.62	418.96
519.79	440.02
519.96	346.40
520.14	437.68
520.31	463.43
520.48	416.62
520.65	416.62
520.83	437.68
521.00	374.49
521.17	330.02
521.34	433.00
521.52	470.45
521.69	493.85
521.86	463.43
522.03	458.74
522.20	404.91
522.38	416.62
522.55	428.32
522.72	442.36
522.89	472.79
523.07	454.06
523.24	468.11
523.41	416.62
523.58	306.61
523.75	393.21
523.92	381.51
524.10	376.83
524.27	437.68
524.44	425.98
524.61	400.23
524.78	383.85
524.96	393.21
525.13	430.66
525.30	365.12
525.47	470.45
525.64	425.98
525.81	402.57
525.98	456.40
526.16	465.77
526.33	400.23
526.50	395.55
526.67	409.59
526.84	397.89
527.01	379.17
527.18	435.34
527.36	414.27
527.53	374.49
527.70	430.66
527.87	411.93
528.04	484.49
528.21	444.70
528.38	428.32
528.55	468.11
528.72	449.38
528.89	454.06
529.07	414.27
529.24	416.62
529.41	468.11
529.58	416.62
529.75	400.23
529.92	400.23
530.09	374.49
530.26	414.27
530.43	400.23
530.60	374.49
530.77	414.27
530.94	390.87
531.11	437.68
531.28	341.72
531.46	374.49
531.63	351.08
531.80	360.44
531.97	437.68
532.14	447.04
532.31	496.19
532.48	447.04
532.65	437.68
532.82	374.49
532.99	425.98
533.16	433.00
533.33	437.68
533.50	463.43
533.67	440.02
533.84	468.11
534.01	400.23
534.18	402.57
534.35	379.17
534.52	437.68
534.69	421.30
534.86	444.70
535.03	341.72
535.20	402.57
535.37	379.17
535.54	346.40
535.71	435.34
535.88	402.57
536.05	400.23
536.22	414.27
536.38	397.89
536.55	449.38
536.72	430.66
536.89	418.96
537.06	400.23
537.23	416.62
537.40	383.85
537.57	402.57
537.74	531.30
537.91	337.04
538.08	397.89
538.25	493.85
538.42	421.30
538.59	458.74
538.75	461.09
538.92	454.06
539.09	423.64
539.26	423.64
539.43	449.38
539.60	484.49
539.77	458.74
539.94	409.59
540.11	421.30
540.28	397.89
540.44	442.36
540.61	479.81
540.78	449.38
540.95	416.62
541.12	435.34
541.29	475.13
541.46	407.25
541.62	404.91
541.79	435.34
541.96	414.27
542.13	421.30
542.30	367.46
542.47	416.62
542.63	386.19
542.80	454.06
542.97	402.57
543.14	430.66
543.31	411.93
543.48	418.96
543.64	395.55
543.81	397.89
543.98	386.19
544.15	418.96
544.32	409.59
544.48	454.06
544.65	369.80
544.82	301.93
544.99	395.55
545.16	475.13
545.32	437.68
545.49	465.77
545.66	299.59
545.83	404.91
546.00	362.78
546.16	400.23
546.33	346.40
546.50	491.51
546.67	430.66
546.83	442.36
547.00	430.66
547.17	341.72
547.34	397.89
547.50	423.64
547.67	458.74
547.84	411.93
548.00	449.38
548.17	386.19
548.34	381.51
548.51	484.49
548.67	444.70
548.84	400.23
549.01	468.11
549.18	418.96
549.34	379.17
549.51	416.62
549.68	428.32
549.84	411.93
550.01	360.44
550.18	411.93
550.34	407.25
550.51	444.70
550.68	496.19
550.84	358.10
551.01	369.80
551.18	379.17
551.34	404.91
551.51	386.19
551.68	411.93
551.84	451.72
552.01	409.59
552.18	428.32
552.34	423.64
552.51	428.32
552.68	411.93
552.84	423.64
553.01	390.87
553.18	416.62
553.34	404.91
553.51	390.87
553.67	433.00
553.84	491.51
554.01	435.34
554.17	418.96
554.34	447.04
554.51	430.66
554.67	482.15
554.84	475.13
555.00	409.59
555.17	404.91
555.33	461.09
555.50	388.53
555.67	437.68
555.83	428.32
556.00	423.64
556.16	559.39
556.33	397.89
556.50	362.78
556.66	421.30
556.83	383.85
556.99	397.89
557.16	444.70
557.32	400.23
557.49	435.34
557.65	435.34
557.82	482.15
557.98	372.15
558.15	386.19
558.32	393.21
558.48	365.12
558.65	425.98
558.81	465.77
558.98	409.59
559.14	388.53
559.31	344.06
559.47	388.53
559.64	334.70
559.80	465.77
559.97	418.96
560.13	404.91
560.30	407.25
560.46	355.76
560.63	482.15
560.79	353.42
560.96	411.93
561.12	430.66
561.29	517.26
561.45	383.85
561.61	409.59
561.78	486.83
561.94	458.74
562.11	390.87
562.27	395.55
562.44	402.57
562.60	355.76
562.77	442.36
562.93	496.19
563.10	402.57
563.26	397.89
563.42	449.38
563.59	430.66
563.75	404.91
563.92	500.87
564.08	489.17
564.24	458.74
564.41	407.25
564.57	332.36
564.74	393.21
564.90	489.17
565.07	484.49
565.23	454.06
565.39	414.27
565.56	376.83
565.72	472.79
565.88	411.93
566.05	404.91
566.21	388.53
566.38	402.57
566.54	505.56
566.70	400.23
566.87	374.49
567.03	346.40
567.19	440.02
567.36	397.89
567.52	365.12
567.68	505.56
567.85	416.62
568.01	379.17
568.17	383.85
568.34	444.70
568.50	425.98
568.66	404.91
568.83	388.53
568.99	454.06
569.15	454.06
569.32	421.30
569.48	470.45
569.64	416.62
569.81	404.91
569.97	376.83
570.13	475.13
570.30	386.19
570.46	458.74
570.62	465.77
570.78	475.13
570.95	414.27
571.11	510.24
571.27	418.96
571.43	482.15
571.60	409.59
571.76	428.32
571.92	418.96
572.09	477.47
572.25	369.80
572.41	421.30
572.57	428.32
572.74	470.45
572.90	430.66
573.06	433.00
573.22	400.23
573.38	379.17
573.55	372.15
573.71	381.51
573.87	500.87
574.03	404.91
574.20	358.10
574.36	388.53
574.52	416.62
574.68	400.23
574.84	372.15
575.01	440.02
575.17	475.13
575.33	416.62
575.49	421.30
575.65	498.53
575.82	444.70
575.98	461.09
576.14	449.38
576.30	418.96
576.46	383.85
576.62	372.15
576.79	416.62
576.95	475.13
577.11	407.25
577.27	442.36
577.43	484.49
577.59	400.23
577.75	397.89
577.92	386.19
578.08	402.57
578.24	414.27
578.40	397.89
578.56	418.96
578.72	430.66
578.88	437.68
579.04	397.89
579.21	454.06
579.37	449.38
579.53	423.64
579.69	409.59
579.85	400.23
580.01	355.76
580.17	407.25
580.33	463.43
580.49	463.43
580.65	465.77
580.82	411.93
580.98	397.89
581.14	421.30
581.30	383.85
581.46	461.09
581.62	400.23
581.78	365.12
581.94	435.34
582.10	390.87
582.26	414.27
582.42	435.34
582.58	416.62
582.74	400.23
582.90	344.06
583.06	477.47
583.22	421.30
583.38	433.00
583.54	454.06
583.70	374.49
583.86	442.36
584.02	433.00
584.18	458.74
584.34	400.23
584.50	437.68
584.66	397.89
584.82	411.93
584.98	510.24
585.14	386.19
585.30	423.64
585.46	400.23
585.62	397.89
585.78	386.19
585.94	454.06
586.10	470.45
586.26	407.25
586.42	512.58
586.58	444.70
586.74	416.62
586.90	351.08
587.06	430.66
587.22	449.38
587.38	372.15
587.54	402.57
587.70	409.59
587.86	512.58
588.02	423.64
588.18	402.57
588.34	393.21
588.49	404.91
588.65	334.70
588.81	400.23
588.97	421.30
589.13	440.02
589.29	383.85
589.45	416.62
589.61	409.59
589.77	421.30
589.93	397.89
590.08	337.04
590.24	402.57
590.40	400.23
590.56	437.68
590.72	383.85
590.88	390.87
591.04	472.79
591.20	451.72
591.35	479.81
591.51	393.21
591.67	430.66
591.83	381.51
591.99	566.41
592.15	395.55
592.31	433.00
592.46	397.89
592.62	404.91
592.78	421.30
592.94	379.17
593.10	325.33
593.26	365.12
593.41	414.27
593.57	449.38
593.73	411.93
593.89	423.64
594.05	430.66
594.20	421.30
594.36	411.93
594.52	383.85
594.68	463.43
594.84	496.19
594.99	468.11
595.15	503.22
595.31	372.15
595.47	437.68
595.62	365.12
595.78	503.22
595.94	451.72
596.10	465.77
596.25	416.62
596.41	472.79
596.57	379.17
596.73	411.93
596.88	337.04
597.04	390.87
597.20	433.00
597.36	456.40
597.51	411.93
597.67	416.62
597.83	362.78
597.99	458.74
598.14	421.30
598.30	362.78
598.46	428.32
598.61	470.45
598.77	430.66
598.93	440.02
599.09	411.93
599.24	397.89
599.40	463.43
599.56	463.43
599.71	440.02
599.87	430.66
600.03	491.51
600.18	421.30
600.34	484.49
600.50	421.30
600.65	430.66
600.81	440.02
600.97	379.17
601.12	414.27
601.28	421.30
601.44	381.51
601.59	397.89
601.75	524.28
601.91	430.66
602.06	423.64
602.22	489.17
602.37	369.80
602.53	463.43
602.69	411.93
602.84	465.77
603.00	484.49
603.16	447.04
603.31	486.83
603.47	430.66
603.62	362.78
603.78	444.70
603.94	470.45
604.09	416.62
604.25	470.45
604.40	437.68
604.56	397.89
604.71	479.81
604.87	402.57
605.03	397.89
605.18	341.72
605.34	423.64
605.49	383.85
605.65	440.02
605.80	442.36
605.96	402.57
606.12	444.70
606.27	461.09
606.43	409.59
606.58	458.74
606.74	374.49
606.89	395.55
607.05	489.17
607.20	430.66
607.36	442.36
607.51	388.53
607.67	400.23
607.82	369.80
607.98	411.93
608.13	465.77
608.29	433.00
608.44	407.25
608.60	376.83
608.75	404.91
608.91	414.27
609.06	435.34
609.22	456.40
609.37	365.12
609.53	395.55
609.68	411.93
609.84	402.57
609.99	383.85
610.15	463.43
