SpectraSuite Data File
++++++++++++++++++++++++++++++++++++
Date: Fri Oct 25 12:10:07 EDT 2013
User: price-jones
Dark Spectrum Present: No
Reference Spectrum Present: No
Number of Sampled Component Spectra: 1
Spectrometers: USB2+H05261
Integration Time (usec): 100000 (USB2+H05261)
Spectra Averaged: 1 (USB2+H05261)
Boxcar Smoothing: 0 (USB2+H05261)
Correct for Electrical Dark: No (USB2+H05261)
Strobe/Lamp Enabled: No (USB2+H05261)
Correct for Detector Non-linearity: No (USB2+H05261)
Correct for Stray Light: No (USB2+H05261)
Number of Pixels in Processed Spectrum: 2048
>>>>>Begin Processed Spectral Data<<<<<
365.73	327.68
365.92	327.68
366.12	327.68
366.32	304.27
366.52	330.02
366.72	297.25
366.91	250.44
367.11	217.67
367.31	215.33
367.51	257.46
367.70	231.71
367.90	231.71
368.10	262.14
368.30	280.86
368.49	278.52
368.69	327.68
368.89	227.03
369.09	273.84
369.28	320.65
369.48	322.99
369.68	278.52
369.87	276.18
370.07	278.52
370.27	423.64
370.47	330.02
370.66	367.46
370.86	374.49
371.06	447.04
371.25	353.42
371.45	311.29
371.65	400.23
371.84	327.68
372.04	322.99
372.24	416.62
372.44	404.91
372.63	463.43
372.83	388.53
373.03	454.06
373.22	435.34
373.42	444.70
373.62	395.55
373.81	400.23
374.01	491.51
374.21	393.21
374.40	411.93
374.60	411.93
374.79	447.04
374.99	430.66
375.19	423.64
375.38	416.62
375.58	365.12
375.78	479.81
375.97	461.09
376.17	447.04
376.37	407.25
376.56	393.21
376.76	374.49
376.95	365.12
377.15	409.59
377.35	418.96
377.54	393.21
377.74	430.66
377.93	421.30
378.13	388.53
378.33	437.68
378.52	430.66
378.72	395.55
378.91	409.59
379.11	423.64
379.31	386.19
379.50	428.32
379.70	379.17
379.89	381.51
380.09	430.66
380.28	372.15
380.48	397.89
380.68	416.62
380.87	365.12
381.07	341.72
381.26	351.08
381.46	376.83
381.65	442.36
381.85	376.83
382.04	353.42
382.24	416.62
382.43	332.36
382.63	374.49
382.83	423.64
383.02	395.55
383.22	475.13
383.41	425.98
383.61	435.34
383.80	447.04
384.00	365.12
384.19	390.87
384.39	414.27
384.58	416.62
384.78	379.17
384.97	470.45
385.17	456.40
385.36	374.49
385.56	404.91
385.75	369.80
385.95	404.91
386.14	390.87
386.34	442.36
386.53	365.12
386.72	376.83
386.92	430.66
387.11	435.34
387.31	376.83
387.50	337.04
387.70	362.78
387.89	379.17
388.09	393.21
388.28	397.89
388.48	390.87
388.67	390.87
388.86	395.55
389.06	442.36
389.25	395.55
389.45	386.19
389.64	386.19
389.84	395.55
390.03	416.62
390.22	393.21
390.42	437.68
390.61	447.04
390.81	433.00
391.00	409.59
391.19	463.43
391.39	468.11
391.58	407.25
391.78	421.30
391.97	430.66
392.16	388.53
392.36	365.12
392.55	428.32
392.75	322.99
392.94	360.44
393.13	341.72
393.33	447.04
393.52	414.27
393.71	393.21
393.91	444.70
394.10	397.89
394.29	421.30
394.49	456.40
394.68	386.19
394.88	367.46
395.07	388.53
395.26	454.06
395.46	442.36
395.65	421.30
395.84	395.55
396.04	603.86
396.23	465.77
396.42	386.19
396.62	477.47
396.81	407.25
397.00	395.55
397.19	437.68
397.39	381.51
397.58	374.49
397.77	433.00
397.97	393.21
398.16	388.53
398.35	355.76
398.55	395.55
398.74	393.21
398.93	411.93
399.12	440.02
399.32	440.02
399.51	353.42
399.70	395.55
399.90	421.30
400.09	437.68
400.28	388.53
400.47	365.12
400.67	416.62
400.86	407.25
401.05	374.49
401.24	449.38
401.44	442.36
401.63	451.72
401.82	358.10
402.01	372.15
402.21	430.66
402.40	395.55
402.59	430.66
402.78	416.62
402.97	461.09
403.17	386.19
403.36	341.72
403.55	435.34
403.74	367.46
403.93	416.62
404.13	451.72
404.32	507.90
404.51	442.36
404.70	435.34
404.89	393.21
405.09	425.98
405.28	423.64
405.47	404.91
405.66	442.36
405.85	390.87
406.05	362.78
406.24	437.68
406.43	458.74
406.62	461.09
406.81	437.68
407.00	479.81
407.20	425.98
407.39	402.57
407.58	365.12
407.77	414.27
407.96	440.02
408.15	423.64
408.34	374.49
408.54	416.62
408.73	414.27
408.92	388.53
409.11	433.00
409.30	395.55
409.49	397.89
409.68	421.30
409.87	379.17
410.07	379.17
410.26	397.89
410.45	365.12
410.64	430.66
410.83	409.59
411.02	440.02
411.21	332.36
411.40	447.04
411.59	404.91
411.78	362.78
411.98	418.96
412.17	447.04
412.36	339.38
412.55	393.21
412.74	411.93
412.93	477.47
413.12	374.49
413.31	425.98
413.50	404.91
413.69	402.57
413.88	505.56
414.07	517.26
414.26	447.04
414.45	418.96
414.64	421.30
414.83	411.93
415.02	374.49
415.22	360.44
415.41	428.32
415.60	353.42
415.79	461.09
415.98	435.34
416.17	425.98
416.36	470.45
416.55	407.25
416.74	374.49
416.93	367.46
417.12	430.66
417.31	388.53
417.50	388.53
417.69	423.64
417.88	470.45
418.07	360.44
418.26	369.80
418.45	425.98
418.64	351.08
418.83	435.34
419.02	456.40
419.21	421.30
419.39	372.15
419.58	348.74
419.77	383.85
419.96	437.68
420.15	440.02
420.34	428.32
420.53	409.59
420.72	386.19
420.91	386.19
421.10	421.30
421.29	409.59
421.48	337.04
421.67	416.62
421.86	360.44
422.05	386.19
422.24	440.02
422.43	397.89
422.61	414.27
422.80	418.96
422.99	379.17
423.18	390.87
423.37	468.11
423.56	383.85
423.75	353.42
423.94	393.21
424.13	404.91
424.32	407.25
424.50	381.51
424.69	475.13
424.88	437.68
425.07	421.30
425.26	454.06
425.45	402.57
425.64	407.25
425.83	397.89
426.01	484.49
426.20	421.30
426.39	451.72
426.58	365.12
426.77	407.25
426.96	479.81
427.15	411.93
427.33	414.27
427.52	355.76
427.71	365.12
427.90	449.38
428.09	348.74
428.28	346.40
428.46	440.02
428.65	454.06
428.84	425.98
429.03	468.11
429.22	449.38
429.40	423.64
429.59	374.49
429.78	444.70
429.97	374.49
430.16	390.87
430.34	367.46
430.53	395.55
430.72	365.12
430.91	451.72
431.10	397.89
431.28	397.89
431.47	430.66
431.66	440.02
431.85	425.98
432.03	461.09
432.22	454.06
432.41	428.32
432.60	458.74
432.79	430.66
432.97	400.23
433.16	369.80
433.35	409.59
433.54	393.21
433.72	381.51
433.91	404.91
434.10	458.74
434.28	397.89
434.47	444.70
434.66	470.45
434.85	437.68
435.03	421.30
435.22	416.62
435.41	514.92
435.59	395.55
435.78	367.46
435.97	271.50
436.16	456.40
436.34	458.74
436.53	407.25
436.72	423.64
436.90	418.96
437.09	479.81
437.28	440.02
437.46	369.80
437.65	421.30
437.84	397.89
438.02	325.33
438.21	414.27
438.40	491.51
438.58	407.25
438.77	472.79
438.96	332.36
439.14	430.66
439.33	456.40
439.52	372.15
439.70	388.53
439.89	365.12
440.08	442.36
440.26	381.51
440.45	416.62
440.63	348.74
440.82	472.79
441.01	472.79
441.19	482.15
441.38	428.32
441.57	416.62
441.75	402.57
441.94	397.89
442.12	400.23
442.31	409.59
442.50	414.27
442.68	393.21
442.87	444.70
443.05	456.40
443.24	416.62
443.43	437.68
443.61	376.83
443.80	365.12
443.98	362.78
444.17	376.83
444.35	458.74
444.54	402.57
444.73	372.15
444.91	404.91
445.10	381.51
445.28	411.93
445.47	430.66
445.65	425.98
445.84	386.19
446.02	416.62
446.21	458.74
446.39	493.85
446.58	416.62
446.77	418.96
446.95	362.78
447.14	358.10
447.32	447.04
447.51	416.62
447.69	358.10
447.88	430.66
448.06	367.46
448.25	383.85
448.43	423.64
448.62	390.87
448.80	348.74
448.99	482.15
449.17	402.57
449.36	414.27
449.54	400.23
449.73	428.32
449.91	425.98
450.10	404.91
450.28	484.49
450.46	440.02
450.65	479.81
450.83	421.30
451.02	386.19
451.20	353.42
451.39	337.04
451.57	400.23
451.76	404.91
451.94	374.49
452.13	479.81
452.31	482.15
452.49	414.27
452.68	395.55
452.86	376.83
453.05	393.21
453.23	411.93
453.42	421.30
453.60	414.27
453.78	456.40
453.97	344.06
454.15	341.72
454.34	411.93
454.52	489.17
454.70	433.00
454.89	390.87
455.07	437.68
455.26	458.74
455.44	437.68
455.62	376.83
455.81	390.87
455.99	407.25
456.17	362.78
456.36	430.66
456.54	381.51
456.73	416.62
456.91	381.51
457.09	416.62
457.28	404.91
457.46	430.66
457.64	491.51
457.83	395.55
458.01	456.40
458.19	435.34
458.38	390.87
458.56	390.87
458.74	409.59
458.93	430.66
459.11	423.64
459.29	447.04
459.48	376.83
459.66	458.74
459.84	402.57
460.03	390.87
460.21	454.06
460.39	435.34
460.57	440.02
460.76	449.38
460.94	386.19
461.12	414.27
461.31	397.89
461.49	482.15
461.67	461.09
461.85	435.34
462.04	348.74
462.22	720.88
462.40	395.55
462.59	477.47
462.77	444.70
462.95	428.32
463.13	327.68
463.32	519.60
463.50	456.40
463.68	423.64
463.86	477.47
464.05	414.27
464.23	449.38
464.41	433.00
464.59	418.96
464.78	355.76
464.96	442.36
465.14	393.21
465.32	367.46
465.50	472.79
465.69	458.74
465.87	386.19
466.05	407.25
466.23	447.04
466.41	421.30
466.60	381.51
466.78	437.68
466.96	388.53
467.14	404.91
467.32	447.04
467.51	437.68
467.69	407.25
467.87	514.92
468.05	425.98
468.23	456.40
468.41	423.64
468.60	451.72
468.78	430.66
468.96	451.72
469.14	397.89
469.32	423.64
469.50	386.19
469.69	409.59
469.87	402.57
470.05	463.43
470.23	414.27
470.41	365.12
470.59	397.89
470.77	449.38
470.95	308.95
471.14	416.62
471.32	404.91
471.50	344.06
471.68	393.21
471.86	369.80
472.04	372.15
472.22	428.32
472.40	367.46
472.58	383.85
472.77	367.46
472.95	414.27
473.13	444.70
473.31	435.34
473.49	379.17
473.67	388.53
473.85	465.77
474.03	433.00
474.21	339.38
474.39	447.04
474.57	390.87
474.75	386.19
474.93	372.15
475.12	435.34
475.30	400.23
475.48	383.85
475.66	414.27
475.84	472.79
476.02	402.57
476.20	498.53
476.38	463.43
476.56	486.83
476.74	381.51
476.92	470.45
477.10	449.38
477.28	402.57
477.46	440.02
477.64	369.80
477.82	425.98
478.00	395.55
478.18	433.00
478.36	470.45
478.54	379.17
478.72	421.30
478.90	423.64
479.08	456.40
479.26	400.23
479.44	386.19
479.62	454.06
479.80	416.62
479.98	397.89
480.16	386.19
480.34	430.66
480.52	341.72
480.70	458.74
480.88	330.02
481.06	400.23
481.24	423.64
481.41	442.36
481.59	369.80
481.77	449.38
481.95	376.83
482.13	435.34
482.31	374.49
482.49	444.70
482.67	404.91
482.85	409.59
483.03	437.68
483.21	428.32
483.39	383.85
483.57	421.30
483.74	484.49
483.92	423.64
484.10	425.98
484.28	435.34
484.46	463.43
484.64	397.89
484.82	400.23
485.00	428.32
485.18	442.36
485.35	397.89
485.53	430.66
485.71	390.87
485.89	463.43
486.07	447.04
486.25	430.66
486.43	383.85
486.61	414.27
486.78	360.44
486.96	433.00
487.14	393.21
487.32	395.55
487.50	411.93
487.68	437.68
487.85	397.89
488.03	404.91
488.21	449.38
488.39	440.02
488.57	393.21
488.75	365.12
488.92	496.19
489.10	447.04
489.28	489.17
489.46	327.68
489.64	397.89
489.81	456.40
489.99	451.72
490.17	404.91
490.35	444.70
490.53	416.62
490.70	442.36
490.88	402.57
491.06	374.49
491.24	421.30
491.41	400.23
491.59	491.51
491.77	428.32
491.95	411.93
492.13	386.19
492.30	430.66
492.48	442.36
492.66	430.66
492.84	404.91
493.01	411.93
493.19	369.80
493.37	400.23
493.54	507.90
493.72	463.43
493.90	381.51
494.08	386.19
494.25	313.63
494.43	402.57
494.61	390.87
494.79	362.78
494.96	395.55
495.14	479.81
495.32	409.59
495.49	411.93
495.67	383.85
495.85	339.38
496.02	402.57
496.20	315.97
496.38	372.15
496.55	348.74
496.73	461.09
496.91	390.87
497.09	416.62
497.26	458.74
497.44	489.17
497.62	400.23
497.79	390.87
497.97	407.25
498.14	491.51
498.32	404.91
498.50	428.32
498.67	355.76
498.85	404.91
499.03	421.30
499.20	510.24
499.38	381.51
499.56	407.25
499.73	447.04
499.91	418.96
500.08	402.57
500.26	447.04
500.44	397.89
500.61	388.53
500.79	358.10
500.97	433.00
501.14	404.91
501.32	407.25
501.49	465.77
501.67	435.34
501.84	430.66
502.02	414.27
502.20	428.32
502.37	510.24
502.55	475.13
502.72	381.51
502.90	428.32
503.07	409.59
503.25	358.10
503.43	418.96
503.60	404.91
503.78	411.93
503.95	374.49
504.13	444.70
504.30	390.87
504.48	465.77
504.65	465.77
504.83	451.72
505.01	372.15
505.18	414.27
505.36	362.78
505.53	320.65
505.71	351.08
505.88	433.00
506.06	465.77
506.23	449.38
506.41	411.93
506.58	376.83
506.76	379.17
506.93	442.36
507.11	423.64
507.28	402.57
507.46	388.53
507.63	383.85
507.81	449.38
507.98	383.85
508.16	468.11
508.33	505.56
508.50	454.06
508.68	376.83
508.85	409.59
509.03	388.53
509.20	470.45
509.38	388.53
509.55	435.34
509.73	435.34
509.90	444.70
510.08	440.02
510.25	425.98
510.42	477.47
510.60	383.85
510.77	372.15
510.95	442.36
511.12	414.27
511.30	472.79
511.47	430.66
511.64	435.34
511.82	440.02
511.99	388.53
512.17	451.72
512.34	449.38
512.51	463.43
512.69	449.38
512.86	442.36
513.04	341.72
513.21	423.64
513.38	411.93
513.56	454.06
513.73	367.46
513.90	433.00
514.08	461.09
514.25	393.21
514.43	458.74
514.60	402.57
514.77	484.49
514.95	442.36
515.12	428.32
515.29	365.12
515.47	393.21
515.64	390.87
515.81	395.55
515.99	365.12
516.16	360.44
516.33	465.77
516.51	407.25
516.68	428.32
516.85	512.58
517.03	388.53
517.20	451.72
517.37	418.96
517.54	374.49
517.72	425.98
517.89	390.87
518.06	393.21
518.24	463.43
518.41	484.49
518.58	423.64
518.75	393.21
518.93	400.23
519.10	454.06
519.27	428.32
519.45	355.76
519.62	388.53
519.79	400.23
519.96	397.89
520.14	351.08
520.31	400.23
520.48	456.40
520.65	421.30
520.83	423.64
521.00	397.89
521.17	456.40
521.34	486.83
521.52	442.36
521.69	477.47
521.86	330.02
522.03	367.46
522.20	428.32
522.38	397.89
522.55	423.64
522.72	404.91
522.89	444.70
523.07	437.68
523.24	444.70
523.41	388.53
523.58	362.78
523.75	351.08
523.92	482.15
524.10	404.91
524.27	451.72
524.44	447.04
524.61	461.09
524.78	468.11
524.96	411.93
525.13	440.02
525.30	404.91
525.47	425.98
525.64	407.25
525.81	440.02
525.98	390.87
526.16	404.91
526.33	383.85
526.50	372.15
526.67	463.43
526.84	369.80
527.01	369.80
527.18	414.27
527.36	444.70
527.53	428.32
527.70	395.55
527.87	383.85
528.04	454.06
528.21	458.74
528.38	505.56
528.55	425.98
528.72	402.57
528.89	435.34
529.07	411.93
529.24	376.83
529.41	428.32
529.58	358.10
529.75	376.83
529.92	407.25
530.09	433.00
530.26	470.45
530.43	465.77
530.60	421.30
530.77	421.30
530.94	444.70
531.11	416.62
531.28	435.34
531.46	463.43
531.63	411.93
531.80	470.45
531.97	449.38
532.14	397.89
532.31	411.93
532.48	454.06
532.65	365.12
532.82	437.68
532.99	433.00
533.16	421.30
533.33	437.68
533.50	409.59
533.67	404.91
533.84	425.98
534.01	430.66
534.18	444.70
534.35	407.25
534.52	475.13
534.69	423.64
534.86	388.53
535.03	498.53
535.20	437.68
535.37	360.44
535.54	407.25
535.71	407.25
535.88	442.36
536.05	456.40
536.22	379.17
536.38	400.23
536.55	390.87
536.72	430.66
536.89	517.26
537.06	449.38
537.23	447.04
537.40	376.83
537.57	437.68
537.74	484.49
537.91	397.89
538.08	393.21
538.25	395.55
538.42	355.76
538.59	374.49
538.75	411.93
538.92	468.11
539.09	521.94
539.26	496.19
539.43	435.34
539.60	397.89
539.77	404.91
539.94	472.79
540.11	383.85
540.28	383.85
540.44	437.68
540.61	423.64
540.78	433.00
540.95	404.91
541.12	409.59
541.29	379.17
541.46	477.47
541.62	414.27
541.79	402.57
541.96	416.62
542.13	437.68
542.30	397.89
542.47	479.81
542.63	437.68
542.80	390.87
542.97	493.85
543.14	381.51
543.31	472.79
543.48	397.89
543.64	428.32
543.81	397.89
543.98	449.38
544.15	367.46
544.32	414.27
544.48	444.70
544.65	430.66
544.82	400.23
544.99	484.49
545.16	484.49
545.32	433.00
545.49	400.23
545.66	425.98
545.83	425.98
546.00	449.38
546.16	381.51
546.33	411.93
546.50	393.21
546.67	372.15
546.83	454.06
547.00	390.87
547.17	383.85
547.34	416.62
547.50	414.27
547.67	421.30
547.84	416.62
548.00	379.17
548.17	409.59
548.34	402.57
548.51	468.11
548.67	374.49
548.84	418.96
549.01	353.42
549.18	425.98
549.34	355.76
549.51	397.89
549.68	383.85
549.84	463.43
550.01	418.96
550.18	507.90
550.34	472.79
550.51	365.12
550.68	486.83
550.84	447.04
551.01	409.59
551.18	447.04
551.34	381.51
551.51	416.62
551.68	430.66
551.84	407.25
552.01	479.81
552.18	484.49
552.34	365.12
552.51	402.57
552.68	423.64
552.84	435.34
553.01	435.34
553.18	456.40
553.34	390.87
553.51	451.72
553.67	418.96
553.84	493.85
554.01	491.51
554.17	521.94
554.34	428.32
554.51	409.59
554.67	449.38
554.84	355.76
555.00	451.72
555.17	447.04
555.33	362.78
555.50	442.36
555.67	416.62
555.83	386.19
556.00	395.55
556.16	641.31
556.33	456.40
556.50	388.53
556.66	498.53
556.83	442.36
556.99	386.19
557.16	400.23
557.32	372.15
557.49	425.98
557.65	423.64
557.82	388.53
557.98	489.17
558.15	444.70
558.32	423.64
558.48	421.30
558.65	437.68
558.81	407.25
558.98	372.15
559.14	442.36
559.31	437.68
559.47	428.32
559.64	451.72
559.80	465.77
559.97	435.34
560.13	428.32
560.30	456.40
560.46	421.30
560.63	528.96
560.79	440.02
560.96	397.89
561.12	376.83
561.29	425.98
561.45	416.62
561.61	362.78
561.78	514.92
561.94	468.11
562.11	404.91
562.27	400.23
562.44	425.98
562.60	442.36
562.77	414.27
562.93	461.09
563.10	414.27
563.26	355.76
563.42	454.06
563.59	397.89
563.75	407.25
563.92	409.59
564.08	416.62
564.24	430.66
564.41	395.55
564.57	407.25
564.74	386.19
564.90	397.89
565.07	430.66
565.23	386.19
565.39	428.32
565.56	521.94
565.72	393.21
565.88	383.85
566.05	423.64
566.21	346.40
566.38	383.85
566.54	435.34
566.70	383.85
566.87	411.93
567.03	430.66
567.19	416.62
567.36	470.45
567.52	425.98
567.68	423.64
567.85	447.04
568.01	374.49
568.17	435.34
568.34	369.80
568.50	442.36
568.66	407.25
568.83	425.98
568.99	353.42
569.15	397.89
569.32	449.38
569.48	444.70
569.64	416.62
569.81	411.93
569.97	421.30
570.13	444.70
570.30	341.72
570.46	379.17
570.62	360.44
570.78	486.83
570.95	421.30
571.11	444.70
571.27	372.15
571.43	411.93
571.60	402.57
571.76	348.74
571.92	400.23
572.09	437.68
572.25	390.87
572.41	451.72
572.57	386.19
572.74	582.79
572.90	369.80
573.06	421.30
573.22	472.79
573.38	456.40
573.55	400.23
573.71	454.06
573.87	435.34
574.03	433.00
574.20	468.11
574.36	341.72
574.52	421.30
574.68	425.98
574.84	440.02
575.01	414.27
575.17	430.66
575.33	407.25
575.49	425.98
575.65	435.34
575.82	404.91
575.98	484.49
576.14	313.63
576.30	379.17
576.46	428.32
576.62	447.04
576.79	468.11
576.95	388.53
577.11	447.04
577.27	451.72
577.43	463.43
577.59	393.21
577.75	381.51
577.92	461.09
578.08	456.40
578.24	381.51
578.40	451.72
578.56	374.49
578.72	458.74
578.88	447.04
579.04	447.04
579.21	409.59
579.37	386.19
579.53	395.55
579.69	477.47
579.85	374.49
580.01	416.62
580.17	339.38
580.33	428.32
580.49	437.68
580.65	496.19
580.82	397.89
580.98	397.89
581.14	409.59
581.30	463.43
581.46	367.46
581.62	435.34
581.78	440.02
581.94	465.77
582.10	458.74
582.26	411.93
582.42	425.98
582.58	503.22
582.74	440.02
582.90	461.09
583.06	386.19
583.22	395.55
583.38	400.23
583.54	458.74
583.70	414.27
583.86	379.17
584.02	411.93
584.18	428.32
584.34	407.25
584.50	379.17
584.66	390.87
584.82	442.36
584.98	461.09
585.14	344.06
585.30	454.06
585.46	395.55
585.62	433.00
585.78	400.23
585.94	484.49
586.10	393.21
586.26	435.34
586.42	367.46
586.58	395.55
586.74	458.74
586.90	390.87
587.06	404.91
587.22	395.55
587.38	397.89
587.54	402.57
587.70	416.62
587.86	482.15
588.02	444.70
588.18	470.45
588.34	440.02
588.49	470.45
588.65	411.93
588.81	397.89
588.97	465.77
589.13	444.70
589.29	423.64
589.45	425.98
589.61	397.89
589.77	449.38
589.93	451.72
590.08	346.40
590.24	372.15
590.40	435.34
590.56	425.98
590.72	379.17
590.88	402.57
591.04	390.87
591.20	395.55
591.35	416.62
591.51	369.80
591.67	355.76
591.83	416.62
591.99	414.27
592.15	358.10
592.31	428.32
592.46	428.32
592.62	447.04
592.78	489.17
592.94	440.02
593.10	409.59
593.26	353.42
593.41	451.72
593.57	390.87
593.73	409.59
593.89	477.47
594.05	416.62
594.20	411.93
594.36	449.38
594.52	491.51
594.68	428.32
594.84	414.27
594.99	500.87
595.15	496.19
595.31	472.79
595.47	468.11
595.62	428.32
595.78	451.72
595.94	454.06
596.10	411.93
596.25	374.49
596.41	400.23
596.57	381.51
596.73	411.93
596.88	386.19
597.04	414.27
597.20	421.30
597.36	482.15
597.51	362.78
597.67	461.09
597.83	374.49
597.99	414.27
598.14	428.32
598.30	416.62
598.46	404.91
598.61	444.70
598.77	437.68
598.93	416.62
599.09	404.91
599.24	454.06
599.40	507.90
599.56	437.68
599.71	407.25
599.87	465.77
600.03	456.40
600.18	383.85
600.34	367.46
600.50	414.27
600.65	418.96
600.81	458.74
600.97	461.09
601.12	458.74
601.28	449.38
601.44	456.40
601.59	470.45
601.75	374.49
601.91	409.59
602.06	411.93
602.22	505.56
602.37	449.38
602.53	416.62
602.69	479.81
602.84	365.12
603.00	423.64
603.16	372.15
603.31	433.00
603.47	435.34
603.62	407.25
603.78	423.64
603.94	418.96
604.09	397.89
604.25	433.00
604.40	418.96
604.56	440.02
604.71	407.25
604.87	374.49
605.03	411.93
605.18	456.40
605.34	400.23
605.49	454.06
605.65	367.46
605.80	383.85
605.96	421.30
606.12	454.06
606.27	437.68
606.43	451.72
606.58	437.68
606.74	435.34
606.89	400.23
607.05	463.43
607.20	458.74
607.36	479.81
607.51	325.33
607.67	470.45
607.82	449.38
607.98	447.04
608.13	435.34
608.29	402.57
608.44	393.21
608.60	381.51
608.75	416.62
608.91	433.00
609.06	454.06
609.22	491.51
609.37	344.06
609.53	374.49
609.68	369.80
609.84	411.93
609.99	369.80
610.15	402.57
