SpectraSuite Data File
++++++++++++++++++++++++++++++++++++
Date: Fri Oct 25 12:10:38 EDT 2013
User: price-jones
Dark Spectrum Present: No
Reference Spectrum Present: No
Number of Sampled Component Spectra: 1
Spectrometers: USB2+H05261
Integration Time (usec): 100000 (USB2+H05261)
Spectra Averaged: 1 (USB2+H05261)
Boxcar Smoothing: 0 (USB2+H05261)
Correct for Electrical Dark: No (USB2+H05261)
Strobe/Lamp Enabled: No (USB2+H05261)
Correct for Detector Non-linearity: No (USB2+H05261)
Correct for Stray Light: No (USB2+H05261)
Number of Pixels in Processed Spectrum: 2048
>>>>>Begin Processed Spectral Data<<<<<
365.73	301.93
365.92	301.93
366.12	301.93
366.32	252.78
366.52	255.12
366.72	245.76
366.91	266.82
367.11	180.22
367.31	222.35
367.51	220.01
367.70	208.31
367.90	276.18
368.10	238.73
368.30	276.18
368.49	224.69
368.69	198.95
368.89	203.63
369.09	266.82
369.28	217.67
369.48	259.80
369.68	315.97
369.87	315.97
370.07	273.84
370.27	341.72
370.47	369.80
370.66	283.20
370.86	266.82
371.06	341.72
371.25	418.96
371.45	411.93
371.65	353.42
371.84	351.08
372.04	388.53
372.24	451.72
372.44	383.85
372.63	404.91
372.83	355.76
373.03	414.27
373.22	365.12
373.42	491.51
373.62	369.80
373.81	435.34
374.01	468.11
374.21	407.25
374.40	472.79
374.60	444.70
374.79	325.33
374.99	442.36
375.19	423.64
375.38	414.27
375.58	348.74
375.78	447.04
375.97	526.62
376.17	344.06
376.37	411.93
376.56	468.11
376.76	458.74
376.95	372.15
377.15	390.87
377.35	437.68
377.54	414.27
377.74	299.59
377.93	386.19
378.13	390.87
378.33	477.47
378.52	397.89
378.72	407.25
378.91	379.17
379.11	369.80
379.31	458.74
379.50	374.49
379.70	456.40
379.89	409.59
380.09	374.49
380.28	390.87
380.48	376.83
380.68	444.70
380.87	367.46
381.07	414.27
381.26	430.66
381.46	358.10
381.65	444.70
381.85	379.17
382.04	512.58
382.24	404.91
382.43	414.27
382.63	390.87
382.83	454.06
383.02	348.74
383.22	381.51
383.41	367.46
383.61	395.55
383.80	428.32
384.00	425.98
384.19	390.87
384.39	435.34
384.58	437.68
384.78	425.98
384.97	407.25
385.17	418.96
385.36	337.04
385.56	449.38
385.75	365.12
385.95	421.30
386.14	355.76
386.34	440.02
386.53	428.32
386.72	428.32
386.92	428.32
387.11	475.13
387.31	433.00
387.50	355.76
387.70	362.78
387.89	423.64
388.09	409.59
388.28	395.55
388.48	477.47
388.67	423.64
388.86	404.91
389.06	386.19
389.25	442.36
389.45	442.36
389.64	449.38
389.84	430.66
390.03	355.76
390.22	416.62
390.42	358.10
390.61	400.23
390.81	358.10
391.00	421.30
391.19	404.91
391.39	376.83
391.58	456.40
391.78	409.59
391.97	402.57
392.16	381.51
392.36	458.74
392.55	367.46
392.75	393.21
392.94	395.55
393.13	388.53
393.33	400.23
393.52	409.59
393.71	372.15
393.91	425.98
394.10	463.43
394.29	416.62
394.49	411.93
394.68	393.21
394.88	346.40
395.07	447.04
395.26	409.59
395.46	395.55
395.65	428.32
395.84	465.77
396.04	468.11
396.23	379.17
396.42	379.17
396.62	458.74
396.81	397.89
397.00	374.49
397.19	383.85
397.39	409.59
397.58	465.77
397.77	470.45
397.97	379.17
398.16	451.72
398.35	500.87
398.55	454.06
398.74	383.85
398.93	435.34
399.12	367.46
399.32	442.36
399.51	388.53
399.70	430.66
399.90	376.83
400.09	430.66
400.28	482.15
400.47	465.77
400.67	433.00
400.86	381.51
401.05	386.19
401.24	430.66
401.44	383.85
401.63	425.98
401.82	472.79
402.01	334.70
402.21	454.06
402.40	376.83
402.59	404.91
402.78	458.74
402.97	397.89
403.17	440.02
403.36	376.83
403.55	470.45
403.74	423.64
403.93	376.83
404.13	442.36
404.32	395.55
404.51	360.44
404.70	442.36
404.89	451.72
405.09	393.21
405.28	411.93
405.47	407.25
405.66	423.64
405.85	475.13
406.05	421.30
406.24	418.96
406.43	442.36
406.62	386.19
406.81	425.98
407.00	421.30
407.20	433.00
407.39	447.04
407.58	381.51
407.77	458.74
407.96	461.09
408.15	447.04
408.34	395.55
408.54	407.25
408.73	418.96
408.92	442.36
409.11	383.85
409.30	362.78
409.49	388.53
409.68	358.10
409.87	425.98
410.07	386.19
410.26	433.00
410.45	372.15
410.64	362.78
410.83	372.15
411.02	339.38
411.21	442.36
411.40	447.04
411.59	407.25
411.78	470.45
411.98	414.27
412.17	351.08
412.36	402.57
412.55	407.25
412.74	470.45
412.93	465.77
413.12	355.76
413.31	411.93
413.50	411.93
413.69	418.96
413.88	437.68
414.07	470.45
414.26	386.19
414.45	367.46
414.64	407.25
414.83	397.89
415.02	400.23
415.22	470.45
415.41	362.78
415.60	355.76
415.79	444.70
415.98	397.89
416.17	362.78
416.36	367.46
416.55	367.46
416.74	421.30
416.93	393.21
417.12	430.66
417.31	390.87
417.50	376.83
417.69	458.74
417.88	482.15
418.07	400.23
418.26	404.91
418.45	409.59
418.64	346.40
418.83	388.53
419.02	390.87
419.21	327.68
419.39	355.76
419.58	397.89
419.77	400.23
419.96	409.59
420.15	437.68
420.34	362.78
420.53	430.66
420.72	451.72
420.91	461.09
421.10	414.27
421.29	381.51
421.48	386.19
421.67	447.04
421.86	362.78
422.05	402.57
422.24	440.02
422.43	390.87
422.61	447.04
422.80	465.77
422.99	414.27
423.18	423.64
423.37	383.85
423.56	376.83
423.75	397.89
423.94	409.59
424.13	416.62
424.32	416.62
424.50	407.25
424.69	390.87
424.88	388.53
425.07	390.87
425.26	414.27
425.45	400.23
425.64	409.59
425.83	341.72
426.01	449.38
426.20	409.59
426.39	425.98
426.58	400.23
426.77	383.85
426.96	456.40
427.15	433.00
427.33	362.78
427.52	369.80
427.71	402.57
427.90	372.15
428.09	454.06
428.28	423.64
428.46	400.23
428.65	404.91
428.84	447.04
429.03	458.74
429.22	463.43
429.40	437.68
429.59	390.87
429.78	386.19
429.97	360.44
430.16	404.91
430.34	383.85
430.53	465.77
430.72	390.87
430.91	428.32
431.10	418.96
431.28	416.62
431.47	451.72
431.66	435.34
431.85	381.51
432.03	369.80
432.22	435.34
432.41	393.21
432.60	444.70
432.79	304.27
432.97	409.59
433.16	433.00
433.35	353.42
433.54	416.62
433.72	411.93
433.91	475.13
434.10	351.08
434.28	381.51
434.47	348.74
434.66	423.64
434.85	440.02
435.03	386.19
435.22	416.62
435.41	365.12
435.59	360.44
435.78	407.25
435.97	395.55
436.16	418.96
436.34	475.13
436.53	414.27
436.72	440.02
436.90	418.96
437.09	428.32
437.28	472.79
437.46	416.62
437.65	423.64
437.84	393.21
438.02	444.70
438.21	428.32
438.40	362.78
438.58	374.49
438.77	397.89
438.96	430.66
439.14	461.09
439.33	416.62
439.52	421.30
439.70	404.91
439.89	475.13
440.08	414.27
440.26	491.51
440.45	430.66
440.63	402.57
440.82	388.53
441.01	299.59
441.19	367.46
441.38	388.53
441.57	423.64
441.75	440.02
441.94	456.40
442.12	411.93
442.31	449.38
442.50	390.87
442.68	372.15
442.87	353.42
443.05	442.36
443.24	397.89
443.43	400.23
443.61	393.21
443.80	365.12
443.98	458.74
444.17	388.53
444.35	393.21
444.54	379.17
444.73	376.83
444.91	482.15
445.10	381.51
445.28	428.32
445.47	442.36
445.65	425.98
445.84	404.91
446.02	390.87
446.21	390.87
446.39	437.68
446.58	397.89
446.77	442.36
446.95	386.19
447.14	414.27
447.32	397.89
447.51	468.11
447.69	463.43
447.88	482.15
448.06	383.85
448.25	409.59
448.43	416.62
448.62	400.23
448.80	400.23
448.99	500.87
449.17	388.53
449.36	386.19
449.54	386.19
449.73	372.15
449.91	416.62
450.10	404.91
450.28	491.51
450.46	425.98
450.65	379.17
450.83	486.83
451.02	430.66
451.20	428.32
451.39	409.59
451.57	322.99
451.76	425.98
451.94	407.25
452.13	388.53
452.31	433.00
452.49	393.21
452.68	390.87
452.86	400.23
453.05	423.64
453.23	386.19
453.42	411.93
453.60	444.70
453.78	428.32
453.97	292.57
454.15	353.42
454.34	418.96
454.52	395.55
454.70	428.32
454.89	454.06
455.07	346.40
455.26	461.09
455.44	407.25
455.62	383.85
455.81	365.12
455.99	386.19
456.17	393.21
456.36	418.96
456.54	390.87
456.73	374.49
456.91	353.42
457.09	388.53
457.28	404.91
457.46	353.42
457.64	400.23
457.83	435.34
458.01	404.91
458.19	477.47
458.38	440.02
458.56	475.13
458.74	440.02
458.93	461.09
459.11	486.83
459.29	416.62
459.48	418.96
459.66	463.43
459.84	416.62
460.03	461.09
460.21	418.96
460.39	353.42
460.57	440.02
460.76	430.66
460.94	393.21
461.12	433.00
461.31	458.74
461.49	531.30
461.67	397.89
461.85	348.74
462.04	407.25
462.22	774.72
462.40	440.02
462.59	444.70
462.77	461.09
462.95	428.32
463.13	332.36
463.32	444.70
463.50	381.51
463.68	411.93
463.86	393.21
464.05	402.57
464.23	449.38
464.41	456.40
464.59	454.06
464.78	440.02
464.96	388.53
465.14	458.74
465.32	400.23
465.50	425.98
465.69	477.47
465.87	379.17
466.05	360.44
466.23	433.00
466.41	402.57
466.60	416.62
466.78	416.62
466.96	425.98
467.14	447.04
467.32	428.32
467.51	437.68
467.69	482.15
467.87	411.93
468.05	407.25
468.23	411.93
468.41	397.89
468.60	388.53
468.78	388.53
468.96	423.64
469.14	425.98
469.32	390.87
469.50	435.34
469.69	388.53
469.87	425.98
470.05	390.87
470.23	421.30
470.41	386.19
470.59	449.38
470.77	442.36
470.95	411.93
471.14	465.77
471.32	472.79
471.50	416.62
471.68	404.91
471.86	440.02
472.04	383.85
472.22	409.59
472.40	358.10
472.58	395.55
472.77	454.06
472.95	454.06
473.13	400.23
473.31	418.96
473.49	423.64
473.67	360.44
473.85	407.25
474.03	451.72
474.21	430.66
474.39	496.19
474.57	411.93
474.75	493.85
474.93	362.78
475.12	376.83
475.30	402.57
475.48	477.47
475.66	456.40
475.84	440.02
476.02	423.64
476.20	407.25
476.38	409.59
476.56	428.32
476.74	388.53
476.92	360.44
477.10	421.30
477.28	430.66
477.46	510.24
477.64	390.87
477.82	386.19
478.00	437.68
478.18	491.51
478.36	355.76
478.54	360.44
478.72	418.96
478.90	418.96
479.08	449.38
479.26	482.15
479.44	390.87
479.62	381.51
479.80	367.46
479.98	348.74
480.16	390.87
480.34	388.53
480.52	360.44
480.70	367.46
480.88	374.49
481.06	332.36
481.24	418.96
481.41	456.40
481.59	367.46
481.77	365.12
481.95	437.68
482.13	472.79
482.31	440.02
482.49	444.70
482.67	423.64
482.85	416.62
483.03	402.57
483.21	379.17
483.39	458.74
483.57	404.91
483.74	482.15
483.92	360.44
484.10	330.02
484.28	376.83
484.46	454.06
484.64	409.59
484.82	433.00
485.00	493.85
485.18	381.51
485.35	409.59
485.53	390.87
485.71	353.42
485.89	458.74
486.07	456.40
486.25	468.11
486.43	470.45
486.61	393.21
486.78	388.53
486.96	351.08
487.14	454.06
487.32	409.59
487.50	334.70
487.68	472.79
487.85	418.96
488.03	440.02
488.21	400.23
488.39	365.12
488.57	440.02
488.75	390.87
488.92	414.27
489.10	430.66
489.28	402.57
489.46	337.04
489.64	493.85
489.81	379.17
489.99	409.59
490.17	397.89
490.35	475.13
490.53	421.30
490.70	428.32
490.88	425.98
491.06	451.72
491.24	425.98
491.41	407.25
491.59	458.74
491.77	411.93
491.95	372.15
492.13	425.98
492.30	435.34
492.48	477.47
492.66	407.25
492.84	440.02
493.01	409.59
493.19	348.74
493.37	395.55
493.54	418.96
493.72	376.83
493.90	341.72
494.08	386.19
494.25	519.60
494.43	393.21
494.61	348.74
494.79	414.27
494.96	390.87
495.14	433.00
495.32	304.27
495.49	407.25
495.67	433.00
495.85	386.19
496.02	353.42
496.20	362.78
496.38	440.02
496.55	372.15
496.73	449.38
496.91	365.12
497.09	489.17
497.26	433.00
497.44	489.17
497.62	503.22
497.79	414.27
497.97	374.49
498.14	367.46
498.32	369.80
498.50	367.46
498.67	475.13
498.85	468.11
499.03	393.21
499.20	409.59
499.38	444.70
499.56	374.49
499.73	458.74
499.91	386.19
500.08	414.27
500.26	421.30
500.44	395.55
500.61	360.44
500.79	381.51
500.97	435.34
501.14	372.15
501.32	409.59
501.49	421.30
501.67	477.47
501.84	402.57
502.02	372.15
502.20	435.34
502.37	416.62
502.55	367.46
502.72	449.38
502.90	402.57
503.07	425.98
503.25	442.36
503.43	482.15
503.60	418.96
503.78	421.30
503.95	367.46
504.13	465.77
504.30	365.12
504.48	416.62
504.65	442.36
504.83	414.27
505.01	402.57
505.18	414.27
505.36	294.91
505.53	409.59
505.71	411.93
505.88	390.87
506.06	355.76
506.23	409.59
506.41	395.55
506.58	444.70
506.76	442.36
506.93	461.09
507.11	458.74
507.28	409.59
507.46	418.96
507.63	451.72
507.81	421.30
507.98	327.68
508.16	386.19
508.33	414.27
508.50	451.72
508.68	365.12
508.85	367.46
509.03	397.89
509.20	423.64
509.38	308.95
509.55	430.66
509.73	477.47
509.90	402.57
510.08	414.27
510.25	383.85
510.42	400.23
510.60	425.98
510.77	376.83
510.95	440.02
511.12	299.59
511.30	393.21
511.47	430.66
511.64	390.87
511.82	362.78
511.99	414.27
512.17	444.70
512.34	348.74
512.51	444.70
512.69	311.29
512.86	472.79
513.04	425.98
513.21	451.72
513.38	372.15
513.56	421.30
513.73	461.09
513.90	390.87
514.08	379.17
514.25	447.04
514.43	444.70
514.60	428.32
514.77	395.55
514.95	360.44
515.12	386.19
515.29	484.49
515.47	381.51
515.64	414.27
515.81	404.91
515.99	437.68
516.16	418.96
516.33	428.32
516.51	395.55
516.68	369.80
516.85	456.40
517.03	409.59
517.20	388.53
517.37	374.49
517.54	369.80
517.72	461.09
517.89	425.98
518.06	346.40
518.24	482.15
518.41	519.60
518.58	437.68
518.75	461.09
518.93	512.58
519.10	409.59
519.27	407.25
519.45	397.89
519.62	428.32
519.79	514.92
519.96	376.83
520.14	477.47
520.31	400.23
520.48	416.62
520.65	365.12
520.83	402.57
521.00	348.74
521.17	421.30
521.34	365.12
521.52	451.72
521.69	430.66
521.86	383.85
522.03	437.68
522.20	437.68
522.38	332.36
522.55	407.25
522.72	355.76
522.89	407.25
523.07	409.59
523.24	411.93
523.41	365.12
523.58	435.34
523.75	451.72
523.92	386.19
524.10	362.78
524.27	386.19
524.44	449.38
524.61	404.91
524.78	421.30
524.96	407.25
525.13	383.85
525.30	362.78
525.47	428.32
525.64	395.55
525.81	337.04
525.98	409.59
526.16	449.38
526.33	475.13
526.50	367.46
526.67	376.83
526.84	433.00
527.01	465.77
527.18	425.98
527.36	435.34
527.53	423.64
527.70	458.74
527.87	454.06
528.04	416.62
528.21	395.55
528.38	449.38
528.55	404.91
528.72	393.21
528.89	435.34
529.07	390.87
529.24	418.96
529.41	486.83
529.58	435.34
529.75	351.08
529.92	447.04
530.09	461.09
530.26	411.93
530.43	374.49
530.60	404.91
530.77	442.36
530.94	411.93
531.11	386.19
531.28	367.46
531.46	386.19
531.63	491.51
531.80	390.87
531.97	416.62
532.14	463.43
532.31	409.59
532.48	447.04
532.65	437.68
532.82	463.43
532.99	365.12
533.16	491.51
533.33	421.30
533.50	423.64
533.67	402.57
533.84	437.68
534.01	442.36
534.18	376.83
534.35	372.15
534.52	390.87
534.69	376.83
534.86	428.32
535.03	390.87
535.20	404.91
535.37	440.02
535.54	437.68
535.71	409.59
535.88	437.68
536.05	388.53
536.22	421.30
536.38	372.15
536.55	365.12
536.72	475.13
536.89	346.40
537.06	390.87
537.23	395.55
537.40	411.93
537.57	386.19
537.74	482.15
537.91	341.72
538.08	421.30
538.25	433.00
538.42	479.81
538.59	440.02
538.75	402.57
538.92	428.32
539.09	435.34
539.26	500.87
539.43	489.17
539.60	451.72
539.77	440.02
539.94	423.64
540.11	383.85
540.28	482.15
540.44	407.25
540.61	404.91
540.78	341.72
540.95	517.26
541.12	418.96
541.29	372.15
541.46	425.98
541.62	456.40
541.79	355.76
541.96	404.91
542.13	341.72
542.30	365.12
542.47	451.72
542.63	369.80
542.80	376.83
542.97	395.55
543.14	395.55
543.31	360.44
543.48	409.59
543.64	447.04
543.81	407.25
543.98	402.57
544.15	372.15
544.32	444.70
544.48	425.98
544.65	435.34
544.82	435.34
544.99	444.70
545.16	463.43
545.32	379.17
545.49	383.85
545.66	355.76
545.83	400.23
546.00	425.98
546.16	514.92
546.33	442.36
546.50	379.17
546.67	451.72
546.83	444.70
547.00	493.85
547.17	416.62
547.34	402.57
547.50	435.34
547.67	449.38
547.84	374.49
548.00	449.38
548.17	449.38
548.34	484.49
548.51	409.59
548.67	430.66
548.84	386.19
549.01	348.74
549.18	400.23
549.34	400.23
549.51	463.43
549.68	411.93
549.84	358.10
550.01	400.23
550.18	444.70
550.34	470.45
550.51	503.22
550.68	395.55
550.84	393.21
551.01	409.59
551.18	435.34
551.34	498.53
551.51	454.06
551.68	409.59
551.84	351.08
552.01	465.77
552.18	482.15
552.34	390.87
552.51	440.02
552.68	458.74
552.84	458.74
553.01	425.98
553.18	465.77
553.34	454.06
553.51	388.53
553.67	414.27
553.84	472.79
554.01	395.55
554.17	423.64
554.34	409.59
554.51	414.27
554.67	376.83
554.84	411.93
555.00	381.51
555.17	423.64
555.33	423.64
555.50	411.93
555.67	442.36
555.83	433.00
556.00	423.64
556.16	468.11
556.33	435.34
556.50	433.00
556.66	470.45
556.83	437.68
556.99	421.30
557.16	423.64
557.32	433.00
557.49	388.53
557.65	425.98
557.82	430.66
557.98	451.72
558.15	444.70
558.32	402.57
558.48	407.25
558.65	367.46
558.81	521.94
558.98	416.62
559.14	479.81
559.31	512.58
559.47	402.57
559.64	433.00
559.80	404.91
559.97	390.87
560.13	381.51
560.30	409.59
560.46	402.57
560.63	440.02
560.79	472.79
560.96	500.87
561.12	428.32
561.29	409.59
561.45	425.98
561.61	418.96
561.78	435.34
561.94	461.09
562.11	395.55
562.27	374.49
562.44	456.40
562.60	409.59
562.77	386.19
562.93	416.62
563.10	362.78
563.26	407.25
563.42	430.66
563.59	479.81
563.75	393.21
563.92	491.51
564.08	465.77
564.24	414.27
564.41	454.06
564.57	475.13
564.74	444.70
564.90	454.06
565.07	477.47
565.23	395.55
565.39	386.19
565.56	369.80
565.72	416.62
565.88	362.78
566.05	461.09
566.21	395.55
566.38	395.55
566.54	393.21
566.70	388.53
566.87	409.59
567.03	442.36
567.19	388.53
567.36	458.74
567.52	402.57
567.68	409.59
567.85	449.38
568.01	388.53
568.17	397.89
568.34	421.30
568.50	407.25
568.66	430.66
568.83	521.94
568.99	447.04
569.15	458.74
569.32	437.68
569.48	486.83
569.64	418.96
569.81	409.59
569.97	393.21
570.13	379.17
570.30	388.53
570.46	372.15
570.62	390.87
570.78	444.70
570.95	423.64
571.11	456.40
571.27	468.11
571.43	390.87
571.60	386.19
571.76	425.98
571.92	428.32
572.09	454.06
572.25	355.76
572.41	458.74
572.57	454.06
572.74	444.70
572.90	433.00
573.06	421.30
573.22	411.93
573.38	425.98
573.55	416.62
573.71	444.70
573.87	435.34
574.03	442.36
574.20	386.19
574.36	442.36
574.52	418.96
574.68	411.93
574.84	433.00
575.01	351.08
575.17	440.02
575.33	444.70
575.49	475.13
575.65	454.06
575.82	442.36
575.98	486.83
576.14	397.89
576.30	493.85
576.46	470.45
576.62	414.27
576.79	409.59
576.95	507.90
577.11	404.91
577.27	379.17
577.43	425.98
577.59	400.23
577.75	484.49
577.92	409.59
578.08	390.87
578.24	379.17
578.40	456.40
578.56	454.06
578.72	437.68
578.88	411.93
579.04	458.74
579.21	383.85
579.37	437.68
579.53	451.72
579.69	409.59
579.85	393.21
580.01	442.36
580.17	444.70
580.33	400.23
580.49	444.70
580.65	390.87
580.82	433.00
580.98	374.49
581.14	440.02
581.30	414.27
581.46	402.57
581.62	409.59
581.78	348.74
581.94	435.34
582.10	372.15
582.26	402.57
582.42	353.42
582.58	374.49
582.74	477.47
582.90	433.00
583.06	433.00
583.22	433.00
583.38	475.13
583.54	425.98
583.70	444.70
583.86	344.06
584.02	409.59
584.18	456.40
584.34	397.89
584.50	444.70
584.66	418.96
584.82	355.76
584.98	411.93
585.14	404.91
585.30	507.90
585.46	411.93
585.62	440.02
585.78	486.83
585.94	400.23
586.10	465.77
586.26	465.77
586.42	433.00
586.58	428.32
586.74	414.27
586.90	358.10
587.06	369.80
587.22	409.59
587.38	538.32
587.54	421.30
587.70	393.21
587.86	505.56
588.02	381.51
588.18	381.51
588.34	400.23
588.49	428.32
588.65	393.21
588.81	397.89
588.97	414.27
589.13	421.30
589.29	416.62
589.45	379.17
589.61	379.17
589.77	423.64
589.93	379.17
590.08	402.57
590.24	393.21
590.40	440.02
590.56	372.15
590.72	484.49
590.88	421.30
591.04	421.30
591.20	383.85
591.35	491.51
591.51	484.49
591.67	393.21
591.83	414.27
591.99	379.17
592.15	397.89
592.31	440.02
592.46	477.47
592.62	425.98
592.78	386.19
592.94	388.53
593.10	358.10
593.26	409.59
593.41	454.06
593.57	447.04
593.73	416.62
593.89	367.46
594.05	369.80
594.20	468.11
594.36	400.23
594.52	456.40
594.68	381.51
594.84	489.17
594.99	400.23
595.15	456.40
595.31	440.02
595.47	395.55
595.62	351.08
595.78	327.68
595.94	393.21
596.10	411.93
596.25	416.62
596.41	409.59
596.57	440.02
596.73	393.21
596.88	423.64
597.04	482.15
597.20	402.57
597.36	390.87
597.51	379.17
597.67	341.72
597.83	463.43
597.99	440.02
598.14	428.32
598.30	430.66
598.46	360.44
598.61	433.00
598.77	435.34
598.93	440.02
599.09	444.70
599.24	423.64
599.40	409.59
599.56	360.44
599.71	388.53
599.87	479.81
600.03	404.91
600.18	402.57
600.34	423.64
600.50	479.81
600.65	428.32
600.81	475.13
600.97	433.00
601.12	416.62
601.28	475.13
601.44	449.38
601.59	407.25
601.75	465.77
601.91	362.78
602.06	339.38
602.22	507.90
602.37	407.25
602.53	430.66
602.69	479.81
602.84	358.10
603.00	470.45
603.16	393.21
603.31	411.93
603.47	428.32
603.62	397.89
603.78	409.59
603.94	409.59
604.09	409.59
604.25	447.04
604.40	475.13
604.56	397.89
604.71	454.06
604.87	393.21
605.03	421.30
605.18	362.78
605.34	468.11
605.49	400.23
605.65	411.93
605.80	376.83
605.96	447.04
606.12	440.02
606.27	428.32
606.43	423.64
606.58	404.91
606.74	458.74
606.89	409.59
607.05	409.59
607.20	482.15
607.36	414.27
607.51	400.23
607.67	458.74
607.82	404.91
607.98	435.34
608.13	416.62
608.29	404.91
608.44	430.66
608.60	395.55
608.75	372.15
608.91	381.51
609.06	411.93
609.22	372.15
609.37	362.78
609.53	442.36
609.68	421.30
609.84	500.87
609.99	374.49
610.15	386.19
