SpectraSuite Data File
++++++++++++++++++++++++++++++++++++
Date: Fri Oct 25 12:10:27 EDT 2013
User: price-jones
Dark Spectrum Present: No
Reference Spectrum Present: No
Number of Sampled Component Spectra: 1
Spectrometers: USB2+H05261
Integration Time (usec): 100000 (USB2+H05261)
Spectra Averaged: 1 (USB2+H05261)
Boxcar Smoothing: 0 (USB2+H05261)
Correct for Electrical Dark: No (USB2+H05261)
Strobe/Lamp Enabled: No (USB2+H05261)
Correct for Detector Non-linearity: No (USB2+H05261)
Correct for Stray Light: No (USB2+H05261)
Number of Pixels in Processed Spectrum: 2048
>>>>>Begin Processed Spectral Data<<<<<
365.73	402.57
365.92	402.57
366.12	402.57
366.32	304.27
366.52	238.73
366.72	194.26
366.91	243.42
367.11	210.65
367.31	154.48
367.51	215.33
367.70	248.10
367.90	252.78
368.10	224.69
368.30	245.76
368.49	273.84
368.69	287.89
368.89	276.18
369.09	280.86
369.28	248.10
369.48	241.08
369.68	241.08
369.87	278.52
370.07	231.71
370.27	332.36
370.47	292.57
370.66	280.86
370.86	449.38
371.06	381.51
371.25	304.27
371.45	320.65
371.65	425.98
371.84	290.23
372.04	383.85
372.24	376.83
372.44	337.04
372.63	470.45
372.83	463.43
373.03	393.21
373.22	353.42
373.42	397.89
373.62	388.53
373.81	381.51
374.01	379.17
374.21	498.53
374.40	411.93
374.60	472.79
374.79	339.38
374.99	456.40
375.19	468.11
375.38	493.85
375.58	381.51
375.78	456.40
375.97	447.04
376.17	493.85
376.37	428.32
376.56	433.00
376.76	496.19
376.95	311.29
377.15	400.23
377.35	362.78
377.54	421.30
377.74	390.87
377.93	353.42
378.13	355.76
378.33	379.17
378.52	409.59
378.72	463.43
378.91	451.72
379.11	379.17
379.31	435.34
379.50	376.83
379.70	393.21
379.89	433.00
380.09	409.59
380.28	433.00
380.48	393.21
380.68	383.85
380.87	411.93
381.07	461.09
381.26	477.47
381.46	376.83
381.65	374.49
381.85	404.91
382.04	376.83
382.24	367.46
382.43	351.08
382.63	418.96
382.83	409.59
383.02	454.06
383.22	435.34
383.41	418.96
383.61	402.57
383.80	400.23
384.00	390.87
384.19	397.89
384.39	360.44
384.58	337.04
384.78	376.83
384.97	423.64
385.17	442.36
385.36	362.78
385.56	374.49
385.75	355.76
385.95	400.23
386.14	416.62
386.34	411.93
386.53	388.53
386.72	414.27
386.92	512.58
387.11	454.06
387.31	416.62
387.50	372.15
387.70	465.77
387.89	407.25
388.09	383.85
388.28	423.64
388.48	397.89
388.67	404.91
388.86	388.53
389.06	416.62
389.25	421.30
389.45	425.98
389.64	442.36
389.84	430.66
390.03	430.66
390.22	407.25
390.42	444.70
390.61	475.13
390.81	414.27
391.00	425.98
391.19	451.72
391.39	447.04
391.58	411.93
391.78	402.57
391.97	365.12
392.16	444.70
392.36	444.70
392.55	451.72
392.75	367.46
392.94	407.25
393.13	447.04
393.33	435.34
393.52	411.93
393.71	454.06
393.91	374.49
394.10	430.66
394.29	402.57
394.49	339.38
394.68	367.46
394.88	407.25
395.07	346.40
395.26	409.59
395.46	388.53
395.65	475.13
395.84	395.55
396.04	421.30
396.23	376.83
396.42	381.51
396.62	390.87
396.81	454.06
397.00	414.27
397.19	381.51
397.39	430.66
397.58	458.74
397.77	404.91
397.97	386.19
398.16	409.59
398.35	376.83
398.55	376.83
398.74	376.83
398.93	463.43
399.12	369.80
399.32	386.19
399.51	351.08
399.70	411.93
399.90	369.80
400.09	386.19
400.28	341.72
400.47	421.30
400.67	374.49
400.86	400.23
401.05	444.70
401.24	383.85
401.44	411.93
401.63	528.96
401.82	414.27
402.01	372.15
402.21	407.25
402.40	379.17
402.59	416.62
402.78	430.66
402.97	402.57
403.17	440.02
403.36	397.89
403.55	318.31
403.74	409.59
403.93	409.59
404.13	430.66
404.32	433.00
404.51	414.27
404.70	386.19
404.89	430.66
405.09	433.00
405.28	376.83
405.47	381.51
405.66	379.17
405.85	454.06
406.05	388.53
406.24	330.02
406.43	425.98
406.62	367.46
406.81	440.02
407.00	451.72
407.20	435.34
407.39	425.98
407.58	395.55
407.77	388.53
407.96	416.62
408.15	407.25
408.34	468.11
408.54	416.62
408.73	416.62
408.92	414.27
409.11	449.38
409.30	418.96
409.49	433.00
409.68	390.87
409.87	362.78
410.07	402.57
410.26	395.55
410.45	411.93
410.64	437.68
410.83	367.46
411.02	411.93
411.21	416.62
411.40	397.89
411.59	383.85
411.78	383.85
411.98	339.38
412.17	393.21
412.36	402.57
412.55	425.98
412.74	362.78
412.93	430.66
413.12	362.78
413.31	386.19
413.50	332.36
413.69	423.64
413.88	484.49
414.07	421.30
414.26	374.49
414.45	430.66
414.64	416.62
414.83	416.62
415.02	414.27
415.22	395.55
415.41	397.89
415.60	404.91
415.79	383.85
415.98	416.62
416.17	395.55
416.36	411.93
416.55	346.40
416.74	423.64
416.93	390.87
417.12	458.74
417.31	407.25
417.50	484.49
417.69	472.79
417.88	369.80
418.07	409.59
418.26	411.93
418.45	454.06
418.64	507.90
418.83	367.46
419.02	418.96
419.21	369.80
419.39	390.87
419.58	393.21
419.77	376.83
419.96	388.53
420.15	428.32
420.34	421.30
420.53	383.85
420.72	444.70
420.91	421.30
421.10	454.06
421.29	468.11
421.48	400.23
421.67	376.83
421.86	423.64
422.05	416.62
422.24	416.62
422.43	444.70
422.61	360.44
422.80	322.99
422.99	430.66
423.18	306.61
423.37	390.87
423.56	482.15
423.75	383.85
423.94	442.36
424.13	428.32
424.32	390.87
424.50	493.85
424.69	386.19
424.88	447.04
425.07	402.57
425.26	423.64
425.45	505.56
425.64	416.62
425.83	447.04
426.01	430.66
426.20	428.32
426.39	379.17
426.58	463.43
426.77	409.59
426.96	414.27
427.15	430.66
427.33	447.04
427.52	461.09
427.71	388.53
427.90	358.10
428.09	374.49
428.28	433.00
428.46	475.13
428.65	362.78
428.84	456.40
429.03	376.83
429.22	423.64
429.40	369.80
429.59	383.85
429.78	402.57
429.97	465.77
430.16	383.85
430.34	461.09
430.53	461.09
430.72	400.23
430.91	353.42
431.10	355.76
431.28	386.19
431.47	407.25
431.66	437.68
431.85	430.66
432.03	383.85
432.22	512.58
432.41	449.38
432.60	430.66
432.79	365.12
432.97	376.83
433.16	433.00
433.35	425.98
433.54	442.36
433.72	421.30
433.91	407.25
434.10	411.93
434.28	402.57
434.47	337.04
434.66	447.04
434.85	409.59
435.03	393.21
435.22	372.15
435.41	454.06
435.59	421.30
435.78	437.68
435.97	463.43
436.16	409.59
436.34	362.78
436.53	489.17
436.72	433.00
436.90	458.74
437.09	416.62
437.28	425.98
437.46	472.79
437.65	430.66
437.84	444.70
438.02	409.59
438.21	470.45
438.40	425.98
438.58	372.15
438.77	376.83
438.96	348.74
439.14	337.04
439.33	390.87
439.52	365.12
439.70	400.23
439.89	416.62
440.08	416.62
440.26	421.30
440.45	402.57
440.63	362.78
440.82	393.21
441.01	414.27
441.19	463.43
441.38	418.96
441.57	430.66
441.75	472.79
441.94	486.83
442.12	433.00
442.31	444.70
442.50	414.27
442.68	397.89
442.87	372.15
443.05	390.87
443.24	393.21
443.43	437.68
443.61	454.06
443.80	423.64
443.98	416.62
444.17	461.09
444.35	423.64
444.54	400.23
444.73	475.13
444.91	465.77
445.10	463.43
445.28	346.40
445.47	444.70
445.65	414.27
445.84	402.57
446.02	414.27
446.21	416.62
446.39	411.93
446.58	428.32
446.77	397.89
446.95	454.06
447.14	355.76
447.32	454.06
447.51	409.59
447.69	421.30
447.88	379.17
448.06	449.38
448.25	425.98
448.43	421.30
448.62	360.44
448.80	388.53
448.99	468.11
449.17	393.21
449.36	388.53
449.54	313.63
449.73	400.23
449.91	365.12
450.10	322.99
450.28	430.66
450.46	358.10
450.65	407.25
450.83	435.34
451.02	353.42
451.20	353.42
451.39	395.55
451.57	383.85
451.76	451.72
451.94	348.74
452.13	404.91
452.31	416.62
452.49	416.62
452.68	348.74
452.86	379.17
453.05	451.72
453.23	444.70
453.42	470.45
453.60	341.72
453.78	414.27
453.97	442.36
454.15	430.66
454.34	372.15
454.52	411.93
454.70	500.87
454.89	388.53
455.07	383.85
455.26	404.91
455.44	425.98
455.62	433.00
455.81	400.23
455.99	407.25
456.17	461.09
456.36	418.96
456.54	369.80
456.73	390.87
456.91	376.83
457.09	418.96
457.28	425.98
457.46	425.98
457.64	472.79
457.83	425.98
458.01	421.30
458.19	395.55
458.38	397.89
458.56	322.99
458.74	304.27
458.93	428.32
459.11	456.40
459.29	390.87
459.48	442.36
459.66	449.38
459.84	447.04
460.03	456.40
460.21	390.87
460.39	428.32
460.57	416.62
460.76	449.38
460.94	400.23
461.12	369.80
461.31	486.83
461.49	400.23
461.67	425.98
461.85	348.74
462.04	463.43
462.22	716.20
462.40	393.21
462.59	435.34
462.77	386.19
462.95	397.89
463.13	486.83
463.32	379.17
463.50	404.91
463.68	409.59
463.86	400.23
464.05	374.49
464.23	400.23
464.41	383.85
464.59	470.45
464.78	411.93
464.96	451.72
465.14	461.09
465.32	418.96
465.50	407.25
465.69	421.30
465.87	449.38
466.05	472.79
466.23	449.38
466.41	414.27
466.60	433.00
466.78	393.21
466.96	409.59
467.14	409.59
467.32	346.40
467.51	449.38
467.69	470.45
467.87	414.27
468.05	442.36
468.23	517.26
468.41	374.49
468.60	437.68
468.78	423.64
468.96	428.32
469.14	435.34
469.32	376.83
469.50	360.44
469.69	454.06
469.87	416.62
470.05	440.02
470.23	376.83
470.41	425.98
470.59	461.09
470.77	383.85
470.95	421.30
471.14	393.21
471.32	365.12
471.50	428.32
471.68	376.83
471.86	428.32
472.04	332.36
472.22	358.10
472.40	409.59
472.58	411.93
472.77	360.44
472.95	376.83
473.13	402.57
473.31	383.85
473.49	437.68
473.67	344.06
473.85	444.70
474.03	430.66
474.21	397.89
474.39	414.27
474.57	447.04
474.75	470.45
474.93	437.68
475.12	383.85
475.30	390.87
475.48	388.53
475.66	397.89
475.84	386.19
476.02	367.46
476.20	383.85
476.38	451.72
476.56	461.09
476.74	346.40
476.92	400.23
477.10	407.25
477.28	425.98
477.46	383.85
477.64	372.15
477.82	400.23
478.00	374.49
478.18	409.59
478.36	442.36
478.54	468.11
478.72	393.21
478.90	447.04
479.08	330.02
479.26	430.66
479.44	435.34
479.62	348.74
479.80	320.65
479.98	383.85
480.16	409.59
480.34	477.47
480.52	423.64
480.70	360.44
480.88	390.87
481.06	379.17
481.24	376.83
481.41	393.21
481.59	374.49
481.77	381.51
481.95	369.80
482.13	388.53
482.31	428.32
482.49	395.55
482.67	458.74
482.85	397.89
483.03	468.11
483.21	461.09
483.39	402.57
483.57	425.98
483.74	468.11
483.92	437.68
484.10	449.38
484.28	440.02
484.46	477.47
484.64	418.96
484.82	400.23
485.00	369.80
485.18	388.53
485.35	414.27
485.53	404.91
485.71	538.32
485.89	344.06
486.07	341.72
486.25	517.26
486.43	409.59
486.61	404.91
486.78	444.70
486.96	369.80
487.14	505.56
487.32	362.78
487.50	402.57
487.68	365.12
487.85	372.15
488.03	477.47
488.21	421.30
488.39	484.49
488.57	416.62
488.75	365.12
488.92	573.43
489.10	416.62
489.28	430.66
489.46	411.93
489.64	416.62
489.81	418.96
489.99	437.68
490.17	433.00
490.35	388.53
490.53	498.53
490.70	421.30
490.88	416.62
491.06	400.23
491.24	435.34
491.41	468.11
491.59	437.68
491.77	440.02
491.95	381.51
492.13	447.04
492.30	407.25
492.48	423.64
492.66	353.42
492.84	383.85
493.01	456.40
493.19	433.00
493.37	482.15
493.54	409.59
493.72	388.53
493.90	358.10
494.08	456.40
494.25	458.74
494.43	407.25
494.61	390.87
494.79	400.23
494.96	395.55
495.14	430.66
495.32	461.09
495.49	390.87
495.67	369.80
495.85	400.23
496.02	344.06
496.20	435.34
496.38	486.83
496.55	383.85
496.73	444.70
496.91	470.45
497.09	388.53
497.26	409.59
497.44	367.46
497.62	414.27
497.79	442.36
497.97	425.98
498.14	519.60
498.32	456.40
498.50	414.27
498.67	379.17
498.85	435.34
499.03	365.12
499.20	409.59
499.38	393.21
499.56	327.68
499.73	404.91
499.91	393.21
500.08	517.26
500.26	414.27
500.44	409.59
500.61	454.06
500.79	369.80
500.97	390.87
501.14	442.36
501.32	386.19
501.49	505.56
501.67	374.49
501.84	400.23
502.02	322.99
502.20	395.55
502.37	430.66
502.55	397.89
502.72	440.02
502.90	535.98
503.07	372.15
503.25	351.08
503.43	372.15
503.60	355.76
503.78	423.64
503.95	437.68
504.13	395.55
504.30	393.21
504.48	451.72
504.65	449.38
504.83	397.89
505.01	491.51
505.18	414.27
505.36	458.74
505.53	477.47
505.71	379.17
505.88	421.30
506.06	416.62
506.23	400.23
506.41	425.98
506.58	386.19
506.76	404.91
506.93	393.21
507.11	442.36
507.28	355.76
507.46	437.68
507.63	425.98
507.81	435.34
507.98	341.72
508.16	388.53
508.33	414.27
508.50	390.87
508.68	444.70
508.85	435.34
509.03	390.87
509.20	390.87
509.38	388.53
509.55	468.11
509.73	425.98
509.90	414.27
510.08	421.30
510.25	390.87
510.42	444.70
510.60	379.17
510.77	414.27
510.95	498.53
511.12	376.83
511.30	397.89
511.47	409.59
511.64	454.06
511.82	402.57
511.99	454.06
512.17	454.06
512.34	447.04
512.51	395.55
512.69	407.25
512.86	479.81
513.04	468.11
513.21	402.57
513.38	414.27
513.56	435.34
513.73	472.79
513.90	430.66
514.08	461.09
514.25	362.78
514.43	404.91
514.60	322.99
514.77	381.51
514.95	538.32
515.12	472.79
515.29	358.10
515.47	390.87
515.64	414.27
515.81	416.62
515.99	421.30
516.16	437.68
516.33	444.70
516.51	496.19
516.68	351.08
516.85	472.79
517.03	437.68
517.20	440.02
517.37	416.62
517.54	454.06
517.72	440.02
517.89	414.27
518.06	393.21
518.24	498.53
518.41	461.09
518.58	425.98
518.75	433.00
518.93	411.93
519.10	437.68
519.27	407.25
519.45	397.89
519.62	397.89
519.79	486.83
519.96	404.91
520.14	367.46
520.31	519.60
520.48	386.19
520.65	475.13
520.83	407.25
521.00	428.32
521.17	315.97
521.34	409.59
521.52	379.17
521.69	355.76
521.86	418.96
522.03	477.47
522.20	400.23
522.38	449.38
522.55	372.15
522.72	500.87
522.89	475.13
523.07	411.93
523.24	369.80
523.41	482.15
523.58	418.96
523.75	393.21
523.92	454.06
524.10	430.66
524.27	454.06
524.44	374.49
524.61	451.72
524.78	365.12
524.96	393.21
525.13	428.32
525.30	482.15
525.47	423.64
525.64	376.83
525.81	425.98
525.98	416.62
526.16	381.51
526.33	433.00
526.50	456.40
526.67	433.00
526.84	365.12
527.01	402.57
527.18	374.49
527.36	477.47
527.53	379.17
527.70	430.66
527.87	440.02
528.04	388.53
528.21	411.93
528.38	454.06
528.55	491.51
528.72	435.34
528.89	402.57
529.07	400.23
529.24	503.22
529.41	477.47
529.58	425.98
529.75	388.53
529.92	374.49
530.09	425.98
530.26	409.59
530.43	388.53
530.60	395.55
530.77	440.02
530.94	379.17
531.11	428.32
531.28	390.87
531.46	418.96
531.63	397.89
531.80	369.80
531.97	519.60
532.14	484.49
532.31	397.89
532.48	397.89
532.65	458.74
532.82	451.72
532.99	388.53
533.16	477.47
533.33	428.32
533.50	425.98
533.67	423.64
533.84	402.57
534.01	395.55
534.18	454.06
534.35	418.96
534.52	367.46
534.69	376.83
534.86	381.51
535.03	379.17
535.20	355.76
535.37	437.68
535.54	430.66
535.71	397.89
535.88	433.00
536.05	376.83
536.22	400.23
536.38	437.68
536.55	458.74
536.72	440.02
536.89	409.59
537.06	472.79
537.23	388.53
537.40	381.51
537.57	423.64
537.74	447.04
537.91	470.45
538.08	353.42
538.25	475.13
538.42	458.74
538.59	400.23
538.75	390.87
538.92	435.34
539.09	498.53
539.26	360.44
539.43	484.49
539.60	402.57
539.77	390.87
539.94	355.76
540.11	369.80
540.28	484.49
540.44	437.68
540.61	423.64
540.78	388.53
540.95	411.93
541.12	458.74
541.29	393.21
541.46	505.56
541.62	463.43
541.79	411.93
541.96	463.43
542.13	475.13
542.30	358.10
542.47	468.11
542.63	390.87
542.80	425.98
542.97	449.38
543.14	390.87
543.31	458.74
543.48	372.15
543.64	390.87
543.81	358.10
543.98	411.93
544.15	390.87
544.32	430.66
544.48	433.00
544.65	456.40
544.82	421.30
544.99	381.51
545.16	418.96
545.32	491.51
545.49	404.91
545.66	454.06
545.83	395.55
546.00	437.68
546.16	407.25
546.33	444.70
546.50	404.91
546.67	421.30
546.83	444.70
547.00	381.51
547.17	397.89
547.34	374.49
547.50	372.15
547.67	411.93
547.84	365.12
548.00	360.44
548.17	376.83
548.34	383.85
548.51	400.23
548.67	465.77
548.84	416.62
549.01	365.12
549.18	404.91
549.34	411.93
549.51	444.70
549.68	433.00
549.84	437.68
550.01	430.66
550.18	493.85
550.34	486.83
550.51	484.49
550.68	395.55
550.84	383.85
551.01	468.11
551.18	397.89
551.34	411.93
551.51	388.53
551.68	376.83
551.84	386.19
552.01	416.62
552.18	400.23
552.34	475.13
552.51	458.74
552.68	475.13
552.84	409.59
553.01	435.34
553.18	465.77
553.34	362.78
553.51	397.89
553.67	407.25
553.84	409.59
554.01	472.79
554.17	409.59
554.34	444.70
554.51	468.11
554.67	463.43
554.84	418.96
555.00	418.96
555.17	393.21
555.33	386.19
555.50	442.36
555.67	470.45
555.83	386.19
556.00	372.15
556.16	587.47
556.33	437.68
556.50	402.57
556.66	437.68
556.83	440.02
556.99	397.89
557.16	404.91
557.32	440.02
557.49	468.11
557.65	407.25
557.82	393.21
557.98	346.40
558.15	379.17
558.32	442.36
558.48	388.53
558.65	411.93
558.81	433.00
558.98	365.12
559.14	456.40
559.31	451.72
559.47	510.24
559.64	397.89
559.80	437.68
559.97	355.76
560.13	404.91
560.30	444.70
560.46	447.04
560.63	402.57
560.79	397.89
560.96	451.72
561.12	322.99
561.29	358.10
561.45	454.06
561.61	362.78
561.78	477.47
561.94	369.80
562.11	402.57
562.27	470.45
562.44	454.06
562.60	393.21
562.77	423.64
562.93	454.06
563.10	435.34
563.26	383.85
563.42	393.21
563.59	379.17
563.75	379.17
563.92	505.56
564.08	416.62
564.24	444.70
564.41	437.68
564.57	404.91
564.74	362.78
564.90	458.74
565.07	449.38
565.23	425.98
565.39	458.74
565.56	486.83
565.72	447.04
565.88	386.19
566.05	444.70
566.21	451.72
566.38	388.53
566.54	372.15
566.70	409.59
566.87	407.25
567.03	383.85
567.19	423.64
567.36	411.93
567.52	404.91
567.68	409.59
567.85	322.99
568.01	435.34
568.17	388.53
568.34	430.66
568.50	461.09
568.66	435.34
568.83	503.22
568.99	425.98
569.15	470.45
569.32	465.77
569.48	428.32
569.64	433.00
569.81	425.98
569.97	444.70
570.13	421.30
570.30	454.06
570.46	447.04
570.62	395.55
570.78	472.79
570.95	440.02
571.11	486.83
571.27	463.43
571.43	322.99
571.60	404.91
571.76	444.70
571.92	463.43
572.09	505.56
572.25	447.04
572.41	423.64
572.57	428.32
572.74	414.27
572.90	442.36
573.06	428.32
573.22	454.06
573.38	447.04
573.55	411.93
573.71	404.91
573.87	498.53
574.03	421.30
574.20	442.36
574.36	454.06
574.52	374.49
574.68	425.98
574.84	479.81
575.01	433.00
575.17	346.40
575.33	407.25
575.49	411.93
575.65	458.74
575.82	444.70
575.98	423.64
576.14	498.53
576.30	449.38
576.46	395.55
576.62	451.72
576.79	440.02
576.95	423.64
577.11	330.02
577.27	397.89
577.43	433.00
577.59	390.87
577.75	435.34
577.92	402.57
578.08	379.17
578.24	425.98
578.40	500.87
578.56	437.68
578.72	433.00
578.88	444.70
579.04	411.93
579.21	433.00
579.37	404.91
579.53	430.66
579.69	442.36
579.85	390.87
580.01	376.83
580.17	374.49
580.33	353.42
580.49	414.27
580.65	397.89
580.82	390.87
580.98	402.57
581.14	397.89
581.30	386.19
581.46	414.27
581.62	454.06
581.78	440.02
581.94	416.62
582.10	346.40
582.26	404.91
582.42	456.40
582.58	423.64
582.74	386.19
582.90	414.27
583.06	465.77
583.22	451.72
583.38	388.53
583.54	437.68
583.70	411.93
583.86	489.17
584.02	456.40
584.18	381.51
584.34	388.53
584.50	407.25
584.66	517.26
584.82	344.06
584.98	358.10
585.14	358.10
585.30	428.32
585.46	379.17
585.62	360.44
585.78	397.89
585.94	421.30
586.10	386.19
586.26	479.81
586.42	484.49
586.58	526.62
586.74	463.43
586.90	447.04
587.06	402.57
587.22	437.68
587.38	407.25
587.54	365.12
587.70	458.74
587.86	458.74
588.02	404.91
588.18	435.34
588.34	407.25
588.49	437.68
588.65	454.06
588.81	411.93
588.97	414.27
589.13	404.91
589.29	510.24
589.45	395.55
589.61	381.51
589.77	440.02
589.93	400.23
590.08	425.98
590.24	334.70
590.40	437.68
590.56	402.57
590.72	400.23
590.88	374.49
591.04	367.46
591.20	383.85
591.35	447.04
591.51	416.62
591.67	362.78
591.83	383.85
591.99	416.62
592.15	437.68
592.31	390.87
592.46	395.55
592.62	437.68
592.78	430.66
592.94	404.91
593.10	360.44
593.26	465.77
593.41	463.43
593.57	475.13
593.73	451.72
593.89	418.96
594.05	388.53
594.20	362.78
594.36	416.62
594.52	381.51
594.68	379.17
594.84	535.98
594.99	451.72
595.15	386.19
595.31	416.62
595.47	528.96
595.62	369.80
595.78	489.17
595.94	454.06
596.10	395.55
596.25	390.87
596.41	365.12
596.57	447.04
596.73	411.93
596.88	416.62
597.04	463.43
597.20	362.78
597.36	418.96
597.51	414.27
597.67	440.02
597.83	393.21
597.99	535.98
598.14	425.98
598.30	479.81
598.46	425.98
598.61	477.47
598.77	442.36
598.93	400.23
599.09	360.44
599.24	430.66
599.40	388.53
599.56	470.45
599.71	423.64
599.87	407.25
600.03	423.64
600.18	348.74
600.34	433.00
600.50	433.00
600.65	423.64
600.81	486.83
600.97	388.53
601.12	416.62
601.28	383.85
601.44	407.25
601.59	358.10
601.75	472.79
601.91	397.89
602.06	409.59
602.22	498.53
602.37	442.36
602.53	447.04
602.69	397.89
602.84	334.70
603.00	355.76
603.16	421.30
603.31	454.06
603.47	507.90
603.62	477.47
603.78	348.74
603.94	409.59
604.09	388.53
604.25	383.85
604.40	411.93
604.56	376.83
604.71	341.72
604.87	418.96
605.03	463.43
605.18	386.19
605.34	458.74
605.49	433.00
605.65	447.04
605.80	381.51
605.96	376.83
606.12	402.57
606.27	468.11
606.43	423.64
606.58	437.68
606.74	372.15
606.89	379.17
607.05	383.85
607.20	409.59
607.36	416.62
607.51	454.06
607.67	437.68
607.82	397.89
607.98	400.23
608.13	372.15
608.29	400.23
608.44	461.09
608.60	470.45
608.75	458.74
608.91	463.43
609.06	472.79
609.22	470.45
609.37	402.57
609.53	475.13
609.68	440.02
609.84	315.97
609.99	416.62
610.15	402.57
