SpectraSuite Data File
++++++++++++++++++++++++++++++++++++
Date: Fri Oct 25 12:10:53 EDT 2013
User: price-jones
Dark Spectrum Present: No
Reference Spectrum Present: No
Number of Sampled Component Spectra: 1
Spectrometers: USB2+H05261
Integration Time (usec): 100000 (USB2+H05261)
Spectra Averaged: 1 (USB2+H05261)
Boxcar Smoothing: 0 (USB2+H05261)
Correct for Electrical Dark: No (USB2+H05261)
Strobe/Lamp Enabled: No (USB2+H05261)
Correct for Detector Non-linearity: No (USB2+H05261)
Correct for Stray Light: No (USB2+H05261)
Number of Pixels in Processed Spectrum: 2048
>>>>>Begin Processed Spectral Data<<<<<
365.73	358.10
365.92	358.10
366.12	358.10
366.32	271.50
366.52	358.10
366.72	262.14
366.91	245.76
367.11	243.42
367.31	297.25
367.51	250.44
367.70	220.01
367.90	203.63
368.10	149.79
368.30	196.60
368.49	208.31
368.69	278.52
368.89	196.60
369.09	238.73
369.28	301.93
369.48	255.12
369.68	285.55
369.87	346.40
370.07	311.29
370.27	297.25
370.47	337.04
370.66	330.02
370.86	400.23
371.06	341.72
371.25	447.04
371.45	353.42
371.65	386.19
371.84	332.36
372.04	393.21
372.24	351.08
372.44	355.76
372.63	430.66
372.83	456.40
373.03	365.12
373.22	437.68
373.42	397.89
373.62	379.17
373.81	421.30
374.01	442.36
374.21	477.47
374.40	425.98
374.60	425.98
374.79	418.96
374.99	451.72
375.19	470.45
375.38	493.85
375.58	386.19
375.78	386.19
375.97	404.91
376.17	430.66
376.37	425.98
376.56	393.21
376.76	407.25
376.95	411.93
377.15	418.96
377.35	423.64
377.54	360.44
377.74	435.34
377.93	414.27
378.13	425.98
378.33	407.25
378.52	435.34
378.72	430.66
378.91	346.40
379.11	425.98
379.31	388.53
379.50	442.36
379.70	433.00
379.89	447.04
380.09	409.59
380.28	407.25
380.48	418.96
380.68	416.62
380.87	355.76
381.07	346.40
381.26	390.87
381.46	365.12
381.65	418.96
381.85	351.08
382.04	379.17
382.24	493.85
382.43	407.25
382.63	353.42
382.83	416.62
383.02	416.62
383.22	421.30
383.41	440.02
383.61	425.98
383.80	430.66
384.00	435.34
384.19	444.70
384.39	493.85
384.58	402.57
384.78	409.59
384.97	383.85
385.17	372.15
385.36	423.64
385.56	330.02
385.75	353.42
385.95	386.19
386.14	482.15
386.34	416.62
386.53	430.66
386.72	470.45
386.92	428.32
387.11	402.57
387.31	397.89
387.50	330.02
387.70	372.15
387.89	325.33
388.09	353.42
388.28	355.76
388.48	409.59
388.67	383.85
388.86	379.17
389.06	360.44
389.25	411.93
389.45	381.51
389.64	367.46
389.84	433.00
390.03	484.49
390.22	369.80
390.42	393.21
390.61	393.21
390.81	404.91
391.00	472.79
391.19	433.00
391.39	376.83
391.58	454.06
391.78	435.34
391.97	430.66
392.16	435.34
392.36	451.72
392.55	437.68
392.75	400.23
392.94	423.64
393.13	390.87
393.33	390.87
393.52	367.46
393.71	444.70
393.91	425.98
394.10	397.89
394.29	362.78
394.49	315.97
394.68	386.19
394.88	402.57
395.07	428.32
395.26	360.44
395.46	430.66
395.65	496.19
395.84	381.51
396.04	414.27
396.23	407.25
396.42	425.98
396.62	447.04
396.81	402.57
397.00	379.17
397.19	416.62
397.39	395.55
397.58	458.74
397.77	442.36
397.97	402.57
398.16	346.40
398.35	447.04
398.55	407.25
398.74	365.12
398.93	386.19
399.12	381.51
399.32	463.43
399.51	400.23
399.70	341.72
399.90	411.93
400.09	374.49
400.28	428.32
400.47	348.74
400.67	400.23
400.86	418.96
401.05	418.96
401.24	407.25
401.44	402.57
401.63	341.72
401.82	381.51
402.01	397.89
402.21	397.89
402.40	456.40
402.59	402.57
402.78	433.00
402.97	411.93
403.17	425.98
403.36	425.98
403.55	376.83
403.74	367.46
403.93	367.46
404.13	376.83
404.32	358.10
404.51	397.89
404.70	402.57
404.89	372.15
405.09	489.17
405.28	386.19
405.47	411.93
405.66	400.23
405.85	456.40
406.05	351.08
406.24	404.91
406.43	472.79
406.62	461.09
406.81	435.34
407.00	435.34
407.20	428.32
407.39	402.57
407.58	341.72
407.77	344.06
407.96	365.12
408.15	404.91
408.34	362.78
408.54	390.87
408.73	381.51
408.92	388.53
409.11	421.30
409.30	461.09
409.49	435.34
409.68	414.27
409.87	376.83
410.07	407.25
410.26	409.59
410.45	372.15
410.64	416.62
410.83	407.25
411.02	341.72
411.21	500.87
411.40	390.87
411.59	402.57
411.78	416.62
411.98	468.11
412.17	393.21
412.36	330.02
412.55	388.53
412.74	421.30
412.93	428.32
413.12	397.89
413.31	454.06
413.50	425.98
413.69	365.12
413.88	430.66
414.07	386.19
414.26	440.02
414.45	437.68
414.64	456.40
414.83	418.96
415.02	374.49
415.22	379.17
415.41	430.66
415.60	435.34
415.79	397.89
415.98	444.70
416.17	365.12
416.36	390.87
416.55	372.15
416.74	468.11
416.93	386.19
417.12	402.57
417.31	454.06
417.50	407.25
417.69	425.98
417.88	416.62
418.07	425.98
418.26	344.06
418.45	397.89
418.64	465.77
418.83	421.30
419.02	355.76
419.21	430.66
419.39	454.06
419.58	332.36
419.77	367.46
419.96	458.74
420.15	435.34
420.34	444.70
420.53	402.57
420.72	402.57
420.91	411.93
421.10	430.66
421.29	372.15
421.48	374.49
421.67	470.45
421.86	423.64
422.05	383.85
422.24	400.23
422.43	411.93
422.61	369.80
422.80	447.04
422.99	404.91
423.18	379.17
423.37	440.02
423.56	461.09
423.75	510.24
423.94	407.25
424.13	395.55
424.32	449.38
424.50	395.55
424.69	449.38
424.88	409.59
425.07	388.53
425.26	365.12
425.45	442.36
425.64	388.53
425.83	418.96
426.01	402.57
426.20	407.25
426.39	353.42
426.58	386.19
426.77	376.83
426.96	447.04
427.15	367.46
427.33	341.72
427.52	367.46
427.71	388.53
427.90	393.21
428.09	423.64
428.28	325.33
428.46	428.32
428.65	491.51
428.84	416.62
429.03	458.74
429.22	425.98
429.40	418.96
429.59	454.06
429.78	407.25
429.97	318.31
430.16	367.46
430.34	479.81
430.53	416.62
430.72	470.45
430.91	458.74
431.10	411.93
431.28	456.40
431.47	479.81
431.66	449.38
431.85	414.27
432.03	416.62
432.22	435.34
432.41	433.00
432.60	451.72
432.79	311.29
432.97	379.17
433.16	402.57
433.35	360.44
433.54	402.57
433.72	400.23
433.91	430.66
434.10	372.15
434.28	367.46
434.47	402.57
434.66	491.51
434.85	358.10
435.03	386.19
435.22	437.68
435.41	358.10
435.59	479.81
435.78	407.25
435.97	444.70
436.16	491.51
436.34	393.21
436.53	433.00
436.72	468.11
436.90	421.30
437.09	369.80
437.28	388.53
437.46	402.57
437.65	372.15
437.84	449.38
438.02	435.34
438.21	456.40
438.40	367.46
438.58	407.25
438.77	421.30
438.96	449.38
439.14	416.62
439.33	475.13
439.52	409.59
439.70	486.83
439.89	433.00
440.08	456.40
440.26	479.81
440.45	425.98
440.63	409.59
440.82	423.64
441.01	376.83
441.19	442.36
441.38	409.59
441.57	376.83
441.75	430.66
441.94	465.77
442.12	433.00
442.31	390.87
442.50	395.55
442.68	365.12
442.87	416.62
443.05	449.38
443.24	409.59
443.43	430.66
443.61	390.87
443.80	369.80
443.98	416.62
444.17	479.81
444.35	411.93
444.54	360.44
444.73	390.87
444.91	400.23
445.10	407.25
445.28	461.09
445.47	416.62
445.65	421.30
445.84	353.42
446.02	383.85
446.21	416.62
446.39	374.49
446.58	428.32
446.77	425.98
446.95	425.98
447.14	465.77
447.32	458.74
447.51	428.32
447.69	430.66
447.88	383.85
448.06	409.59
448.25	421.30
448.43	348.74
448.62	454.06
448.80	489.17
448.99	433.00
449.17	428.32
449.36	332.36
449.54	444.70
449.73	411.93
449.91	395.55
450.10	470.45
450.28	477.47
450.46	461.09
450.65	423.64
450.83	456.40
451.02	404.91
451.20	386.19
451.39	374.49
451.57	472.79
451.76	330.02
451.94	381.51
452.13	351.08
452.31	430.66
452.49	461.09
452.68	360.44
452.86	379.17
453.05	383.85
453.23	404.91
453.42	463.43
453.60	440.02
453.78	402.57
453.97	379.17
454.15	456.40
454.34	388.53
454.52	430.66
454.70	402.57
454.89	362.78
455.07	435.34
455.26	437.68
455.44	379.17
455.62	381.51
455.81	458.74
455.99	397.89
456.17	447.04
456.36	421.30
456.54	440.02
456.73	428.32
456.91	362.78
457.09	428.32
457.28	451.72
457.46	433.00
457.64	433.00
457.83	416.62
458.01	365.12
458.19	440.02
458.38	390.87
458.56	411.93
458.74	444.70
458.93	442.36
459.11	425.98
459.29	404.91
459.48	402.57
459.66	456.40
459.84	433.00
460.03	493.85
460.21	521.94
460.39	383.85
460.57	428.32
460.76	393.21
460.94	374.49
461.12	470.45
461.31	433.00
461.49	416.62
461.67	395.55
461.85	402.57
462.04	456.40
462.22	795.78
462.40	355.76
462.59	477.47
462.77	358.10
462.95	367.46
463.13	346.40
463.32	461.09
463.50	409.59
463.68	435.34
463.86	472.79
464.05	442.36
464.23	344.06
464.41	365.12
464.59	437.68
464.78	404.91
464.96	456.40
465.14	400.23
465.32	421.30
465.50	388.53
465.69	395.55
465.87	320.65
466.05	430.66
466.23	409.59
466.41	358.10
466.60	355.76
466.78	447.04
466.96	423.64
467.14	444.70
467.32	444.70
467.51	416.62
467.69	407.25
467.87	489.17
468.05	428.32
468.23	470.45
468.41	400.23
468.60	505.56
468.78	376.83
468.96	353.42
469.14	423.64
469.32	421.30
469.50	379.17
469.69	425.98
469.87	367.46
470.05	442.36
470.23	390.87
470.41	383.85
470.59	435.34
470.77	461.09
470.95	400.23
471.14	418.96
471.32	418.96
471.50	493.85
471.68	451.72
471.86	376.83
472.04	292.57
472.22	379.17
472.40	442.36
472.58	430.66
472.77	397.89
472.95	404.91
473.13	451.72
473.31	430.66
473.49	444.70
473.67	379.17
473.85	402.57
474.03	484.49
474.21	430.66
474.39	510.24
474.57	491.51
474.75	435.34
474.93	416.62
475.12	409.59
475.30	325.33
475.48	437.68
475.66	395.55
475.84	372.15
476.02	430.66
476.20	416.62
476.38	423.64
476.56	500.87
476.74	416.62
476.92	430.66
477.10	355.76
477.28	421.30
477.46	416.62
477.64	421.30
477.82	435.34
478.00	470.45
478.18	468.11
478.36	376.83
478.54	435.34
478.72	449.38
478.90	435.34
479.08	407.25
479.26	404.91
479.44	404.91
479.62	386.19
479.80	454.06
479.98	383.85
480.16	482.15
480.34	374.49
480.52	395.55
480.70	472.79
480.88	421.30
481.06	379.17
481.24	428.32
481.41	463.43
481.59	421.30
481.77	395.55
481.95	411.93
482.13	468.11
482.31	351.08
482.49	407.25
482.67	433.00
482.85	477.47
483.03	463.43
483.21	416.62
483.39	402.57
483.57	451.72
483.74	428.32
483.92	428.32
484.10	372.15
484.28	407.25
484.46	414.27
484.64	365.12
484.82	390.87
485.00	411.93
485.18	411.93
485.35	313.63
485.53	444.70
485.71	360.44
485.89	339.38
486.07	339.38
486.25	458.74
486.43	454.06
486.61	393.21
486.78	425.98
486.96	358.10
487.14	482.15
487.32	416.62
487.50	374.49
487.68	355.76
487.85	369.80
488.03	400.23
488.21	470.45
488.39	423.64
488.57	489.17
488.75	388.53
488.92	519.60
489.10	470.45
489.28	484.49
489.46	393.21
489.64	416.62
489.81	402.57
489.99	425.98
490.17	430.66
490.35	475.13
490.53	423.64
490.70	440.02
490.88	461.09
491.06	416.62
491.24	430.66
491.41	388.53
491.59	491.51
491.77	409.59
491.95	414.27
492.13	376.83
492.30	493.85
492.48	465.77
492.66	402.57
492.84	381.51
493.01	456.40
493.19	369.80
493.37	500.87
493.54	379.17
493.72	407.25
493.90	341.72
494.08	416.62
494.25	468.11
494.43	421.30
494.61	341.72
494.79	381.51
494.96	404.91
495.14	447.04
495.32	414.27
495.49	414.27
495.67	449.38
495.85	407.25
496.02	374.49
496.20	444.70
496.38	423.64
496.55	435.34
496.73	418.96
496.91	367.46
497.09	372.15
497.26	435.34
497.44	409.59
497.62	400.23
497.79	414.27
497.97	454.06
498.14	437.68
498.32	360.44
498.50	402.57
498.67	365.12
498.85	440.02
499.03	428.32
499.20	376.83
499.38	411.93
499.56	435.34
499.73	414.27
499.91	374.49
500.08	447.04
500.26	351.08
500.44	444.70
500.61	414.27
500.79	503.22
500.97	404.91
501.14	447.04
501.32	449.38
501.49	526.62
501.67	369.80
501.84	418.96
502.02	468.11
502.20	365.12
502.37	409.59
502.55	397.89
502.72	355.76
502.90	505.56
503.07	433.00
503.25	425.98
503.43	416.62
503.60	425.98
503.78	451.72
503.95	421.30
504.13	440.02
504.30	463.43
504.48	397.89
504.65	458.74
504.83	383.85
505.01	475.13
505.18	449.38
505.36	390.87
505.53	362.78
505.71	421.30
505.88	402.57
506.06	411.93
506.23	360.44
506.41	454.06
506.58	360.44
506.76	400.23
506.93	428.32
507.11	444.70
507.28	456.40
507.46	458.74
507.63	414.27
507.81	383.85
507.98	435.34
508.16	360.44
508.33	430.66
508.50	484.49
508.68	416.62
508.85	493.85
509.03	442.36
509.20	433.00
509.38	409.59
509.55	421.30
509.73	461.09
509.90	472.79
510.08	400.23
510.25	416.62
510.42	451.72
510.60	306.61
510.77	374.49
510.95	456.40
511.12	376.83
511.30	444.70
511.47	489.17
511.64	463.43
511.82	418.96
511.99	390.87
512.17	400.23
512.34	435.34
512.51	465.77
512.69	358.10
512.86	425.98
513.04	437.68
513.21	404.91
513.38	449.38
513.56	433.00
513.73	376.83
513.90	383.85
514.08	330.02
514.25	407.25
514.43	430.66
514.60	360.44
514.77	367.46
514.95	409.59
515.12	444.70
515.29	423.64
515.47	444.70
515.64	447.04
515.81	451.72
515.99	407.25
516.16	400.23
516.33	430.66
516.51	425.98
516.68	334.70
516.85	386.19
517.03	421.30
517.20	372.15
517.37	428.32
517.54	428.32
517.72	428.32
517.89	355.76
518.06	475.13
518.24	498.53
518.41	465.77
518.58	470.45
518.75	409.59
518.93	393.21
519.10	433.00
519.27	449.38
519.45	418.96
519.62	456.40
519.79	458.74
519.96	402.57
520.14	395.55
520.31	397.89
520.48	430.66
520.65	372.15
520.83	449.38
521.00	423.64
521.17	418.96
521.34	519.60
521.52	416.62
521.69	395.55
521.86	360.44
522.03	418.96
522.20	393.21
522.38	355.76
522.55	358.10
522.72	388.53
522.89	421.30
523.07	451.72
523.24	454.06
523.41	425.98
523.58	454.06
523.75	374.49
523.92	386.19
524.10	355.76
524.27	397.89
524.44	433.00
524.61	397.89
524.78	411.93
524.96	425.98
525.13	393.21
525.30	489.17
525.47	449.38
525.64	442.36
525.81	374.49
525.98	409.59
526.16	341.72
526.33	322.99
526.50	386.19
526.67	409.59
526.84	437.68
527.01	402.57
527.18	388.53
527.36	325.33
527.53	372.15
527.70	442.36
527.87	456.40
528.04	505.56
528.21	423.64
528.38	407.25
528.55	402.57
528.72	437.68
528.89	470.45
529.07	440.02
529.24	416.62
529.41	425.98
529.58	463.43
529.75	369.80
529.92	418.96
530.09	442.36
530.26	407.25
530.43	440.02
530.60	444.70
530.77	390.87
530.94	414.27
531.11	348.74
531.28	379.17
531.46	430.66
531.63	428.32
531.80	444.70
531.97	442.36
532.14	428.32
532.31	402.57
532.48	404.91
532.65	358.10
532.82	449.38
532.99	435.34
533.16	388.53
533.33	423.64
533.50	407.25
533.67	379.17
533.84	447.04
534.01	390.87
534.18	421.30
534.35	437.68
534.52	379.17
534.69	493.85
534.86	479.81
535.03	404.91
535.20	365.12
535.37	496.19
535.54	414.27
535.71	451.72
535.88	428.32
536.05	454.06
536.22	418.96
536.38	360.44
536.55	477.47
536.72	433.00
536.89	407.25
537.06	400.23
537.23	433.00
537.40	472.79
537.57	437.68
537.74	547.69
537.91	447.04
538.08	442.36
538.25	458.74
538.42	409.59
538.59	423.64
538.75	358.10
538.92	482.15
539.09	463.43
539.26	456.40
539.43	404.91
539.60	435.34
539.77	374.49
539.94	423.64
540.11	451.72
540.28	418.96
540.44	393.21
540.61	404.91
540.78	437.68
540.95	388.53
541.12	472.79
541.29	433.00
541.46	482.15
541.62	390.87
541.79	444.70
541.96	332.36
542.13	407.25
542.30	381.51
542.47	430.66
542.63	383.85
542.80	496.19
542.97	435.34
543.14	369.80
543.31	465.77
543.48	437.68
543.64	437.68
543.81	402.57
543.98	456.40
544.15	430.66
544.32	418.96
544.48	421.30
544.65	383.85
544.82	440.02
544.99	404.91
545.16	458.74
545.32	400.23
545.49	383.85
545.66	390.87
545.83	411.93
546.00	397.89
546.16	393.21
546.33	411.93
546.50	418.96
546.67	358.10
546.83	423.64
547.00	444.70
547.17	362.78
547.34	430.66
547.50	430.66
547.67	402.57
547.84	435.34
548.00	425.98
548.17	496.19
548.34	437.68
548.51	472.79
548.67	433.00
548.84	397.89
549.01	376.83
549.18	379.17
549.34	421.30
549.51	526.62
549.68	372.15
549.84	353.42
550.01	421.30
550.18	526.62
550.34	475.13
550.51	337.04
550.68	428.32
550.84	400.23
551.01	447.04
551.18	430.66
551.34	409.59
551.51	400.23
551.68	395.55
551.84	404.91
552.01	437.68
552.18	447.04
552.34	390.87
552.51	390.87
552.68	355.76
552.84	369.80
553.01	379.17
553.18	400.23
553.34	416.62
553.51	414.27
553.67	458.74
553.84	428.32
554.01	461.09
554.17	465.77
554.34	428.32
554.51	479.81
554.67	454.06
554.84	397.89
555.00	416.62
555.17	463.43
555.33	400.23
555.50	369.80
555.67	402.57
555.83	395.55
556.00	435.34
556.16	507.90
556.33	456.40
556.50	451.72
556.66	367.46
556.83	390.87
556.99	470.45
557.16	390.87
557.32	440.02
557.49	339.38
557.65	381.51
557.82	407.25
557.98	416.62
558.15	416.62
558.32	425.98
558.48	404.91
558.65	386.19
558.81	395.55
558.98	404.91
559.14	400.23
559.31	458.74
559.47	500.87
559.64	428.32
559.80	397.89
559.97	411.93
560.13	442.36
560.30	390.87
560.46	418.96
560.63	416.62
560.79	416.62
560.96	407.25
561.12	440.02
561.29	435.34
561.45	479.81
561.61	397.89
561.78	519.60
561.94	435.34
562.11	421.30
562.27	449.38
562.44	470.45
562.60	404.91
562.77	470.45
562.93	475.13
563.10	379.17
563.26	411.93
563.42	440.02
563.59	372.15
563.75	421.30
563.92	365.12
564.08	402.57
564.24	505.56
564.41	477.47
564.57	447.04
564.74	367.46
564.90	388.53
565.07	381.51
565.23	456.40
565.39	477.47
565.56	430.66
565.72	465.77
565.88	402.57
566.05	402.57
566.21	351.08
566.38	414.27
566.54	449.38
566.70	337.04
566.87	510.24
567.03	341.72
567.19	400.23
567.36	390.87
567.52	379.17
567.68	463.43
567.85	400.23
568.01	365.12
568.17	409.59
568.34	315.97
568.50	433.00
568.66	409.59
568.83	498.53
568.99	416.62
569.15	486.83
569.32	454.06
569.48	397.89
569.64	449.38
569.81	388.53
569.97	433.00
570.13	470.45
570.30	397.89
570.46	433.00
570.62	421.30
570.78	425.98
570.95	423.64
571.11	440.02
571.27	475.13
571.43	400.23
571.60	449.38
571.76	433.00
571.92	437.68
572.09	339.38
572.25	430.66
572.41	393.21
572.57	484.49
572.74	468.11
572.90	444.70
573.06	418.96
573.22	454.06
573.38	454.06
573.55	411.93
573.71	477.47
573.87	437.68
574.03	374.49
574.20	411.93
574.36	440.02
574.52	451.72
574.68	397.89
574.84	383.85
575.01	416.62
575.17	433.00
575.33	400.23
575.49	468.11
575.65	423.64
575.82	423.64
575.98	456.40
576.14	360.44
576.30	449.38
576.46	440.02
576.62	430.66
576.79	437.68
576.95	386.19
577.11	386.19
577.27	395.55
577.43	486.83
577.59	425.98
577.75	444.70
577.92	369.80
578.08	468.11
578.24	433.00
578.40	465.77
578.56	433.00
578.72	472.79
578.88	440.02
579.04	435.34
579.21	433.00
579.37	376.83
579.53	454.06
579.69	451.72
579.85	409.59
580.01	428.32
580.17	374.49
580.33	461.09
580.49	332.36
580.65	365.12
580.82	287.89
580.98	381.51
581.14	308.95
581.30	411.93
581.46	395.55
581.62	423.64
581.78	444.70
581.94	428.32
582.10	388.53
582.26	437.68
582.42	320.65
582.58	433.00
582.74	484.49
582.90	465.77
583.06	430.66
583.22	395.55
583.38	475.13
583.54	421.30
583.70	430.66
583.86	418.96
584.02	430.66
584.18	463.43
584.34	313.63
584.50	444.70
584.66	414.27
584.82	472.79
584.98	421.30
585.14	353.42
585.30	416.62
585.46	442.36
585.62	475.13
585.78	421.30
585.94	414.27
586.10	404.91
586.26	430.66
586.42	395.55
586.58	433.00
586.74	404.91
586.90	376.83
587.06	451.72
587.22	362.78
587.38	423.64
587.54	475.13
587.70	383.85
587.86	447.04
588.02	404.91
588.18	393.21
588.34	423.64
588.49	379.17
588.65	409.59
588.81	393.21
588.97	362.78
589.13	404.91
589.29	444.70
589.45	444.70
589.61	418.96
589.77	463.43
589.93	376.83
590.08	437.68
590.24	416.62
590.40	360.44
590.56	418.96
590.72	451.72
590.88	423.64
591.04	358.10
591.20	407.25
591.35	395.55
591.51	456.40
591.67	433.00
591.83	381.51
591.99	475.13
592.15	447.04
592.31	484.49
592.46	447.04
592.62	414.27
592.78	400.23
592.94	367.46
593.10	395.55
593.26	395.55
593.41	376.83
593.57	484.49
593.73	334.70
593.89	468.11
594.05	348.74
594.20	435.34
594.36	381.51
594.52	444.70
594.68	503.22
594.84	451.72
594.99	437.68
595.15	458.74
595.31	437.68
595.47	418.96
595.62	397.89
595.78	351.08
595.94	393.21
596.10	479.81
596.25	430.66
596.41	479.81
596.57	386.19
596.73	358.10
596.88	400.23
597.04	470.45
597.20	442.36
597.36	400.23
597.51	472.79
597.67	463.43
597.83	409.59
597.99	454.06
598.14	402.57
598.30	444.70
598.46	407.25
598.61	444.70
598.77	400.23
598.93	374.49
599.09	383.85
599.24	425.98
599.40	433.00
599.56	437.68
599.71	423.64
599.87	479.81
600.03	334.70
600.18	365.12
600.34	425.98
600.50	409.59
600.65	358.10
600.81	437.68
600.97	379.17
601.12	360.44
601.28	463.43
601.44	437.68
601.59	411.93
601.75	465.77
601.91	332.36
602.06	383.85
602.22	447.04
602.37	440.02
602.53	430.66
602.69	447.04
602.84	428.32
603.00	402.57
603.16	381.51
603.31	379.17
603.47	423.64
603.62	400.23
603.78	421.30
603.94	416.62
604.09	463.43
604.25	407.25
604.40	367.46
604.56	416.62
604.71	388.53
604.87	416.62
605.03	425.98
605.18	395.55
605.34	475.13
605.49	341.72
605.65	376.83
605.80	430.66
605.96	414.27
606.12	451.72
606.27	479.81
606.43	430.66
606.58	362.78
606.74	409.59
606.89	325.33
607.05	463.43
607.20	376.83
607.36	493.85
607.51	376.83
607.67	416.62
607.82	491.51
607.98	449.38
608.13	402.57
608.29	390.87
608.44	472.79
608.60	423.64
608.75	472.79
608.91	454.06
609.06	472.79
609.22	400.23
609.37	433.00
609.53	353.42
609.68	404.91
609.84	407.25
609.99	411.93
610.15	409.59
