SpectraSuite Data File
++++++++++++++++++++++++++++++++++++
Date: Fri Oct 25 12:11:07 EDT 2013
User: price-jones
Dark Spectrum Present: No
Reference Spectrum Present: No
Number of Sampled Component Spectra: 1
Spectrometers: USB2+H05261
Integration Time (usec): 100000 (USB2+H05261)
Spectra Averaged: 1 (USB2+H05261)
Boxcar Smoothing: 0 (USB2+H05261)
Correct for Electrical Dark: No (USB2+H05261)
Strobe/Lamp Enabled: No (USB2+H05261)
Correct for Detector Non-linearity: No (USB2+H05261)
Correct for Stray Light: No (USB2+H05261)
Number of Pixels in Processed Spectrum: 2048
>>>>>Begin Processed Spectral Data<<<<<
365.73	390.87
365.92	390.87
366.12	390.87
366.32	248.10
366.52	271.50
366.72	215.33
366.91	201.29
367.11	269.16
367.31	278.52
367.51	201.29
367.70	243.42
367.90	308.95
368.10	297.25
368.30	250.44
368.49	241.08
368.69	241.08
368.89	259.80
369.09	243.42
369.28	280.86
369.48	369.80
369.68	325.33
369.87	358.10
370.07	315.97
370.27	278.52
370.47	285.55
370.66	337.04
370.86	407.25
371.06	360.44
371.25	365.12
371.45	409.59
371.65	365.12
371.84	320.65
372.04	327.68
372.24	404.91
372.44	404.91
372.63	388.53
372.83	449.38
373.03	404.91
373.22	416.62
373.42	400.23
373.62	416.62
373.81	374.49
374.01	458.74
374.21	444.70
374.40	365.12
374.60	447.04
374.79	400.23
374.99	388.53
375.19	451.72
375.38	437.68
375.58	372.15
375.78	411.93
375.97	435.34
376.17	477.47
376.37	407.25
376.56	376.83
376.76	437.68
376.95	433.00
377.15	477.47
377.35	383.85
377.54	397.89
377.74	416.62
377.93	430.66
378.13	491.51
378.33	465.77
378.52	442.36
378.72	425.98
378.91	341.72
379.11	379.17
379.31	435.34
379.50	386.19
379.70	383.85
379.89	500.87
380.09	435.34
380.28	397.89
380.48	407.25
380.68	348.74
380.87	433.00
381.07	390.87
381.26	454.06
381.46	330.02
381.65	486.83
381.85	423.64
382.04	437.68
382.24	421.30
382.43	402.57
382.63	407.25
382.83	449.38
383.02	416.62
383.22	411.93
383.41	430.66
383.61	442.36
383.80	425.98
384.00	461.09
384.19	379.17
384.39	411.93
384.58	374.49
384.78	442.36
384.97	397.89
385.17	390.87
385.36	388.53
385.56	470.45
385.75	332.36
385.95	393.21
386.14	437.68
386.34	379.17
386.53	313.63
386.72	322.99
386.92	458.74
387.11	353.42
387.31	435.34
387.50	374.49
387.70	407.25
387.89	449.38
388.09	379.17
388.28	339.38
388.48	468.11
388.67	418.96
388.86	425.98
389.06	400.23
389.25	369.80
389.45	449.38
389.64	409.59
389.84	400.23
390.03	416.62
390.22	393.21
390.42	421.30
390.61	425.98
390.81	451.72
391.00	430.66
391.19	437.68
391.39	362.78
391.58	463.43
391.78	411.93
391.97	390.87
392.16	376.83
392.36	433.00
392.55	411.93
392.75	416.62
392.94	365.12
393.13	458.74
393.33	433.00
393.52	372.15
393.71	437.68
393.91	381.51
394.10	344.06
394.29	409.59
394.49	381.51
394.68	409.59
394.88	330.02
395.07	414.27
395.26	428.32
395.46	379.17
395.65	409.59
395.84	416.62
396.04	500.87
396.23	440.02
396.42	383.85
396.62	433.00
396.81	500.87
397.00	381.51
397.19	449.38
397.39	393.21
397.58	416.62
397.77	461.09
397.97	428.32
398.16	388.53
398.35	430.66
398.55	409.59
398.74	383.85
398.93	425.98
399.12	374.49
399.32	425.98
399.51	374.49
399.70	421.30
399.90	409.59
400.09	369.80
400.28	433.00
400.47	423.64
400.67	390.87
400.86	402.57
401.05	416.62
401.24	442.36
401.44	421.30
401.63	416.62
401.82	416.62
402.01	458.74
402.21	423.64
402.40	437.68
402.59	367.46
402.78	425.98
402.97	388.53
403.17	351.08
403.36	339.38
403.55	365.12
403.74	383.85
403.93	437.68
404.13	351.08
404.32	505.56
404.51	381.51
404.70	472.79
404.89	442.36
405.09	393.21
405.28	421.30
405.47	407.25
405.66	388.53
405.85	369.80
406.05	369.80
406.24	437.68
406.43	449.38
406.62	444.70
406.81	425.98
407.00	465.77
407.20	475.13
407.39	341.72
407.58	421.30
407.77	421.30
407.96	390.87
408.15	458.74
408.34	404.91
408.54	449.38
408.73	358.10
408.92	395.55
409.11	411.93
409.30	428.32
409.49	397.89
409.68	381.51
409.87	383.85
410.07	456.40
410.26	379.17
410.45	437.68
410.64	435.34
410.83	454.06
411.02	393.21
411.21	444.70
411.40	355.76
411.59	409.59
411.78	416.62
411.98	433.00
412.17	416.62
412.36	376.83
412.55	390.87
412.74	355.76
412.93	425.98
413.12	414.27
413.31	433.00
413.50	418.96
413.69	397.89
413.88	486.83
414.07	421.30
414.26	437.68
414.45	418.96
414.64	428.32
414.83	407.25
415.02	433.00
415.22	393.21
415.41	400.23
415.60	358.10
415.79	414.27
415.98	449.38
416.17	388.53
416.36	388.53
416.55	327.68
416.74	353.42
416.93	411.93
417.12	374.49
417.31	440.02
417.50	414.27
417.69	500.87
417.88	376.83
418.07	386.19
418.26	477.47
418.45	344.06
418.64	416.62
418.83	376.83
419.02	479.81
419.21	430.66
419.39	351.08
419.58	454.06
419.77	381.51
419.96	416.62
420.15	454.06
420.34	433.00
420.53	383.85
420.72	437.68
420.91	402.57
421.10	411.93
421.29	374.49
421.48	358.10
421.67	362.78
421.86	433.00
422.05	425.98
422.24	367.46
422.43	376.83
422.61	393.21
422.80	416.62
422.99	393.21
423.18	395.55
423.37	463.43
423.56	449.38
423.75	358.10
423.94	411.93
424.13	437.68
424.32	491.51
424.50	465.77
424.69	390.87
424.88	414.27
425.07	383.85
425.26	425.98
425.45	348.74
425.64	489.17
425.83	388.53
426.01	423.64
426.20	456.40
426.39	423.64
426.58	372.15
426.77	388.53
426.96	409.59
427.15	400.23
427.33	440.02
427.52	461.09
427.71	423.64
427.90	418.96
428.09	444.70
428.28	346.40
428.46	447.04
428.65	430.66
428.84	477.47
429.03	468.11
429.22	395.55
429.40	430.66
429.59	369.80
429.78	397.89
429.97	397.89
430.16	465.77
430.34	425.98
430.53	369.80
430.72	360.44
430.91	465.77
431.10	433.00
431.28	325.33
431.47	416.62
431.66	430.66
431.85	393.21
432.03	479.81
432.22	465.77
432.41	472.79
432.60	383.85
432.79	334.70
432.97	397.89
433.16	376.83
433.35	341.72
433.54	383.85
433.72	404.91
433.91	470.45
434.10	444.70
434.28	414.27
434.47	409.59
434.66	409.59
434.85	442.36
435.03	411.93
435.22	449.38
435.41	470.45
435.59	400.23
435.78	400.23
435.97	402.57
436.16	421.30
436.34	444.70
436.53	360.44
436.72	411.93
436.90	418.96
437.09	395.55
437.28	458.74
437.46	351.08
437.65	414.27
437.84	430.66
438.02	463.43
438.21	433.00
438.40	442.36
438.58	386.19
438.77	400.23
438.96	374.49
439.14	362.78
439.33	458.74
439.52	395.55
439.70	425.98
439.89	400.23
440.08	411.93
440.26	503.22
440.45	393.21
440.63	444.70
440.82	374.49
441.01	423.64
441.19	418.96
441.38	407.25
441.57	454.06
441.75	407.25
441.94	416.62
442.12	507.90
442.31	369.80
442.50	428.32
442.68	437.68
442.87	475.13
443.05	444.70
443.24	463.43
443.43	423.64
443.61	458.74
443.80	425.98
443.98	407.25
444.17	454.06
444.35	423.64
444.54	444.70
444.73	393.21
444.91	414.27
445.10	369.80
445.28	339.38
445.47	407.25
445.65	423.64
445.84	423.64
446.02	411.93
446.21	423.64
446.39	435.34
446.58	411.93
446.77	451.72
446.95	367.46
447.14	484.49
447.32	447.04
447.51	456.40
447.69	409.59
447.88	397.89
448.06	449.38
448.25	407.25
448.43	367.46
448.62	400.23
448.80	421.30
448.99	449.38
449.17	358.10
449.36	362.78
449.54	374.49
449.73	348.74
449.91	465.77
450.10	360.44
450.28	416.62
450.46	402.57
450.65	451.72
450.83	470.45
451.02	388.53
451.20	400.23
451.39	425.98
451.57	428.32
451.76	353.42
451.94	428.32
452.13	484.49
452.31	463.43
452.49	402.57
452.68	358.10
452.86	444.70
453.05	477.47
453.23	400.23
453.42	369.80
453.60	341.72
453.78	463.43
453.97	390.87
454.15	353.42
454.34	435.34
454.52	418.96
454.70	379.17
454.89	444.70
455.07	416.62
455.26	437.68
455.44	449.38
455.62	414.27
455.81	421.30
455.99	397.89
456.17	388.53
456.36	423.64
456.54	435.34
456.73	433.00
456.91	383.85
457.09	409.59
457.28	369.80
457.46	379.17
457.64	444.70
457.83	404.91
458.01	418.96
458.19	409.59
458.38	451.72
458.56	458.74
458.74	358.10
458.93	397.89
459.11	454.06
459.29	451.72
459.48	470.45
459.66	402.57
459.84	442.36
460.03	484.49
460.21	402.57
460.39	381.51
460.57	383.85
460.76	372.15
460.94	376.83
461.12	423.64
461.31	489.17
461.49	402.57
461.67	468.11
461.85	486.83
462.04	386.19
462.22	805.14
462.40	440.02
462.59	400.23
462.77	407.25
462.95	381.51
463.13	379.17
463.32	442.36
463.50	430.66
463.68	451.72
463.86	425.98
464.05	440.02
464.23	433.00
464.41	428.32
464.59	463.43
464.78	418.96
464.96	447.04
465.14	414.27
465.32	409.59
465.50	461.09
465.69	414.27
465.87	355.76
466.05	475.13
466.23	407.25
466.41	404.91
466.60	318.31
466.78	411.93
466.96	397.89
467.14	421.30
467.32	512.58
467.51	451.72
467.69	411.93
467.87	386.19
468.05	353.42
468.23	463.43
468.41	367.46
468.60	416.62
468.78	454.06
468.96	428.32
469.14	463.43
469.32	402.57
469.50	365.12
469.69	395.55
469.87	409.59
470.05	447.04
470.23	430.66
470.41	400.23
470.59	397.89
470.77	390.87
470.95	416.62
471.14	496.19
471.32	440.02
471.50	472.79
471.68	444.70
471.86	421.30
472.04	376.83
472.22	383.85
472.40	393.21
472.58	404.91
472.77	416.62
472.95	393.21
473.13	489.17
473.31	449.38
473.49	355.76
473.67	411.93
473.85	386.19
474.03	414.27
474.21	444.70
474.39	402.57
474.57	456.40
474.75	367.46
474.93	449.38
475.12	538.32
475.30	411.93
475.48	400.23
475.66	383.85
475.84	414.27
476.02	456.40
476.20	381.51
476.38	376.83
476.56	484.49
476.74	465.77
476.92	428.32
477.10	306.61
477.28	458.74
477.46	423.64
477.64	463.43
477.82	374.49
478.00	327.68
478.18	407.25
478.36	428.32
478.54	411.93
478.72	341.72
478.90	341.72
479.08	374.49
479.26	461.09
479.44	416.62
479.62	318.31
479.80	414.27
479.98	374.49
480.16	407.25
480.34	454.06
480.52	395.55
480.70	433.00
480.88	440.02
481.06	435.34
481.24	407.25
481.41	390.87
481.59	414.27
481.77	362.78
481.95	400.23
482.13	444.70
482.31	386.19
482.49	418.96
482.67	456.40
482.85	414.27
483.03	390.87
483.21	435.34
483.39	390.87
483.57	407.25
483.74	411.93
483.92	470.45
484.10	423.64
484.28	423.64
484.46	386.19
484.64	437.68
484.82	402.57
485.00	374.49
485.18	465.77
485.35	353.42
485.53	379.17
485.71	416.62
485.89	465.77
486.07	344.06
486.25	470.45
486.43	437.68
486.61	414.27
486.78	402.57
486.96	414.27
487.14	369.80
487.32	409.59
487.50	404.91
487.68	442.36
487.85	458.74
488.03	423.64
488.21	421.30
488.39	369.80
488.57	428.32
488.75	367.46
488.92	526.62
489.10	400.23
489.28	451.72
489.46	489.17
489.64	449.38
489.81	402.57
489.99	393.21
490.17	454.06
490.35	465.77
490.53	407.25
490.70	376.83
490.88	444.70
491.06	409.59
491.24	353.42
491.41	409.59
491.59	411.93
491.77	362.78
491.95	463.43
492.13	402.57
492.30	416.62
492.48	463.43
492.66	465.77
492.84	372.15
493.01	414.27
493.19	435.34
493.37	458.74
493.54	421.30
493.72	393.21
493.90	428.32
494.08	388.53
494.25	435.34
494.43	374.49
494.61	393.21
494.79	458.74
494.96	496.19
495.14	447.04
495.32	454.06
495.49	388.53
495.67	433.00
495.85	428.32
496.02	409.59
496.20	425.98
496.38	435.34
496.55	395.55
496.73	489.17
496.91	409.59
497.09	444.70
497.26	461.09
497.44	428.32
497.62	402.57
497.79	456.40
497.97	430.66
498.14	444.70
498.32	482.15
498.50	360.44
498.67	423.64
498.85	444.70
499.03	348.74
499.20	425.98
499.38	369.80
499.56	393.21
499.73	442.36
499.91	365.12
500.08	418.96
500.26	407.25
500.44	400.23
500.61	437.68
500.79	449.38
500.97	367.46
501.14	454.06
501.32	442.36
501.49	390.87
501.67	367.46
501.84	390.87
502.02	400.23
502.20	440.02
502.37	383.85
502.55	421.30
502.72	435.34
502.90	400.23
503.07	358.10
503.25	404.91
503.43	390.87
503.60	435.34
503.78	365.12
503.95	367.46
504.13	407.25
504.30	433.00
504.48	416.62
504.65	395.55
504.83	383.85
505.01	395.55
505.18	369.80
505.36	418.96
505.53	365.12
505.71	404.91
505.88	456.40
506.06	447.04
506.23	379.17
506.41	411.93
506.58	421.30
506.76	416.62
506.93	444.70
507.11	428.32
507.28	507.90
507.46	367.46
507.63	388.53
507.81	388.53
507.98	465.77
508.16	414.27
508.33	400.23
508.50	486.83
508.68	428.32
508.85	440.02
509.03	458.74
509.20	397.89
509.38	348.74
509.55	440.02
509.73	444.70
509.90	407.25
510.08	407.25
510.25	425.98
510.42	395.55
510.60	442.36
510.77	414.27
510.95	437.68
511.12	414.27
511.30	400.23
511.47	482.15
511.64	454.06
511.82	381.51
511.99	440.02
512.17	442.36
512.34	402.57
512.51	444.70
512.69	362.78
512.86	465.77
513.04	337.04
513.21	362.78
513.38	428.32
513.56	388.53
513.73	423.64
513.90	367.46
514.08	327.68
514.25	435.34
514.43	400.23
514.60	454.06
514.77	423.64
514.95	440.02
515.12	383.85
515.29	407.25
515.47	437.68
515.64	425.98
515.81	383.85
515.99	437.68
516.16	351.08
516.33	479.81
516.51	440.02
516.68	425.98
516.85	451.72
517.03	379.17
517.20	341.72
517.37	447.04
517.54	404.91
517.72	437.68
517.89	388.53
518.06	428.32
518.24	496.19
518.41	458.74
518.58	468.11
518.75	383.85
518.93	461.09
519.10	404.91
519.27	360.44
519.45	444.70
519.62	461.09
519.79	411.93
519.96	470.45
520.14	465.77
520.31	491.51
520.48	407.25
520.65	379.17
520.83	479.81
521.00	423.64
521.17	465.77
521.34	404.91
521.52	393.21
521.69	421.30
521.86	327.68
522.03	433.00
522.20	472.79
522.38	339.38
522.55	479.81
522.72	425.98
522.89	365.12
523.07	390.87
523.24	414.27
523.41	449.38
523.58	360.44
523.75	451.72
523.92	381.51
524.10	507.90
524.27	404.91
524.44	395.55
524.61	374.49
524.78	388.53
524.96	425.98
525.13	402.57
525.30	421.30
525.47	409.59
525.64	372.15
525.81	409.59
525.98	407.25
526.16	351.08
526.33	348.74
526.50	416.62
526.67	374.49
526.84	477.47
527.01	374.49
527.18	503.22
527.36	430.66
527.53	400.23
527.70	383.85
527.87	437.68
528.04	477.47
528.21	411.93
528.38	437.68
528.55	435.34
528.72	374.49
528.89	437.68
529.07	437.68
529.24	362.78
529.41	388.53
529.58	461.09
529.75	440.02
529.92	411.93
530.09	379.17
530.26	449.38
530.43	519.60
530.60	402.57
530.77	447.04
530.94	479.81
531.11	463.43
531.28	337.04
531.46	465.77
531.63	418.96
531.80	395.55
531.97	397.89
532.14	376.83
532.31	388.53
532.48	430.66
532.65	440.02
532.82	449.38
532.99	393.21
533.16	411.93
533.33	407.25
533.50	358.10
533.67	372.15
533.84	369.80
534.01	409.59
534.18	369.80
534.35	379.17
534.52	416.62
534.69	451.72
534.86	449.38
535.03	440.02
535.20	365.12
535.37	428.32
535.54	386.19
535.71	369.80
535.88	468.11
536.05	418.96
536.22	465.77
536.38	470.45
536.55	461.09
536.72	428.32
536.89	421.30
537.06	411.93
537.23	404.91
537.40	477.47
537.57	440.02
537.74	447.04
537.91	386.19
538.08	507.90
538.25	437.68
538.42	409.59
538.59	447.04
538.75	458.74
538.92	365.12
539.09	425.98
539.26	402.57
539.43	535.98
539.60	381.51
539.77	425.98
539.94	397.89
540.11	367.46
540.28	407.25
540.44	449.38
540.61	456.40
540.78	454.06
540.95	489.17
541.12	449.38
541.29	465.77
541.46	433.00
541.62	376.83
541.79	393.21
541.96	428.32
542.13	493.85
542.30	435.34
542.47	454.06
542.63	388.53
542.80	428.32
542.97	482.15
543.14	447.04
543.31	451.72
543.48	388.53
543.64	475.13
543.81	393.21
543.98	374.49
544.15	402.57
544.32	379.17
544.48	400.23
544.65	386.19
544.82	365.12
544.99	283.20
545.16	374.49
545.32	418.96
545.49	397.89
545.66	409.59
545.83	421.30
546.00	444.70
546.16	400.23
546.33	397.89
546.50	433.00
546.67	388.53
546.83	411.93
547.00	374.49
547.17	311.29
547.34	400.23
547.50	418.96
547.67	470.45
547.84	379.17
548.00	397.89
548.17	400.23
548.34	374.49
548.51	475.13
548.67	402.57
548.84	456.40
549.01	402.57
549.18	425.98
549.34	390.87
549.51	407.25
549.68	421.30
549.84	545.34
550.01	407.25
550.18	423.64
550.34	496.19
550.51	418.96
550.68	404.91
550.84	498.53
551.01	440.02
551.18	351.08
551.34	425.98
551.51	454.06
551.68	362.78
551.84	411.93
552.01	397.89
552.18	369.80
552.34	437.68
552.51	444.70
552.68	400.23
552.84	402.57
553.01	435.34
553.18	388.53
553.34	407.25
553.51	428.32
553.67	372.15
553.84	428.32
554.01	425.98
554.17	482.15
554.34	468.11
554.51	418.96
554.67	477.47
554.84	437.68
555.00	468.11
555.17	447.04
555.33	456.40
555.50	421.30
555.67	423.64
555.83	362.78
556.00	383.85
556.16	594.50
556.33	430.66
556.50	411.93
556.66	435.34
556.83	388.53
556.99	437.68
557.16	358.10
557.32	353.42
557.49	360.44
557.65	409.59
557.82	440.02
557.98	409.59
558.15	358.10
558.32	355.76
558.48	428.32
558.65	409.59
558.81	442.36
558.98	402.57
559.14	400.23
559.31	407.25
559.47	444.70
559.64	393.21
559.80	507.90
559.97	409.59
560.13	393.21
560.30	423.64
560.46	418.96
560.63	440.02
560.79	470.45
560.96	334.70
561.12	402.57
561.29	428.32
561.45	409.59
561.61	407.25
561.78	390.87
561.94	386.19
562.11	458.74
562.27	468.11
562.44	409.59
562.60	407.25
562.77	421.30
562.93	463.43
563.10	479.81
563.26	451.72
563.42	486.83
563.59	395.55
563.75	414.27
563.92	435.34
564.08	458.74
564.24	475.13
564.41	397.89
564.57	376.83
564.74	404.91
564.90	397.89
565.07	423.64
565.23	404.91
565.39	409.59
565.56	442.36
565.72	411.93
565.88	393.21
566.05	468.11
566.21	423.64
566.38	421.30
566.54	442.36
566.70	423.64
566.87	388.53
567.03	353.42
567.19	425.98
567.36	416.62
567.52	440.02
567.68	451.72
567.85	472.79
568.01	435.34
568.17	393.21
568.34	372.15
568.50	437.68
568.66	376.83
568.83	428.32
568.99	365.12
569.15	454.06
569.32	376.83
569.48	411.93
569.64	386.19
569.81	402.57
569.97	383.85
570.13	442.36
570.30	411.93
570.46	400.23
570.62	388.53
570.78	369.80
570.95	479.81
571.11	470.45
571.27	393.21
571.43	444.70
571.60	416.62
571.76	383.85
571.92	425.98
572.09	393.21
572.25	465.77
572.41	393.21
572.57	351.08
572.74	468.11
572.90	451.72
573.06	362.78
573.22	311.29
573.38	397.89
573.55	430.66
573.71	428.32
573.87	444.70
574.03	425.98
574.20	440.02
574.36	456.40
574.52	362.78
574.68	433.00
574.84	447.04
575.01	386.19
575.17	402.57
575.33	437.68
575.49	348.74
575.65	393.21
575.82	458.74
575.98	435.34
576.14	418.96
576.30	491.51
576.46	461.09
576.62	369.80
576.79	374.49
576.95	423.64
577.11	367.46
577.27	472.79
577.43	421.30
577.59	449.38
577.75	526.62
577.92	372.15
578.08	442.36
578.24	421.30
578.40	365.12
578.56	447.04
578.72	421.30
578.88	423.64
579.04	397.89
579.21	365.12
579.37	430.66
579.53	463.43
579.69	475.13
579.85	444.70
580.01	400.23
580.17	437.68
580.33	470.45
580.49	400.23
580.65	393.21
580.82	379.17
580.98	379.17
581.14	409.59
581.30	409.59
581.46	351.08
581.62	404.91
581.78	395.55
581.94	395.55
582.10	409.59
582.26	386.19
582.42	451.72
582.58	379.17
582.74	416.62
582.90	397.89
583.06	386.19
583.22	353.42
583.38	423.64
583.54	414.27
583.70	407.25
583.86	395.55
584.02	463.43
584.18	442.36
584.34	388.53
584.50	411.93
584.66	402.57
584.82	425.98
584.98	435.34
585.14	402.57
585.30	482.15
585.46	402.57
585.62	379.17
585.78	425.98
585.94	484.49
586.10	435.34
586.26	390.87
586.42	388.53
586.58	395.55
586.74	402.57
586.90	440.02
587.06	404.91
587.22	376.83
587.38	402.57
587.54	381.51
587.70	409.59
587.86	421.30
588.02	416.62
588.18	484.49
588.34	423.64
588.49	334.70
588.65	365.12
588.81	330.02
588.97	362.78
589.13	409.59
589.29	411.93
589.45	430.66
589.61	428.32
589.77	465.77
589.93	379.17
590.08	400.23
590.24	395.55
590.40	381.51
590.56	531.30
590.72	447.04
590.88	444.70
591.04	458.74
591.20	395.55
591.35	451.72
591.51	383.85
591.67	376.83
591.83	351.08
591.99	418.96
592.15	430.66
592.31	423.64
592.46	428.32
592.62	449.38
592.78	407.25
592.94	489.17
593.10	435.34
593.26	397.89
593.41	416.62
593.57	414.27
593.73	423.64
593.89	479.81
594.05	365.12
594.20	425.98
594.36	475.13
594.52	414.27
594.68	355.76
594.84	421.30
594.99	376.83
595.15	386.19
595.31	423.64
595.47	386.19
595.62	454.06
595.78	435.34
595.94	404.91
596.10	428.32
596.25	383.85
596.41	425.98
596.57	440.02
596.73	409.59
596.88	390.87
597.04	440.02
597.20	425.98
597.36	465.77
597.51	475.13
597.67	416.62
597.83	463.43
597.99	458.74
598.14	463.43
598.30	425.98
598.46	486.83
598.61	386.19
598.77	440.02
598.93	425.98
599.09	404.91
599.24	411.93
599.40	493.85
599.56	430.66
599.71	470.45
599.87	486.83
600.03	376.83
600.18	470.45
600.34	449.38
600.50	437.68
600.65	402.57
600.81	404.91
600.97	393.21
601.12	386.19
601.28	435.34
601.44	325.33
601.59	367.46
601.75	400.23
601.91	425.98
602.06	353.42
602.22	397.89
602.37	472.79
602.53	418.96
602.69	402.57
602.84	423.64
603.00	390.87
603.16	409.59
603.31	402.57
603.47	496.19
603.62	435.34
603.78	383.85
603.94	458.74
604.09	461.09
604.25	479.81
604.40	390.87
604.56	379.17
604.71	402.57
604.87	437.68
605.03	433.00
605.18	442.36
605.34	472.79
605.49	386.19
605.65	397.89
605.80	465.77
605.96	390.87
606.12	411.93
606.27	433.00
606.43	414.27
606.58	447.04
606.74	423.64
606.89	454.06
607.05	411.93
607.20	367.46
607.36	383.85
607.51	353.42
607.67	381.51
607.82	491.51
607.98	425.98
608.13	437.68
608.29	400.23
608.44	442.36
608.60	423.64
608.75	423.64
608.91	454.06
609.06	362.78
609.22	451.72
609.37	454.06
609.53	346.40
609.68	388.53
609.84	463.43
609.99	421.30
610.15	376.83
