SpectraSuite Data File
++++++++++++++++++++++++++++++++++++
Date: Fri Oct 25 12:11:29 EDT 2013
User: price-jones
Dark Spectrum Present: No
Reference Spectrum Present: No
Number of Sampled Component Spectra: 1
Spectrometers: USB2+H05261
Integration Time (usec): 100000 (USB2+H05261)
Spectra Averaged: 1 (USB2+H05261)
Boxcar Smoothing: 0 (USB2+H05261)
Correct for Electrical Dark: No (USB2+H05261)
Strobe/Lamp Enabled: No (USB2+H05261)
Correct for Detector Non-linearity: No (USB2+H05261)
Correct for Stray Light: No (USB2+H05261)
Number of Pixels in Processed Spectrum: 2048
>>>>>Begin Processed Spectral Data<<<<<
365.73	353.42
365.92	353.42
366.12	353.42
366.32	227.03
366.52	217.67
366.72	177.88
366.91	220.01
367.11	231.71
367.31	215.33
367.51	245.76
367.70	255.12
367.90	224.69
368.10	313.63
368.30	273.84
368.49	203.63
368.69	201.29
368.89	241.08
369.09	215.33
369.28	283.20
369.48	276.18
369.68	313.63
369.87	348.74
370.07	315.97
370.27	348.74
370.47	280.86
370.66	304.27
370.86	388.53
371.06	421.30
371.25	355.76
371.45	351.08
371.65	383.85
371.84	402.57
372.04	418.96
372.24	386.19
372.44	397.89
372.63	339.38
372.83	440.02
373.03	411.93
373.22	404.91
373.42	468.11
373.62	423.64
373.81	393.21
374.01	442.36
374.21	449.38
374.40	346.40
374.60	430.66
374.79	482.15
374.99	416.62
375.19	369.80
375.38	442.36
375.58	449.38
375.78	362.78
375.97	477.47
376.17	531.30
376.37	407.25
376.56	388.53
376.76	369.80
376.95	332.36
377.15	425.98
377.35	367.46
377.54	414.27
377.74	437.68
377.93	388.53
378.13	447.04
378.33	418.96
378.52	355.76
378.72	447.04
378.91	433.00
379.11	374.49
379.31	423.64
379.50	369.80
379.70	383.85
379.89	404.91
380.09	362.78
380.28	337.04
380.48	365.12
380.68	433.00
380.87	433.00
381.07	442.36
381.26	437.68
381.46	390.87
381.65	404.91
381.85	397.89
382.04	409.59
382.24	435.34
382.43	393.21
382.63	353.42
382.83	372.15
383.02	435.34
383.22	454.06
383.41	369.80
383.61	440.02
383.80	395.55
384.00	379.17
384.19	430.66
384.39	461.09
384.58	409.59
384.78	442.36
384.97	400.23
385.17	404.91
385.36	330.02
385.56	472.79
385.75	428.32
385.95	407.25
386.14	440.02
386.34	383.85
386.53	414.27
386.72	440.02
386.92	463.43
387.11	447.04
387.31	404.91
387.50	327.68
387.70	435.34
387.89	376.83
388.09	418.96
388.28	393.21
388.48	404.91
388.67	533.64
388.86	418.96
389.06	428.32
389.25	355.76
389.45	456.40
389.64	428.32
389.84	393.21
390.03	449.38
390.22	376.83
390.42	383.85
390.61	437.68
390.81	362.78
391.00	397.89
391.19	437.68
391.39	369.80
391.58	393.21
391.78	400.23
391.97	447.04
392.16	428.32
392.36	454.06
392.55	369.80
392.75	423.64
392.94	456.40
393.13	381.51
393.33	367.46
393.52	372.15
393.71	505.56
393.91	376.83
394.10	379.17
394.29	400.23
394.49	418.96
394.68	381.51
394.88	355.76
395.07	435.34
395.26	454.06
395.46	433.00
395.65	395.55
395.84	433.00
396.04	489.17
396.23	395.55
396.42	428.32
396.62	409.59
396.81	442.36
397.00	430.66
397.19	355.76
397.39	433.00
397.58	447.04
397.77	381.51
397.97	433.00
398.16	416.62
398.35	435.34
398.55	379.17
398.74	479.81
398.93	458.74
399.12	430.66
399.32	418.96
399.51	416.62
399.70	496.19
399.90	386.19
400.09	327.68
400.28	374.49
400.47	355.76
400.67	313.63
400.86	437.68
401.05	404.91
401.24	421.30
401.44	472.79
401.63	397.89
401.82	414.27
402.01	341.72
402.21	374.49
402.40	418.96
402.59	376.83
402.78	423.64
402.97	393.21
403.17	440.02
403.36	325.33
403.55	428.32
403.74	435.34
403.93	428.32
404.13	458.74
404.32	407.25
404.51	402.57
404.70	470.45
404.89	425.98
405.09	454.06
405.28	430.66
405.47	421.30
405.66	365.12
405.85	393.21
406.05	404.91
406.24	379.17
406.43	454.06
406.62	395.55
406.81	421.30
407.00	449.38
407.20	365.12
407.39	388.53
407.58	435.34
407.77	400.23
407.96	425.98
408.15	498.53
408.34	444.70
408.54	435.34
408.73	388.53
408.92	442.36
409.11	454.06
409.30	435.34
409.49	433.00
409.68	313.63
409.87	402.57
410.07	484.49
410.26	404.91
410.45	454.06
410.64	447.04
410.83	456.40
411.02	418.96
411.21	393.21
411.40	465.77
411.59	433.00
411.78	423.64
411.98	383.85
412.17	383.85
412.36	425.98
412.55	355.76
412.74	437.68
412.93	414.27
413.12	379.17
413.31	400.23
413.50	430.66
413.69	344.06
413.88	365.12
414.07	411.93
414.26	421.30
414.45	456.40
414.64	458.74
414.83	440.02
415.02	440.02
415.22	486.83
415.41	468.11
415.60	442.36
415.79	416.62
415.98	414.27
416.17	402.57
416.36	447.04
416.55	428.32
416.74	425.98
416.93	489.17
417.12	346.40
417.31	397.89
417.50	393.21
417.69	444.70
417.88	395.55
418.07	472.79
418.26	383.85
418.45	442.36
418.64	449.38
418.83	409.59
419.02	433.00
419.21	451.72
419.39	421.30
419.58	416.62
419.77	430.66
419.96	395.55
420.15	421.30
420.34	402.57
420.53	440.02
420.72	411.93
420.91	423.64
421.10	393.21
421.29	411.93
421.48	425.98
421.67	433.00
421.86	423.64
422.05	404.91
422.24	369.80
422.43	456.40
422.61	461.09
422.80	390.87
422.99	402.57
423.18	386.19
423.37	461.09
423.56	428.32
423.75	465.77
423.94	397.89
424.13	486.83
424.32	458.74
424.50	397.89
424.69	421.30
424.88	404.91
425.07	498.53
425.26	416.62
425.45	451.72
425.64	372.15
425.83	475.13
426.01	416.62
426.20	468.11
426.39	379.17
426.58	404.91
426.77	339.38
426.96	423.64
427.15	440.02
427.33	440.02
427.52	425.98
427.71	346.40
427.90	428.32
428.09	425.98
428.28	372.15
428.46	479.81
428.65	449.38
428.84	395.55
429.03	447.04
429.22	390.87
429.40	379.17
429.59	414.27
429.78	435.34
429.97	475.13
430.16	477.47
430.34	381.51
430.53	407.25
430.72	409.59
430.91	447.04
431.10	374.49
431.28	433.00
431.47	388.53
431.66	430.66
431.85	341.72
432.03	449.38
432.22	505.56
432.41	430.66
432.60	409.59
432.79	390.87
432.97	353.42
433.16	393.21
433.35	407.25
433.54	379.17
433.72	411.93
433.91	395.55
434.10	383.85
434.28	409.59
434.47	442.36
434.66	477.47
434.85	421.30
435.03	388.53
435.22	442.36
435.41	353.42
435.59	416.62
435.78	416.62
435.97	330.02
436.16	440.02
436.34	447.04
436.53	409.59
436.72	477.47
436.90	465.77
437.09	423.64
437.28	372.15
437.46	393.21
437.65	433.00
437.84	433.00
438.02	395.55
438.21	447.04
438.40	430.66
438.58	372.15
438.77	393.21
438.96	404.91
439.14	423.64
439.33	362.78
439.52	414.27
439.70	482.15
439.89	393.21
440.08	479.81
440.26	411.93
440.45	451.72
440.63	388.53
440.82	463.43
441.01	376.83
441.19	402.57
441.38	447.04
441.57	388.53
441.75	423.64
441.94	388.53
442.12	425.98
442.31	418.96
442.50	390.87
442.68	407.25
442.87	411.93
443.05	472.79
443.24	517.26
443.43	367.46
443.61	418.96
443.80	505.56
443.98	416.62
444.17	409.59
444.35	428.32
444.54	470.45
444.73	418.96
444.91	463.43
445.10	472.79
445.28	428.32
445.47	433.00
445.65	407.25
445.84	444.70
446.02	433.00
446.21	360.44
446.39	409.59
446.58	437.68
446.77	374.49
446.95	461.09
447.14	463.43
447.32	395.55
447.51	402.57
447.69	407.25
447.88	484.49
448.06	486.83
448.25	468.11
448.43	353.42
448.62	430.66
448.80	418.96
448.99	440.02
449.17	454.06
449.36	388.53
449.54	428.32
449.73	383.85
449.91	390.87
450.10	437.68
450.28	383.85
450.46	456.40
450.65	493.85
450.83	454.06
451.02	484.49
451.20	395.55
451.39	477.47
451.57	418.96
451.76	381.51
451.94	388.53
452.13	468.11
452.31	365.12
452.49	407.25
452.68	379.17
452.86	472.79
453.05	402.57
453.23	397.89
453.42	421.30
453.60	339.38
453.78	435.34
453.97	437.68
454.15	372.15
454.34	428.32
454.52	411.93
454.70	498.53
454.89	449.38
455.07	433.00
455.26	411.93
455.44	437.68
455.62	393.21
455.81	376.83
455.99	388.53
456.17	402.57
456.36	374.49
456.54	402.57
456.73	447.04
456.91	367.46
457.09	393.21
457.28	393.21
457.46	393.21
457.64	372.15
457.83	493.85
458.01	393.21
458.19	456.40
458.38	397.89
458.56	461.09
458.74	414.27
458.93	379.17
459.11	372.15
459.29	437.68
459.48	390.87
459.66	461.09
459.84	465.77
460.03	458.74
460.21	395.55
460.39	397.89
460.57	454.06
460.76	428.32
460.94	423.64
461.12	435.34
461.31	423.64
461.49	414.27
461.67	433.00
461.85	416.62
462.04	444.70
462.22	765.36
462.40	430.66
462.59	435.34
462.77	416.62
462.95	458.74
463.13	461.09
463.32	498.53
463.50	472.79
463.68	423.64
463.86	440.02
464.05	411.93
464.23	465.77
464.41	425.98
464.59	386.19
464.78	440.02
464.96	418.96
465.14	418.96
465.32	468.11
465.50	409.59
465.69	400.23
465.87	362.78
466.05	404.91
466.23	386.19
466.41	404.91
466.60	360.44
466.78	390.87
466.96	409.59
467.14	454.06
467.32	423.64
467.51	503.22
467.69	484.49
467.87	468.11
468.05	372.15
468.23	400.23
468.41	388.53
468.60	374.49
468.78	430.66
468.96	447.04
469.14	435.34
469.32	425.98
469.50	407.25
469.69	437.68
469.87	418.96
470.05	416.62
470.23	456.40
470.41	477.47
470.59	425.98
470.77	358.10
470.95	393.21
471.14	395.55
471.32	447.04
471.50	477.47
471.68	372.15
471.86	449.38
472.04	435.34
472.22	479.81
472.40	449.38
472.58	449.38
472.77	358.10
472.95	407.25
473.13	463.43
473.31	463.43
473.49	414.27
473.67	416.62
473.85	400.23
474.03	428.32
474.21	428.32
474.39	423.64
474.57	442.36
474.75	383.85
474.93	437.68
475.12	416.62
475.30	346.40
475.48	416.62
475.66	386.19
475.84	414.27
476.02	472.79
476.20	435.34
476.38	421.30
476.56	435.34
476.74	444.70
476.92	447.04
477.10	507.90
477.28	381.51
477.46	444.70
477.64	468.11
477.82	402.57
478.00	411.93
478.18	444.70
478.36	421.30
478.54	355.76
478.72	355.76
478.90	404.91
479.08	479.81
479.26	418.96
479.44	365.12
479.62	437.68
479.80	397.89
479.98	458.74
480.16	435.34
480.34	440.02
480.52	376.83
480.70	442.36
480.88	367.46
481.06	369.80
481.24	425.98
481.41	472.79
481.59	468.11
481.77	376.83
481.95	383.85
482.13	418.96
482.31	395.55
482.49	400.23
482.67	442.36
482.85	461.09
483.03	416.62
483.21	411.93
483.39	423.64
483.57	437.68
483.74	395.55
483.92	395.55
484.10	433.00
484.28	374.49
484.46	496.19
484.64	421.30
484.82	388.53
485.00	451.72
485.18	416.62
485.35	383.85
485.53	388.53
485.71	414.27
485.89	409.59
486.07	456.40
486.25	430.66
486.43	472.79
486.61	449.38
486.78	416.62
486.96	425.98
487.14	428.32
487.32	435.34
487.50	451.72
487.68	397.89
487.85	381.51
488.03	447.04
488.21	482.15
488.39	386.19
488.57	425.98
488.75	512.58
488.92	531.30
489.10	451.72
489.28	463.43
489.46	411.93
489.64	372.15
489.81	397.89
489.99	468.11
490.17	404.91
490.35	463.43
490.53	334.70
490.70	425.98
490.88	390.87
491.06	397.89
491.24	477.47
491.41	449.38
491.59	407.25
491.77	376.83
491.95	376.83
492.13	365.12
492.30	437.68
492.48	428.32
492.66	479.81
492.84	425.98
493.01	421.30
493.19	454.06
493.37	390.87
493.54	423.64
493.72	463.43
493.90	400.23
494.08	397.89
494.25	437.68
494.43	367.46
494.61	449.38
494.79	407.25
494.96	372.15
495.14	390.87
495.32	449.38
495.49	393.21
495.67	395.55
495.85	447.04
496.02	461.09
496.20	468.11
496.38	440.02
496.55	447.04
496.73	428.32
496.91	367.46
497.09	402.57
497.26	393.21
497.44	411.93
497.62	407.25
497.79	454.06
497.97	393.21
498.14	514.92
498.32	479.81
498.50	393.21
498.67	381.51
498.85	444.70
499.03	397.89
499.20	374.49
499.38	379.17
499.56	400.23
499.73	421.30
499.91	409.59
500.08	470.45
500.26	435.34
500.44	425.98
500.61	416.62
500.79	386.19
500.97	423.64
501.14	458.74
501.32	388.53
501.49	421.30
501.67	360.44
501.84	437.68
502.02	376.83
502.20	397.89
502.37	423.64
502.55	390.87
502.72	404.91
502.90	463.43
503.07	425.98
503.25	379.17
503.43	428.32
503.60	416.62
503.78	402.57
503.95	458.74
504.13	414.27
504.30	416.62
504.48	388.53
504.65	418.96
504.83	337.04
505.01	423.64
505.18	308.95
505.36	395.55
505.53	400.23
505.71	393.21
505.88	379.17
506.06	407.25
506.23	414.27
506.41	407.25
506.58	423.64
506.76	365.12
506.93	390.87
507.11	428.32
507.28	400.23
507.46	322.99
507.63	409.59
507.81	367.46
507.98	355.76
508.16	409.59
508.33	358.10
508.50	407.25
508.68	407.25
508.85	416.62
509.03	322.99
509.20	341.72
509.38	397.89
509.55	425.98
509.73	365.12
509.90	381.51
510.08	418.96
510.25	425.98
510.42	344.06
510.60	374.49
510.77	409.59
510.95	414.27
511.12	463.43
511.30	414.27
511.47	383.85
511.64	411.93
511.82	447.04
511.99	390.87
512.17	404.91
512.34	400.23
512.51	423.64
512.69	430.66
512.86	372.15
513.04	404.91
513.21	465.77
513.38	379.17
513.56	416.62
513.73	428.32
513.90	470.45
514.08	397.89
514.25	440.02
514.43	400.23
514.60	440.02
514.77	397.89
514.95	386.19
515.12	365.12
515.29	425.98
515.47	386.19
515.64	388.53
515.81	425.98
515.99	503.22
516.16	477.47
516.33	433.00
516.51	433.00
516.68	421.30
516.85	409.59
517.03	374.49
517.20	407.25
517.37	461.09
517.54	500.87
517.72	360.44
517.89	358.10
518.06	425.98
518.24	470.45
518.41	433.00
518.58	458.74
518.75	444.70
518.93	468.11
519.10	315.97
519.27	430.66
519.45	423.64
519.62	435.34
519.79	362.78
519.96	360.44
520.14	472.79
520.31	404.91
520.48	435.34
520.65	423.64
520.83	390.87
521.00	423.64
521.17	451.72
521.34	430.66
521.52	388.53
521.69	407.25
521.86	482.15
522.03	463.43
522.20	402.57
522.38	407.25
522.55	430.66
522.72	348.74
522.89	470.45
523.07	440.02
523.24	421.30
523.41	381.51
523.58	393.21
523.75	353.42
523.92	440.02
524.10	376.83
524.27	402.57
524.44	468.11
524.61	449.38
524.78	376.83
524.96	470.45
525.13	500.87
525.30	477.47
525.47	440.02
525.64	458.74
525.81	477.47
525.98	411.93
526.16	381.51
526.33	421.30
526.50	334.70
526.67	402.57
526.84	416.62
527.01	418.96
527.18	428.32
527.36	461.09
527.53	418.96
527.70	374.49
527.87	404.91
528.04	407.25
528.21	376.83
528.38	421.30
528.55	458.74
528.72	418.96
528.89	418.96
529.07	404.91
529.24	447.04
529.41	458.74
529.58	451.72
529.75	444.70
529.92	444.70
530.09	397.89
530.26	397.89
530.43	341.72
530.60	358.10
530.77	386.19
530.94	341.72
531.11	447.04
531.28	435.34
531.46	421.30
531.63	409.59
531.80	388.53
531.97	458.74
532.14	381.51
532.31	397.89
532.48	395.55
532.65	411.93
532.82	425.98
532.99	365.12
533.16	402.57
533.33	402.57
533.50	442.36
533.67	463.43
533.84	435.34
534.01	447.04
534.18	423.64
534.35	383.85
534.52	447.04
534.69	484.49
534.86	292.57
535.03	423.64
535.20	407.25
535.37	449.38
535.54	437.68
535.71	341.72
535.88	428.32
536.05	444.70
536.22	367.46
536.38	428.32
536.55	440.02
536.72	435.34
536.89	461.09
537.06	454.06
537.23	433.00
537.40	407.25
537.57	533.64
537.74	449.38
537.91	386.19
538.08	330.02
538.25	437.68
538.42	433.00
538.59	486.83
538.75	437.68
538.92	456.40
539.09	433.00
539.26	386.19
539.43	400.23
539.60	498.53
539.77	463.43
539.94	365.12
540.11	486.83
540.28	411.93
540.44	507.90
540.61	388.53
540.78	400.23
540.95	365.12
541.12	442.36
541.29	435.34
541.46	514.92
541.62	393.21
541.79	390.87
541.96	435.34
542.13	456.40
542.30	437.68
542.47	440.02
542.63	365.12
542.80	437.68
542.97	435.34
543.14	493.85
543.31	433.00
543.48	381.51
543.64	447.04
543.81	421.30
543.98	395.55
544.15	400.23
544.32	355.76
544.48	409.59
544.65	484.49
544.82	367.46
544.99	386.19
545.16	374.49
545.32	397.89
545.49	418.96
545.66	390.87
545.83	428.32
546.00	461.09
546.16	367.46
546.33	449.38
546.50	374.49
546.67	355.76
546.83	404.91
547.00	468.11
547.17	421.30
547.34	395.55
547.50	428.32
547.67	461.09
547.84	395.55
548.00	383.85
548.17	362.78
548.34	440.02
548.51	456.40
548.67	442.36
548.84	423.64
549.01	437.68
549.18	386.19
549.34	433.00
549.51	449.38
549.68	376.83
549.84	351.08
550.01	423.64
550.18	477.47
550.34	465.77
550.51	449.38
550.68	557.05
550.84	386.19
551.01	418.96
551.18	390.87
551.34	397.89
551.51	433.00
551.68	400.23
551.84	393.21
552.01	409.59
552.18	383.85
552.34	425.98
552.51	386.19
552.68	416.62
552.84	386.19
553.01	458.74
553.18	435.34
553.34	390.87
553.51	454.06
553.67	346.40
553.84	442.36
554.01	458.74
554.17	397.89
554.34	444.70
554.51	428.32
554.67	447.04
554.84	425.98
555.00	458.74
555.17	346.40
555.33	402.57
555.50	458.74
555.67	355.76
555.83	369.80
556.00	334.70
556.16	571.09
556.33	503.22
556.50	433.00
556.66	493.85
556.83	402.57
556.99	369.80
557.16	360.44
557.32	442.36
557.49	388.53
557.65	468.11
557.82	409.59
557.98	341.72
558.15	386.19
558.32	402.57
558.48	409.59
558.65	435.34
558.81	425.98
558.98	404.91
559.14	458.74
559.31	440.02
559.47	355.76
559.64	367.46
559.80	400.23
559.97	337.04
560.13	463.43
560.30	369.80
560.46	400.23
560.63	360.44
560.79	404.91
560.96	395.55
561.12	468.11
561.29	442.36
561.45	379.17
561.61	468.11
561.78	475.13
561.94	404.91
562.11	451.72
562.27	442.36
562.44	421.30
562.60	374.49
562.77	386.19
562.93	423.64
563.10	407.25
563.26	386.19
563.42	428.32
563.59	449.38
563.75	400.23
563.92	489.17
564.08	414.27
564.24	521.94
564.41	470.45
564.57	362.78
564.74	475.13
564.90	461.09
565.07	447.04
565.23	404.91
565.39	351.08
565.56	407.25
565.72	475.13
565.88	433.00
566.05	484.49
566.21	442.36
566.38	465.77
566.54	365.12
566.70	425.98
566.87	372.15
567.03	390.87
567.19	465.77
567.36	411.93
567.52	393.21
567.68	465.77
567.85	395.55
568.01	447.04
568.17	425.98
568.34	463.43
568.50	423.64
568.66	358.10
568.83	428.32
568.99	425.98
569.15	395.55
569.32	348.74
569.48	411.93
569.64	379.17
569.81	425.98
569.97	430.66
570.13	418.96
570.30	421.30
570.46	428.32
570.62	341.72
570.78	395.55
570.95	395.55
571.11	470.45
571.27	489.17
571.43	411.93
571.60	430.66
571.76	339.38
571.92	418.96
572.09	379.17
572.25	433.00
572.41	409.59
572.57	414.27
572.74	449.38
572.90	430.66
573.06	444.70
573.22	425.98
573.38	388.53
573.55	491.51
573.71	407.25
573.87	409.59
574.03	355.76
574.20	458.74
574.36	447.04
574.52	447.04
574.68	444.70
574.84	402.57
575.01	337.04
575.17	451.72
575.33	477.47
575.49	421.30
575.65	421.30
575.82	416.62
575.98	428.32
576.14	379.17
576.30	383.85
576.46	383.85
576.62	437.68
576.79	430.66
576.95	435.34
577.11	444.70
577.27	435.34
577.43	397.89
577.59	444.70
577.75	390.87
577.92	454.06
578.08	456.40
578.24	393.21
578.40	414.27
578.56	465.77
578.72	491.51
578.88	407.25
579.04	376.83
579.21	437.68
579.37	477.47
579.53	475.13
579.69	472.79
579.85	404.91
580.01	393.21
580.17	390.87
580.33	433.00
580.49	496.19
580.65	486.83
580.82	388.53
580.98	456.40
581.14	430.66
581.30	479.81
581.46	386.19
581.62	400.23
581.78	351.08
581.94	393.21
582.10	442.36
582.26	428.32
582.42	447.04
582.58	407.25
582.74	418.96
582.90	379.17
583.06	416.62
583.22	393.21
583.38	472.79
583.54	407.25
583.70	444.70
583.86	390.87
584.02	444.70
584.18	496.19
584.34	388.53
584.50	402.57
584.66	386.19
584.82	393.21
584.98	390.87
585.14	421.30
585.30	400.23
585.46	440.02
585.62	437.68
585.78	386.19
585.94	367.46
586.10	388.53
586.26	409.59
586.42	411.93
586.58	472.79
586.74	393.21
586.90	388.53
587.06	470.45
587.22	463.43
587.38	421.30
587.54	369.80
587.70	440.02
587.86	379.17
588.02	409.59
588.18	430.66
588.34	449.38
588.49	379.17
588.65	390.87
588.81	407.25
588.97	404.91
589.13	433.00
589.29	383.85
589.45	409.59
589.61	397.89
589.77	468.11
589.93	447.04
590.08	470.45
590.24	414.27
590.40	376.83
590.56	409.59
590.72	442.36
590.88	435.34
591.04	440.02
591.20	440.02
591.35	468.11
591.51	435.34
591.67	437.68
591.83	416.62
591.99	423.64
592.15	489.17
592.31	341.72
592.46	416.62
592.62	451.72
592.78	454.06
592.94	402.57
593.10	416.62
593.26	400.23
593.41	381.51
593.57	416.62
593.73	477.47
593.89	444.70
594.05	390.87
594.20	449.38
594.36	444.70
594.52	397.89
594.68	386.19
594.84	407.25
594.99	407.25
595.15	454.06
595.31	496.19
595.47	393.21
595.62	374.49
595.78	414.27
595.94	428.32
596.10	416.62
596.25	423.64
596.41	416.62
596.57	451.72
596.73	482.15
596.88	383.85
597.04	437.68
597.20	475.13
597.36	423.64
597.51	383.85
597.67	458.74
597.83	486.83
597.99	411.93
598.14	451.72
598.30	468.11
598.46	482.15
598.61	433.00
598.77	444.70
598.93	430.66
599.09	383.85
599.24	381.51
599.40	404.91
599.56	477.47
599.71	433.00
599.87	400.23
600.03	381.51
600.18	498.53
600.34	498.53
600.50	465.77
600.65	418.96
600.81	409.59
600.97	407.25
601.12	454.06
601.28	442.36
601.44	383.85
601.59	437.68
601.75	482.15
601.91	444.70
602.06	454.06
602.22	535.98
602.37	444.70
602.53	425.98
602.69	440.02
602.84	395.55
603.00	440.02
603.16	451.72
603.31	491.51
603.47	395.55
603.62	397.89
603.78	365.12
603.94	402.57
604.09	498.53
604.25	482.15
604.40	397.89
604.56	386.19
604.71	397.89
604.87	402.57
605.03	355.76
605.18	435.34
605.34	411.93
605.49	386.19
605.65	451.72
605.80	369.80
605.96	477.47
606.12	416.62
606.27	407.25
606.43	428.32
606.58	418.96
606.74	463.43
606.89	374.49
607.05	395.55
607.20	402.57
607.36	423.64
607.51	444.70
607.67	472.79
607.82	369.80
607.98	416.62
608.13	386.19
608.29	362.78
608.44	521.94
608.60	400.23
608.75	442.36
608.91	411.93
609.06	393.21
609.22	428.32
609.37	418.96
609.53	440.02
609.68	451.72
609.84	390.87
609.99	428.32
610.15	411.93
