SpectraSuite Data File
++++++++++++++++++++++++++++++++++++
Date: Fri Oct 25 12:10:07 EDT 2013
User: price-jones
Dark Spectrum Present: No
Reference Spectrum Present: No
Number of Sampled Component Spectra: 1
Spectrometers: USB2+H05261
Integration Time (usec): 100000 (USB2+H05261)
Spectra Averaged: 1 (USB2+H05261)
Boxcar Smoothing: 0 (USB2+H05261)
Correct for Electrical Dark: No (USB2+H05261)
Strobe/Lamp Enabled: No (USB2+H05261)
Correct for Detector Non-linearity: No (USB2+H05261)
Correct for Stray Light: No (USB2+H05261)
Number of Pixels in Processed Spectrum: 2048
>>>>>Begin Processed Spectral Data<<<<<
365.73	374.49
365.92	374.49
366.12	374.49
366.32	273.84
366.52	287.89
366.72	245.76
366.91	248.10
367.11	198.95
367.31	189.58
367.51	250.44
367.70	224.69
367.90	215.33
368.10	220.01
368.30	210.65
368.49	205.97
368.69	189.58
368.89	231.71
369.09	287.89
369.28	294.91
369.48	262.14
369.68	283.20
369.87	322.99
370.07	271.50
370.27	280.86
370.47	334.70
370.66	330.02
370.86	423.64
371.06	393.21
371.25	414.27
371.45	369.80
371.65	390.87
371.84	407.25
372.04	407.25
372.24	393.21
372.44	386.19
372.63	454.06
372.83	411.93
373.03	402.57
373.22	386.19
373.42	416.62
373.62	409.59
373.81	381.51
374.01	437.68
374.21	430.66
374.40	444.70
374.60	418.96
374.79	379.17
374.99	407.25
375.19	440.02
375.38	416.62
375.58	421.30
375.78	409.59
375.97	442.36
376.17	409.59
376.37	402.57
376.56	416.62
376.76	404.91
376.95	449.38
377.15	393.21
377.35	409.59
377.54	451.72
377.74	367.46
377.93	372.15
378.13	411.93
378.33	414.27
378.52	418.96
378.72	435.34
378.91	430.66
379.11	395.55
379.31	407.25
379.50	337.04
379.70	421.30
379.89	379.17
380.09	332.36
380.28	393.21
380.48	414.27
380.68	353.42
380.87	374.49
381.07	449.38
381.26	418.96
381.46	383.85
381.65	407.25
381.85	428.32
382.04	397.89
382.24	461.09
382.43	393.21
382.63	454.06
382.83	409.59
383.02	348.74
383.22	383.85
383.41	421.30
383.61	428.32
383.80	475.13
384.00	386.19
384.19	395.55
384.39	376.83
384.58	395.55
384.78	346.40
384.97	379.17
385.17	437.68
385.36	383.85
385.56	395.55
385.75	386.19
385.95	390.87
386.14	414.27
386.34	397.89
386.53	379.17
386.72	365.12
386.92	456.40
387.11	440.02
387.31	475.13
387.50	372.15
387.70	400.23
387.89	430.66
388.09	454.06
388.28	381.51
388.48	358.10
388.67	482.15
388.86	407.25
389.06	346.40
389.25	367.46
389.45	433.00
389.64	367.46
389.84	472.79
390.03	470.45
390.22	416.62
390.42	442.36
390.61	325.33
390.81	409.59
391.00	456.40
391.19	538.32
391.39	423.64
391.58	472.79
391.78	461.09
391.97	416.62
392.16	386.19
392.36	402.57
392.55	433.00
392.75	409.59
392.94	428.32
393.13	447.04
393.33	360.44
393.52	395.55
393.71	430.66
393.91	447.04
394.10	411.93
394.29	437.68
394.49	367.46
394.68	444.70
394.88	360.44
395.07	388.53
395.26	425.98
395.46	447.04
395.65	449.38
395.84	372.15
396.04	451.72
396.23	430.66
396.42	402.57
396.62	395.55
396.81	421.30
397.00	456.40
397.19	358.10
397.39	374.49
397.58	379.17
397.77	449.38
397.97	418.96
398.16	418.96
398.35	435.34
398.55	435.34
398.74	451.72
398.93	433.00
399.12	369.80
399.32	416.62
399.51	468.11
399.70	386.19
399.90	425.98
400.09	407.25
400.28	390.87
400.47	414.27
400.67	418.96
400.86	404.91
401.05	386.19
401.24	390.87
401.44	430.66
401.63	435.34
401.82	351.08
402.01	365.12
402.21	367.46
402.40	372.15
402.59	397.89
402.78	435.34
402.97	442.36
403.17	383.85
403.36	433.00
403.55	367.46
403.74	367.46
403.93	381.51
404.13	437.68
404.32	447.04
404.51	435.34
404.70	390.87
404.89	440.02
405.09	425.98
405.28	489.17
405.47	400.23
405.66	400.23
405.85	440.02
406.05	376.83
406.24	360.44
406.43	360.44
406.62	428.32
406.81	423.64
407.00	421.30
407.20	360.44
407.39	379.17
407.58	362.78
407.77	414.27
407.96	400.23
408.15	402.57
408.34	447.04
408.54	461.09
408.73	308.95
408.92	465.77
409.11	468.11
409.30	435.34
409.49	430.66
409.68	468.11
409.87	362.78
410.07	414.27
410.26	365.12
410.45	397.89
410.64	341.72
410.83	402.57
411.02	337.04
411.21	468.11
411.40	433.00
411.59	397.89
411.78	433.00
411.98	479.81
412.17	409.59
412.36	425.98
412.55	393.21
412.74	381.51
412.93	376.83
413.12	423.64
413.31	397.89
413.50	390.87
413.69	395.55
413.88	400.23
414.07	362.78
414.26	449.38
414.45	381.51
414.64	402.57
414.83	407.25
415.02	376.83
415.22	402.57
415.41	421.30
415.60	365.12
415.79	332.36
415.98	383.85
416.17	430.66
416.36	418.96
416.55	339.38
416.74	409.59
416.93	404.91
417.12	334.70
417.31	304.27
417.50	409.59
417.69	489.17
417.88	421.30
418.07	383.85
418.26	409.59
418.45	400.23
418.64	470.45
418.83	355.76
419.02	430.66
419.21	393.21
419.39	433.00
419.58	362.78
419.77	458.74
419.96	421.30
420.15	414.27
420.34	374.49
420.53	386.19
420.72	461.09
420.91	407.25
421.10	447.04
421.29	449.38
421.48	472.79
421.67	444.70
421.86	390.87
422.05	454.06
422.24	423.64
422.43	402.57
422.61	411.93
422.80	402.57
422.99	493.85
423.18	365.12
423.37	479.81
423.56	456.40
423.75	428.32
423.94	414.27
424.13	407.25
424.32	372.15
424.50	388.53
424.69	404.91
424.88	423.64
425.07	397.89
425.26	442.36
425.45	400.23
425.64	355.76
425.83	386.19
426.01	416.62
426.20	393.21
426.39	411.93
426.58	372.15
426.77	397.89
426.96	479.81
427.15	367.46
427.33	379.17
427.52	369.80
427.71	397.89
427.90	477.47
428.09	402.57
428.28	381.51
428.46	395.55
428.65	402.57
428.84	358.10
429.03	442.36
429.22	404.91
429.40	376.83
429.59	428.32
429.78	397.89
429.97	456.40
430.16	409.59
430.34	355.76
430.53	414.27
430.72	341.72
430.91	433.00
431.10	493.85
431.28	407.25
431.47	435.34
431.66	440.02
431.85	344.06
432.03	472.79
432.22	451.72
432.41	444.70
432.60	418.96
432.79	386.19
432.97	442.36
433.16	472.79
433.35	407.25
433.54	425.98
433.72	381.51
433.91	416.62
434.10	341.72
434.28	496.19
434.47	393.21
434.66	437.68
434.85	442.36
435.03	442.36
435.22	461.09
435.41	470.45
435.59	418.96
435.78	360.44
435.97	346.40
436.16	388.53
436.34	451.72
436.53	418.96
436.72	395.55
436.90	430.66
437.09	458.74
437.28	465.77
437.46	433.00
437.65	372.15
437.84	418.96
438.02	372.15
438.21	440.02
438.40	423.64
438.58	327.68
438.77	425.98
438.96	435.34
439.14	411.93
439.33	407.25
439.52	362.78
439.70	437.68
439.89	456.40
440.08	440.02
440.26	437.68
440.45	409.59
440.63	365.12
440.82	442.36
441.01	404.91
441.19	386.19
441.38	381.51
441.57	409.59
441.75	395.55
441.94	440.02
442.12	430.66
442.31	479.81
442.50	416.62
442.68	463.43
442.87	365.12
443.05	442.36
443.24	376.83
443.43	421.30
443.61	411.93
443.80	404.91
443.98	411.93
444.17	437.68
444.35	404.91
444.54	362.78
444.73	383.85
444.91	397.89
445.10	444.70
445.28	393.21
445.47	400.23
445.65	519.60
445.84	409.59
446.02	388.53
446.21	437.68
446.39	341.72
446.58	435.34
446.77	287.89
446.95	447.04
447.14	409.59
447.32	524.28
447.51	358.10
447.69	383.85
447.88	360.44
448.06	376.83
448.25	404.91
448.43	393.21
448.62	451.72
448.80	463.43
448.99	442.36
449.17	416.62
449.36	379.17
449.54	355.76
449.73	418.96
449.91	395.55
450.10	503.22
450.28	489.17
450.46	447.04
450.65	397.89
450.83	454.06
451.02	472.79
451.20	505.56
451.39	433.00
451.57	465.77
451.76	416.62
451.94	395.55
452.13	388.53
452.31	379.17
452.49	390.87
452.68	496.19
452.86	440.02
453.05	449.38
453.23	411.93
453.42	374.49
453.60	376.83
453.78	428.32
453.97	440.02
454.15	414.27
454.34	365.12
454.52	482.15
454.70	440.02
454.89	437.68
455.07	433.00
455.26	456.40
455.44	395.55
455.62	428.32
455.81	374.49
455.99	435.34
456.17	461.09
456.36	444.70
456.54	440.02
456.73	447.04
456.91	407.25
457.09	381.51
457.28	386.19
457.46	372.15
457.64	416.62
457.83	454.06
458.01	416.62
458.19	449.38
458.38	449.38
458.56	435.34
458.74	423.64
458.93	344.06
459.11	463.43
459.29	411.93
459.48	416.62
459.66	381.51
459.84	376.83
460.03	421.30
460.21	369.80
460.39	390.87
460.57	493.85
460.76	386.19
460.94	367.46
461.12	435.34
461.31	388.53
461.49	428.32
461.67	332.36
461.85	402.57
462.04	404.91
462.22	779.40
462.40	407.25
462.59	407.25
462.77	442.36
462.95	447.04
463.13	376.83
463.32	486.83
463.50	351.08
463.68	430.66
463.86	430.66
464.05	470.45
464.23	435.34
464.41	407.25
464.59	348.74
464.78	388.53
464.96	409.59
465.14	442.36
465.32	440.02
465.50	374.49
465.69	379.17
465.87	372.15
466.05	468.11
466.23	351.08
466.41	463.43
466.60	425.98
466.78	400.23
466.96	465.77
467.14	418.96
467.32	463.43
467.51	409.59
467.69	440.02
467.87	416.62
468.05	395.55
468.23	430.66
468.41	477.47
468.60	358.10
468.78	435.34
468.96	400.23
469.14	337.04
469.32	395.55
469.50	381.51
469.69	360.44
469.87	444.70
470.05	414.27
470.23	440.02
470.41	397.89
470.59	418.96
470.77	360.44
470.95	411.93
471.14	435.34
471.32	402.57
471.50	477.47
471.68	374.49
471.86	440.02
472.04	409.59
472.22	465.77
472.40	437.68
472.58	386.19
472.77	341.72
472.95	395.55
473.13	402.57
473.31	423.64
473.49	421.30
473.67	379.17
473.85	402.57
474.03	423.64
474.21	423.64
474.39	362.78
474.57	423.64
474.75	428.32
474.93	454.06
475.12	358.10
475.30	409.59
475.48	330.02
475.66	416.62
475.84	465.77
476.02	444.70
476.20	395.55
476.38	447.04
476.56	418.96
476.74	362.78
476.92	440.02
477.10	475.13
477.28	491.51
477.46	433.00
477.64	442.36
477.82	341.72
478.00	374.49
478.18	355.76
478.36	397.89
478.54	383.85
478.72	367.46
478.90	386.19
479.08	433.00
479.26	404.91
479.44	437.68
479.62	390.87
479.80	376.83
479.98	454.06
480.16	442.36
480.34	355.76
480.52	376.83
480.70	393.21
480.88	423.64
481.06	372.15
481.24	444.70
481.41	435.34
481.59	416.62
481.77	437.68
481.95	475.13
482.13	507.90
482.31	374.49
482.49	458.74
482.67	458.74
482.85	423.64
483.03	330.02
483.21	386.19
483.39	332.36
483.57	418.96
483.74	505.56
483.92	362.78
484.10	381.51
484.28	433.00
484.46	404.91
484.64	393.21
484.82	447.04
485.00	428.32
485.18	407.25
485.35	430.66
485.53	416.62
485.71	531.30
485.89	449.38
486.07	381.51
486.25	447.04
486.43	489.17
486.61	351.08
486.78	383.85
486.96	395.55
487.14	535.98
487.32	393.21
487.50	416.62
487.68	449.38
487.85	407.25
488.03	425.98
488.21	437.68
488.39	421.30
488.57	470.45
488.75	435.34
488.92	451.72
489.10	425.98
489.28	468.11
489.46	383.85
489.64	367.46
489.81	404.91
489.99	463.43
490.17	418.96
490.35	507.90
490.53	414.27
490.70	390.87
490.88	428.32
491.06	400.23
491.24	393.21
491.41	435.34
491.59	414.27
491.77	365.12
491.95	393.21
492.13	428.32
492.30	358.10
492.48	397.89
492.66	449.38
492.84	367.46
493.01	421.30
493.19	374.49
493.37	465.77
493.54	404.91
493.72	325.33
493.90	351.08
494.08	360.44
494.25	456.40
494.43	409.59
494.61	416.62
494.79	430.66
494.96	418.96
495.14	362.78
495.32	409.59
495.49	346.40
495.67	407.25
495.85	390.87
496.02	379.17
496.20	437.68
496.38	470.45
496.55	348.74
496.73	334.70
496.91	435.34
497.09	433.00
497.26	395.55
497.44	414.27
497.62	463.43
497.79	369.80
497.97	454.06
498.14	409.59
498.32	402.57
498.50	348.74
498.67	402.57
498.85	374.49
499.03	395.55
499.20	381.51
499.38	433.00
499.56	383.85
499.73	397.89
499.91	386.19
500.08	402.57
500.26	447.04
500.44	381.51
500.61	430.66
500.79	482.15
500.97	376.83
501.14	458.74
501.32	451.72
501.49	458.74
501.67	435.34
501.84	463.43
502.02	365.12
502.20	486.83
502.37	397.89
502.55	411.93
502.72	414.27
502.90	425.98
503.07	402.57
503.25	402.57
503.43	362.78
503.60	381.51
503.78	463.43
503.95	395.55
504.13	428.32
504.30	344.06
504.48	458.74
504.65	381.51
504.83	458.74
505.01	409.59
505.18	472.79
505.36	418.96
505.53	407.25
505.71	320.65
505.88	428.32
506.06	456.40
506.23	440.02
506.41	482.15
506.58	407.25
506.76	386.19
506.93	407.25
507.11	341.72
507.28	402.57
507.46	369.80
507.63	425.98
507.81	461.09
507.98	386.19
508.16	491.51
508.33	393.21
508.50	458.74
508.68	430.66
508.85	421.30
509.03	411.93
509.20	437.68
509.38	388.53
509.55	454.06
509.73	409.59
509.90	400.23
510.08	355.76
510.25	435.34
510.42	414.27
510.60	428.32
510.77	449.38
510.95	437.68
511.12	465.77
511.30	425.98
511.47	425.98
511.64	372.15
511.82	423.64
511.99	468.11
512.17	397.89
512.34	374.49
512.51	395.55
512.69	348.74
512.86	442.36
513.04	381.51
513.21	421.30
513.38	423.64
513.56	423.64
513.73	386.19
513.90	353.42
514.08	397.89
514.25	430.66
514.43	402.57
514.60	395.55
514.77	404.91
514.95	454.06
515.12	411.93
515.29	400.23
515.47	463.43
515.64	461.09
515.81	388.53
515.99	418.96
516.16	402.57
516.33	517.26
516.51	428.32
516.68	388.53
516.85	411.93
517.03	407.25
517.20	428.32
517.37	449.38
517.54	449.38
517.72	440.02
517.89	388.53
518.06	423.64
518.24	423.64
518.41	402.57
518.58	379.17
518.75	435.34
518.93	411.93
519.10	440.02
519.27	400.23
519.45	416.62
519.62	461.09
519.79	582.79
519.96	372.15
520.14	304.27
520.31	423.64
520.48	461.09
520.65	379.17
520.83	449.38
521.00	437.68
521.17	479.81
521.34	402.57
521.52	411.93
521.69	437.68
521.86	301.93
522.03	456.40
522.20	477.47
522.38	407.25
522.55	456.40
522.72	383.85
522.89	461.09
523.07	435.34
523.24	414.27
523.41	411.93
523.58	360.44
523.75	376.83
523.92	414.27
524.10	418.96
524.27	416.62
524.44	442.36
524.61	407.25
524.78	472.79
524.96	416.62
525.13	425.98
525.30	510.24
525.47	395.55
525.64	444.70
525.81	435.34
525.98	440.02
526.16	411.93
526.33	433.00
526.50	440.02
526.67	397.89
526.84	383.85
527.01	400.23
527.18	430.66
527.36	430.66
527.53	381.51
527.70	376.83
527.87	435.34
528.04	440.02
528.21	402.57
528.38	409.59
528.55	404.91
528.72	383.85
528.89	449.38
529.07	423.64
529.24	437.68
529.41	482.15
529.58	444.70
529.75	421.30
529.92	369.80
530.09	411.93
530.26	390.87
530.43	374.49
530.60	447.04
530.77	418.96
530.94	400.23
531.11	442.36
531.28	414.27
531.46	430.66
531.63	451.72
531.80	390.87
531.97	407.25
532.14	294.91
532.31	423.64
532.48	411.93
532.65	353.42
532.82	461.09
532.99	447.04
533.16	437.68
533.33	468.11
533.50	440.02
533.67	423.64
533.84	454.06
534.01	381.51
534.18	393.21
534.35	435.34
534.52	409.59
534.69	395.55
534.86	379.17
535.03	425.98
535.20	428.32
535.37	390.87
535.54	393.21
535.71	388.53
535.88	353.42
536.05	447.04
536.22	425.98
536.38	437.68
536.55	393.21
536.72	409.59
536.89	440.02
537.06	365.12
537.23	416.62
537.40	393.21
537.57	428.32
537.74	390.87
537.91	444.70
538.08	440.02
538.25	491.51
538.42	421.30
538.59	425.98
538.75	444.70
538.92	411.93
539.09	468.11
539.26	395.55
539.43	449.38
539.60	414.27
539.77	367.46
539.94	428.32
540.11	479.81
540.28	381.51
540.44	430.66
540.61	428.32
540.78	404.91
540.95	386.19
541.12	449.38
541.29	425.98
541.46	479.81
541.62	395.55
541.79	409.59
541.96	402.57
542.13	430.66
542.30	374.49
542.47	407.25
542.63	355.76
542.80	433.00
542.97	451.72
543.14	397.89
543.31	430.66
543.48	374.49
543.64	433.00
543.81	409.59
543.98	433.00
544.15	360.44
544.32	346.40
544.48	402.57
544.65	402.57
544.82	421.30
544.99	395.55
545.16	507.90
545.32	430.66
545.49	425.98
545.66	416.62
545.83	301.93
546.00	386.19
546.16	444.70
546.33	407.25
546.50	369.80
546.67	421.30
546.83	456.40
547.00	395.55
547.17	430.66
547.34	454.06
547.50	393.21
547.67	390.87
547.84	395.55
548.00	454.06
548.17	437.68
548.34	477.47
548.51	388.53
548.67	503.22
548.84	393.21
549.01	425.98
549.18	451.72
549.34	409.59
549.51	383.85
549.68	400.23
549.84	383.85
550.01	400.23
550.18	407.25
550.34	514.92
550.51	400.23
550.68	444.70
550.84	379.17
551.01	404.91
551.18	454.06
551.34	372.15
551.51	376.83
551.68	397.89
551.84	379.17
552.01	360.44
552.18	409.59
552.34	379.17
552.51	472.79
552.68	486.83
552.84	472.79
553.01	421.30
553.18	381.51
553.34	444.70
553.51	423.64
553.67	425.98
553.84	461.09
554.01	451.72
554.17	491.51
554.34	332.36
554.51	458.74
554.67	383.85
554.84	369.80
555.00	425.98
555.17	447.04
555.33	524.28
555.50	435.34
555.67	351.08
555.83	447.04
556.00	425.98
556.16	528.96
556.33	484.49
556.50	465.77
556.66	376.83
556.83	400.23
556.99	433.00
557.16	369.80
557.32	402.57
557.49	416.62
557.65	381.51
557.82	423.64
557.98	353.42
558.15	454.06
558.32	381.51
558.48	440.02
558.65	433.00
558.81	430.66
558.98	395.55
559.14	451.72
559.31	386.19
559.47	372.15
559.64	451.72
559.80	449.38
559.97	444.70
560.13	411.93
560.30	409.59
560.46	395.55
560.63	334.70
560.79	344.06
560.96	442.36
561.12	411.93
561.29	386.19
561.45	433.00
561.61	395.55
561.78	456.40
561.94	374.49
562.11	383.85
562.27	402.57
562.44	388.53
562.60	414.27
562.77	407.25
562.93	496.19
563.10	435.34
563.26	416.62
563.42	456.40
563.59	404.91
563.75	510.24
563.92	407.25
564.08	383.85
564.24	440.02
564.41	468.11
564.57	353.42
564.74	423.64
564.90	435.34
565.07	400.23
565.23	451.72
565.39	386.19
565.56	444.70
565.72	311.29
565.88	414.27
566.05	430.66
566.21	451.72
566.38	393.21
566.54	390.87
566.70	442.36
566.87	433.00
567.03	374.49
567.19	475.13
567.36	447.04
567.52	482.15
567.68	407.25
567.85	360.44
568.01	496.19
568.17	461.09
568.34	402.57
568.50	409.59
568.66	388.53
568.83	491.51
568.99	360.44
569.15	397.89
569.32	428.32
569.48	388.53
569.64	423.64
569.81	365.12
569.97	299.59
570.13	444.70
570.30	383.85
570.46	428.32
570.62	360.44
570.78	402.57
570.95	402.57
571.11	463.43
571.27	465.77
571.43	374.49
571.60	414.27
571.76	379.17
571.92	400.23
572.09	444.70
572.25	440.02
572.41	393.21
572.57	463.43
572.74	458.74
572.90	379.17
573.06	475.13
573.22	351.08
573.38	472.79
573.55	442.36
573.71	433.00
573.87	409.59
574.03	358.10
574.20	458.74
574.36	402.57
574.52	402.57
574.68	477.47
574.84	369.80
575.01	365.12
575.17	468.11
575.33	418.96
575.49	449.38
575.65	379.17
575.82	456.40
575.98	421.30
576.14	353.42
576.30	416.62
576.46	433.00
576.62	430.66
576.79	486.83
576.95	493.85
577.11	404.91
577.27	386.19
577.43	528.96
577.59	458.74
577.75	463.43
577.92	418.96
578.08	397.89
578.24	451.72
578.40	383.85
578.56	482.15
578.72	435.34
578.88	442.36
579.04	365.12
579.21	362.78
579.37	409.59
579.53	444.70
579.69	465.77
579.85	407.25
580.01	379.17
580.17	395.55
580.33	369.80
580.49	409.59
580.65	418.96
580.82	463.43
580.98	362.78
581.14	390.87
581.30	489.17
581.46	400.23
581.62	400.23
581.78	451.72
581.94	414.27
582.10	421.30
582.26	425.98
582.42	437.68
582.58	369.80
582.74	433.00
582.90	421.30
583.06	437.68
583.22	423.64
583.38	362.78
583.54	379.17
583.70	444.70
583.86	463.43
584.02	456.40
584.18	400.23
584.34	381.51
584.50	418.96
584.66	351.08
584.82	433.00
584.98	386.19
585.14	365.12
585.30	475.13
585.46	468.11
585.62	421.30
585.78	397.89
585.94	346.40
586.10	390.87
586.26	409.59
586.42	414.27
586.58	400.23
586.74	409.59
586.90	379.17
587.06	454.06
587.22	416.62
587.38	325.33
587.54	402.57
587.70	435.34
587.86	358.10
588.02	402.57
588.18	402.57
588.34	418.96
588.49	404.91
588.65	470.45
588.81	465.77
588.97	407.25
589.13	433.00
589.29	470.45
589.45	442.36
589.61	346.40
589.77	397.89
589.93	409.59
590.08	458.74
590.24	423.64
590.40	433.00
590.56	388.53
590.72	409.59
590.88	409.59
591.04	444.70
591.20	383.85
591.35	496.19
591.51	435.34
591.67	435.34
591.83	470.45
591.99	447.04
592.15	390.87
592.31	463.43
592.46	444.70
592.62	489.17
592.78	344.06
592.94	407.25
593.10	463.43
593.26	383.85
593.41	435.34
593.57	433.00
593.73	444.70
593.89	360.44
594.05	409.59
594.20	447.04
594.36	468.11
594.52	411.93
594.68	461.09
594.84	456.40
594.99	454.06
595.15	421.30
595.31	472.79
595.47	421.30
595.62	428.32
595.78	449.38
595.94	407.25
596.10	433.00
596.25	440.02
596.41	433.00
596.57	393.21
596.73	409.59
596.88	409.59
597.04	383.85
597.20	404.91
597.36	421.30
597.51	400.23
597.67	365.12
597.83	425.98
597.99	362.78
598.14	418.96
598.30	451.72
598.46	477.47
598.61	440.02
598.77	442.36
598.93	400.23
599.09	393.21
599.24	440.02
599.40	461.09
599.56	372.15
599.71	449.38
599.87	442.36
600.03	430.66
600.18	442.36
600.34	425.98
600.50	372.15
600.65	425.98
600.81	414.27
600.97	416.62
601.12	402.57
601.28	498.53
601.44	437.68
601.59	346.40
601.75	362.78
601.91	447.04
602.06	421.30
602.22	425.98
602.37	388.53
602.53	435.34
602.69	456.40
602.84	386.19
603.00	454.06
603.16	514.92
603.31	451.72
603.47	388.53
603.62	404.91
603.78	423.64
603.94	433.00
604.09	390.87
604.25	411.93
604.40	390.87
604.56	447.04
604.71	461.09
604.87	365.12
605.03	414.27
605.18	433.00
605.34	416.62
605.49	367.46
605.65	407.25
605.80	414.27
605.96	428.32
606.12	374.49
606.27	458.74
606.43	421.30
606.58	442.36
606.74	397.89
606.89	444.70
607.05	493.85
607.20	355.76
607.36	402.57
607.51	395.55
607.67	376.83
607.82	435.34
607.98	456.40
608.13	423.64
608.29	421.30
608.44	407.25
608.60	444.70
608.75	489.17
608.91	447.04
609.06	449.38
609.22	418.96
609.37	402.57
609.53	444.70
609.68	409.59
609.84	461.09
609.99	454.06
610.15	369.80
