SpectraSuite Data File
++++++++++++++++++++++++++++++++++++
Date: Fri Oct 25 12:10:37 EDT 2013
User: price-jones
Dark Spectrum Present: No
Reference Spectrum Present: No
Number of Sampled Component Spectra: 1
Spectrometers: USB2+H05261
Integration Time (usec): 100000 (USB2+H05261)
Spectra Averaged: 1 (USB2+H05261)
Boxcar Smoothing: 0 (USB2+H05261)
Correct for Electrical Dark: No (USB2+H05261)
Strobe/Lamp Enabled: No (USB2+H05261)
Correct for Detector Non-linearity: No (USB2+H05261)
Correct for Stray Light: No (USB2+H05261)
Number of Pixels in Processed Spectrum: 2048
>>>>>Begin Processed Spectral Data<<<<<
365.73	320.65
365.92	320.65
366.12	320.65
366.32	236.39
366.52	205.97
366.72	229.37
366.91	234.05
367.11	203.63
367.31	203.63
367.51	229.37
367.70	252.78
367.90	294.91
368.10	259.80
368.30	283.20
368.49	215.33
368.69	229.37
368.89	276.18
369.09	229.37
369.28	278.52
369.48	210.65
369.68	339.38
369.87	355.76
370.07	264.48
370.27	266.82
370.47	351.08
370.66	337.04
370.86	376.83
371.06	341.72
371.25	386.19
371.45	369.80
371.65	390.87
371.84	344.06
372.04	369.80
372.24	372.15
372.44	313.63
372.63	444.70
372.83	386.19
373.03	365.12
373.22	414.27
373.42	468.11
373.62	393.21
373.81	458.74
374.01	418.96
374.21	461.09
374.40	393.21
374.60	428.32
374.79	379.17
374.99	437.68
375.19	404.91
375.38	379.17
375.58	428.32
375.78	470.45
375.97	465.77
376.17	493.85
376.37	402.57
376.56	388.53
376.76	383.85
376.95	348.74
377.15	479.81
377.35	341.72
377.54	379.17
377.74	416.62
377.93	418.96
378.13	468.11
378.33	395.55
378.52	322.99
378.72	479.81
378.91	475.13
379.11	444.70
379.31	449.38
379.50	383.85
379.70	421.30
379.89	430.66
380.09	484.49
380.28	395.55
380.48	449.38
380.68	423.64
380.87	447.04
381.07	437.68
381.26	390.87
381.46	447.04
381.65	428.32
381.85	351.08
382.04	374.49
382.24	402.57
382.43	351.08
382.63	388.53
382.83	393.21
383.02	360.44
383.22	461.09
383.41	411.93
383.61	367.46
383.80	484.49
384.00	440.02
384.19	383.85
384.39	451.72
384.58	416.62
384.78	416.62
384.97	421.30
385.17	315.97
385.36	388.53
385.56	444.70
385.75	440.02
385.95	351.08
386.14	416.62
386.34	409.59
386.53	437.68
386.72	353.42
386.92	435.34
387.11	500.87
387.31	421.30
387.50	353.42
387.70	369.80
387.89	411.93
388.09	348.74
388.28	409.59
388.48	428.32
388.67	383.85
388.86	388.53
389.06	444.70
389.25	383.85
389.45	397.89
389.64	379.17
389.84	414.27
390.03	381.51
390.22	428.32
390.42	428.32
390.61	416.62
390.81	397.89
391.00	395.55
391.19	407.25
391.39	416.62
391.58	437.68
391.78	369.80
391.97	430.66
392.16	341.72
392.36	444.70
392.55	475.13
392.75	430.66
392.94	433.00
393.13	395.55
393.33	409.59
393.52	402.57
393.71	507.90
393.91	402.57
394.10	421.30
394.29	407.25
394.49	437.68
394.68	337.04
394.88	505.56
395.07	468.11
395.26	390.87
395.46	428.32
395.65	421.30
395.84	395.55
396.04	465.77
396.23	418.96
396.42	365.12
396.62	449.38
396.81	423.64
397.00	372.15
397.19	381.51
397.39	390.87
397.58	437.68
397.77	423.64
397.97	447.04
398.16	423.64
398.35	390.87
398.55	330.02
398.74	442.36
398.93	376.83
399.12	397.89
399.32	425.98
399.51	390.87
399.70	330.02
399.90	416.62
400.09	477.47
400.28	362.78
400.47	425.98
400.67	397.89
400.86	421.30
401.05	346.40
401.24	390.87
401.44	402.57
401.63	397.89
401.82	404.91
402.01	435.34
402.21	430.66
402.40	407.25
402.59	362.78
402.78	372.15
402.97	362.78
403.17	400.23
403.36	397.89
403.55	428.32
403.74	451.72
403.93	404.91
404.13	372.15
404.32	433.00
404.51	447.04
404.70	374.49
404.89	362.78
405.09	414.27
405.28	407.25
405.47	433.00
405.66	404.91
405.85	423.64
406.05	348.74
406.24	379.17
406.43	400.23
406.62	449.38
406.81	402.57
407.00	444.70
407.20	374.49
407.39	440.02
407.58	407.25
407.77	372.15
407.96	362.78
408.15	418.96
408.34	442.36
408.54	414.27
408.73	416.62
408.92	393.21
409.11	404.91
409.30	388.53
409.49	351.08
409.68	376.83
409.87	421.30
410.07	400.23
410.26	425.98
410.45	360.44
410.64	440.02
410.83	512.58
411.02	383.85
411.21	482.15
411.40	449.38
411.59	414.27
411.78	425.98
411.98	362.78
412.17	433.00
412.36	435.34
412.55	435.34
412.74	421.30
412.93	444.70
413.12	397.89
413.31	449.38
413.50	395.55
413.69	393.21
413.88	489.17
414.07	449.38
414.26	423.64
414.45	367.46
414.64	425.98
414.83	435.34
415.02	339.38
415.22	334.70
415.41	386.19
415.60	362.78
415.79	379.17
415.98	414.27
416.17	397.89
416.36	447.04
416.55	402.57
416.74	414.27
416.93	421.30
417.12	369.80
417.31	390.87
417.50	360.44
417.69	409.59
417.88	423.64
418.07	318.31
418.26	344.06
418.45	393.21
418.64	416.62
418.83	341.72
419.02	472.79
419.21	440.02
419.39	404.91
419.58	306.61
419.77	313.63
419.96	367.46
420.15	404.91
420.34	330.02
420.53	367.46
420.72	414.27
420.91	442.36
421.10	400.23
421.29	498.53
421.48	409.59
421.67	479.81
421.86	465.77
422.05	395.55
422.24	407.25
422.43	397.89
422.61	425.98
422.80	444.70
422.99	470.45
423.18	428.32
423.37	433.00
423.56	418.96
423.75	465.77
423.94	418.96
424.13	393.21
424.32	428.32
424.50	407.25
424.69	365.12
424.88	367.46
425.07	397.89
425.26	383.85
425.45	344.06
425.64	400.23
425.83	372.15
426.01	447.04
426.20	358.10
426.39	376.83
426.58	428.32
426.77	456.40
426.96	449.38
427.15	454.06
427.33	383.85
427.52	379.17
427.71	442.36
427.90	400.23
428.09	505.56
428.28	411.93
428.46	386.19
428.65	433.00
428.84	421.30
429.03	444.70
429.22	409.59
429.40	374.49
429.59	451.72
429.78	440.02
429.97	325.33
430.16	428.32
430.34	379.17
430.53	414.27
430.72	428.32
430.91	411.93
431.10	360.44
431.28	379.17
431.47	414.27
431.66	461.09
431.85	337.04
432.03	383.85
432.22	400.23
432.41	421.30
432.60	409.59
432.79	449.38
432.97	355.76
433.16	437.68
433.35	383.85
433.54	369.80
433.72	428.32
433.91	425.98
434.10	416.62
434.28	463.43
434.47	393.21
434.66	468.11
434.85	383.85
435.03	423.64
435.22	458.74
435.41	440.02
435.59	418.96
435.78	458.74
435.97	414.27
436.16	433.00
436.34	355.76
436.53	397.89
436.72	444.70
436.90	423.64
437.09	416.62
437.28	400.23
437.46	379.17
437.65	416.62
437.84	386.19
438.02	390.87
438.21	477.47
438.40	381.51
438.58	362.78
438.77	411.93
438.96	400.23
439.14	395.55
439.33	407.25
439.52	351.08
439.70	451.72
439.89	433.00
440.08	444.70
440.26	423.64
440.45	475.13
440.63	355.76
440.82	454.06
441.01	484.49
441.19	454.06
441.38	325.33
441.57	355.76
441.75	423.64
441.94	437.68
442.12	374.49
442.31	372.15
442.50	386.19
442.68	416.62
442.87	407.25
443.05	404.91
443.24	425.98
443.43	486.83
443.61	409.59
443.80	416.62
443.98	423.64
444.17	456.40
444.35	388.53
444.54	491.51
444.73	362.78
444.91	409.59
445.10	409.59
445.28	472.79
445.47	430.66
445.65	355.76
445.84	430.66
446.02	411.93
446.21	388.53
446.39	397.89
446.58	372.15
446.77	402.57
446.95	418.96
447.14	351.08
447.32	407.25
447.51	430.66
447.69	421.30
447.88	407.25
448.06	423.64
448.25	407.25
448.43	489.17
448.62	409.59
448.80	475.13
448.99	458.74
449.17	386.19
449.36	440.02
449.54	416.62
449.73	409.59
449.91	379.17
450.10	430.66
450.28	456.40
450.46	411.93
450.65	425.98
450.83	404.91
451.02	407.25
451.20	414.27
451.39	421.30
451.57	365.12
451.76	428.32
451.94	376.83
452.13	433.00
452.31	386.19
452.49	407.25
452.68	383.85
452.86	498.53
453.05	472.79
453.23	437.68
453.42	327.68
453.60	458.74
453.78	463.43
453.97	435.34
454.15	416.62
454.34	402.57
454.52	428.32
454.70	414.27
454.89	409.59
455.07	400.23
455.26	461.09
455.44	519.60
455.62	430.66
455.81	442.36
455.99	437.68
456.17	425.98
456.36	477.47
456.54	353.42
456.73	411.93
456.91	440.02
457.09	330.02
457.28	444.70
457.46	470.45
457.64	423.64
457.83	425.98
458.01	393.21
458.19	430.66
458.38	346.40
458.56	468.11
458.74	423.64
458.93	400.23
459.11	475.13
459.29	437.68
459.48	416.62
459.66	437.68
459.84	414.27
460.03	505.56
460.21	388.53
460.39	449.38
460.57	470.45
460.76	430.66
460.94	386.19
461.12	454.06
461.31	397.89
461.49	374.49
461.67	386.19
461.85	425.98
462.04	402.57
462.22	868.34
462.40	402.57
462.59	418.96
462.77	360.44
462.95	437.68
463.13	440.02
463.32	369.80
463.50	369.80
463.68	404.91
463.86	440.02
464.05	353.42
464.23	447.04
464.41	475.13
464.59	416.62
464.78	414.27
464.96	344.06
465.14	425.98
465.32	477.47
465.50	489.17
465.69	447.04
465.87	383.85
466.05	402.57
466.23	388.53
466.41	447.04
466.60	444.70
466.78	386.19
466.96	397.89
467.14	397.89
467.32	390.87
467.51	440.02
467.69	447.04
467.87	433.00
468.05	393.21
468.23	418.96
468.41	458.74
468.60	475.13
468.78	435.34
468.96	409.59
469.14	386.19
469.32	388.53
469.50	404.91
469.69	402.57
469.87	383.85
470.05	430.66
470.23	437.68
470.41	402.57
470.59	393.21
470.77	395.55
470.95	381.51
471.14	437.68
471.32	451.72
471.50	388.53
471.68	386.19
471.86	393.21
472.04	418.96
472.22	447.04
472.40	458.74
472.58	451.72
472.77	365.12
472.95	407.25
473.13	489.17
473.31	447.04
473.49	411.93
473.67	475.13
473.85	461.09
474.03	411.93
474.21	423.64
474.39	456.40
474.57	425.98
474.75	449.38
474.93	409.59
475.12	418.96
475.30	383.85
475.48	416.62
475.66	393.21
475.84	423.64
476.02	433.00
476.20	397.89
476.38	400.23
476.56	517.26
476.74	393.21
476.92	369.80
477.10	360.44
477.28	435.34
477.46	402.57
477.64	388.53
477.82	397.89
478.00	397.89
478.18	454.06
478.36	496.19
478.54	414.27
478.72	411.93
478.90	369.80
479.08	344.06
479.26	428.32
479.44	381.51
479.62	388.53
479.80	489.17
479.98	421.30
480.16	425.98
480.34	395.55
480.52	409.59
480.70	386.19
480.88	355.76
481.06	379.17
481.24	376.83
481.41	423.64
481.59	362.78
481.77	402.57
481.95	404.91
482.13	428.32
482.31	390.87
482.49	411.93
482.67	475.13
482.85	397.89
483.03	463.43
483.21	386.19
483.39	425.98
483.57	348.74
483.74	372.15
483.92	425.98
484.10	463.43
484.28	416.62
484.46	484.49
484.64	411.93
484.82	383.85
485.00	365.12
485.18	397.89
485.35	414.27
485.53	379.17
485.71	428.32
485.89	390.87
486.07	320.65
486.25	491.51
486.43	397.89
486.61	444.70
486.78	437.68
486.96	393.21
487.14	447.04
487.32	440.02
487.50	407.25
487.68	433.00
487.85	376.83
488.03	390.87
488.21	440.02
488.39	430.66
488.57	470.45
488.75	404.91
488.92	400.23
489.10	425.98
489.28	390.87
489.46	381.51
489.64	477.47
489.81	341.72
489.99	425.98
490.17	355.76
490.35	510.24
490.53	437.68
490.70	416.62
490.88	416.62
491.06	454.06
491.24	409.59
491.41	503.22
491.59	423.64
491.77	428.32
491.95	351.08
492.13	386.19
492.30	369.80
492.48	428.32
492.66	409.59
492.84	334.70
493.01	414.27
493.19	407.25
493.37	454.06
493.54	444.70
493.72	404.91
493.90	393.21
494.08	386.19
494.25	407.25
494.43	444.70
494.61	440.02
494.79	440.02
494.96	416.62
495.14	430.66
495.32	425.98
495.49	458.74
495.67	430.66
495.85	430.66
496.02	437.68
496.20	381.51
496.38	400.23
496.55	454.06
496.73	411.93
496.91	407.25
497.09	463.43
497.26	365.12
497.44	388.53
497.62	379.17
497.79	465.77
497.97	416.62
498.14	372.15
498.32	372.15
498.50	386.19
498.67	390.87
498.85	358.10
499.03	397.89
499.20	402.57
499.38	444.70
499.56	411.93
499.73	386.19
499.91	360.44
500.08	416.62
500.26	491.51
500.44	374.49
500.61	393.21
500.79	428.32
500.97	404.91
501.14	484.49
501.32	437.68
501.49	461.09
501.67	355.76
501.84	486.83
502.02	362.78
502.20	458.74
502.37	327.68
502.55	411.93
502.72	337.04
502.90	409.59
503.07	414.27
503.25	442.36
503.43	461.09
503.60	435.34
503.78	425.98
503.95	402.57
504.13	386.19
504.30	433.00
504.48	461.09
504.65	451.72
504.83	486.83
505.01	454.06
505.18	369.80
505.36	493.85
505.53	456.40
505.71	341.72
505.88	407.25
506.06	351.08
506.23	465.77
506.41	358.10
506.58	376.83
506.76	440.02
506.93	425.98
507.11	451.72
507.28	414.27
507.46	416.62
507.63	435.34
507.81	402.57
507.98	409.59
508.16	451.72
508.33	411.93
508.50	465.77
508.68	400.23
508.85	430.66
509.03	433.00
509.20	393.21
509.38	397.89
509.55	475.13
509.73	479.81
509.90	465.77
510.08	390.87
510.25	468.11
510.42	374.49
510.60	393.21
510.77	400.23
510.95	442.36
511.12	447.04
511.30	337.04
511.47	428.32
511.64	491.51
511.82	423.64
511.99	344.06
512.17	444.70
512.34	416.62
512.51	409.59
512.69	437.68
512.86	454.06
513.04	376.83
513.21	425.98
513.38	416.62
513.56	411.93
513.73	423.64
513.90	339.38
514.08	383.85
514.25	430.66
514.43	428.32
514.60	393.21
514.77	416.62
514.95	447.04
515.12	397.89
515.29	442.36
515.47	442.36
515.64	444.70
515.81	362.78
515.99	435.34
516.16	437.68
516.33	533.64
516.51	409.59
516.68	358.10
516.85	435.34
517.03	416.62
517.20	414.27
517.37	397.89
517.54	482.15
517.72	393.21
517.89	369.80
518.06	451.72
518.24	547.69
518.41	442.36
518.58	449.38
518.75	433.00
518.93	430.66
519.10	360.44
519.27	423.64
519.45	409.59
519.62	463.43
519.79	507.90
519.96	369.80
520.14	332.36
520.31	503.22
520.48	411.93
520.65	449.38
520.83	435.34
521.00	451.72
521.17	376.83
521.34	451.72
521.52	400.23
521.69	365.12
521.86	388.53
522.03	411.93
522.20	470.45
522.38	435.34
522.55	437.68
522.72	409.59
522.89	365.12
523.07	369.80
523.24	351.08
523.41	447.04
523.58	430.66
523.75	386.19
523.92	416.62
524.10	428.32
524.27	411.93
524.44	390.87
524.61	440.02
524.78	351.08
524.96	479.81
525.13	409.59
525.30	440.02
525.47	440.02
525.64	444.70
525.81	374.49
525.98	442.36
526.16	418.96
526.33	386.19
526.50	388.53
526.67	383.85
526.84	402.57
527.01	428.32
527.18	414.27
527.36	421.30
527.53	358.10
527.70	456.40
527.87	411.93
528.04	454.06
528.21	383.85
528.38	463.43
528.55	411.93
528.72	447.04
528.89	440.02
529.07	468.11
529.24	402.57
529.41	479.81
529.58	397.89
529.75	395.55
529.92	479.81
530.09	390.87
530.26	407.25
530.43	376.83
530.60	409.59
530.77	507.90
530.94	421.30
531.11	447.04
531.28	414.27
531.46	367.46
531.63	433.00
531.80	458.74
531.97	383.85
532.14	435.34
532.31	409.59
532.48	425.98
532.65	374.49
532.82	393.21
532.99	367.46
533.16	400.23
533.33	430.66
533.50	442.36
533.67	430.66
533.84	428.32
534.01	379.17
534.18	376.83
534.35	411.93
534.52	320.65
534.69	433.00
534.86	397.89
535.03	418.96
535.20	402.57
535.37	451.72
535.54	447.04
535.71	400.23
535.88	519.60
536.05	444.70
536.22	430.66
536.38	423.64
536.55	404.91
536.72	411.93
536.89	414.27
537.06	514.92
537.23	383.85
537.40	372.15
537.57	456.40
537.74	442.36
537.91	461.09
538.08	430.66
538.25	454.06
538.42	353.42
538.59	430.66
538.75	386.19
538.92	409.59
539.09	416.62
539.26	440.02
539.43	425.98
539.60	418.96
539.77	430.66
539.94	512.58
540.11	379.17
540.28	435.34
540.44	442.36
540.61	447.04
540.78	447.04
540.95	395.55
541.12	400.23
541.29	390.87
541.46	435.34
541.62	465.77
541.79	381.51
541.96	435.34
542.13	390.87
542.30	374.49
542.47	468.11
542.63	430.66
542.80	421.30
542.97	465.77
543.14	470.45
543.31	505.56
543.48	425.98
543.64	470.45
543.81	461.09
543.98	484.49
544.15	416.62
544.32	430.66
544.48	376.83
544.65	409.59
544.82	365.12
544.99	402.57
545.16	409.59
545.32	299.59
545.49	451.72
545.66	423.64
545.83	397.89
546.00	390.87
546.16	358.10
546.33	386.19
546.50	407.25
546.67	407.25
546.83	360.44
547.00	362.78
547.17	379.17
547.34	393.21
547.50	428.32
547.67	374.49
547.84	423.64
548.00	395.55
548.17	416.62
548.34	397.89
548.51	388.53
548.67	416.62
548.84	425.98
549.01	376.83
549.18	468.11
549.34	341.72
549.51	381.51
549.68	447.04
549.84	440.02
550.01	421.30
550.18	512.58
550.34	468.11
550.51	411.93
550.68	475.13
550.84	461.09
551.01	414.27
551.18	461.09
551.34	433.00
551.51	409.59
551.68	437.68
551.84	421.30
552.01	383.85
552.18	383.85
552.34	435.34
552.51	503.22
552.68	369.80
552.84	402.57
553.01	367.46
553.18	505.56
553.34	482.15
553.51	376.83
553.67	449.38
553.84	510.24
554.01	433.00
554.17	425.98
554.34	465.77
554.51	407.25
554.67	505.56
554.84	386.19
555.00	353.42
555.17	402.57
555.33	440.02
555.50	458.74
555.67	409.59
555.83	428.32
556.00	346.40
556.16	531.30
556.33	463.43
556.50	360.44
556.66	369.80
556.83	414.27
556.99	442.36
557.16	294.91
557.32	402.57
557.49	418.96
557.65	388.53
557.82	437.68
557.98	484.49
558.15	372.15
558.32	442.36
558.48	444.70
558.65	416.62
558.81	353.42
558.98	397.89
559.14	440.02
559.31	358.10
559.47	428.32
559.64	416.62
559.80	463.43
559.97	400.23
560.13	393.21
560.30	428.32
560.46	351.08
560.63	369.80
560.79	435.34
560.96	381.51
561.12	388.53
561.29	463.43
561.45	437.68
561.61	404.91
561.78	496.19
561.94	505.56
562.11	372.15
562.27	379.17
562.44	440.02
562.60	409.59
562.77	425.98
562.93	507.90
563.10	444.70
563.26	390.87
563.42	484.49
563.59	388.53
563.75	458.74
563.92	425.98
564.08	484.49
564.24	423.64
564.41	477.47
564.57	381.51
564.74	454.06
564.90	390.87
565.07	479.81
565.23	400.23
565.39	365.12
565.56	435.34
565.72	355.76
565.88	449.38
566.05	337.04
566.21	362.78
566.38	428.32
566.54	379.17
566.70	383.85
566.87	444.70
567.03	379.17
567.19	386.19
567.36	414.27
567.52	437.68
567.68	461.09
567.85	477.47
568.01	407.25
568.17	447.04
568.34	407.25
568.50	428.32
568.66	442.36
568.83	477.47
568.99	449.38
569.15	440.02
569.32	400.23
569.48	393.21
569.64	383.85
569.81	442.36
569.97	395.55
570.13	458.74
570.30	465.77
570.46	400.23
570.62	348.74
570.78	388.53
570.95	346.40
571.11	430.66
571.27	496.19
571.43	386.19
571.60	454.06
571.76	397.89
571.92	477.47
572.09	404.91
572.25	458.74
572.41	414.27
572.57	456.40
572.74	435.34
572.90	411.93
573.06	407.25
573.22	386.19
573.38	435.34
573.55	404.91
573.71	428.32
573.87	367.46
574.03	402.57
574.20	421.30
574.36	418.96
574.52	414.27
574.68	433.00
574.84	388.53
575.01	421.30
575.17	322.99
575.33	344.06
575.49	388.53
575.65	470.45
575.82	322.99
575.98	442.36
576.14	442.36
576.30	465.77
576.46	444.70
576.62	493.85
576.79	416.62
576.95	484.49
577.11	395.55
577.27	437.68
577.43	451.72
577.59	470.45
577.75	496.19
577.92	402.57
578.08	514.92
578.24	311.29
578.40	477.47
578.56	470.45
578.72	414.27
578.88	472.79
579.04	381.51
579.21	447.04
579.37	400.23
579.53	369.80
579.69	425.98
579.85	369.80
580.01	411.93
580.17	435.34
580.33	461.09
580.49	353.42
580.65	397.89
580.82	447.04
580.98	433.00
581.14	458.74
581.30	374.49
581.46	428.32
581.62	397.89
581.78	430.66
581.94	454.06
582.10	390.87
582.26	423.64
582.42	423.64
582.58	456.40
582.74	397.89
582.90	468.11
583.06	369.80
583.22	463.43
583.38	407.25
583.54	379.17
583.70	456.40
583.86	437.68
584.02	428.32
584.18	477.47
584.34	449.38
584.50	437.68
584.66	353.42
584.82	379.17
584.98	411.93
585.14	425.98
585.30	451.72
585.46	369.80
585.62	402.57
585.78	416.62
585.94	372.15
586.10	430.66
586.26	430.66
586.42	463.43
586.58	315.97
586.74	409.59
586.90	397.89
587.06	477.47
587.22	421.30
587.38	381.51
587.54	423.64
587.70	416.62
587.86	468.11
588.02	409.59
588.18	404.91
588.34	397.89
588.49	465.77
588.65	421.30
588.81	428.32
588.97	409.59
589.13	390.87
589.29	430.66
589.45	465.77
589.61	470.45
589.77	447.04
589.93	435.34
590.08	430.66
590.24	362.78
590.40	395.55
590.56	341.72
590.72	418.96
590.88	402.57
591.04	451.72
591.20	472.79
591.35	482.15
591.51	376.83
591.67	397.89
591.83	397.89
591.99	376.83
592.15	465.77
592.31	348.74
592.46	374.49
592.62	402.57
592.78	428.32
592.94	435.34
593.10	416.62
593.26	407.25
593.41	388.53
593.57	348.74
593.73	449.38
593.89	470.45
594.05	390.87
594.20	400.23
594.36	512.58
594.52	437.68
594.68	388.53
594.84	447.04
594.99	362.78
595.15	423.64
595.31	416.62
595.47	433.00
595.62	367.46
595.78	404.91
595.94	449.38
596.10	479.81
596.25	346.40
596.41	433.00
596.57	440.02
596.73	437.68
596.88	400.23
597.04	416.62
597.20	355.76
597.36	468.11
597.51	353.42
597.67	423.64
597.83	437.68
597.99	475.13
598.14	374.49
598.30	430.66
598.46	404.91
598.61	367.46
598.77	386.19
598.93	409.59
599.09	369.80
599.24	430.66
599.40	479.81
599.56	411.93
599.71	341.72
599.87	379.17
600.03	404.91
600.18	402.57
600.34	461.09
600.50	416.62
600.65	379.17
600.81	414.27
600.97	416.62
601.12	428.32
601.28	454.06
601.44	519.60
601.59	416.62
601.75	428.32
601.91	409.59
602.06	402.57
602.22	435.34
602.37	425.98
602.53	404.91
602.69	383.85
602.84	456.40
603.00	421.30
603.16	421.30
603.31	435.34
603.47	421.30
603.62	390.87
603.78	435.34
603.94	437.68
604.09	454.06
604.25	451.72
604.40	475.13
604.56	451.72
604.71	458.74
604.87	454.06
605.03	461.09
605.18	435.34
605.34	437.68
605.49	428.32
605.65	355.76
605.80	355.76
605.96	416.62
606.12	400.23
606.27	505.56
606.43	496.19
606.58	372.15
606.74	447.04
606.89	416.62
607.05	440.02
607.20	456.40
607.36	491.51
607.51	367.46
607.67	404.91
607.82	475.13
607.98	416.62
608.13	461.09
608.29	372.15
608.44	484.49
608.60	353.42
608.75	367.46
608.91	376.83
609.06	437.68
609.22	486.83
609.37	425.98
609.53	388.53
609.68	425.98
609.84	383.85
609.99	393.21
610.15	470.45
