SpectraSuite Data File
++++++++++++++++++++++++++++++++++++
Date: Fri Oct 25 12:10:47 EDT 2013
User: price-jones
Dark Spectrum Present: No
Reference Spectrum Present: No
Number of Sampled Component Spectra: 1
Spectrometers: USB2+H05261
Integration Time (usec): 100000 (USB2+H05261)
Spectra Averaged: 1 (USB2+H05261)
Boxcar Smoothing: 0 (USB2+H05261)
Correct for Electrical Dark: No (USB2+H05261)
Strobe/Lamp Enabled: No (USB2+H05261)
Correct for Detector Non-linearity: No (USB2+H05261)
Correct for Stray Light: No (USB2+H05261)
Number of Pixels in Processed Spectrum: 2048
>>>>>Begin Processed Spectral Data<<<<<
365.73	351.08
365.92	351.08
366.12	351.08
366.32	271.50
366.52	294.91
366.72	273.84
366.91	191.92
367.11	245.76
367.31	194.26
367.51	236.39
367.70	229.37
367.90	313.63
368.10	283.20
368.30	208.31
368.49	191.92
368.69	198.95
368.89	210.65
369.09	301.93
369.28	234.05
369.48	304.27
369.68	292.57
369.87	266.82
370.07	201.29
370.27	266.82
370.47	332.36
370.66	301.93
370.86	301.93
371.06	374.49
371.25	351.08
371.45	332.36
371.65	367.46
371.84	339.38
372.04	358.10
372.24	376.83
372.44	322.99
372.63	456.40
372.83	428.32
373.03	484.49
373.22	425.98
373.42	430.66
373.62	437.68
373.81	409.59
374.01	433.00
374.21	461.09
374.40	437.68
374.60	383.85
374.79	447.04
374.99	428.32
375.19	430.66
375.38	449.38
375.58	393.21
375.78	458.74
375.97	428.32
376.17	358.10
376.37	376.83
376.56	451.72
376.76	404.91
376.95	425.98
377.15	400.23
377.35	402.57
377.54	442.36
377.74	332.36
377.93	381.51
378.13	386.19
378.33	386.19
378.52	386.19
378.72	421.30
378.91	456.40
379.11	393.21
379.31	404.91
379.50	306.61
379.70	397.89
379.89	482.15
380.09	475.13
380.28	372.15
380.48	428.32
380.68	367.46
380.87	409.59
381.07	409.59
381.26	393.21
381.46	348.74
381.65	360.44
381.85	383.85
382.04	433.00
382.24	390.87
382.43	358.10
382.63	388.53
382.83	369.80
383.02	433.00
383.22	435.34
383.41	435.34
383.61	425.98
383.80	458.74
384.00	388.53
384.19	407.25
384.39	397.89
384.58	423.64
384.78	390.87
384.97	447.04
385.17	390.87
385.36	348.74
385.56	327.68
385.75	416.62
385.95	390.87
386.14	397.89
386.34	381.51
386.53	416.62
386.72	374.49
386.92	423.64
387.11	409.59
387.31	440.02
387.50	468.11
387.70	440.02
387.89	425.98
388.09	414.27
388.28	395.55
388.48	313.63
388.67	416.62
388.86	383.85
389.06	416.62
389.25	430.66
389.45	437.68
389.64	397.89
389.84	461.09
390.03	433.00
390.22	416.62
390.42	423.64
390.61	351.08
390.81	348.74
391.00	346.40
391.19	428.32
391.39	475.13
391.58	447.04
391.78	416.62
391.97	374.49
392.16	353.42
392.36	451.72
392.55	383.85
392.75	440.02
392.94	407.25
393.13	433.00
393.33	383.85
393.52	372.15
393.71	409.59
393.91	421.30
394.10	461.09
394.29	407.25
394.49	425.98
394.68	395.55
394.88	440.02
395.07	442.36
395.26	367.46
395.46	482.15
395.65	411.93
395.84	428.32
396.04	510.24
396.23	381.51
396.42	402.57
396.62	472.79
396.81	416.62
397.00	444.70
397.19	461.09
397.39	374.49
397.58	409.59
397.77	376.83
397.97	407.25
398.16	418.96
398.35	440.02
398.55	337.04
398.74	454.06
398.93	416.62
399.12	386.19
399.32	376.83
399.51	407.25
399.70	407.25
399.90	409.59
400.09	456.40
400.28	440.02
400.47	433.00
400.67	416.62
400.86	430.66
401.05	404.91
401.24	393.21
401.44	407.25
401.63	437.68
401.82	409.59
402.01	428.32
402.21	430.66
402.40	369.80
402.59	433.00
402.78	332.36
402.97	339.38
403.17	444.70
403.36	409.59
403.55	444.70
403.74	332.36
403.93	402.57
404.13	395.55
404.32	402.57
404.51	440.02
404.70	414.27
404.89	425.98
405.09	430.66
405.28	393.21
405.47	402.57
405.66	320.65
405.85	468.11
406.05	409.59
406.24	397.89
406.43	418.96
406.62	397.89
406.81	425.98
407.00	390.87
407.20	395.55
407.39	454.06
407.58	437.68
407.77	430.66
407.96	355.76
408.15	430.66
408.34	416.62
408.54	374.49
408.73	400.23
408.92	440.02
409.11	402.57
409.30	454.06
409.49	369.80
409.68	369.80
409.87	409.59
410.07	348.74
410.26	334.70
410.45	421.30
410.64	425.98
410.83	411.93
411.02	400.23
411.21	416.62
411.40	444.70
411.59	477.47
411.78	449.38
411.98	437.68
412.17	449.38
412.36	388.53
412.55	404.91
412.74	407.25
412.93	383.85
413.12	367.46
413.31	468.11
413.50	416.62
413.69	358.10
413.88	458.74
414.07	383.85
414.26	411.93
414.45	383.85
414.64	482.15
414.83	423.64
415.02	418.96
415.22	449.38
415.41	444.70
415.60	397.89
415.79	461.09
415.98	468.11
416.17	430.66
416.36	348.74
416.55	454.06
416.74	409.59
416.93	407.25
417.12	358.10
417.31	383.85
417.50	411.93
417.69	472.79
417.88	365.12
418.07	397.89
418.26	374.49
418.45	414.27
418.64	397.89
418.83	411.93
419.02	489.17
419.21	344.06
419.39	381.51
419.58	437.68
419.77	411.93
419.96	372.15
420.15	355.76
420.34	414.27
420.53	390.87
420.72	435.34
420.91	456.40
421.10	440.02
421.29	433.00
421.48	475.13
421.67	493.85
421.86	409.59
422.05	425.98
422.24	409.59
422.43	461.09
422.61	444.70
422.80	376.83
422.99	425.98
423.18	421.30
423.37	489.17
423.56	425.98
423.75	475.13
423.94	444.70
424.13	390.87
424.32	472.79
424.50	369.80
424.69	465.77
424.88	376.83
425.07	353.42
425.26	418.96
425.45	421.30
425.64	402.57
425.83	407.25
426.01	449.38
426.20	400.23
426.39	400.23
426.58	430.66
426.77	493.85
426.96	416.62
427.15	463.43
427.33	433.00
427.52	423.64
427.71	409.59
427.90	379.17
428.09	416.62
428.28	430.66
428.46	334.70
428.65	440.02
428.84	430.66
429.03	435.34
429.22	348.74
429.40	421.30
429.59	381.51
429.78	428.32
429.97	395.55
430.16	433.00
430.34	341.72
430.53	402.57
430.72	421.30
430.91	376.83
431.10	397.89
431.28	458.74
431.47	418.96
431.66	430.66
431.85	353.42
432.03	447.04
432.22	472.79
432.41	425.98
432.60	451.72
432.79	449.38
432.97	440.02
433.16	447.04
433.35	383.85
433.54	444.70
433.72	383.85
433.91	388.53
434.10	465.77
434.28	393.21
434.47	379.17
434.66	433.00
434.85	435.34
435.03	433.00
435.22	454.06
435.41	444.70
435.59	465.77
435.78	383.85
435.97	400.23
436.16	400.23
436.34	418.96
436.53	379.17
436.72	454.06
436.90	367.46
437.09	402.57
437.28	489.17
437.46	353.42
437.65	393.21
437.84	430.66
438.02	393.21
438.21	433.00
438.40	341.72
438.58	390.87
438.77	475.13
438.96	379.17
439.14	430.66
439.33	449.38
439.52	458.74
439.70	381.51
439.89	327.68
440.08	400.23
440.26	425.98
440.45	421.30
440.63	393.21
440.82	402.57
441.01	437.68
441.19	341.72
441.38	367.46
441.57	444.70
441.75	414.27
441.94	421.30
442.12	376.83
442.31	430.66
442.50	369.80
442.68	362.78
442.87	456.40
443.05	402.57
443.24	449.38
443.43	428.32
443.61	444.70
443.80	423.64
443.98	475.13
444.17	425.98
444.35	482.15
444.54	402.57
444.73	390.87
444.91	402.57
445.10	390.87
445.28	430.66
445.47	372.15
445.65	477.47
445.84	425.98
446.02	435.34
446.21	397.89
446.39	423.64
446.58	442.36
446.77	348.74
446.95	332.36
447.14	372.15
447.32	442.36
447.51	414.27
447.69	395.55
447.88	479.81
448.06	447.04
448.25	362.78
448.43	393.21
448.62	353.42
448.80	437.68
448.99	393.21
449.17	372.15
449.36	433.00
449.54	482.15
449.73	365.12
449.91	414.27
450.10	430.66
450.28	479.81
450.46	468.11
450.65	442.36
450.83	475.13
451.02	444.70
451.20	397.89
451.39	444.70
451.57	407.25
451.76	447.04
451.94	465.77
452.13	454.06
452.31	393.21
452.49	458.74
452.68	397.89
452.86	449.38
453.05	463.43
453.23	451.72
453.42	428.32
453.60	454.06
453.78	486.83
453.97	367.46
454.15	433.00
454.34	428.32
454.52	376.83
454.70	409.59
454.89	407.25
455.07	390.87
455.26	442.36
455.44	353.42
455.62	447.04
455.81	416.62
455.99	425.98
456.17	416.62
456.36	388.53
456.54	486.83
456.73	472.79
456.91	379.17
457.09	379.17
457.28	470.45
457.46	472.79
457.64	442.36
457.83	414.27
458.01	463.43
458.19	421.30
458.38	444.70
458.56	425.98
458.74	418.96
458.93	430.66
459.11	468.11
459.29	472.79
459.48	428.32
459.66	423.64
459.84	425.98
460.03	442.36
460.21	456.40
460.39	404.91
460.57	475.13
460.76	428.32
460.94	449.38
461.12	437.68
461.31	393.21
461.49	468.11
461.67	400.23
461.85	414.27
462.04	451.72
462.22	777.06
462.40	421.30
462.59	463.43
462.77	416.62
462.95	365.12
463.13	355.76
463.32	493.85
463.50	458.74
463.68	402.57
463.86	433.00
464.05	423.64
464.23	449.38
464.41	435.34
464.59	383.85
464.78	397.89
464.96	411.93
465.14	421.30
465.32	395.55
465.50	493.85
465.69	479.81
465.87	472.79
466.05	428.32
466.23	456.40
466.41	386.19
466.60	404.91
466.78	472.79
466.96	386.19
467.14	407.25
467.32	416.62
467.51	456.40
467.69	456.40
467.87	451.72
468.05	442.36
468.23	454.06
468.41	402.57
468.60	428.32
468.78	442.36
468.96	475.13
469.14	437.68
469.32	425.98
469.50	400.23
469.69	414.27
469.87	393.21
470.05	461.09
470.23	447.04
470.41	386.19
470.59	482.15
470.77	425.98
470.95	369.80
471.14	451.72
471.32	400.23
471.50	468.11
471.68	477.47
471.86	440.02
472.04	383.85
472.22	390.87
472.40	372.15
472.58	435.34
472.77	367.46
472.95	402.57
473.13	458.74
473.31	491.51
473.49	360.44
473.67	444.70
473.85	433.00
474.03	416.62
474.21	376.83
474.39	395.55
474.57	407.25
474.75	421.30
474.93	383.85
475.12	369.80
475.30	423.64
475.48	397.89
475.66	430.66
475.84	442.36
476.02	386.19
476.20	397.89
476.38	411.93
476.56	482.15
476.74	428.32
476.92	393.21
477.10	402.57
477.28	404.91
477.46	428.32
477.64	458.74
477.82	444.70
478.00	400.23
478.18	454.06
478.36	430.66
478.54	400.23
478.72	433.00
478.90	402.57
479.08	444.70
479.26	400.23
479.44	376.83
479.62	365.12
479.80	379.17
479.98	409.59
480.16	416.62
480.34	444.70
480.52	444.70
480.70	440.02
480.88	463.43
481.06	440.02
481.24	407.25
481.41	489.17
481.59	418.96
481.77	353.42
481.95	353.42
482.13	465.77
482.31	418.96
482.49	421.30
482.67	372.15
482.85	470.45
483.03	461.09
483.21	388.53
483.39	421.30
483.57	404.91
483.74	475.13
483.92	423.64
484.10	386.19
484.28	510.24
484.46	425.98
484.64	430.66
484.82	388.53
485.00	407.25
485.18	400.23
485.35	400.23
485.53	388.53
485.71	430.66
485.89	362.78
486.07	440.02
486.25	449.38
486.43	491.51
486.61	433.00
486.78	409.59
486.96	402.57
487.14	421.30
487.32	416.62
487.50	440.02
487.68	386.19
487.85	397.89
488.03	456.40
488.21	374.49
488.39	320.65
488.57	433.00
488.75	451.72
488.92	552.37
489.10	447.04
489.28	435.34
489.46	430.66
489.64	425.98
489.81	423.64
489.99	414.27
490.17	414.27
490.35	482.15
490.53	402.57
490.70	400.23
490.88	421.30
491.06	463.43
491.24	463.43
491.41	407.25
491.59	395.55
491.77	367.46
491.95	351.08
492.13	425.98
492.30	428.32
492.48	491.51
492.66	484.49
492.84	409.59
493.01	423.64
493.19	402.57
493.37	475.13
493.54	414.27
493.72	454.06
493.90	344.06
494.08	421.30
494.25	442.36
494.43	430.66
494.61	437.68
494.79	353.42
494.96	369.80
495.14	416.62
495.32	395.55
495.49	437.68
495.67	440.02
495.85	435.34
496.02	397.89
496.20	465.77
496.38	425.98
496.55	477.47
496.73	498.53
496.91	325.33
497.09	353.42
497.26	407.25
497.44	367.46
497.62	372.15
497.79	400.23
497.97	397.89
498.14	404.91
498.32	472.79
498.50	414.27
498.67	383.85
498.85	409.59
499.03	411.93
499.20	444.70
499.38	425.98
499.56	386.19
499.73	376.83
499.91	400.23
500.08	475.13
500.26	404.91
500.44	407.25
500.61	407.25
500.79	353.42
500.97	463.43
501.14	325.33
501.32	318.31
501.49	442.36
501.67	430.66
501.84	447.04
502.02	372.15
502.20	369.80
502.37	404.91
502.55	348.74
502.72	411.93
502.90	477.47
503.07	430.66
503.25	381.51
503.43	416.62
503.60	440.02
503.78	411.93
503.95	458.74
504.13	444.70
504.30	475.13
504.48	365.12
504.65	491.51
504.83	437.68
505.01	390.87
505.18	430.66
505.36	430.66
505.53	449.38
505.71	461.09
505.88	489.17
506.06	348.74
506.23	409.59
506.41	397.89
506.58	404.91
506.76	421.30
506.93	430.66
507.11	430.66
507.28	346.40
507.46	409.59
507.63	355.76
507.81	358.10
507.98	430.66
508.16	386.19
508.33	477.47
508.50	472.79
508.68	416.62
508.85	390.87
509.03	379.17
509.20	390.87
509.38	393.21
509.55	395.55
509.73	435.34
509.90	421.30
510.08	430.66
510.25	388.53
510.42	393.21
510.60	482.15
510.77	386.19
510.95	433.00
511.12	358.10
511.30	496.19
511.47	407.25
511.64	447.04
511.82	414.27
511.99	498.53
512.17	402.57
512.34	416.62
512.51	318.31
512.69	428.32
512.86	430.66
513.04	395.55
513.21	496.19
513.38	390.87
513.56	449.38
513.73	425.98
513.90	367.46
514.08	402.57
514.25	454.06
514.43	428.32
514.60	435.34
514.77	372.15
514.95	346.40
515.12	395.55
515.29	449.38
515.47	404.91
515.64	425.98
515.81	428.32
515.99	440.02
516.16	400.23
516.33	430.66
516.51	388.53
516.68	456.40
516.85	346.40
517.03	433.00
517.20	454.06
517.37	444.70
517.54	491.51
517.72	440.02
517.89	395.55
518.06	440.02
518.24	465.77
518.41	404.91
518.58	388.53
518.75	400.23
518.93	463.43
519.10	388.53
519.27	423.64
519.45	386.19
519.62	397.89
519.79	503.22
519.96	437.68
520.14	395.55
520.31	468.11
520.48	367.46
520.65	414.27
520.83	418.96
521.00	421.30
521.17	397.89
521.34	376.83
521.52	381.51
521.69	374.49
521.86	409.59
522.03	407.25
522.20	477.47
522.38	433.00
522.55	390.87
522.72	355.76
522.89	400.23
523.07	517.26
523.24	423.64
523.41	421.30
523.58	444.70
523.75	386.19
523.92	362.78
524.10	416.62
524.27	374.49
524.44	437.68
524.61	404.91
524.78	418.96
524.96	402.57
525.13	454.06
525.30	437.68
525.47	411.93
525.64	411.93
525.81	409.59
525.98	484.49
526.16	461.09
526.33	449.38
526.50	381.51
526.67	423.64
526.84	351.08
527.01	393.21
527.18	463.43
527.36	421.30
527.53	348.74
527.70	411.93
527.87	442.36
528.04	484.49
528.21	388.53
528.38	409.59
528.55	388.53
528.72	454.06
528.89	440.02
529.07	444.70
529.24	400.23
529.41	379.17
529.58	355.76
529.75	379.17
529.92	428.32
530.09	538.32
530.26	423.64
530.43	491.51
530.60	447.04
530.77	458.74
530.94	416.62
531.11	435.34
531.28	416.62
531.46	365.12
531.63	407.25
531.80	475.13
531.97	430.66
532.14	521.94
532.31	461.09
532.48	463.43
532.65	407.25
532.82	358.10
532.99	409.59
533.16	472.79
533.33	444.70
533.50	379.17
533.67	418.96
533.84	435.34
534.01	423.64
534.18	369.80
534.35	397.89
534.52	393.21
534.69	435.34
534.86	402.57
535.03	435.34
535.20	353.42
535.37	463.43
535.54	435.34
535.71	451.72
535.88	461.09
536.05	360.44
536.22	414.27
536.38	404.91
536.55	435.34
536.72	421.30
536.89	386.19
537.06	425.98
537.23	414.27
537.40	304.27
537.57	414.27
537.74	524.28
537.91	397.89
538.08	395.55
538.25	465.77
538.42	376.83
538.59	397.89
538.75	400.23
538.92	402.57
539.09	416.62
539.26	369.80
539.43	458.74
539.60	475.13
539.77	416.62
539.94	465.77
540.11	477.47
540.28	503.22
540.44	409.59
540.61	444.70
540.78	433.00
540.95	372.15
541.12	411.93
541.29	461.09
541.46	475.13
541.62	390.87
541.79	416.62
541.96	435.34
542.13	400.23
542.30	414.27
542.47	451.72
542.63	454.06
542.80	428.32
542.97	472.79
543.14	388.53
543.31	395.55
543.48	355.76
543.64	402.57
543.81	435.34
543.98	444.70
544.15	449.38
544.32	423.64
544.48	409.59
544.65	402.57
544.82	414.27
544.99	388.53
545.16	444.70
545.32	400.23
545.49	435.34
545.66	416.62
545.83	423.64
546.00	393.21
546.16	402.57
546.33	421.30
546.50	411.93
546.67	388.53
546.83	454.06
547.00	456.40
547.17	386.19
547.34	416.62
547.50	372.15
547.67	404.91
547.84	381.51
548.00	341.72
548.17	402.57
548.34	409.59
548.51	470.45
548.67	463.43
548.84	386.19
549.01	430.66
549.18	425.98
549.34	430.66
549.51	397.89
549.68	425.98
549.84	395.55
550.01	458.74
550.18	444.70
550.34	496.19
550.51	421.30
550.68	479.81
550.84	421.30
551.01	440.02
551.18	423.64
551.34	447.04
551.51	418.96
551.68	425.98
551.84	393.21
552.01	404.91
552.18	425.98
552.34	397.89
552.51	383.85
552.68	407.25
552.84	437.68
553.01	400.23
553.18	498.53
553.34	376.83
553.51	334.70
553.67	465.77
553.84	440.02
554.01	435.34
554.17	500.87
554.34	425.98
554.51	416.62
554.67	402.57
554.84	344.06
555.00	458.74
555.17	416.62
555.33	339.38
555.50	486.83
555.67	395.55
555.83	379.17
556.00	498.53
556.16	552.37
556.33	402.57
556.50	430.66
556.66	442.36
556.83	414.27
556.99	372.15
557.16	428.32
557.32	393.21
557.49	437.68
557.65	407.25
557.82	449.38
557.98	425.98
558.15	402.57
558.32	409.59
558.48	369.80
558.65	425.98
558.81	458.74
558.98	414.27
559.14	358.10
559.31	435.34
559.47	367.46
559.64	407.25
559.80	376.83
559.97	458.74
560.13	404.91
560.30	421.30
560.46	388.53
560.63	418.96
560.79	379.17
560.96	437.68
561.12	442.36
561.29	411.93
561.45	374.49
561.61	433.00
561.78	449.38
561.94	381.51
562.11	463.43
562.27	430.66
562.44	435.34
562.60	374.49
562.77	360.44
562.93	505.56
563.10	402.57
563.26	367.46
563.42	475.13
563.59	437.68
563.75	400.23
563.92	397.89
564.08	440.02
564.24	444.70
564.41	425.98
564.57	346.40
564.74	383.85
564.90	442.36
565.07	428.32
565.23	372.15
565.39	390.87
565.56	461.09
565.72	341.72
565.88	386.19
566.05	442.36
566.21	442.36
566.38	402.57
566.54	535.98
566.70	442.36
566.87	409.59
567.03	400.23
567.19	425.98
567.36	491.51
567.52	393.21
567.68	489.17
567.85	409.59
568.01	390.87
568.17	404.91
568.34	381.51
568.50	440.02
568.66	379.17
568.83	444.70
568.99	486.83
569.15	447.04
569.32	397.89
569.48	348.74
569.64	479.81
569.81	365.12
569.97	337.04
570.13	393.21
570.30	435.34
570.46	395.55
570.62	411.93
570.78	444.70
570.95	409.59
571.11	372.15
571.27	418.96
571.43	318.31
571.60	444.70
571.76	372.15
571.92	411.93
572.09	449.38
572.25	470.45
572.41	435.34
572.57	421.30
572.74	505.56
572.90	379.17
573.06	482.15
573.22	414.27
573.38	428.32
573.55	496.19
573.71	435.34
573.87	348.74
574.03	447.04
574.20	365.12
574.36	379.17
574.52	334.70
574.68	313.63
574.84	369.80
575.01	468.11
575.17	444.70
575.33	430.66
575.49	477.47
575.65	435.34
575.82	482.15
575.98	451.72
576.14	397.89
576.30	355.76
576.46	339.38
576.62	404.91
576.79	463.43
576.95	484.49
577.11	409.59
577.27	320.65
577.43	470.45
577.59	477.47
577.75	416.62
577.92	337.04
578.08	374.49
578.24	386.19
578.40	404.91
578.56	421.30
578.72	388.53
578.88	444.70
579.04	425.98
579.21	451.72
579.37	437.68
579.53	437.68
579.69	533.64
579.85	390.87
580.01	416.62
580.17	440.02
580.33	416.62
580.49	374.49
580.65	447.04
580.82	447.04
580.98	430.66
581.14	449.38
581.30	437.68
581.46	433.00
581.62	360.44
581.78	327.68
581.94	437.68
582.10	395.55
582.26	409.59
582.42	365.12
582.58	365.12
582.74	456.40
582.90	351.08
583.06	409.59
583.22	440.02
583.38	320.65
583.54	320.65
583.70	444.70
583.86	381.51
584.02	386.19
584.18	402.57
584.34	447.04
584.50	425.98
584.66	435.34
584.82	461.09
584.98	388.53
585.14	440.02
585.30	456.40
585.46	463.43
585.62	376.83
585.78	421.30
585.94	379.17
586.10	475.13
586.26	428.32
586.42	456.40
586.58	454.06
586.74	367.46
586.90	433.00
587.06	454.06
587.22	376.83
587.38	421.30
587.54	451.72
587.70	451.72
587.86	468.11
588.02	430.66
588.18	491.51
588.34	454.06
588.49	425.98
588.65	360.44
588.81	435.34
588.97	421.30
589.13	442.36
589.29	397.89
589.45	421.30
589.61	393.21
589.77	454.06
589.93	414.27
590.08	421.30
590.24	411.93
590.40	416.62
590.56	379.17
590.72	416.62
590.88	428.32
591.04	402.57
591.20	475.13
591.35	416.62
591.51	400.23
591.67	461.09
591.83	414.27
591.99	411.93
592.15	444.70
592.31	425.98
592.46	414.27
592.62	491.51
592.78	465.77
592.94	355.76
593.10	411.93
593.26	421.30
593.41	397.89
593.57	400.23
593.73	425.98
593.89	423.64
594.05	397.89
594.20	409.59
594.36	437.68
594.52	358.10
594.68	395.55
594.84	411.93
594.99	407.25
595.15	425.98
595.31	444.70
595.47	465.77
595.62	454.06
595.78	421.30
595.94	351.08
596.10	379.17
596.25	393.21
596.41	369.80
596.57	386.19
596.73	379.17
596.88	376.83
597.04	397.89
597.20	447.04
597.36	435.34
597.51	346.40
597.67	447.04
597.83	465.77
597.99	433.00
598.14	472.79
598.30	477.47
598.46	444.70
598.61	482.15
598.77	407.25
598.93	456.40
599.09	379.17
599.24	400.23
599.40	447.04
599.56	376.83
599.71	435.34
599.87	444.70
600.03	390.87
600.18	386.19
600.34	362.78
600.50	418.96
600.65	437.68
600.81	421.30
600.97	327.68
601.12	388.53
601.28	456.40
601.44	447.04
601.59	435.34
601.75	393.21
601.91	407.25
602.06	416.62
602.22	496.19
602.37	393.21
602.53	390.87
602.69	458.74
602.84	395.55
603.00	383.85
603.16	362.78
603.31	404.91
603.47	470.45
603.62	458.74
603.78	533.64
603.94	407.25
604.09	411.93
604.25	486.83
604.40	440.02
604.56	428.32
604.71	390.87
604.87	423.64
605.03	411.93
605.18	346.40
605.34	425.98
605.49	442.36
605.65	477.47
605.80	414.27
605.96	454.06
606.12	521.94
606.27	489.17
606.43	428.32
606.58	479.81
606.74	430.66
606.89	372.15
607.05	451.72
607.20	454.06
607.36	479.81
607.51	433.00
607.67	416.62
607.82	440.02
607.98	465.77
608.13	416.62
608.29	425.98
608.44	418.96
608.60	395.55
608.75	482.15
608.91	470.45
609.06	449.38
609.22	409.59
609.37	428.32
609.53	393.21
609.68	379.17
609.84	425.98
609.99	404.91
610.15	402.57
