SpectraSuite Data File
++++++++++++++++++++++++++++++++++++
Date: Fri Oct 25 12:11:36 EDT 2013
User: price-jones
Dark Spectrum Present: No
Reference Spectrum Present: No
Number of Sampled Component Spectra: 1
Spectrometers: USB2+H05261
Integration Time (usec): 100000 (USB2+H05261)
Spectra Averaged: 1 (USB2+H05261)
Boxcar Smoothing: 0 (USB2+H05261)
Correct for Electrical Dark: No (USB2+H05261)
Strobe/Lamp Enabled: No (USB2+H05261)
Correct for Detector Non-linearity: No (USB2+H05261)
Correct for Stray Light: No (USB2+H05261)
Number of Pixels in Processed Spectrum: 2048
>>>>>Begin Processed Spectral Data<<<<<
365.73	325.33
365.92	325.33
366.12	325.33
366.32	290.23
366.52	205.97
366.72	205.97
366.91	205.97
367.11	210.65
367.31	241.08
367.51	241.08
367.70	208.31
367.90	266.82
368.10	250.44
368.30	325.33
368.49	196.60
368.69	278.52
368.89	280.86
369.09	285.55
369.28	259.80
369.48	330.02
369.68	280.86
369.87	346.40
370.07	299.59
370.27	355.76
370.47	301.93
370.66	306.61
370.86	456.40
371.06	397.89
371.25	379.17
371.45	308.95
371.65	362.78
371.84	388.53
372.04	344.06
372.24	437.68
372.44	390.87
372.63	383.85
372.83	423.64
373.03	386.19
373.22	301.93
373.42	409.59
373.62	376.83
373.81	393.21
374.01	461.09
374.21	402.57
374.40	339.38
374.60	433.00
374.79	393.21
374.99	435.34
375.19	433.00
375.38	379.17
375.58	404.91
375.78	430.66
375.97	484.49
376.17	435.34
376.37	435.34
376.56	456.40
376.76	468.11
376.95	421.30
377.15	381.51
377.35	435.34
377.54	407.25
377.74	477.47
377.93	421.30
378.13	337.04
378.33	444.70
378.52	381.51
378.72	376.83
378.91	456.40
379.11	348.74
379.31	346.40
379.50	334.70
379.70	393.21
379.89	362.78
380.09	367.46
380.28	447.04
380.48	381.51
380.68	404.91
380.87	395.55
381.07	500.87
381.26	430.66
381.46	421.30
381.65	362.78
381.85	437.68
382.04	383.85
382.24	423.64
382.43	435.34
382.63	409.59
382.83	444.70
383.02	369.80
383.22	470.45
383.41	374.49
383.61	425.98
383.80	430.66
384.00	313.63
384.19	353.42
384.39	400.23
384.58	437.68
384.78	449.38
384.97	428.32
385.17	418.96
385.36	416.62
385.56	393.21
385.75	442.36
385.95	425.98
386.14	404.91
386.34	388.53
386.53	407.25
386.72	423.64
386.92	482.15
387.11	449.38
387.31	425.98
387.50	383.85
387.70	393.21
387.89	390.87
388.09	390.87
388.28	353.42
388.48	400.23
388.67	353.42
388.86	388.53
389.06	388.53
389.25	428.32
389.45	299.59
389.64	454.06
389.84	388.53
390.03	472.79
390.22	393.21
390.42	369.80
390.61	425.98
390.81	369.80
391.00	348.74
391.19	496.19
391.39	369.80
391.58	376.83
391.78	390.87
391.97	447.04
392.16	425.98
392.36	409.59
392.55	433.00
392.75	397.89
392.94	440.02
393.13	440.02
393.33	409.59
393.52	461.09
393.71	449.38
393.91	353.42
394.10	341.72
394.29	421.30
394.49	425.98
394.68	402.57
394.88	477.47
395.07	416.62
395.26	411.93
395.46	379.17
395.65	465.77
395.84	379.17
396.04	393.21
396.23	409.59
396.42	435.34
396.62	397.89
396.81	362.78
397.00	348.74
397.19	454.06
397.39	409.59
397.58	470.45
397.77	418.96
397.97	369.80
398.16	463.43
398.35	423.64
398.55	404.91
398.74	379.17
398.93	393.21
399.12	390.87
399.32	407.25
399.51	425.98
399.70	468.11
399.90	421.30
400.09	423.64
400.28	444.70
400.47	425.98
400.67	386.19
400.86	430.66
401.05	479.81
401.24	344.06
401.44	367.46
401.63	376.83
401.82	395.55
402.01	313.63
402.21	397.89
402.40	442.36
402.59	435.34
402.78	409.59
402.97	404.91
403.17	369.80
403.36	313.63
403.55	362.78
403.74	423.64
403.93	360.44
404.13	362.78
404.32	409.59
404.51	393.21
404.70	418.96
404.89	454.06
405.09	461.09
405.28	353.42
405.47	376.83
405.66	386.19
405.85	425.98
406.05	435.34
406.24	348.74
406.43	423.64
406.62	411.93
406.81	489.17
407.00	454.06
407.20	533.64
407.39	404.91
407.58	449.38
407.77	407.25
407.96	454.06
408.15	383.85
408.34	411.93
408.54	533.64
408.73	496.19
408.92	444.70
409.11	416.62
409.30	430.66
409.49	407.25
409.68	386.19
409.87	402.57
410.07	444.70
410.26	400.23
410.45	358.10
410.64	383.85
410.83	379.17
411.02	447.04
411.21	404.91
411.40	423.64
411.59	386.19
411.78	477.47
411.98	390.87
412.17	390.87
412.36	407.25
412.55	393.21
412.74	395.55
412.93	402.57
413.12	437.68
413.31	521.94
413.50	407.25
413.69	404.91
413.88	430.66
414.07	395.55
414.26	404.91
414.45	386.19
414.64	442.36
414.83	376.83
415.02	388.53
415.22	407.25
415.41	409.59
415.60	470.45
415.79	486.83
415.98	463.43
416.17	402.57
416.36	402.57
416.55	390.87
416.74	330.02
416.93	414.27
417.12	444.70
417.31	383.85
417.50	299.59
417.69	390.87
417.88	407.25
418.07	379.17
418.26	374.49
418.45	393.21
418.64	386.19
418.83	463.43
419.02	463.43
419.21	449.38
419.39	409.59
419.58	404.91
419.77	425.98
419.96	461.09
420.15	472.79
420.34	430.66
420.53	407.25
420.72	425.98
420.91	416.62
421.10	388.53
421.29	376.83
421.48	486.83
421.67	411.93
421.86	386.19
422.05	458.74
422.24	393.21
422.43	418.96
422.61	404.91
422.80	369.80
422.99	433.00
423.18	437.68
423.37	400.23
423.56	341.72
423.75	388.53
423.94	341.72
424.13	264.48
424.32	437.68
424.50	379.17
424.69	456.40
424.88	425.98
425.07	411.93
425.26	407.25
425.45	421.30
425.64	414.27
425.83	355.76
426.01	425.98
426.20	372.15
426.39	365.12
426.58	374.49
426.77	355.76
426.96	430.66
427.15	477.47
427.33	451.72
427.52	430.66
427.71	409.59
427.90	423.64
428.09	402.57
428.28	407.25
428.46	393.21
428.65	475.13
428.84	430.66
429.03	477.47
429.22	414.27
429.40	435.34
429.59	390.87
429.78	365.12
429.97	418.96
430.16	423.64
430.34	397.89
430.53	351.08
430.72	400.23
430.91	472.79
431.10	430.66
431.28	390.87
431.47	381.51
431.66	423.64
431.85	463.43
432.03	430.66
432.22	430.66
432.41	472.79
432.60	418.96
432.79	355.76
432.97	402.57
433.16	388.53
433.35	465.77
433.54	411.93
433.72	402.57
433.91	416.62
434.10	421.30
434.28	463.43
434.47	362.78
434.66	414.27
434.85	395.55
435.03	472.79
435.22	428.32
435.41	449.38
435.59	414.27
435.78	414.27
435.97	416.62
436.16	430.66
436.34	428.32
436.53	390.87
436.72	383.85
436.90	327.68
437.09	454.06
437.28	388.53
437.46	421.30
437.65	475.13
437.84	428.32
438.02	409.59
438.21	418.96
438.40	477.47
438.58	379.17
438.77	442.36
438.96	428.32
439.14	395.55
439.33	388.53
439.52	442.36
439.70	407.25
439.89	407.25
440.08	454.06
440.26	402.57
440.45	458.74
440.63	468.11
440.82	437.68
441.01	376.83
441.19	365.12
441.38	362.78
441.57	388.53
441.75	388.53
441.94	372.15
442.12	376.83
442.31	468.11
442.50	402.57
442.68	351.08
442.87	390.87
443.05	411.93
443.24	425.98
443.43	386.19
443.61	423.64
443.80	435.34
443.98	379.17
444.17	440.02
444.35	447.04
444.54	388.53
444.73	383.85
444.91	505.56
445.10	372.15
445.28	390.87
445.47	437.68
445.65	433.00
445.84	456.40
446.02	475.13
446.21	440.02
446.39	411.93
446.58	437.68
446.77	381.51
446.95	390.87
447.14	393.21
447.32	407.25
447.51	435.34
447.69	411.93
447.88	404.91
448.06	407.25
448.25	458.74
448.43	416.62
448.62	360.44
448.80	367.46
448.99	414.27
449.17	355.76
449.36	367.46
449.54	421.30
449.73	397.89
449.91	383.85
450.10	362.78
450.28	416.62
450.46	395.55
450.65	444.70
450.83	440.02
451.02	437.68
451.20	444.70
451.39	402.57
451.57	414.27
451.76	435.34
451.94	393.21
452.13	416.62
452.31	423.64
452.49	348.74
452.68	379.17
452.86	458.74
453.05	421.30
453.23	486.83
453.42	404.91
453.60	454.06
453.78	365.12
453.97	442.36
454.15	468.11
454.34	444.70
454.52	404.91
454.70	463.43
454.89	454.06
455.07	489.17
455.26	456.40
455.44	416.62
455.62	461.09
455.81	411.93
455.99	533.64
456.17	369.80
456.36	416.62
456.54	381.51
456.73	454.06
456.91	425.98
457.09	458.74
457.28	407.25
457.46	425.98
457.64	386.19
457.83	374.49
458.01	393.21
458.19	475.13
458.38	421.30
458.56	425.98
458.74	322.99
458.93	512.58
459.11	322.99
459.29	395.55
459.48	475.13
459.66	423.64
459.84	440.02
460.03	458.74
460.21	449.38
460.39	360.44
460.57	386.19
460.76	390.87
460.94	444.70
461.12	407.25
461.31	491.51
461.49	472.79
461.67	440.02
461.85	416.62
462.04	468.11
462.22	795.78
462.40	454.06
462.59	449.38
462.77	407.25
462.95	421.30
463.13	351.08
463.32	458.74
463.50	322.99
463.68	416.62
463.86	454.06
464.05	386.19
464.23	458.74
464.41	395.55
464.59	381.51
464.78	444.70
464.96	475.13
465.14	447.04
465.32	447.04
465.50	383.85
465.69	496.19
465.87	486.83
466.05	400.23
466.23	386.19
466.41	355.76
466.60	444.70
466.78	409.59
466.96	421.30
467.14	433.00
467.32	472.79
467.51	421.30
467.69	404.91
467.87	416.62
468.05	433.00
468.23	461.09
468.41	376.83
468.60	409.59
468.78	313.63
468.96	433.00
469.14	388.53
469.32	374.49
469.50	353.42
469.69	400.23
469.87	374.49
470.05	416.62
470.23	435.34
470.41	372.15
470.59	372.15
470.77	353.42
470.95	479.81
471.14	383.85
471.32	449.38
471.50	447.04
471.68	358.10
471.86	327.68
472.04	437.68
472.22	456.40
472.40	447.04
472.58	411.93
472.77	386.19
472.95	390.87
473.13	360.44
473.31	451.72
473.49	437.68
473.67	379.17
473.85	390.87
474.03	388.53
474.21	423.64
474.39	383.85
474.57	533.64
474.75	470.45
474.93	372.15
475.12	423.64
475.30	360.44
475.48	397.89
475.66	451.72
475.84	397.89
476.02	365.12
476.20	418.96
476.38	421.30
476.56	465.77
476.74	435.34
476.92	447.04
477.10	402.57
477.28	449.38
477.46	390.87
477.64	360.44
477.82	414.27
478.00	440.02
478.18	367.46
478.36	414.27
478.54	425.98
478.72	449.38
478.90	367.46
479.08	484.49
479.26	379.17
479.44	404.91
479.62	411.93
479.80	313.63
479.98	351.08
480.16	393.21
480.34	367.46
480.52	428.32
480.70	472.79
480.88	484.49
481.06	367.46
481.24	425.98
481.41	360.44
481.59	362.78
481.77	428.32
481.95	442.36
482.13	458.74
482.31	433.00
482.49	421.30
482.67	493.85
482.85	479.81
483.03	458.74
483.21	393.21
483.39	428.32
483.57	430.66
483.74	416.62
483.92	393.21
484.10	376.83
484.28	428.32
484.46	437.68
484.64	388.53
484.82	346.40
485.00	390.87
485.18	411.93
485.35	369.80
485.53	409.59
485.71	416.62
485.89	414.27
486.07	472.79
486.25	514.92
486.43	390.87
486.61	372.15
486.78	376.83
486.96	496.19
487.14	458.74
487.32	444.70
487.50	400.23
487.68	322.99
487.85	334.70
488.03	435.34
488.21	500.87
488.39	388.53
488.57	397.89
488.75	489.17
488.92	533.64
489.10	510.24
489.28	503.22
489.46	442.36
489.64	376.83
489.81	409.59
489.99	362.78
490.17	390.87
490.35	397.89
490.53	449.38
490.70	416.62
490.88	440.02
491.06	351.08
491.24	341.72
491.41	468.11
491.59	407.25
491.77	482.15
491.95	383.85
492.13	390.87
492.30	386.19
492.48	365.12
492.66	451.72
492.84	400.23
493.01	400.23
493.19	433.00
493.37	503.22
493.54	472.79
493.72	444.70
493.90	423.64
494.08	409.59
494.25	369.80
494.43	337.04
494.61	390.87
494.79	365.12
494.96	416.62
495.14	447.04
495.32	411.93
495.49	395.55
495.67	402.57
495.85	428.32
496.02	358.10
496.20	416.62
496.38	430.66
496.55	386.19
496.73	458.74
496.91	402.57
497.09	411.93
497.26	407.25
497.44	388.53
497.62	393.21
497.79	383.85
497.97	435.34
498.14	425.98
498.32	433.00
498.50	362.78
498.67	358.10
498.85	402.57
499.03	386.19
499.20	362.78
499.38	407.25
499.56	421.30
499.73	437.68
499.91	428.32
500.08	362.78
500.26	437.68
500.44	437.68
500.61	386.19
500.79	418.96
500.97	383.85
501.14	456.40
501.32	414.27
501.49	468.11
501.67	442.36
501.84	454.06
502.02	341.72
502.20	423.64
502.37	458.74
502.55	409.59
502.72	414.27
502.90	411.93
503.07	397.89
503.25	437.68
503.43	353.42
503.60	421.30
503.78	369.80
503.95	421.30
504.13	383.85
504.30	416.62
504.48	514.92
504.65	486.83
504.83	444.70
505.01	444.70
505.18	388.53
505.36	402.57
505.53	423.64
505.71	418.96
505.88	358.10
506.06	362.78
506.23	390.87
506.41	411.93
506.58	454.06
506.76	407.25
506.93	337.04
507.11	463.43
507.28	414.27
507.46	437.68
507.63	372.15
507.81	339.38
507.98	400.23
508.16	456.40
508.33	447.04
508.50	437.68
508.68	421.30
508.85	435.34
509.03	458.74
509.20	468.11
509.38	388.53
509.55	451.72
509.73	393.21
509.90	393.21
510.08	414.27
510.25	435.34
510.42	386.19
510.60	479.81
510.77	397.89
510.95	430.66
511.12	425.98
511.30	440.02
511.47	411.93
511.64	442.36
511.82	386.19
511.99	423.64
512.17	425.98
512.34	430.66
512.51	404.91
512.69	442.36
512.86	468.11
513.04	447.04
513.21	468.11
513.38	402.57
513.56	395.55
513.73	409.59
513.90	416.62
514.08	358.10
514.25	440.02
514.43	458.74
514.60	402.57
514.77	330.02
514.95	395.55
515.12	395.55
515.29	402.57
515.47	395.55
515.64	484.49
515.81	444.70
515.99	332.36
516.16	390.87
516.33	458.74
516.51	435.34
516.68	414.27
516.85	477.47
517.03	383.85
517.20	416.62
517.37	414.27
517.54	423.64
517.72	418.96
517.89	458.74
518.06	411.93
518.24	442.36
518.41	503.22
518.58	444.70
518.75	376.83
518.93	383.85
519.10	386.19
519.27	402.57
519.45	435.34
519.62	407.25
519.79	400.23
519.96	449.38
520.14	393.21
520.31	330.02
520.48	411.93
520.65	440.02
520.83	433.00
521.00	414.27
521.17	407.25
521.34	433.00
521.52	418.96
521.69	416.62
521.86	418.96
522.03	367.46
522.20	388.53
522.38	393.21
522.55	388.53
522.72	402.57
522.89	423.64
523.07	475.13
523.24	442.36
523.41	409.59
523.58	451.72
523.75	418.96
523.92	444.70
524.10	421.30
524.27	402.57
524.44	451.72
524.61	451.72
524.78	435.34
524.96	423.64
525.13	360.44
525.30	423.64
525.47	472.79
525.64	386.19
525.81	416.62
525.98	433.00
526.16	367.46
526.33	404.91
526.50	428.32
526.67	341.72
526.84	430.66
527.01	348.74
527.18	435.34
527.36	374.49
527.53	404.91
527.70	393.21
527.87	437.68
528.04	435.34
528.21	440.02
528.38	437.68
528.55	437.68
528.72	430.66
528.89	454.06
529.07	479.81
529.24	482.15
529.41	493.85
529.58	416.62
529.75	400.23
529.92	435.34
530.09	402.57
530.26	414.27
530.43	367.46
530.60	416.62
530.77	437.68
530.94	437.68
531.11	477.47
531.28	416.62
531.46	479.81
531.63	411.93
531.80	402.57
531.97	358.10
532.14	428.32
532.31	374.49
532.48	409.59
532.65	477.47
532.82	330.02
532.99	442.36
533.16	351.08
533.33	435.34
533.50	402.57
533.67	404.91
533.84	369.80
534.01	461.09
534.18	362.78
534.35	341.72
534.52	433.00
534.69	444.70
534.86	390.87
535.03	404.91
535.20	395.55
535.37	407.25
535.54	472.79
535.71	409.59
535.88	433.00
536.05	369.80
536.22	456.40
536.38	407.25
536.55	409.59
536.72	470.45
536.89	397.89
537.06	414.27
537.23	442.36
537.40	388.53
537.57	423.64
537.74	444.70
537.91	397.89
538.08	425.98
538.25	404.91
538.42	430.66
538.59	407.25
538.75	435.34
538.92	423.64
539.09	386.19
539.26	475.13
539.43	447.04
539.60	400.23
539.77	374.49
539.94	402.57
540.11	407.25
540.28	411.93
540.44	503.22
540.61	407.25
540.78	472.79
540.95	416.62
541.12	440.02
541.29	376.83
541.46	456.40
541.62	360.44
541.79	458.74
541.96	465.77
542.13	435.34
542.30	379.17
542.47	395.55
542.63	444.70
542.80	435.34
542.97	496.19
543.14	402.57
543.31	393.21
543.48	353.42
543.64	383.85
543.81	407.25
543.98	456.40
544.15	395.55
544.32	325.33
544.48	442.36
544.65	425.98
544.82	358.10
544.99	433.00
545.16	498.53
545.32	416.62
545.49	407.25
545.66	290.23
545.83	379.17
546.00	386.19
546.16	386.19
546.33	411.93
546.50	447.04
546.67	447.04
546.83	388.53
547.00	376.83
547.17	411.93
547.34	404.91
547.50	430.66
547.67	411.93
547.84	388.53
548.00	402.57
548.17	475.13
548.34	421.30
548.51	437.68
548.67	386.19
548.84	428.32
549.01	477.47
549.18	409.59
549.34	470.45
549.51	390.87
549.68	472.79
549.84	369.80
550.01	435.34
550.18	496.19
550.34	435.34
550.51	449.38
550.68	538.32
550.84	400.23
551.01	477.47
551.18	447.04
551.34	404.91
551.51	388.53
551.68	421.30
551.84	444.70
552.01	407.25
552.18	421.30
552.34	374.49
552.51	454.06
552.68	421.30
552.84	390.87
553.01	411.93
553.18	505.56
553.34	393.21
553.51	393.21
553.67	369.80
553.84	400.23
554.01	344.06
554.17	430.66
554.34	411.93
554.51	447.04
554.67	433.00
554.84	404.91
555.00	402.57
555.17	425.98
555.33	475.13
555.50	383.85
555.67	407.25
555.83	397.89
556.00	395.55
556.16	552.37
556.33	477.47
556.50	397.89
556.66	411.93
556.83	379.17
556.99	447.04
557.16	442.36
557.32	423.64
557.49	397.89
557.65	341.72
557.82	383.85
557.98	421.30
558.15	418.96
558.32	428.32
558.48	400.23
558.65	430.66
558.81	358.10
558.98	451.72
559.14	470.45
559.31	423.64
559.47	472.79
559.64	430.66
559.80	411.93
559.97	418.96
560.13	465.77
560.30	454.06
560.46	458.74
560.63	372.15
560.79	369.80
560.96	367.46
561.12	440.02
561.29	358.10
561.45	383.85
561.61	437.68
561.78	484.49
561.94	435.34
562.11	360.44
562.27	442.36
562.44	470.45
562.60	367.46
562.77	428.32
562.93	475.13
563.10	402.57
563.26	461.09
563.42	390.87
563.59	461.09
563.75	367.46
563.92	400.23
564.08	456.40
564.24	418.96
564.41	388.53
564.57	376.83
564.74	423.64
564.90	564.07
565.07	388.53
565.23	400.23
565.39	475.13
565.56	381.51
565.72	437.68
565.88	409.59
566.05	407.25
566.21	390.87
566.38	454.06
566.54	402.57
566.70	475.13
566.87	402.57
567.03	397.89
567.19	449.38
567.36	416.62
567.52	454.06
567.68	447.04
567.85	386.19
568.01	437.68
568.17	437.68
568.34	367.46
568.50	404.91
568.66	416.62
568.83	430.66
568.99	430.66
569.15	540.66
569.32	416.62
569.48	416.62
569.64	489.17
569.81	440.02
569.97	447.04
570.13	433.00
570.30	437.68
570.46	463.43
570.62	428.32
570.78	433.00
570.95	416.62
571.11	475.13
571.27	475.13
571.43	365.12
571.60	404.91
571.76	461.09
571.92	421.30
572.09	493.85
572.25	421.30
572.41	402.57
572.57	407.25
572.74	433.00
572.90	421.30
573.06	400.23
573.22	444.70
573.38	423.64
573.55	416.62
573.71	449.38
573.87	482.15
574.03	475.13
574.20	465.77
574.36	472.79
574.52	437.68
574.68	496.19
574.84	388.53
575.01	383.85
575.17	461.09
575.33	379.17
575.49	510.24
575.65	468.11
575.82	362.78
575.98	437.68
576.14	367.46
576.30	444.70
576.46	400.23
576.62	404.91
576.79	404.91
576.95	425.98
577.11	376.83
577.27	383.85
577.43	514.92
577.59	433.00
577.75	374.49
577.92	367.46
578.08	416.62
578.24	374.49
578.40	437.68
578.56	435.34
578.72	414.27
578.88	456.40
579.04	365.12
579.21	393.21
579.37	421.30
579.53	437.68
579.69	442.36
579.85	407.25
580.01	430.66
580.17	461.09
580.33	402.57
580.49	451.72
580.65	414.27
580.82	372.15
580.98	409.59
581.14	358.10
581.30	484.49
581.46	325.33
581.62	337.04
581.78	388.53
581.94	423.64
582.10	388.53
582.26	369.80
582.42	418.96
582.58	395.55
582.74	344.06
582.90	404.91
583.06	418.96
583.22	444.70
583.38	435.34
583.54	430.66
583.70	449.38
583.86	402.57
584.02	418.96
584.18	435.34
584.34	414.27
584.50	346.40
584.66	409.59
584.82	409.59
584.98	444.70
585.14	395.55
585.30	442.36
585.46	407.25
585.62	400.23
585.78	421.30
585.94	428.32
586.10	477.47
586.26	496.19
586.42	428.32
586.58	435.34
586.74	416.62
586.90	456.40
587.06	404.91
587.22	376.83
587.38	381.51
587.54	411.93
587.70	465.77
587.86	414.27
588.02	430.66
588.18	482.15
588.34	372.15
588.49	465.77
588.65	425.98
588.81	390.87
588.97	334.70
589.13	500.87
589.29	486.83
589.45	402.57
589.61	402.57
589.77	425.98
589.93	388.53
590.08	425.98
590.24	454.06
590.40	430.66
590.56	414.27
590.72	418.96
590.88	402.57
591.04	397.89
591.20	447.04
591.35	402.57
591.51	505.56
591.67	472.79
591.83	386.19
591.99	519.60
592.15	500.87
592.31	409.59
592.46	397.89
592.62	500.87
592.78	388.53
592.94	461.09
593.10	388.53
593.26	418.96
593.41	447.04
593.57	440.02
593.73	425.98
593.89	493.85
594.05	393.21
594.20	388.53
594.36	374.49
594.52	498.53
594.68	423.64
594.84	386.19
594.99	428.32
595.15	451.72
595.31	409.59
595.47	468.11
595.62	409.59
595.78	423.64
595.94	341.72
596.10	479.81
596.25	430.66
596.41	433.00
596.57	477.47
596.73	444.70
596.88	442.36
597.04	416.62
597.20	524.28
597.36	414.27
597.51	358.10
597.67	386.19
597.83	367.46
597.99	444.70
598.14	433.00
598.30	374.49
598.46	402.57
598.61	437.68
598.77	447.04
598.93	390.87
599.09	407.25
599.24	409.59
599.40	437.68
599.56	369.80
599.71	416.62
599.87	472.79
600.03	411.93
600.18	437.68
600.34	423.64
600.50	330.02
600.65	463.43
600.81	393.21
600.97	393.21
601.12	435.34
601.28	395.55
601.44	461.09
601.59	449.38
601.75	409.59
601.91	416.62
602.06	407.25
602.22	444.70
602.37	472.79
602.53	395.55
602.69	411.93
602.84	374.49
603.00	411.93
603.16	433.00
603.31	409.59
603.47	433.00
603.62	449.38
603.78	435.34
603.94	362.78
604.09	409.59
604.25	416.62
604.40	404.91
604.56	454.06
604.71	416.62
604.87	376.83
605.03	397.89
605.18	411.93
605.34	402.57
605.49	442.36
605.65	425.98
605.80	428.32
605.96	358.10
606.12	442.36
606.27	418.96
606.43	397.89
606.58	381.51
606.74	498.53
606.89	402.57
607.05	505.56
607.20	449.38
607.36	442.36
607.51	369.80
607.67	322.99
607.82	365.12
607.98	444.70
608.13	418.96
608.29	414.27
608.44	440.02
608.60	346.40
608.75	512.58
608.91	351.08
609.06	395.55
609.22	416.62
609.37	381.51
609.53	475.13
609.68	463.43
609.84	463.43
609.99	416.62
610.15	404.91
