SpectraSuite Data File
++++++++++++++++++++++++++++++++++++
Date: Fri Oct 25 12:10:08 EDT 2013
User: price-jones
Dark Spectrum Present: No
Reference Spectrum Present: No
Number of Sampled Component Spectra: 1
Spectrometers: USB2+H05261
Integration Time (usec): 100000 (USB2+H05261)
Spectra Averaged: 1 (USB2+H05261)
Boxcar Smoothing: 0 (USB2+H05261)
Correct for Electrical Dark: No (USB2+H05261)
Strobe/Lamp Enabled: No (USB2+H05261)
Correct for Detector Non-linearity: No (USB2+H05261)
Correct for Stray Light: No (USB2+H05261)
Number of Pixels in Processed Spectrum: 2048
>>>>>Begin Processed Spectral Data<<<<<
365.73	330.02
365.92	330.02
366.12	330.02
366.32	341.72
366.52	301.93
366.72	262.14
366.91	234.05
367.11	243.42
367.31	191.92
367.51	271.50
367.70	320.65
367.90	285.55
368.10	227.03
368.30	212.99
368.49	276.18
368.69	313.63
368.89	243.42
369.09	262.14
369.28	201.29
369.48	339.38
369.68	313.63
369.87	315.97
370.07	292.57
370.27	283.20
370.47	339.38
370.66	320.65
370.86	325.33
371.06	393.21
371.25	428.32
371.45	393.21
371.65	404.91
371.84	402.57
372.04	409.59
372.24	414.27
372.44	393.21
372.63	404.91
372.83	402.57
373.03	390.87
373.22	367.46
373.42	461.09
373.62	430.66
373.81	477.47
374.01	465.77
374.21	376.83
374.40	388.53
374.60	407.25
374.79	428.32
374.99	400.23
375.19	454.06
375.38	407.25
375.58	437.68
375.78	458.74
375.97	437.68
376.17	512.58
376.37	379.17
376.56	418.96
376.76	416.62
376.95	449.38
377.15	402.57
377.35	383.85
377.54	447.04
377.74	383.85
377.93	337.04
378.13	449.38
378.33	407.25
378.52	379.17
378.72	353.42
378.91	505.56
379.11	360.44
379.31	367.46
379.50	390.87
379.70	421.30
379.89	386.19
380.09	376.83
380.28	437.68
380.48	381.51
380.68	423.64
380.87	390.87
381.07	425.98
381.26	374.49
381.46	315.97
381.65	409.59
381.85	400.23
382.04	404.91
382.24	397.89
382.43	442.36
382.63	355.76
382.83	465.77
383.02	400.23
383.22	414.27
383.41	430.66
383.61	458.74
383.80	451.72
384.00	386.19
384.19	449.38
384.39	400.23
384.58	400.23
384.78	365.12
384.97	402.57
385.17	351.08
385.36	400.23
385.56	397.89
385.75	402.57
385.95	423.64
386.14	440.02
386.34	393.21
386.53	425.98
386.72	411.93
386.92	374.49
387.11	411.93
387.31	395.55
387.50	416.62
387.70	437.68
387.89	407.25
388.09	353.42
388.28	397.89
388.48	372.15
388.67	442.36
388.86	435.34
389.06	393.21
389.25	465.77
389.45	421.30
389.64	411.93
389.84	390.87
390.03	416.62
390.22	344.06
390.42	425.98
390.61	435.34
390.81	400.23
391.00	437.68
391.19	402.57
391.39	381.51
391.58	458.74
391.78	393.21
391.97	362.78
392.16	421.30
392.36	449.38
392.55	472.79
392.75	381.51
392.94	383.85
393.13	374.49
393.33	402.57
393.52	437.68
393.71	486.83
393.91	344.06
394.10	355.76
394.29	421.30
394.49	397.89
394.68	376.83
394.88	433.00
395.07	367.46
395.26	433.00
395.46	400.23
395.65	395.55
395.84	411.93
396.04	493.85
396.23	393.21
396.42	379.17
396.62	407.25
396.81	433.00
397.00	402.57
397.19	344.06
397.39	397.89
397.58	416.62
397.77	301.93
397.97	383.85
398.16	451.72
398.35	421.30
398.55	362.78
398.74	388.53
398.93	397.89
399.12	365.12
399.32	433.00
399.51	404.91
399.70	407.25
399.90	435.34
400.09	440.02
400.28	400.23
400.47	376.83
400.67	454.06
400.86	390.87
401.05	390.87
401.24	416.62
401.44	423.64
401.63	369.80
401.82	376.83
402.01	400.23
402.21	390.87
402.40	358.10
402.59	407.25
402.78	360.44
402.97	397.89
403.17	367.46
403.36	332.36
403.55	390.87
403.74	393.21
403.93	407.25
404.13	428.32
404.32	430.66
404.51	379.17
404.70	484.49
404.89	386.19
405.09	425.98
405.28	414.27
405.47	397.89
405.66	379.17
405.85	430.66
406.05	402.57
406.24	397.89
406.43	433.00
406.62	414.27
406.81	423.64
407.00	416.62
407.20	430.66
407.39	311.29
407.58	409.59
407.77	440.02
407.96	458.74
408.15	470.45
408.34	433.00
408.54	390.87
408.73	330.02
408.92	381.51
409.11	397.89
409.30	428.32
409.49	430.66
409.68	500.87
409.87	484.49
410.07	390.87
410.26	416.62
410.45	386.19
410.64	435.34
410.83	458.74
411.02	351.08
411.21	440.02
411.40	388.53
411.59	315.97
411.78	372.15
411.98	400.23
412.17	374.49
412.36	491.51
412.55	433.00
412.74	437.68
412.93	489.17
413.12	449.38
413.31	383.85
413.50	440.02
413.69	325.33
413.88	418.96
414.07	407.25
414.26	437.68
414.45	458.74
414.64	463.43
414.83	376.83
415.02	397.89
415.22	404.91
415.41	393.21
415.60	437.68
415.79	416.62
415.98	430.66
416.17	393.21
416.36	407.25
416.55	388.53
416.74	372.15
416.93	376.83
417.12	402.57
417.31	404.91
417.50	416.62
417.69	423.64
417.88	404.91
418.07	348.74
418.26	463.43
418.45	388.53
418.64	465.77
418.83	503.22
419.02	428.32
419.21	395.55
419.39	454.06
419.58	404.91
419.77	411.93
419.96	372.15
420.15	440.02
420.34	423.64
420.53	425.98
420.72	444.70
420.91	397.89
421.10	458.74
421.29	435.34
421.48	414.27
421.67	451.72
421.86	435.34
422.05	386.19
422.24	388.53
422.43	407.25
422.61	397.89
422.80	372.15
422.99	374.49
423.18	496.19
423.37	444.70
423.56	468.11
423.75	435.34
423.94	390.87
424.13	421.30
424.32	411.93
424.50	369.80
424.69	381.51
424.88	437.68
425.07	468.11
425.26	430.66
425.45	381.51
425.64	402.57
425.83	388.53
426.01	442.36
426.20	400.23
426.39	388.53
426.58	425.98
426.77	376.83
426.96	379.17
427.15	381.51
427.33	407.25
427.52	449.38
427.71	496.19
427.90	437.68
428.09	437.68
428.28	451.72
428.46	346.40
428.65	383.85
428.84	395.55
429.03	376.83
429.22	416.62
429.40	404.91
429.59	362.78
429.78	414.27
429.97	416.62
430.16	451.72
430.34	468.11
430.53	435.34
430.72	423.64
430.91	358.10
431.10	437.68
431.28	404.91
431.47	358.10
431.66	423.64
431.85	425.98
432.03	435.34
432.22	381.51
432.41	367.46
432.60	451.72
432.79	360.44
432.97	414.27
433.16	362.78
433.35	421.30
433.54	400.23
433.72	456.40
433.91	423.64
434.10	388.53
434.28	461.09
434.47	379.17
434.66	463.43
434.85	404.91
435.03	381.51
435.22	374.49
435.41	411.93
435.59	435.34
435.78	306.61
435.97	442.36
436.16	411.93
436.34	451.72
436.53	447.04
436.72	430.66
436.90	482.15
437.09	388.53
437.28	407.25
437.46	383.85
437.65	402.57
437.84	430.66
438.02	433.00
438.21	418.96
438.40	428.32
438.58	369.80
438.77	449.38
438.96	395.55
439.14	447.04
439.33	461.09
439.52	402.57
439.70	437.68
439.89	465.77
440.08	376.83
440.26	440.02
440.45	409.59
440.63	351.08
440.82	390.87
441.01	449.38
441.19	418.96
441.38	390.87
441.57	418.96
441.75	430.66
441.94	409.59
442.12	418.96
442.31	428.32
442.50	477.47
442.68	451.72
442.87	423.64
443.05	383.85
443.24	449.38
443.43	404.91
443.61	421.30
443.80	461.09
443.98	395.55
444.17	351.08
444.35	376.83
444.54	423.64
444.73	430.66
444.91	416.62
445.10	395.55
445.28	365.12
445.47	348.74
445.65	428.32
445.84	393.21
446.02	423.64
446.21	416.62
446.39	381.51
446.58	428.32
446.77	449.38
446.95	409.59
447.14	400.23
447.32	500.87
447.51	374.49
447.69	397.89
447.88	411.93
448.06	470.45
448.25	383.85
448.43	355.76
448.62	397.89
448.80	458.74
448.99	404.91
449.17	402.57
449.36	409.59
449.54	388.53
449.73	337.04
449.91	507.90
450.10	423.64
450.28	442.36
450.46	482.15
450.65	440.02
450.83	414.27
451.02	407.25
451.20	376.83
451.39	433.00
451.57	433.00
451.76	383.85
451.94	381.51
452.13	440.02
452.31	451.72
452.49	423.64
452.68	390.87
452.86	344.06
453.05	435.34
453.23	484.49
453.42	390.87
453.60	337.04
453.78	456.40
453.97	437.68
454.15	463.43
454.34	409.59
454.52	383.85
454.70	416.62
454.89	388.53
455.07	374.49
455.26	463.43
455.44	341.72
455.62	395.55
455.81	337.04
455.99	409.59
456.17	440.02
456.36	428.32
456.54	411.93
456.73	421.30
456.91	458.74
457.09	390.87
457.28	409.59
457.46	416.62
457.64	433.00
457.83	355.76
458.01	423.64
458.19	372.15
458.38	418.96
458.56	421.30
458.74	437.68
458.93	397.89
459.11	372.15
459.29	437.68
459.48	433.00
459.66	479.81
459.84	437.68
460.03	477.47
460.21	444.70
460.39	395.55
460.57	472.79
460.76	437.68
460.94	393.21
461.12	449.38
461.31	440.02
461.49	407.25
461.67	397.89
461.85	472.79
462.04	449.38
462.22	774.72
462.40	367.46
462.59	472.79
462.77	421.30
462.95	484.49
463.13	376.83
463.32	498.53
463.50	411.93
463.68	404.91
463.86	461.09
464.05	369.80
464.23	472.79
464.41	409.59
464.59	451.72
464.78	367.46
464.96	353.42
465.14	367.46
465.32	423.64
465.50	430.66
465.69	437.68
465.87	428.32
466.05	379.17
466.23	365.12
466.41	353.42
466.60	339.38
466.78	360.44
466.96	437.68
467.14	388.53
467.32	400.23
467.51	397.89
467.69	407.25
467.87	458.74
468.05	437.68
468.23	505.56
468.41	521.94
468.60	454.06
468.78	411.93
468.96	430.66
469.14	498.53
469.32	454.06
469.50	416.62
469.69	362.78
469.87	409.59
470.05	421.30
470.23	393.21
470.41	435.34
470.59	456.40
470.77	418.96
470.95	388.53
471.14	409.59
471.32	393.21
471.50	489.17
471.68	390.87
471.86	440.02
472.04	433.00
472.22	407.25
472.40	346.40
472.58	388.53
472.77	360.44
472.95	381.51
473.13	472.79
473.31	479.81
473.49	409.59
473.67	390.87
473.85	437.68
474.03	491.51
474.21	407.25
474.39	428.32
474.57	440.02
474.75	472.79
474.93	341.72
475.12	379.17
475.30	463.43
475.48	435.34
475.66	440.02
475.84	372.15
476.02	411.93
476.20	383.85
476.38	451.72
476.56	409.59
476.74	367.46
476.92	425.98
477.10	449.38
477.28	372.15
477.46	416.62
477.64	393.21
477.82	367.46
478.00	416.62
478.18	421.30
478.36	428.32
478.54	311.29
478.72	433.00
478.90	465.77
479.08	451.72
479.26	475.13
479.44	388.53
479.62	339.38
479.80	465.77
479.98	388.53
480.16	411.93
480.34	376.83
480.52	447.04
480.70	416.62
480.88	449.38
481.06	442.36
481.24	418.96
481.41	409.59
481.59	449.38
481.77	383.85
481.95	397.89
482.13	454.06
482.31	374.49
482.49	381.51
482.67	390.87
482.85	463.43
483.03	416.62
483.21	435.34
483.39	449.38
483.57	402.57
483.74	435.34
483.92	484.49
484.10	374.49
484.28	477.47
484.46	463.43
484.64	372.15
484.82	362.78
485.00	411.93
485.18	416.62
485.35	458.74
485.53	407.25
485.71	440.02
485.89	425.98
486.07	360.44
486.25	437.68
486.43	433.00
486.61	458.74
486.78	393.21
486.96	411.93
487.14	421.30
487.32	390.87
487.50	390.87
487.68	433.00
487.85	451.72
488.03	395.55
488.21	425.98
488.39	379.17
488.57	418.96
488.75	339.38
488.92	484.49
489.10	449.38
489.28	414.27
489.46	372.15
489.64	423.64
489.81	454.06
489.99	397.89
490.17	409.59
490.35	472.79
490.53	423.64
490.70	433.00
490.88	430.66
491.06	416.62
491.24	421.30
491.41	430.66
491.59	346.40
491.77	489.17
491.95	383.85
492.13	365.12
492.30	421.30
492.48	402.57
492.66	444.70
492.84	311.29
493.01	397.89
493.19	355.76
493.37	449.38
493.54	430.66
493.72	369.80
493.90	390.87
494.08	444.70
494.25	458.74
494.43	362.78
494.61	477.47
494.79	390.87
494.96	393.21
495.14	461.09
495.32	390.87
495.49	444.70
495.67	374.49
495.85	458.74
496.02	430.66
496.20	454.06
496.38	400.23
496.55	397.89
496.73	440.02
496.91	437.68
497.09	482.15
497.26	418.96
497.44	416.62
497.62	358.10
497.79	376.83
497.97	458.74
498.14	444.70
498.32	421.30
498.50	416.62
498.67	423.64
498.85	447.04
499.03	376.83
499.20	390.87
499.38	407.25
499.56	348.74
499.73	407.25
499.91	421.30
500.08	423.64
500.26	437.68
500.44	376.83
500.61	435.34
500.79	360.44
500.97	458.74
501.14	351.08
501.32	451.72
501.49	395.55
501.67	440.02
501.84	416.62
502.02	390.87
502.20	423.64
502.37	386.19
502.55	428.32
502.72	400.23
502.90	402.57
503.07	428.32
503.25	468.11
503.43	369.80
503.60	421.30
503.78	496.19
503.95	383.85
504.13	355.76
504.30	388.53
504.48	430.66
504.65	411.93
504.83	428.32
505.01	379.17
505.18	428.32
505.36	456.40
505.53	390.87
505.71	320.65
505.88	358.10
506.06	346.40
506.23	442.36
506.41	386.19
506.58	416.62
506.76	416.62
506.93	421.30
507.11	479.81
507.28	493.85
507.46	454.06
507.63	451.72
507.81	402.57
507.98	383.85
508.16	421.30
508.33	425.98
508.50	330.02
508.68	379.17
508.85	414.27
509.03	416.62
509.20	400.23
509.38	395.55
509.55	393.21
509.73	386.19
509.90	517.26
510.08	379.17
510.25	402.57
510.42	362.78
510.60	379.17
510.77	421.30
510.95	489.17
511.12	433.00
511.30	416.62
511.47	475.13
511.64	404.91
511.82	376.83
511.99	465.77
512.17	400.23
512.34	447.04
512.51	407.25
512.69	404.91
512.86	477.47
513.04	470.45
513.21	372.15
513.38	409.59
513.56	341.72
513.73	433.00
513.90	421.30
514.08	475.13
514.25	411.93
514.43	486.83
514.60	330.02
514.77	433.00
514.95	435.34
515.12	390.87
515.29	414.27
515.47	496.19
515.64	435.34
515.81	416.62
515.99	376.83
516.16	402.57
516.33	470.45
516.51	388.53
516.68	433.00
516.85	423.64
517.03	393.21
517.20	442.36
517.37	430.66
517.54	381.51
517.72	475.13
517.89	440.02
518.06	458.74
518.24	416.62
518.41	484.49
518.58	454.06
518.75	379.17
518.93	421.30
519.10	388.53
519.27	496.19
519.45	409.59
519.62	447.04
519.79	416.62
519.96	390.87
520.14	423.64
520.31	423.64
520.48	416.62
520.65	409.59
520.83	381.51
521.00	348.74
521.17	360.44
521.34	348.74
521.52	334.70
521.69	428.32
521.86	442.36
522.03	444.70
522.20	433.00
522.38	461.09
522.55	484.49
522.72	397.89
522.89	416.62
523.07	444.70
523.24	430.66
523.41	437.68
523.58	416.62
523.75	337.04
523.92	442.36
524.10	388.53
524.27	451.72
524.44	435.34
524.61	423.64
524.78	348.74
524.96	421.30
525.13	425.98
525.30	390.87
525.47	435.34
525.64	489.17
525.81	463.43
525.98	425.98
526.16	423.64
526.33	430.66
526.50	369.80
526.67	465.77
526.84	425.98
527.01	423.64
527.18	390.87
527.36	395.55
527.53	344.06
527.70	379.17
527.87	390.87
528.04	435.34
528.21	442.36
528.38	423.64
528.55	440.02
528.72	479.81
528.89	428.32
529.07	397.89
529.24	411.93
529.41	383.85
529.58	433.00
529.75	400.23
529.92	477.47
530.09	411.93
530.26	440.02
530.43	390.87
530.60	463.43
530.77	400.23
530.94	416.62
531.11	479.81
531.28	390.87
531.46	430.66
531.63	355.76
531.80	397.89
531.97	400.23
532.14	454.06
532.31	381.51
532.48	383.85
532.65	407.25
532.82	395.55
532.99	435.34
533.16	465.77
533.33	461.09
533.50	416.62
533.67	505.56
533.84	421.30
534.01	388.53
534.18	447.04
534.35	456.40
534.52	418.96
534.69	458.74
534.86	449.38
535.03	421.30
535.20	411.93
535.37	379.17
535.54	451.72
535.71	416.62
535.88	421.30
536.05	435.34
536.22	386.19
536.38	365.12
536.55	468.11
536.72	468.11
536.89	411.93
537.06	388.53
537.23	393.21
537.40	416.62
537.57	395.55
537.74	449.38
537.91	456.40
538.08	435.34
538.25	376.83
538.42	397.89
538.59	444.70
538.75	404.91
538.92	454.06
539.09	416.62
539.26	421.30
539.43	414.27
539.60	456.40
539.77	491.51
539.94	351.08
540.11	468.11
540.28	437.68
540.44	393.21
540.61	437.68
540.78	369.80
540.95	383.85
541.12	416.62
541.29	465.77
541.46	386.19
541.62	442.36
541.79	388.53
541.96	376.83
542.13	449.38
542.30	369.80
542.47	510.24
542.63	465.77
542.80	440.02
542.97	468.11
543.14	388.53
543.31	451.72
543.48	451.72
543.64	463.43
543.81	465.77
543.98	341.72
544.15	411.93
544.32	425.98
544.48	430.66
544.65	379.17
544.82	442.36
544.99	402.57
545.16	472.79
545.32	435.34
545.49	397.89
545.66	386.19
545.83	421.30
546.00	451.72
546.16	390.87
546.33	397.89
546.50	376.83
546.67	393.21
546.83	386.19
547.00	374.49
547.17	332.36
547.34	386.19
547.50	477.47
547.67	404.91
547.84	402.57
548.00	477.47
548.17	414.27
548.34	407.25
548.51	425.98
548.67	421.30
548.84	402.57
549.01	421.30
549.18	395.55
549.34	404.91
549.51	337.04
549.68	463.43
549.84	369.80
550.01	395.55
550.18	484.49
550.34	503.22
550.51	447.04
550.68	498.53
550.84	407.25
551.01	416.62
551.18	435.34
551.34	367.46
551.51	454.06
551.68	388.53
551.84	409.59
552.01	402.57
552.18	402.57
552.34	491.51
552.51	379.17
552.68	379.17
552.84	411.93
553.01	369.80
553.18	402.57
553.34	454.06
553.51	351.08
553.67	486.83
553.84	433.00
554.01	372.15
554.17	456.40
554.34	425.98
554.51	486.83
554.67	376.83
554.84	528.96
555.00	381.51
555.17	414.27
555.33	407.25
555.50	421.30
555.67	402.57
555.83	395.55
556.00	449.38
556.16	486.83
556.33	486.83
556.50	456.40
556.66	414.27
556.83	451.72
556.99	386.19
557.16	376.83
557.32	390.87
557.49	381.51
557.65	435.34
557.82	346.40
557.98	425.98
558.15	393.21
558.32	416.62
558.48	454.06
558.65	468.11
558.81	425.98
558.98	409.59
559.14	498.53
559.31	383.85
559.47	421.30
559.64	437.68
559.80	447.04
559.97	365.12
560.13	421.30
560.30	348.74
560.46	367.46
560.63	381.51
560.79	407.25
560.96	435.34
561.12	507.90
561.29	510.24
561.45	447.04
561.61	454.06
561.78	489.17
561.94	510.24
562.11	421.30
562.27	531.30
562.44	407.25
562.60	416.62
562.77	433.00
562.93	428.32
563.10	437.68
563.26	388.53
563.42	465.77
563.59	442.36
563.75	386.19
563.92	416.62
564.08	416.62
564.24	390.87
564.41	463.43
564.57	397.89
564.74	418.96
564.90	461.09
565.07	454.06
565.23	456.40
565.39	400.23
565.56	437.68
565.72	421.30
565.88	383.85
566.05	442.36
566.21	388.53
566.38	348.74
566.54	482.15
566.70	365.12
566.87	374.49
567.03	386.19
567.19	388.53
567.36	381.51
567.52	376.83
567.68	388.53
567.85	393.21
568.01	367.46
568.17	409.59
568.34	498.53
568.50	418.96
568.66	437.68
568.83	461.09
568.99	404.91
569.15	381.51
569.32	376.83
569.48	400.23
569.64	348.74
569.81	376.83
569.97	353.42
570.13	477.47
570.30	428.32
570.46	425.98
570.62	407.25
570.78	379.17
570.95	407.25
571.11	444.70
571.27	393.21
571.43	456.40
571.60	428.32
571.76	409.59
571.92	449.38
572.09	472.79
572.25	463.43
572.41	386.19
572.57	367.46
572.74	477.47
572.90	390.87
573.06	435.34
573.22	451.72
573.38	496.19
573.55	425.98
573.71	463.43
573.87	440.02
574.03	442.36
574.20	367.46
574.36	468.11
574.52	421.30
574.68	435.34
574.84	402.57
575.01	416.62
575.17	430.66
575.33	388.53
575.49	360.44
575.65	376.83
575.82	463.43
575.98	451.72
576.14	465.77
576.30	468.11
576.46	374.49
576.62	447.04
576.79	423.64
576.95	447.04
577.11	395.55
577.27	397.89
577.43	505.56
577.59	425.98
577.75	390.87
577.92	362.78
578.08	353.42
578.24	421.30
578.40	458.74
578.56	418.96
578.72	472.79
578.88	428.32
579.04	421.30
579.21	442.36
579.37	416.62
579.53	379.17
579.69	435.34
579.85	425.98
580.01	435.34
580.17	444.70
580.33	468.11
580.49	470.45
580.65	442.36
580.82	407.25
580.98	423.64
581.14	369.80
581.30	430.66
581.46	397.89
581.62	505.56
581.78	428.32
581.94	447.04
582.10	397.89
582.26	407.25
582.42	397.89
582.58	393.21
582.74	334.70
582.90	393.21
583.06	428.32
583.22	430.66
583.38	379.17
583.54	440.02
583.70	416.62
583.86	458.74
584.02	449.38
584.18	482.15
584.34	374.49
584.50	433.00
584.66	461.09
584.82	463.43
584.98	456.40
585.14	418.96
585.30	418.96
585.46	339.38
585.62	411.93
585.78	390.87
585.94	383.85
586.10	421.30
586.26	393.21
586.42	456.40
586.58	421.30
586.74	449.38
586.90	407.25
587.06	400.23
587.22	355.76
587.38	437.68
587.54	383.85
587.70	351.08
587.86	425.98
588.02	449.38
588.18	449.38
588.34	430.66
588.49	372.15
588.65	409.59
588.81	358.10
588.97	414.27
589.13	353.42
589.29	409.59
589.45	451.72
589.61	341.72
589.77	465.77
589.93	411.93
590.08	388.53
590.24	360.44
590.40	381.51
590.56	421.30
590.72	372.15
590.88	433.00
591.04	390.87
591.20	404.91
591.35	423.64
591.51	430.66
591.67	379.17
591.83	365.12
591.99	418.96
592.15	425.98
592.31	458.74
592.46	435.34
592.62	440.02
592.78	341.72
592.94	437.68
593.10	409.59
593.26	404.91
593.41	416.62
593.57	353.42
593.73	451.72
593.89	489.17
594.05	430.66
594.20	423.64
594.36	428.32
594.52	388.53
594.68	430.66
594.84	447.04
594.99	472.79
595.15	440.02
595.31	397.89
595.47	479.81
595.62	425.98
595.78	442.36
595.94	397.89
596.10	447.04
596.25	447.04
596.41	447.04
596.57	454.06
596.73	440.02
596.88	400.23
597.04	458.74
597.20	374.49
597.36	437.68
597.51	423.64
597.67	491.51
597.83	416.62
597.99	421.30
598.14	461.09
598.30	400.23
598.46	416.62
598.61	418.96
598.77	416.62
598.93	414.27
599.09	440.02
599.24	437.68
599.40	425.98
599.56	379.17
599.71	393.21
599.87	421.30
600.03	397.89
600.18	430.66
600.34	374.49
600.50	390.87
600.65	449.38
600.81	390.87
600.97	421.30
601.12	505.56
601.28	397.89
601.44	407.25
601.59	346.40
601.75	435.34
601.91	458.74
602.06	423.64
602.22	482.15
602.37	535.98
602.53	463.43
602.69	421.30
602.84	407.25
603.00	400.23
603.16	500.87
603.31	454.06
603.47	414.27
603.62	397.89
603.78	376.83
603.94	379.17
604.09	395.55
604.25	442.36
604.40	379.17
604.56	397.89
604.71	430.66
604.87	409.59
605.03	395.55
605.18	440.02
605.34	477.47
605.49	346.40
605.65	416.62
605.80	379.17
605.96	449.38
606.12	435.34
606.27	404.91
606.43	440.02
606.58	442.36
606.74	421.30
606.89	463.43
607.05	468.11
607.20	414.27
607.36	362.78
607.51	416.62
607.67	346.40
607.82	393.21
607.98	421.30
608.13	339.38
608.29	407.25
608.44	418.96
608.60	397.89
608.75	458.74
608.91	430.66
609.06	416.62
609.22	447.04
609.37	423.64
609.53	390.87
609.68	400.23
609.84	440.02
609.99	416.62
610.15	433.00
