SpectraSuite Data File
++++++++++++++++++++++++++++++++++++
Date: Fri Oct 25 12:11:03 EDT 2013
User: price-jones
Dark Spectrum Present: No
Reference Spectrum Present: No
Number of Sampled Component Spectra: 1
Spectrometers: USB2+H05261
Integration Time (usec): 100000 (USB2+H05261)
Spectra Averaged: 1 (USB2+H05261)
Boxcar Smoothing: 0 (USB2+H05261)
Correct for Electrical Dark: No (USB2+H05261)
Strobe/Lamp Enabled: No (USB2+H05261)
Correct for Detector Non-linearity: No (USB2+H05261)
Correct for Stray Light: No (USB2+H05261)
Number of Pixels in Processed Spectrum: 2048
>>>>>Begin Processed Spectral Data<<<<<
365.73	276.18
365.92	276.18
366.12	276.18
366.32	280.86
366.52	255.12
366.72	278.52
366.91	276.18
367.11	304.27
367.31	262.14
367.51	177.88
367.70	217.67
367.90	259.80
368.10	264.48
368.30	262.14
368.49	259.80
368.69	217.67
368.89	262.14
369.09	255.12
369.28	229.37
369.48	241.08
369.68	271.50
369.87	273.84
370.07	283.20
370.27	407.25
370.47	355.76
370.66	327.68
370.86	341.72
371.06	411.93
371.25	404.91
371.45	358.10
371.65	348.74
371.84	315.97
372.04	355.76
372.24	341.72
372.44	379.17
372.63	395.55
372.83	395.55
373.03	376.83
373.22	433.00
373.42	362.78
373.62	372.15
373.81	393.21
374.01	440.02
374.21	393.21
374.40	465.77
374.60	428.32
374.79	409.59
374.99	449.38
375.19	388.53
375.38	465.77
375.58	418.96
375.78	477.47
375.97	360.44
376.17	470.45
376.37	416.62
376.56	489.17
376.76	414.27
376.95	433.00
377.15	444.70
377.35	442.36
377.54	454.06
377.74	440.02
377.93	435.34
378.13	433.00
378.33	379.17
378.52	367.46
378.72	376.83
378.91	379.17
379.11	397.89
379.31	339.38
379.50	334.70
379.70	409.59
379.89	442.36
380.09	435.34
380.28	454.06
380.48	421.30
380.68	470.45
380.87	397.89
381.07	421.30
381.26	440.02
381.46	442.36
381.65	393.21
381.85	421.30
382.04	390.87
382.24	367.46
382.43	362.78
382.63	404.91
382.83	379.17
383.02	440.02
383.22	428.32
383.41	397.89
383.61	418.96
383.80	416.62
384.00	383.85
384.19	397.89
384.39	395.55
384.58	390.87
384.78	276.18
384.97	433.00
385.17	386.19
385.36	421.30
385.56	418.96
385.75	475.13
385.95	456.40
386.14	435.34
386.34	440.02
386.53	423.64
386.72	367.46
386.92	454.06
387.11	388.53
387.31	414.27
387.50	379.17
387.70	390.87
387.89	395.55
388.09	411.93
388.28	395.55
388.48	362.78
388.67	456.40
388.86	442.36
389.06	404.91
389.25	468.11
389.45	407.25
389.64	341.72
389.84	402.57
390.03	454.06
390.22	444.70
390.42	440.02
390.61	435.34
390.81	442.36
391.00	318.31
391.19	451.72
391.39	416.62
391.58	416.62
391.78	351.08
391.97	386.19
392.16	423.64
392.36	435.34
392.55	411.93
392.75	367.46
392.94	416.62
393.13	444.70
393.33	374.49
393.52	456.40
393.71	447.04
393.91	372.15
394.10	390.87
394.29	475.13
394.49	472.79
394.68	388.53
394.88	435.34
395.07	437.68
395.26	365.12
395.46	386.19
395.65	425.98
395.84	418.96
396.04	484.49
396.23	421.30
396.42	425.98
396.62	409.59
396.81	486.83
397.00	400.23
397.19	444.70
397.39	454.06
397.58	409.59
397.77	519.60
397.97	376.83
398.16	440.02
398.35	388.53
398.55	397.89
398.74	458.74
398.93	407.25
399.12	390.87
399.32	372.15
399.51	388.53
399.70	440.02
399.90	477.47
400.09	372.15
400.28	433.00
400.47	437.68
400.67	411.93
400.86	369.80
401.05	390.87
401.24	423.64
401.44	344.06
401.63	451.72
401.82	421.30
402.01	386.19
402.21	372.15
402.40	362.78
402.59	367.46
402.78	341.72
402.97	365.12
403.17	397.89
403.36	318.31
403.55	409.59
403.74	383.85
403.93	440.02
404.13	472.79
404.32	470.45
404.51	367.46
404.70	428.32
404.89	407.25
405.09	397.89
405.28	444.70
405.47	383.85
405.66	376.83
405.85	472.79
406.05	470.45
406.24	454.06
406.43	454.06
406.62	386.19
406.81	416.62
407.00	458.74
407.20	425.98
407.39	437.68
407.58	425.98
407.77	421.30
407.96	437.68
408.15	393.21
408.34	395.55
408.54	421.30
408.73	388.53
408.92	393.21
409.11	442.36
409.30	430.66
409.49	409.59
409.68	367.46
409.87	428.32
410.07	425.98
410.26	470.45
410.45	400.23
410.64	400.23
410.83	496.19
411.02	390.87
411.21	407.25
411.40	411.93
411.59	390.87
411.78	409.59
411.98	386.19
412.17	425.98
412.36	411.93
412.55	449.38
412.74	388.53
412.93	472.79
413.12	334.70
413.31	428.32
413.50	430.66
413.69	355.76
413.88	369.80
414.07	393.21
414.26	449.38
414.45	362.78
414.64	388.53
414.83	397.89
415.02	479.81
415.22	421.30
415.41	428.32
415.60	367.46
415.79	465.77
415.98	418.96
416.17	423.64
416.36	451.72
416.55	344.06
416.74	414.27
416.93	346.40
417.12	407.25
417.31	369.80
417.50	414.27
417.69	447.04
417.88	416.62
418.07	418.96
418.26	409.59
418.45	407.25
418.64	440.02
418.83	383.85
419.02	421.30
419.21	397.89
419.39	449.38
419.58	390.87
419.77	404.91
419.96	414.27
420.15	423.64
420.34	372.15
420.53	421.30
420.72	379.17
420.91	433.00
421.10	493.85
421.29	414.27
421.48	447.04
421.67	416.62
421.86	374.49
422.05	360.44
422.24	491.51
422.43	358.10
422.61	407.25
422.80	344.06
422.99	437.68
423.18	400.23
423.37	458.74
423.56	362.78
423.75	393.21
423.94	358.10
424.13	407.25
424.32	395.55
424.50	440.02
424.69	449.38
424.88	465.77
425.07	425.98
425.26	444.70
425.45	421.30
425.64	451.72
425.83	442.36
426.01	393.21
426.20	418.96
426.39	339.38
426.58	372.15
426.77	402.57
426.96	423.64
427.15	468.11
427.33	447.04
427.52	418.96
427.71	425.98
427.90	496.19
428.09	470.45
428.28	517.26
428.46	484.49
428.65	404.91
428.84	454.06
429.03	425.98
429.22	433.00
429.40	447.04
429.59	449.38
429.78	442.36
429.97	416.62
430.16	442.36
430.34	425.98
430.53	423.64
430.72	395.55
430.91	454.06
431.10	517.26
431.28	379.17
431.47	397.89
431.66	428.32
431.85	468.11
432.03	348.74
432.22	470.45
432.41	414.27
432.60	388.53
432.79	397.89
432.97	465.77
433.16	407.25
433.35	454.06
433.54	369.80
433.72	447.04
433.91	442.36
434.10	353.42
434.28	390.87
434.47	407.25
434.66	407.25
434.85	376.83
435.03	444.70
435.22	486.83
435.41	421.30
435.59	421.30
435.78	393.21
435.97	454.06
436.16	404.91
436.34	418.96
436.53	402.57
436.72	383.85
436.90	454.06
437.09	451.72
437.28	447.04
437.46	447.04
437.65	442.36
437.84	346.40
438.02	510.24
438.21	348.74
438.40	451.72
438.58	442.36
438.77	379.17
438.96	416.62
439.14	369.80
439.33	465.77
439.52	425.98
439.70	393.21
439.89	416.62
440.08	447.04
440.26	444.70
440.45	447.04
440.63	386.19
440.82	369.80
441.01	430.66
441.19	428.32
441.38	416.62
441.57	386.19
441.75	393.21
441.94	322.99
442.12	423.64
442.31	393.21
442.50	437.68
442.68	411.93
442.87	393.21
443.05	367.46
443.24	402.57
443.43	393.21
443.61	505.56
443.80	461.09
443.98	402.57
444.17	397.89
444.35	454.06
444.54	435.34
444.73	325.33
444.91	376.83
445.10	397.89
445.28	421.30
445.47	404.91
445.65	390.87
445.84	400.23
446.02	421.30
446.21	444.70
446.39	358.10
446.58	407.25
446.77	386.19
446.95	416.62
447.14	463.43
447.32	421.30
447.51	447.04
447.69	498.53
447.88	404.91
448.06	433.00
448.25	489.17
448.43	461.09
448.62	444.70
448.80	425.98
448.99	411.93
449.17	451.72
449.36	414.27
449.54	393.21
449.73	397.89
449.91	425.98
450.10	374.49
450.28	472.79
450.46	430.66
450.65	390.87
450.83	407.25
451.02	423.64
451.20	416.62
451.39	346.40
451.57	367.46
451.76	360.44
451.94	451.72
452.13	444.70
452.31	341.72
452.49	393.21
452.68	425.98
452.86	388.53
453.05	381.51
453.23	425.98
453.42	407.25
453.60	440.02
453.78	449.38
453.97	444.70
454.15	355.76
454.34	376.83
454.52	383.85
454.70	444.70
454.89	430.66
455.07	390.87
455.26	402.57
455.44	470.45
455.62	411.93
455.81	486.83
455.99	404.91
456.17	442.36
456.36	386.19
456.54	372.15
456.73	447.04
456.91	449.38
457.09	344.06
457.28	507.90
457.46	433.00
457.64	418.96
457.83	454.06
458.01	468.11
458.19	421.30
458.38	379.17
458.56	444.70
458.74	400.23
458.93	390.87
459.11	414.27
459.29	414.27
459.48	393.21
459.66	376.83
459.84	404.91
460.03	423.64
460.21	407.25
460.39	505.56
460.57	416.62
460.76	468.11
460.94	400.23
461.12	449.38
461.31	409.59
461.49	353.42
461.67	397.89
461.85	404.91
462.04	416.62
462.22	732.59
462.40	421.30
462.59	393.21
462.77	393.21
462.95	437.68
463.13	444.70
463.32	423.64
463.50	344.06
463.68	496.19
463.86	404.91
464.05	365.12
464.23	402.57
464.41	379.17
464.59	390.87
464.78	386.19
464.96	409.59
465.14	397.89
465.32	404.91
465.50	404.91
465.69	454.06
465.87	425.98
466.05	449.38
466.23	381.51
466.41	381.51
466.60	479.81
466.78	393.21
466.96	390.87
467.14	367.46
467.32	428.32
467.51	411.93
467.69	479.81
467.87	484.49
468.05	358.10
468.23	463.43
468.41	458.74
468.60	440.02
468.78	447.04
468.96	433.00
469.14	395.55
469.32	414.27
469.50	395.55
469.69	423.64
469.87	372.15
470.05	437.68
470.23	454.06
470.41	430.66
470.59	428.32
470.77	395.55
470.95	435.34
471.14	465.77
471.32	404.91
471.50	430.66
471.68	402.57
471.86	449.38
472.04	393.21
472.22	430.66
472.40	355.76
472.58	435.34
472.77	442.36
472.95	383.85
473.13	423.64
473.31	411.93
473.49	442.36
473.67	414.27
473.85	458.74
474.03	444.70
474.21	470.45
474.39	437.68
474.57	390.87
474.75	355.76
474.93	369.80
475.12	367.46
475.30	421.30
475.48	425.98
475.66	447.04
475.84	421.30
476.02	440.02
476.20	461.09
476.38	451.72
476.56	496.19
476.74	423.64
476.92	437.68
477.10	444.70
477.28	454.06
477.46	463.43
477.64	430.66
477.82	390.87
478.00	433.00
478.18	458.74
478.36	355.76
478.54	409.59
478.72	339.38
478.90	376.83
479.08	416.62
479.26	411.93
479.44	454.06
479.62	437.68
479.80	407.25
479.98	451.72
480.16	444.70
480.34	500.87
480.52	451.72
480.70	418.96
480.88	339.38
481.06	353.42
481.24	468.11
481.41	451.72
481.59	470.45
481.77	414.27
481.95	416.62
482.13	416.62
482.31	430.66
482.49	390.87
482.67	451.72
482.85	393.21
483.03	463.43
483.21	440.02
483.39	372.15
483.57	423.64
483.74	402.57
483.92	407.25
484.10	435.34
484.28	458.74
484.46	472.79
484.64	447.04
484.82	397.89
485.00	414.27
485.18	421.30
485.35	367.46
485.53	390.87
485.71	355.76
485.89	393.21
486.07	374.49
486.25	430.66
486.43	411.93
486.61	454.06
486.78	482.15
486.96	442.36
487.14	437.68
487.32	395.55
487.50	416.62
487.68	381.51
487.85	482.15
488.03	461.09
488.21	425.98
488.39	440.02
488.57	449.38
488.75	433.00
488.92	500.87
489.10	444.70
489.28	456.40
489.46	388.53
489.64	430.66
489.81	388.53
489.99	402.57
490.17	444.70
490.35	498.53
490.53	437.68
490.70	407.25
490.88	458.74
491.06	430.66
491.24	484.49
491.41	458.74
491.59	395.55
491.77	402.57
491.95	402.57
492.13	372.15
492.30	423.64
492.48	390.87
492.66	451.72
492.84	402.57
493.01	337.04
493.19	421.30
493.37	383.85
493.54	414.27
493.72	397.89
493.90	383.85
494.08	433.00
494.25	355.76
494.43	411.93
494.61	414.27
494.79	442.36
494.96	334.70
495.14	390.87
495.32	367.46
495.49	388.53
495.67	390.87
495.85	393.21
496.02	383.85
496.20	458.74
496.38	435.34
496.55	376.83
496.73	407.25
496.91	461.09
497.09	430.66
497.26	416.62
497.44	365.12
497.62	397.89
497.79	376.83
497.97	386.19
498.14	416.62
498.32	355.76
498.50	332.36
498.67	397.89
498.85	435.34
499.03	362.78
499.20	369.80
499.38	421.30
499.56	341.72
499.73	442.36
499.91	341.72
500.08	454.06
500.26	386.19
500.44	423.64
500.61	414.27
500.79	388.53
500.97	435.34
501.14	395.55
501.32	461.09
501.49	468.11
501.67	404.91
501.84	367.46
502.02	322.99
502.20	428.32
502.37	414.27
502.55	414.27
502.72	404.91
502.90	395.55
503.07	428.32
503.25	442.36
503.43	472.79
503.60	360.44
503.78	386.19
503.95	402.57
504.13	451.72
504.30	367.46
504.48	461.09
504.65	444.70
504.83	322.99
505.01	435.34
505.18	454.06
505.36	418.96
505.53	411.93
505.71	447.04
505.88	433.00
506.06	456.40
506.23	369.80
506.41	395.55
506.58	400.23
506.76	454.06
506.93	376.83
507.11	451.72
507.28	428.32
507.46	383.85
507.63	461.09
507.81	409.59
507.98	442.36
508.16	362.78
508.33	358.10
508.50	433.00
508.68	414.27
508.85	407.25
509.03	388.53
509.20	369.80
509.38	383.85
509.55	437.68
509.73	447.04
509.90	383.85
510.08	402.57
510.25	358.10
510.42	454.06
510.60	365.12
510.77	428.32
510.95	472.79
511.12	482.15
511.30	458.74
511.47	369.80
511.64	365.12
511.82	386.19
511.99	376.83
512.17	318.31
512.34	330.02
512.51	365.12
512.69	407.25
512.86	437.68
513.04	423.64
513.21	341.72
513.38	433.00
513.56	479.81
513.73	430.66
513.90	353.42
514.08	372.15
514.25	421.30
514.43	386.19
514.60	390.87
514.77	430.66
514.95	416.62
515.12	400.23
515.29	325.33
515.47	393.21
515.64	435.34
515.81	458.74
515.99	449.38
516.16	449.38
516.33	451.72
516.51	451.72
516.68	423.64
516.85	358.10
517.03	395.55
517.20	362.78
517.37	332.36
517.54	418.96
517.72	433.00
517.89	423.64
518.06	486.83
518.24	423.64
518.41	400.23
518.58	367.46
518.75	320.65
518.93	407.25
519.10	423.64
519.27	358.10
519.45	383.85
519.62	416.62
519.79	400.23
519.96	402.57
520.14	407.25
520.31	465.77
520.48	447.04
520.65	421.30
520.83	388.53
521.00	423.64
521.17	503.22
521.34	430.66
521.52	440.02
521.69	386.19
521.86	454.06
522.03	451.72
522.20	383.85
522.38	421.30
522.55	402.57
522.72	407.25
522.89	374.49
523.07	461.09
523.24	379.17
523.41	416.62
523.58	404.91
523.75	440.02
523.92	442.36
524.10	428.32
524.27	430.66
524.44	425.98
524.61	407.25
524.78	379.17
524.96	463.43
525.13	442.36
525.30	449.38
525.47	479.81
525.64	433.00
525.81	393.21
525.98	409.59
526.16	397.89
526.33	423.64
526.50	367.46
526.67	421.30
526.84	433.00
527.01	454.06
527.18	372.15
527.36	341.72
527.53	425.98
527.70	491.51
527.87	404.91
528.04	451.72
528.21	442.36
528.38	397.89
528.55	442.36
528.72	517.26
528.89	358.10
529.07	353.42
529.24	388.53
529.41	512.58
529.58	393.21
529.75	437.68
529.92	423.64
530.09	416.62
530.26	433.00
530.43	416.62
530.60	404.91
530.77	414.27
530.94	409.59
531.11	442.36
531.28	400.23
531.46	475.13
531.63	430.66
531.80	423.64
531.97	461.09
532.14	390.87
532.31	442.36
532.48	433.00
532.65	435.34
532.82	381.51
532.99	402.57
533.16	463.43
533.33	442.36
533.50	346.40
533.67	428.32
533.84	428.32
534.01	458.74
534.18	393.21
534.35	409.59
534.52	365.12
534.69	451.72
534.86	435.34
535.03	374.49
535.20	430.66
535.37	411.93
535.54	428.32
535.71	395.55
535.88	409.59
536.05	381.51
536.22	376.83
536.38	411.93
536.55	430.66
536.72	428.32
536.89	402.57
537.06	374.49
537.23	390.87
537.40	425.98
537.57	468.11
537.74	402.57
537.91	376.83
538.08	430.66
538.25	484.49
538.42	437.68
538.59	475.13
538.75	407.25
538.92	404.91
539.09	451.72
539.26	456.40
539.43	449.38
539.60	430.66
539.77	437.68
539.94	435.34
540.11	421.30
540.28	421.30
540.44	463.43
540.61	418.96
540.78	369.80
540.95	407.25
541.12	411.93
541.29	395.55
541.46	482.15
541.62	393.21
541.79	414.27
541.96	442.36
542.13	458.74
542.30	472.79
542.47	390.87
542.63	404.91
542.80	479.81
542.97	437.68
543.14	414.27
543.31	514.92
543.48	461.09
543.64	400.23
543.81	383.85
543.98	362.78
544.15	393.21
544.32	409.59
544.48	416.62
544.65	479.81
544.82	430.66
544.99	414.27
545.16	435.34
545.32	400.23
545.49	355.76
545.66	381.51
545.83	456.40
546.00	437.68
546.16	400.23
546.33	491.51
546.50	421.30
546.67	428.32
546.83	435.34
547.00	489.17
547.17	388.53
547.34	369.80
547.50	411.93
547.67	463.43
547.84	451.72
548.00	418.96
548.17	430.66
548.34	372.15
548.51	409.59
548.67	442.36
548.84	411.93
549.01	411.93
549.18	454.06
549.34	442.36
549.51	437.68
549.68	458.74
549.84	503.22
550.01	421.30
550.18	465.77
550.34	512.58
550.51	372.15
550.68	425.98
550.84	400.23
551.01	449.38
551.18	472.79
551.34	423.64
551.51	393.21
551.68	430.66
551.84	381.51
552.01	367.46
552.18	433.00
552.34	404.91
552.51	421.30
552.68	414.27
552.84	381.51
553.01	482.15
553.18	423.64
553.34	395.55
553.51	353.42
553.67	428.32
553.84	433.00
554.01	400.23
554.17	444.70
554.34	404.91
554.51	454.06
554.67	407.25
554.84	421.30
555.00	456.40
555.17	386.19
555.33	449.38
555.50	393.21
555.67	442.36
555.83	409.59
556.00	407.25
556.16	507.90
556.33	444.70
556.50	414.27
556.66	376.83
556.83	388.53
556.99	477.47
557.16	449.38
557.32	404.91
557.49	449.38
557.65	386.19
557.82	365.12
557.98	407.25
558.15	442.36
558.32	435.34
558.48	376.83
558.65	383.85
558.81	465.77
558.98	402.57
559.14	402.57
559.31	339.38
559.47	472.79
559.64	358.10
559.80	418.96
559.97	390.87
560.13	430.66
560.30	358.10
560.46	383.85
560.63	409.59
560.79	470.45
560.96	496.19
561.12	435.34
561.29	402.57
561.45	383.85
561.61	468.11
561.78	496.19
561.94	489.17
562.11	421.30
562.27	425.98
562.44	383.85
562.60	430.66
562.77	393.21
562.93	411.93
563.10	423.64
563.26	388.53
563.42	475.13
563.59	400.23
563.75	416.62
563.92	414.27
564.08	416.62
564.24	411.93
564.41	428.32
564.57	404.91
564.74	493.85
564.90	500.87
565.07	470.45
565.23	425.98
565.39	454.06
565.56	393.21
565.72	414.27
565.88	414.27
566.05	365.12
566.21	423.64
566.38	437.68
566.54	372.15
566.70	393.21
566.87	379.17
567.03	416.62
567.19	409.59
567.36	409.59
567.52	430.66
567.68	526.62
567.85	409.59
568.01	402.57
568.17	376.83
568.34	386.19
568.50	442.36
568.66	372.15
568.83	449.38
568.99	418.96
569.15	433.00
569.32	397.89
569.48	353.42
569.64	454.06
569.81	409.59
569.97	383.85
570.13	425.98
570.30	400.23
570.46	411.93
570.62	425.98
570.78	428.32
570.95	444.70
571.11	482.15
571.27	444.70
571.43	454.06
571.60	456.40
571.76	449.38
571.92	400.23
572.09	414.27
572.25	423.64
572.41	456.40
572.57	353.42
572.74	440.02
572.90	472.79
573.06	433.00
573.22	472.79
573.38	451.72
573.55	414.27
573.71	472.79
573.87	386.19
574.03	423.64
574.20	447.04
574.36	477.47
574.52	407.25
574.68	402.57
574.84	444.70
575.01	411.93
575.17	360.44
575.33	496.19
575.49	433.00
575.65	437.68
575.82	482.15
575.98	407.25
576.14	456.40
576.30	409.59
576.46	454.06
576.62	449.38
576.79	416.62
576.95	411.93
577.11	397.89
577.27	360.44
577.43	423.64
577.59	440.02
577.75	388.53
577.92	383.85
578.08	451.72
578.24	388.53
578.40	372.15
578.56	451.72
578.72	500.87
578.88	475.13
579.04	500.87
579.21	454.06
579.37	433.00
579.53	411.93
579.69	393.21
579.85	409.59
580.01	444.70
580.17	437.68
580.33	397.89
580.49	447.04
580.65	367.46
580.82	451.72
580.98	428.32
581.14	404.91
581.30	477.47
581.46	421.30
581.62	425.98
581.78	355.76
581.94	517.26
582.10	388.53
582.26	393.21
582.42	454.06
582.58	423.64
582.74	416.62
582.90	418.96
583.06	435.34
583.22	397.89
583.38	344.06
583.54	346.40
583.70	503.22
583.86	489.17
584.02	421.30
584.18	463.43
584.34	348.74
584.50	414.27
584.66	451.72
584.82	409.59
584.98	421.30
585.14	440.02
585.30	437.68
585.46	414.27
585.62	383.85
585.78	393.21
585.94	423.64
586.10	428.32
586.26	463.43
586.42	383.85
586.58	418.96
586.74	482.15
586.90	425.98
587.06	461.09
587.22	428.32
587.38	369.80
587.54	425.98
587.70	458.74
587.86	386.19
588.02	425.98
588.18	400.23
588.34	397.89
588.49	311.29
588.65	360.44
588.81	411.93
588.97	355.76
589.13	365.12
589.29	433.00
589.45	472.79
589.61	463.43
589.77	386.19
589.93	454.06
590.08	437.68
590.24	315.97
590.40	386.19
590.56	435.34
590.72	416.62
590.88	416.62
591.04	402.57
591.20	390.87
591.35	484.49
591.51	451.72
591.67	407.25
591.83	393.21
591.99	414.27
592.15	454.06
592.31	449.38
592.46	337.04
592.62	421.30
592.78	400.23
592.94	358.10
593.10	425.98
593.26	374.49
593.41	421.30
593.57	383.85
593.73	411.93
593.89	472.79
594.05	428.32
594.20	372.15
594.36	362.78
594.52	348.74
594.68	437.68
594.84	463.43
594.99	393.21
595.15	404.91
595.31	540.66
595.47	379.17
595.62	447.04
595.78	388.53
595.94	447.04
596.10	505.56
596.25	397.89
596.41	407.25
596.57	433.00
596.73	376.83
596.88	390.87
597.04	451.72
597.20	369.80
597.36	386.19
597.51	400.23
597.67	418.96
597.83	440.02
597.99	470.45
598.14	470.45
598.30	470.45
598.46	418.96
598.61	442.36
598.77	444.70
598.93	372.15
599.09	505.56
599.24	393.21
599.40	360.44
599.56	372.15
599.71	407.25
599.87	418.96
600.03	442.36
600.18	390.87
600.34	348.74
600.50	407.25
600.65	358.10
600.81	416.62
600.97	404.91
601.12	381.51
601.28	421.30
601.44	421.30
601.59	421.30
601.75	386.19
601.91	423.64
602.06	404.91
602.22	468.11
602.37	409.59
602.53	440.02
602.69	470.45
602.84	372.15
603.00	358.10
603.16	416.62
603.31	402.57
603.47	433.00
603.62	416.62
603.78	409.59
603.94	437.68
604.09	381.51
604.25	407.25
604.40	344.06
604.56	337.04
604.71	367.46
604.87	411.93
605.03	411.93
605.18	418.96
605.34	418.96
605.49	428.32
605.65	360.44
605.80	381.51
605.96	433.00
606.12	411.93
606.27	433.00
606.43	388.53
606.58	400.23
606.74	348.74
606.89	444.70
607.05	369.80
607.20	383.85
607.36	397.89
607.51	433.00
607.67	402.57
607.82	416.62
607.98	461.09
608.13	390.87
608.29	470.45
608.44	451.72
608.60	458.74
608.75	416.62
608.91	400.23
609.06	468.11
609.22	404.91
609.37	374.49
609.53	376.83
609.68	400.23
609.84	374.49
609.99	402.57
610.15	442.36
