SpectraSuite Data File
++++++++++++++++++++++++++++++++++++
Date: Fri Oct 25 12:11:04 EDT 2013
User: price-jones
Dark Spectrum Present: No
Reference Spectrum Present: No
Number of Sampled Component Spectra: 1
Spectrometers: USB2+H05261
Integration Time (usec): 100000 (USB2+H05261)
Spectra Averaged: 1 (USB2+H05261)
Boxcar Smoothing: 0 (USB2+H05261)
Correct for Electrical Dark: No (USB2+H05261)
Strobe/Lamp Enabled: No (USB2+H05261)
Correct for Detector Non-linearity: No (USB2+H05261)
Correct for Stray Light: No (USB2+H05261)
Number of Pixels in Processed Spectrum: 2048
>>>>>Begin Processed Spectral Data<<<<<
365.73	376.83
365.92	376.83
366.12	376.83
366.32	234.05
366.52	234.05
366.72	241.08
366.91	187.24
367.11	212.99
367.31	198.95
367.51	170.86
367.70	229.37
367.90	196.60
368.10	252.78
368.30	245.76
368.49	255.12
368.69	257.46
368.89	269.16
369.09	243.42
369.28	248.10
369.48	278.52
369.68	315.97
369.87	322.99
370.07	339.38
370.27	259.80
370.47	283.20
370.66	283.20
370.86	379.17
371.06	362.78
371.25	407.25
371.45	430.66
371.65	355.76
371.84	273.84
372.04	423.64
372.24	322.99
372.44	470.45
372.63	404.91
372.83	308.95
373.03	355.76
373.22	402.57
373.42	376.83
373.62	407.25
373.81	463.43
374.01	451.72
374.21	442.36
374.40	458.74
374.60	372.15
374.79	440.02
374.99	393.21
375.19	374.49
375.38	442.36
375.58	449.38
375.78	423.64
375.97	411.93
376.17	510.24
376.37	393.21
376.56	400.23
376.76	428.32
376.95	409.59
377.15	348.74
377.35	421.30
377.54	416.62
377.74	397.89
377.93	337.04
378.13	416.62
378.33	353.42
378.52	416.62
378.72	470.45
378.91	402.57
379.11	351.08
379.31	479.81
379.50	402.57
379.70	414.27
379.89	393.21
380.09	428.32
380.28	451.72
380.48	433.00
380.68	376.83
380.87	341.72
381.07	346.40
381.26	318.31
381.46	388.53
381.65	437.68
381.85	442.36
382.04	351.08
382.24	400.23
382.43	440.02
382.63	388.53
382.83	425.98
383.02	447.04
383.22	442.36
383.41	470.45
383.61	425.98
383.80	444.70
384.00	397.89
384.19	393.21
384.39	397.89
384.58	374.49
384.78	463.43
384.97	362.78
385.17	468.11
385.36	400.23
385.56	362.78
385.75	409.59
385.95	379.17
386.14	372.15
386.34	390.87
386.53	355.76
386.72	395.55
386.92	393.21
387.11	458.74
387.31	416.62
387.50	397.89
387.70	397.89
387.89	348.74
388.09	397.89
388.28	358.10
388.48	430.66
388.67	416.62
388.86	444.70
389.06	402.57
389.25	421.30
389.45	449.38
389.64	400.23
389.84	475.13
390.03	447.04
390.22	416.62
390.42	386.19
390.61	390.87
390.81	325.33
391.00	472.79
391.19	479.81
391.39	374.49
391.58	421.30
391.78	395.55
391.97	367.46
392.16	367.46
392.36	374.49
392.55	428.32
392.75	386.19
392.94	484.49
393.13	475.13
393.33	477.47
393.52	390.87
393.71	477.47
393.91	451.72
394.10	402.57
394.29	297.25
394.49	301.93
394.68	358.10
394.88	423.64
395.07	369.80
395.26	400.23
395.46	348.74
395.65	479.81
395.84	404.91
396.04	458.74
396.23	402.57
396.42	386.19
396.62	372.15
396.81	440.02
397.00	386.19
397.19	379.17
397.39	372.15
397.58	425.98
397.77	395.55
397.97	433.00
398.16	320.65
398.35	456.40
398.55	362.78
398.74	447.04
398.93	379.17
399.12	381.51
399.32	404.91
399.51	416.62
399.70	402.57
399.90	421.30
400.09	442.36
400.28	404.91
400.47	395.55
400.67	376.83
400.86	425.98
401.05	393.21
401.24	358.10
401.44	463.43
401.63	388.53
401.82	465.77
402.01	397.89
402.21	524.28
402.40	437.68
402.59	388.53
402.78	400.23
402.97	346.40
403.17	416.62
403.36	367.46
403.55	365.12
403.74	369.80
403.93	475.13
404.13	430.66
404.32	386.19
404.51	407.25
404.70	423.64
404.89	348.74
405.09	421.30
405.28	388.53
405.47	376.83
405.66	425.98
405.85	435.34
406.05	468.11
406.24	351.08
406.43	421.30
406.62	421.30
406.81	475.13
407.00	458.74
407.20	421.30
407.39	379.17
407.58	425.98
407.77	411.93
407.96	425.98
408.15	428.32
408.34	454.06
408.54	458.74
408.73	386.19
408.92	465.77
409.11	435.34
409.30	435.34
409.49	416.62
409.68	423.64
409.87	409.59
410.07	388.53
410.26	404.91
410.45	409.59
410.64	346.40
410.83	444.70
411.02	409.59
411.21	425.98
411.40	449.38
411.59	425.98
411.78	374.49
411.98	360.44
412.17	400.23
412.36	388.53
412.55	365.12
412.74	388.53
412.93	510.24
413.12	461.09
413.31	358.10
413.50	386.19
413.69	386.19
413.88	390.87
414.07	449.38
414.26	369.80
414.45	402.57
414.64	365.12
414.83	414.27
415.02	346.40
415.22	397.89
415.41	418.96
415.60	348.74
415.79	423.64
415.98	372.15
416.17	451.72
416.36	433.00
416.55	379.17
416.74	393.21
416.93	421.30
417.12	421.30
417.31	442.36
417.50	369.80
417.69	472.79
417.88	409.59
418.07	400.23
418.26	393.21
418.45	367.46
418.64	414.27
418.83	381.51
419.02	433.00
419.21	381.51
419.39	386.19
419.58	330.02
419.77	294.91
419.96	444.70
420.15	411.93
420.34	433.00
420.53	374.49
420.72	379.17
420.91	358.10
421.10	421.30
421.29	402.57
421.48	409.59
421.67	430.66
421.86	414.27
422.05	383.85
422.24	383.85
422.43	334.70
422.61	435.34
422.80	430.66
422.99	423.64
423.18	390.87
423.37	423.64
423.56	491.51
423.75	425.98
423.94	477.47
424.13	393.21
424.32	414.27
424.50	372.15
424.69	482.15
424.88	404.91
425.07	381.51
425.26	411.93
425.45	372.15
425.64	409.59
425.83	409.59
426.01	372.15
426.20	400.23
426.39	451.72
426.58	400.23
426.77	327.68
426.96	411.93
427.15	444.70
427.33	407.25
427.52	416.62
427.71	451.72
427.90	369.80
428.09	395.55
428.28	437.68
428.46	435.34
428.65	507.90
428.84	395.55
429.03	454.06
429.22	423.64
429.40	425.98
429.59	423.64
429.78	447.04
429.97	414.27
430.16	393.21
430.34	437.68
430.53	463.43
430.72	461.09
430.91	404.91
431.10	407.25
431.28	461.09
431.47	397.89
431.66	456.40
431.85	337.04
432.03	386.19
432.22	367.46
432.41	322.99
432.60	437.68
432.79	409.59
432.97	456.40
433.16	411.93
433.35	386.19
433.54	393.21
433.72	383.85
433.91	365.12
434.10	397.89
434.28	381.51
434.47	486.83
434.66	496.19
434.85	411.93
435.03	416.62
435.22	351.08
435.41	421.30
435.59	458.74
435.78	512.58
435.97	425.98
436.16	461.09
436.34	397.89
436.53	365.12
436.72	418.96
436.90	414.27
437.09	430.66
437.28	486.83
437.46	433.00
437.65	433.00
437.84	418.96
438.02	411.93
438.21	397.89
438.40	339.38
438.58	404.91
438.77	456.40
438.96	348.74
439.14	372.15
439.33	489.17
439.52	374.49
439.70	395.55
439.89	458.74
440.08	400.23
440.26	447.04
440.45	416.62
440.63	365.12
440.82	519.60
441.01	423.64
441.19	486.83
441.38	411.93
441.57	386.19
441.75	440.02
441.94	428.32
442.12	400.23
442.31	428.32
442.50	395.55
442.68	386.19
442.87	454.06
443.05	409.59
443.24	493.85
443.43	404.91
443.61	393.21
443.80	397.89
443.98	379.17
444.17	435.34
444.35	479.81
444.54	472.79
444.73	423.64
444.91	374.49
445.10	454.06
445.28	442.36
445.47	472.79
445.65	393.21
445.84	402.57
446.02	428.32
446.21	369.80
446.39	339.38
446.58	362.78
446.77	402.57
446.95	451.72
447.14	451.72
447.32	425.98
447.51	404.91
447.69	418.96
447.88	440.02
448.06	444.70
448.25	404.91
448.43	337.04
448.62	421.30
448.80	344.06
448.99	425.98
449.17	437.68
449.36	468.11
449.54	442.36
449.73	435.34
449.91	442.36
450.10	381.51
450.28	458.74
450.46	402.57
450.65	414.27
450.83	416.62
451.02	437.68
451.20	421.30
451.39	414.27
451.57	418.96
451.76	414.27
451.94	423.64
452.13	479.81
452.31	383.85
452.49	374.49
452.68	409.59
452.86	362.78
453.05	491.51
453.23	416.62
453.42	435.34
453.60	372.15
453.78	442.36
453.97	411.93
454.15	390.87
454.34	451.72
454.52	433.00
454.70	479.81
454.89	456.40
455.07	437.68
455.26	365.12
455.44	365.12
455.62	376.83
455.81	433.00
455.99	411.93
456.17	393.21
456.36	435.34
456.54	456.40
456.73	418.96
456.91	369.80
457.09	472.79
457.28	440.02
457.46	428.32
457.64	372.15
457.83	428.32
458.01	411.93
458.19	468.11
458.38	430.66
458.56	428.32
458.74	425.98
458.93	402.57
459.11	404.91
459.29	414.27
459.48	468.11
459.66	435.34
459.84	416.62
460.03	447.04
460.21	409.59
460.39	425.98
460.57	411.93
460.76	451.72
460.94	454.06
461.12	507.90
461.31	374.49
461.49	388.53
461.67	395.55
461.85	400.23
462.04	440.02
462.22	744.29
462.40	402.57
462.59	463.43
462.77	468.11
462.95	332.36
463.13	318.31
463.32	449.38
463.50	440.02
463.68	397.89
463.86	428.32
464.05	416.62
464.23	454.06
464.41	430.66
464.59	411.93
464.78	409.59
464.96	397.89
465.14	470.45
465.32	433.00
465.50	397.89
465.69	451.72
465.87	393.21
466.05	433.00
466.23	477.47
466.41	395.55
466.60	425.98
466.78	418.96
466.96	404.91
467.14	449.38
467.32	414.27
467.51	440.02
467.69	461.09
467.87	428.32
468.05	416.62
468.23	447.04
468.41	451.72
468.60	479.81
468.78	433.00
468.96	437.68
469.14	416.62
469.32	400.23
469.50	437.68
469.69	404.91
469.87	414.27
470.05	409.59
470.23	454.06
470.41	404.91
470.59	416.62
470.77	421.30
470.95	428.32
471.14	381.51
471.32	402.57
471.50	374.49
471.68	388.53
471.86	425.98
472.04	374.49
472.22	472.79
472.40	468.11
472.58	379.17
472.77	465.77
472.95	395.55
473.13	456.40
473.31	479.81
473.49	409.59
473.67	430.66
473.85	397.89
474.03	425.98
474.21	386.19
474.39	421.30
474.57	477.47
474.75	437.68
474.93	463.43
475.12	372.15
475.30	390.87
475.48	404.91
475.66	425.98
475.84	332.36
476.02	451.72
476.20	461.09
476.38	423.64
476.56	456.40
476.74	404.91
476.92	341.72
477.10	360.44
477.28	433.00
477.46	358.10
477.64	444.70
477.82	418.96
478.00	407.25
478.18	472.79
478.36	435.34
478.54	404.91
478.72	376.83
478.90	461.09
479.08	461.09
479.26	404.91
479.44	463.43
479.62	379.17
479.80	435.34
479.98	416.62
480.16	400.23
480.34	404.91
480.52	456.40
480.70	404.91
480.88	425.98
481.06	416.62
481.24	430.66
481.41	379.17
481.59	383.85
481.77	372.15
481.95	388.53
482.13	496.19
482.31	379.17
482.49	418.96
482.67	461.09
482.85	351.08
483.03	440.02
483.21	409.59
483.39	402.57
483.57	491.51
483.74	437.68
483.92	475.13
484.10	390.87
484.28	437.68
484.46	407.25
484.64	390.87
484.82	470.45
485.00	458.74
485.18	407.25
485.35	407.25
485.53	383.85
485.71	421.30
485.89	351.08
486.07	383.85
486.25	444.70
486.43	379.17
486.61	475.13
486.78	475.13
486.96	383.85
487.14	397.89
487.32	451.72
487.50	379.17
487.68	486.83
487.85	437.68
488.03	430.66
488.21	468.11
488.39	418.96
488.57	458.74
488.75	489.17
488.92	491.51
489.10	409.59
489.28	416.62
489.46	449.38
489.64	344.06
489.81	409.59
489.99	404.91
490.17	360.44
490.35	407.25
490.53	386.19
490.70	379.17
490.88	458.74
491.06	440.02
491.24	428.32
491.41	400.23
491.59	444.70
491.77	407.25
491.95	358.10
492.13	411.93
492.30	397.89
492.48	400.23
492.66	435.34
492.84	416.62
493.01	489.17
493.19	449.38
493.37	418.96
493.54	491.51
493.72	369.80
493.90	423.64
494.08	428.32
494.25	479.81
494.43	456.40
494.61	484.49
494.79	376.83
494.96	400.23
495.14	442.36
495.32	383.85
495.49	397.89
495.67	416.62
495.85	407.25
496.02	470.45
496.20	362.78
496.38	376.83
496.55	414.27
496.73	435.34
496.91	463.43
497.09	421.30
497.26	456.40
497.44	315.97
497.62	393.21
497.79	411.93
497.97	442.36
498.14	369.80
498.32	390.87
498.50	421.30
498.67	353.42
498.85	498.53
499.03	433.00
499.20	376.83
499.38	468.11
499.56	463.43
499.73	449.38
499.91	411.93
500.08	404.91
500.26	421.30
500.44	353.42
500.61	442.36
500.79	437.68
500.97	428.32
501.14	440.02
501.32	435.34
501.49	458.74
501.67	393.21
501.84	365.12
502.02	379.17
502.20	395.55
502.37	489.17
502.55	472.79
502.72	454.06
502.90	447.04
503.07	437.68
503.25	395.55
503.43	341.72
503.60	468.11
503.78	482.15
503.95	407.25
504.13	440.02
504.30	379.17
504.48	454.06
504.65	395.55
504.83	435.34
505.01	484.49
505.18	397.89
505.36	404.91
505.53	395.55
505.71	482.15
505.88	365.12
506.06	454.06
506.23	372.15
506.41	386.19
506.58	447.04
506.76	463.43
506.93	393.21
507.11	416.62
507.28	409.59
507.46	374.49
507.63	397.89
507.81	383.85
507.98	414.27
508.16	418.96
508.33	365.12
508.50	444.70
508.68	433.00
508.85	465.77
509.03	372.15
509.20	360.44
509.38	451.72
509.55	437.68
509.73	409.59
509.90	421.30
510.08	454.06
510.25	425.98
510.42	421.30
510.60	393.21
510.77	465.77
510.95	414.27
511.12	470.45
511.30	463.43
511.47	397.89
511.64	451.72
511.82	386.19
511.99	435.34
512.17	395.55
512.34	353.42
512.51	461.09
512.69	404.91
512.86	425.98
513.04	409.59
513.21	369.80
513.38	374.49
513.56	393.21
513.73	383.85
513.90	421.30
514.08	404.91
514.25	395.55
514.43	376.83
514.60	395.55
514.77	397.89
514.95	404.91
515.12	409.59
515.29	451.72
515.47	362.78
515.64	416.62
515.81	435.34
515.99	421.30
516.16	414.27
516.33	477.47
516.51	451.72
516.68	433.00
516.85	404.91
517.03	416.62
517.20	430.66
517.37	468.11
517.54	395.55
517.72	428.32
517.89	393.21
518.06	400.23
518.24	510.24
518.41	418.96
518.58	404.91
518.75	388.53
518.93	433.00
519.10	379.17
519.27	365.12
519.45	386.19
519.62	407.25
519.79	433.00
519.96	397.89
520.14	407.25
520.31	393.21
520.48	374.49
520.65	418.96
520.83	435.34
521.00	404.91
521.17	482.15
521.34	388.53
521.52	475.13
521.69	404.91
521.86	386.19
522.03	479.81
522.20	454.06
522.38	440.02
522.55	339.38
522.72	400.23
522.89	386.19
523.07	475.13
523.24	463.43
523.41	414.27
523.58	440.02
523.75	458.74
523.92	435.34
524.10	482.15
524.27	414.27
524.44	409.59
524.61	491.51
524.78	456.40
524.96	425.98
525.13	367.46
525.30	423.64
525.47	407.25
525.64	386.19
525.81	423.64
525.98	397.89
526.16	477.47
526.33	376.83
526.50	390.87
526.67	423.64
526.84	386.19
527.01	388.53
527.18	353.42
527.36	423.64
527.53	404.91
527.70	440.02
527.87	409.59
528.04	362.78
528.21	411.93
528.38	411.93
528.55	451.72
528.72	376.83
528.89	416.62
529.07	428.32
529.24	346.40
529.41	451.72
529.58	437.68
529.75	465.77
529.92	414.27
530.09	461.09
530.26	341.72
530.43	388.53
530.60	414.27
530.77	411.93
530.94	388.53
531.11	358.10
531.28	365.12
531.46	379.17
531.63	334.70
531.80	428.32
531.97	463.43
532.14	437.68
532.31	507.90
532.48	433.00
532.65	435.34
532.82	435.34
532.99	437.68
533.16	404.91
533.33	428.32
533.50	444.70
533.67	430.66
533.84	353.42
534.01	437.68
534.18	433.00
534.35	409.59
534.52	440.02
534.69	461.09
534.86	390.87
535.03	442.36
535.20	334.70
535.37	440.02
535.54	463.43
535.71	369.80
535.88	386.19
536.05	360.44
536.22	442.36
536.38	470.45
536.55	421.30
536.72	372.15
536.89	372.15
537.06	411.93
537.23	428.32
537.40	486.83
537.57	388.53
537.74	447.04
537.91	400.23
538.08	442.36
538.25	374.49
538.42	428.32
538.59	425.98
538.75	449.38
538.92	444.70
539.09	386.19
539.26	451.72
539.43	411.93
539.60	397.89
539.77	454.06
539.94	397.89
540.11	386.19
540.28	414.27
540.44	404.91
540.61	423.64
540.78	465.77
540.95	421.30
541.12	486.83
541.29	428.32
541.46	477.47
541.62	433.00
541.79	442.36
541.96	407.25
542.13	400.23
542.30	402.57
542.47	416.62
542.63	477.47
542.80	416.62
542.97	318.31
543.14	372.15
543.31	351.08
543.48	416.62
543.64	472.79
543.81	449.38
543.98	421.30
544.15	379.17
544.32	320.65
544.48	414.27
544.65	404.91
544.82	428.32
544.99	418.96
545.16	416.62
545.32	416.62
545.49	449.38
545.66	409.59
545.83	372.15
546.00	458.74
546.16	409.59
546.33	409.59
546.50	402.57
546.67	468.11
546.83	498.53
547.00	437.68
547.17	390.87
547.34	437.68
547.50	430.66
547.67	397.89
547.84	407.25
548.00	390.87
548.17	468.11
548.34	421.30
548.51	425.98
548.67	425.98
548.84	428.32
549.01	414.27
549.18	353.42
549.34	486.83
549.51	404.91
549.68	379.17
549.84	484.49
550.01	362.78
550.18	489.17
550.34	444.70
550.51	475.13
550.68	430.66
550.84	404.91
551.01	484.49
551.18	407.25
551.34	409.59
551.51	400.23
551.68	407.25
551.84	472.79
552.01	362.78
552.18	367.46
552.34	386.19
552.51	428.32
552.68	383.85
552.84	369.80
553.01	409.59
553.18	440.02
553.34	416.62
553.51	355.76
553.67	402.57
553.84	475.13
554.01	451.72
554.17	493.85
554.34	374.49
554.51	411.93
554.67	461.09
554.84	411.93
555.00	463.43
555.17	428.32
555.33	425.98
555.50	383.85
555.67	404.91
555.83	411.93
556.00	411.93
556.16	477.47
556.33	484.49
556.50	376.83
556.66	402.57
556.83	472.79
556.99	372.15
557.16	376.83
557.32	393.21
557.49	386.19
557.65	465.77
557.82	374.49
557.98	423.64
558.15	425.98
558.32	454.06
558.48	418.96
558.65	383.85
558.81	447.04
558.98	418.96
559.14	362.78
559.31	449.38
559.47	409.59
559.64	402.57
559.80	362.78
559.97	341.72
560.13	435.34
560.30	425.98
560.46	454.06
560.63	393.21
560.79	362.78
560.96	315.97
561.12	400.23
561.29	416.62
561.45	425.98
561.61	400.23
561.78	451.72
561.94	435.34
562.11	449.38
562.27	411.93
562.44	442.36
562.60	437.68
562.77	465.77
562.93	433.00
563.10	451.72
563.26	395.55
563.42	461.09
563.59	397.89
563.75	390.87
563.92	477.47
564.08	395.55
564.24	358.10
564.41	503.22
564.57	386.19
564.74	435.34
564.90	433.00
565.07	458.74
565.23	519.60
565.39	425.98
565.56	397.89
565.72	376.83
565.88	451.72
566.05	374.49
566.21	411.93
566.38	451.72
566.54	433.00
566.70	512.58
566.87	416.62
567.03	348.74
567.19	430.66
567.36	372.15
567.52	437.68
567.68	400.23
567.85	428.32
568.01	416.62
568.17	425.98
568.34	461.09
568.50	528.96
568.66	425.98
568.83	407.25
568.99	376.83
569.15	390.87
569.32	454.06
569.48	468.11
569.64	374.49
569.81	346.40
569.97	428.32
570.13	404.91
570.30	430.66
570.46	479.81
570.62	468.11
570.78	407.25
570.95	381.51
571.11	435.34
571.27	437.68
571.43	409.59
571.60	472.79
571.76	428.32
571.92	416.62
572.09	409.59
572.25	407.25
572.41	411.93
572.57	416.62
572.74	479.81
572.90	463.43
573.06	407.25
573.22	397.89
573.38	482.15
573.55	486.83
573.71	440.02
573.87	454.06
574.03	435.34
574.20	468.11
574.36	435.34
574.52	393.21
574.68	374.49
574.84	390.87
575.01	433.00
575.17	475.13
575.33	383.85
575.49	447.04
575.65	444.70
575.82	388.53
575.98	430.66
576.14	360.44
576.30	386.19
576.46	433.00
576.62	414.27
576.79	463.43
576.95	449.38
577.11	409.59
577.27	433.00
577.43	388.53
577.59	442.36
577.75	484.49
577.92	388.53
578.08	376.83
578.24	397.89
578.40	404.91
578.56	442.36
578.72	507.90
578.88	437.68
579.04	388.53
579.21	435.34
579.37	491.51
579.53	454.06
579.69	411.93
579.85	390.87
580.01	407.25
580.17	404.91
580.33	416.62
580.49	465.77
580.65	372.15
580.82	461.09
580.98	372.15
581.14	376.83
581.30	491.51
581.46	468.11
581.62	423.64
581.78	407.25
581.94	433.00
582.10	374.49
582.26	414.27
582.42	322.99
582.58	430.66
582.74	383.85
582.90	451.72
583.06	330.02
583.22	395.55
583.38	388.53
583.54	428.32
583.70	425.98
583.86	393.21
584.02	404.91
584.18	411.93
584.34	411.93
584.50	430.66
584.66	407.25
584.82	383.85
584.98	388.53
585.14	421.30
585.30	423.64
585.46	383.85
585.62	425.98
585.78	461.09
585.94	493.85
586.10	388.53
586.26	411.93
586.42	416.62
586.58	409.59
586.74	458.74
586.90	393.21
587.06	442.36
587.22	393.21
587.38	362.78
587.54	374.49
587.70	421.30
587.86	437.68
588.02	475.13
588.18	472.79
588.34	486.83
588.49	435.34
588.65	367.46
588.81	341.72
588.97	418.96
589.13	447.04
589.29	367.46
589.45	397.89
589.61	411.93
589.77	477.47
589.93	386.19
590.08	477.47
590.24	355.76
590.40	358.10
590.56	386.19
590.72	454.06
590.88	407.25
591.04	449.38
591.20	404.91
591.35	477.47
591.51	369.80
591.67	402.57
591.83	388.53
591.99	397.89
592.15	486.83
592.31	372.15
592.46	437.68
592.62	470.45
592.78	447.04
592.94	433.00
593.10	372.15
593.26	425.98
593.41	500.87
593.57	435.34
593.73	379.17
593.89	395.55
594.05	468.11
594.20	395.55
594.36	479.81
594.52	423.64
594.68	418.96
594.84	421.30
594.99	447.04
595.15	458.74
595.31	423.64
595.47	463.43
595.62	414.27
595.78	367.46
595.94	418.96
596.10	414.27
596.25	468.11
596.41	390.87
596.57	463.43
596.73	433.00
596.88	407.25
597.04	381.51
597.20	458.74
597.36	423.64
597.51	409.59
597.67	414.27
597.83	348.74
597.99	421.30
598.14	376.83
598.30	468.11
598.46	386.19
598.61	442.36
598.77	461.09
598.93	395.55
599.09	451.72
599.24	444.70
599.40	500.87
599.56	414.27
599.71	454.06
599.87	355.76
600.03	395.55
600.18	451.72
600.34	388.53
600.50	409.59
600.65	400.23
600.81	421.30
600.97	437.68
601.12	411.93
601.28	395.55
601.44	414.27
601.59	458.74
601.75	395.55
601.91	402.57
602.06	428.32
602.22	423.64
602.37	437.68
602.53	409.59
602.69	381.51
602.84	451.72
603.00	351.08
603.16	390.87
603.31	423.64
603.47	421.30
603.62	409.59
603.78	409.59
603.94	433.00
604.09	440.02
604.25	351.08
604.40	423.64
604.56	374.49
604.71	418.96
604.87	468.11
605.03	393.21
605.18	402.57
605.34	411.93
605.49	451.72
605.65	416.62
605.80	348.74
605.96	404.91
606.12	372.15
606.27	500.87
606.43	423.64
606.58	372.15
606.74	386.19
606.89	414.27
607.05	430.66
607.20	390.87
607.36	372.15
607.51	395.55
607.67	409.59
607.82	456.40
607.98	447.04
608.13	449.38
608.29	463.43
608.44	430.66
608.60	416.62
608.75	430.66
608.91	425.98
609.06	400.23
609.22	423.64
609.37	367.46
609.53	510.24
609.68	388.53
609.84	482.15
609.99	402.57
610.15	381.51
