SpectraSuite Data File
++++++++++++++++++++++++++++++++++++
Date: Fri Oct 25 12:10:28 EDT 2013
User: price-jones
Dark Spectrum Present: No
Reference Spectrum Present: No
Number of Sampled Component Spectra: 1
Spectrometers: USB2+H05261
Integration Time (usec): 100000 (USB2+H05261)
Spectra Averaged: 1 (USB2+H05261)
Boxcar Smoothing: 0 (USB2+H05261)
Correct for Electrical Dark: No (USB2+H05261)
Strobe/Lamp Enabled: No (USB2+H05261)
Correct for Detector Non-linearity: No (USB2+H05261)
Correct for Stray Light: No (USB2+H05261)
Number of Pixels in Processed Spectrum: 2048
>>>>>Begin Processed Spectral Data<<<<<
365.73	360.44
365.92	360.44
366.12	360.44
366.32	276.18
366.52	175.54
366.72	215.33
366.91	220.01
367.11	236.39
367.31	273.84
367.51	196.60
367.70	262.14
367.90	315.97
368.10	220.01
368.30	212.99
368.49	220.01
368.69	262.14
368.89	280.86
369.09	322.99
369.28	241.08
369.48	285.55
369.68	241.08
369.87	243.42
370.07	332.36
370.27	351.08
370.47	280.86
370.66	276.18
370.86	369.80
371.06	318.31
371.25	416.62
371.45	374.49
371.65	404.91
371.84	374.49
372.04	313.63
372.24	337.04
372.44	383.85
372.63	409.59
372.83	353.42
373.03	386.19
373.22	393.21
373.42	376.83
373.62	414.27
373.81	414.27
374.01	416.62
374.21	421.30
374.40	472.79
374.60	491.51
374.79	414.27
374.99	442.36
375.19	393.21
375.38	442.36
375.58	447.04
375.78	411.93
375.97	456.40
376.17	423.64
376.37	423.64
376.56	463.43
376.76	416.62
376.95	369.80
377.15	416.62
377.35	290.23
377.54	423.64
377.74	433.00
377.93	425.98
378.13	461.09
378.33	418.96
378.52	308.95
378.72	428.32
378.91	447.04
379.11	376.83
379.31	388.53
379.50	372.15
379.70	358.10
379.89	414.27
380.09	421.30
380.28	428.32
380.48	409.59
380.68	451.72
380.87	351.08
381.07	416.62
381.26	456.40
381.46	395.55
381.65	418.96
381.85	447.04
382.04	468.11
382.24	395.55
382.43	440.02
382.63	325.33
382.83	376.83
383.02	407.25
383.22	461.09
383.41	379.17
383.61	327.68
383.80	421.30
384.00	475.13
384.19	409.59
384.39	386.19
384.58	355.76
384.78	351.08
384.97	379.17
385.17	524.28
385.36	433.00
385.56	369.80
385.75	433.00
385.95	397.89
386.14	421.30
386.34	409.59
386.53	433.00
386.72	437.68
386.92	411.93
387.11	400.23
387.31	414.27
387.50	367.46
387.70	428.32
387.89	451.72
388.09	416.62
388.28	386.19
388.48	407.25
388.67	449.38
388.86	390.87
389.06	423.64
389.25	311.29
389.45	374.49
389.64	489.17
389.84	402.57
390.03	348.74
390.22	383.85
390.42	414.27
390.61	433.00
390.81	402.57
391.00	451.72
391.19	425.98
391.39	430.66
391.58	461.09
391.78	470.45
391.97	428.32
392.16	421.30
392.36	475.13
392.55	362.78
392.75	381.51
392.94	418.96
393.13	475.13
393.33	393.21
393.52	372.15
393.71	447.04
393.91	421.30
394.10	423.64
394.29	388.53
394.49	365.12
394.68	416.62
394.88	400.23
395.07	430.66
395.26	330.02
395.46	411.93
395.65	367.46
395.84	421.30
396.04	491.51
396.23	482.15
396.42	442.36
396.62	386.19
396.81	407.25
397.00	297.25
397.19	435.34
397.39	416.62
397.58	514.92
397.77	379.17
397.97	374.49
398.16	437.68
398.35	400.23
398.55	390.87
398.74	402.57
398.93	435.34
399.12	433.00
399.32	402.57
399.51	395.55
399.70	440.02
399.90	388.53
400.09	365.12
400.28	421.30
400.47	393.21
400.67	451.72
400.86	372.15
401.05	425.98
401.24	402.57
401.44	416.62
401.63	402.57
401.82	383.85
402.01	351.08
402.21	409.59
402.40	505.56
402.59	411.93
402.78	470.45
402.97	346.40
403.17	411.93
403.36	395.55
403.55	418.96
403.74	374.49
403.93	404.91
404.13	458.74
404.32	447.04
404.51	381.51
404.70	425.98
404.89	421.30
405.09	458.74
405.28	423.64
405.47	351.08
405.66	411.93
405.85	421.30
406.05	416.62
406.24	397.89
406.43	400.23
406.62	435.34
406.81	404.91
407.00	472.79
407.20	379.17
407.39	411.93
407.58	397.89
407.77	411.93
407.96	372.15
408.15	397.89
408.34	470.45
408.54	458.74
408.73	400.23
408.92	348.74
409.11	402.57
409.30	393.21
409.49	428.32
409.68	390.87
409.87	332.36
410.07	428.32
410.26	402.57
410.45	435.34
410.64	484.49
410.83	346.40
411.02	386.19
411.21	437.68
411.40	430.66
411.59	447.04
411.78	379.17
411.98	430.66
412.17	400.23
412.36	367.46
412.55	416.62
412.74	425.98
412.93	388.53
413.12	414.27
413.31	367.46
413.50	409.59
413.69	395.55
413.88	423.64
414.07	451.72
414.26	442.36
414.45	404.91
414.64	355.76
414.83	477.47
415.02	449.38
415.22	374.49
415.41	386.19
415.60	440.02
415.79	449.38
415.98	397.89
416.17	475.13
416.36	367.46
416.55	386.19
416.74	369.80
416.93	414.27
417.12	407.25
417.31	421.30
417.50	388.53
417.69	390.87
417.88	381.51
418.07	416.62
418.26	388.53
418.45	367.46
418.64	372.15
418.83	400.23
419.02	395.55
419.21	416.62
419.39	367.46
419.58	334.70
419.77	458.74
419.96	451.72
420.15	444.70
420.34	379.17
420.53	435.34
420.72	418.96
420.91	421.30
421.10	442.36
421.29	470.45
421.48	461.09
421.67	390.87
421.86	423.64
422.05	322.99
422.24	458.74
422.43	395.55
422.61	344.06
422.80	456.40
422.99	433.00
423.18	479.81
423.37	447.04
423.56	367.46
423.75	374.49
423.94	386.19
424.13	407.25
424.32	470.45
424.50	491.51
424.69	372.15
424.88	451.72
425.07	418.96
425.26	358.10
425.45	395.55
425.64	351.08
425.83	418.96
426.01	477.47
426.20	444.70
426.39	374.49
426.58	477.47
426.77	407.25
426.96	437.68
427.15	418.96
427.33	409.59
427.52	458.74
427.71	393.21
427.90	372.15
428.09	397.89
428.28	423.64
428.46	372.15
428.65	451.72
428.84	390.87
429.03	437.68
429.22	416.62
429.40	440.02
429.59	348.74
429.78	442.36
429.97	397.89
430.16	463.43
430.34	388.53
430.53	447.04
430.72	411.93
430.91	470.45
431.10	423.64
431.28	330.02
431.47	404.91
431.66	435.34
431.85	402.57
432.03	346.40
432.22	404.91
432.41	414.27
432.60	388.53
432.79	393.21
432.97	416.62
433.16	416.62
433.35	428.32
433.54	433.00
433.72	430.66
433.91	334.70
434.10	489.17
434.28	433.00
434.47	358.10
434.66	423.64
434.85	365.12
435.03	393.21
435.22	430.66
435.41	451.72
435.59	437.68
435.78	369.80
435.97	346.40
436.16	397.89
436.34	402.57
436.53	353.42
436.72	449.38
436.90	503.22
437.09	360.44
437.28	435.34
437.46	414.27
437.65	367.46
437.84	372.15
438.02	407.25
438.21	449.38
438.40	465.77
438.58	376.83
438.77	428.32
438.96	435.34
439.14	388.53
439.33	421.30
439.52	411.93
439.70	360.44
439.89	365.12
440.08	374.49
440.26	400.23
440.45	351.08
440.63	390.87
440.82	416.62
441.01	404.91
441.19	395.55
441.38	367.46
441.57	430.66
441.75	421.30
441.94	411.93
442.12	353.42
442.31	374.49
442.50	456.40
442.68	388.53
442.87	444.70
443.05	454.06
443.24	365.12
443.43	327.68
443.61	362.78
443.80	454.06
443.98	372.15
444.17	414.27
444.35	458.74
444.54	454.06
444.73	449.38
444.91	379.17
445.10	367.46
445.28	404.91
445.47	430.66
445.65	360.44
445.84	330.02
446.02	482.15
446.21	416.62
446.39	470.45
446.58	418.96
446.77	418.96
446.95	437.68
447.14	404.91
447.32	540.66
447.51	402.57
447.69	461.09
447.88	442.36
448.06	411.93
448.25	409.59
448.43	416.62
448.62	381.51
448.80	372.15
448.99	449.38
449.17	442.36
449.36	400.23
449.54	449.38
449.73	339.38
449.91	421.30
450.10	397.89
450.28	425.98
450.46	444.70
450.65	395.55
450.83	416.62
451.02	416.62
451.20	463.43
451.39	348.74
451.57	395.55
451.76	395.55
451.94	383.85
452.13	454.06
452.31	468.11
452.49	337.04
452.68	454.06
452.86	369.80
453.05	381.51
453.23	362.78
453.42	414.27
453.60	395.55
453.78	461.09
453.97	379.17
454.15	430.66
454.34	454.06
454.52	388.53
454.70	568.75
454.89	409.59
455.07	379.17
455.26	465.77
455.44	479.81
455.62	407.25
455.81	451.72
455.99	416.62
456.17	421.30
456.36	383.85
456.54	383.85
456.73	414.27
456.91	369.80
457.09	428.32
457.28	486.83
457.46	461.09
457.64	411.93
457.83	348.74
458.01	313.63
458.19	458.74
458.38	423.64
458.56	393.21
458.74	351.08
458.93	491.51
459.11	362.78
459.29	341.72
459.48	381.51
459.66	433.00
459.84	395.55
460.03	517.26
460.21	440.02
460.39	444.70
460.57	409.59
460.76	472.79
460.94	440.02
461.12	456.40
461.31	409.59
461.49	388.53
461.67	390.87
461.85	381.51
462.04	400.23
462.22	793.44
462.40	463.43
462.59	458.74
462.77	437.68
462.95	430.66
463.13	407.25
463.32	404.91
463.50	496.19
463.68	449.38
463.86	383.85
464.05	383.85
464.23	425.98
464.41	454.06
464.59	393.21
464.78	489.17
464.96	327.68
465.14	397.89
465.32	421.30
465.50	416.62
465.69	397.89
465.87	390.87
466.05	475.13
466.23	433.00
466.41	409.59
466.60	395.55
466.78	388.53
466.96	454.06
467.14	465.77
467.32	376.83
467.51	411.93
467.69	458.74
467.87	414.27
468.05	458.74
468.23	440.02
468.41	435.34
468.60	404.91
468.78	435.34
468.96	461.09
469.14	486.83
469.32	360.44
469.50	381.51
469.69	416.62
469.87	440.02
470.05	456.40
470.23	416.62
470.41	358.10
470.59	409.59
470.77	425.98
470.95	465.77
471.14	400.23
471.32	425.98
471.50	491.51
471.68	358.10
471.86	404.91
472.04	362.78
472.22	409.59
472.40	379.17
472.58	402.57
472.77	390.87
472.95	341.72
473.13	425.98
473.31	407.25
473.49	430.66
473.67	388.53
473.85	397.89
474.03	425.98
474.21	369.80
474.39	484.49
474.57	411.93
474.75	353.42
474.93	360.44
475.12	404.91
475.30	440.02
475.48	388.53
475.66	360.44
475.84	451.72
476.02	444.70
476.20	416.62
476.38	477.47
476.56	407.25
476.74	404.91
476.92	365.12
477.10	468.11
477.28	437.68
477.46	351.08
477.64	393.21
477.82	346.40
478.00	381.51
478.18	421.30
478.36	442.36
478.54	402.57
478.72	390.87
478.90	416.62
479.08	344.06
479.26	402.57
479.44	379.17
479.62	400.23
479.80	407.25
479.98	365.12
480.16	449.38
480.34	468.11
480.52	407.25
480.70	475.13
480.88	390.87
481.06	456.40
481.24	383.85
481.41	390.87
481.59	418.96
481.77	320.65
481.95	386.19
482.13	433.00
482.31	475.13
482.49	428.32
482.67	433.00
482.85	416.62
483.03	477.47
483.21	397.89
483.39	388.53
483.57	369.80
483.74	407.25
483.92	425.98
484.10	393.21
484.28	451.72
484.46	409.59
484.64	360.44
484.82	325.33
485.00	369.80
485.18	372.15
485.35	409.59
485.53	376.83
485.71	491.51
485.89	395.55
486.07	362.78
486.25	444.70
486.43	407.25
486.61	330.02
486.78	447.04
486.96	416.62
487.14	376.83
487.32	381.51
487.50	418.96
487.68	372.15
487.85	315.97
488.03	444.70
488.21	463.43
488.39	362.78
488.57	447.04
488.75	390.87
488.92	472.79
489.10	404.91
489.28	449.38
489.46	325.33
489.64	365.12
489.81	395.55
489.99	367.46
490.17	381.51
490.35	500.87
490.53	407.25
490.70	390.87
490.88	458.74
491.06	435.34
491.24	386.19
491.41	351.08
491.59	423.64
491.77	409.59
491.95	388.53
492.13	463.43
492.30	447.04
492.48	402.57
492.66	411.93
492.84	489.17
493.01	470.45
493.19	435.34
493.37	451.72
493.54	400.23
493.72	411.93
493.90	346.40
494.08	372.15
494.25	404.91
494.43	376.83
494.61	374.49
494.79	397.89
494.96	447.04
495.14	369.80
495.32	355.76
495.49	411.93
495.67	421.30
495.85	344.06
496.02	440.02
496.20	390.87
496.38	372.15
496.55	440.02
496.73	379.17
496.91	425.98
497.09	458.74
497.26	435.34
497.44	454.06
497.62	409.59
497.79	327.68
497.97	463.43
498.14	411.93
498.32	456.40
498.50	400.23
498.67	430.66
498.85	379.17
499.03	461.09
499.20	402.57
499.38	482.15
499.56	393.21
499.73	437.68
499.91	444.70
500.08	397.89
500.26	393.21
500.44	407.25
500.61	395.55
500.79	409.59
500.97	409.59
501.14	395.55
501.32	411.93
501.49	482.15
501.67	430.66
501.84	482.15
502.02	358.10
502.20	383.85
502.37	442.36
502.55	390.87
502.72	390.87
502.90	451.72
503.07	470.45
503.25	430.66
503.43	421.30
503.60	390.87
503.78	414.27
503.95	491.51
504.13	400.23
504.30	428.32
504.48	411.93
504.65	433.00
504.83	458.74
505.01	369.80
505.18	374.49
505.36	409.59
505.53	395.55
505.71	404.91
505.88	418.96
506.06	423.64
506.23	425.98
506.41	407.25
506.58	395.55
506.76	414.27
506.93	409.59
507.11	402.57
507.28	386.19
507.46	374.49
507.63	374.49
507.81	388.53
507.98	425.98
508.16	458.74
508.33	423.64
508.50	386.19
508.68	456.40
508.85	388.53
509.03	418.96
509.20	447.04
509.38	491.51
509.55	416.62
509.73	402.57
509.90	454.06
510.08	414.27
510.25	393.21
510.42	376.83
510.60	449.38
510.77	407.25
510.95	416.62
511.12	430.66
511.30	407.25
511.47	409.59
511.64	437.68
511.82	393.21
511.99	433.00
512.17	447.04
512.34	416.62
512.51	400.23
512.69	393.21
512.86	409.59
513.04	425.98
513.21	400.23
513.38	379.17
513.56	381.51
513.73	428.32
513.90	388.53
514.08	421.30
514.25	402.57
514.43	393.21
514.60	449.38
514.77	383.85
514.95	409.59
515.12	372.15
515.29	451.72
515.47	418.96
515.64	433.00
515.81	383.85
515.99	400.23
516.16	409.59
516.33	458.74
516.51	437.68
516.68	404.91
516.85	442.36
517.03	376.83
517.20	512.58
517.37	402.57
517.54	458.74
517.72	428.32
517.89	425.98
518.06	433.00
518.24	414.27
518.41	458.74
518.58	428.32
518.75	411.93
518.93	379.17
519.10	376.83
519.27	447.04
519.45	353.42
519.62	348.74
519.79	425.98
519.96	301.93
520.14	423.64
520.31	390.87
520.48	414.27
520.65	395.55
520.83	386.19
521.00	411.93
521.17	440.02
521.34	397.89
521.52	470.45
521.69	437.68
521.86	510.24
522.03	493.85
522.20	437.68
522.38	388.53
522.55	454.06
522.72	358.10
522.89	388.53
523.07	423.64
523.24	430.66
523.41	388.53
523.58	400.23
523.75	372.15
523.92	388.53
524.10	351.08
524.27	423.64
524.44	444.70
524.61	430.66
524.78	444.70
524.96	449.38
525.13	379.17
525.30	442.36
525.47	416.62
525.64	465.77
525.81	416.62
525.98	421.30
526.16	360.44
526.33	383.85
526.50	353.42
526.67	444.70
526.84	374.49
527.01	388.53
527.18	402.57
527.36	425.98
527.53	418.96
527.70	414.27
527.87	390.87
528.04	484.49
528.21	414.27
528.38	454.06
528.55	482.15
528.72	407.25
528.89	411.93
529.07	440.02
529.24	407.25
529.41	435.34
529.58	475.13
529.75	475.13
529.92	414.27
530.09	383.85
530.26	416.62
530.43	381.51
530.60	414.27
530.77	435.34
530.94	454.06
531.11	465.77
531.28	425.98
531.46	465.77
531.63	411.93
531.80	449.38
531.97	367.46
532.14	397.89
532.31	397.89
532.48	444.70
532.65	454.06
532.82	348.74
532.99	390.87
533.16	449.38
533.33	404.91
533.50	437.68
533.67	362.78
533.84	423.64
534.01	423.64
534.18	418.96
534.35	383.85
534.52	418.96
534.69	407.25
534.86	390.87
535.03	440.02
535.20	470.45
535.37	461.09
535.54	421.30
535.71	470.45
535.88	374.49
536.05	414.27
536.22	332.36
536.38	479.81
536.55	454.06
536.72	437.68
536.89	372.15
537.06	423.64
537.23	388.53
537.40	360.44
537.57	367.46
537.74	489.17
537.91	430.66
538.08	404.91
538.25	468.11
538.42	381.51
538.59	442.36
538.75	397.89
538.92	411.93
539.09	461.09
539.26	395.55
539.43	365.12
539.60	404.91
539.77	362.78
539.94	449.38
540.11	383.85
540.28	395.55
540.44	475.13
540.61	416.62
540.78	402.57
540.95	386.19
541.12	402.57
541.29	383.85
541.46	411.93
541.62	351.08
541.79	416.62
541.96	402.57
542.13	482.15
542.30	479.81
542.47	395.55
542.63	447.04
542.80	409.59
542.97	449.38
543.14	416.62
543.31	386.19
543.48	341.72
543.64	346.40
543.81	379.17
543.98	369.80
544.15	411.93
544.32	390.87
544.48	456.40
544.65	365.12
544.82	409.59
544.99	447.04
545.16	360.44
545.32	449.38
545.49	421.30
545.66	425.98
545.83	465.77
546.00	451.72
546.16	442.36
546.33	442.36
546.50	374.49
546.67	383.85
546.83	409.59
547.00	444.70
547.17	407.25
547.34	428.32
547.50	486.83
547.67	407.25
547.84	402.57
548.00	414.27
548.17	409.59
548.34	433.00
548.51	447.04
548.67	442.36
548.84	365.12
549.01	334.70
549.18	339.38
549.34	407.25
549.51	425.98
549.68	465.77
549.84	421.30
550.01	437.68
550.18	435.34
550.34	470.45
550.51	367.46
550.68	437.68
550.84	360.44
551.01	493.85
551.18	416.62
551.34	390.87
551.51	421.30
551.68	416.62
551.84	428.32
552.01	418.96
552.18	365.12
552.34	456.40
552.51	475.13
552.68	421.30
552.84	444.70
553.01	374.49
553.18	505.56
553.34	395.55
553.51	416.62
553.67	346.40
553.84	418.96
554.01	414.27
554.17	414.27
554.34	390.87
554.51	430.66
554.67	376.83
554.84	388.53
555.00	348.74
555.17	470.45
555.33	503.22
555.50	402.57
555.67	416.62
555.83	369.80
556.00	440.02
556.16	603.86
556.33	456.40
556.50	393.21
556.66	411.93
556.83	444.70
556.99	395.55
557.16	367.46
557.32	397.89
557.49	381.51
557.65	402.57
557.82	407.25
557.98	533.64
558.15	339.38
558.32	421.30
558.48	369.80
558.65	400.23
558.81	353.42
558.98	435.34
559.14	404.91
559.31	430.66
559.47	397.89
559.64	428.32
559.80	489.17
559.97	468.11
560.13	461.09
560.30	451.72
560.46	390.87
560.63	423.64
560.79	390.87
560.96	444.70
561.12	330.02
561.29	369.80
561.45	362.78
561.61	367.46
561.78	465.77
561.94	409.59
562.11	355.76
562.27	451.72
562.44	402.57
562.60	470.45
562.77	411.93
562.93	449.38
563.10	479.81
563.26	449.38
563.42	409.59
563.59	442.36
563.75	372.15
563.92	493.85
564.08	381.51
564.24	442.36
564.41	428.32
564.57	442.36
564.74	440.02
564.90	449.38
565.07	491.51
565.23	393.21
565.39	423.64
565.56	416.62
565.72	386.19
565.88	416.62
566.05	416.62
566.21	440.02
566.38	470.45
566.54	418.96
566.70	470.45
566.87	421.30
567.03	442.36
567.19	421.30
567.36	477.47
567.52	421.30
567.68	440.02
567.85	395.55
568.01	425.98
568.17	365.12
568.34	355.76
568.50	435.34
568.66	407.25
568.83	435.34
568.99	440.02
569.15	456.40
569.32	395.55
569.48	421.30
569.64	400.23
569.81	337.04
569.97	388.53
570.13	463.43
570.30	404.91
570.46	423.64
570.62	390.87
570.78	425.98
570.95	315.97
571.11	456.40
571.27	428.32
571.43	379.17
571.60	358.10
571.76	372.15
571.92	437.68
572.09	423.64
572.25	393.21
572.41	365.12
572.57	423.64
572.74	381.51
572.90	463.43
573.06	416.62
573.22	440.02
573.38	449.38
573.55	468.11
573.71	465.77
573.87	362.78
574.03	407.25
574.20	390.87
574.36	486.83
574.52	369.80
574.68	423.64
574.84	472.79
575.01	458.74
575.17	421.30
575.33	404.91
575.49	416.62
575.65	430.66
575.82	465.77
575.98	386.19
576.14	433.00
576.30	400.23
576.46	409.59
576.62	404.91
576.79	437.68
576.95	440.02
577.11	402.57
577.27	414.27
577.43	393.21
577.59	486.83
577.75	423.64
577.92	365.12
578.08	388.53
578.24	411.93
578.40	510.24
578.56	472.79
578.72	355.76
578.88	447.04
579.04	407.25
579.21	444.70
579.37	421.30
579.53	374.49
579.69	425.98
579.85	451.72
580.01	411.93
580.17	451.72
580.33	395.55
580.49	435.34
580.65	358.10
580.82	411.93
580.98	407.25
581.14	402.57
581.30	454.06
581.46	470.45
581.62	358.10
581.78	390.87
581.94	423.64
582.10	437.68
582.26	486.83
582.42	390.87
582.58	416.62
582.74	348.74
582.90	442.36
583.06	449.38
583.22	393.21
583.38	376.83
583.54	388.53
583.70	484.49
583.86	418.96
584.02	353.42
584.18	517.26
584.34	425.98
584.50	407.25
584.66	416.62
584.82	388.53
584.98	440.02
585.14	456.40
585.30	407.25
585.46	369.80
585.62	407.25
585.78	346.40
585.94	428.32
586.10	470.45
586.26	477.47
586.42	470.45
586.58	437.68
586.74	369.80
586.90	372.15
587.06	496.19
587.22	425.98
587.38	355.76
587.54	376.83
587.70	423.64
587.86	400.23
588.02	435.34
588.18	390.87
588.34	400.23
588.49	411.93
588.65	400.23
588.81	376.83
588.97	423.64
589.13	386.19
589.29	496.19
589.45	404.91
589.61	393.21
589.77	528.96
589.93	402.57
590.08	425.98
590.24	400.23
590.40	418.96
590.56	440.02
590.72	397.89
590.88	428.32
591.04	479.81
591.20	425.98
591.35	388.53
591.51	421.30
591.67	402.57
591.83	360.44
591.99	390.87
592.15	550.03
592.31	447.04
592.46	351.08
592.62	407.25
592.78	402.57
592.94	409.59
593.10	440.02
593.26	397.89
593.41	376.83
593.57	423.64
593.73	400.23
593.89	437.68
594.05	344.06
594.20	430.66
594.36	416.62
594.52	430.66
594.68	367.46
594.84	486.83
594.99	456.40
595.15	454.06
595.31	400.23
595.47	463.43
595.62	482.15
595.78	416.62
595.94	416.62
596.10	437.68
596.25	430.66
596.41	437.68
596.57	411.93
596.73	425.98
596.88	402.57
597.04	414.27
597.20	451.72
597.36	395.55
597.51	381.51
597.67	411.93
597.83	435.34
597.99	353.42
598.14	416.62
598.30	414.27
598.46	416.62
598.61	451.72
598.77	372.15
598.93	372.15
599.09	435.34
599.24	418.96
599.40	449.38
599.56	365.12
599.71	411.93
599.87	407.25
600.03	423.64
600.18	402.57
600.34	390.87
600.50	463.43
600.65	477.47
600.81	449.38
600.97	400.23
601.12	379.17
601.28	442.36
601.44	458.74
601.59	423.64
601.75	402.57
601.91	376.83
602.06	348.74
602.22	482.15
602.37	433.00
602.53	411.93
602.69	409.59
602.84	463.43
603.00	383.85
603.16	493.85
603.31	400.23
603.47	379.17
603.62	454.06
603.78	449.38
603.94	397.89
604.09	404.91
604.25	454.06
604.40	451.72
604.56	477.47
604.71	423.64
604.87	435.34
605.03	407.25
605.18	395.55
605.34	421.30
605.49	348.74
605.65	468.11
605.80	407.25
605.96	444.70
606.12	411.93
606.27	447.04
606.43	369.80
606.58	411.93
606.74	423.64
606.89	433.00
607.05	423.64
607.20	402.57
607.36	440.02
607.51	465.77
607.67	463.43
607.82	435.34
607.98	433.00
608.13	416.62
608.29	437.68
608.44	447.04
608.60	442.36
608.75	430.66
608.91	526.62
609.06	472.79
609.22	416.62
609.37	461.09
609.53	425.98
609.68	341.72
609.84	458.74
609.99	369.80
610.15	362.78
