SpectraSuite Data File
++++++++++++++++++++++++++++++++++++
Date: Fri Oct 25 12:10:18 EDT 2013
User: price-jones
Dark Spectrum Present: No
Reference Spectrum Present: No
Number of Sampled Component Spectra: 1
Spectrometers: USB2+H05261
Integration Time (usec): 100000 (USB2+H05261)
Spectra Averaged: 1 (USB2+H05261)
Boxcar Smoothing: 0 (USB2+H05261)
Correct for Electrical Dark: No (USB2+H05261)
Strobe/Lamp Enabled: No (USB2+H05261)
Correct for Detector Non-linearity: No (USB2+H05261)
Correct for Stray Light: No (USB2+H05261)
Number of Pixels in Processed Spectrum: 2048
>>>>>Begin Processed Spectral Data<<<<<
365.73	381.51
365.92	381.51
366.12	381.51
366.32	205.97
366.52	182.56
366.72	212.99
366.91	276.18
367.11	245.76
367.31	241.08
367.51	299.59
367.70	308.95
367.90	220.01
368.10	250.44
368.30	198.95
368.49	283.20
368.69	273.84
368.89	231.71
369.09	266.82
369.28	280.86
369.48	203.63
369.68	304.27
369.87	285.55
370.07	250.44
370.27	292.57
370.47	360.44
370.66	266.82
370.86	341.72
371.06	383.85
371.25	421.30
371.45	367.46
371.65	383.85
371.84	367.46
372.04	379.17
372.24	423.64
372.44	383.85
372.63	447.04
372.83	397.89
373.03	376.83
373.22	486.83
373.42	477.47
373.62	418.96
373.81	451.72
374.01	514.92
374.21	435.34
374.40	404.91
374.60	418.96
374.79	435.34
374.99	409.59
375.19	435.34
375.38	444.70
375.58	416.62
375.78	414.27
375.97	365.12
376.17	414.27
376.37	416.62
376.56	411.93
376.76	393.21
376.95	362.78
377.15	402.57
377.35	451.72
377.54	456.40
377.74	337.04
377.93	479.81
378.13	430.66
378.33	433.00
378.52	435.34
378.72	383.85
378.91	409.59
379.11	402.57
379.31	390.87
379.50	418.96
379.70	395.55
379.89	458.74
380.09	318.31
380.28	374.49
380.48	461.09
380.68	451.72
380.87	369.80
381.07	390.87
381.26	423.64
381.46	400.23
381.65	449.38
381.85	365.12
382.04	447.04
382.24	416.62
382.43	400.23
382.63	344.06
382.83	386.19
383.02	454.06
383.22	454.06
383.41	367.46
383.61	433.00
383.80	402.57
384.00	372.15
384.19	402.57
384.39	451.72
384.58	383.85
384.78	433.00
384.97	414.27
385.17	407.25
385.36	430.66
385.56	458.74
385.75	360.44
385.95	437.68
386.14	369.80
386.34	379.17
386.53	435.34
386.72	433.00
386.92	397.89
387.11	440.02
387.31	397.89
387.50	276.18
387.70	339.38
387.89	395.55
388.09	397.89
388.28	423.64
388.48	362.78
388.67	388.53
388.86	444.70
389.06	379.17
389.25	376.83
389.45	416.62
389.64	442.36
389.84	351.08
390.03	423.64
390.22	337.04
390.42	367.46
390.61	407.25
390.81	383.85
391.00	465.77
391.19	454.06
391.39	468.11
391.58	437.68
391.78	383.85
391.97	383.85
392.16	416.62
392.36	416.62
392.55	409.59
392.75	404.91
392.94	381.51
393.13	367.46
393.33	327.68
393.52	362.78
393.71	430.66
393.91	407.25
394.10	372.15
394.29	393.21
394.49	440.02
394.68	348.74
394.88	379.17
395.07	433.00
395.26	440.02
395.46	395.55
395.65	503.22
395.84	374.49
396.04	355.76
396.23	463.43
396.42	423.64
396.62	435.34
396.81	470.45
397.00	353.42
397.19	367.46
397.39	411.93
397.58	404.91
397.77	365.12
397.97	360.44
398.16	362.78
398.35	376.83
398.55	447.04
398.74	482.15
398.93	397.89
399.12	435.34
399.32	449.38
399.51	416.62
399.70	409.59
399.90	395.55
400.09	463.43
400.28	430.66
400.47	411.93
400.67	367.46
400.86	423.64
401.05	395.55
401.24	451.72
401.44	379.17
401.63	430.66
401.82	411.93
402.01	411.93
402.21	416.62
402.40	435.34
402.59	505.56
402.78	381.51
402.97	404.91
403.17	369.80
403.36	386.19
403.55	341.72
403.74	433.00
403.93	355.76
404.13	395.55
404.32	355.76
404.51	409.59
404.70	390.87
404.89	437.68
405.09	423.64
405.28	470.45
405.47	404.91
405.66	433.00
405.85	397.89
406.05	402.57
406.24	381.51
406.43	425.98
406.62	433.00
406.81	400.23
407.00	346.40
407.20	404.91
407.39	376.83
407.58	365.12
407.77	407.25
407.96	383.85
408.15	379.17
408.34	423.64
408.54	409.59
408.73	458.74
408.92	372.15
409.11	362.78
409.30	449.38
409.49	402.57
409.68	435.34
409.87	362.78
410.07	372.15
410.26	404.91
410.45	433.00
410.64	360.44
410.83	444.70
411.02	390.87
411.21	458.74
411.40	374.49
411.59	393.21
411.78	409.59
411.98	435.34
412.17	390.87
412.36	383.85
412.55	409.59
412.74	463.43
412.93	433.00
413.12	374.49
413.31	411.93
413.50	404.91
413.69	388.53
413.88	475.13
414.07	428.32
414.26	397.89
414.45	416.62
414.64	397.89
414.83	374.49
415.02	423.64
415.22	372.15
415.41	404.91
415.60	411.93
415.79	428.32
415.98	482.15
416.17	414.27
416.36	369.80
416.55	400.23
416.74	472.79
416.93	479.81
417.12	320.65
417.31	330.02
417.50	388.53
417.69	461.09
417.88	407.25
418.07	414.27
418.26	454.06
418.45	447.04
418.64	468.11
418.83	444.70
419.02	423.64
419.21	418.96
419.39	418.96
419.58	449.38
419.77	435.34
419.96	383.85
420.15	379.17
420.34	428.32
420.53	468.11
420.72	379.17
420.91	493.85
421.10	407.25
421.29	362.78
421.48	355.76
421.67	437.68
421.86	409.59
422.05	362.78
422.24	411.93
422.43	402.57
422.61	425.98
422.80	409.59
422.99	372.15
423.18	397.89
423.37	428.32
423.56	358.10
423.75	416.62
423.94	402.57
424.13	311.29
424.32	337.04
424.50	376.83
424.69	383.85
424.88	449.38
425.07	388.53
425.26	355.76
425.45	458.74
425.64	437.68
425.83	433.00
426.01	369.80
426.20	355.76
426.39	386.19
426.58	397.89
426.77	409.59
426.96	421.30
427.15	470.45
427.33	372.15
427.52	374.49
427.71	341.72
427.90	362.78
428.09	414.27
428.28	404.91
428.46	430.66
428.65	369.80
428.84	374.49
429.03	458.74
429.22	383.85
429.40	418.96
429.59	447.04
429.78	433.00
429.97	470.45
430.16	425.98
430.34	428.32
430.53	351.08
430.72	379.17
430.91	465.77
431.10	351.08
431.28	379.17
431.47	411.93
431.66	437.68
431.85	341.72
432.03	383.85
432.22	505.56
432.41	414.27
432.60	397.89
432.79	393.21
432.97	402.57
433.16	341.72
433.35	353.42
433.54	386.19
433.72	442.36
433.91	381.51
434.10	463.43
434.28	444.70
434.47	444.70
434.66	498.53
434.85	423.64
435.03	449.38
435.22	489.17
435.41	341.72
435.59	411.93
435.78	519.60
435.97	353.42
436.16	393.21
436.34	442.36
436.53	337.04
436.72	451.72
436.90	456.40
437.09	404.91
437.28	514.92
437.46	404.91
437.65	437.68
437.84	367.46
438.02	421.30
438.21	411.93
438.40	376.83
438.58	402.57
438.77	449.38
438.96	395.55
439.14	402.57
439.33	383.85
439.52	444.70
439.70	395.55
439.89	344.06
440.08	355.76
440.26	386.19
440.45	451.72
440.63	397.89
440.82	437.68
441.01	386.19
441.19	383.85
441.38	414.27
441.57	493.85
441.75	493.85
441.94	512.58
442.12	447.04
442.31	425.98
442.50	390.87
442.68	444.70
442.87	421.30
443.05	484.49
443.24	379.17
443.43	411.93
443.61	430.66
443.80	425.98
443.98	388.53
444.17	437.68
444.35	475.13
444.54	390.87
444.73	451.72
444.91	379.17
445.10	360.44
445.28	423.64
445.47	395.55
445.65	365.12
445.84	393.21
446.02	369.80
446.21	390.87
446.39	416.62
446.58	388.53
446.77	388.53
446.95	395.55
447.14	416.62
447.32	425.98
447.51	444.70
447.69	404.91
447.88	475.13
448.06	461.09
448.25	428.32
448.43	416.62
448.62	435.34
448.80	383.85
448.99	423.64
449.17	334.70
449.36	433.00
449.54	468.11
449.73	369.80
449.91	430.66
450.10	458.74
450.28	440.02
450.46	489.17
450.65	428.32
450.83	409.59
451.02	372.15
451.20	416.62
451.39	454.06
451.57	388.53
451.76	369.80
451.94	362.78
452.13	421.30
452.31	461.09
452.49	379.17
452.68	355.76
452.86	365.12
453.05	472.79
453.23	440.02
453.42	402.57
453.60	358.10
453.78	409.59
453.97	393.21
454.15	397.89
454.34	402.57
454.52	397.89
454.70	393.21
454.89	468.11
455.07	423.64
455.26	383.85
455.44	390.87
455.62	421.30
455.81	440.02
455.99	491.51
456.17	390.87
456.36	451.72
456.54	461.09
456.73	388.53
456.91	479.81
457.09	468.11
457.28	386.19
457.46	397.89
457.64	418.96
457.83	379.17
458.01	388.53
458.19	449.38
458.38	423.64
458.56	367.46
458.74	421.30
458.93	365.12
459.11	470.45
459.29	423.64
459.48	482.15
459.66	486.83
459.84	337.04
460.03	463.43
460.21	341.72
460.39	367.46
460.57	484.49
460.76	411.93
460.94	451.72
461.12	489.17
461.31	458.74
461.49	411.93
461.67	397.89
461.85	423.64
462.04	416.62
462.22	788.76
462.40	524.28
462.59	402.57
462.77	395.55
462.95	428.32
463.13	416.62
463.32	402.57
463.50	421.30
463.68	437.68
463.86	369.80
464.05	437.68
464.23	461.09
464.41	388.53
464.59	456.40
464.78	348.74
464.96	348.74
465.14	393.21
465.32	449.38
465.50	325.33
465.69	440.02
465.87	332.36
466.05	463.43
466.23	379.17
466.41	372.15
466.60	414.27
466.78	507.90
466.96	463.43
467.14	491.51
467.32	362.78
467.51	491.51
467.69	351.08
467.87	535.98
468.05	437.68
468.23	395.55
468.41	409.59
468.60	416.62
468.78	437.68
468.96	435.34
469.14	409.59
469.32	411.93
469.50	461.09
469.69	430.66
469.87	451.72
470.05	414.27
470.23	477.47
470.41	423.64
470.59	407.25
470.77	498.53
470.95	465.77
471.14	404.91
471.32	458.74
471.50	390.87
471.68	346.40
471.86	383.85
472.04	386.19
472.22	411.93
472.40	421.30
472.58	339.38
472.77	458.74
472.95	404.91
473.13	395.55
473.31	400.23
473.49	430.66
473.67	468.11
473.85	428.32
474.03	416.62
474.21	416.62
474.39	390.87
474.57	468.11
474.75	470.45
474.93	458.74
475.12	414.27
475.30	472.79
475.48	416.62
475.66	414.27
475.84	379.17
476.02	369.80
476.20	423.64
476.38	402.57
476.56	393.21
476.74	395.55
476.92	346.40
477.10	411.93
477.28	365.12
477.46	386.19
477.64	428.32
477.82	404.91
478.00	407.25
478.18	379.17
478.36	414.27
478.54	456.40
478.72	411.93
478.90	397.89
479.08	320.65
479.26	430.66
479.44	365.12
479.62	369.80
479.80	388.53
479.98	425.98
480.16	367.46
480.34	433.00
480.52	332.36
480.70	440.02
480.88	393.21
481.06	346.40
481.24	402.57
481.41	454.06
481.59	390.87
481.77	400.23
481.95	404.91
482.13	430.66
482.31	428.32
482.49	444.70
482.67	318.31
482.85	456.40
483.03	393.21
483.21	461.09
483.39	390.87
483.57	411.93
483.74	454.06
483.92	451.72
484.10	414.27
484.28	418.96
484.46	454.06
484.64	451.72
484.82	379.17
485.00	390.87
485.18	425.98
485.35	386.19
485.53	355.76
485.71	435.34
485.89	461.09
486.07	447.04
486.25	430.66
486.43	451.72
486.61	397.89
486.78	421.30
486.96	376.83
487.14	479.81
487.32	433.00
487.50	402.57
487.68	498.53
487.85	421.30
488.03	470.45
488.21	416.62
488.39	344.06
488.57	421.30
488.75	351.08
488.92	531.30
489.10	433.00
489.28	465.77
489.46	435.34
489.64	362.78
489.81	404.91
489.99	374.49
490.17	409.59
490.35	454.06
490.53	416.62
490.70	451.72
490.88	404.91
491.06	393.21
491.24	383.85
491.41	430.66
491.59	376.83
491.77	472.79
491.95	454.06
492.13	348.74
492.30	397.89
492.48	407.25
492.66	372.15
492.84	418.96
493.01	496.19
493.19	390.87
493.37	404.91
493.54	428.32
493.72	402.57
493.90	360.44
494.08	430.66
494.25	428.32
494.43	411.93
494.61	423.64
494.79	409.59
494.96	407.25
495.14	465.77
495.32	421.30
495.49	491.51
495.67	395.55
495.85	395.55
496.02	409.59
496.20	390.87
496.38	425.98
496.55	486.83
496.73	472.79
496.91	411.93
497.09	449.38
497.26	423.64
497.44	381.51
497.62	404.91
497.79	362.78
497.97	472.79
498.14	519.60
498.32	306.61
498.50	437.68
498.67	369.80
498.85	472.79
499.03	404.91
499.20	411.93
499.38	411.93
499.56	348.74
499.73	395.55
499.91	386.19
500.08	440.02
500.26	376.83
500.44	414.27
500.61	379.17
500.79	421.30
500.97	456.40
501.14	428.32
501.32	402.57
501.49	486.83
501.67	390.87
501.84	425.98
502.02	388.53
502.20	379.17
502.37	351.08
502.55	454.06
502.72	374.49
502.90	388.53
503.07	411.93
503.25	428.32
503.43	416.62
503.60	379.17
503.78	449.38
503.95	423.64
504.13	418.96
504.30	433.00
504.48	468.11
504.65	425.98
504.83	433.00
505.01	416.62
505.18	402.57
505.36	397.89
505.53	400.23
505.71	444.70
505.88	465.77
506.06	369.80
506.23	325.33
506.41	437.68
506.58	456.40
506.76	493.85
506.93	372.15
507.11	374.49
507.28	402.57
507.46	425.98
507.63	430.66
507.81	435.34
507.98	400.23
508.16	423.64
508.33	416.62
508.50	433.00
508.68	433.00
508.85	421.30
509.03	421.30
509.20	306.61
509.38	372.15
509.55	423.64
509.73	440.02
509.90	411.93
510.08	418.96
510.25	397.89
510.42	393.21
510.60	421.30
510.77	447.04
510.95	358.10
511.12	416.62
511.30	376.83
511.47	472.79
511.64	461.09
511.82	390.87
511.99	423.64
512.17	437.68
512.34	360.44
512.51	372.15
512.69	407.25
512.86	472.79
513.04	435.34
513.21	402.57
513.38	341.72
513.56	351.08
513.73	442.36
513.90	397.89
514.08	409.59
514.25	430.66
514.43	423.64
514.60	407.25
514.77	362.78
514.95	463.43
515.12	383.85
515.29	339.38
515.47	402.57
515.64	411.93
515.81	435.34
515.99	397.89
516.16	362.78
516.33	409.59
516.51	418.96
516.68	435.34
516.85	390.87
517.03	397.89
517.20	442.36
517.37	425.98
517.54	470.45
517.72	367.46
517.89	365.12
518.06	440.02
518.24	468.11
518.41	444.70
518.58	430.66
518.75	433.00
518.93	472.79
519.10	449.38
519.27	425.98
519.45	461.09
519.62	407.25
519.79	456.40
519.96	393.21
520.14	402.57
520.31	482.15
520.48	456.40
520.65	407.25
520.83	456.40
521.00	425.98
521.17	437.68
521.34	334.70
521.52	442.36
521.69	416.62
521.86	428.32
522.03	308.95
522.20	491.51
522.38	369.80
522.55	416.62
522.72	339.38
522.89	421.30
523.07	447.04
523.24	400.23
523.41	465.77
523.58	402.57
523.75	496.19
523.92	451.72
524.10	461.09
524.27	407.25
524.44	351.08
524.61	425.98
524.78	454.06
524.96	435.34
525.13	407.25
525.30	433.00
525.47	395.55
525.64	369.80
525.81	425.98
525.98	374.49
526.16	421.30
526.33	388.53
526.50	351.08
526.67	449.38
526.84	332.36
527.01	421.30
527.18	433.00
527.36	409.59
527.53	421.30
527.70	479.81
527.87	393.21
528.04	433.00
528.21	341.72
528.38	407.25
528.55	407.25
528.72	423.64
528.89	498.53
529.07	383.85
529.24	454.06
529.41	463.43
529.58	463.43
529.75	463.43
529.92	470.45
530.09	407.25
530.26	402.57
530.43	421.30
530.60	411.93
530.77	477.47
530.94	421.30
531.11	369.80
531.28	397.89
531.46	348.74
531.63	400.23
531.80	411.93
531.97	393.21
532.14	414.27
532.31	451.72
532.48	428.32
532.65	449.38
532.82	365.12
532.99	362.78
533.16	421.30
533.33	472.79
533.50	374.49
533.67	414.27
533.84	447.04
534.01	468.11
534.18	423.64
534.35	416.62
534.52	440.02
534.69	435.34
534.86	393.21
535.03	451.72
535.20	395.55
535.37	440.02
535.54	393.21
535.71	383.85
535.88	418.96
536.05	458.74
536.22	423.64
536.38	461.09
536.55	458.74
536.72	416.62
536.89	470.45
537.06	379.17
537.23	437.68
537.40	503.22
537.57	428.32
537.74	461.09
537.91	428.32
538.08	454.06
538.25	418.96
538.42	379.17
538.59	404.91
538.75	395.55
538.92	407.25
539.09	456.40
539.26	414.27
539.43	468.11
539.60	435.34
539.77	379.17
539.94	472.79
540.11	428.32
540.28	449.38
540.44	484.49
540.61	409.59
540.78	486.83
540.95	362.78
541.12	440.02
541.29	386.19
541.46	404.91
541.62	416.62
541.79	437.68
541.96	355.76
542.13	421.30
542.30	423.64
542.47	437.68
542.63	395.55
542.80	454.06
542.97	362.78
543.14	416.62
543.31	477.47
543.48	430.66
543.64	388.53
543.81	414.27
543.98	400.23
544.15	484.49
544.32	397.89
544.48	397.89
544.65	411.93
544.82	428.32
544.99	393.21
545.16	421.30
545.32	433.00
545.49	358.10
545.66	369.80
545.83	393.21
546.00	374.49
546.16	367.46
546.33	411.93
546.50	425.98
546.67	458.74
546.83	414.27
547.00	442.36
547.17	390.87
547.34	388.53
547.50	372.15
547.67	353.42
547.84	472.79
548.00	454.06
548.17	386.19
548.34	379.17
548.51	402.57
548.67	477.47
548.84	484.49
549.01	414.27
549.18	348.74
549.34	475.13
549.51	440.02
549.68	454.06
549.84	421.30
550.01	383.85
550.18	517.26
550.34	479.81
550.51	430.66
550.68	456.40
550.84	425.98
551.01	379.17
551.18	425.98
551.34	433.00
551.51	433.00
551.68	423.64
551.84	451.72
552.01	433.00
552.18	423.64
552.34	414.27
552.51	416.62
552.68	433.00
552.84	428.32
553.01	444.70
553.18	358.10
553.34	388.53
553.51	386.19
553.67	430.66
553.84	421.30
554.01	421.30
554.17	416.62
554.34	402.57
554.51	407.25
554.67	435.34
554.84	437.68
555.00	486.83
555.17	468.11
555.33	390.87
555.50	397.89
555.67	404.91
555.83	386.19
556.00	435.34
556.16	526.62
556.33	479.81
556.50	521.94
556.66	390.87
556.83	435.34
556.99	400.23
557.16	402.57
557.32	428.32
557.49	524.28
557.65	418.96
557.82	393.21
557.98	442.36
558.15	404.91
558.32	430.66
558.48	407.25
558.65	470.45
558.81	444.70
558.98	418.96
559.14	421.30
559.31	451.72
559.47	421.30
559.64	393.21
559.80	475.13
559.97	430.66
560.13	390.87
560.30	365.12
560.46	374.49
560.63	337.04
560.79	416.62
560.96	381.51
561.12	393.21
561.29	430.66
561.45	409.59
561.61	458.74
561.78	491.51
561.94	372.15
562.11	418.96
562.27	400.23
562.44	393.21
562.60	355.76
562.77	383.85
562.93	437.68
563.10	388.53
563.26	411.93
563.42	433.00
563.59	383.85
563.75	454.06
563.92	458.74
564.08	381.51
564.24	411.93
564.41	449.38
564.57	395.55
564.74	461.09
564.90	418.96
565.07	416.62
565.23	430.66
565.39	442.36
565.56	458.74
565.72	386.19
565.88	402.57
566.05	353.42
566.21	435.34
566.38	395.55
566.54	425.98
566.70	416.62
566.87	465.77
567.03	447.04
567.19	393.21
567.36	409.59
567.52	346.40
567.68	477.47
567.85	381.51
568.01	451.72
568.17	320.65
568.34	390.87
568.50	440.02
568.66	475.13
568.83	496.19
568.99	454.06
569.15	447.04
569.32	367.46
569.48	468.11
569.64	411.93
569.81	440.02
569.97	388.53
570.13	465.77
570.30	482.15
570.46	442.36
570.62	395.55
570.78	407.25
570.95	444.70
571.11	437.68
571.27	397.89
571.43	383.85
571.60	435.34
571.76	447.04
571.92	395.55
572.09	404.91
572.25	423.64
572.41	390.87
572.57	393.21
572.74	414.27
572.90	449.38
573.06	421.30
573.22	409.59
573.38	468.11
573.55	433.00
573.71	430.66
573.87	430.66
574.03	337.04
574.20	484.49
574.36	482.15
574.52	433.00
574.68	454.06
574.84	418.96
575.01	397.89
575.17	486.83
575.33	435.34
575.49	484.49
575.65	435.34
575.82	456.40
575.98	428.32
576.14	421.30
576.30	386.19
576.46	402.57
576.62	465.77
576.79	447.04
576.95	437.68
577.11	367.46
577.27	388.53
577.43	454.06
577.59	493.85
577.75	449.38
577.92	376.83
578.08	409.59
578.24	414.27
578.40	418.96
578.56	437.68
578.72	388.53
578.88	390.87
579.04	428.32
579.21	416.62
579.37	428.32
579.53	519.60
579.69	407.25
579.85	379.17
580.01	440.02
580.17	418.96
580.33	409.59
580.49	433.00
580.65	444.70
580.82	367.46
580.98	388.53
581.14	369.80
581.30	433.00
581.46	418.96
581.62	379.17
581.78	421.30
581.94	400.23
582.10	374.49
582.26	383.85
582.42	390.87
582.58	395.55
582.74	409.59
582.90	421.30
583.06	407.25
583.22	440.02
583.38	353.42
583.54	386.19
583.70	463.43
583.86	437.68
584.02	477.47
584.18	468.11
584.34	409.59
584.50	360.44
584.66	418.96
584.82	390.87
584.98	440.02
585.14	362.78
585.30	400.23
585.46	397.89
585.62	407.25
585.78	402.57
585.94	425.98
586.10	484.49
586.26	475.13
586.42	510.24
586.58	409.59
586.74	400.23
586.90	421.30
587.06	421.30
587.22	435.34
587.38	404.91
587.54	423.64
587.70	475.13
587.86	421.30
588.02	437.68
588.18	395.55
588.34	437.68
588.49	397.89
588.65	440.02
588.81	418.96
588.97	416.62
589.13	435.34
589.29	423.64
589.45	418.96
589.61	425.98
589.77	404.91
589.93	440.02
590.08	470.45
590.24	339.38
590.40	409.59
590.56	449.38
590.72	390.87
590.88	334.70
591.04	374.49
591.20	395.55
591.35	447.04
591.51	423.64
591.67	407.25
591.83	355.76
591.99	393.21
592.15	472.79
592.31	430.66
592.46	383.85
592.62	461.09
592.78	458.74
592.94	421.30
593.10	400.23
593.26	489.17
593.41	465.77
593.57	498.53
593.73	433.00
593.89	440.02
594.05	456.40
594.20	430.66
594.36	374.49
594.52	442.36
594.68	362.78
594.84	421.30
594.99	423.64
595.15	433.00
595.31	468.11
595.47	407.25
595.62	477.47
595.78	400.23
595.94	372.15
596.10	402.57
596.25	397.89
596.41	440.02
596.57	379.17
596.73	365.12
596.88	411.93
597.04	339.38
597.20	400.23
597.36	454.06
597.51	425.98
597.67	374.49
597.83	390.87
597.99	407.25
598.14	376.83
598.30	442.36
598.46	383.85
598.61	437.68
598.77	454.06
598.93	369.80
599.09	416.62
599.24	414.27
599.40	416.62
599.56	379.17
599.71	414.27
599.87	404.91
600.03	367.46
600.18	409.59
600.34	397.89
600.50	390.87
600.65	407.25
600.81	489.17
600.97	390.87
601.12	362.78
601.28	372.15
601.44	418.96
601.59	355.76
601.75	458.74
601.91	386.19
602.06	458.74
602.22	454.06
602.37	381.51
602.53	428.32
602.69	388.53
602.84	381.51
603.00	404.91
603.16	383.85
603.31	386.19
603.47	353.42
603.62	447.04
603.78	409.59
603.94	486.83
604.09	433.00
604.25	423.64
604.40	315.97
604.56	435.34
604.71	442.36
604.87	440.02
605.03	388.53
605.18	414.27
605.34	463.43
605.49	348.74
605.65	351.08
605.80	423.64
605.96	437.68
606.12	451.72
606.27	397.89
606.43	386.19
606.58	451.72
606.74	477.47
606.89	449.38
607.05	416.62
607.20	451.72
607.36	372.15
607.51	369.80
607.67	353.42
607.82	503.22
607.98	447.04
608.13	472.79
608.29	430.66
608.44	400.23
608.60	442.36
608.75	447.04
608.91	362.78
609.06	496.19
609.22	404.91
609.37	440.02
609.53	456.40
609.68	411.93
609.84	433.00
609.99	440.02
610.15	477.47
