SpectraSuite Data File
++++++++++++++++++++++++++++++++++++
Date: Fri Oct 25 12:10:54 EDT 2013
User: price-jones
Dark Spectrum Present: No
Reference Spectrum Present: No
Number of Sampled Component Spectra: 1
Spectrometers: USB2+H05261
Integration Time (usec): 100000 (USB2+H05261)
Spectra Averaged: 1 (USB2+H05261)
Boxcar Smoothing: 0 (USB2+H05261)
Correct for Electrical Dark: No (USB2+H05261)
Strobe/Lamp Enabled: No (USB2+H05261)
Correct for Detector Non-linearity: No (USB2+H05261)
Correct for Stray Light: No (USB2+H05261)
Number of Pixels in Processed Spectrum: 2048
>>>>>Begin Processed Spectral Data<<<<<
365.73	362.78
365.92	362.78
366.12	362.78
366.32	318.31
366.52	210.65
366.72	276.18
366.91	248.10
367.11	224.69
367.31	217.67
367.51	196.60
367.70	208.31
367.90	215.33
368.10	229.37
368.30	168.52
368.49	231.71
368.69	229.37
368.89	229.37
369.09	224.69
369.28	271.50
369.48	257.46
369.68	269.16
369.87	283.20
370.07	306.61
370.27	407.25
370.47	315.97
370.66	325.33
370.86	374.49
371.06	337.04
371.25	407.25
371.45	383.85
371.65	337.04
371.84	276.18
372.04	348.74
372.24	379.17
372.44	390.87
372.63	393.21
372.83	390.87
373.03	376.83
373.22	447.04
373.42	334.70
373.62	425.98
373.81	484.49
374.01	409.59
374.21	423.64
374.40	376.83
374.60	440.02
374.79	334.70
374.99	383.85
375.19	416.62
375.38	421.30
375.58	442.36
375.78	360.44
375.97	393.21
376.17	433.00
376.37	418.96
376.56	411.93
376.76	374.49
376.95	381.51
377.15	390.87
377.35	402.57
377.54	397.89
377.74	430.66
377.93	395.55
378.13	447.04
378.33	379.17
378.52	360.44
378.72	353.42
378.91	409.59
379.11	449.38
379.31	423.64
379.50	339.38
379.70	418.96
379.89	416.62
380.09	376.83
380.28	428.32
380.48	430.66
380.68	386.19
380.87	315.97
381.07	461.09
381.26	416.62
381.46	388.53
381.65	369.80
381.85	374.49
382.04	397.89
382.24	430.66
382.43	344.06
382.63	402.57
382.83	397.89
383.02	414.27
383.22	407.25
383.41	425.98
383.61	341.72
383.80	374.49
384.00	362.78
384.19	442.36
384.39	493.85
384.58	416.62
384.78	390.87
384.97	418.96
385.17	365.12
385.36	449.38
385.56	376.83
385.75	433.00
385.95	454.06
386.14	390.87
386.34	409.59
386.53	418.96
386.72	386.19
386.92	449.38
387.11	416.62
387.31	418.96
387.50	388.53
387.70	400.23
387.89	395.55
388.09	393.21
388.28	404.91
388.48	395.55
388.67	386.19
388.86	400.23
389.06	374.49
389.25	489.17
389.45	383.85
389.64	388.53
389.84	477.47
390.03	409.59
390.22	421.30
390.42	404.91
390.61	444.70
390.81	386.19
391.00	339.38
391.19	393.21
391.39	414.27
391.58	393.21
391.78	388.53
391.97	395.55
392.16	437.68
392.36	423.64
392.55	482.15
392.75	365.12
392.94	393.21
393.13	421.30
393.33	388.53
393.52	416.62
393.71	393.21
393.91	437.68
394.10	332.36
394.29	348.74
394.49	407.25
394.68	505.56
394.88	428.32
395.07	381.51
395.26	430.66
395.46	372.15
395.65	351.08
395.84	444.70
396.04	372.15
396.23	437.68
396.42	322.99
396.62	402.57
396.81	430.66
397.00	444.70
397.19	400.23
397.39	376.83
397.58	440.02
397.77	407.25
397.97	360.44
398.16	447.04
398.35	365.12
398.55	351.08
398.74	346.40
398.93	458.74
399.12	411.93
399.32	418.96
399.51	433.00
399.70	369.80
399.90	376.83
400.09	327.68
400.28	454.06
400.47	362.78
400.67	430.66
400.86	379.17
401.05	411.93
401.24	418.96
401.44	374.49
401.63	418.96
401.82	386.19
402.01	365.12
402.21	465.77
402.40	400.23
402.59	414.27
402.78	372.15
402.97	447.04
403.17	451.72
403.36	386.19
403.55	423.64
403.74	381.51
403.93	395.55
404.13	404.91
404.32	353.42
404.51	365.12
404.70	425.98
404.89	414.27
405.09	447.04
405.28	447.04
405.47	360.44
405.66	447.04
405.85	428.32
406.05	414.27
406.24	362.78
406.43	433.00
406.62	425.98
406.81	461.09
407.00	512.58
407.20	423.64
407.39	414.27
407.58	421.30
407.77	393.21
407.96	411.93
408.15	454.06
408.34	390.87
408.54	470.45
408.73	411.93
408.92	397.89
409.11	416.62
409.30	388.53
409.49	454.06
409.68	372.15
409.87	330.02
410.07	425.98
410.26	435.34
410.45	416.62
410.64	395.55
410.83	318.31
411.02	409.59
411.21	461.09
411.40	409.59
411.59	381.51
411.78	435.34
411.98	395.55
412.17	449.38
412.36	351.08
412.55	318.31
412.74	437.68
412.93	421.30
413.12	449.38
413.31	360.44
413.50	395.55
413.69	440.02
413.88	379.17
414.07	449.38
414.26	407.25
414.45	369.80
414.64	374.49
414.83	383.85
415.02	393.21
415.22	430.66
415.41	456.40
415.60	418.96
415.79	411.93
415.98	416.62
416.17	435.34
416.36	330.02
416.55	339.38
416.74	428.32
416.93	372.15
417.12	379.17
417.31	355.76
417.50	388.53
417.69	451.72
417.88	383.85
418.07	386.19
418.26	402.57
418.45	411.93
418.64	496.19
418.83	428.32
419.02	463.43
419.21	365.12
419.39	400.23
419.58	407.25
419.77	418.96
419.96	444.70
420.15	423.64
420.34	397.89
420.53	418.96
420.72	400.23
420.91	421.30
421.10	397.89
421.29	449.38
421.48	423.64
421.67	353.42
421.86	416.62
422.05	411.93
422.24	437.68
422.43	440.02
422.61	367.46
422.80	332.36
422.99	390.87
423.18	456.40
423.37	442.36
423.56	456.40
423.75	379.17
423.94	428.32
424.13	404.91
424.32	344.06
424.50	395.55
424.69	414.27
424.88	409.59
425.07	367.46
425.26	339.38
425.45	386.19
425.64	341.72
425.83	383.85
426.01	383.85
426.20	428.32
426.39	348.74
426.58	381.51
426.77	454.06
426.96	454.06
427.15	465.77
427.33	383.85
427.52	388.53
427.71	414.27
427.90	430.66
428.09	447.04
428.28	486.83
428.46	421.30
428.65	428.32
428.84	402.57
429.03	454.06
429.22	395.55
429.40	418.96
429.59	404.91
429.78	517.26
429.97	400.23
430.16	397.89
430.34	447.04
430.53	477.47
430.72	421.30
430.91	400.23
431.10	390.87
431.28	451.72
431.47	482.15
431.66	486.83
431.85	360.44
432.03	372.15
432.22	461.09
432.41	397.89
432.60	362.78
432.79	395.55
432.97	444.70
433.16	468.11
433.35	430.66
433.54	411.93
433.72	435.34
433.91	440.02
434.10	435.34
434.28	428.32
434.47	379.17
434.66	421.30
434.85	360.44
435.03	447.04
435.22	475.13
435.41	465.77
435.59	414.27
435.78	383.85
435.97	418.96
436.16	421.30
436.34	463.43
436.53	381.51
436.72	407.25
436.90	421.30
437.09	337.04
437.28	358.10
437.46	383.85
437.65	393.21
437.84	423.64
438.02	456.40
438.21	507.90
438.40	435.34
438.58	404.91
438.77	447.04
438.96	428.32
439.14	346.40
439.33	404.91
439.52	470.45
439.70	383.85
439.89	430.66
440.08	437.68
440.26	386.19
440.45	425.98
440.63	425.98
440.82	451.72
441.01	409.59
441.19	447.04
441.38	374.49
441.57	381.51
441.75	418.96
441.94	423.64
442.12	449.38
442.31	418.96
442.50	428.32
442.68	421.30
442.87	465.77
443.05	423.64
443.24	465.77
443.43	418.96
443.61	421.30
443.80	409.59
443.98	416.62
444.17	425.98
444.35	416.62
444.54	341.72
444.73	383.85
444.91	463.43
445.10	444.70
445.28	362.78
445.47	425.98
445.65	447.04
445.84	341.72
446.02	414.27
446.21	374.49
446.39	423.64
446.58	486.83
446.77	433.00
446.95	358.10
447.14	404.91
447.32	465.77
447.51	379.17
447.69	395.55
447.88	353.42
448.06	444.70
448.25	423.64
448.43	437.68
448.62	414.27
448.80	456.40
448.99	440.02
449.17	365.12
449.36	430.66
449.54	440.02
449.73	498.53
449.91	423.64
450.10	388.53
450.28	437.68
450.46	440.02
450.65	491.51
450.83	400.23
451.02	442.36
451.20	449.38
451.39	372.15
451.57	360.44
451.76	411.93
451.94	482.15
452.13	409.59
452.31	425.98
452.49	388.53
452.68	400.23
452.86	386.19
453.05	510.24
453.23	369.80
453.42	353.42
453.60	388.53
453.78	383.85
453.97	407.25
454.15	465.77
454.34	388.53
454.52	358.10
454.70	428.32
454.89	461.09
455.07	468.11
455.26	465.77
455.44	402.57
455.62	409.59
455.81	472.79
455.99	390.87
456.17	475.13
456.36	376.83
456.54	376.83
456.73	390.87
456.91	414.27
457.09	447.04
457.28	437.68
457.46	400.23
457.64	500.87
457.83	402.57
458.01	411.93
458.19	416.62
458.38	379.17
458.56	421.30
458.74	428.32
458.93	484.49
459.11	393.21
459.29	433.00
459.48	484.49
459.66	425.98
459.84	440.02
460.03	489.17
460.21	421.30
460.39	435.34
460.57	418.96
460.76	379.17
460.94	416.62
461.12	433.00
461.31	505.56
461.49	409.59
461.67	332.36
461.85	428.32
462.04	409.59
462.22	821.53
462.40	468.11
462.59	355.76
462.77	397.89
462.95	482.15
463.13	407.25
463.32	437.68
463.50	472.79
463.68	414.27
463.86	463.43
464.05	428.32
464.23	407.25
464.41	454.06
464.59	425.98
464.78	397.89
464.96	463.43
465.14	374.49
465.32	435.34
465.50	428.32
465.69	447.04
465.87	461.09
466.05	437.68
466.23	437.68
466.41	402.57
466.60	468.11
466.78	372.15
466.96	411.93
467.14	463.43
467.32	428.32
467.51	383.85
467.69	430.66
467.87	451.72
468.05	400.23
468.23	395.55
468.41	477.47
468.60	379.17
468.78	327.68
468.96	461.09
469.14	463.43
469.32	440.02
469.50	421.30
469.69	435.34
469.87	451.72
470.05	409.59
470.23	489.17
470.41	425.98
470.59	313.63
470.77	500.87
470.95	435.34
471.14	418.96
471.32	423.64
471.50	437.68
471.68	381.51
471.86	423.64
472.04	465.77
472.22	397.89
472.40	433.00
472.58	383.85
472.77	341.72
472.95	402.57
473.13	449.38
473.31	482.15
473.49	404.91
473.67	449.38
473.85	404.91
474.03	395.55
474.21	437.68
474.39	430.66
474.57	409.59
474.75	425.98
474.93	428.32
475.12	407.25
475.30	451.72
475.48	451.72
475.66	395.55
475.84	433.00
476.02	447.04
476.20	409.59
476.38	411.93
476.56	449.38
476.74	379.17
476.92	421.30
477.10	409.59
477.28	428.32
477.46	435.34
477.64	416.62
477.82	390.87
478.00	379.17
478.18	388.53
478.36	454.06
478.54	435.34
478.72	425.98
478.90	388.53
479.08	355.76
479.26	428.32
479.44	428.32
479.62	388.53
479.80	414.27
479.98	430.66
480.16	346.40
480.34	421.30
480.52	470.45
480.70	348.74
480.88	400.23
481.06	381.51
481.24	454.06
481.41	414.27
481.59	456.40
481.77	517.26
481.95	454.06
482.13	404.91
482.31	423.64
482.49	404.91
482.67	393.21
482.85	414.27
483.03	397.89
483.21	482.15
483.39	465.77
483.57	404.91
483.74	351.08
483.92	381.51
484.10	423.64
484.28	411.93
484.46	449.38
484.64	360.44
484.82	447.04
485.00	386.19
485.18	454.06
485.35	456.40
485.53	435.34
485.71	491.51
485.89	421.30
486.07	386.19
486.25	386.19
486.43	400.23
486.61	381.51
486.78	430.66
486.96	458.74
487.14	374.49
487.32	376.83
487.50	397.89
487.68	393.21
487.85	372.15
488.03	372.15
488.21	440.02
488.39	421.30
488.57	430.66
488.75	397.89
488.92	503.22
489.10	447.04
489.28	491.51
489.46	395.55
489.64	390.87
489.81	435.34
489.99	346.40
490.17	414.27
490.35	505.56
490.53	393.21
490.70	437.68
490.88	461.09
491.06	372.15
491.24	444.70
491.41	381.51
491.59	463.43
491.77	444.70
491.95	388.53
492.13	386.19
492.30	390.87
492.48	360.44
492.66	442.36
492.84	425.98
493.01	414.27
493.19	320.65
493.37	430.66
493.54	496.19
493.72	475.13
493.90	442.36
494.08	416.62
494.25	379.17
494.43	383.85
494.61	442.36
494.79	423.64
494.96	362.78
495.14	444.70
495.32	433.00
495.49	423.64
495.67	381.51
495.85	458.74
496.02	416.62
496.20	447.04
496.38	465.77
496.55	416.62
496.73	418.96
496.91	404.91
497.09	407.25
497.26	430.66
497.44	409.59
497.62	416.62
497.79	395.55
497.97	454.06
498.14	444.70
498.32	442.36
498.50	409.59
498.67	409.59
498.85	407.25
499.03	332.36
499.20	397.89
499.38	404.91
499.56	376.83
499.73	491.51
499.91	465.77
500.08	440.02
500.26	475.13
500.44	498.53
500.61	409.59
500.79	374.49
500.97	433.00
501.14	535.98
501.32	442.36
501.49	458.74
501.67	362.78
501.84	442.36
502.02	475.13
502.20	402.57
502.37	306.61
502.55	472.79
502.72	400.23
502.90	402.57
503.07	390.87
503.25	449.38
503.43	423.64
503.60	409.59
503.78	369.80
503.95	388.53
504.13	433.00
504.30	390.87
504.48	454.06
504.65	381.51
504.83	493.85
505.01	421.30
505.18	477.47
505.36	390.87
505.53	369.80
505.71	430.66
505.88	390.87
506.06	418.96
506.23	379.17
506.41	369.80
506.58	491.51
506.76	404.91
506.93	458.74
507.11	388.53
507.28	435.34
507.46	367.46
507.63	451.72
507.81	411.93
507.98	369.80
508.16	465.77
508.33	503.22
508.50	397.89
508.68	463.43
508.85	451.72
509.03	402.57
509.20	404.91
509.38	395.55
509.55	475.13
509.73	463.43
509.90	447.04
510.08	435.34
510.25	433.00
510.42	416.62
510.60	421.30
510.77	418.96
510.95	514.92
511.12	362.78
511.30	468.11
511.47	416.62
511.64	454.06
511.82	435.34
511.99	379.17
512.17	390.87
512.34	442.36
512.51	433.00
512.69	346.40
512.86	447.04
513.04	456.40
513.21	484.49
513.38	397.89
513.56	409.59
513.73	421.30
513.90	461.09
514.08	440.02
514.25	365.12
514.43	397.89
514.60	411.93
514.77	461.09
514.95	397.89
515.12	461.09
515.29	449.38
515.47	416.62
515.64	381.51
515.81	402.57
515.99	423.64
516.16	374.49
516.33	430.66
516.51	496.19
516.68	416.62
516.85	388.53
517.03	449.38
517.20	442.36
517.37	376.83
517.54	458.74
517.72	407.25
517.89	437.68
518.06	379.17
518.24	458.74
518.41	447.04
518.58	393.21
518.75	388.53
518.93	393.21
519.10	390.87
519.27	404.91
519.45	414.27
519.62	484.49
519.79	383.85
519.96	369.80
520.14	461.09
520.31	435.34
520.48	409.59
520.65	388.53
520.83	463.43
521.00	437.68
521.17	322.99
521.34	374.49
521.52	461.09
521.69	418.96
521.86	374.49
522.03	381.51
522.20	395.55
522.38	430.66
522.55	491.51
522.72	315.97
522.89	435.34
523.07	423.64
523.24	425.98
523.41	414.27
523.58	416.62
523.75	393.21
523.92	318.31
524.10	390.87
524.27	447.04
524.44	407.25
524.61	416.62
524.78	428.32
524.96	482.15
525.13	379.17
525.30	470.45
525.47	362.78
525.64	353.42
525.81	421.30
525.98	437.68
526.16	400.23
526.33	393.21
526.50	388.53
526.67	355.76
526.84	393.21
527.01	400.23
527.18	404.91
527.36	404.91
527.53	397.89
527.70	447.04
527.87	435.34
528.04	435.34
528.21	381.51
528.38	397.89
528.55	461.09
528.72	449.38
528.89	437.68
529.07	402.57
529.24	411.93
529.41	437.68
529.58	465.77
529.75	435.34
529.92	435.34
530.09	409.59
530.26	348.74
530.43	411.93
530.60	456.40
530.77	496.19
530.94	407.25
531.11	444.70
531.28	435.34
531.46	358.10
531.63	461.09
531.80	472.79
531.97	421.30
532.14	360.44
532.31	430.66
532.48	372.15
532.65	470.45
532.82	379.17
532.99	449.38
533.16	416.62
533.33	397.89
533.50	451.72
533.67	423.64
533.84	451.72
534.01	383.85
534.18	383.85
534.35	433.00
534.52	362.78
534.69	458.74
534.86	313.63
535.03	437.68
535.20	400.23
535.37	428.32
535.54	376.83
535.71	346.40
535.88	400.23
536.05	451.72
536.22	428.32
536.38	411.93
536.55	440.02
536.72	447.04
536.89	423.64
537.06	367.46
537.23	414.27
537.40	409.59
537.57	388.53
537.74	437.68
537.91	437.68
538.08	449.38
538.25	472.79
538.42	348.74
538.59	449.38
538.75	381.51
538.92	386.19
539.09	416.62
539.26	421.30
539.43	449.38
539.60	458.74
539.77	395.55
539.94	454.06
540.11	423.64
540.28	451.72
540.44	442.36
540.61	395.55
540.78	409.59
540.95	409.59
541.12	449.38
541.29	386.19
541.46	447.04
541.62	388.53
541.79	458.74
541.96	456.40
542.13	313.63
542.30	393.21
542.47	435.34
542.63	447.04
542.80	479.81
542.97	472.79
543.14	388.53
543.31	447.04
543.48	425.98
543.64	379.17
543.81	418.96
543.98	423.64
544.15	409.59
544.32	400.23
544.48	425.98
544.65	407.25
544.82	430.66
544.99	383.85
545.16	526.62
545.32	407.25
545.49	435.34
545.66	430.66
545.83	423.64
546.00	447.04
546.16	383.85
546.33	388.53
546.50	435.34
546.67	468.11
546.83	514.92
547.00	409.59
547.17	383.85
547.34	397.89
547.50	433.00
547.67	365.12
547.84	465.77
548.00	449.38
548.17	425.98
548.34	383.85
548.51	402.57
548.67	465.77
548.84	423.64
549.01	421.30
549.18	404.91
549.34	430.66
549.51	351.08
549.68	435.34
549.84	442.36
550.01	411.93
550.18	458.74
550.34	416.62
550.51	365.12
550.68	423.64
550.84	411.93
551.01	479.81
551.18	472.79
551.34	430.66
551.51	430.66
551.68	423.64
551.84	444.70
552.01	407.25
552.18	397.89
552.34	383.85
552.51	381.51
552.68	428.32
552.84	372.15
553.01	407.25
553.18	414.27
553.34	365.12
553.51	404.91
553.67	414.27
553.84	477.47
554.01	376.83
554.17	430.66
554.34	425.98
554.51	477.47
554.67	381.51
554.84	390.87
555.00	484.49
555.17	400.23
555.33	369.80
555.50	444.70
555.67	440.02
555.83	348.74
556.00	409.59
556.16	573.43
556.33	479.81
556.50	463.43
556.66	367.46
556.83	402.57
556.99	456.40
557.16	423.64
557.32	440.02
557.49	383.85
557.65	447.04
557.82	379.17
557.98	418.96
558.15	402.57
558.32	383.85
558.48	374.49
558.65	437.68
558.81	447.04
558.98	395.55
559.14	411.93
559.31	386.19
559.47	449.38
559.64	390.87
559.80	479.81
559.97	320.65
560.13	386.19
560.30	390.87
560.46	393.21
560.63	381.51
560.79	362.78
560.96	334.70
561.12	383.85
561.29	395.55
561.45	409.59
561.61	416.62
561.78	454.06
561.94	440.02
562.11	411.93
562.27	437.68
562.44	461.09
562.60	388.53
562.77	376.83
562.93	491.51
563.10	425.98
563.26	479.81
563.42	425.98
563.59	409.59
563.75	449.38
563.92	444.70
564.08	442.36
564.24	451.72
564.41	425.98
564.57	451.72
564.74	369.80
564.90	433.00
565.07	395.55
565.23	442.36
565.39	437.68
565.56	428.32
565.72	351.08
565.88	358.10
566.05	423.64
566.21	440.02
566.38	517.26
566.54	409.59
566.70	418.96
566.87	372.15
567.03	397.89
567.19	414.27
567.36	416.62
567.52	414.27
567.68	362.78
567.85	423.64
568.01	388.53
568.17	381.51
568.34	425.98
568.50	437.68
568.66	479.81
568.83	444.70
568.99	496.19
569.15	468.11
569.32	421.30
569.48	388.53
569.64	353.42
569.81	362.78
569.97	489.17
570.13	470.45
570.30	414.27
570.46	437.68
570.62	458.74
570.78	435.34
570.95	346.40
571.11	411.93
571.27	447.04
571.43	416.62
571.60	425.98
571.76	393.21
571.92	461.09
572.09	404.91
572.25	416.62
572.41	425.98
572.57	400.23
572.74	390.87
572.90	372.15
573.06	400.23
573.22	369.80
573.38	423.64
573.55	390.87
573.71	416.62
573.87	440.02
574.03	411.93
574.20	402.57
574.36	449.38
574.52	386.19
574.68	407.25
574.84	388.53
575.01	374.49
575.17	367.46
575.33	423.64
575.49	402.57
575.65	390.87
575.82	421.30
575.98	491.51
576.14	386.19
576.30	414.27
576.46	447.04
576.62	440.02
576.79	390.87
576.95	395.55
577.11	365.12
577.27	327.68
577.43	402.57
577.59	472.79
577.75	465.77
577.92	468.11
578.08	400.23
578.24	383.85
578.40	414.27
578.56	472.79
578.72	463.43
578.88	477.47
579.04	381.51
579.21	482.15
579.37	381.51
579.53	444.70
579.69	416.62
579.85	440.02
580.01	428.32
580.17	355.76
580.33	390.87
580.49	411.93
580.65	430.66
580.82	463.43
580.98	416.62
581.14	433.00
581.30	400.23
581.46	376.83
581.62	437.68
581.78	418.96
581.94	468.11
582.10	327.68
582.26	353.42
582.42	411.93
582.58	409.59
582.74	425.98
582.90	409.59
583.06	500.87
583.22	395.55
583.38	348.74
583.54	468.11
583.70	475.13
583.86	402.57
584.02	332.36
584.18	421.30
584.34	433.00
584.50	411.93
584.66	416.62
584.82	428.32
584.98	379.17
585.14	374.49
585.30	491.51
585.46	379.17
585.62	428.32
585.78	503.22
585.94	418.96
586.10	411.93
586.26	435.34
586.42	470.45
586.58	493.85
586.74	400.23
586.90	425.98
587.06	355.76
587.22	449.38
587.38	381.51
587.54	348.74
587.70	463.43
587.86	482.15
588.02	337.04
588.18	440.02
588.34	451.72
588.49	358.10
588.65	421.30
588.81	428.32
588.97	379.17
589.13	376.83
589.29	393.21
589.45	468.11
589.61	351.08
589.77	470.45
589.93	458.74
590.08	447.04
590.24	416.62
590.40	454.06
590.56	409.59
590.72	465.77
590.88	442.36
591.04	409.59
591.20	444.70
591.35	386.19
591.51	444.70
591.67	435.34
591.83	449.38
591.99	425.98
592.15	470.45
592.31	400.23
592.46	425.98
592.62	486.83
592.78	465.77
592.94	451.72
593.10	433.00
593.26	444.70
593.41	414.27
593.57	374.49
593.73	337.04
593.89	404.91
594.05	442.36
594.20	423.64
594.36	425.98
594.52	437.68
594.68	402.57
594.84	383.85
594.99	440.02
595.15	418.96
595.31	442.36
595.47	477.47
595.62	320.65
595.78	367.46
595.94	397.89
596.10	496.19
596.25	376.83
596.41	390.87
596.57	421.30
596.73	428.32
596.88	440.02
597.04	390.87
597.20	355.76
597.36	416.62
597.51	381.51
597.67	360.44
597.83	397.89
597.99	456.40
598.14	465.77
598.30	397.89
598.46	449.38
598.61	442.36
598.77	479.81
598.93	381.51
599.09	425.98
599.24	367.46
599.40	482.15
599.56	442.36
599.71	390.87
599.87	393.21
600.03	390.87
600.18	388.53
600.34	423.64
600.50	400.23
600.65	409.59
600.81	482.15
600.97	447.04
601.12	456.40
601.28	386.19
601.44	404.91
601.59	381.51
601.75	393.21
601.91	346.40
602.06	353.42
602.22	421.30
602.37	472.79
602.53	397.89
602.69	379.17
602.84	454.06
603.00	435.34
603.16	379.17
603.31	477.47
603.47	402.57
603.62	311.29
603.78	430.66
603.94	482.15
604.09	395.55
604.25	468.11
604.40	418.96
604.56	461.09
604.71	393.21
604.87	437.68
605.03	367.46
605.18	388.53
605.34	407.25
605.49	451.72
605.65	484.49
605.80	362.78
605.96	301.93
606.12	451.72
606.27	447.04
606.43	409.59
606.58	456.40
606.74	397.89
606.89	397.89
607.05	402.57
607.20	381.51
607.36	440.02
607.51	477.47
607.67	465.77
607.82	404.91
607.98	402.57
608.13	463.43
608.29	447.04
608.44	437.68
608.60	369.80
608.75	498.53
608.91	423.64
609.06	418.96
609.22	491.51
609.37	442.36
609.53	444.70
609.68	437.68
609.84	409.59
609.99	444.70
610.15	543.00
