SpectraSuite Data File
++++++++++++++++++++++++++++++++++++
Date: Fri Oct 25 12:10:33 EDT 2013
User: price-jones
Dark Spectrum Present: No
Reference Spectrum Present: No
Number of Sampled Component Spectra: 1
Spectrometers: USB2+H05261
Integration Time (usec): 100000 (USB2+H05261)
Spectra Averaged: 1 (USB2+H05261)
Boxcar Smoothing: 0 (USB2+H05261)
Correct for Electrical Dark: No (USB2+H05261)
Strobe/Lamp Enabled: No (USB2+H05261)
Correct for Detector Non-linearity: No (USB2+H05261)
Correct for Stray Light: No (USB2+H05261)
Number of Pixels in Processed Spectrum: 2048
>>>>>Begin Processed Spectral Data<<<<<
365.73	344.06
365.92	344.06
366.12	344.06
366.32	252.78
366.52	248.10
366.72	259.80
366.91	222.35
367.11	227.03
367.31	217.67
367.51	255.12
367.70	278.52
367.90	259.80
368.10	220.01
368.30	264.48
368.49	283.20
368.69	245.76
368.89	184.90
369.09	273.84
369.28	290.23
369.48	287.89
369.68	322.99
369.87	276.18
370.07	287.89
370.27	374.49
370.47	341.72
370.66	313.63
370.86	400.23
371.06	407.25
371.25	381.51
371.45	351.08
371.65	524.28
371.84	344.06
372.04	388.53
372.24	395.55
372.44	337.04
372.63	362.78
372.83	444.70
373.03	423.64
373.22	458.74
373.42	454.06
373.62	416.62
373.81	437.68
374.01	433.00
374.21	435.34
374.40	407.25
374.60	468.11
374.79	442.36
374.99	409.59
375.19	402.57
375.38	423.64
375.58	404.91
375.78	463.43
375.97	379.17
376.17	468.11
376.37	416.62
376.56	353.42
376.76	423.64
376.95	425.98
377.15	404.91
377.35	381.51
377.54	390.87
377.74	344.06
377.93	397.89
378.13	416.62
378.33	433.00
378.52	360.44
378.72	355.76
378.91	435.34
379.11	421.30
379.31	449.38
379.50	404.91
379.70	416.62
379.89	381.51
380.09	416.62
380.28	379.17
380.48	400.23
380.68	430.66
380.87	449.38
381.07	374.49
381.26	411.93
381.46	407.25
381.65	388.53
381.85	383.85
382.04	416.62
382.24	449.38
382.43	388.53
382.63	393.21
382.83	383.85
383.02	411.93
383.22	433.00
383.41	355.76
383.61	388.53
383.80	383.85
384.00	416.62
384.19	461.09
384.39	414.27
384.58	416.62
384.78	367.46
384.97	383.85
385.17	367.46
385.36	397.89
385.56	388.53
385.75	346.40
385.95	402.57
386.14	430.66
386.34	372.15
386.53	430.66
386.72	416.62
386.92	482.15
387.11	416.62
387.31	390.87
387.50	379.17
387.70	404.91
387.89	416.62
388.09	400.23
388.28	367.46
388.48	381.51
388.67	393.21
388.86	346.40
389.06	362.78
389.25	418.96
389.45	369.80
389.64	423.64
389.84	362.78
390.03	418.96
390.22	414.27
390.42	344.06
390.61	348.74
390.81	327.68
391.00	362.78
391.19	376.83
391.39	449.38
391.58	402.57
391.78	407.25
391.97	428.32
392.16	463.43
392.36	421.30
392.55	444.70
392.75	425.98
392.94	425.98
393.13	372.15
393.33	400.23
393.52	423.64
393.71	486.83
393.91	346.40
394.10	414.27
394.29	411.93
394.49	437.68
394.68	407.25
394.88	355.76
395.07	400.23
395.26	355.76
395.46	430.66
395.65	477.47
395.84	376.83
396.04	475.13
396.23	379.17
396.42	367.46
396.62	411.93
396.81	409.59
397.00	381.51
397.19	381.51
397.39	362.78
397.58	470.45
397.77	365.12
397.97	353.42
398.16	409.59
398.35	404.91
398.55	339.38
398.74	388.53
398.93	414.27
399.12	341.72
399.32	425.98
399.51	416.62
399.70	531.30
399.90	411.93
400.09	411.93
400.28	416.62
400.47	444.70
400.67	463.43
400.86	411.93
401.05	470.45
401.24	374.49
401.44	379.17
401.63	444.70
401.82	369.80
402.01	339.38
402.21	409.59
402.40	372.15
402.59	348.74
402.78	379.17
402.97	475.13
403.17	332.36
403.36	423.64
403.55	451.72
403.74	421.30
403.93	402.57
404.13	498.53
404.32	433.00
404.51	425.98
404.70	395.55
404.89	353.42
405.09	456.40
405.28	367.46
405.47	374.49
405.66	447.04
405.85	409.59
406.05	353.42
406.24	346.40
406.43	421.30
406.62	414.27
406.81	395.55
407.00	440.02
407.20	449.38
407.39	397.89
407.58	376.83
407.77	444.70
407.96	491.51
408.15	407.25
408.34	407.25
408.54	353.42
408.73	404.91
408.92	353.42
409.11	454.06
409.30	407.25
409.49	334.70
409.68	344.06
409.87	414.27
410.07	374.49
410.26	367.46
410.45	381.51
410.64	360.44
410.83	409.59
411.02	463.43
411.21	418.96
411.40	334.70
411.59	416.62
411.78	407.25
411.98	472.79
412.17	421.30
412.36	327.68
412.55	346.40
412.74	404.91
412.93	414.27
413.12	409.59
413.31	425.98
413.50	454.06
413.69	390.87
413.88	416.62
414.07	397.89
414.26	383.85
414.45	358.10
414.64	348.74
414.83	407.25
415.02	451.72
415.22	456.40
415.41	470.45
415.60	346.40
415.79	425.98
415.98	430.66
416.17	425.98
416.36	379.17
416.55	414.27
416.74	425.98
416.93	400.23
417.12	372.15
417.31	414.27
417.50	390.87
417.69	477.47
417.88	458.74
418.07	456.40
418.26	428.32
418.45	433.00
418.64	437.68
418.83	418.96
419.02	414.27
419.21	444.70
419.39	404.91
419.58	351.08
419.77	313.63
419.96	416.62
420.15	383.85
420.34	416.62
420.53	383.85
420.72	444.70
420.91	425.98
421.10	486.83
421.29	390.87
421.48	404.91
421.67	430.66
421.86	425.98
422.05	430.66
422.24	433.00
422.43	423.64
422.61	428.32
422.80	360.44
422.99	376.83
423.18	461.09
423.37	409.59
423.56	418.96
423.75	397.89
423.94	414.27
424.13	374.49
424.32	390.87
424.50	355.76
424.69	393.21
424.88	435.34
425.07	337.04
425.26	449.38
425.45	400.23
425.64	414.27
425.83	402.57
426.01	414.27
426.20	428.32
426.39	440.02
426.58	463.43
426.77	374.49
426.96	411.93
427.15	332.36
427.33	407.25
427.52	411.93
427.71	367.46
427.90	353.42
428.09	425.98
428.28	351.08
428.46	381.51
428.65	430.66
428.84	390.87
429.03	421.30
429.22	414.27
429.40	369.80
429.59	386.19
429.78	416.62
429.97	442.36
430.16	472.79
430.34	397.89
430.53	482.15
430.72	444.70
430.91	470.45
431.10	348.74
431.28	388.53
431.47	386.19
431.66	381.51
431.85	367.46
432.03	418.96
432.22	404.91
432.41	454.06
432.60	390.87
432.79	386.19
432.97	355.76
433.16	360.44
433.35	393.21
433.54	388.53
433.72	402.57
433.91	458.74
434.10	393.21
434.28	407.25
434.47	400.23
434.66	416.62
434.85	411.93
435.03	428.32
435.22	505.56
435.41	440.02
435.59	418.96
435.78	416.62
435.97	383.85
436.16	463.43
436.34	421.30
436.53	428.32
436.72	397.89
436.90	414.27
437.09	491.51
437.28	416.62
437.46	402.57
437.65	339.38
437.84	444.70
438.02	435.34
438.21	402.57
438.40	425.98
438.58	367.46
438.77	414.27
438.96	355.76
439.14	449.38
439.33	435.34
439.52	353.42
439.70	423.64
439.89	444.70
440.08	423.64
440.26	458.74
440.45	444.70
440.63	416.62
440.82	414.27
441.01	369.80
441.19	395.55
441.38	425.98
441.57	425.98
441.75	418.96
441.94	374.49
442.12	449.38
442.31	400.23
442.50	421.30
442.68	423.64
442.87	454.06
443.05	421.30
443.24	369.80
443.43	461.09
443.61	472.79
443.80	360.44
443.98	458.74
444.17	444.70
444.35	425.98
444.54	372.15
444.73	334.70
444.91	440.02
445.10	379.17
445.28	390.87
445.47	437.68
445.65	351.08
445.84	433.00
446.02	351.08
446.21	435.34
446.39	407.25
446.58	435.34
446.77	311.29
446.95	367.46
447.14	381.51
447.32	435.34
447.51	477.47
447.69	407.25
447.88	376.83
448.06	379.17
448.25	418.96
448.43	376.83
448.62	458.74
448.80	414.27
448.99	369.80
449.17	449.38
449.36	421.30
449.54	428.32
449.73	423.64
449.91	423.64
450.10	339.38
450.28	447.04
450.46	458.74
450.65	458.74
450.83	360.44
451.02	402.57
451.20	351.08
451.39	376.83
451.57	433.00
451.76	381.51
451.94	365.12
452.13	489.17
452.31	491.51
452.49	442.36
452.68	423.64
452.86	348.74
453.05	390.87
453.23	461.09
453.42	388.53
453.60	409.59
453.78	428.32
453.97	411.93
454.15	423.64
454.34	442.36
454.52	353.42
454.70	383.85
454.89	421.30
455.07	414.27
455.26	409.59
455.44	379.17
455.62	416.62
455.81	468.11
455.99	402.57
456.17	430.66
456.36	402.57
456.54	411.93
456.73	367.46
456.91	390.87
457.09	381.51
457.28	489.17
457.46	365.12
457.64	421.30
457.83	437.68
458.01	447.04
458.19	376.83
458.38	360.44
458.56	360.44
458.74	461.09
458.93	404.91
459.11	449.38
459.29	447.04
459.48	404.91
459.66	468.11
459.84	416.62
460.03	416.62
460.21	449.38
460.39	404.91
460.57	395.55
460.76	428.32
460.94	351.08
461.12	505.56
461.31	421.30
461.49	353.42
461.67	482.15
461.85	435.34
462.04	400.23
462.22	751.31
462.40	358.10
462.59	425.98
462.77	425.98
462.95	409.59
463.13	437.68
463.32	362.78
463.50	409.59
463.68	463.43
463.86	397.89
464.05	409.59
464.23	365.12
464.41	397.89
464.59	425.98
464.78	393.21
464.96	367.46
465.14	447.04
465.32	430.66
465.50	510.24
465.69	407.25
465.87	383.85
466.05	482.15
466.23	440.02
466.41	421.30
466.60	407.25
466.78	430.66
466.96	435.34
467.14	425.98
467.32	383.85
467.51	454.06
467.69	444.70
467.87	507.90
468.05	376.83
468.23	458.74
468.41	430.66
468.60	425.98
468.78	425.98
468.96	430.66
469.14	374.49
469.32	381.51
469.50	395.55
469.69	414.27
469.87	430.66
470.05	365.12
470.23	346.40
470.41	414.27
470.59	388.53
470.77	425.98
470.95	355.76
471.14	421.30
471.32	367.46
471.50	395.55
471.68	433.00
471.86	444.70
472.04	376.83
472.22	383.85
472.40	461.09
472.58	430.66
472.77	470.45
472.95	362.78
473.13	379.17
473.31	451.72
473.49	428.32
473.67	425.98
473.85	461.09
474.03	393.21
474.21	388.53
474.39	440.02
474.57	400.23
474.75	379.17
474.93	383.85
475.12	395.55
475.30	388.53
475.48	423.64
475.66	400.23
475.84	388.53
476.02	409.59
476.20	456.40
476.38	444.70
476.56	482.15
476.74	418.96
476.92	332.36
477.10	360.44
477.28	409.59
477.46	425.98
477.64	414.27
477.82	367.46
478.00	341.72
478.18	442.36
478.36	407.25
478.54	435.34
478.72	440.02
478.90	369.80
479.08	449.38
479.26	461.09
479.44	381.51
479.62	430.66
479.80	372.15
479.98	416.62
480.16	393.21
480.34	437.68
480.52	491.51
480.70	390.87
480.88	365.12
481.06	402.57
481.24	468.11
481.41	367.46
481.59	407.25
481.77	468.11
481.95	369.80
482.13	430.66
482.31	475.13
482.49	362.78
482.67	374.49
482.85	421.30
483.03	402.57
483.21	400.23
483.39	388.53
483.57	367.46
483.74	397.89
483.92	425.98
484.10	409.59
484.28	425.98
484.46	456.40
484.64	409.59
484.82	402.57
485.00	428.32
485.18	395.55
485.35	454.06
485.53	372.15
485.71	444.70
485.89	425.98
486.07	360.44
486.25	540.66
486.43	402.57
486.61	423.64
486.78	435.34
486.96	411.93
487.14	395.55
487.32	393.21
487.50	461.09
487.68	477.47
487.85	374.49
488.03	482.15
488.21	517.26
488.39	367.46
488.57	367.46
488.75	421.30
488.92	407.25
489.10	365.12
489.28	458.74
489.46	449.38
489.64	454.06
489.81	393.21
489.99	353.42
490.17	421.30
490.35	514.92
490.53	355.76
490.70	400.23
490.88	372.15
491.06	360.44
491.24	428.32
491.41	386.19
491.59	409.59
491.77	367.46
491.95	465.77
492.13	444.70
492.30	390.87
492.48	402.57
492.66	430.66
492.84	425.98
493.01	468.11
493.19	379.17
493.37	489.17
493.54	435.34
493.72	365.12
493.90	416.62
494.08	376.83
494.25	451.72
494.43	440.02
494.61	418.96
494.79	367.46
494.96	362.78
495.14	433.00
495.32	421.30
495.49	372.15
495.67	538.32
495.85	440.02
496.02	447.04
496.20	449.38
496.38	386.19
496.55	442.36
496.73	379.17
496.91	402.57
497.09	407.25
497.26	414.27
497.44	468.11
497.62	407.25
497.79	383.85
497.97	334.70
498.14	421.30
498.32	411.93
498.50	418.96
498.67	428.32
498.85	353.42
499.03	477.47
499.20	489.17
499.38	393.21
499.56	428.32
499.73	472.79
499.91	442.36
500.08	442.36
500.26	456.40
500.44	407.25
500.61	414.27
500.79	346.40
500.97	400.23
501.14	519.60
501.32	383.85
501.49	472.79
501.67	430.66
501.84	369.80
502.02	376.83
502.20	404.91
502.37	454.06
502.55	404.91
502.72	437.68
502.90	360.44
503.07	337.04
503.25	435.34
503.43	390.87
503.60	367.46
503.78	472.79
503.95	407.25
504.13	381.51
504.30	351.08
504.48	451.72
504.65	454.06
504.83	393.21
505.01	388.53
505.18	458.74
505.36	470.45
505.53	449.38
505.71	372.15
505.88	374.49
506.06	402.57
506.23	444.70
506.41	409.59
506.58	400.23
506.76	358.10
506.93	379.17
507.11	463.43
507.28	454.06
507.46	418.96
507.63	367.46
507.81	461.09
507.98	454.06
508.16	315.97
508.33	437.68
508.50	437.68
508.68	433.00
508.85	397.89
509.03	388.53
509.20	421.30
509.38	451.72
509.55	521.94
509.73	526.62
509.90	397.89
510.08	355.76
510.25	421.30
510.42	383.85
510.60	430.66
510.77	449.38
510.95	437.68
511.12	397.89
511.30	348.74
511.47	367.46
511.64	440.02
511.82	423.64
511.99	411.93
512.17	451.72
512.34	430.66
512.51	376.83
512.69	397.89
512.86	416.62
513.04	425.98
513.21	472.79
513.38	451.72
513.56	437.68
513.73	358.10
513.90	400.23
514.08	411.93
514.25	423.64
514.43	484.49
514.60	416.62
514.77	416.62
514.95	409.59
515.12	395.55
515.29	475.13
515.47	388.53
515.64	393.21
515.81	404.91
515.99	437.68
516.16	463.43
516.33	414.27
516.51	395.55
516.68	503.22
516.85	304.27
517.03	442.36
517.20	411.93
517.37	468.11
517.54	470.45
517.72	418.96
517.89	393.21
518.06	433.00
518.24	451.72
518.41	411.93
518.58	411.93
518.75	449.38
518.93	400.23
519.10	449.38
519.27	418.96
519.45	435.34
519.62	440.02
519.79	402.57
519.96	418.96
520.14	418.96
520.31	428.32
520.48	390.87
520.65	393.21
520.83	433.00
521.00	365.12
521.17	449.38
521.34	414.27
521.52	428.32
521.69	454.06
521.86	353.42
522.03	451.72
522.20	369.80
522.38	365.12
522.55	463.43
522.72	407.25
522.89	428.32
523.07	482.15
523.24	411.93
523.41	355.76
523.58	383.85
523.75	456.40
523.92	334.70
524.10	360.44
524.27	430.66
524.44	416.62
524.61	414.27
524.78	479.81
524.96	409.59
525.13	428.32
525.30	416.62
525.47	360.44
525.64	404.91
525.81	414.27
525.98	418.96
526.16	351.08
526.33	423.64
526.50	341.72
526.67	428.32
526.84	353.42
527.01	456.40
527.18	337.04
527.36	435.34
527.53	393.21
527.70	367.46
527.87	421.30
528.04	500.87
528.21	444.70
528.38	465.77
528.55	404.91
528.72	402.57
528.89	454.06
529.07	425.98
529.24	430.66
529.41	372.15
529.58	395.55
529.75	409.59
529.92	440.02
530.09	341.72
530.26	400.23
530.43	367.46
530.60	339.38
530.77	393.21
530.94	484.49
531.11	397.89
531.28	348.74
531.46	416.62
531.63	444.70
531.80	388.53
531.97	430.66
532.14	383.85
532.31	447.04
532.48	454.06
532.65	395.55
532.82	353.42
532.99	435.34
533.16	442.36
533.33	390.87
533.50	411.93
533.67	383.85
533.84	416.62
534.01	447.04
534.18	444.70
534.35	423.64
534.52	381.51
534.69	393.21
534.86	482.15
535.03	421.30
535.20	409.59
535.37	425.98
535.54	393.21
535.71	393.21
535.88	423.64
536.05	465.77
536.22	379.17
536.38	393.21
536.55	475.13
536.72	449.38
536.89	355.76
537.06	388.53
537.23	383.85
537.40	484.49
537.57	353.42
537.74	482.15
537.91	327.68
538.08	428.32
538.25	404.91
538.42	362.78
538.59	477.47
538.75	416.62
538.92	454.06
539.09	500.87
539.26	390.87
539.43	423.64
539.60	379.17
539.77	435.34
539.94	386.19
540.11	440.02
540.28	449.38
540.44	428.32
540.61	440.02
540.78	407.25
540.95	381.51
541.12	418.96
541.29	390.87
541.46	468.11
541.62	449.38
541.79	428.32
541.96	404.91
542.13	451.72
542.30	418.96
542.47	418.96
542.63	379.17
542.80	456.40
542.97	444.70
543.14	397.89
543.31	407.25
543.48	397.89
543.64	425.98
543.81	404.91
543.98	407.25
544.15	407.25
544.32	449.38
544.48	477.47
544.65	414.27
544.82	383.85
544.99	449.38
545.16	416.62
545.32	395.55
545.49	400.23
545.66	404.91
545.83	374.49
546.00	341.72
546.16	397.89
546.33	379.17
546.50	416.62
546.67	437.68
546.83	442.36
547.00	397.89
547.17	383.85
547.34	404.91
547.50	367.46
547.67	386.19
547.84	402.57
548.00	409.59
548.17	449.38
548.34	376.83
548.51	428.32
548.67	477.47
548.84	404.91
549.01	395.55
549.18	367.46
549.34	407.25
549.51	461.09
549.68	383.85
549.84	379.17
550.01	393.21
550.18	451.72
550.34	468.11
550.51	454.06
550.68	414.27
550.84	472.79
551.01	430.66
551.18	395.55
551.34	437.68
551.51	458.74
551.68	337.04
551.84	395.55
552.01	351.08
552.18	433.00
552.34	379.17
552.51	421.30
552.68	348.74
552.84	409.59
553.01	468.11
553.18	360.44
553.34	404.91
553.51	393.21
553.67	468.11
553.84	533.64
554.01	395.55
554.17	388.53
554.34	447.04
554.51	435.34
554.67	447.04
554.84	388.53
555.00	456.40
555.17	337.04
555.33	341.72
555.50	433.00
555.67	388.53
555.83	458.74
556.00	465.77
556.16	543.00
556.33	470.45
556.50	461.09
556.66	430.66
556.83	479.81
556.99	454.06
557.16	489.17
557.32	421.30
557.49	397.89
557.65	489.17
557.82	397.89
557.98	367.46
558.15	362.78
558.32	461.09
558.48	383.85
558.65	397.89
558.81	369.80
558.98	425.98
559.14	397.89
559.31	477.47
559.47	381.51
559.64	409.59
559.80	423.64
559.97	400.23
560.13	402.57
560.30	395.55
560.46	404.91
560.63	397.89
560.79	437.68
560.96	440.02
561.12	418.96
561.29	360.44
561.45	425.98
561.61	402.57
561.78	489.17
561.94	477.47
562.11	456.40
562.27	409.59
562.44	433.00
562.60	355.76
562.77	421.30
562.93	461.09
563.10	430.66
563.26	470.45
563.42	498.53
563.59	423.64
563.75	397.89
563.92	411.93
564.08	433.00
564.24	465.77
564.41	444.70
564.57	440.02
564.74	475.13
564.90	360.44
565.07	418.96
565.23	386.19
565.39	409.59
565.56	444.70
565.72	425.98
565.88	437.68
566.05	365.12
566.21	341.72
566.38	360.44
566.54	418.96
566.70	433.00
566.87	430.66
567.03	397.89
567.19	390.87
567.36	395.55
567.52	367.46
567.68	414.27
567.85	447.04
568.01	409.59
568.17	383.85
568.34	437.68
568.50	409.59
568.66	447.04
568.83	500.87
568.99	367.46
569.15	475.13
569.32	411.93
569.48	449.38
569.64	503.22
569.81	379.17
569.97	400.23
570.13	400.23
570.30	444.70
570.46	475.13
570.62	376.83
570.78	407.25
570.95	416.62
571.11	404.91
571.27	447.04
571.43	451.72
571.60	440.02
571.76	421.30
571.92	400.23
572.09	383.85
572.25	393.21
572.41	433.00
572.57	365.12
572.74	430.66
572.90	393.21
573.06	463.43
573.22	428.32
573.38	472.79
573.55	463.43
573.71	407.25
573.87	456.40
574.03	425.98
574.20	454.06
574.36	440.02
574.52	416.62
574.68	416.62
574.84	341.72
575.01	362.78
575.17	435.34
575.33	414.27
575.49	421.30
575.65	447.04
575.82	465.77
575.98	437.68
576.14	437.68
576.30	454.06
576.46	308.95
576.62	425.98
576.79	404.91
576.95	498.53
577.11	414.27
577.27	367.46
577.43	498.53
577.59	390.87
577.75	388.53
577.92	381.51
578.08	397.89
578.24	407.25
578.40	393.21
578.56	407.25
578.72	461.09
578.88	465.77
579.04	447.04
579.21	489.17
579.37	456.40
579.53	430.66
579.69	421.30
579.85	374.49
580.01	414.27
580.17	397.89
580.33	402.57
580.49	437.68
580.65	463.43
580.82	437.68
580.98	367.46
581.14	437.68
581.30	442.36
581.46	400.23
581.62	468.11
581.78	372.15
581.94	456.40
582.10	463.43
582.26	334.70
582.42	437.68
582.58	440.02
582.74	421.30
582.90	404.91
583.06	507.90
583.22	449.38
583.38	416.62
583.54	416.62
583.70	423.64
583.86	400.23
584.02	425.98
584.18	409.59
584.34	468.11
584.50	358.10
584.66	390.87
584.82	388.53
584.98	416.62
585.14	416.62
585.30	411.93
585.46	381.51
585.62	367.46
585.78	440.02
585.94	402.57
586.10	395.55
586.26	442.36
586.42	461.09
586.58	386.19
586.74	451.72
586.90	423.64
587.06	458.74
587.22	409.59
587.38	400.23
587.54	337.04
587.70	404.91
587.86	442.36
588.02	400.23
588.18	332.36
588.34	414.27
588.49	451.72
588.65	407.25
588.81	407.25
588.97	425.98
589.13	383.85
589.29	383.85
589.45	397.89
589.61	435.34
589.77	463.43
589.93	430.66
590.08	351.08
590.24	390.87
590.40	381.51
590.56	444.70
590.72	369.80
590.88	458.74
591.04	409.59
591.20	418.96
591.35	444.70
591.51	421.30
591.67	404.91
591.83	346.40
591.99	437.68
592.15	372.15
592.31	451.72
592.46	456.40
592.62	428.32
592.78	465.77
592.94	376.83
593.10	390.87
593.26	430.66
593.41	393.21
593.57	390.87
593.73	407.25
593.89	465.77
594.05	423.64
594.20	393.21
594.36	465.77
594.52	374.49
594.68	311.29
594.84	425.98
594.99	454.06
595.15	491.51
595.31	437.68
595.47	383.85
595.62	409.59
595.78	409.59
595.94	372.15
596.10	430.66
596.25	418.96
596.41	433.00
596.57	470.45
596.73	451.72
596.88	428.32
597.04	451.72
597.20	388.53
597.36	456.40
597.51	418.96
597.67	437.68
597.83	379.17
597.99	367.46
598.14	425.98
598.30	421.30
598.46	400.23
598.61	472.79
598.77	390.87
598.93	435.34
599.09	390.87
599.24	435.34
599.40	447.04
599.56	402.57
599.71	449.38
599.87	414.27
600.03	409.59
600.18	416.62
600.34	498.53
600.50	449.38
600.65	353.42
600.81	468.11
600.97	409.59
601.12	461.09
601.28	484.49
601.44	390.87
601.59	425.98
601.75	414.27
601.91	437.68
602.06	444.70
602.22	458.74
602.37	479.81
602.53	344.06
602.69	318.31
602.84	423.64
603.00	395.55
603.16	390.87
603.31	421.30
603.47	351.08
603.62	423.64
603.78	390.87
603.94	435.34
604.09	418.96
604.25	435.34
604.40	456.40
604.56	397.89
604.71	547.69
604.87	341.72
605.03	414.27
605.18	341.72
605.34	397.89
605.49	472.79
605.65	486.83
605.80	355.76
605.96	449.38
606.12	454.06
606.27	458.74
606.43	433.00
606.58	449.38
606.74	402.57
606.89	365.12
607.05	393.21
607.20	447.04
607.36	430.66
607.51	411.93
607.67	334.70
607.82	386.19
607.98	369.80
608.13	458.74
608.29	388.53
608.44	437.68
608.60	418.96
608.75	437.68
608.91	440.02
609.06	465.77
609.22	416.62
609.37	388.53
609.53	425.98
609.68	395.55
609.84	353.42
609.99	325.33
610.15	393.21
