SpectraSuite Data File
++++++++++++++++++++++++++++++++++++
Date: Fri Oct 25 12:11:39 EDT 2013
User: price-jones
Dark Spectrum Present: No
Reference Spectrum Present: No
Number of Sampled Component Spectra: 1
Spectrometers: USB2+H05261
Integration Time (usec): 100000 (USB2+H05261)
Spectra Averaged: 1 (USB2+H05261)
Boxcar Smoothing: 0 (USB2+H05261)
Correct for Electrical Dark: No (USB2+H05261)
Strobe/Lamp Enabled: No (USB2+H05261)
Correct for Detector Non-linearity: No (USB2+H05261)
Correct for Stray Light: No (USB2+H05261)
Number of Pixels in Processed Spectrum: 2048
>>>>>Begin Processed Spectral Data<<<<<
365.73	346.40
365.92	346.40
366.12	346.40
366.32	255.12
366.52	285.55
366.72	278.52
366.91	330.02
367.11	287.89
367.31	220.01
367.51	255.12
367.70	294.91
367.90	245.76
368.10	245.76
368.30	308.95
368.49	217.67
368.69	255.12
368.89	215.33
369.09	294.91
369.28	322.99
369.48	205.97
369.68	304.27
369.87	308.95
370.07	283.20
370.27	299.59
370.47	297.25
370.66	332.36
370.86	318.31
371.06	358.10
371.25	339.38
371.45	390.87
371.65	397.89
371.84	463.43
372.04	418.96
372.24	367.46
372.44	400.23
372.63	442.36
372.83	390.87
373.03	344.06
373.22	376.83
373.42	390.87
373.62	390.87
373.81	479.81
374.01	411.93
374.21	437.68
374.40	451.72
374.60	479.81
374.79	421.30
374.99	475.13
375.19	451.72
375.38	351.08
375.58	381.51
375.78	346.40
375.97	465.77
376.17	461.09
376.37	486.83
376.56	451.72
376.76	456.40
376.95	468.11
377.15	430.66
377.35	451.72
377.54	421.30
377.74	379.17
377.93	442.36
378.13	381.51
378.33	423.64
378.52	395.55
378.72	388.53
378.91	456.40
379.11	416.62
379.31	418.96
379.50	458.74
379.70	388.53
379.89	332.36
380.09	411.93
380.28	365.12
380.48	414.27
380.68	365.12
380.87	407.25
381.07	411.93
381.26	374.49
381.46	447.04
381.65	386.19
381.85	346.40
382.04	407.25
382.24	447.04
382.43	421.30
382.63	362.78
382.83	346.40
383.02	416.62
383.22	393.21
383.41	313.63
383.61	421.30
383.80	358.10
384.00	414.27
384.19	404.91
384.39	386.19
384.58	421.30
384.78	360.44
384.97	400.23
385.17	337.04
385.36	376.83
385.56	369.80
385.75	330.02
385.95	430.66
386.14	458.74
386.34	285.55
386.53	381.51
386.72	376.83
386.92	390.87
387.11	418.96
387.31	437.68
387.50	428.32
387.70	395.55
387.89	367.46
388.09	451.72
388.28	397.89
388.48	416.62
388.67	433.00
388.86	390.87
389.06	383.85
389.25	344.06
389.45	463.43
389.64	423.64
389.84	440.02
390.03	416.62
390.22	550.03
390.42	416.62
390.61	397.89
390.81	411.93
391.00	383.85
391.19	461.09
391.39	416.62
391.58	381.51
391.78	496.19
391.97	449.38
392.16	411.93
392.36	463.43
392.55	379.17
392.75	414.27
392.94	376.83
393.13	409.59
393.33	397.89
393.52	372.15
393.71	395.55
393.91	449.38
394.10	393.21
394.29	390.87
394.49	388.53
394.68	425.98
394.88	440.02
395.07	386.19
395.26	393.21
395.46	402.57
395.65	425.98
395.84	374.49
396.04	435.34
396.23	430.66
396.42	423.64
396.62	468.11
396.81	365.12
397.00	421.30
397.19	372.15
397.39	407.25
397.58	486.83
397.77	386.19
397.97	465.77
398.16	461.09
398.35	341.72
398.55	386.19
398.74	404.91
398.93	447.04
399.12	454.06
399.32	479.81
399.51	491.51
399.70	393.21
399.90	444.70
400.09	458.74
400.28	400.23
400.47	407.25
400.67	461.09
400.86	388.53
401.05	421.30
401.24	433.00
401.44	444.70
401.63	454.06
401.82	475.13
402.01	395.55
402.21	463.43
402.40	437.68
402.59	407.25
402.78	344.06
402.97	411.93
403.17	442.36
403.36	442.36
403.55	393.21
403.74	395.55
403.93	409.59
404.13	411.93
404.32	379.17
404.51	367.46
404.70	393.21
404.89	430.66
405.09	433.00
405.28	383.85
405.47	388.53
405.66	381.51
405.85	411.93
406.05	400.23
406.24	433.00
406.43	421.30
406.62	397.89
406.81	393.21
407.00	360.44
407.20	500.87
407.39	416.62
407.58	472.79
407.77	416.62
407.96	414.27
408.15	491.51
408.34	433.00
408.54	475.13
408.73	451.72
408.92	402.57
409.11	409.59
409.30	351.08
409.49	313.63
409.68	383.85
409.87	472.79
410.07	407.25
410.26	416.62
410.45	421.30
410.64	369.80
410.83	395.55
411.02	369.80
411.21	482.15
411.40	440.02
411.59	407.25
411.78	346.40
411.98	435.34
412.17	404.91
412.36	418.96
412.55	433.00
412.74	416.62
412.93	411.93
413.12	411.93
413.31	421.30
413.50	379.17
413.69	472.79
413.88	454.06
414.07	421.30
414.26	425.98
414.45	425.98
414.64	456.40
414.83	416.62
415.02	416.62
415.22	388.53
415.41	407.25
415.60	383.85
415.79	393.21
415.98	369.80
416.17	381.51
416.36	358.10
416.55	355.76
416.74	444.70
416.93	486.83
417.12	423.64
417.31	355.76
417.50	353.42
417.69	482.15
417.88	383.85
418.07	367.46
418.26	461.09
418.45	365.12
418.64	430.66
418.83	416.62
419.02	425.98
419.21	362.78
419.39	437.68
419.58	304.27
419.77	411.93
419.96	444.70
420.15	416.62
420.34	437.68
420.53	433.00
420.72	365.12
420.91	397.89
421.10	379.17
421.29	444.70
421.48	437.68
421.67	440.02
421.86	390.87
422.05	430.66
422.24	414.27
422.43	374.49
422.61	433.00
422.80	414.27
422.99	465.77
423.18	430.66
423.37	418.96
423.56	454.06
423.75	404.91
423.94	423.64
424.13	397.89
424.32	451.72
424.50	470.45
424.69	435.34
424.88	456.40
425.07	404.91
425.26	465.77
425.45	404.91
425.64	351.08
425.83	503.22
426.01	393.21
426.20	374.49
426.39	430.66
426.58	379.17
426.77	393.21
426.96	489.17
427.15	407.25
427.33	484.49
427.52	421.30
427.71	418.96
427.90	479.81
428.09	383.85
428.28	458.74
428.46	383.85
428.65	400.23
428.84	430.66
429.03	458.74
429.22	477.47
429.40	442.36
429.59	400.23
429.78	402.57
429.97	393.21
430.16	400.23
430.34	470.45
430.53	425.98
430.72	393.21
430.91	421.30
431.10	423.64
431.28	355.76
431.47	454.06
431.66	409.59
431.85	463.43
432.03	454.06
432.22	507.90
432.41	409.59
432.60	465.77
432.79	418.96
432.97	367.46
433.16	379.17
433.35	540.66
433.54	381.51
433.72	423.64
433.91	430.66
434.10	407.25
434.28	461.09
434.47	430.66
434.66	395.55
434.85	341.72
435.03	423.64
435.22	440.02
435.41	463.43
435.59	472.79
435.78	437.68
435.97	388.53
436.16	430.66
436.34	461.09
436.53	395.55
436.72	409.59
436.90	430.66
437.09	458.74
437.28	402.57
437.46	381.51
437.65	437.68
437.84	379.17
438.02	503.22
438.21	379.17
438.40	402.57
438.58	358.10
438.77	418.96
438.96	500.87
439.14	435.34
439.33	442.36
439.52	477.47
439.70	416.62
439.89	425.98
440.08	425.98
440.26	447.04
440.45	400.23
440.63	395.55
440.82	395.55
441.01	330.02
441.19	449.38
441.38	411.93
441.57	397.89
441.75	393.21
441.94	400.23
442.12	388.53
442.31	465.77
442.50	390.87
442.68	381.51
442.87	379.17
443.05	479.81
443.24	468.11
443.43	486.83
443.61	468.11
443.80	444.70
443.98	383.85
444.17	386.19
444.35	395.55
444.54	397.89
444.73	423.64
444.91	409.59
445.10	416.62
445.28	428.32
445.47	435.34
445.65	437.68
445.84	386.19
446.02	409.59
446.21	430.66
446.39	463.43
446.58	397.89
446.77	358.10
446.95	409.59
447.14	461.09
447.32	442.36
447.51	433.00
447.69	468.11
447.88	421.30
448.06	444.70
448.25	388.53
448.43	425.98
448.62	440.02
448.80	411.93
448.99	482.15
449.17	423.64
449.36	447.04
449.54	418.96
449.73	404.91
449.91	409.59
450.10	435.34
450.28	369.80
450.46	456.40
450.65	458.74
450.83	475.13
451.02	421.30
451.20	322.99
451.39	402.57
451.57	465.77
451.76	383.85
451.94	407.25
452.13	479.81
452.31	463.43
452.49	454.06
452.68	381.51
452.86	383.85
453.05	409.59
453.23	423.64
453.42	454.06
453.60	451.72
453.78	308.95
453.97	402.57
454.15	381.51
454.34	365.12
454.52	449.38
454.70	456.40
454.89	414.27
455.07	435.34
455.26	477.47
455.44	486.83
455.62	402.57
455.81	428.32
455.99	383.85
456.17	454.06
456.36	404.91
456.54	447.04
456.73	491.51
456.91	400.23
457.09	454.06
457.28	411.93
457.46	456.40
457.64	463.43
457.83	381.51
458.01	440.02
458.19	437.68
458.38	388.53
458.56	435.34
458.74	414.27
458.93	442.36
459.11	402.57
459.29	388.53
459.48	482.15
459.66	451.72
459.84	416.62
460.03	484.49
460.21	491.51
460.39	435.34
460.57	402.57
460.76	332.36
460.94	379.17
461.12	444.70
461.31	465.77
461.49	407.25
461.67	388.53
461.85	484.49
462.04	383.85
462.22	763.01
462.40	423.64
462.59	475.13
462.77	461.09
462.95	322.99
463.13	374.49
463.32	437.68
463.50	411.93
463.68	367.46
463.86	407.25
464.05	379.17
464.23	456.40
464.41	435.34
464.59	433.00
464.78	454.06
464.96	369.80
465.14	388.53
465.32	425.98
465.50	421.30
465.69	348.74
465.87	482.15
466.05	411.93
466.23	475.13
466.41	444.70
466.60	381.51
466.78	411.93
466.96	475.13
467.14	409.59
467.32	388.53
467.51	461.09
467.69	402.57
467.87	475.13
468.05	418.96
468.23	472.79
468.41	416.62
468.60	407.25
468.78	440.02
468.96	437.68
469.14	486.83
469.32	376.83
469.50	404.91
469.69	451.72
469.87	437.68
470.05	449.38
470.23	440.02
470.41	362.78
470.59	390.87
470.77	435.34
470.95	362.78
471.14	437.68
471.32	449.38
471.50	463.43
471.68	416.62
471.86	414.27
472.04	433.00
472.22	486.83
472.40	358.10
472.58	341.72
472.77	411.93
472.95	411.93
473.13	440.02
473.31	489.17
473.49	400.23
473.67	435.34
473.85	451.72
474.03	437.68
474.21	407.25
474.39	444.70
474.57	477.47
474.75	365.12
474.93	351.08
475.12	418.96
475.30	306.61
475.48	435.34
475.66	365.12
475.84	414.27
476.02	479.81
476.20	423.64
476.38	390.87
476.56	472.79
476.74	458.74
476.92	421.30
477.10	402.57
477.28	423.64
477.46	414.27
477.64	458.74
477.82	430.66
478.00	379.17
478.18	421.30
478.36	447.04
478.54	428.32
478.72	383.85
478.90	461.09
479.08	383.85
479.26	418.96
479.44	430.66
479.62	430.66
479.80	327.68
479.98	346.40
480.16	351.08
480.34	332.36
480.52	362.78
480.70	440.02
480.88	386.19
481.06	358.10
481.24	437.68
481.41	393.21
481.59	535.98
481.77	369.80
481.95	491.51
482.13	465.77
482.31	425.98
482.49	468.11
482.67	423.64
482.85	372.15
483.03	449.38
483.21	346.40
483.39	407.25
483.57	369.80
483.74	372.15
483.92	381.51
484.10	379.17
484.28	393.21
484.46	451.72
484.64	395.55
484.82	393.21
485.00	493.85
485.18	440.02
485.35	442.36
485.53	414.27
485.71	416.62
485.89	360.44
486.07	418.96
486.25	475.13
486.43	477.47
486.61	367.46
486.78	458.74
486.96	411.93
487.14	442.36
487.32	418.96
487.50	400.23
487.68	449.38
487.85	402.57
488.03	409.59
488.21	444.70
488.39	440.02
488.57	416.62
488.75	423.64
488.92	484.49
489.10	411.93
489.28	482.15
489.46	341.72
489.64	430.66
489.81	428.32
489.99	411.93
490.17	374.49
490.35	484.49
490.53	458.74
490.70	341.72
490.88	358.10
491.06	414.27
491.24	442.36
491.41	468.11
491.59	456.40
491.77	430.66
491.95	388.53
492.13	381.51
492.30	470.45
492.48	327.68
492.66	334.70
492.84	346.40
493.01	458.74
493.19	341.72
493.37	456.40
493.54	414.27
493.72	393.21
493.90	428.32
494.08	442.36
494.25	468.11
494.43	407.25
494.61	367.46
494.79	355.76
494.96	477.47
495.14	386.19
495.32	435.34
495.49	397.89
495.67	449.38
495.85	358.10
496.02	407.25
496.20	416.62
496.38	341.72
496.55	390.87
496.73	414.27
496.91	372.15
497.09	470.45
497.26	433.00
497.44	435.34
497.62	458.74
497.79	428.32
497.97	442.36
498.14	430.66
498.32	493.85
498.50	407.25
498.67	386.19
498.85	374.49
499.03	341.72
499.20	503.22
499.38	404.91
499.56	491.51
499.73	381.51
499.91	521.94
500.08	451.72
500.26	505.56
500.44	423.64
500.61	491.51
500.79	386.19
500.97	505.56
501.14	421.30
501.32	400.23
501.49	407.25
501.67	449.38
501.84	461.09
502.02	433.00
502.20	414.27
502.37	437.68
502.55	404.91
502.72	383.85
502.90	376.83
503.07	332.36
503.25	393.21
503.43	362.78
503.60	475.13
503.78	374.49
503.95	456.40
504.13	400.23
504.30	482.15
504.48	451.72
504.65	444.70
504.83	360.44
505.01	383.85
505.18	531.30
505.36	440.02
505.53	360.44
505.71	362.78
505.88	435.34
506.06	428.32
506.23	369.80
506.41	435.34
506.58	498.53
506.76	374.49
506.93	418.96
507.11	386.19
507.28	447.04
507.46	402.57
507.63	341.72
507.81	374.49
507.98	447.04
508.16	433.00
508.33	395.55
508.50	435.34
508.68	414.27
508.85	304.27
509.03	407.25
509.20	372.15
509.38	477.47
509.55	421.30
509.73	404.91
509.90	477.47
510.08	407.25
510.25	470.45
510.42	372.15
510.60	484.49
510.77	433.00
510.95	447.04
511.12	442.36
511.30	383.85
511.47	435.34
511.64	519.60
511.82	472.79
511.99	411.93
512.17	430.66
512.34	423.64
512.51	383.85
512.69	395.55
512.86	463.43
513.04	383.85
513.21	386.19
513.38	456.40
513.56	421.30
513.73	423.64
513.90	428.32
514.08	416.62
514.25	407.25
514.43	337.04
514.60	388.53
514.77	435.34
514.95	435.34
515.12	362.78
515.29	367.46
515.47	418.96
515.64	402.57
515.81	416.62
515.99	386.19
516.16	414.27
516.33	428.32
516.51	386.19
516.68	418.96
516.85	383.85
517.03	423.64
517.20	411.93
517.37	416.62
517.54	454.06
517.72	435.34
517.89	418.96
518.06	444.70
518.24	390.87
518.41	433.00
518.58	395.55
518.75	470.45
518.93	418.96
519.10	470.45
519.27	425.98
519.45	386.19
519.62	458.74
519.79	411.93
519.96	411.93
520.14	435.34
520.31	463.43
520.48	376.83
520.65	411.93
520.83	334.70
521.00	400.23
521.17	411.93
521.34	414.27
521.52	388.53
521.69	479.81
521.86	425.98
522.03	411.93
522.20	369.80
522.38	365.12
522.55	456.40
522.72	456.40
522.89	458.74
523.07	367.46
523.24	454.06
523.41	449.38
523.58	383.85
523.75	435.34
523.92	322.99
524.10	421.30
524.27	456.40
524.44	400.23
524.61	400.23
524.78	379.17
524.96	430.66
525.13	454.06
525.30	468.11
525.47	402.57
525.64	440.02
525.81	505.56
525.98	397.89
526.16	418.96
526.33	397.89
526.50	461.09
526.67	414.27
526.84	397.89
527.01	353.42
527.18	414.27
527.36	440.02
527.53	353.42
527.70	428.32
527.87	411.93
528.04	416.62
528.21	400.23
528.38	437.68
528.55	458.74
528.72	425.98
528.89	414.27
529.07	421.30
529.24	414.27
529.41	397.89
529.58	411.93
529.75	416.62
529.92	496.19
530.09	472.79
530.26	418.96
530.43	404.91
530.60	407.25
530.77	313.63
530.94	369.80
531.11	416.62
531.28	379.17
531.46	425.98
531.63	437.68
531.80	433.00
531.97	463.43
532.14	447.04
532.31	372.15
532.48	463.43
532.65	414.27
532.82	423.64
532.99	339.38
533.16	423.64
533.33	435.34
533.50	454.06
533.67	435.34
533.84	386.19
534.01	421.30
534.18	514.92
534.35	383.85
534.52	397.89
534.69	374.49
534.86	369.80
535.03	407.25
535.20	400.23
535.37	376.83
535.54	383.85
535.71	435.34
535.88	493.85
536.05	339.38
536.22	477.47
536.38	498.53
536.55	407.25
536.72	411.93
536.89	472.79
537.06	372.15
537.23	451.72
537.40	440.02
537.57	437.68
537.74	440.02
537.91	444.70
538.08	416.62
538.25	428.32
538.42	407.25
538.59	341.72
538.75	400.23
538.92	390.87
539.09	465.77
539.26	433.00
539.43	477.47
539.60	428.32
539.77	477.47
539.94	449.38
540.11	337.04
540.28	447.04
540.44	465.77
540.61	425.98
540.78	386.19
540.95	381.51
541.12	440.02
541.29	444.70
541.46	461.09
541.62	484.49
541.79	461.09
541.96	475.13
542.13	421.30
542.30	430.66
542.47	416.62
542.63	386.19
542.80	383.85
542.97	477.47
543.14	367.46
543.31	409.59
543.48	454.06
543.64	472.79
543.81	444.70
543.98	447.04
544.15	376.83
544.32	447.04
544.48	454.06
544.65	437.68
544.82	451.72
544.99	433.00
545.16	372.15
545.32	411.93
545.49	444.70
545.66	423.64
545.83	407.25
546.00	430.66
546.16	407.25
546.33	421.30
546.50	430.66
546.67	451.72
546.83	451.72
547.00	397.89
547.17	440.02
547.34	430.66
547.50	465.77
547.67	367.46
547.84	395.55
548.00	365.12
548.17	411.93
548.34	440.02
548.51	468.11
548.67	390.87
548.84	390.87
549.01	454.06
549.18	425.98
549.34	409.59
549.51	449.38
549.68	372.15
549.84	470.45
550.01	418.96
550.18	503.22
550.34	451.72
550.51	414.27
550.68	454.06
550.84	353.42
551.01	444.70
551.18	376.83
551.34	393.21
551.51	468.11
551.68	425.98
551.84	409.59
552.01	430.66
552.18	414.27
552.34	355.76
552.51	435.34
552.68	402.57
552.84	344.06
553.01	447.04
553.18	404.91
553.34	423.64
553.51	362.78
553.67	381.51
553.84	409.59
554.01	400.23
554.17	437.68
554.34	463.43
554.51	465.77
554.67	465.77
554.84	451.72
555.00	433.00
555.17	390.87
555.33	372.15
555.50	416.62
555.67	444.70
555.83	418.96
556.00	451.72
556.16	543.00
556.33	397.89
556.50	428.32
556.66	454.06
556.83	425.98
556.99	423.64
557.16	461.09
557.32	400.23
557.49	409.59
557.65	397.89
557.82	409.59
557.98	463.43
558.15	437.68
558.32	376.83
558.48	379.17
558.65	397.89
558.81	395.55
558.98	372.15
559.14	451.72
559.31	435.34
559.47	430.66
559.64	407.25
559.80	444.70
559.97	428.32
560.13	418.96
560.30	421.30
560.46	411.93
560.63	402.57
560.79	407.25
560.96	374.49
561.12	423.64
561.29	465.77
561.45	482.15
561.61	425.98
561.78	454.06
561.94	461.09
562.11	379.17
562.27	437.68
562.44	404.91
562.60	437.68
562.77	381.51
562.93	440.02
563.10	362.78
563.26	435.34
563.42	407.25
563.59	465.77
563.75	458.74
563.92	400.23
564.08	414.27
564.24	397.89
564.41	421.30
564.57	421.30
564.74	390.87
564.90	461.09
565.07	470.45
565.23	477.47
565.39	355.76
565.56	383.85
565.72	425.98
565.88	428.32
566.05	390.87
566.21	442.36
566.38	416.62
566.54	423.64
566.70	414.27
566.87	358.10
567.03	442.36
567.19	435.34
567.36	367.46
567.52	388.53
567.68	407.25
567.85	388.53
568.01	442.36
568.17	351.08
568.34	414.27
568.50	442.36
568.66	395.55
568.83	468.11
568.99	479.81
569.15	444.70
569.32	411.93
569.48	381.51
569.64	365.12
569.81	479.81
569.97	351.08
570.13	442.36
570.30	489.17
570.46	376.83
570.62	414.27
570.78	421.30
570.95	449.38
571.11	395.55
571.27	393.21
571.43	400.23
571.60	367.46
571.76	416.62
571.92	442.36
572.09	390.87
572.25	376.83
572.41	400.23
572.57	386.19
572.74	503.22
572.90	430.66
573.06	402.57
573.22	491.51
573.38	470.45
573.55	386.19
573.71	444.70
573.87	507.90
574.03	482.15
574.20	430.66
574.36	421.30
574.52	425.98
574.68	397.89
574.84	341.72
575.01	430.66
575.17	428.32
575.33	393.21
575.49	472.79
575.65	444.70
575.82	458.74
575.98	416.62
576.14	444.70
576.30	433.00
576.46	449.38
576.62	447.04
576.79	430.66
576.95	454.06
577.11	425.98
577.27	435.34
577.43	458.74
577.59	418.96
577.75	372.15
577.92	397.89
578.08	449.38
578.24	442.36
578.40	390.87
578.56	386.19
578.72	421.30
578.88	407.25
579.04	344.06
579.21	423.64
579.37	388.53
579.53	484.49
579.69	491.51
579.85	402.57
580.01	421.30
580.17	397.89
580.33	440.02
580.49	435.34
580.65	437.68
580.82	402.57
580.98	395.55
581.14	386.19
581.30	400.23
581.46	444.70
581.62	409.59
581.78	425.98
581.94	454.06
582.10	351.08
582.26	423.64
582.42	458.74
582.58	327.68
582.74	454.06
582.90	369.80
583.06	479.81
583.22	404.91
583.38	458.74
583.54	400.23
583.70	386.19
583.86	475.13
584.02	437.68
584.18	449.38
584.34	458.74
584.50	393.21
584.66	437.68
584.82	407.25
584.98	442.36
585.14	493.85
585.30	393.21
585.46	418.96
585.62	430.66
585.78	395.55
585.94	456.40
586.10	437.68
586.26	449.38
586.42	435.34
586.58	435.34
586.74	437.68
586.90	411.93
587.06	416.62
587.22	461.09
587.38	400.23
587.54	421.30
587.70	430.66
587.86	444.70
588.02	489.17
588.18	482.15
588.34	414.27
588.49	383.85
588.65	449.38
588.81	437.68
588.97	461.09
589.13	418.96
589.29	440.02
589.45	365.12
589.61	433.00
589.77	456.40
589.93	393.21
590.08	402.57
590.24	440.02
590.40	404.91
590.56	435.34
590.72	386.19
590.88	440.02
591.04	440.02
591.20	442.36
591.35	482.15
591.51	458.74
591.67	390.87
591.83	435.34
591.99	409.59
592.15	468.11
592.31	367.46
592.46	397.89
592.62	437.68
592.78	451.72
592.94	393.21
593.10	388.53
593.26	365.12
593.41	365.12
593.57	397.89
593.73	425.98
593.89	322.99
594.05	409.59
594.20	397.89
594.36	461.09
594.52	358.10
594.68	433.00
594.84	475.13
594.99	435.34
595.15	444.70
595.31	360.44
595.47	486.83
595.62	402.57
595.78	433.00
595.94	423.64
596.10	397.89
596.25	428.32
596.41	486.83
596.57	393.21
596.73	425.98
596.88	421.30
597.04	425.98
597.20	376.83
597.36	454.06
597.51	475.13
597.67	411.93
597.83	362.78
597.99	454.06
598.14	437.68
598.30	360.44
598.46	381.51
598.61	449.38
598.77	353.42
598.93	435.34
599.09	365.12
599.24	348.74
599.40	482.15
599.56	416.62
599.71	451.72
599.87	416.62
600.03	395.55
600.18	433.00
600.34	425.98
600.50	428.32
600.65	395.55
600.81	454.06
600.97	351.08
601.12	440.02
601.28	402.57
601.44	414.27
601.59	339.38
601.75	521.94
601.91	402.57
602.06	365.12
602.22	428.32
602.37	367.46
602.53	388.53
602.69	454.06
602.84	322.99
603.00	447.04
603.16	421.30
603.31	369.80
603.47	400.23
603.62	344.06
603.78	449.38
603.94	346.40
604.09	449.38
604.25	395.55
604.40	470.45
604.56	379.17
604.71	351.08
604.87	454.06
605.03	414.27
605.18	526.62
605.34	514.92
605.49	390.87
605.65	463.43
605.80	397.89
605.96	418.96
606.12	428.32
606.27	425.98
606.43	383.85
606.58	407.25
606.74	465.77
606.89	493.85
607.05	458.74
607.20	390.87
607.36	475.13
607.51	395.55
607.67	435.34
607.82	402.57
607.98	479.81
608.13	456.40
608.29	486.83
608.44	493.85
608.60	360.44
608.75	433.00
608.91	423.64
609.06	442.36
609.22	423.64
609.37	416.62
609.53	430.66
609.68	397.89
609.84	397.89
609.99	393.21
610.15	416.62
