SpectraSuite Data File
++++++++++++++++++++++++++++++++++++
Date: Fri Oct 25 12:10:46 EDT 2013
User: price-jones
Dark Spectrum Present: No
Reference Spectrum Present: No
Number of Sampled Component Spectra: 1
Spectrometers: USB2+H05261
Integration Time (usec): 100000 (USB2+H05261)
Spectra Averaged: 1 (USB2+H05261)
Boxcar Smoothing: 0 (USB2+H05261)
Correct for Electrical Dark: No (USB2+H05261)
Strobe/Lamp Enabled: No (USB2+H05261)
Correct for Detector Non-linearity: No (USB2+H05261)
Correct for Stray Light: No (USB2+H05261)
Number of Pixels in Processed Spectrum: 2048
>>>>>Begin Processed Spectral Data<<<<<
365.73	374.49
365.92	374.49
366.12	374.49
366.32	234.05
366.52	180.22
366.72	304.27
366.91	243.42
367.11	180.22
367.31	243.42
367.51	205.97
367.70	250.44
367.90	278.52
368.10	264.48
368.30	262.14
368.49	184.90
368.69	203.63
368.89	243.42
369.09	224.69
369.28	301.93
369.48	301.93
369.68	285.55
369.87	313.63
370.07	271.50
370.27	381.51
370.47	346.40
370.66	358.10
370.86	365.12
371.06	344.06
371.25	374.49
371.45	372.15
371.65	407.25
371.84	348.74
372.04	341.72
372.24	425.98
372.44	360.44
372.63	407.25
372.83	421.30
373.03	414.27
373.22	430.66
373.42	447.04
373.62	414.27
373.81	442.36
374.01	393.21
374.21	416.62
374.40	477.47
374.60	433.00
374.79	418.96
374.99	400.23
375.19	451.72
375.38	386.19
375.58	414.27
375.78	447.04
375.97	465.77
376.17	447.04
376.37	400.23
376.56	421.30
376.76	449.38
376.95	475.13
377.15	454.06
377.35	437.68
377.54	383.85
377.74	430.66
377.93	421.30
378.13	425.98
378.33	456.40
378.52	437.68
378.72	362.78
378.91	409.59
379.11	351.08
379.31	442.36
379.50	358.10
379.70	407.25
379.89	461.09
380.09	348.74
380.28	388.53
380.48	414.27
380.68	369.80
380.87	388.53
381.07	388.53
381.26	421.30
381.46	440.02
381.65	440.02
381.85	444.70
382.04	470.45
382.24	416.62
382.43	421.30
382.63	372.15
382.83	454.06
383.02	454.06
383.22	514.92
383.41	386.19
383.61	397.89
383.80	444.70
384.00	353.42
384.19	430.66
384.39	433.00
384.58	372.15
384.78	390.87
384.97	447.04
385.17	423.64
385.36	379.17
385.56	372.15
385.75	369.80
385.95	397.89
386.14	414.27
386.34	393.21
386.53	430.66
386.72	416.62
386.92	454.06
387.11	423.64
387.31	400.23
387.50	367.46
387.70	442.36
387.89	393.21
388.09	367.46
388.28	374.49
388.48	407.25
388.67	470.45
388.86	407.25
389.06	447.04
389.25	418.96
389.45	423.64
389.64	461.09
389.84	456.40
390.03	409.59
390.22	449.38
390.42	416.62
390.61	346.40
390.81	360.44
391.00	376.83
391.19	440.02
391.39	388.53
391.58	407.25
391.78	379.17
391.97	461.09
392.16	472.79
392.36	491.51
392.55	444.70
392.75	400.23
392.94	397.89
393.13	393.21
393.33	388.53
393.52	379.17
393.71	475.13
393.91	435.34
394.10	435.34
394.29	402.57
394.49	414.27
394.68	395.55
394.88	348.74
395.07	358.10
395.26	374.49
395.46	372.15
395.65	390.87
395.84	397.89
396.04	463.43
396.23	393.21
396.42	444.70
396.62	517.26
396.81	362.78
397.00	388.53
397.19	379.17
397.39	376.83
397.58	339.38
397.77	416.62
397.97	428.32
398.16	421.30
398.35	374.49
398.55	411.93
398.74	407.25
398.93	346.40
399.12	461.09
399.32	416.62
399.51	416.62
399.70	379.17
399.90	461.09
400.09	414.27
400.28	414.27
400.47	369.80
400.67	451.72
400.86	423.64
401.05	425.98
401.24	376.83
401.44	458.74
401.63	404.91
401.82	374.49
402.01	395.55
402.21	358.10
402.40	400.23
402.59	421.30
402.78	365.12
402.97	367.46
403.17	435.34
403.36	404.91
403.55	418.96
403.74	435.34
403.93	447.04
404.13	388.53
404.32	330.02
404.51	362.78
404.70	390.87
404.89	402.57
405.09	430.66
405.28	362.78
405.47	411.93
405.66	341.72
405.85	428.32
406.05	360.44
406.24	372.15
406.43	376.83
406.62	400.23
406.81	428.32
407.00	409.59
407.20	409.59
407.39	395.55
407.58	407.25
407.77	395.55
407.96	416.62
408.15	393.21
408.34	416.62
408.54	372.15
408.73	393.21
408.92	393.21
409.11	337.04
409.30	393.21
409.49	402.57
409.68	409.59
409.87	337.04
410.07	395.55
410.26	397.89
410.45	418.96
410.64	369.80
410.83	367.46
411.02	475.13
411.21	428.32
411.40	444.70
411.59	383.85
411.78	369.80
411.98	355.76
412.17	428.32
412.36	442.36
412.55	372.15
412.74	447.04
412.93	362.78
413.12	423.64
413.31	423.64
413.50	463.43
413.69	372.15
413.88	376.83
414.07	461.09
414.26	411.93
414.45	409.59
414.64	442.36
414.83	414.27
415.02	381.51
415.22	372.15
415.41	444.70
415.60	423.64
415.79	369.80
415.98	341.72
416.17	376.83
416.36	407.25
416.55	416.62
416.74	447.04
416.93	465.77
417.12	409.59
417.31	407.25
417.50	428.32
417.69	388.53
417.88	437.68
418.07	414.27
418.26	493.85
418.45	421.30
418.64	404.91
418.83	425.98
419.02	379.17
419.21	407.25
419.39	500.87
419.58	435.34
419.77	442.36
419.96	451.72
420.15	430.66
420.34	381.51
420.53	458.74
420.72	444.70
420.91	477.47
421.10	435.34
421.29	458.74
421.48	379.17
421.67	381.51
421.86	449.38
422.05	461.09
422.24	418.96
422.43	337.04
422.61	388.53
422.80	407.25
422.99	367.46
423.18	404.91
423.37	437.68
423.56	369.80
423.75	404.91
423.94	402.57
424.13	374.49
424.32	414.27
424.50	367.46
424.69	414.27
424.88	386.19
425.07	390.87
425.26	411.93
425.45	369.80
425.64	418.96
425.83	388.53
426.01	435.34
426.20	379.17
426.39	465.77
426.58	463.43
426.77	348.74
426.96	383.85
427.15	479.81
427.33	407.25
427.52	362.78
427.71	383.85
427.90	381.51
428.09	355.76
428.28	454.06
428.46	402.57
428.65	463.43
428.84	458.74
429.03	423.64
429.22	327.68
429.40	461.09
429.59	358.10
429.78	442.36
429.97	367.46
430.16	430.66
430.34	355.76
430.53	376.83
430.72	376.83
430.91	486.83
431.10	334.70
431.28	475.13
431.47	447.04
431.66	395.55
431.85	416.62
432.03	496.19
432.22	397.89
432.41	397.89
432.60	451.72
432.79	411.93
432.97	433.00
433.16	444.70
433.35	388.53
433.54	367.46
433.72	454.06
433.91	390.87
434.10	372.15
434.28	409.59
434.47	418.96
434.66	395.55
434.85	369.80
435.03	390.87
435.22	442.36
435.41	458.74
435.59	381.51
435.78	400.23
435.97	386.19
436.16	414.27
436.34	489.17
436.53	428.32
436.72	477.47
436.90	400.23
437.09	397.89
437.28	390.87
437.46	393.21
437.65	477.47
437.84	428.32
438.02	442.36
438.21	454.06
438.40	404.91
438.58	440.02
438.77	414.27
438.96	411.93
439.14	416.62
439.33	456.40
439.52	414.27
439.70	400.23
439.89	440.02
440.08	425.98
440.26	442.36
440.45	374.49
440.63	369.80
440.82	365.12
441.01	390.87
441.19	416.62
441.38	444.70
441.57	503.22
441.75	470.45
441.94	369.80
442.12	435.34
442.31	393.21
442.50	341.72
442.68	528.96
442.87	409.59
443.05	411.93
443.24	351.08
443.43	456.40
443.61	423.64
443.80	470.45
443.98	386.19
444.17	510.24
444.35	491.51
444.54	435.34
444.73	388.53
444.91	355.76
445.10	362.78
445.28	383.85
445.47	428.32
445.65	461.09
445.84	442.36
446.02	374.49
446.21	339.38
446.39	318.31
446.58	498.53
446.77	421.30
446.95	388.53
447.14	435.34
447.32	376.83
447.51	379.17
447.69	395.55
447.88	418.96
448.06	425.98
448.25	433.00
448.43	456.40
448.62	430.66
448.80	365.12
448.99	379.17
449.17	390.87
449.36	376.83
449.54	402.57
449.73	418.96
449.91	404.91
450.10	440.02
450.28	433.00
450.46	409.59
450.65	437.68
450.83	404.91
451.02	421.30
451.20	482.15
451.39	402.57
451.57	402.57
451.76	402.57
451.94	393.21
452.13	390.87
452.31	440.02
452.49	395.55
452.68	418.96
452.86	411.93
453.05	472.79
453.23	407.25
453.42	404.91
453.60	463.43
453.78	444.70
453.97	414.27
454.15	416.62
454.34	374.49
454.52	409.59
454.70	449.38
454.89	393.21
455.07	386.19
455.26	348.74
455.44	503.22
455.62	400.23
455.81	440.02
455.99	404.91
456.17	397.89
456.36	400.23
456.54	435.34
456.73	365.12
456.91	374.49
457.09	397.89
457.28	374.49
457.46	435.34
457.64	416.62
457.83	442.36
458.01	367.46
458.19	376.83
458.38	430.66
458.56	404.91
458.74	484.49
458.93	388.53
459.11	330.02
459.29	376.83
459.48	475.13
459.66	470.45
459.84	388.53
460.03	477.47
460.21	442.36
460.39	454.06
460.57	388.53
460.76	414.27
460.94	472.79
461.12	414.27
461.31	388.53
461.49	404.91
461.67	362.78
461.85	416.62
462.04	374.49
462.22	748.97
462.40	379.17
462.59	423.64
462.77	402.57
462.95	411.93
463.13	400.23
463.32	388.53
463.50	430.66
463.68	393.21
463.86	442.36
464.05	447.04
464.23	414.27
464.41	390.87
464.59	395.55
464.78	411.93
464.96	367.46
465.14	428.32
465.32	379.17
465.50	369.80
465.69	425.98
465.87	425.98
466.05	390.87
466.23	400.23
466.41	395.55
466.60	388.53
466.78	435.34
466.96	503.22
467.14	435.34
467.32	451.72
467.51	393.21
467.69	388.53
467.87	465.77
468.05	416.62
468.23	383.85
468.41	477.47
468.60	416.62
468.78	423.64
468.96	411.93
469.14	430.66
469.32	498.53
469.50	311.29
469.69	409.59
469.87	376.83
470.05	433.00
470.23	505.56
470.41	449.38
470.59	386.19
470.77	444.70
470.95	355.76
471.14	383.85
471.32	400.23
471.50	435.34
471.68	430.66
471.86	372.15
472.04	376.83
472.22	428.32
472.40	369.80
472.58	407.25
472.77	395.55
472.95	395.55
473.13	465.77
473.31	456.40
473.49	447.04
473.67	400.23
473.85	461.09
474.03	468.11
474.21	409.59
474.39	400.23
474.57	512.58
474.75	428.32
474.93	437.68
475.12	442.36
475.30	447.04
475.48	358.10
475.66	369.80
475.84	386.19
476.02	404.91
476.20	388.53
476.38	404.91
476.56	435.34
476.74	425.98
476.92	404.91
477.10	381.51
477.28	409.59
477.46	411.93
477.64	493.85
477.82	374.49
478.00	393.21
478.18	327.68
478.36	425.98
478.54	414.27
478.72	397.89
478.90	437.68
479.08	440.02
479.26	404.91
479.44	407.25
479.62	400.23
479.80	433.00
479.98	362.78
480.16	411.93
480.34	400.23
480.52	386.19
480.70	421.30
480.88	393.21
481.06	388.53
481.24	353.42
481.41	440.02
481.59	411.93
481.77	379.17
481.95	393.21
482.13	407.25
482.31	428.32
482.49	365.12
482.67	404.91
482.85	416.62
483.03	447.04
483.21	507.90
483.39	358.10
483.57	393.21
483.74	447.04
483.92	435.34
484.10	351.08
484.28	397.89
484.46	449.38
484.64	458.74
484.82	367.46
485.00	454.06
485.18	397.89
485.35	496.19
485.53	379.17
485.71	414.27
485.89	458.74
486.07	351.08
486.25	433.00
486.43	397.89
486.61	433.00
486.78	465.77
486.96	435.34
487.14	388.53
487.32	372.15
487.50	447.04
487.68	414.27
487.85	425.98
488.03	421.30
488.21	498.53
488.39	425.98
488.57	409.59
488.75	435.34
488.92	493.85
489.10	348.74
489.28	489.17
489.46	367.46
489.64	404.91
489.81	395.55
489.99	449.38
490.17	395.55
490.35	440.02
490.53	444.70
490.70	454.06
490.88	475.13
491.06	425.98
491.24	400.23
491.41	365.12
491.59	430.66
491.77	390.87
491.95	449.38
492.13	430.66
492.30	437.68
492.48	344.06
492.66	437.68
492.84	381.51
493.01	386.19
493.19	374.49
493.37	482.15
493.54	418.96
493.72	498.53
493.90	421.30
494.08	442.36
494.25	421.30
494.43	423.64
494.61	454.06
494.79	425.98
494.96	383.85
495.14	409.59
495.32	404.91
495.49	353.42
495.67	404.91
495.85	395.55
496.02	322.99
496.20	421.30
496.38	414.27
496.55	362.78
496.73	463.43
496.91	365.12
497.09	386.19
497.26	374.49
497.44	437.68
497.62	482.15
497.79	465.77
497.97	440.02
498.14	372.15
498.32	425.98
498.50	381.51
498.67	444.70
498.85	381.51
499.03	456.40
499.20	400.23
499.38	374.49
499.56	425.98
499.73	454.06
499.91	381.51
500.08	475.13
500.26	395.55
500.44	444.70
500.61	418.96
500.79	435.34
500.97	454.06
501.14	425.98
501.32	463.43
501.49	475.13
501.67	416.62
501.84	442.36
502.02	430.66
502.20	456.40
502.37	449.38
502.55	400.23
502.72	400.23
502.90	440.02
503.07	454.06
503.25	461.09
503.43	372.15
503.60	461.09
503.78	404.91
503.95	397.89
504.13	400.23
504.30	407.25
504.48	449.38
504.65	360.44
504.83	397.89
505.01	416.62
505.18	468.11
505.36	428.32
505.53	393.21
505.71	393.21
505.88	407.25
506.06	383.85
506.23	449.38
506.41	376.83
506.58	447.04
506.76	379.17
506.93	416.62
507.11	400.23
507.28	360.44
507.46	393.21
507.63	465.77
507.81	402.57
507.98	517.26
508.16	402.57
508.33	430.66
508.50	451.72
508.68	447.04
508.85	397.89
509.03	386.19
509.20	461.09
509.38	447.04
509.55	519.60
509.73	456.40
509.90	430.66
510.08	395.55
510.25	433.00
510.42	409.59
510.60	468.11
510.77	447.04
510.95	437.68
511.12	409.59
511.30	379.17
511.47	463.43
511.64	409.59
511.82	430.66
511.99	418.96
512.17	440.02
512.34	472.79
512.51	416.62
512.69	346.40
512.86	451.72
513.04	423.64
513.21	395.55
513.38	418.96
513.56	360.44
513.73	416.62
513.90	351.08
514.08	465.77
514.25	454.06
514.43	414.27
514.60	435.34
514.77	428.32
514.95	362.78
515.12	414.27
515.29	489.17
515.47	369.80
515.64	383.85
515.81	433.00
515.99	465.77
516.16	498.53
516.33	423.64
516.51	451.72
516.68	435.34
516.85	428.32
517.03	404.91
517.20	423.64
517.37	362.78
517.54	358.10
517.72	346.40
517.89	386.19
518.06	376.83
518.24	404.91
518.41	440.02
518.58	423.64
518.75	355.76
518.93	407.25
519.10	404.91
519.27	353.42
519.45	369.80
519.62	433.00
519.79	386.19
519.96	386.19
520.14	449.38
520.31	409.59
520.48	369.80
520.65	360.44
520.83	414.27
521.00	449.38
521.17	461.09
521.34	430.66
521.52	423.64
521.69	400.23
521.86	500.87
522.03	411.93
522.20	395.55
522.38	425.98
522.55	433.00
522.72	390.87
522.89	454.06
523.07	465.77
523.24	400.23
523.41	409.59
523.58	416.62
523.75	388.53
523.92	465.77
524.10	381.51
524.27	507.90
524.44	444.70
524.61	451.72
524.78	402.57
524.96	379.17
525.13	393.21
525.30	409.59
525.47	465.77
525.64	400.23
525.81	428.32
525.98	409.59
526.16	388.53
526.33	346.40
526.50	390.87
526.67	444.70
526.84	390.87
527.01	400.23
527.18	372.15
527.36	423.64
527.53	404.91
527.70	414.27
527.87	400.23
528.04	477.47
528.21	454.06
528.38	381.51
528.55	390.87
528.72	428.32
528.89	468.11
529.07	454.06
529.24	423.64
529.41	500.87
529.58	433.00
529.75	414.27
529.92	458.74
530.09	346.40
530.26	425.98
530.43	395.55
530.60	411.93
530.77	468.11
530.94	430.66
531.11	423.64
531.28	376.83
531.46	416.62
531.63	456.40
531.80	381.51
531.97	407.25
532.14	456.40
532.31	472.79
532.48	388.53
532.65	491.51
532.82	362.78
532.99	414.27
533.16	381.51
533.33	353.42
533.50	369.80
533.67	393.21
533.84	433.00
534.01	395.55
534.18	477.47
534.35	404.91
534.52	407.25
534.69	409.59
534.86	421.30
535.03	397.89
535.20	447.04
535.37	416.62
535.54	393.21
535.71	409.59
535.88	437.68
536.05	365.12
536.22	423.64
536.38	404.91
536.55	475.13
536.72	425.98
536.89	416.62
537.06	435.34
537.23	393.21
537.40	381.51
537.57	369.80
537.74	400.23
537.91	414.27
538.08	468.11
538.25	433.00
538.42	379.17
538.59	437.68
538.75	397.89
538.92	407.25
539.09	435.34
539.26	463.43
539.43	437.68
539.60	402.57
539.77	379.17
539.94	379.17
540.11	475.13
540.28	409.59
540.44	470.45
540.61	425.98
540.78	416.62
540.95	388.53
541.12	458.74
541.29	416.62
541.46	433.00
541.62	383.85
541.79	400.23
541.96	430.66
542.13	463.43
542.30	465.77
542.47	444.70
542.63	395.55
542.80	397.89
542.97	383.85
543.14	472.79
543.31	337.04
543.48	416.62
543.64	390.87
543.81	404.91
543.98	393.21
544.15	390.87
544.32	440.02
544.48	374.49
544.65	397.89
544.82	372.15
544.99	407.25
545.16	374.49
545.32	461.09
545.49	477.47
545.66	404.91
545.83	381.51
546.00	383.85
546.16	454.06
546.33	470.45
546.50	414.27
546.67	376.83
546.83	430.66
547.00	383.85
547.17	435.34
547.34	332.36
547.50	339.38
547.67	437.68
547.84	402.57
548.00	498.53
548.17	395.55
548.34	393.21
548.51	425.98
548.67	470.45
548.84	400.23
549.01	449.38
549.18	510.24
549.34	454.06
549.51	425.98
549.68	423.64
549.84	428.32
550.01	381.51
550.18	505.56
550.34	433.00
550.51	437.68
550.68	414.27
550.84	395.55
551.01	383.85
551.18	334.70
551.34	440.02
551.51	444.70
551.68	437.68
551.84	435.34
552.01	351.08
552.18	386.19
552.34	397.89
552.51	388.53
552.68	461.09
552.84	444.70
553.01	437.68
553.18	425.98
553.34	433.00
553.51	423.64
553.67	360.44
553.84	421.30
554.01	437.68
554.17	421.30
554.34	437.68
554.51	421.30
554.67	479.81
554.84	435.34
555.00	423.64
555.17	463.43
555.33	374.49
555.50	402.57
555.67	510.24
555.83	425.98
556.00	479.81
556.16	545.34
556.33	461.09
556.50	376.83
556.66	402.57
556.83	383.85
556.99	423.64
557.16	447.04
557.32	411.93
557.49	411.93
557.65	416.62
557.82	425.98
557.98	423.64
558.15	449.38
558.32	365.12
558.48	381.51
558.65	425.98
558.81	409.59
558.98	407.25
559.14	486.83
559.31	411.93
559.47	468.11
559.64	430.66
559.80	451.72
559.97	344.06
560.13	404.91
560.30	388.53
560.46	365.12
560.63	341.72
560.79	470.45
560.96	421.30
561.12	411.93
561.29	428.32
561.45	383.85
561.61	369.80
561.78	395.55
561.94	367.46
562.11	463.43
562.27	390.87
562.44	397.89
562.60	447.04
562.77	372.15
562.93	510.24
563.10	512.58
563.26	407.25
563.42	482.15
563.59	402.57
563.75	505.56
563.92	468.11
564.08	369.80
564.24	404.91
564.41	454.06
564.57	402.57
564.74	409.59
564.90	423.64
565.07	456.40
565.23	449.38
565.39	416.62
565.56	362.78
565.72	320.65
565.88	437.68
566.05	454.06
566.21	367.46
566.38	369.80
566.54	360.44
566.70	423.64
566.87	435.34
567.03	423.64
567.19	397.89
567.36	435.34
567.52	383.85
567.68	465.77
567.85	425.98
568.01	404.91
568.17	379.17
568.34	435.34
568.50	428.32
568.66	327.68
568.83	435.34
568.99	421.30
569.15	421.30
569.32	416.62
569.48	407.25
569.64	374.49
569.81	348.74
569.97	454.06
570.13	477.47
570.30	489.17
570.46	388.53
570.62	437.68
570.78	372.15
570.95	416.62
571.11	421.30
571.27	456.40
571.43	437.68
571.60	447.04
571.76	470.45
571.92	468.11
572.09	463.43
572.25	477.47
572.41	402.57
572.57	416.62
572.74	421.30
572.90	390.87
573.06	411.93
573.22	325.33
573.38	397.89
573.55	433.00
573.71	440.02
573.87	397.89
574.03	369.80
574.20	435.34
574.36	486.83
574.52	421.30
574.68	414.27
574.84	454.06
575.01	386.19
575.17	379.17
575.33	442.36
575.49	423.64
575.65	425.98
575.82	414.27
575.98	416.62
576.14	409.59
576.30	440.02
576.46	433.00
576.62	425.98
576.79	411.93
576.95	386.19
577.11	444.70
577.27	362.78
577.43	409.59
577.59	433.00
577.75	437.68
577.92	353.42
578.08	414.27
578.24	425.98
578.40	458.74
578.56	440.02
578.72	393.21
578.88	414.27
579.04	425.98
579.21	475.13
579.37	454.06
579.53	442.36
579.69	404.91
579.85	362.78
580.01	402.57
580.17	362.78
580.33	418.96
580.49	423.64
580.65	463.43
580.82	367.46
580.98	374.49
581.14	379.17
581.30	418.96
581.46	397.89
581.62	435.34
581.78	402.57
581.94	463.43
582.10	435.34
582.26	451.72
582.42	423.64
582.58	414.27
582.74	383.85
582.90	332.36
583.06	435.34
583.22	411.93
583.38	383.85
583.54	437.68
583.70	330.02
583.86	404.91
584.02	409.59
584.18	418.96
584.34	414.27
584.50	369.80
584.66	416.62
584.82	390.87
584.98	416.62
585.14	447.04
585.30	437.68
585.46	463.43
585.62	379.17
585.78	404.91
585.94	451.72
586.10	341.72
586.26	423.64
586.42	428.32
586.58	477.47
586.74	416.62
586.90	437.68
587.06	428.32
587.22	388.53
587.38	376.83
587.54	383.85
587.70	425.98
587.86	475.13
588.02	414.27
588.18	430.66
588.34	423.64
588.49	355.76
588.65	367.46
588.81	355.76
588.97	444.70
589.13	435.34
589.29	454.06
589.45	458.74
589.61	390.87
589.77	444.70
589.93	463.43
590.08	404.91
590.24	430.66
590.40	472.79
590.56	440.02
590.72	365.12
590.88	407.25
591.04	454.06
591.20	454.06
591.35	447.04
591.51	407.25
591.67	390.87
591.83	388.53
591.99	416.62
592.15	465.77
592.31	404.91
592.46	407.25
592.62	484.49
592.78	437.68
592.94	423.64
593.10	470.45
593.26	393.21
593.41	379.17
593.57	402.57
593.73	456.40
593.89	461.09
594.05	428.32
594.20	451.72
594.36	411.93
594.52	386.19
594.68	386.19
594.84	491.51
594.99	454.06
595.15	367.46
595.31	433.00
595.47	451.72
595.62	440.02
595.78	414.27
595.94	395.55
596.10	358.10
596.25	390.87
596.41	463.43
596.57	386.19
596.73	411.93
596.88	346.40
597.04	402.57
597.20	367.46
597.36	479.81
597.51	311.29
597.67	374.49
597.83	390.87
597.99	468.11
598.14	425.98
598.30	409.59
598.46	472.79
598.61	367.46
598.77	461.09
598.93	433.00
599.09	444.70
599.24	411.93
599.40	376.83
599.56	402.57
599.71	477.47
599.87	425.98
600.03	433.00
600.18	395.55
600.34	390.87
600.50	479.81
600.65	386.19
600.81	430.66
600.97	402.57
601.12	477.47
601.28	433.00
601.44	442.36
601.59	379.17
601.75	404.91
601.91	414.27
602.06	388.53
602.22	430.66
602.37	442.36
602.53	344.06
602.69	416.62
602.84	425.98
603.00	360.44
603.16	463.43
603.31	416.62
603.47	475.13
603.62	346.40
603.78	423.64
603.94	416.62
604.09	500.87
604.25	365.12
604.40	386.19
604.56	400.23
604.71	346.40
604.87	395.55
605.03	421.30
605.18	418.96
605.34	428.32
605.49	400.23
605.65	491.51
605.80	465.77
605.96	463.43
606.12	454.06
606.27	437.68
606.43	433.00
606.58	442.36
606.74	444.70
606.89	409.59
607.05	418.96
607.20	365.12
607.36	498.53
607.51	458.74
607.67	449.38
607.82	365.12
607.98	390.87
608.13	437.68
608.29	416.62
608.44	416.62
608.60	465.77
608.75	402.57
608.91	353.42
609.06	400.23
609.22	402.57
609.37	433.00
609.53	430.66
609.68	421.30
609.84	411.93
609.99	383.85
610.15	423.64
