SpectraSuite Data File
++++++++++++++++++++++++++++++++++++
Date: Fri Oct 25 12:10:49 EDT 2013
User: price-jones
Dark Spectrum Present: No
Reference Spectrum Present: No
Number of Sampled Component Spectra: 1
Spectrometers: USB2+H05261
Integration Time (usec): 100000 (USB2+H05261)
Spectra Averaged: 1 (USB2+H05261)
Boxcar Smoothing: 0 (USB2+H05261)
Correct for Electrical Dark: No (USB2+H05261)
Strobe/Lamp Enabled: No (USB2+H05261)
Correct for Detector Non-linearity: No (USB2+H05261)
Correct for Stray Light: No (USB2+H05261)
Number of Pixels in Processed Spectrum: 2048
>>>>>Begin Processed Spectral Data<<<<<
365.73	322.99
365.92	322.99
366.12	322.99
366.32	271.50
366.52	198.95
366.72	210.65
366.91	252.78
367.11	166.18
367.31	215.33
367.51	229.37
367.70	257.46
367.90	273.84
368.10	191.92
368.30	231.71
368.49	224.69
368.69	250.44
368.89	259.80
369.09	252.78
369.28	215.33
369.48	248.10
369.68	231.71
369.87	297.25
370.07	248.10
370.27	318.31
370.47	351.08
370.66	325.33
370.86	306.61
371.06	337.04
371.25	376.83
371.45	395.55
371.65	344.06
371.84	337.04
372.04	351.08
372.24	407.25
372.44	381.51
372.63	411.93
372.83	395.55
373.03	376.83
373.22	402.57
373.42	381.51
373.62	390.87
373.81	496.19
374.01	421.30
374.21	418.96
374.40	423.64
374.60	437.68
374.79	358.10
374.99	442.36
375.19	421.30
375.38	533.64
375.58	351.08
375.78	442.36
375.97	369.80
376.17	454.06
376.37	344.06
376.56	397.89
376.76	454.06
376.95	435.34
377.15	386.19
377.35	440.02
377.54	430.66
377.74	388.53
377.93	348.74
378.13	365.12
378.33	416.62
378.52	430.66
378.72	404.91
378.91	383.85
379.11	402.57
379.31	372.15
379.50	400.23
379.70	393.21
379.89	395.55
380.09	447.04
380.28	447.04
380.48	423.64
380.68	407.25
380.87	334.70
381.07	344.06
381.26	393.21
381.46	400.23
381.65	379.17
381.85	463.43
382.04	365.12
382.24	353.42
382.43	442.36
382.63	351.08
382.83	409.59
383.02	425.98
383.22	444.70
383.41	421.30
383.61	416.62
383.80	409.59
384.00	358.10
384.19	416.62
384.39	402.57
384.58	404.91
384.78	388.53
384.97	379.17
385.17	407.25
385.36	409.59
385.56	414.27
385.75	416.62
385.95	379.17
386.14	397.89
386.34	393.21
386.53	416.62
386.72	386.19
386.92	397.89
387.11	388.53
387.31	435.34
387.50	416.62
387.70	383.85
387.89	404.91
388.09	437.68
388.28	425.98
388.48	360.44
388.67	379.17
388.86	376.83
389.06	437.68
389.25	332.36
389.45	379.17
389.64	360.44
389.84	409.59
390.03	390.87
390.22	449.38
390.42	421.30
390.61	470.45
390.81	435.34
391.00	348.74
391.19	416.62
391.39	395.55
391.58	421.30
391.78	404.91
391.97	449.38
392.16	430.66
392.36	472.79
392.55	461.09
392.75	346.40
392.94	397.89
393.13	447.04
393.33	383.85
393.52	404.91
393.71	442.36
393.91	339.38
394.10	379.17
394.29	346.40
394.49	372.15
394.68	428.32
394.88	425.98
395.07	395.55
395.26	411.93
395.46	472.79
395.65	458.74
395.84	395.55
396.04	463.43
396.23	386.19
396.42	400.23
396.62	425.98
396.81	484.49
397.00	421.30
397.19	395.55
397.39	428.32
397.58	383.85
397.77	397.89
397.97	397.89
398.16	461.09
398.35	334.70
398.55	341.72
398.74	425.98
398.93	428.32
399.12	397.89
399.32	346.40
399.51	430.66
399.70	407.25
399.90	423.64
400.09	381.51
400.28	379.17
400.47	402.57
400.67	416.62
400.86	334.70
401.05	470.45
401.24	435.34
401.44	433.00
401.63	484.49
401.82	468.11
402.01	423.64
402.21	381.51
402.40	468.11
402.59	360.44
402.78	411.93
402.97	346.40
403.17	428.32
403.36	372.15
403.55	376.83
403.74	479.81
403.93	421.30
404.13	383.85
404.32	365.12
404.51	425.98
404.70	416.62
404.89	393.21
405.09	430.66
405.28	444.70
405.47	423.64
405.66	451.72
405.85	456.40
406.05	360.44
406.24	404.91
406.43	423.64
406.62	397.89
406.81	397.89
407.00	397.89
407.20	430.66
407.39	463.43
407.58	397.89
407.77	381.51
407.96	435.34
408.15	411.93
408.34	475.13
408.54	304.27
408.73	449.38
408.92	341.72
409.11	409.59
409.30	372.15
409.49	369.80
409.68	379.17
409.87	416.62
410.07	322.99
410.26	404.91
410.45	421.30
410.64	458.74
410.83	376.83
411.02	388.53
411.21	472.79
411.40	465.77
411.59	421.30
411.78	409.59
411.98	376.83
412.17	397.89
412.36	379.17
412.55	423.64
412.74	428.32
412.93	440.02
413.12	376.83
413.31	479.81
413.50	362.78
413.69	416.62
413.88	409.59
414.07	395.55
414.26	411.93
414.45	428.32
414.64	365.12
414.83	418.96
415.02	463.43
415.22	332.36
415.41	390.87
415.60	383.85
415.79	397.89
415.98	407.25
416.17	435.34
416.36	362.78
416.55	447.04
416.74	416.62
416.93	433.00
417.12	346.40
417.31	339.38
417.50	407.25
417.69	416.62
417.88	376.83
418.07	395.55
418.26	381.51
418.45	386.19
418.64	383.85
418.83	409.59
419.02	411.93
419.21	397.89
419.39	358.10
419.58	409.59
419.77	379.17
419.96	449.38
420.15	414.27
420.34	383.85
420.53	468.11
420.72	416.62
420.91	397.89
421.10	440.02
421.29	425.98
421.48	383.85
421.67	449.38
421.86	423.64
422.05	388.53
422.24	400.23
422.43	358.10
422.61	402.57
422.80	383.85
422.99	393.21
423.18	348.74
423.37	440.02
423.56	418.96
423.75	423.64
423.94	374.49
424.13	388.53
424.32	416.62
424.50	381.51
424.69	339.38
424.88	482.15
425.07	444.70
425.26	428.32
425.45	442.36
425.64	301.93
425.83	454.06
426.01	470.45
426.20	465.77
426.39	337.04
426.58	425.98
426.77	393.21
426.96	449.38
427.15	388.53
427.33	393.21
427.52	418.96
427.71	409.59
427.90	407.25
428.09	344.06
428.28	383.85
428.46	454.06
428.65	390.87
428.84	421.30
429.03	407.25
429.22	428.32
429.40	430.66
429.59	468.11
429.78	339.38
429.97	461.09
430.16	395.55
430.34	472.79
430.53	430.66
430.72	390.87
430.91	428.32
431.10	404.91
431.28	372.15
431.47	451.72
431.66	344.06
431.85	442.36
432.03	409.59
432.22	507.90
432.41	402.57
432.60	475.13
432.79	409.59
432.97	451.72
433.16	451.72
433.35	374.49
433.54	402.57
433.72	409.59
433.91	496.19
434.10	433.00
434.28	404.91
434.47	379.17
434.66	456.40
434.85	376.83
435.03	449.38
435.22	418.96
435.41	451.72
435.59	414.27
435.78	402.57
435.97	411.93
436.16	428.32
436.34	451.72
436.53	428.32
436.72	414.27
436.90	369.80
437.09	449.38
437.28	372.15
437.46	404.91
437.65	325.33
437.84	404.91
438.02	458.74
438.21	407.25
438.40	393.21
438.58	442.36
438.77	435.34
438.96	369.80
439.14	344.06
439.33	451.72
439.52	358.10
439.70	425.98
439.89	465.77
440.08	496.19
440.26	374.49
440.45	411.93
440.63	414.27
440.82	489.17
441.01	425.98
441.19	423.64
441.38	351.08
441.57	470.45
441.75	341.72
441.94	407.25
442.12	367.46
442.31	362.78
442.50	381.51
442.68	407.25
442.87	447.04
443.05	440.02
443.24	372.15
443.43	390.87
443.61	463.43
443.80	383.85
443.98	369.80
444.17	353.42
444.35	444.70
444.54	393.21
444.73	414.27
444.91	458.74
445.10	383.85
445.28	397.89
445.47	397.89
445.65	344.06
445.84	379.17
446.02	341.72
446.21	383.85
446.39	390.87
446.58	437.68
446.77	402.57
446.95	379.17
447.14	393.21
447.32	498.53
447.51	365.12
447.69	418.96
447.88	379.17
448.06	400.23
448.25	374.49
448.43	404.91
448.62	435.34
448.80	348.74
448.99	390.87
449.17	418.96
449.36	461.09
449.54	435.34
449.73	402.57
449.91	472.79
450.10	411.93
450.28	550.03
450.46	449.38
450.65	379.17
450.83	386.19
451.02	395.55
451.20	351.08
451.39	376.83
451.57	423.64
451.76	407.25
451.94	435.34
452.13	390.87
452.31	442.36
452.49	390.87
452.68	411.93
452.86	421.30
453.05	463.43
453.23	360.44
453.42	376.83
453.60	386.19
453.78	440.02
453.97	416.62
454.15	395.55
454.34	397.89
454.52	409.59
454.70	414.27
454.89	409.59
455.07	346.40
455.26	402.57
455.44	475.13
455.62	407.25
455.81	402.57
455.99	390.87
456.17	444.70
456.36	372.15
456.54	383.85
456.73	407.25
456.91	395.55
457.09	449.38
457.28	402.57
457.46	388.53
457.64	430.66
457.83	468.11
458.01	386.19
458.19	346.40
458.38	465.77
458.56	397.89
458.74	379.17
458.93	383.85
459.11	414.27
459.29	369.80
459.48	425.98
459.66	397.89
459.84	397.89
460.03	512.58
460.21	421.30
460.39	402.57
460.57	383.85
460.76	442.36
460.94	397.89
461.12	383.85
461.31	461.09
461.49	465.77
461.67	442.36
461.85	451.72
462.04	435.34
462.22	758.33
462.40	468.11
462.59	423.64
462.77	390.87
462.95	404.91
463.13	379.17
463.32	454.06
463.50	465.77
463.68	449.38
463.86	351.08
464.05	395.55
464.23	461.09
464.41	409.59
464.59	456.40
464.78	390.87
464.96	397.89
465.14	416.62
465.32	463.43
465.50	440.02
465.69	414.27
465.87	388.53
466.05	404.91
466.23	402.57
466.41	383.85
466.60	397.89
466.78	407.25
466.96	416.62
467.14	433.00
467.32	449.38
467.51	346.40
467.69	416.62
467.87	482.15
468.05	365.12
468.23	430.66
468.41	400.23
468.60	367.46
468.78	386.19
468.96	430.66
469.14	353.42
469.32	376.83
469.50	444.70
469.69	416.62
469.87	402.57
470.05	423.64
470.23	351.08
470.41	409.59
470.59	334.70
470.77	442.36
470.95	425.98
471.14	489.17
471.32	400.23
471.50	465.77
471.68	451.72
471.86	414.27
472.04	376.83
472.22	465.77
472.40	461.09
472.58	435.34
472.77	404.91
472.95	444.70
473.13	423.64
473.31	486.83
473.49	465.77
473.67	351.08
473.85	353.42
474.03	465.77
474.21	362.78
474.39	444.70
474.57	395.55
474.75	402.57
474.93	416.62
475.12	418.96
475.30	362.78
475.48	428.32
475.66	386.19
475.84	425.98
476.02	400.23
476.20	433.00
476.38	376.83
476.56	425.98
476.74	393.21
476.92	418.96
477.10	456.40
477.28	418.96
477.46	430.66
477.64	421.30
477.82	437.68
478.00	435.34
478.18	400.23
478.36	374.49
478.54	442.36
478.72	421.30
478.90	442.36
479.08	379.17
479.26	383.85
479.44	409.59
479.62	362.78
479.80	346.40
479.98	430.66
480.16	423.64
480.34	444.70
480.52	451.72
480.70	383.85
480.88	334.70
481.06	433.00
481.24	430.66
481.41	482.15
481.59	374.49
481.77	388.53
481.95	428.32
482.13	423.64
482.31	355.76
482.49	423.64
482.67	353.42
482.85	400.23
483.03	397.89
483.21	369.80
483.39	386.19
483.57	425.98
483.74	402.57
483.92	376.83
484.10	418.96
484.28	435.34
484.46	484.49
484.64	440.02
484.82	421.30
485.00	421.30
485.18	423.64
485.35	409.59
485.53	423.64
485.71	484.49
485.89	395.55
486.07	414.27
486.25	479.81
486.43	503.22
486.61	444.70
486.78	409.59
486.96	421.30
487.14	395.55
487.32	456.40
487.50	451.72
487.68	447.04
487.85	418.96
488.03	430.66
488.21	393.21
488.39	393.21
488.57	397.89
488.75	365.12
488.92	388.53
489.10	428.32
489.28	463.43
489.46	454.06
489.64	407.25
489.81	416.62
489.99	423.64
490.17	447.04
490.35	458.74
490.53	461.09
490.70	477.47
490.88	395.55
491.06	358.10
491.24	456.40
491.41	454.06
491.59	351.08
491.77	358.10
491.95	376.83
492.13	390.87
492.30	400.23
492.48	414.27
492.66	430.66
492.84	423.64
493.01	409.59
493.19	428.32
493.37	416.62
493.54	437.68
493.72	454.06
493.90	423.64
494.08	386.19
494.25	433.00
494.43	503.22
494.61	465.77
494.79	425.98
494.96	430.66
495.14	386.19
495.32	454.06
495.49	411.93
495.67	428.32
495.85	369.80
496.02	402.57
496.20	383.85
496.38	430.66
496.55	449.38
496.73	407.25
496.91	397.89
497.09	421.30
497.26	390.87
497.44	395.55
497.62	428.32
497.79	360.44
497.97	409.59
498.14	414.27
498.32	430.66
498.50	482.15
498.67	409.59
498.85	400.23
499.03	400.23
499.20	388.53
499.38	376.83
499.56	409.59
499.73	423.64
499.91	484.49
500.08	407.25
500.26	397.89
500.44	367.46
500.61	381.51
500.79	393.21
500.97	397.89
501.14	456.40
501.32	454.06
501.49	477.47
501.67	374.49
501.84	505.56
502.02	400.23
502.20	489.17
502.37	472.79
502.55	425.98
502.72	400.23
502.90	486.83
503.07	423.64
503.25	400.23
503.43	409.59
503.60	397.89
503.78	402.57
503.95	440.02
504.13	435.34
504.30	374.49
504.48	395.55
504.65	404.91
504.83	456.40
505.01	470.45
505.18	400.23
505.36	414.27
505.53	451.72
505.71	423.64
505.88	458.74
506.06	304.27
506.23	437.68
506.41	416.62
506.58	393.21
506.76	395.55
506.93	400.23
507.11	437.68
507.28	367.46
507.46	372.15
507.63	411.93
507.81	402.57
507.98	444.70
508.16	320.65
508.33	390.87
508.50	397.89
508.68	442.36
508.85	475.13
509.03	397.89
509.20	418.96
509.38	407.25
509.55	428.32
509.73	374.49
509.90	440.02
510.08	381.51
510.25	386.19
510.42	454.06
510.60	372.15
510.77	449.38
510.95	433.00
511.12	418.96
511.30	383.85
511.47	430.66
511.64	435.34
511.82	411.93
511.99	418.96
512.17	442.36
512.34	435.34
512.51	386.19
512.69	374.49
512.86	397.89
513.04	341.72
513.21	379.17
513.38	444.70
513.56	318.31
513.73	383.85
513.90	325.33
514.08	430.66
514.25	388.53
514.43	407.25
514.60	383.85
514.77	379.17
514.95	440.02
515.12	423.64
515.29	397.89
515.47	447.04
515.64	358.10
515.81	414.27
515.99	409.59
516.16	528.96
516.33	465.77
516.51	428.32
516.68	374.49
516.85	447.04
517.03	416.62
517.20	433.00
517.37	397.89
517.54	428.32
517.72	440.02
517.89	397.89
518.06	458.74
518.24	468.11
518.41	397.89
518.58	442.36
518.75	449.38
518.93	423.64
519.10	421.30
519.27	425.98
519.45	423.64
519.62	393.21
519.79	374.49
519.96	414.27
520.14	468.11
520.31	447.04
520.48	411.93
520.65	383.85
520.83	433.00
521.00	440.02
521.17	390.87
521.34	482.15
521.52	414.27
521.69	416.62
521.86	414.27
522.03	456.40
522.20	395.55
522.38	449.38
522.55	393.21
522.72	355.76
522.89	376.83
523.07	461.09
523.24	458.74
523.41	395.55
523.58	449.38
523.75	503.22
523.92	444.70
524.10	353.42
524.27	463.43
524.44	458.74
524.61	444.70
524.78	402.57
524.96	388.53
525.13	360.44
525.30	381.51
525.47	465.77
525.64	397.89
525.81	458.74
525.98	351.08
526.16	369.80
526.33	416.62
526.50	451.72
526.67	367.46
526.84	360.44
527.01	397.89
527.18	393.21
527.36	435.34
527.53	383.85
527.70	472.79
527.87	451.72
528.04	477.47
528.21	346.40
528.38	402.57
528.55	440.02
528.72	409.59
528.89	386.19
529.07	433.00
529.24	395.55
529.41	418.96
529.58	400.23
529.75	428.32
529.92	360.44
530.09	360.44
530.26	486.83
530.43	390.87
530.60	311.29
530.77	444.70
530.94	404.91
531.11	397.89
531.28	416.62
531.46	407.25
531.63	381.51
531.80	418.96
531.97	472.79
532.14	500.87
532.31	463.43
532.48	344.06
532.65	409.59
532.82	435.34
532.99	407.25
533.16	430.66
533.33	428.32
533.50	402.57
533.67	400.23
533.84	430.66
534.01	423.64
534.18	383.85
534.35	388.53
534.52	472.79
534.69	479.81
534.86	421.30
535.03	404.91
535.20	437.68
535.37	360.44
535.54	475.13
535.71	470.45
535.88	440.02
536.05	407.25
536.22	393.21
536.38	393.21
536.55	477.47
536.72	423.64
536.89	393.21
537.06	402.57
537.23	386.19
537.40	411.93
537.57	369.80
537.74	411.93
537.91	491.51
538.08	414.27
538.25	442.36
538.42	435.34
538.59	440.02
538.75	463.43
538.92	404.91
539.09	477.47
539.26	332.36
539.43	383.85
539.60	435.34
539.77	418.96
539.94	362.78
540.11	409.59
540.28	442.36
540.44	414.27
540.61	442.36
540.78	421.30
540.95	421.30
541.12	440.02
541.29	360.44
541.46	465.77
541.62	390.87
541.79	402.57
541.96	376.83
542.13	423.64
542.30	369.80
542.47	379.17
542.63	416.62
542.80	423.64
542.97	505.56
543.14	383.85
543.31	449.38
543.48	407.25
543.64	454.06
543.81	393.21
543.98	409.59
544.15	409.59
544.32	411.93
544.48	416.62
544.65	421.30
544.82	437.68
544.99	376.83
545.16	430.66
545.32	397.89
545.49	395.55
545.66	479.81
545.83	327.68
546.00	397.89
546.16	379.17
546.33	381.51
546.50	369.80
546.67	400.23
546.83	433.00
547.00	458.74
547.17	404.91
547.34	397.89
547.50	447.04
547.67	423.64
547.84	447.04
548.00	461.09
548.17	362.78
548.34	395.55
548.51	425.98
548.67	449.38
548.84	390.87
549.01	402.57
549.18	365.12
549.34	444.70
549.51	416.62
549.68	414.27
549.84	386.19
550.01	425.98
550.18	449.38
550.34	521.94
550.51	423.64
550.68	444.70
550.84	411.93
551.01	430.66
551.18	468.11
551.34	388.53
551.51	386.19
551.68	374.49
551.84	386.19
552.01	411.93
552.18	486.83
552.34	409.59
552.51	475.13
552.68	482.15
552.84	430.66
553.01	414.27
553.18	456.40
553.34	351.08
553.51	348.74
553.67	344.06
553.84	411.93
554.01	404.91
554.17	418.96
554.34	411.93
554.51	479.81
554.67	437.68
554.84	461.09
555.00	372.15
555.17	414.27
555.33	430.66
555.50	456.40
555.67	423.64
555.83	376.83
556.00	423.64
556.16	514.92
556.33	470.45
556.50	386.19
556.66	444.70
556.83	451.72
556.99	435.34
557.16	386.19
557.32	442.36
557.49	360.44
557.65	402.57
557.82	367.46
557.98	341.72
558.15	299.59
558.32	423.64
558.48	383.85
558.65	428.32
558.81	407.25
558.98	437.68
559.14	433.00
559.31	390.87
559.47	440.02
559.64	423.64
559.80	425.98
559.97	400.23
560.13	425.98
560.30	374.49
560.46	346.40
560.63	477.47
560.79	397.89
560.96	390.87
561.12	369.80
561.29	407.25
561.45	395.55
561.61	395.55
561.78	489.17
561.94	437.68
562.11	472.79
562.27	400.23
562.44	433.00
562.60	390.87
562.77	447.04
562.93	463.43
563.10	484.49
563.26	414.27
563.42	430.66
563.59	437.68
563.75	353.42
563.92	344.06
564.08	402.57
564.24	433.00
564.41	505.56
564.57	437.68
564.74	409.59
564.90	379.17
565.07	395.55
565.23	451.72
565.39	383.85
565.56	376.83
565.72	376.83
565.88	306.61
566.05	388.53
566.21	383.85
566.38	404.91
566.54	393.21
566.70	400.23
566.87	390.87
567.03	393.21
567.19	376.83
567.36	444.70
567.52	444.70
567.68	411.93
567.85	409.59
568.01	381.51
568.17	423.64
568.34	351.08
568.50	449.38
568.66	374.49
568.83	437.68
568.99	421.30
569.15	451.72
569.32	430.66
569.48	423.64
569.64	386.19
569.81	447.04
569.97	437.68
570.13	447.04
570.30	393.21
570.46	421.30
570.62	421.30
570.78	353.42
570.95	444.70
571.11	447.04
571.27	475.13
571.43	414.27
571.60	414.27
571.76	472.79
571.92	468.11
572.09	404.91
572.25	374.49
572.41	393.21
572.57	369.80
572.74	449.38
572.90	440.02
573.06	386.19
573.22	435.34
573.38	454.06
573.55	486.83
573.71	409.59
573.87	409.59
574.03	451.72
574.20	393.21
574.36	435.34
574.52	479.81
574.68	447.04
574.84	454.06
575.01	416.62
575.17	397.89
575.33	388.53
575.49	449.38
575.65	435.34
575.82	428.32
575.98	468.11
576.14	409.59
576.30	454.06
576.46	430.66
576.62	496.19
576.79	395.55
576.95	407.25
577.11	348.74
577.27	372.15
577.43	491.51
577.59	531.30
577.75	468.11
577.92	390.87
578.08	484.49
578.24	430.66
578.40	425.98
578.56	402.57
578.72	423.64
578.88	379.17
579.04	386.19
579.21	430.66
579.37	381.51
579.53	411.93
579.69	400.23
579.85	440.02
580.01	454.06
580.17	379.17
580.33	454.06
580.49	444.70
580.65	421.30
580.82	383.85
580.98	447.04
581.14	358.10
581.30	416.62
581.46	388.53
581.62	416.62
581.78	491.51
581.94	477.47
582.10	395.55
582.26	409.59
582.42	414.27
582.58	449.38
582.74	416.62
582.90	418.96
583.06	470.45
583.22	388.53
583.38	468.11
583.54	447.04
583.70	430.66
583.86	369.80
584.02	458.74
584.18	418.96
584.34	346.40
584.50	402.57
584.66	463.43
584.82	388.53
584.98	397.89
585.14	367.46
585.30	447.04
585.46	444.70
585.62	482.15
585.78	358.10
585.94	414.27
586.10	418.96
586.26	425.98
586.42	437.68
586.58	407.25
586.74	454.06
586.90	388.53
587.06	470.45
587.22	479.81
587.38	381.51
587.54	454.06
587.70	393.21
587.86	407.25
588.02	430.66
588.18	430.66
588.34	458.74
588.49	390.87
588.65	416.62
588.81	444.70
588.97	360.44
589.13	395.55
589.29	390.87
589.45	540.66
589.61	423.64
589.77	400.23
589.93	374.49
590.08	418.96
590.24	444.70
590.40	397.89
590.56	433.00
590.72	423.64
590.88	381.51
591.04	404.91
591.20	372.15
591.35	489.17
591.51	486.83
591.67	355.76
591.83	433.00
591.99	437.68
592.15	404.91
592.31	313.63
592.46	397.89
592.62	388.53
592.78	393.21
592.94	383.85
593.10	418.96
593.26	409.59
593.41	477.47
593.57	353.42
593.73	362.78
593.89	358.10
594.05	402.57
594.20	428.32
594.36	393.21
594.52	475.13
594.68	421.30
594.84	388.53
594.99	425.98
595.15	505.56
595.31	505.56
595.47	425.98
595.62	447.04
595.78	425.98
595.94	402.57
596.10	500.87
596.25	440.02
596.41	505.56
596.57	444.70
596.73	388.53
596.88	397.89
597.04	400.23
597.20	451.72
597.36	393.21
597.51	425.98
597.67	365.12
597.83	437.68
597.99	418.96
598.14	444.70
598.30	461.09
598.46	433.00
598.61	404.91
598.77	388.53
598.93	390.87
599.09	414.27
599.24	416.62
599.40	442.36
599.56	409.59
599.71	421.30
599.87	465.77
600.03	388.53
600.18	425.98
600.34	449.38
600.50	383.85
600.65	395.55
600.81	442.36
600.97	402.57
601.12	414.27
601.28	505.56
601.44	397.89
601.59	390.87
601.75	421.30
601.91	381.51
602.06	482.15
602.22	475.13
602.37	449.38
602.53	379.17
602.69	423.64
602.84	379.17
603.00	407.25
603.16	437.68
603.31	414.27
603.47	472.79
603.62	437.68
603.78	313.63
603.94	423.64
604.09	411.93
604.25	486.83
604.40	407.25
604.56	400.23
604.71	383.85
604.87	397.89
605.03	411.93
605.18	465.77
605.34	447.04
605.49	409.59
605.65	418.96
605.80	369.80
605.96	390.87
606.12	430.66
606.27	491.51
606.43	358.10
606.58	477.47
606.74	315.97
606.89	425.98
607.05	468.11
607.20	376.83
607.36	395.55
607.51	414.27
607.67	437.68
607.82	425.98
607.98	468.11
608.13	475.13
608.29	409.59
608.44	463.43
608.60	416.62
608.75	423.64
608.91	374.49
609.06	458.74
609.22	374.49
609.37	421.30
609.53	454.06
609.68	421.30
609.84	456.40
609.99	451.72
610.15	440.02
