SpectraSuite Data File
++++++++++++++++++++++++++++++++++++
Date: Fri Oct 25 12:11:40 EDT 2013
User: price-jones
Dark Spectrum Present: No
Reference Spectrum Present: No
Number of Sampled Component Spectra: 1
Spectrometers: USB2+H05261
Integration Time (usec): 100000 (USB2+H05261)
Spectra Averaged: 1 (USB2+H05261)
Boxcar Smoothing: 0 (USB2+H05261)
Correct for Electrical Dark: No (USB2+H05261)
Strobe/Lamp Enabled: No (USB2+H05261)
Correct for Detector Non-linearity: No (USB2+H05261)
Correct for Stray Light: No (USB2+H05261)
Number of Pixels in Processed Spectrum: 2048
>>>>>Begin Processed Spectral Data<<<<<
365.73	346.40
365.92	346.40
366.12	346.40
366.32	292.57
366.52	278.52
366.72	287.89
366.91	278.52
367.11	252.78
367.31	170.86
367.51	299.59
367.70	222.35
367.90	161.50
368.10	287.89
368.30	198.95
368.49	257.46
368.69	311.29
368.89	292.57
369.09	201.29
369.28	264.48
369.48	255.12
369.68	280.86
369.87	313.63
370.07	280.86
370.27	315.97
370.47	337.04
370.66	351.08
370.86	393.21
371.06	423.64
371.25	468.11
371.45	425.98
371.65	397.89
371.84	341.72
372.04	355.76
372.24	383.85
372.44	383.85
372.63	346.40
372.83	379.17
373.03	423.64
373.22	383.85
373.42	402.57
373.62	456.40
373.81	418.96
374.01	451.72
374.21	414.27
374.40	379.17
374.60	404.91
374.79	362.78
374.99	449.38
375.19	383.85
375.38	458.74
375.58	367.46
375.78	470.45
375.97	435.34
376.17	407.25
376.37	425.98
376.56	425.98
376.76	407.25
376.95	393.21
377.15	407.25
377.35	468.11
377.54	451.72
377.74	409.59
377.93	423.64
378.13	372.15
378.33	486.83
378.52	425.98
378.72	397.89
378.91	440.02
379.11	393.21
379.31	451.72
379.50	351.08
379.70	435.34
379.89	458.74
380.09	355.76
380.28	482.15
380.48	388.53
380.68	390.87
380.87	344.06
381.07	411.93
381.26	381.51
381.46	433.00
381.65	428.32
381.85	456.40
382.04	416.62
382.24	465.77
382.43	367.46
382.63	442.36
382.83	433.00
383.02	404.91
383.22	414.27
383.41	409.59
383.61	425.98
383.80	451.72
384.00	362.78
384.19	360.44
384.39	470.45
384.58	463.43
384.78	367.46
384.97	390.87
385.17	351.08
385.36	374.49
385.56	400.23
385.75	428.32
385.95	444.70
386.14	418.96
386.34	369.80
386.53	442.36
386.72	442.36
386.92	449.38
387.11	498.53
387.31	376.83
387.50	444.70
387.70	407.25
387.89	411.93
388.09	465.77
388.28	444.70
388.48	430.66
388.67	442.36
388.86	374.49
389.06	468.11
389.25	386.19
389.45	358.10
389.64	440.02
389.84	425.98
390.03	390.87
390.22	449.38
390.42	390.87
390.61	430.66
390.81	381.51
391.00	379.17
391.19	414.27
391.39	479.81
391.58	425.98
391.78	322.99
391.97	383.85
392.16	372.15
392.36	430.66
392.55	430.66
392.75	379.17
392.94	416.62
393.13	479.81
393.33	402.57
393.52	400.23
393.71	444.70
393.91	404.91
394.10	376.83
394.29	386.19
394.49	407.25
394.68	423.64
394.88	418.96
395.07	477.47
395.26	362.78
395.46	365.12
395.65	435.34
395.84	435.34
396.04	486.83
396.23	447.04
396.42	454.06
396.62	421.30
396.81	381.51
397.00	376.83
397.19	416.62
397.39	337.04
397.58	379.17
397.77	390.87
397.97	409.59
398.16	379.17
398.35	468.11
398.55	430.66
398.74	409.59
398.93	425.98
399.12	430.66
399.32	423.64
399.51	437.68
399.70	440.02
399.90	421.30
400.09	355.76
400.28	433.00
400.47	360.44
400.67	416.62
400.86	383.85
401.05	440.02
401.24	376.83
401.44	454.06
401.63	461.09
401.82	411.93
402.01	397.89
402.21	353.42
402.40	447.04
402.59	414.27
402.78	360.44
402.97	416.62
403.17	430.66
403.36	428.32
403.55	367.46
403.74	346.40
403.93	390.87
404.13	400.23
404.32	374.49
404.51	351.08
404.70	362.78
404.89	395.55
405.09	428.32
405.28	428.32
405.47	386.19
405.66	416.62
405.85	430.66
406.05	409.59
406.24	388.53
406.43	379.17
406.62	395.55
406.81	449.38
407.00	414.27
407.20	411.93
407.39	362.78
407.58	449.38
407.77	407.25
407.96	414.27
408.15	402.57
408.34	395.55
408.54	341.72
408.73	489.17
408.92	383.85
409.11	440.02
409.30	360.44
409.49	381.51
409.68	423.64
409.87	428.32
410.07	372.15
410.26	428.32
410.45	414.27
410.64	337.04
410.83	449.38
411.02	433.00
411.21	395.55
411.40	447.04
411.59	379.17
411.78	374.49
411.98	395.55
412.17	379.17
412.36	372.15
412.55	418.96
412.74	425.98
412.93	351.08
413.12	388.53
413.31	482.15
413.50	421.30
413.69	456.40
413.88	407.25
414.07	418.96
414.26	425.98
414.45	430.66
414.64	409.59
414.83	433.00
415.02	379.17
415.22	463.43
415.41	416.62
415.60	458.74
415.79	430.66
415.98	411.93
416.17	491.51
416.36	475.13
416.55	365.12
416.74	407.25
416.93	442.36
417.12	365.12
417.31	374.49
417.50	451.72
417.69	397.89
417.88	330.02
418.07	379.17
418.26	299.59
418.45	411.93
418.64	379.17
418.83	437.68
419.02	440.02
419.21	400.23
419.39	449.38
419.58	348.74
419.77	386.19
419.96	435.34
420.15	388.53
420.34	360.44
420.53	433.00
420.72	428.32
420.91	416.62
421.10	360.44
421.29	404.91
421.48	435.34
421.67	444.70
421.86	468.11
422.05	428.32
422.24	390.87
422.43	395.55
422.61	334.70
422.80	400.23
422.99	440.02
423.18	369.80
423.37	421.30
423.56	411.93
423.75	386.19
423.94	308.95
424.13	372.15
424.32	407.25
424.50	428.32
424.69	411.93
424.88	409.59
425.07	388.53
425.26	409.59
425.45	430.66
425.64	482.15
425.83	430.66
426.01	421.30
426.20	421.30
426.39	437.68
426.58	397.89
426.77	423.64
426.96	411.93
427.15	564.07
427.33	437.68
427.52	437.68
427.71	390.87
427.90	423.64
428.09	451.72
428.28	449.38
428.46	360.44
428.65	423.64
428.84	325.33
429.03	425.98
429.22	409.59
429.40	388.53
429.59	425.98
429.78	386.19
429.97	444.70
430.16	430.66
430.34	369.80
430.53	414.27
430.72	451.72
430.91	430.66
431.10	332.36
431.28	397.89
431.47	435.34
431.66	456.40
431.85	414.27
432.03	334.70
432.22	456.40
432.41	348.74
432.60	465.77
432.79	393.21
432.97	458.74
433.16	355.76
433.35	376.83
433.54	397.89
433.72	423.64
433.91	440.02
434.10	365.12
434.28	447.04
434.47	444.70
434.66	423.64
434.85	344.06
435.03	418.96
435.22	407.25
435.41	430.66
435.59	416.62
435.78	355.76
435.97	390.87
436.16	421.30
436.34	355.76
436.53	386.19
436.72	372.15
436.90	433.00
437.09	463.43
437.28	440.02
437.46	416.62
437.65	379.17
437.84	407.25
438.02	315.97
438.21	379.17
438.40	463.43
438.58	454.06
438.77	372.15
438.96	423.64
439.14	414.27
439.33	456.40
439.52	407.25
439.70	383.85
439.89	465.77
440.08	447.04
440.26	372.15
440.45	421.30
440.63	411.93
440.82	451.72
441.01	414.27
441.19	477.47
441.38	402.57
441.57	454.06
441.75	379.17
441.94	348.74
442.12	346.40
442.31	346.40
442.50	414.27
442.68	468.11
442.87	435.34
443.05	440.02
443.24	397.89
443.43	425.98
443.61	447.04
443.80	376.83
443.98	397.89
444.17	402.57
444.35	423.64
444.54	353.42
444.73	365.12
444.91	433.00
445.10	358.10
445.28	458.74
445.47	414.27
445.65	418.96
445.84	414.27
446.02	397.89
446.21	430.66
446.39	428.32
446.58	503.22
446.77	362.78
446.95	437.68
447.14	454.06
447.32	390.87
447.51	334.70
447.69	444.70
447.88	416.62
448.06	486.83
448.25	369.80
448.43	407.25
448.62	386.19
448.80	407.25
448.99	444.70
449.17	386.19
449.36	409.59
449.54	416.62
449.73	381.51
449.91	393.21
450.10	390.87
450.28	468.11
450.46	372.15
450.65	393.21
450.83	395.55
451.02	397.89
451.20	456.40
451.39	339.38
451.57	404.91
451.76	407.25
451.94	404.91
452.13	386.19
452.31	409.59
452.49	433.00
452.68	418.96
452.86	402.57
453.05	390.87
453.23	421.30
453.42	404.91
453.60	346.40
453.78	390.87
453.97	425.98
454.15	416.62
454.34	425.98
454.52	390.87
454.70	418.96
454.89	411.93
455.07	395.55
455.26	470.45
455.44	416.62
455.62	425.98
455.81	358.10
455.99	435.34
456.17	463.43
456.36	447.04
456.54	374.49
456.73	397.89
456.91	327.68
457.09	418.96
457.28	428.32
457.46	383.85
457.64	491.51
457.83	421.30
458.01	400.23
458.19	486.83
458.38	386.19
458.56	376.83
458.74	411.93
458.93	423.64
459.11	428.32
459.29	381.51
459.48	409.59
459.66	433.00
459.84	437.68
460.03	531.30
460.21	386.19
460.39	407.25
460.57	409.59
460.76	390.87
460.94	362.78
461.12	425.98
461.31	465.77
461.49	416.62
461.67	388.53
461.85	383.85
462.04	372.15
462.22	772.38
462.40	369.80
462.59	440.02
462.77	395.55
462.95	360.44
463.13	400.23
463.32	472.79
463.50	472.79
463.68	472.79
463.86	369.80
464.05	395.55
464.23	461.09
464.41	451.72
464.59	386.19
464.78	397.89
464.96	463.43
465.14	463.43
465.32	416.62
465.50	397.89
465.69	376.83
465.87	390.87
466.05	440.02
466.23	311.29
466.41	433.00
466.60	376.83
466.78	491.51
466.96	451.72
467.14	355.76
467.32	402.57
467.51	416.62
467.69	421.30
467.87	465.77
468.05	390.87
468.23	451.72
468.41	444.70
468.60	463.43
468.78	400.23
468.96	451.72
469.14	402.57
469.32	400.23
469.50	421.30
469.69	428.32
469.87	393.21
470.05	397.89
470.23	358.10
470.41	372.15
470.59	372.15
470.77	383.85
470.95	362.78
471.14	409.59
471.32	383.85
471.50	463.43
471.68	414.27
471.86	423.64
472.04	362.78
472.22	423.64
472.40	458.74
472.58	451.72
472.77	358.10
472.95	402.57
473.13	458.74
473.31	468.11
473.49	416.62
473.67	381.51
473.85	383.85
474.03	400.23
474.21	411.93
474.39	383.85
474.57	409.59
474.75	400.23
474.93	362.78
475.12	402.57
475.30	423.64
475.48	393.21
475.66	421.30
475.84	451.72
476.02	435.34
476.20	458.74
476.38	430.66
476.56	458.74
476.74	365.12
476.92	409.59
477.10	430.66
477.28	465.77
477.46	451.72
477.64	454.06
477.82	400.23
478.00	404.91
478.18	418.96
478.36	411.93
478.54	479.81
478.72	458.74
478.90	400.23
479.08	358.10
479.26	458.74
479.44	393.21
479.62	409.59
479.80	355.76
479.98	360.44
480.16	362.78
480.34	423.64
480.52	332.36
480.70	416.62
480.88	428.32
481.06	440.02
481.24	374.49
481.41	337.04
481.59	402.57
481.77	353.42
481.95	477.47
482.13	416.62
482.31	386.19
482.49	430.66
482.67	468.11
482.85	444.70
483.03	437.68
483.21	390.87
483.39	393.21
483.57	461.09
483.74	472.79
483.92	395.55
484.10	397.89
484.28	423.64
484.46	442.36
484.64	372.15
484.82	381.51
485.00	411.93
485.18	454.06
485.35	435.34
485.53	369.80
485.71	503.22
485.89	435.34
486.07	430.66
486.25	444.70
486.43	435.34
486.61	496.19
486.78	477.47
486.96	379.17
487.14	416.62
487.32	360.44
487.50	400.23
487.68	355.76
487.85	416.62
488.03	442.36
488.21	414.27
488.39	454.06
488.57	484.49
488.75	430.66
488.92	442.36
489.10	395.55
489.28	444.70
489.46	470.45
489.64	379.17
489.81	447.04
489.99	383.85
490.17	400.23
490.35	472.79
490.53	449.38
490.70	379.17
490.88	358.10
491.06	472.79
491.24	465.77
491.41	395.55
491.59	409.59
491.77	358.10
491.95	346.40
492.13	472.79
492.30	423.64
492.48	411.93
492.66	449.38
492.84	390.87
493.01	369.80
493.19	489.17
493.37	428.32
493.54	393.21
493.72	458.74
493.90	341.72
494.08	433.00
494.25	425.98
494.43	418.96
494.61	402.57
494.79	390.87
494.96	322.99
495.14	423.64
495.32	430.66
495.49	461.09
495.67	444.70
495.85	367.46
496.02	381.51
496.20	414.27
496.38	447.04
496.55	451.72
496.73	414.27
496.91	334.70
497.09	454.06
497.26	372.15
497.44	362.78
497.62	407.25
497.79	425.98
497.97	358.10
498.14	449.38
498.32	482.15
498.50	418.96
498.67	339.38
498.85	444.70
499.03	393.21
499.20	482.15
499.38	437.68
499.56	379.17
499.73	440.02
499.91	423.64
500.08	414.27
500.26	468.11
500.44	407.25
500.61	433.00
500.79	423.64
500.97	344.06
501.14	339.38
501.32	409.59
501.49	430.66
501.67	449.38
501.84	418.96
502.02	372.15
502.20	477.47
502.37	428.32
502.55	369.80
502.72	498.53
502.90	496.19
503.07	418.96
503.25	470.45
503.43	372.15
503.60	468.11
503.78	484.49
503.95	444.70
504.13	376.83
504.30	454.06
504.48	447.04
504.65	425.98
504.83	447.04
505.01	442.36
505.18	390.87
505.36	454.06
505.53	393.21
505.71	411.93
505.88	411.93
506.06	395.55
506.23	369.80
506.41	407.25
506.58	416.62
506.76	407.25
506.93	381.51
507.11	400.23
507.28	372.15
507.46	339.38
507.63	411.93
507.81	428.32
507.98	428.32
508.16	423.64
508.33	397.89
508.50	407.25
508.68	355.76
508.85	433.00
509.03	355.76
509.20	390.87
509.38	433.00
509.55	465.77
509.73	379.17
509.90	433.00
510.08	409.59
510.25	411.93
510.42	463.43
510.60	372.15
510.77	407.25
510.95	454.06
511.12	407.25
511.30	465.77
511.47	470.45
511.64	390.87
511.82	411.93
511.99	381.51
512.17	395.55
512.34	395.55
512.51	334.70
512.69	393.21
512.86	421.30
513.04	458.74
513.21	444.70
513.38	428.32
513.56	416.62
513.73	418.96
513.90	451.72
514.08	400.23
514.25	433.00
514.43	435.34
514.60	383.85
514.77	344.06
514.95	376.83
515.12	407.25
515.29	362.78
515.47	390.87
515.64	374.49
515.81	414.27
515.99	468.11
516.16	388.53
516.33	355.76
516.51	423.64
516.68	393.21
516.85	390.87
517.03	437.68
517.20	465.77
517.37	491.51
517.54	402.57
517.72	421.30
517.89	388.53
518.06	395.55
518.24	470.45
518.41	437.68
518.58	376.83
518.75	402.57
518.93	404.91
519.10	425.98
519.27	463.43
519.45	386.19
519.62	407.25
519.79	360.44
519.96	362.78
520.14	409.59
520.31	421.30
520.48	442.36
520.65	454.06
520.83	383.85
521.00	418.96
521.17	472.79
521.34	430.66
521.52	374.49
521.69	425.98
521.86	433.00
522.03	440.02
522.20	416.62
522.38	442.36
522.55	393.21
522.72	425.98
522.89	418.96
523.07	435.34
523.24	388.53
523.41	425.98
523.58	355.76
523.75	435.34
523.92	437.68
524.10	414.27
524.27	369.80
524.44	500.87
524.61	430.66
524.78	458.74
524.96	393.21
525.13	472.79
525.30	514.92
525.47	423.64
525.64	393.21
525.81	395.55
525.98	498.53
526.16	430.66
526.33	430.66
526.50	430.66
526.67	425.98
526.84	402.57
527.01	409.59
527.18	386.19
527.36	383.85
527.53	404.91
527.70	440.02
527.87	414.27
528.04	388.53
528.21	402.57
528.38	442.36
528.55	425.98
528.72	383.85
528.89	437.68
529.07	325.33
529.24	416.62
529.41	451.72
529.58	428.32
529.75	418.96
529.92	386.19
530.09	407.25
530.26	407.25
530.43	454.06
530.60	461.09
530.77	376.83
530.94	418.96
531.11	381.51
531.28	414.27
531.46	447.04
531.63	376.83
531.80	409.59
531.97	451.72
532.14	379.17
532.31	428.32
532.48	381.51
532.65	456.40
532.82	374.49
532.99	421.30
533.16	440.02
533.33	407.25
533.50	397.89
533.67	447.04
533.84	416.62
534.01	414.27
534.18	435.34
534.35	393.21
534.52	458.74
534.69	374.49
534.86	372.15
535.03	383.85
535.20	414.27
535.37	416.62
535.54	435.34
535.71	475.13
535.88	440.02
536.05	409.59
536.22	393.21
536.38	390.87
536.55	404.91
536.72	486.83
536.89	470.45
537.06	461.09
537.23	395.55
537.40	374.49
537.57	348.74
537.74	416.62
537.91	440.02
538.08	449.38
538.25	416.62
538.42	500.87
538.59	416.62
538.75	465.77
538.92	362.78
539.09	397.89
539.26	334.70
539.43	397.89
539.60	440.02
539.77	404.91
539.94	423.64
540.11	482.15
540.28	479.81
540.44	425.98
540.61	353.42
540.78	388.53
540.95	411.93
541.12	414.27
541.29	369.80
541.46	444.70
541.62	395.55
541.79	395.55
541.96	475.13
542.13	367.46
542.30	433.00
542.47	444.70
542.63	402.57
542.80	421.30
542.97	414.27
543.14	477.47
543.31	404.91
543.48	390.87
543.64	390.87
543.81	435.34
543.98	409.59
544.15	430.66
544.32	444.70
544.48	365.12
544.65	475.13
544.82	442.36
544.99	435.34
545.16	468.11
545.32	430.66
545.49	421.30
545.66	447.04
545.83	423.64
546.00	440.02
546.16	400.23
546.33	388.53
546.50	346.40
546.67	456.40
546.83	430.66
547.00	472.79
547.17	447.04
547.34	381.51
547.50	409.59
547.67	435.34
547.84	393.21
548.00	507.90
548.17	395.55
548.34	400.23
548.51	425.98
548.67	395.55
548.84	425.98
549.01	435.34
549.18	454.06
549.34	425.98
549.51	468.11
549.68	468.11
549.84	423.64
550.01	414.27
550.18	423.64
550.34	479.81
550.51	468.11
550.68	519.60
550.84	409.59
551.01	404.91
551.18	451.72
551.34	404.91
551.51	395.55
551.68	346.40
551.84	433.00
552.01	362.78
552.18	463.43
552.34	433.00
552.51	372.15
552.68	367.46
552.84	355.76
553.01	379.17
553.18	465.77
553.34	358.10
553.51	362.78
553.67	416.62
553.84	430.66
554.01	393.21
554.17	456.40
554.34	407.25
554.51	454.06
554.67	449.38
554.84	449.38
555.00	437.68
555.17	409.59
555.33	449.38
555.50	388.53
555.67	428.32
555.83	423.64
556.00	332.36
556.16	552.37
556.33	339.38
556.50	423.64
556.66	409.59
556.83	423.64
556.99	433.00
557.16	393.21
557.32	428.32
557.49	433.00
557.65	393.21
557.82	416.62
557.98	425.98
558.15	365.12
558.32	428.32
558.48	456.40
558.65	379.17
558.81	484.49
558.98	313.63
559.14	484.49
559.31	458.74
559.47	404.91
559.64	444.70
559.80	458.74
559.97	442.36
560.13	386.19
560.30	435.34
560.46	458.74
560.63	411.93
560.79	442.36
560.96	449.38
561.12	402.57
561.29	437.68
561.45	383.85
561.61	400.23
561.78	447.04
561.94	425.98
562.11	409.59
562.27	425.98
562.44	409.59
562.60	449.38
562.77	390.87
562.93	444.70
563.10	407.25
563.26	388.53
563.42	409.59
563.59	447.04
563.75	425.98
563.92	461.09
564.08	414.27
564.24	451.72
564.41	388.53
564.57	449.38
564.74	451.72
564.90	421.30
565.07	409.59
565.23	442.36
565.39	447.04
565.56	423.64
565.72	348.74
565.88	414.27
566.05	372.15
566.21	355.76
566.38	482.15
566.54	451.72
566.70	468.11
566.87	435.34
567.03	404.91
567.19	449.38
567.36	416.62
567.52	440.02
567.68	468.11
567.85	348.74
568.01	451.72
568.17	390.87
568.34	479.81
568.50	414.27
568.66	440.02
568.83	451.72
568.99	402.57
569.15	430.66
569.32	372.15
569.48	475.13
569.64	409.59
569.81	449.38
569.97	440.02
570.13	531.30
570.30	465.77
570.46	442.36
570.62	440.02
570.78	444.70
570.95	390.87
571.11	433.00
571.27	463.43
571.43	367.46
571.60	397.89
571.76	472.79
571.92	461.09
572.09	440.02
572.25	388.53
572.41	437.68
572.57	418.96
572.74	407.25
572.90	449.38
573.06	423.64
573.22	463.43
573.38	423.64
573.55	489.17
573.71	404.91
573.87	400.23
574.03	393.21
574.20	468.11
574.36	386.19
574.52	449.38
574.68	383.85
574.84	416.62
575.01	461.09
575.17	376.83
575.33	397.89
575.49	451.72
575.65	425.98
575.82	421.30
575.98	498.53
576.14	416.62
576.30	395.55
576.46	430.66
576.62	477.47
576.79	339.38
576.95	423.64
577.11	390.87
577.27	390.87
577.43	444.70
577.59	435.34
577.75	428.32
577.92	416.62
578.08	407.25
578.24	418.96
578.40	433.00
578.56	423.64
578.72	500.87
578.88	409.59
579.04	435.34
579.21	486.83
579.37	355.76
579.53	423.64
579.69	472.79
579.85	416.62
580.01	404.91
580.17	358.10
580.33	463.43
580.49	451.72
580.65	433.00
580.82	388.53
580.98	365.12
581.14	416.62
581.30	486.83
581.46	428.32
581.62	341.72
581.78	430.66
581.94	379.17
582.10	430.66
582.26	428.32
582.42	479.81
582.58	388.53
582.74	376.83
582.90	400.23
583.06	477.47
583.22	362.78
583.38	348.74
583.54	383.85
583.70	437.68
583.86	437.68
584.02	407.25
584.18	414.27
584.34	416.62
584.50	486.83
584.66	379.17
584.82	383.85
584.98	463.43
585.14	390.87
585.30	491.51
585.46	418.96
585.62	376.83
585.78	449.38
585.94	489.17
586.10	449.38
586.26	428.32
586.42	395.55
586.58	463.43
586.74	344.06
586.90	407.25
587.06	404.91
587.22	360.44
587.38	404.91
587.54	409.59
587.70	428.32
587.86	472.79
588.02	397.89
588.18	355.76
588.34	433.00
588.49	379.17
588.65	393.21
588.81	423.64
588.97	397.89
589.13	407.25
589.29	372.15
589.45	477.47
589.61	409.59
589.77	486.83
589.93	454.06
590.08	400.23
590.24	447.04
590.40	418.96
590.56	407.25
590.72	456.40
590.88	440.02
591.04	521.94
591.20	456.40
591.35	430.66
591.51	372.15
591.67	409.59
591.83	365.12
591.99	472.79
592.15	435.34
592.31	411.93
592.46	369.80
592.62	447.04
592.78	414.27
592.94	451.72
593.10	414.27
593.26	374.49
593.41	440.02
593.57	454.06
593.73	395.55
593.89	395.55
594.05	440.02
594.20	369.80
594.36	463.43
594.52	435.34
594.68	423.64
594.84	423.64
594.99	486.83
595.15	475.13
595.31	437.68
595.47	493.85
595.62	365.12
595.78	397.89
595.94	339.38
596.10	433.00
596.25	397.89
596.41	449.38
596.57	383.85
596.73	440.02
596.88	353.42
597.04	418.96
597.20	411.93
597.36	472.79
597.51	388.53
597.67	369.80
597.83	500.87
597.99	484.49
598.14	414.27
598.30	468.11
598.46	484.49
598.61	437.68
598.77	433.00
598.93	397.89
599.09	397.89
599.24	341.72
599.40	367.46
599.56	388.53
599.71	416.62
599.87	430.66
600.03	416.62
600.18	435.34
600.34	456.40
600.50	470.45
600.65	461.09
600.81	470.45
600.97	365.12
601.12	407.25
601.28	491.51
601.44	451.72
601.59	374.49
601.75	407.25
601.91	423.64
602.06	477.47
602.22	421.30
602.37	458.74
602.53	440.02
602.69	414.27
602.84	454.06
603.00	433.00
603.16	393.21
603.31	477.47
603.47	388.53
603.62	376.83
603.78	355.76
603.94	433.00
604.09	400.23
604.25	395.55
604.40	339.38
604.56	416.62
604.71	442.36
604.87	435.34
605.03	376.83
605.18	358.10
605.34	454.06
605.49	449.38
605.65	428.32
605.80	458.74
605.96	411.93
606.12	393.21
606.27	397.89
606.43	404.91
606.58	440.02
606.74	407.25
606.89	484.49
607.05	428.32
607.20	402.57
607.36	472.79
607.51	416.62
607.67	402.57
607.82	386.19
607.98	404.91
608.13	440.02
608.29	425.98
608.44	454.06
608.60	383.85
608.75	404.91
608.91	423.64
609.06	348.74
609.22	461.09
609.37	402.57
609.53	458.74
609.68	402.57
609.84	280.86
609.99	372.15
610.15	451.72
