SpectraSuite Data File
++++++++++++++++++++++++++++++++++++
Date: Fri Oct 25 12:11:19 EDT 2013
User: price-jones
Dark Spectrum Present: No
Reference Spectrum Present: No
Number of Sampled Component Spectra: 1
Spectrometers: USB2+H05261
Integration Time (usec): 100000 (USB2+H05261)
Spectra Averaged: 1 (USB2+H05261)
Boxcar Smoothing: 0 (USB2+H05261)
Correct for Electrical Dark: No (USB2+H05261)
Strobe/Lamp Enabled: No (USB2+H05261)
Correct for Detector Non-linearity: No (USB2+H05261)
Correct for Stray Light: No (USB2+H05261)
Number of Pixels in Processed Spectrum: 2048
>>>>>Begin Processed Spectral Data<<<<<
365.73	404.91
365.92	404.91
366.12	404.91
366.32	245.76
366.52	257.46
366.72	196.60
366.91	238.73
367.11	187.24
367.31	231.71
367.51	250.44
367.70	248.10
367.90	266.82
368.10	238.73
368.30	250.44
368.49	259.80
368.69	262.14
368.89	231.71
369.09	320.65
369.28	280.86
369.48	257.46
369.68	287.89
369.87	348.74
370.07	278.52
370.27	367.46
370.47	262.14
370.66	306.61
370.86	325.33
371.06	308.95
371.25	376.83
371.45	372.15
371.65	400.23
371.84	383.85
372.04	304.27
372.24	400.23
372.44	390.87
372.63	367.46
372.83	454.06
373.03	440.02
373.22	390.87
373.42	519.60
373.62	402.57
373.81	435.34
374.01	400.23
374.21	444.70
374.40	395.55
374.60	400.23
374.79	428.32
374.99	390.87
375.19	390.87
375.38	423.64
375.58	388.53
375.78	463.43
375.97	423.64
376.17	461.09
376.37	386.19
376.56	397.89
376.76	365.12
376.95	379.17
377.15	400.23
377.35	423.64
377.54	423.64
377.74	383.85
377.93	351.08
378.13	423.64
378.33	404.91
378.52	454.06
378.72	437.68
378.91	421.30
379.11	395.55
379.31	386.19
379.50	374.49
379.70	374.49
379.89	421.30
380.09	437.68
380.28	418.96
380.48	425.98
380.68	390.87
380.87	440.02
381.07	442.36
381.26	428.32
381.46	311.29
381.65	390.87
381.85	404.91
382.04	390.87
382.24	444.70
382.43	442.36
382.63	383.85
382.83	425.98
383.02	430.66
383.22	496.19
383.41	416.62
383.61	372.15
383.80	428.32
384.00	393.21
384.19	433.00
384.39	458.74
384.58	486.83
384.78	397.89
384.97	430.66
385.17	341.72
385.36	376.83
385.56	397.89
385.75	404.91
385.95	425.98
386.14	418.96
386.34	423.64
386.53	416.62
386.72	339.38
386.92	456.40
387.11	404.91
387.31	414.27
387.50	369.80
387.70	433.00
387.89	433.00
388.09	393.21
388.28	425.98
388.48	372.15
388.67	383.85
388.86	416.62
389.06	346.40
389.25	423.64
389.45	416.62
389.64	416.62
389.84	433.00
390.03	395.55
390.22	287.89
390.42	397.89
390.61	337.04
390.81	404.91
391.00	395.55
391.19	379.17
391.39	374.49
391.58	425.98
391.78	397.89
391.97	411.93
392.16	416.62
392.36	388.53
392.55	433.00
392.75	433.00
392.94	437.68
393.13	395.55
393.33	428.32
393.52	355.76
393.71	435.34
393.91	444.70
394.10	442.36
394.29	395.55
394.49	423.64
394.68	332.36
394.88	428.32
395.07	421.30
395.26	433.00
395.46	327.68
395.65	458.74
395.84	400.23
396.04	458.74
396.23	367.46
396.42	369.80
396.62	428.32
396.81	505.56
397.00	409.59
397.19	374.49
397.39	367.46
397.58	433.00
397.77	418.96
397.97	397.89
398.16	416.62
398.35	503.22
398.55	491.51
398.74	397.89
398.93	414.27
399.12	376.83
399.32	442.36
399.51	418.96
399.70	414.27
399.90	400.23
400.09	327.68
400.28	404.91
400.47	381.51
400.67	388.53
400.86	367.46
401.05	425.98
401.24	414.27
401.44	425.98
401.63	416.62
401.82	437.68
402.01	379.17
402.21	395.55
402.40	416.62
402.59	433.00
402.78	430.66
402.97	374.49
403.17	404.91
403.36	376.83
403.55	381.51
403.74	320.65
403.93	395.55
404.13	386.19
404.32	451.72
404.51	397.89
404.70	411.93
404.89	374.49
405.09	351.08
405.28	409.59
405.47	440.02
405.66	404.91
405.85	425.98
406.05	353.42
406.24	360.44
406.43	442.36
406.62	397.89
406.81	458.74
407.00	423.64
407.20	388.53
407.39	400.23
407.58	372.15
407.77	472.79
407.96	484.49
408.15	425.98
408.34	416.62
408.54	442.36
408.73	395.55
408.92	346.40
409.11	386.19
409.30	458.74
409.49	430.66
409.68	400.23
409.87	376.83
410.07	374.49
410.26	397.89
410.45	411.93
410.64	484.49
410.83	421.30
411.02	404.91
411.21	400.23
411.40	430.66
411.59	425.98
411.78	440.02
411.98	388.53
412.17	388.53
412.36	337.04
412.55	449.38
412.74	416.62
412.93	425.98
413.12	477.47
413.31	400.23
413.50	437.68
413.69	421.30
413.88	440.02
414.07	400.23
414.26	353.42
414.45	388.53
414.64	435.34
414.83	395.55
415.02	484.49
415.22	351.08
415.41	430.66
415.60	395.55
415.79	447.04
415.98	430.66
416.17	418.96
416.36	409.59
416.55	437.68
416.74	362.78
416.93	407.25
417.12	353.42
417.31	435.34
417.50	390.87
417.69	418.96
417.88	374.49
418.07	437.68
418.26	397.89
418.45	400.23
418.64	475.13
418.83	416.62
419.02	365.12
419.21	411.93
419.39	430.66
419.58	407.25
419.77	451.72
419.96	463.43
420.15	351.08
420.34	433.00
420.53	447.04
420.72	428.32
420.91	425.98
421.10	402.57
421.29	404.91
421.48	437.68
421.67	393.21
421.86	400.23
422.05	447.04
422.24	414.27
422.43	418.96
422.61	402.57
422.80	383.85
422.99	404.91
423.18	447.04
423.37	442.36
423.56	372.15
423.75	407.25
423.94	414.27
424.13	425.98
424.32	381.51
424.50	454.06
424.69	433.00
424.88	486.83
425.07	470.45
425.26	479.81
425.45	449.38
425.64	388.53
425.83	437.68
426.01	386.19
426.20	477.47
426.39	451.72
426.58	369.80
426.77	425.98
426.96	442.36
427.15	351.08
427.33	402.57
427.52	468.11
427.71	430.66
427.90	397.89
428.09	475.13
428.28	423.64
428.46	444.70
428.65	421.30
428.84	414.27
429.03	421.30
429.22	402.57
429.40	374.49
429.59	372.15
429.78	463.43
429.97	372.15
430.16	512.58
430.34	339.38
430.53	388.53
430.72	386.19
430.91	425.98
431.10	376.83
431.28	418.96
431.47	451.72
431.66	360.44
431.85	407.25
432.03	444.70
432.22	498.53
432.41	435.34
432.60	376.83
432.79	454.06
432.97	388.53
433.16	437.68
433.35	390.87
433.54	332.36
433.72	454.06
433.91	468.11
434.10	416.62
434.28	358.10
434.47	388.53
434.66	348.74
434.85	367.46
435.03	414.27
435.22	423.64
435.41	465.77
435.59	500.87
435.78	451.72
435.97	449.38
436.16	416.62
436.34	428.32
436.53	454.06
436.72	404.91
436.90	353.42
437.09	433.00
437.28	397.89
437.46	404.91
437.65	414.27
437.84	458.74
438.02	470.45
438.21	435.34
438.40	465.77
438.58	367.46
438.77	379.17
438.96	374.49
439.14	388.53
439.33	418.96
439.52	388.53
439.70	407.25
439.89	423.64
440.08	416.62
440.26	334.70
440.45	423.64
440.63	458.74
440.82	437.68
441.01	400.23
441.19	402.57
441.38	472.79
441.57	400.23
441.75	475.13
441.94	482.15
442.12	451.72
442.31	409.59
442.50	456.40
442.68	355.76
442.87	465.77
443.05	425.98
443.24	416.62
443.43	388.53
443.61	411.93
443.80	397.89
443.98	404.91
444.17	407.25
444.35	468.11
444.54	376.83
444.73	414.27
444.91	421.30
445.10	430.66
445.28	395.55
445.47	386.19
445.65	470.45
445.84	348.74
446.02	442.36
446.21	369.80
446.39	433.00
446.58	407.25
446.77	430.66
446.95	425.98
447.14	433.00
447.32	388.53
447.51	510.24
447.69	430.66
447.88	374.49
448.06	414.27
448.25	435.34
448.43	395.55
448.62	411.93
448.80	463.43
448.99	456.40
449.17	465.77
449.36	475.13
449.54	470.45
449.73	416.62
449.91	346.40
450.10	346.40
450.28	470.45
450.46	447.04
450.65	421.30
450.83	397.89
451.02	402.57
451.20	461.09
451.39	400.23
451.57	428.32
451.76	468.11
451.94	388.53
452.13	379.17
452.31	484.49
452.49	514.92
452.68	355.76
452.86	411.93
453.05	461.09
453.23	376.83
453.42	358.10
453.60	393.21
453.78	395.55
453.97	386.19
454.15	351.08
454.34	402.57
454.52	402.57
454.70	454.06
454.89	475.13
455.07	294.91
455.26	383.85
455.44	381.51
455.62	360.44
455.81	465.77
455.99	454.06
456.17	390.87
456.36	477.47
456.54	449.38
456.73	433.00
456.91	400.23
457.09	390.87
457.28	313.63
457.46	458.74
457.64	454.06
457.83	397.89
458.01	344.06
458.19	430.66
458.38	456.40
458.56	379.17
458.74	416.62
458.93	402.57
459.11	425.98
459.29	395.55
459.48	484.49
459.66	379.17
459.84	463.43
460.03	475.13
460.21	503.22
460.39	355.76
460.57	472.79
460.76	341.72
460.94	376.83
461.12	454.06
461.31	447.04
461.49	428.32
461.67	423.64
461.85	411.93
462.04	360.44
462.22	798.12
462.40	454.06
462.59	470.45
462.77	425.98
462.95	388.53
463.13	411.93
463.32	465.77
463.50	390.87
463.68	440.02
463.86	383.85
464.05	430.66
464.23	402.57
464.41	397.89
464.59	369.80
464.78	344.06
464.96	404.91
465.14	381.51
465.32	411.93
465.50	407.25
465.69	435.34
465.87	339.38
466.05	404.91
466.23	400.23
466.41	402.57
466.60	388.53
466.78	388.53
466.96	449.38
467.14	367.46
467.32	484.49
467.51	442.36
467.69	421.30
467.87	435.34
468.05	386.19
468.23	414.27
468.41	470.45
468.60	409.59
468.78	449.38
468.96	400.23
469.14	428.32
469.32	395.55
469.50	435.34
469.69	414.27
469.87	437.68
470.05	437.68
470.23	433.00
470.41	404.91
470.59	463.43
470.77	397.89
470.95	472.79
471.14	442.36
471.32	390.87
471.50	416.62
471.68	418.96
471.86	418.96
472.04	454.06
472.22	416.62
472.40	332.36
472.58	404.91
472.77	425.98
472.95	386.19
473.13	479.81
473.31	447.04
473.49	418.96
473.67	390.87
473.85	411.93
474.03	397.89
474.21	416.62
474.39	514.92
474.57	395.55
474.75	458.74
474.93	440.02
475.12	430.66
475.30	416.62
475.48	421.30
475.66	428.32
475.84	437.68
476.02	433.00
476.20	477.47
476.38	390.87
476.56	461.09
476.74	433.00
476.92	379.17
477.10	360.44
477.28	482.15
477.46	404.91
477.64	451.72
477.82	379.17
478.00	440.02
478.18	451.72
478.36	430.66
478.54	372.15
478.72	397.89
478.90	458.74
479.08	421.30
479.26	337.04
479.44	425.98
479.62	402.57
479.80	397.89
479.98	475.13
480.16	388.53
480.34	360.44
480.52	351.08
480.70	339.38
480.88	367.46
481.06	407.25
481.24	451.72
481.41	409.59
481.59	451.72
481.77	379.17
481.95	430.66
482.13	472.79
482.31	454.06
482.49	332.36
482.67	411.93
482.85	411.93
483.03	435.34
483.21	440.02
483.39	383.85
483.57	416.62
483.74	472.79
483.92	397.89
484.10	402.57
484.28	414.27
484.46	430.66
484.64	416.62
484.82	447.04
485.00	393.21
485.18	440.02
485.35	437.68
485.53	451.72
485.71	404.91
485.89	379.17
486.07	407.25
486.25	418.96
486.43	479.81
486.61	418.96
486.78	449.38
486.96	416.62
487.14	491.51
487.32	409.59
487.50	386.19
487.68	397.89
487.85	381.51
488.03	416.62
488.21	423.64
488.39	379.17
488.57	440.02
488.75	475.13
488.92	498.53
489.10	425.98
489.28	447.04
489.46	425.98
489.64	409.59
489.81	472.79
489.99	418.96
490.17	386.19
490.35	482.15
490.53	433.00
490.70	440.02
490.88	423.64
491.06	353.42
491.24	416.62
491.41	538.32
491.59	423.64
491.77	353.42
491.95	369.80
492.13	454.06
492.30	409.59
492.48	388.53
492.66	388.53
492.84	397.89
493.01	341.72
493.19	376.83
493.37	433.00
493.54	425.98
493.72	393.21
493.90	447.04
494.08	477.47
494.25	376.83
494.43	409.59
494.61	430.66
494.79	376.83
494.96	383.85
495.14	379.17
495.32	421.30
495.49	337.04
495.67	374.49
495.85	369.80
496.02	341.72
496.20	437.68
496.38	468.11
496.55	362.78
496.73	418.96
496.91	383.85
497.09	500.87
497.26	428.32
497.44	430.66
497.62	430.66
497.79	442.36
497.97	393.21
498.14	411.93
498.32	442.36
498.50	472.79
498.67	376.83
498.85	388.53
499.03	411.93
499.20	395.55
499.38	390.87
499.56	442.36
499.73	442.36
499.91	390.87
500.08	482.15
500.26	425.98
500.44	397.89
500.61	388.53
500.79	383.85
500.97	475.13
501.14	386.19
501.32	367.46
501.49	435.34
501.67	411.93
501.84	409.59
502.02	402.57
502.20	395.55
502.37	461.09
502.55	479.81
502.72	365.12
502.90	428.32
503.07	479.81
503.25	437.68
503.43	404.91
503.60	379.17
503.78	372.15
503.95	425.98
504.13	351.08
504.30	383.85
504.48	477.47
504.65	470.45
504.83	369.80
505.01	402.57
505.18	444.70
505.36	430.66
505.53	341.72
505.71	372.15
505.88	409.59
506.06	374.49
506.23	365.12
506.41	358.10
506.58	440.02
506.76	454.06
506.93	381.51
507.11	458.74
507.28	449.38
507.46	430.66
507.63	395.55
507.81	376.83
507.98	430.66
508.16	451.72
508.33	374.49
508.50	498.53
508.68	362.78
508.85	372.15
509.03	397.89
509.20	421.30
509.38	435.34
509.55	430.66
509.73	407.25
509.90	496.19
510.08	433.00
510.25	484.49
510.42	386.19
510.60	465.77
510.77	500.87
510.95	381.51
511.12	388.53
511.30	447.04
511.47	463.43
511.64	433.00
511.82	442.36
511.99	414.27
512.17	395.55
512.34	369.80
512.51	376.83
512.69	463.43
512.86	461.09
513.04	416.62
513.21	334.70
513.38	421.30
513.56	442.36
513.73	358.10
513.90	360.44
514.08	421.30
514.25	437.68
514.43	376.83
514.60	388.53
514.77	404.91
514.95	442.36
515.12	407.25
515.29	423.64
515.47	411.93
515.64	411.93
515.81	372.15
515.99	519.60
516.16	435.34
516.33	435.34
516.51	367.46
516.68	425.98
516.85	433.00
517.03	416.62
517.20	383.85
517.37	447.04
517.54	418.96
517.72	428.32
517.89	351.08
518.06	379.17
518.24	430.66
518.41	451.72
518.58	421.30
518.75	407.25
518.93	397.89
519.10	407.25
519.27	376.83
519.45	505.56
519.62	388.53
519.79	388.53
519.96	358.10
520.14	454.06
520.31	454.06
520.48	444.70
520.65	428.32
520.83	397.89
521.00	416.62
521.17	454.06
521.34	397.89
521.52	449.38
521.69	451.72
521.86	379.17
522.03	414.27
522.20	507.90
522.38	414.27
522.55	402.57
522.72	372.15
522.89	360.44
523.07	444.70
523.24	411.93
523.41	414.27
523.58	351.08
523.75	440.02
523.92	404.91
524.10	470.45
524.27	468.11
524.44	409.59
524.61	505.56
524.78	444.70
524.96	423.64
525.13	388.53
525.30	379.17
525.47	411.93
525.64	397.89
525.81	414.27
525.98	365.12
526.16	416.62
526.33	407.25
526.50	416.62
526.67	358.10
526.84	325.33
527.01	376.83
527.18	407.25
527.36	456.40
527.53	374.49
527.70	407.25
527.87	444.70
528.04	505.56
528.21	430.66
528.38	449.38
528.55	440.02
528.72	465.77
528.89	498.53
529.07	334.70
529.24	430.66
529.41	433.00
529.58	454.06
529.75	395.55
529.92	425.98
530.09	381.51
530.26	390.87
530.43	407.25
530.60	449.38
530.77	381.51
530.94	376.83
531.11	447.04
531.28	404.91
531.46	428.32
531.63	430.66
531.80	418.96
531.97	433.00
532.14	437.68
532.31	442.36
532.48	475.13
532.65	447.04
532.82	440.02
532.99	430.66
533.16	447.04
533.33	440.02
533.50	395.55
533.67	341.72
533.84	388.53
534.01	421.30
534.18	369.80
534.35	362.78
534.52	430.66
534.69	451.72
534.86	414.27
535.03	395.55
535.20	355.76
535.37	468.11
535.54	404.91
535.71	456.40
535.88	430.66
536.05	440.02
536.22	500.87
536.38	477.47
536.55	423.64
536.72	479.81
536.89	367.46
537.06	433.00
537.23	372.15
537.40	395.55
537.57	442.36
537.74	390.87
537.91	414.27
538.08	414.27
538.25	414.27
538.42	437.68
538.59	456.40
538.75	365.12
538.92	468.11
539.09	500.87
539.26	463.43
539.43	381.51
539.60	367.46
539.77	449.38
539.94	418.96
540.11	390.87
540.28	418.96
540.44	458.74
540.61	386.19
540.78	461.09
540.95	435.34
541.12	425.98
541.29	428.32
541.46	428.32
541.62	383.85
541.79	507.90
541.96	379.17
542.13	421.30
542.30	461.09
542.47	456.40
542.63	388.53
542.80	423.64
542.97	447.04
543.14	397.89
543.31	421.30
543.48	362.78
543.64	475.13
543.81	491.51
543.98	407.25
544.15	468.11
544.32	332.36
544.48	397.89
544.65	402.57
544.82	416.62
544.99	325.33
545.16	430.66
545.32	393.21
545.49	358.10
545.66	386.19
545.83	423.64
546.00	433.00
546.16	425.98
546.33	409.59
546.50	386.19
546.67	489.17
546.83	479.81
547.00	400.23
547.17	421.30
547.34	388.53
547.50	449.38
547.67	463.43
547.84	388.53
548.00	421.30
548.17	409.59
548.34	358.10
548.51	465.77
548.67	468.11
548.84	397.89
549.01	463.43
549.18	461.09
549.34	397.89
549.51	510.24
549.68	472.79
549.84	351.08
550.01	369.80
550.18	514.92
550.34	437.68
550.51	489.17
550.68	514.92
550.84	442.36
551.01	409.59
551.18	444.70
551.34	414.27
551.51	409.59
551.68	442.36
551.84	390.87
552.01	381.51
552.18	388.53
552.34	456.40
552.51	393.21
552.68	468.11
552.84	379.17
553.01	418.96
553.18	374.49
553.34	409.59
553.51	388.53
553.67	409.59
553.84	390.87
554.01	444.70
554.17	416.62
554.34	409.59
554.51	383.85
554.67	376.83
554.84	388.53
555.00	430.66
555.17	454.06
555.33	444.70
555.50	372.15
555.67	437.68
555.83	379.17
556.00	421.30
556.16	613.22
556.33	461.09
556.50	430.66
556.66	423.64
556.83	411.93
556.99	449.38
557.16	442.36
557.32	341.72
557.49	351.08
557.65	355.76
557.82	428.32
557.98	444.70
558.15	418.96
558.32	358.10
558.48	388.53
558.65	388.53
558.81	430.66
558.98	372.15
559.14	421.30
559.31	365.12
559.47	360.44
559.64	463.43
559.80	425.98
559.97	397.89
560.13	418.96
560.30	381.51
560.46	435.34
560.63	404.91
560.79	425.98
560.96	402.57
561.12	390.87
561.29	524.28
561.45	430.66
561.61	409.59
561.78	463.43
561.94	444.70
562.11	376.83
562.27	425.98
562.44	433.00
562.60	423.64
562.77	433.00
562.93	507.90
563.10	381.51
563.26	468.11
563.42	402.57
563.59	379.17
563.75	386.19
563.92	409.59
564.08	362.78
564.24	430.66
564.41	407.25
564.57	503.22
564.74	416.62
564.90	477.47
565.07	418.96
565.23	351.08
565.39	348.74
565.56	470.45
565.72	411.93
565.88	407.25
566.05	360.44
566.21	393.21
566.38	444.70
566.54	433.00
566.70	414.27
566.87	423.64
567.03	360.44
567.19	409.59
567.36	411.93
567.52	435.34
567.68	400.23
567.85	489.17
568.01	383.85
568.17	395.55
568.34	430.66
568.50	517.26
568.66	393.21
568.83	451.72
568.99	402.57
569.15	440.02
569.32	395.55
569.48	395.55
569.64	456.40
569.81	428.32
569.97	433.00
570.13	449.38
570.30	404.91
570.46	400.23
570.62	379.17
570.78	477.47
570.95	397.89
571.11	449.38
571.27	454.06
571.43	416.62
571.60	440.02
571.76	468.11
571.92	472.79
572.09	447.04
572.25	383.85
572.41	423.64
572.57	402.57
572.74	409.59
572.90	395.55
573.06	433.00
573.22	425.98
573.38	358.10
573.55	348.74
573.71	400.23
573.87	458.74
574.03	395.55
574.20	367.46
574.36	482.15
574.52	465.77
574.68	365.12
574.84	428.32
575.01	456.40
575.17	397.89
575.33	435.34
575.49	416.62
575.65	489.17
575.82	397.89
575.98	411.93
576.14	454.06
576.30	395.55
576.46	437.68
576.62	433.00
576.79	421.30
576.95	421.30
577.11	477.47
577.27	433.00
577.43	451.72
577.59	423.64
577.75	442.36
577.92	454.06
578.08	449.38
578.24	386.19
578.40	395.55
578.56	484.49
578.72	440.02
578.88	404.91
579.04	411.93
579.21	414.27
579.37	358.10
579.53	411.93
579.69	479.81
579.85	423.64
580.01	425.98
580.17	372.15
580.33	346.40
580.49	393.21
580.65	397.89
580.82	449.38
580.98	393.21
581.14	379.17
581.30	435.34
581.46	402.57
581.62	472.79
581.78	425.98
581.94	421.30
582.10	395.55
582.26	440.02
582.42	498.53
582.58	376.83
582.74	376.83
582.90	491.51
583.06	442.36
583.22	454.06
583.38	421.30
583.54	418.96
583.70	425.98
583.86	479.81
584.02	386.19
584.18	449.38
584.34	407.25
584.50	433.00
584.66	435.34
584.82	409.59
584.98	454.06
585.14	451.72
585.30	421.30
585.46	451.72
585.62	428.32
585.78	437.68
585.94	414.27
586.10	409.59
586.26	421.30
586.42	390.87
586.58	407.25
586.74	463.43
586.90	388.53
587.06	472.79
587.22	381.51
587.38	400.23
587.54	430.66
587.70	416.62
587.86	440.02
588.02	442.36
588.18	402.57
588.34	500.87
588.49	395.55
588.65	451.72
588.81	400.23
588.97	386.19
589.13	428.32
589.29	407.25
589.45	437.68
589.61	374.49
589.77	421.30
589.93	458.74
590.08	390.87
590.24	397.89
590.40	449.38
590.56	409.59
590.72	386.19
590.88	425.98
591.04	449.38
591.20	437.68
591.35	454.06
591.51	388.53
591.67	477.47
591.83	430.66
591.99	402.57
592.15	458.74
592.31	416.62
592.46	381.51
592.62	468.11
592.78	353.42
592.94	379.17
593.10	418.96
593.26	362.78
593.41	407.25
593.57	404.91
593.73	423.64
593.89	418.96
594.05	430.66
594.20	470.45
594.36	353.42
594.52	388.53
594.68	327.68
594.84	444.70
594.99	390.87
595.15	423.64
595.31	379.17
595.47	433.00
595.62	428.32
595.78	374.49
595.94	479.81
596.10	440.02
596.25	386.19
596.41	468.11
596.57	390.87
596.73	388.53
596.88	386.19
597.04	414.27
597.20	418.96
597.36	348.74
597.51	337.04
597.67	390.87
597.83	472.79
597.99	430.66
598.14	351.08
598.30	465.77
598.46	390.87
598.61	393.21
598.77	440.02
598.93	440.02
599.09	423.64
599.24	423.64
599.40	428.32
599.56	416.62
599.71	372.15
599.87	393.21
600.03	440.02
600.18	379.17
600.34	395.55
600.50	362.78
600.65	386.19
600.81	416.62
600.97	461.09
601.12	386.19
601.28	475.13
601.44	367.46
601.59	423.64
601.75	437.68
601.91	397.89
602.06	327.68
602.22	400.23
602.37	437.68
602.53	409.59
602.69	418.96
602.84	397.89
603.00	365.12
603.16	458.74
603.31	442.36
603.47	437.68
603.62	414.27
603.78	421.30
603.94	463.43
604.09	456.40
604.25	379.17
604.40	468.11
604.56	390.87
604.71	393.21
604.87	395.55
605.03	388.53
605.18	472.79
605.34	512.58
605.49	428.32
605.65	395.55
605.80	430.66
605.96	456.40
606.12	404.91
606.27	402.57
606.43	390.87
606.58	444.70
606.74	409.59
606.89	365.12
607.05	449.38
607.20	423.64
607.36	407.25
607.51	433.00
607.67	468.11
607.82	470.45
607.98	454.06
608.13	404.91
608.29	416.62
608.44	414.27
608.60	376.83
608.75	472.79
608.91	491.51
609.06	468.11
609.22	404.91
609.37	447.04
609.53	428.32
609.68	379.17
609.84	397.89
609.99	283.20
610.15	496.19
