SpectraSuite Data File
++++++++++++++++++++++++++++++++++++
Date: Fri Oct 25 12:11:43 EDT 2013
User: price-jones
Dark Spectrum Present: No
Reference Spectrum Present: No
Number of Sampled Component Spectra: 1
Spectrometers: USB2+H05261
Integration Time (usec): 100000 (USB2+H05261)
Spectra Averaged: 1 (USB2+H05261)
Boxcar Smoothing: 0 (USB2+H05261)
Correct for Electrical Dark: No (USB2+H05261)
Strobe/Lamp Enabled: No (USB2+H05261)
Correct for Detector Non-linearity: No (USB2+H05261)
Correct for Stray Light: No (USB2+H05261)
Number of Pixels in Processed Spectrum: 2048
>>>>>Begin Processed Spectral Data<<<<<
365.73	390.87
365.92	390.87
366.12	390.87
366.32	264.48
366.52	276.18
366.72	287.89
366.91	301.93
367.11	234.05
367.31	229.37
367.51	229.37
367.70	203.63
367.90	210.65
368.10	234.05
368.30	224.69
368.49	299.59
368.69	252.78
368.89	304.27
369.09	269.16
369.28	245.76
369.48	280.86
369.68	348.74
369.87	227.03
370.07	285.55
370.27	313.63
370.47	348.74
370.66	379.17
370.86	353.42
371.06	337.04
371.25	447.04
371.45	339.38
371.65	411.93
371.84	358.10
372.04	280.86
372.24	383.85
372.44	351.08
372.63	393.21
372.83	430.66
373.03	388.53
373.22	374.49
373.42	465.77
373.62	397.89
373.81	393.21
374.01	400.23
374.21	531.30
374.40	388.53
374.60	456.40
374.79	430.66
374.99	456.40
375.19	421.30
375.38	374.49
375.58	435.34
375.78	444.70
375.97	409.59
376.17	503.22
376.37	421.30
376.56	372.15
376.76	486.83
376.95	374.49
377.15	365.12
377.35	428.32
377.54	477.47
377.74	383.85
377.93	411.93
378.13	367.46
378.33	458.74
378.52	369.80
378.72	475.13
378.91	458.74
379.11	409.59
379.31	397.89
379.50	395.55
379.70	404.91
379.89	374.49
380.09	360.44
380.28	437.68
380.48	346.40
380.68	416.62
380.87	433.00
381.07	390.87
381.26	428.32
381.46	451.72
381.65	503.22
381.85	372.15
382.04	360.44
382.24	507.90
382.43	409.59
382.63	484.49
382.83	337.04
383.02	388.53
383.22	465.77
383.41	430.66
383.61	479.81
383.80	468.11
384.00	386.19
384.19	491.51
384.39	388.53
384.58	379.17
384.78	425.98
384.97	447.04
385.17	418.96
385.36	360.44
385.56	374.49
385.75	372.15
385.95	381.51
386.14	365.12
386.34	397.89
386.53	383.85
386.72	433.00
386.92	372.15
387.11	337.04
387.31	435.34
387.50	337.04
387.70	482.15
387.89	369.80
388.09	428.32
388.28	346.40
388.48	332.36
388.67	404.91
388.86	456.40
389.06	482.15
389.25	451.72
389.45	442.36
389.64	372.15
389.84	440.02
390.03	454.06
390.22	407.25
390.42	393.21
390.61	320.65
390.81	402.57
391.00	416.62
391.19	409.59
391.39	390.87
391.58	421.30
391.78	397.89
391.97	322.99
392.16	383.85
392.36	411.93
392.55	374.49
392.75	355.76
392.94	479.81
393.13	454.06
393.33	388.53
393.52	374.49
393.71	447.04
393.91	372.15
394.10	404.91
394.29	386.19
394.49	442.36
394.68	388.53
394.88	458.74
395.07	367.46
395.26	400.23
395.46	449.38
395.65	330.02
395.84	386.19
396.04	477.47
396.23	444.70
396.42	395.55
396.62	379.17
396.81	486.83
397.00	365.12
397.19	379.17
397.39	374.49
397.58	423.64
397.77	404.91
397.97	407.25
398.16	442.36
398.35	433.00
398.55	337.04
398.74	372.15
398.93	411.93
399.12	402.57
399.32	407.25
399.51	400.23
399.70	337.04
399.90	411.93
400.09	435.34
400.28	468.11
400.47	456.40
400.67	367.46
400.86	362.78
401.05	430.66
401.24	411.93
401.44	461.09
401.63	454.06
401.82	414.27
402.01	409.59
402.21	447.04
402.40	358.10
402.59	423.64
402.78	383.85
402.97	458.74
403.17	365.12
403.36	402.57
403.55	388.53
403.74	418.96
403.93	433.00
404.13	458.74
404.32	400.23
404.51	425.98
404.70	421.30
404.89	388.53
405.09	400.23
405.28	365.12
405.47	355.76
405.66	421.30
405.85	414.27
406.05	437.68
406.24	425.98
406.43	430.66
406.62	435.34
406.81	461.09
407.00	397.89
407.20	465.77
407.39	456.40
407.58	454.06
407.77	414.27
407.96	444.70
408.15	486.83
408.34	444.70
408.54	491.51
408.73	461.09
408.92	367.46
409.11	456.40
409.30	362.78
409.49	397.89
409.68	397.89
409.87	472.79
410.07	367.46
410.26	393.21
410.45	461.09
410.64	421.30
410.83	418.96
411.02	376.83
411.21	425.98
411.40	444.70
411.59	465.77
411.78	379.17
411.98	423.64
412.17	421.30
412.36	435.34
412.55	435.34
412.74	517.26
412.93	437.68
413.12	393.21
413.31	348.74
413.50	416.62
413.69	442.36
413.88	472.79
414.07	367.46
414.26	411.93
414.45	372.15
414.64	475.13
414.83	386.19
415.02	400.23
415.22	442.36
415.41	404.91
415.60	351.08
415.79	463.43
415.98	507.90
416.17	451.72
416.36	404.91
416.55	416.62
416.74	407.25
416.93	388.53
417.12	351.08
417.31	454.06
417.50	360.44
417.69	456.40
417.88	451.72
418.07	344.06
418.26	383.85
418.45	337.04
418.64	442.36
418.83	433.00
419.02	411.93
419.21	388.53
419.39	447.04
419.58	416.62
419.77	390.87
419.96	411.93
420.15	430.66
420.34	348.74
420.53	407.25
420.72	479.81
420.91	402.57
421.10	414.27
421.29	479.81
421.48	437.68
421.67	397.89
421.86	337.04
422.05	341.72
422.24	379.17
422.43	411.93
422.61	344.06
422.80	346.40
422.99	395.55
423.18	346.40
423.37	507.90
423.56	421.30
423.75	407.25
423.94	397.89
424.13	332.36
424.32	411.93
424.50	435.34
424.69	411.93
424.88	383.85
425.07	400.23
425.26	442.36
425.45	449.38
425.64	402.57
425.83	397.89
426.01	395.55
426.20	337.04
426.39	418.96
426.58	435.34
426.77	416.62
426.96	463.43
427.15	435.34
427.33	397.89
427.52	379.17
427.71	397.89
427.90	393.21
428.09	423.64
428.28	386.19
428.46	451.72
428.65	468.11
428.84	444.70
429.03	428.32
429.22	411.93
429.40	425.98
429.59	449.38
429.78	451.72
429.97	430.66
430.16	463.43
430.34	367.46
430.53	353.42
430.72	447.04
430.91	451.72
431.10	383.85
431.28	430.66
431.47	470.45
431.66	477.47
431.85	414.27
432.03	477.47
432.22	418.96
432.41	393.21
432.60	461.09
432.79	369.80
432.97	360.44
433.16	404.91
433.35	362.78
433.54	437.68
433.72	358.10
433.91	409.59
434.10	353.42
434.28	383.85
434.47	341.72
434.66	409.59
434.85	421.30
435.03	388.53
435.22	442.36
435.41	449.38
435.59	451.72
435.78	374.49
435.97	372.15
436.16	348.74
436.34	386.19
436.53	454.06
436.72	411.93
436.90	454.06
437.09	433.00
437.28	470.45
437.46	440.02
437.65	416.62
437.84	458.74
438.02	437.68
438.21	465.77
438.40	421.30
438.58	395.55
438.77	442.36
438.96	381.51
439.14	332.36
439.33	442.36
439.52	430.66
439.70	388.53
439.89	447.04
440.08	425.98
440.26	414.27
440.45	393.21
440.63	428.32
440.82	430.66
441.01	411.93
441.19	425.98
441.38	397.89
441.57	402.57
441.75	461.09
441.94	393.21
442.12	435.34
442.31	365.12
442.50	390.87
442.68	372.15
442.87	430.66
443.05	447.04
443.24	367.46
443.43	428.32
443.61	379.17
443.80	433.00
443.98	416.62
444.17	381.51
444.35	402.57
444.54	423.64
444.73	414.27
444.91	475.13
445.10	374.49
445.28	477.47
445.47	404.91
445.65	411.93
445.84	465.77
446.02	381.51
446.21	411.93
446.39	447.04
446.58	416.62
446.77	470.45
446.95	381.51
447.14	449.38
447.32	442.36
447.51	402.57
447.69	472.79
447.88	395.55
448.06	472.79
448.25	421.30
448.43	423.64
448.62	390.87
448.80	390.87
448.99	461.09
449.17	411.93
449.36	454.06
449.54	376.83
449.73	430.66
449.91	421.30
450.10	407.25
450.28	428.32
450.46	470.45
450.65	423.64
450.83	449.38
451.02	449.38
451.20	458.74
451.39	395.55
451.57	397.89
451.76	404.91
451.94	330.02
452.13	437.68
452.31	430.66
452.49	482.15
452.68	428.32
452.86	484.49
453.05	477.47
453.23	386.19
453.42	411.93
453.60	468.11
453.78	393.21
453.97	414.27
454.15	372.15
454.34	369.80
454.52	374.49
454.70	428.32
454.89	306.61
455.07	425.98
455.26	461.09
455.44	404.91
455.62	388.53
455.81	390.87
455.99	421.30
456.17	381.51
456.36	477.47
456.54	454.06
456.73	404.91
456.91	372.15
457.09	442.36
457.28	400.23
457.46	425.98
457.64	430.66
457.83	330.02
458.01	437.68
458.19	447.04
458.38	407.25
458.56	442.36
458.74	379.17
458.93	461.09
459.11	498.53
459.29	402.57
459.48	397.89
459.66	479.81
459.84	388.53
460.03	404.91
460.21	496.19
460.39	362.78
460.57	322.99
460.76	433.00
460.94	358.10
461.12	360.44
461.31	414.27
461.49	475.13
461.67	393.21
461.85	365.12
462.04	374.49
462.22	819.19
462.40	407.25
462.59	425.98
462.77	402.57
462.95	344.06
463.13	395.55
463.32	444.70
463.50	435.34
463.68	449.38
463.86	390.87
464.05	386.19
464.23	362.78
464.41	428.32
464.59	402.57
464.78	386.19
464.96	477.47
465.14	388.53
465.32	472.79
465.50	437.68
465.69	500.87
465.87	381.51
466.05	477.47
466.23	346.40
466.41	444.70
466.60	414.27
466.78	367.46
466.96	428.32
467.14	482.15
467.32	395.55
467.51	397.89
467.69	423.64
467.87	409.59
468.05	433.00
468.23	416.62
468.41	447.04
468.60	454.06
468.78	362.78
468.96	395.55
469.14	433.00
469.32	435.34
469.50	421.30
469.69	418.96
469.87	468.11
470.05	430.66
470.23	390.87
470.41	435.34
470.59	433.00
470.77	315.97
470.95	341.72
471.14	374.49
471.32	447.04
471.50	425.98
471.68	416.62
471.86	374.49
472.04	383.85
472.22	484.49
472.40	409.59
472.58	388.53
472.77	386.19
472.95	407.25
473.13	470.45
473.31	423.64
473.49	393.21
473.67	418.96
473.85	409.59
474.03	409.59
474.21	440.02
474.39	383.85
474.57	425.98
474.75	400.23
474.93	358.10
475.12	409.59
475.30	416.62
475.48	458.74
475.66	507.90
475.84	402.57
476.02	444.70
476.20	451.72
476.38	465.77
476.56	433.00
476.74	409.59
476.92	451.72
477.10	320.65
477.28	484.49
477.46	430.66
477.64	458.74
477.82	416.62
478.00	428.32
478.18	421.30
478.36	381.51
478.54	409.59
478.72	369.80
478.90	372.15
479.08	461.09
479.26	440.02
479.44	456.40
479.62	458.74
479.80	470.45
479.98	409.59
480.16	524.28
480.34	454.06
480.52	351.08
480.70	433.00
480.88	402.57
481.06	454.06
481.24	428.32
481.41	376.83
481.59	451.72
481.77	449.38
481.95	449.38
482.13	376.83
482.31	428.32
482.49	386.19
482.67	433.00
482.85	411.93
483.03	411.93
483.21	397.89
483.39	414.27
483.57	447.04
483.74	472.79
483.92	437.68
484.10	409.59
484.28	430.66
484.46	411.93
484.64	409.59
484.82	353.42
485.00	425.98
485.18	425.98
485.35	433.00
485.53	390.87
485.71	475.13
485.89	430.66
486.07	416.62
486.25	463.43
486.43	430.66
486.61	386.19
486.78	397.89
486.96	442.36
487.14	395.55
487.32	355.76
487.50	423.64
487.68	442.36
487.85	397.89
488.03	376.83
488.21	360.44
488.39	418.96
488.57	449.38
488.75	430.66
488.92	433.00
489.10	489.17
489.28	400.23
489.46	409.59
489.64	365.12
489.81	418.96
489.99	402.57
490.17	407.25
490.35	472.79
490.53	435.34
490.70	454.06
490.88	386.19
491.06	407.25
491.24	421.30
491.41	463.43
491.59	409.59
491.77	475.13
491.95	393.21
492.13	440.02
492.30	407.25
492.48	418.96
492.66	433.00
492.84	454.06
493.01	339.38
493.19	383.85
493.37	491.51
493.54	463.43
493.72	421.30
493.90	397.89
494.08	344.06
494.25	463.43
494.43	425.98
494.61	416.62
494.79	369.80
494.96	395.55
495.14	376.83
495.32	440.02
495.49	449.38
495.67	379.17
495.85	400.23
496.02	332.36
496.20	444.70
496.38	397.89
496.55	388.53
496.73	418.96
496.91	397.89
497.09	449.38
497.26	376.83
497.44	372.15
497.62	388.53
497.79	411.93
497.97	409.59
498.14	421.30
498.32	330.02
498.50	447.04
498.67	465.77
498.85	404.91
499.03	320.65
499.20	407.25
499.38	425.98
499.56	479.81
499.73	475.13
499.91	425.98
500.08	376.83
500.26	379.17
500.44	393.21
500.61	433.00
500.79	470.45
500.97	475.13
501.14	468.11
501.32	461.09
501.49	437.68
501.67	386.19
501.84	430.66
502.02	374.49
502.20	440.02
502.37	409.59
502.55	472.79
502.72	425.98
502.90	407.25
503.07	407.25
503.25	418.96
503.43	421.30
503.60	444.70
503.78	381.51
503.95	442.36
504.13	374.49
504.30	491.51
504.48	409.59
504.65	440.02
504.83	386.19
505.01	472.79
505.18	428.32
505.36	468.11
505.53	421.30
505.71	433.00
505.88	444.70
506.06	451.72
506.23	383.85
506.41	428.32
506.58	407.25
506.76	437.68
506.93	414.27
507.11	414.27
507.28	379.17
507.46	393.21
507.63	411.93
507.81	400.23
507.98	381.51
508.16	456.40
508.33	423.64
508.50	486.83
508.68	358.10
508.85	456.40
509.03	367.46
509.20	390.87
509.38	374.49
509.55	444.70
509.73	400.23
509.90	454.06
510.08	374.49
510.25	435.34
510.42	400.23
510.60	489.17
510.77	423.64
510.95	444.70
511.12	397.89
511.30	468.11
511.47	472.79
511.64	500.87
511.82	395.55
511.99	472.79
512.17	409.59
512.34	332.36
512.51	369.80
512.69	447.04
512.86	454.06
513.04	496.19
513.21	458.74
513.38	454.06
513.56	355.76
513.73	472.79
513.90	379.17
514.08	470.45
514.25	397.89
514.43	409.59
514.60	372.15
514.77	404.91
514.95	374.49
515.12	369.80
515.29	416.62
515.47	472.79
515.64	425.98
515.81	400.23
515.99	444.70
516.16	435.34
516.33	472.79
516.51	388.53
516.68	423.64
516.85	428.32
517.03	404.91
517.20	425.98
517.37	496.19
517.54	444.70
517.72	454.06
517.89	393.21
518.06	372.15
518.24	444.70
518.41	449.38
518.58	465.77
518.75	468.11
518.93	437.68
519.10	458.74
519.27	423.64
519.45	435.34
519.62	416.62
519.79	388.53
519.96	428.32
520.14	388.53
520.31	500.87
520.48	407.25
520.65	402.57
520.83	435.34
521.00	388.53
521.17	346.40
521.34	365.12
521.52	411.93
521.69	355.76
521.86	386.19
522.03	414.27
522.20	409.59
522.38	493.85
522.55	475.13
522.72	369.80
522.89	475.13
523.07	447.04
523.24	367.46
523.41	435.34
523.58	388.53
523.75	418.96
523.92	418.96
524.10	416.62
524.27	421.30
524.44	416.62
524.61	411.93
524.78	433.00
524.96	475.13
525.13	468.11
525.30	430.66
525.47	449.38
525.64	407.25
525.81	430.66
525.98	400.23
526.16	428.32
526.33	379.17
526.50	383.85
526.67	388.53
526.84	402.57
527.01	381.51
527.18	454.06
527.36	449.38
527.53	402.57
527.70	507.90
527.87	479.81
528.04	484.49
528.21	463.43
528.38	423.64
528.55	437.68
528.72	421.30
528.89	468.11
529.07	451.72
529.24	404.91
529.41	430.66
529.58	465.77
529.75	402.57
529.92	418.96
530.09	416.62
530.26	428.32
530.43	447.04
530.60	433.00
530.77	379.17
530.94	418.96
531.11	437.68
531.28	447.04
531.46	449.38
531.63	388.53
531.80	433.00
531.97	468.11
532.14	444.70
532.31	390.87
532.48	407.25
532.65	430.66
532.82	362.78
532.99	411.93
533.16	428.32
533.33	400.23
533.50	400.23
533.67	444.70
533.84	491.51
534.01	435.34
534.18	416.62
534.35	479.81
534.52	461.09
534.69	440.02
534.86	454.06
535.03	327.68
535.20	421.30
535.37	395.55
535.54	379.17
535.71	407.25
535.88	388.53
536.05	433.00
536.22	430.66
536.38	435.34
536.55	458.74
536.72	437.68
536.89	435.34
537.06	435.34
537.23	337.04
537.40	430.66
537.57	437.68
537.74	521.94
537.91	454.06
538.08	447.04
538.25	421.30
538.42	369.80
538.59	376.83
538.75	433.00
538.92	407.25
539.09	376.83
539.26	489.17
539.43	454.06
539.60	407.25
539.77	402.57
539.94	451.72
540.11	390.87
540.28	390.87
540.44	442.36
540.61	416.62
540.78	472.79
540.95	395.55
541.12	482.15
541.29	435.34
541.46	447.04
541.62	386.19
541.79	425.98
541.96	393.21
542.13	402.57
542.30	442.36
542.47	402.57
542.63	339.38
542.80	409.59
542.97	498.53
543.14	395.55
543.31	433.00
543.48	465.77
543.64	409.59
543.81	447.04
543.98	372.15
544.15	428.32
544.32	400.23
544.48	465.77
544.65	383.85
544.82	444.70
544.99	444.70
545.16	376.83
545.32	404.91
545.49	416.62
545.66	362.78
545.83	390.87
546.00	365.12
546.16	505.56
546.33	348.74
546.50	358.10
546.67	416.62
546.83	388.53
547.00	362.78
547.17	367.46
547.34	468.11
547.50	407.25
547.67	397.89
547.84	461.09
548.00	421.30
548.17	440.02
548.34	498.53
548.51	451.72
548.67	428.32
548.84	414.27
549.01	414.27
549.18	440.02
549.34	409.59
549.51	367.46
549.68	428.32
549.84	435.34
550.01	330.02
550.18	454.06
550.34	503.22
550.51	418.96
550.68	397.89
550.84	365.12
551.01	379.17
551.18	395.55
551.34	397.89
551.51	447.04
551.68	433.00
551.84	390.87
552.01	407.25
552.18	454.06
552.34	430.66
552.51	440.02
552.68	470.45
552.84	423.64
553.01	376.83
553.18	437.68
553.34	428.32
553.51	397.89
553.67	379.17
553.84	423.64
554.01	524.28
554.17	332.36
554.34	414.27
554.51	484.49
554.67	425.98
554.84	475.13
555.00	390.87
555.17	381.51
555.33	400.23
555.50	353.42
555.67	454.06
555.83	379.17
556.00	334.70
556.16	559.39
556.33	456.40
556.50	463.43
556.66	451.72
556.83	425.98
556.99	421.30
557.16	479.81
557.32	358.10
557.49	510.24
557.65	418.96
557.82	372.15
557.98	400.23
558.15	407.25
558.32	367.46
558.48	393.21
558.65	472.79
558.81	425.98
558.98	386.19
559.14	442.36
559.31	376.83
559.47	430.66
559.64	414.27
559.80	376.83
559.97	447.04
560.13	454.06
560.30	360.44
560.46	425.98
560.63	287.89
560.79	440.02
560.96	386.19
561.12	404.91
561.29	416.62
561.45	437.68
561.61	433.00
561.78	456.40
561.94	416.62
562.11	365.12
562.27	369.80
562.44	418.96
562.60	440.02
562.77	409.59
562.93	472.79
563.10	437.68
563.26	423.64
563.42	430.66
563.59	461.09
563.75	456.40
563.92	418.96
564.08	433.00
564.24	421.30
564.41	444.70
564.57	444.70
564.74	454.06
564.90	475.13
565.07	411.93
565.23	421.30
565.39	425.98
565.56	369.80
565.72	421.30
565.88	416.62
566.05	465.77
566.21	430.66
566.38	397.89
566.54	376.83
566.70	376.83
566.87	430.66
567.03	374.49
567.19	407.25
567.36	479.81
567.52	376.83
567.68	393.21
567.85	421.30
568.01	383.85
568.17	458.74
568.34	411.93
568.50	468.11
568.66	388.53
568.83	479.81
568.99	430.66
569.15	404.91
569.32	327.68
569.48	414.27
569.64	418.96
569.81	395.55
569.97	433.00
570.13	400.23
570.30	454.06
570.46	449.38
570.62	360.44
570.78	444.70
570.95	360.44
571.11	421.30
571.27	451.72
571.43	461.09
571.60	440.02
571.76	388.53
571.92	465.77
572.09	454.06
572.25	390.87
572.41	433.00
572.57	416.62
572.74	514.92
572.90	470.45
573.06	472.79
573.22	442.36
573.38	428.32
573.55	433.00
573.71	493.85
573.87	407.25
574.03	404.91
574.20	369.80
574.36	397.89
574.52	414.27
574.68	337.04
574.84	388.53
575.01	416.62
575.17	355.76
575.33	365.12
575.49	463.43
575.65	442.36
575.82	376.83
575.98	423.64
576.14	451.72
576.30	423.64
576.46	334.70
576.62	386.19
576.79	411.93
576.95	468.11
577.11	416.62
577.27	451.72
577.43	402.57
577.59	451.72
577.75	463.43
577.92	454.06
578.08	344.06
578.24	386.19
578.40	425.98
578.56	430.66
578.72	433.00
578.88	365.12
579.04	463.43
579.21	407.25
579.37	409.59
579.53	386.19
579.69	468.11
579.85	482.15
580.01	461.09
580.17	418.96
580.33	433.00
580.49	465.77
580.65	407.25
580.82	449.38
580.98	447.04
581.14	411.93
581.30	418.96
581.46	440.02
581.62	369.80
581.78	447.04
581.94	390.87
582.10	407.25
582.26	456.40
582.42	437.68
582.58	461.09
582.74	365.12
582.90	421.30
583.06	430.66
583.22	454.06
583.38	393.21
583.54	402.57
583.70	414.27
583.86	484.49
584.02	393.21
584.18	470.45
584.34	397.89
584.50	463.43
584.66	332.36
584.82	404.91
584.98	458.74
585.14	381.51
585.30	386.19
585.46	395.55
585.62	447.04
585.78	372.15
585.94	463.43
586.10	451.72
586.26	395.55
586.42	463.43
586.58	435.34
586.74	430.66
586.90	444.70
587.06	479.81
587.22	449.38
587.38	369.80
587.54	367.46
587.70	397.89
587.86	376.83
588.02	456.40
588.18	404.91
588.34	421.30
588.49	414.27
588.65	430.66
588.81	423.64
588.97	430.66
589.13	421.30
589.29	404.91
589.45	489.17
589.61	421.30
589.77	463.43
589.93	437.68
590.08	411.93
590.24	407.25
590.40	346.40
590.56	433.00
590.72	465.77
590.88	390.87
591.04	393.21
591.20	372.15
591.35	400.23
591.51	407.25
591.67	386.19
591.83	433.00
591.99	416.62
592.15	472.79
592.31	418.96
592.46	400.23
592.62	435.34
592.78	393.21
592.94	400.23
593.10	418.96
593.26	421.30
593.41	416.62
593.57	430.66
593.73	428.32
593.89	402.57
594.05	428.32
594.20	430.66
594.36	428.32
594.52	475.13
594.68	425.98
594.84	372.15
594.99	397.89
595.15	428.32
595.31	397.89
595.47	407.25
595.62	404.91
595.78	386.19
595.94	421.30
596.10	475.13
596.25	425.98
596.41	407.25
596.57	407.25
596.73	484.49
596.88	409.59
597.04	376.83
597.20	458.74
597.36	447.04
597.51	433.00
597.67	395.55
597.83	367.46
597.99	470.45
598.14	404.91
598.30	489.17
598.46	510.24
598.61	451.72
598.77	409.59
598.93	437.68
599.09	372.15
599.24	444.70
599.40	383.85
599.56	440.02
599.71	390.87
599.87	442.36
600.03	383.85
600.18	414.27
600.34	425.98
600.50	451.72
600.65	358.10
600.81	437.68
600.97	475.13
601.12	367.46
601.28	416.62
601.44	388.53
601.59	491.51
601.75	362.78
601.91	381.51
602.06	372.15
602.22	461.09
602.37	383.85
602.53	451.72
602.69	430.66
602.84	334.70
603.00	362.78
603.16	440.02
603.31	470.45
603.47	435.34
603.62	414.27
603.78	372.15
603.94	425.98
604.09	437.68
604.25	440.02
604.40	444.70
604.56	395.55
604.71	437.68
604.87	418.96
605.03	428.32
605.18	430.66
605.34	411.93
605.49	388.53
605.65	468.11
605.80	369.80
605.96	400.23
606.12	409.59
606.27	442.36
606.43	367.46
606.58	360.44
606.74	435.34
606.89	374.49
607.05	400.23
607.20	379.17
607.36	390.87
607.51	411.93
607.67	468.11
607.82	454.06
607.98	395.55
608.13	440.02
608.29	411.93
608.44	491.51
608.60	505.56
608.75	334.70
608.91	423.64
609.06	461.09
609.22	479.81
609.37	369.80
609.53	447.04
609.68	411.93
609.84	404.91
609.99	409.59
610.15	362.78
