SpectraSuite Data File
++++++++++++++++++++++++++++++++++++
Date: Fri Oct 25 12:10:40 EDT 2013
User: price-jones
Dark Spectrum Present: No
Reference Spectrum Present: No
Number of Sampled Component Spectra: 1
Spectrometers: USB2+H05261
Integration Time (usec): 100000 (USB2+H05261)
Spectra Averaged: 1 (USB2+H05261)
Boxcar Smoothing: 0 (USB2+H05261)
Correct for Electrical Dark: No (USB2+H05261)
Strobe/Lamp Enabled: No (USB2+H05261)
Correct for Detector Non-linearity: No (USB2+H05261)
Correct for Stray Light: No (USB2+H05261)
Number of Pixels in Processed Spectrum: 2048
>>>>>Begin Processed Spectral Data<<<<<
365.73	330.02
365.92	330.02
366.12	330.02
366.32	255.12
366.52	220.01
366.72	285.55
366.91	212.99
367.11	266.82
367.31	234.05
367.51	201.29
367.70	196.60
367.90	280.86
368.10	224.69
368.30	257.46
368.49	276.18
368.69	227.03
368.89	273.84
369.09	278.52
369.28	255.12
369.48	299.59
369.68	229.37
369.87	318.31
370.07	372.15
370.27	322.99
370.47	337.04
370.66	276.18
370.86	402.57
371.06	416.62
371.25	351.08
371.45	374.49
371.65	407.25
371.84	367.46
372.04	332.36
372.24	435.34
372.44	428.32
372.63	414.27
372.83	341.72
373.03	367.46
373.22	351.08
373.42	372.15
373.62	416.62
373.81	367.46
374.01	442.36
374.21	395.55
374.40	454.06
374.60	461.09
374.79	386.19
374.99	430.66
375.19	374.49
375.38	458.74
375.58	458.74
375.78	447.04
375.97	433.00
376.17	477.47
376.37	388.53
376.56	409.59
376.76	430.66
376.95	414.27
377.15	402.57
377.35	465.77
377.54	444.70
377.74	418.96
377.93	430.66
378.13	409.59
378.33	416.62
378.52	447.04
378.72	390.87
378.91	463.43
379.11	409.59
379.31	386.19
379.50	367.46
379.70	433.00
379.89	482.15
380.09	407.25
380.28	423.64
380.48	372.15
380.68	397.89
380.87	484.49
381.07	402.57
381.26	451.72
381.46	451.72
381.65	451.72
381.85	411.93
382.04	367.46
382.24	355.76
382.43	416.62
382.63	372.15
382.83	390.87
383.02	374.49
383.22	451.72
383.41	421.30
383.61	381.51
383.80	388.53
384.00	428.32
384.19	414.27
384.39	491.51
384.58	425.98
384.78	416.62
384.97	449.38
385.17	390.87
385.36	454.06
385.56	379.17
385.75	393.21
385.95	447.04
386.14	421.30
386.34	400.23
386.53	465.77
386.72	451.72
386.92	409.59
387.11	395.55
387.31	381.51
387.50	421.30
387.70	407.25
387.89	428.32
388.09	402.57
388.28	395.55
388.48	339.38
388.67	411.93
388.86	418.96
389.06	409.59
389.25	353.42
389.45	379.17
389.64	383.85
389.84	353.42
390.03	393.21
390.22	414.27
390.42	383.85
390.61	344.06
390.81	339.38
391.00	397.89
391.19	425.98
391.39	358.10
391.58	400.23
391.78	409.59
391.97	381.51
392.16	416.62
392.36	447.04
392.55	416.62
392.75	435.34
392.94	381.51
393.13	362.78
393.33	416.62
393.52	341.72
393.71	423.64
393.91	390.87
394.10	367.46
394.29	358.10
394.49	383.85
394.68	381.51
394.88	440.02
395.07	379.17
395.26	341.72
395.46	360.44
395.65	402.57
395.84	437.68
396.04	402.57
396.23	423.64
396.42	402.57
396.62	390.87
396.81	418.96
397.00	400.23
397.19	428.32
397.39	334.70
397.58	418.96
397.77	369.80
397.97	433.00
398.16	402.57
398.35	463.43
398.55	379.17
398.74	348.74
398.93	414.27
399.12	351.08
399.32	433.00
399.51	454.06
399.70	376.83
399.90	402.57
400.09	444.70
400.28	362.78
400.47	383.85
400.67	414.27
400.86	346.40
401.05	404.91
401.24	421.30
401.44	369.80
401.63	348.74
401.82	447.04
402.01	390.87
402.21	423.64
402.40	388.53
402.59	423.64
402.78	351.08
402.97	400.23
403.17	514.92
403.36	402.57
403.55	383.85
403.74	386.19
403.93	479.81
404.13	440.02
404.32	409.59
404.51	372.15
404.70	397.89
404.89	395.55
405.09	456.40
405.28	402.57
405.47	393.21
405.66	440.02
405.85	440.02
406.05	372.15
406.24	388.53
406.43	397.89
406.62	397.89
406.81	416.62
407.00	491.51
407.20	440.02
407.39	402.57
407.58	346.40
407.77	430.66
407.96	365.12
408.15	379.17
408.34	379.17
408.54	369.80
408.73	430.66
408.92	442.36
409.11	503.22
409.30	322.99
409.49	390.87
409.68	414.27
409.87	372.15
410.07	437.68
410.26	395.55
410.45	388.53
410.64	381.51
410.83	393.21
411.02	395.55
411.21	440.02
411.40	437.68
411.59	383.85
411.78	418.96
411.98	440.02
412.17	414.27
412.36	435.34
412.55	425.98
412.74	365.12
412.93	489.17
413.12	425.98
413.31	458.74
413.50	397.89
413.69	421.30
413.88	447.04
414.07	472.79
414.26	390.87
414.45	411.93
414.64	425.98
414.83	379.17
415.02	484.49
415.22	407.25
415.41	500.87
415.60	425.98
415.79	365.12
415.98	386.19
416.17	411.93
416.36	449.38
416.55	411.93
416.74	423.64
416.93	372.15
417.12	397.89
417.31	409.59
417.50	393.21
417.69	433.00
417.88	358.10
418.07	411.93
418.26	418.96
418.45	414.27
418.64	400.23
418.83	362.78
419.02	351.08
419.21	489.17
419.39	451.72
419.58	433.00
419.77	369.80
419.96	468.11
420.15	393.21
420.34	395.55
420.53	367.46
420.72	442.36
420.91	440.02
421.10	423.64
421.29	425.98
421.48	416.62
421.67	393.21
421.86	418.96
422.05	418.96
422.24	421.30
422.43	311.29
422.61	421.30
422.80	418.96
422.99	383.85
423.18	393.21
423.37	437.68
423.56	456.40
423.75	442.36
423.94	416.62
424.13	395.55
424.32	407.25
424.50	433.00
424.69	444.70
424.88	458.74
425.07	414.27
425.26	411.93
425.45	416.62
425.64	383.85
425.83	409.59
426.01	449.38
426.20	407.25
426.39	337.04
426.58	372.15
426.77	358.10
426.96	421.30
427.15	418.96
427.33	360.44
427.52	451.72
427.71	374.49
427.90	430.66
428.09	365.12
428.28	437.68
428.46	416.62
428.65	437.68
428.84	383.85
429.03	374.49
429.22	498.53
429.40	386.19
429.59	407.25
429.78	444.70
429.97	425.98
430.16	472.79
430.34	407.25
430.53	388.53
430.72	435.34
430.91	435.34
431.10	463.43
431.28	404.91
431.47	461.09
431.66	414.27
431.85	404.91
432.03	402.57
432.22	430.66
432.41	320.65
432.60	423.64
432.79	435.34
432.97	465.77
433.16	374.49
433.35	355.76
433.54	351.08
433.72	409.59
433.91	425.98
434.10	376.83
434.28	451.72
434.47	362.78
434.66	449.38
434.85	498.53
435.03	421.30
435.22	458.74
435.41	367.46
435.59	479.81
435.78	444.70
435.97	360.44
436.16	421.30
436.34	430.66
436.53	397.89
436.72	456.40
436.90	414.27
437.09	425.98
437.28	435.34
437.46	461.09
437.65	376.83
437.84	468.11
438.02	358.10
438.21	449.38
438.40	416.62
438.58	362.78
438.77	416.62
438.96	404.91
439.14	416.62
439.33	428.32
439.52	423.64
439.70	440.02
439.89	348.74
440.08	404.91
440.26	421.30
440.45	437.68
440.63	411.93
440.82	433.00
441.01	372.15
441.19	458.74
441.38	351.08
441.57	456.40
441.75	454.06
441.94	421.30
442.12	428.32
442.31	430.66
442.50	404.91
442.68	407.25
442.87	430.66
443.05	461.09
443.24	444.70
443.43	433.00
443.61	435.34
443.80	430.66
443.98	407.25
444.17	433.00
444.35	358.10
444.54	451.72
444.73	339.38
444.91	440.02
445.10	388.53
445.28	414.27
445.47	428.32
445.65	407.25
445.84	430.66
446.02	388.53
446.21	425.98
446.39	395.55
446.58	386.19
446.77	418.96
446.95	353.42
447.14	402.57
447.32	435.34
447.51	369.80
447.69	482.15
447.88	442.36
448.06	454.06
448.25	369.80
448.43	409.59
448.62	346.40
448.80	367.46
448.99	404.91
449.17	362.78
449.36	346.40
449.54	423.64
449.73	390.87
449.91	423.64
450.10	430.66
450.28	468.11
450.46	444.70
450.65	447.04
450.83	322.99
451.02	449.38
451.20	416.62
451.39	428.32
451.57	367.46
451.76	369.80
451.94	397.89
452.13	442.36
452.31	423.64
452.49	428.32
452.68	418.96
452.86	418.96
453.05	409.59
453.23	442.36
453.42	353.42
453.60	414.27
453.78	454.06
453.97	411.93
454.15	465.77
454.34	404.91
454.52	372.15
454.70	435.34
454.89	435.34
455.07	379.17
455.26	430.66
455.44	440.02
455.62	339.38
455.81	379.17
455.99	409.59
456.17	489.17
456.36	435.34
456.54	470.45
456.73	484.49
456.91	379.17
457.09	470.45
457.28	454.06
457.46	416.62
457.64	376.83
457.83	360.44
458.01	381.51
458.19	400.23
458.38	414.27
458.56	421.30
458.74	400.23
458.93	423.64
459.11	418.96
459.29	379.17
459.48	425.98
459.66	463.43
459.84	451.72
460.03	465.77
460.21	425.98
460.39	372.15
460.57	463.43
460.76	465.77
460.94	470.45
461.12	409.59
461.31	381.51
461.49	381.51
461.67	430.66
461.85	341.72
462.04	416.62
462.22	720.88
462.40	435.34
462.59	414.27
462.77	390.87
462.95	414.27
463.13	435.34
463.32	458.74
463.50	418.96
463.68	416.62
463.86	425.98
464.05	386.19
464.23	421.30
464.41	442.36
464.59	379.17
464.78	404.91
464.96	376.83
465.14	430.66
465.32	414.27
465.50	407.25
465.69	407.25
465.87	428.32
466.05	397.89
466.23	430.66
466.41	327.68
466.60	404.91
466.78	381.51
466.96	442.36
467.14	379.17
467.32	514.92
467.51	430.66
467.69	465.77
467.87	444.70
468.05	334.70
468.23	421.30
468.41	461.09
468.60	409.59
468.78	444.70
468.96	482.15
469.14	383.85
469.32	397.89
469.50	416.62
469.69	409.59
469.87	447.04
470.05	442.36
470.23	472.79
470.41	442.36
470.59	393.21
470.77	407.25
470.95	367.46
471.14	442.36
471.32	353.42
471.50	444.70
471.68	428.32
471.86	365.12
472.04	418.96
472.22	393.21
472.40	386.19
472.58	381.51
472.77	402.57
472.95	358.10
473.13	447.04
473.31	456.40
473.49	402.57
473.67	409.59
473.85	428.32
474.03	444.70
474.21	416.62
474.39	484.49
474.57	475.13
474.75	411.93
474.93	418.96
475.12	430.66
475.30	397.89
475.48	428.32
475.66	442.36
475.84	472.79
476.02	428.32
476.20	411.93
476.38	437.68
476.56	442.36
476.74	400.23
476.92	397.89
477.10	477.47
477.28	465.77
477.46	374.49
477.64	421.30
477.82	383.85
478.00	414.27
478.18	430.66
478.36	351.08
478.54	402.57
478.72	365.12
478.90	325.33
479.08	463.43
479.26	425.98
479.44	360.44
479.62	374.49
479.80	416.62
479.98	414.27
480.16	372.15
480.34	386.19
480.52	334.70
480.70	402.57
480.88	332.36
481.06	360.44
481.24	369.80
481.41	451.72
481.59	397.89
481.77	386.19
481.95	440.02
482.13	381.51
482.31	430.66
482.49	393.21
482.67	447.04
482.85	416.62
483.03	482.15
483.21	397.89
483.39	437.68
483.57	414.27
483.74	416.62
483.92	433.00
484.10	458.74
484.28	470.45
484.46	477.47
484.64	402.57
484.82	402.57
485.00	437.68
485.18	428.32
485.35	411.93
485.53	393.21
485.71	451.72
485.89	372.15
486.07	325.33
486.25	458.74
486.43	428.32
486.61	395.55
486.78	362.78
486.96	395.55
487.14	393.21
487.32	514.92
487.50	386.19
487.68	454.06
487.85	433.00
488.03	472.79
488.21	425.98
488.39	383.85
488.57	402.57
488.75	503.22
488.92	479.81
489.10	395.55
489.28	472.79
489.46	444.70
489.64	409.59
489.81	360.44
489.99	404.91
490.17	355.76
490.35	500.87
490.53	393.21
490.70	353.42
490.88	433.00
491.06	437.68
491.24	325.33
491.41	454.06
491.59	433.00
491.77	421.30
491.95	447.04
492.13	402.57
492.30	369.80
492.48	444.70
492.66	407.25
492.84	348.74
493.01	397.89
493.19	421.30
493.37	421.30
493.54	360.44
493.72	400.23
493.90	414.27
494.08	461.09
494.25	379.17
494.43	381.51
494.61	372.15
494.79	407.25
494.96	390.87
495.14	489.17
495.32	332.36
495.49	463.43
495.67	372.15
495.85	416.62
496.02	337.04
496.20	395.55
496.38	376.83
496.55	322.99
496.73	383.85
496.91	388.53
497.09	456.40
497.26	353.42
497.44	449.38
497.62	397.89
497.79	372.15
497.97	442.36
498.14	451.72
498.32	388.53
498.50	372.15
498.67	362.78
498.85	390.87
499.03	409.59
499.20	374.49
499.38	407.25
499.56	362.78
499.73	435.34
499.91	433.00
500.08	454.06
500.26	461.09
500.44	404.91
500.61	393.21
500.79	344.06
500.97	449.38
501.14	430.66
501.32	491.51
501.49	430.66
501.67	397.89
501.84	397.89
502.02	461.09
502.20	416.62
502.37	407.25
502.55	313.63
502.72	325.33
502.90	386.19
503.07	421.30
503.25	479.81
503.43	442.36
503.60	369.80
503.78	327.68
503.95	383.85
504.13	358.10
504.30	470.45
504.48	411.93
504.65	454.06
504.83	411.93
505.01	423.64
505.18	390.87
505.36	414.27
505.53	491.51
505.71	402.57
505.88	440.02
506.06	367.46
506.23	411.93
506.41	421.30
506.58	390.87
506.76	423.64
506.93	379.17
507.11	397.89
507.28	379.17
507.46	433.00
507.63	423.64
507.81	374.49
507.98	346.40
508.16	390.87
508.33	372.15
508.50	414.27
508.68	468.11
508.85	479.81
509.03	393.21
509.20	400.23
509.38	440.02
509.55	433.00
509.73	388.53
509.90	479.81
510.08	454.06
510.25	395.55
510.42	346.40
510.60	433.00
510.77	451.72
510.95	447.04
511.12	428.32
511.30	465.77
511.47	409.59
511.64	454.06
511.82	418.96
511.99	489.17
512.17	503.22
512.34	428.32
512.51	428.32
512.69	409.59
512.86	465.77
513.04	365.12
513.21	416.62
513.38	393.21
513.56	362.78
513.73	425.98
513.90	397.89
514.08	411.93
514.25	404.91
514.43	428.32
514.60	423.64
514.77	409.59
514.95	447.04
515.12	458.74
515.29	381.51
515.47	362.78
515.64	444.70
515.81	365.12
515.99	404.91
516.16	418.96
516.33	404.91
516.51	407.25
516.68	369.80
516.85	421.30
517.03	388.53
517.20	374.49
517.37	376.83
517.54	430.66
517.72	423.64
517.89	409.59
518.06	386.19
518.24	428.32
518.41	477.47
518.58	344.06
518.75	379.17
518.93	425.98
519.10	416.62
519.27	390.87
519.45	458.74
519.62	411.93
519.79	421.30
519.96	435.34
520.14	404.91
520.31	456.40
520.48	454.06
520.65	414.27
520.83	435.34
521.00	451.72
521.17	388.53
521.34	437.68
521.52	444.70
521.69	409.59
521.86	372.15
522.03	433.00
522.20	451.72
522.38	470.45
522.55	428.32
522.72	390.87
522.89	442.36
523.07	486.83
523.24	451.72
523.41	458.74
523.58	430.66
523.75	386.19
523.92	409.59
524.10	500.87
524.27	376.83
524.44	468.11
524.61	418.96
524.78	365.12
524.96	404.91
525.13	344.06
525.30	418.96
525.47	402.57
525.64	414.27
525.81	423.64
525.98	454.06
526.16	430.66
526.33	425.98
526.50	386.19
526.67	428.32
526.84	344.06
527.01	451.72
527.18	465.77
527.36	388.53
527.53	383.85
527.70	440.02
527.87	416.62
528.04	454.06
528.21	430.66
528.38	472.79
528.55	425.98
528.72	449.38
528.89	456.40
529.07	360.44
529.24	421.30
529.41	381.51
529.58	346.40
529.75	416.62
529.92	365.12
530.09	404.91
530.26	353.42
530.43	475.13
530.60	372.15
530.77	374.49
530.94	423.64
531.11	379.17
531.28	332.36
531.46	400.23
531.63	442.36
531.80	447.04
531.97	365.12
532.14	409.59
532.31	414.27
532.48	411.93
532.65	411.93
532.82	400.23
532.99	414.27
533.16	416.62
533.33	423.64
533.50	393.21
533.67	409.59
533.84	444.70
534.01	437.68
534.18	425.98
534.35	472.79
534.52	386.19
534.69	425.98
534.86	414.27
535.03	409.59
535.20	411.93
535.37	395.55
535.54	510.24
535.71	437.68
535.88	430.66
536.05	482.15
536.22	407.25
536.38	367.46
536.55	388.53
536.72	425.98
536.89	358.10
537.06	365.12
537.23	397.89
537.40	423.64
537.57	404.91
537.74	421.30
537.91	437.68
538.08	428.32
538.25	458.74
538.42	444.70
538.59	386.19
538.75	407.25
538.92	430.66
539.09	435.34
539.26	404.91
539.43	428.32
539.60	393.21
539.77	442.36
539.94	341.72
540.11	400.23
540.28	475.13
540.44	435.34
540.61	440.02
540.78	351.08
540.95	414.27
541.12	451.72
541.29	395.55
541.46	477.47
541.62	423.64
541.79	475.13
541.96	435.34
542.13	414.27
542.30	430.66
542.47	442.36
542.63	395.55
542.80	465.77
542.97	482.15
543.14	400.23
543.31	423.64
543.48	430.66
543.64	400.23
543.81	447.04
543.98	351.08
544.15	334.70
544.32	404.91
544.48	362.78
544.65	355.76
544.82	327.68
544.99	397.89
545.16	435.34
545.32	456.40
545.49	402.57
545.66	447.04
545.83	341.72
546.00	404.91
546.16	430.66
546.33	344.06
546.50	395.55
546.67	463.43
546.83	414.27
547.00	416.62
547.17	358.10
547.34	383.85
547.50	402.57
547.67	407.25
547.84	404.91
548.00	360.44
548.17	388.53
548.34	393.21
548.51	402.57
548.67	418.96
548.84	360.44
549.01	346.40
549.18	390.87
549.34	423.64
549.51	404.91
549.68	437.68
549.84	454.06
550.01	383.85
550.18	475.13
550.34	550.03
550.51	463.43
550.68	358.10
550.84	393.21
551.01	498.53
551.18	477.47
551.34	500.87
551.51	376.83
551.68	409.59
551.84	395.55
552.01	449.38
552.18	360.44
552.34	400.23
552.51	472.79
552.68	482.15
552.84	421.30
553.01	451.72
553.18	435.34
553.34	372.15
553.51	472.79
553.67	395.55
553.84	411.93
554.01	512.58
554.17	440.02
554.34	425.98
554.51	421.30
554.67	437.68
554.84	433.00
555.00	440.02
555.17	402.57
555.33	433.00
555.50	428.32
555.67	475.13
555.83	458.74
556.00	360.44
556.16	559.39
556.33	409.59
556.50	411.93
556.66	388.53
556.83	383.85
556.99	456.40
557.16	381.51
557.32	386.19
557.49	458.74
557.65	451.72
557.82	337.04
557.98	423.64
558.15	425.98
558.32	421.30
558.48	440.02
558.65	435.34
558.81	395.55
558.98	407.25
559.14	423.64
559.31	470.45
559.47	409.59
559.64	479.81
559.80	425.98
559.97	451.72
560.13	423.64
560.30	355.76
560.46	411.93
560.63	407.25
560.79	437.68
560.96	397.89
561.12	409.59
561.29	470.45
561.45	435.34
561.61	428.32
561.78	524.28
561.94	470.45
562.11	397.89
562.27	444.70
562.44	397.89
562.60	346.40
562.77	365.12
562.93	447.04
563.10	407.25
563.26	435.34
563.42	463.43
563.59	428.32
563.75	433.00
563.92	397.89
564.08	430.66
564.24	425.98
564.41	477.47
564.57	425.98
564.74	442.36
564.90	486.83
565.07	388.53
565.23	475.13
565.39	447.04
565.56	390.87
565.72	442.36
565.88	433.00
566.05	376.83
566.21	383.85
566.38	447.04
566.54	423.64
566.70	456.40
566.87	404.91
567.03	418.96
567.19	365.12
567.36	444.70
567.52	449.38
567.68	437.68
567.85	407.25
568.01	430.66
568.17	372.15
568.34	444.70
568.50	430.66
568.66	407.25
568.83	437.68
568.99	437.68
569.15	423.64
569.32	430.66
569.48	507.90
569.64	404.91
569.81	477.47
569.97	423.64
570.13	414.27
570.30	397.89
570.46	372.15
570.62	407.25
570.78	414.27
570.95	437.68
571.11	454.06
571.27	449.38
571.43	383.85
571.60	472.79
571.76	435.34
571.92	428.32
572.09	372.15
572.25	463.43
572.41	416.62
572.57	367.46
572.74	470.45
572.90	386.19
573.06	393.21
573.22	358.10
573.38	461.09
573.55	442.36
573.71	428.32
573.87	458.74
574.03	402.57
574.20	421.30
574.36	449.38
574.52	461.09
574.68	407.25
574.84	411.93
575.01	440.02
575.17	393.21
575.33	397.89
575.49	374.49
575.65	390.87
575.82	543.00
575.98	390.87
576.14	402.57
576.30	470.45
576.46	381.51
576.62	510.24
576.79	416.62
576.95	381.51
577.11	416.62
577.27	400.23
577.43	402.57
577.59	411.93
577.75	402.57
577.92	512.58
578.08	423.64
578.24	435.34
578.40	451.72
578.56	395.55
578.72	414.27
578.88	449.38
579.04	400.23
579.21	423.64
579.37	425.98
579.53	353.42
579.69	346.40
579.85	442.36
580.01	498.53
580.17	367.46
580.33	395.55
580.49	414.27
580.65	400.23
580.82	393.21
580.98	393.21
581.14	407.25
581.30	423.64
581.46	395.55
581.62	423.64
581.78	416.62
581.94	433.00
582.10	440.02
582.26	409.59
582.42	468.11
582.58	362.78
582.74	451.72
582.90	440.02
583.06	444.70
583.22	332.36
583.38	421.30
583.54	397.89
583.70	482.15
583.86	414.27
584.02	421.30
584.18	379.17
584.34	386.19
584.50	444.70
584.66	390.87
584.82	430.66
584.98	430.66
585.14	421.30
585.30	430.66
585.46	395.55
585.62	386.19
585.78	435.34
585.94	386.19
586.10	351.08
586.26	414.27
586.42	484.49
586.58	440.02
586.74	374.49
586.90	365.12
587.06	416.62
587.22	334.70
587.38	416.62
587.54	475.13
587.70	425.98
587.86	407.25
588.02	337.04
588.18	454.06
588.34	465.77
588.49	313.63
588.65	425.98
588.81	390.87
588.97	402.57
589.13	458.74
589.29	402.57
589.45	491.51
589.61	395.55
589.77	449.38
589.93	367.46
590.08	425.98
590.24	351.08
590.40	421.30
590.56	449.38
590.72	390.87
590.88	353.42
591.04	393.21
591.20	339.38
591.35	423.64
591.51	440.02
591.67	409.59
591.83	409.59
591.99	355.76
592.15	402.57
592.31	402.57
592.46	395.55
592.62	456.40
592.78	409.59
592.94	334.70
593.10	374.49
593.26	433.00
593.41	409.59
593.57	456.40
593.73	369.80
593.89	360.44
594.05	381.51
594.20	430.66
594.36	451.72
594.52	404.91
594.68	390.87
594.84	477.47
594.99	365.12
595.15	402.57
595.31	517.26
595.47	484.49
595.62	379.17
595.78	395.55
595.94	461.09
596.10	400.23
596.25	367.46
596.41	393.21
596.57	369.80
596.73	402.57
596.88	409.59
597.04	430.66
597.20	404.91
597.36	425.98
597.51	423.64
597.67	411.93
597.83	407.25
597.99	479.81
598.14	454.06
598.30	362.78
598.46	395.55
598.61	472.79
598.77	503.22
598.93	421.30
599.09	454.06
599.24	463.43
599.40	428.32
599.56	367.46
599.71	402.57
599.87	402.57
600.03	500.87
600.18	383.85
600.34	435.34
600.50	475.13
600.65	440.02
600.81	421.30
600.97	451.72
601.12	390.87
601.28	444.70
601.44	395.55
601.59	418.96
601.75	433.00
601.91	418.96
602.06	383.85
602.22	442.36
602.37	472.79
602.53	402.57
602.69	423.64
602.84	428.32
603.00	411.93
603.16	402.57
603.31	400.23
603.47	430.66
603.62	407.25
603.78	400.23
603.94	409.59
604.09	447.04
604.25	435.34
604.40	383.85
604.56	428.32
604.71	444.70
604.87	402.57
605.03	491.51
605.18	433.00
605.34	425.98
605.49	430.66
605.65	421.30
605.80	360.44
605.96	418.96
606.12	411.93
606.27	402.57
606.43	433.00
606.58	454.06
606.74	430.66
606.89	362.78
607.05	437.68
607.20	421.30
607.36	468.11
607.51	463.43
607.67	411.93
607.82	390.87
607.98	433.00
608.13	397.89
608.29	390.87
608.44	409.59
608.60	435.34
608.75	451.72
608.91	533.64
609.06	458.74
609.22	407.25
609.37	362.78
609.53	395.55
609.68	440.02
609.84	425.98
609.99	414.27
610.15	379.17
