SpectraSuite Data File
++++++++++++++++++++++++++++++++++++
Date: Fri Oct 25 12:11:35 EDT 2013
User: price-jones
Dark Spectrum Present: No
Reference Spectrum Present: No
Number of Sampled Component Spectra: 1
Spectrometers: USB2+H05261
Integration Time (usec): 100000 (USB2+H05261)
Spectra Averaged: 1 (USB2+H05261)
Boxcar Smoothing: 0 (USB2+H05261)
Correct for Electrical Dark: No (USB2+H05261)
Strobe/Lamp Enabled: No (USB2+H05261)
Correct for Detector Non-linearity: No (USB2+H05261)
Correct for Stray Light: No (USB2+H05261)
Number of Pixels in Processed Spectrum: 2048
>>>>>Begin Processed Spectral Data<<<<<
365.73	318.31
365.92	318.31
366.12	318.31
366.32	259.80
366.52	259.80
366.72	245.76
366.91	290.23
367.11	285.55
367.31	269.16
367.51	220.01
367.70	229.37
367.90	259.80
368.10	269.16
368.30	229.37
368.49	166.18
368.69	257.46
368.89	191.92
369.09	273.84
369.28	266.82
369.48	234.05
369.68	283.20
369.87	341.72
370.07	290.23
370.27	346.40
370.47	337.04
370.66	322.99
370.86	308.95
371.06	325.33
371.25	390.87
371.45	365.12
371.65	447.04
371.84	397.89
372.04	332.36
372.24	430.66
372.44	440.02
372.63	379.17
372.83	425.98
373.03	365.12
373.22	395.55
373.42	433.00
373.62	351.08
373.81	400.23
374.01	379.17
374.21	435.34
374.40	395.55
374.60	447.04
374.79	433.00
374.99	416.62
375.19	402.57
375.38	442.36
375.58	421.30
375.78	437.68
375.97	430.66
376.17	465.77
376.37	374.49
376.56	449.38
376.76	404.91
376.95	395.55
377.15	512.58
377.35	376.83
377.54	423.64
377.74	397.89
377.93	367.46
378.13	433.00
378.33	374.49
378.52	423.64
378.72	400.23
378.91	409.59
379.11	381.51
379.31	451.72
379.50	367.46
379.70	369.80
379.89	393.21
380.09	433.00
380.28	386.19
380.48	381.51
380.68	376.83
380.87	416.62
381.07	409.59
381.26	479.81
381.46	440.02
381.65	369.80
381.85	416.62
382.04	351.08
382.24	379.17
382.43	330.02
382.63	381.51
382.83	402.57
383.02	393.21
383.22	444.70
383.41	451.72
383.61	423.64
383.80	430.66
384.00	390.87
384.19	447.04
384.39	346.40
384.58	381.51
384.78	407.25
384.97	404.91
385.17	393.21
385.36	463.43
385.56	435.34
385.75	423.64
385.95	435.34
386.14	444.70
386.34	440.02
386.53	381.51
386.72	409.59
386.92	388.53
387.11	465.77
387.31	397.89
387.50	400.23
387.70	414.27
387.89	447.04
388.09	433.00
388.28	442.36
388.48	423.64
388.67	386.19
388.86	369.80
389.06	379.17
389.25	477.47
389.45	409.59
389.64	482.15
389.84	411.93
390.03	355.76
390.22	430.66
390.42	418.96
390.61	372.15
390.81	327.68
391.00	449.38
391.19	442.36
391.39	393.21
391.58	428.32
391.78	383.85
391.97	416.62
392.16	437.68
392.36	503.22
392.55	416.62
392.75	395.55
392.94	376.83
393.13	482.15
393.33	341.72
393.52	437.68
393.71	409.59
393.91	451.72
394.10	358.10
394.29	435.34
394.49	297.25
394.68	463.43
394.88	454.06
395.07	433.00
395.26	463.43
395.46	461.09
395.65	435.34
395.84	400.23
396.04	489.17
396.23	400.23
396.42	421.30
396.62	447.04
396.81	397.89
397.00	376.83
397.19	454.06
397.39	348.74
397.58	372.15
397.77	451.72
397.97	390.87
398.16	418.96
398.35	397.89
398.55	376.83
398.74	433.00
398.93	491.51
399.12	444.70
399.32	442.36
399.51	376.83
399.70	425.98
399.90	400.23
400.09	369.80
400.28	428.32
400.47	390.87
400.67	475.13
400.86	362.78
401.05	407.25
401.24	409.59
401.44	386.19
401.63	470.45
401.82	411.93
402.01	402.57
402.21	519.60
402.40	402.57
402.59	442.36
402.78	355.76
402.97	458.74
403.17	433.00
403.36	430.66
403.55	383.85
403.74	283.20
403.93	430.66
404.13	470.45
404.32	374.49
404.51	402.57
404.70	407.25
404.89	404.91
405.09	397.89
405.28	381.51
405.47	376.83
405.66	337.04
405.85	451.72
406.05	491.51
406.24	372.15
406.43	421.30
406.62	351.08
406.81	465.77
407.00	400.23
407.20	430.66
407.39	421.30
407.58	341.72
407.77	353.42
407.96	444.70
408.15	447.04
408.34	388.53
408.54	348.74
408.73	362.78
408.92	423.64
409.11	512.58
409.30	430.66
409.49	374.49
409.68	374.49
409.87	358.10
410.07	425.98
410.26	376.83
410.45	411.93
410.64	414.27
410.83	414.27
411.02	379.17
411.21	484.49
411.40	379.17
411.59	447.04
411.78	486.83
411.98	444.70
412.17	367.46
412.36	421.30
412.55	369.80
412.74	400.23
412.93	442.36
413.12	447.04
413.31	433.00
413.50	454.06
413.69	416.62
413.88	486.83
414.07	348.74
414.26	388.53
414.45	390.87
414.64	423.64
414.83	451.72
415.02	414.27
415.22	465.77
415.41	351.08
415.60	348.74
415.79	447.04
415.98	421.30
416.17	414.27
416.36	416.62
416.55	440.02
416.74	395.55
416.93	493.85
417.12	404.91
417.31	404.91
417.50	397.89
417.69	351.08
417.88	376.83
418.07	397.89
418.26	409.59
418.45	411.93
418.64	456.40
418.83	379.17
419.02	428.32
419.21	435.34
419.39	416.62
419.58	407.25
419.77	334.70
419.96	397.89
420.15	496.19
420.34	482.15
420.53	489.17
420.72	411.93
420.91	428.32
421.10	355.76
421.29	428.32
421.48	458.74
421.67	411.93
421.86	416.62
422.05	374.49
422.24	365.12
422.43	400.23
422.61	421.30
422.80	435.34
422.99	402.57
423.18	327.68
423.37	498.53
423.56	437.68
423.75	444.70
423.94	456.40
424.13	423.64
424.32	437.68
424.50	423.64
424.69	456.40
424.88	451.72
425.07	411.93
425.26	423.64
425.45	416.62
425.64	308.95
425.83	355.76
426.01	421.30
426.20	435.34
426.39	447.04
426.58	393.21
426.77	400.23
426.96	472.79
427.15	425.98
427.33	388.53
427.52	374.49
427.71	409.59
427.90	379.17
428.09	346.40
428.28	383.85
428.46	433.00
428.65	433.00
428.84	425.98
429.03	421.30
429.22	425.98
429.40	353.42
429.59	421.30
429.78	397.89
429.97	477.47
430.16	362.78
430.34	430.66
430.53	390.87
430.72	526.62
430.91	486.83
431.10	447.04
431.28	433.00
431.47	442.36
431.66	390.87
431.85	355.76
432.03	463.43
432.22	465.77
432.41	463.43
432.60	381.51
432.79	379.17
432.97	353.42
433.16	425.98
433.35	379.17
433.54	440.02
433.72	411.93
433.91	435.34
434.10	320.65
434.28	435.34
434.47	381.51
434.66	442.36
434.85	409.59
435.03	428.32
435.22	374.49
435.41	397.89
435.59	461.09
435.78	414.27
435.97	442.36
436.16	472.79
436.34	381.51
436.53	454.06
436.72	465.77
436.90	376.83
437.09	416.62
437.28	362.78
437.46	369.80
437.65	411.93
437.84	383.85
438.02	449.38
438.21	390.87
438.40	383.85
438.58	390.87
438.77	440.02
438.96	440.02
439.14	372.15
439.33	479.81
439.52	369.80
439.70	383.85
439.89	458.74
440.08	379.17
440.26	411.93
440.45	404.91
440.63	407.25
440.82	435.34
441.01	390.87
441.19	423.64
441.38	425.98
441.57	386.19
441.75	421.30
441.94	423.64
442.12	425.98
442.31	376.83
442.50	397.89
442.68	433.00
442.87	437.68
443.05	379.17
443.24	402.57
443.43	407.25
443.61	369.80
443.80	404.91
443.98	337.04
444.17	386.19
444.35	493.85
444.54	449.38
444.73	402.57
444.91	390.87
445.10	416.62
445.28	383.85
445.47	437.68
445.65	503.22
445.84	475.13
446.02	325.33
446.21	447.04
446.39	433.00
446.58	423.64
446.77	404.91
446.95	372.15
447.14	409.59
447.32	430.66
447.51	449.38
447.69	433.00
447.88	411.93
448.06	433.00
448.25	447.04
448.43	365.12
448.62	411.93
448.80	418.96
448.99	475.13
449.17	341.72
449.36	400.23
449.54	440.02
449.73	416.62
449.91	479.81
450.10	451.72
450.28	451.72
450.46	465.77
450.65	454.06
450.83	383.85
451.02	430.66
451.20	348.74
451.39	402.57
451.57	416.62
451.76	449.38
451.94	428.32
452.13	355.76
452.31	444.70
452.49	454.06
452.68	442.36
452.86	454.06
453.05	341.72
453.23	428.32
453.42	482.15
453.60	395.55
453.78	362.78
453.97	358.10
454.15	383.85
454.34	388.53
454.52	353.42
454.70	402.57
454.89	512.58
455.07	393.21
455.26	444.70
455.44	421.30
455.62	435.34
455.81	339.38
455.99	468.11
456.17	421.30
456.36	449.38
456.54	409.59
456.73	358.10
456.91	400.23
457.09	334.70
457.28	411.93
457.46	379.17
457.64	374.49
457.83	393.21
458.01	379.17
458.19	421.30
458.38	379.17
458.56	362.78
458.74	402.57
458.93	449.38
459.11	386.19
459.29	423.64
459.48	386.19
459.66	461.09
459.84	402.57
460.03	496.19
460.21	418.96
460.39	402.57
460.57	449.38
460.76	482.15
460.94	510.24
461.12	465.77
461.31	486.83
461.49	374.49
461.67	409.59
461.85	409.59
462.04	465.77
462.22	737.27
462.40	486.83
462.59	411.93
462.77	397.89
462.95	416.62
463.13	362.78
463.32	404.91
463.50	454.06
463.68	407.25
463.86	456.40
464.05	379.17
464.23	437.68
464.41	409.59
464.59	428.32
464.78	407.25
464.96	425.98
465.14	374.49
465.32	435.34
465.50	402.57
465.69	477.47
465.87	423.64
466.05	489.17
466.23	425.98
466.41	404.91
466.60	456.40
466.78	421.30
466.96	411.93
467.14	418.96
467.32	383.85
467.51	416.62
467.69	463.43
467.87	454.06
468.05	327.68
468.23	475.13
468.41	425.98
468.60	503.22
468.78	390.87
468.96	447.04
469.14	454.06
469.32	395.55
469.50	416.62
469.69	416.62
469.87	425.98
470.05	463.43
470.23	470.45
470.41	376.83
470.59	362.78
470.77	442.36
470.95	425.98
471.14	386.19
471.32	381.51
471.50	418.96
471.68	416.62
471.86	407.25
472.04	362.78
472.22	355.76
472.40	344.06
472.58	409.59
472.77	402.57
472.95	437.68
473.13	360.44
473.31	409.59
473.49	395.55
473.67	306.61
473.85	465.77
474.03	440.02
474.21	475.13
474.39	458.74
474.57	425.98
474.75	428.32
474.93	458.74
475.12	411.93
475.30	369.80
475.48	428.32
475.66	451.72
475.84	465.77
476.02	379.17
476.20	407.25
476.38	447.04
476.56	465.77
476.74	395.55
476.92	404.91
477.10	425.98
477.28	489.17
477.46	402.57
477.64	365.12
477.82	393.21
478.00	421.30
478.18	425.98
478.36	472.79
478.54	330.02
478.72	416.62
478.90	465.77
479.08	461.09
479.26	376.83
479.44	458.74
479.62	411.93
479.80	386.19
479.98	451.72
480.16	447.04
480.34	407.25
480.52	386.19
480.70	386.19
480.88	435.34
481.06	325.33
481.24	358.10
481.41	362.78
481.59	437.68
481.77	348.74
481.95	369.80
482.13	411.93
482.31	358.10
482.49	393.21
482.67	376.83
482.85	425.98
483.03	435.34
483.21	369.80
483.39	425.98
483.57	447.04
483.74	442.36
483.92	409.59
484.10	463.43
484.28	447.04
484.46	479.81
484.64	376.83
484.82	418.96
485.00	397.89
485.18	440.02
485.35	383.85
485.53	421.30
485.71	393.21
485.89	397.89
486.07	486.83
486.25	465.77
486.43	463.43
486.61	435.34
486.78	414.27
486.96	437.68
487.14	374.49
487.32	374.49
487.50	390.87
487.68	435.34
487.85	409.59
488.03	428.32
488.21	418.96
488.39	372.15
488.57	479.81
488.75	463.43
488.92	416.62
489.10	383.85
489.28	414.27
489.46	407.25
489.64	409.59
489.81	461.09
489.99	470.45
490.17	414.27
490.35	475.13
490.53	369.80
490.70	433.00
490.88	358.10
491.06	393.21
491.24	454.06
491.41	463.43
491.59	454.06
491.77	407.25
491.95	437.68
492.13	414.27
492.30	404.91
492.48	358.10
492.66	395.55
492.84	414.27
493.01	468.11
493.19	425.98
493.37	442.36
493.54	500.87
493.72	491.51
493.90	500.87
494.08	369.80
494.25	397.89
494.43	369.80
494.61	362.78
494.79	421.30
494.96	442.36
495.14	381.51
495.32	440.02
495.49	379.17
495.67	468.11
495.85	430.66
496.02	435.34
496.20	444.70
496.38	369.80
496.55	433.00
496.73	470.45
496.91	402.57
497.09	486.83
497.26	393.21
497.44	400.23
497.62	397.89
497.79	428.32
497.97	414.27
498.14	451.72
498.32	435.34
498.50	348.74
498.67	400.23
498.85	423.64
499.03	395.55
499.20	369.80
499.38	428.32
499.56	367.46
499.73	489.17
499.91	477.47
500.08	416.62
500.26	449.38
500.44	397.89
500.61	397.89
500.79	388.53
500.97	397.89
501.14	362.78
501.32	423.64
501.49	482.15
501.67	454.06
501.84	428.32
502.02	444.70
502.20	454.06
502.37	397.89
502.55	390.87
502.72	395.55
502.90	416.62
503.07	386.19
503.25	442.36
503.43	409.59
503.60	407.25
503.78	353.42
503.95	367.46
504.13	383.85
504.30	397.89
504.48	458.74
504.65	430.66
504.83	425.98
505.01	425.98
505.18	386.19
505.36	442.36
505.53	437.68
505.71	447.04
505.88	486.83
506.06	416.62
506.23	447.04
506.41	407.25
506.58	386.19
506.76	383.85
506.93	376.83
507.11	423.64
507.28	402.57
507.46	400.23
507.63	360.44
507.81	435.34
507.98	365.12
508.16	528.96
508.33	423.64
508.50	484.49
508.68	437.68
508.85	365.12
509.03	383.85
509.20	393.21
509.38	369.80
509.55	411.93
509.73	428.32
509.90	409.59
510.08	475.13
510.25	468.11
510.42	379.17
510.60	423.64
510.77	447.04
510.95	423.64
511.12	416.62
511.30	451.72
511.47	414.27
511.64	430.66
511.82	344.06
511.99	386.19
512.17	418.96
512.34	367.46
512.51	390.87
512.69	400.23
512.86	465.77
513.04	454.06
513.21	393.21
513.38	360.44
513.56	330.02
513.73	388.53
513.90	374.49
514.08	433.00
514.25	470.45
514.43	440.02
514.60	404.91
514.77	388.53
514.95	346.40
515.12	344.06
515.29	400.23
515.47	407.25
515.64	423.64
515.81	444.70
515.99	411.93
516.16	383.85
516.33	397.89
516.51	332.36
516.68	374.49
516.85	444.70
517.03	428.32
517.20	416.62
517.37	449.38
517.54	465.77
517.72	465.77
517.89	400.23
518.06	367.46
518.24	425.98
518.41	510.24
518.58	416.62
518.75	360.44
518.93	381.51
519.10	383.85
519.27	383.85
519.45	463.43
519.62	355.76
519.79	451.72
519.96	428.32
520.14	421.30
520.31	383.85
520.48	418.96
520.65	393.21
520.83	479.81
521.00	465.77
521.17	414.27
521.34	425.98
521.52	390.87
521.69	407.25
521.86	437.68
522.03	470.45
522.20	470.45
522.38	400.23
522.55	397.89
522.72	454.06
522.89	407.25
523.07	444.70
523.24	367.46
523.41	402.57
523.58	414.27
523.75	430.66
523.92	397.89
524.10	428.32
524.27	440.02
524.44	435.34
524.61	444.70
524.78	397.89
524.96	475.13
525.13	482.15
525.30	379.17
525.47	440.02
525.64	425.98
525.81	388.53
525.98	388.53
526.16	337.04
526.33	362.78
526.50	367.46
526.67	470.45
526.84	374.49
527.01	353.42
527.18	463.43
527.36	402.57
527.53	430.66
527.70	454.06
527.87	421.30
528.04	454.06
528.21	416.62
528.38	437.68
528.55	397.89
528.72	447.04
528.89	428.32
529.07	421.30
529.24	484.49
529.41	430.66
529.58	472.79
529.75	458.74
529.92	458.74
530.09	421.30
530.26	514.92
530.43	383.85
530.60	411.93
530.77	435.34
530.94	463.43
531.11	390.87
531.28	393.21
531.46	400.23
531.63	517.26
531.80	339.38
531.97	390.87
532.14	479.81
532.31	449.38
532.48	444.70
532.65	489.17
532.82	468.11
532.99	376.83
533.16	383.85
533.33	376.83
533.50	440.02
533.67	390.87
533.84	489.17
534.01	465.77
534.18	386.19
534.35	379.17
534.52	400.23
534.69	475.13
534.86	404.91
535.03	367.46
535.20	454.06
535.37	477.47
535.54	395.55
535.71	451.72
535.88	411.93
536.05	360.44
536.22	400.23
536.38	337.04
536.55	449.38
536.72	449.38
536.89	428.32
537.06	395.55
537.23	425.98
537.40	428.32
537.57	386.19
537.74	472.79
537.91	444.70
538.08	482.15
538.25	461.09
538.42	388.53
538.59	458.74
538.75	437.68
538.92	400.23
539.09	397.89
539.26	433.00
539.43	411.93
539.60	489.17
539.77	461.09
539.94	451.72
540.11	397.89
540.28	477.47
540.44	372.15
540.61	411.93
540.78	404.91
540.95	489.17
541.12	524.28
541.29	428.32
541.46	433.00
541.62	449.38
541.79	433.00
541.96	447.04
542.13	440.02
542.30	365.12
542.47	440.02
542.63	435.34
542.80	458.74
542.97	454.06
543.14	379.17
543.31	458.74
543.48	444.70
543.64	482.15
543.81	379.17
543.98	437.68
544.15	404.91
544.32	433.00
544.48	423.64
544.65	423.64
544.82	402.57
544.99	416.62
545.16	386.19
545.32	449.38
545.49	491.51
545.66	461.09
545.83	379.17
546.00	404.91
546.16	428.32
546.33	369.80
546.50	425.98
546.67	470.45
546.83	430.66
547.00	423.64
547.17	468.11
547.34	421.30
547.50	397.89
547.67	428.32
547.84	358.10
548.00	393.21
548.17	416.62
548.34	440.02
548.51	400.23
548.67	454.06
548.84	491.51
549.01	435.34
549.18	404.91
549.34	421.30
549.51	435.34
549.68	475.13
549.84	463.43
550.01	437.68
550.18	517.26
550.34	479.81
550.51	402.57
550.68	433.00
550.84	418.96
551.01	390.87
551.18	428.32
551.34	402.57
551.51	461.09
551.68	360.44
551.84	409.59
552.01	458.74
552.18	430.66
552.34	353.42
552.51	407.25
552.68	409.59
552.84	393.21
553.01	423.64
553.18	416.62
553.34	381.51
553.51	428.32
553.67	442.36
553.84	465.77
554.01	390.87
554.17	428.32
554.34	456.40
554.51	454.06
554.67	482.15
554.84	433.00
555.00	411.93
555.17	376.83
555.33	411.93
555.50	344.06
555.67	374.49
555.83	358.10
556.00	379.17
556.16	505.56
556.33	428.32
556.50	388.53
556.66	425.98
556.83	360.44
556.99	386.19
557.16	444.70
557.32	421.30
557.49	379.17
557.65	442.36
557.82	400.23
557.98	369.80
558.15	411.93
558.32	435.34
558.48	407.25
558.65	425.98
558.81	414.27
558.98	362.78
559.14	402.57
559.31	423.64
559.47	395.55
559.64	428.32
559.80	482.15
559.97	400.23
560.13	430.66
560.30	365.12
560.46	552.37
560.63	374.49
560.79	414.27
560.96	337.04
561.12	447.04
561.29	393.21
561.45	475.13
561.61	320.65
561.78	559.39
561.94	444.70
562.11	454.06
562.27	423.64
562.44	472.79
562.60	402.57
562.77	468.11
562.93	423.64
563.10	388.53
563.26	374.49
563.42	475.13
563.59	421.30
563.75	454.06
563.92	468.11
564.08	367.46
564.24	418.96
564.41	500.87
564.57	381.51
564.74	393.21
564.90	440.02
565.07	418.96
565.23	510.24
565.39	351.08
565.56	395.55
565.72	355.76
565.88	376.83
566.05	442.36
566.21	440.02
566.38	433.00
566.54	416.62
566.70	369.80
566.87	400.23
567.03	414.27
567.19	348.74
567.36	407.25
567.52	425.98
567.68	379.17
567.85	435.34
568.01	444.70
568.17	402.57
568.34	418.96
568.50	440.02
568.66	470.45
568.83	428.32
568.99	484.49
569.15	425.98
569.32	423.64
569.48	414.27
569.64	376.83
569.81	486.83
569.97	425.98
570.13	435.34
570.30	425.98
570.46	428.32
570.62	433.00
570.78	437.68
570.95	414.27
571.11	463.43
571.27	435.34
571.43	414.27
571.60	428.32
571.76	346.40
571.92	372.15
572.09	421.30
572.25	388.53
572.41	425.98
572.57	451.72
572.74	561.73
572.90	435.34
573.06	397.89
573.22	451.72
573.38	374.49
573.55	479.81
573.71	355.76
573.87	383.85
574.03	388.53
574.20	414.27
574.36	444.70
574.52	435.34
574.68	330.02
574.84	407.25
575.01	440.02
575.17	463.43
575.33	447.04
575.49	437.68
575.65	454.06
575.82	416.62
575.98	489.17
576.14	369.80
576.30	444.70
576.46	454.06
576.62	458.74
576.79	442.36
576.95	414.27
577.11	400.23
577.27	437.68
577.43	449.38
577.59	437.68
577.75	409.59
577.92	486.83
578.08	369.80
578.24	414.27
578.40	449.38
578.56	428.32
578.72	470.45
578.88	435.34
579.04	341.72
579.21	461.09
579.37	360.44
579.53	348.74
579.69	383.85
579.85	416.62
580.01	404.91
580.17	444.70
580.33	461.09
580.49	411.93
580.65	395.55
580.82	339.38
580.98	447.04
581.14	425.98
581.30	416.62
581.46	409.59
581.62	461.09
581.78	383.85
581.94	416.62
582.10	400.23
582.26	379.17
582.42	442.36
582.58	400.23
582.74	456.40
582.90	421.30
583.06	454.06
583.22	472.79
583.38	423.64
583.54	416.62
583.70	425.98
583.86	372.15
584.02	430.66
584.18	418.96
584.34	351.08
584.50	477.47
584.66	423.64
584.82	456.40
584.98	461.09
585.14	393.21
585.30	425.98
585.46	440.02
585.62	402.57
585.78	416.62
585.94	493.85
586.10	479.81
586.26	414.27
586.42	477.47
586.58	402.57
586.74	475.13
586.90	388.53
587.06	404.91
587.22	332.36
587.38	409.59
587.54	360.44
587.70	428.32
587.86	416.62
588.02	404.91
588.18	479.81
588.34	416.62
588.49	428.32
588.65	397.89
588.81	351.08
588.97	402.57
589.13	404.91
589.29	379.17
589.45	344.06
589.61	409.59
589.77	482.15
589.93	437.68
590.08	407.25
590.24	456.40
590.40	411.93
590.56	400.23
590.72	383.85
590.88	418.96
591.04	447.04
591.20	358.10
591.35	414.27
591.51	479.81
591.67	416.62
591.83	379.17
591.99	423.64
592.15	365.12
592.31	447.04
592.46	400.23
592.62	409.59
592.78	421.30
592.94	440.02
593.10	404.91
593.26	367.46
593.41	402.57
593.57	416.62
593.73	423.64
593.89	379.17
594.05	367.46
594.20	442.36
594.36	447.04
594.52	451.72
594.68	433.00
594.84	454.06
594.99	435.34
595.15	423.64
595.31	416.62
595.47	435.34
595.62	425.98
595.78	402.57
595.94	409.59
596.10	402.57
596.25	463.43
596.41	383.85
596.57	463.43
596.73	444.70
596.88	456.40
597.04	365.12
597.20	388.53
597.36	449.38
597.51	402.57
597.67	421.30
597.83	440.02
597.99	397.89
598.14	447.04
598.30	390.87
598.46	393.21
598.61	461.09
598.77	482.15
598.93	372.15
599.09	397.89
599.24	498.53
599.40	414.27
599.56	449.38
599.71	395.55
599.87	416.62
600.03	428.32
600.18	407.25
600.34	468.11
600.50	461.09
600.65	440.02
600.81	447.04
600.97	393.21
601.12	388.53
601.28	433.00
601.44	376.83
601.59	425.98
601.75	407.25
601.91	444.70
602.06	430.66
602.22	561.73
602.37	402.57
602.53	409.59
602.69	468.11
602.84	428.32
603.00	400.23
603.16	465.77
603.31	454.06
603.47	451.72
603.62	376.83
603.78	437.68
603.94	463.43
604.09	430.66
604.25	423.64
604.40	386.19
604.56	437.68
604.71	416.62
604.87	463.43
605.03	435.34
605.18	409.59
605.34	442.36
605.49	423.64
605.65	472.79
605.80	400.23
605.96	411.93
606.12	383.85
606.27	444.70
606.43	400.23
606.58	442.36
606.74	365.12
606.89	397.89
607.05	402.57
607.20	414.27
607.36	458.74
607.51	447.04
607.67	390.87
607.82	376.83
607.98	416.62
608.13	454.06
608.29	477.47
608.44	367.46
608.60	390.87
608.75	512.58
608.91	496.19
609.06	482.15
609.22	402.57
609.37	418.96
609.53	390.87
609.68	425.98
609.84	482.15
609.99	390.87
610.15	461.09
