SpectraSuite Data File
++++++++++++++++++++++++++++++++++++
Date: Fri Oct 25 12:11:02 EDT 2013
User: price-jones
Dark Spectrum Present: No
Reference Spectrum Present: No
Number of Sampled Component Spectra: 1
Spectrometers: USB2+H05261
Integration Time (usec): 100000 (USB2+H05261)
Spectra Averaged: 1 (USB2+H05261)
Boxcar Smoothing: 0 (USB2+H05261)
Correct for Electrical Dark: No (USB2+H05261)
Strobe/Lamp Enabled: No (USB2+H05261)
Correct for Detector Non-linearity: No (USB2+H05261)
Correct for Stray Light: No (USB2+H05261)
Number of Pixels in Processed Spectrum: 2048
>>>>>Begin Processed Spectral Data<<<<<
365.73	379.17
365.92	379.17
366.12	379.17
366.32	264.48
366.52	334.70
366.72	341.72
366.91	297.25
367.11	229.37
367.31	234.05
367.51	257.46
367.70	255.12
367.90	287.89
368.10	243.42
368.30	229.37
368.49	212.99
368.69	278.52
368.89	250.44
369.09	208.31
369.28	365.12
369.48	313.63
369.68	276.18
369.87	280.86
370.07	283.20
370.27	360.44
370.47	318.31
370.66	355.76
370.86	390.87
371.06	374.49
371.25	465.77
371.45	400.23
371.65	421.30
371.84	353.42
372.04	409.59
372.24	414.27
372.44	339.38
372.63	451.72
372.83	444.70
373.03	393.21
373.22	376.83
373.42	447.04
373.62	386.19
373.81	423.64
374.01	400.23
374.21	484.49
374.40	437.68
374.60	367.46
374.79	358.10
374.99	358.10
375.19	477.47
375.38	440.02
375.58	372.15
375.78	402.57
375.97	411.93
376.17	482.15
376.37	421.30
376.56	381.51
376.76	390.87
376.95	397.89
377.15	421.30
377.35	440.02
377.54	397.89
377.74	381.51
377.93	290.23
378.13	355.76
378.33	407.25
378.52	402.57
378.72	365.12
378.91	444.70
379.11	435.34
379.31	386.19
379.50	416.62
379.70	397.89
379.89	484.49
380.09	388.53
380.28	390.87
380.48	372.15
380.68	351.08
380.87	301.93
381.07	411.93
381.26	404.91
381.46	404.91
381.65	393.21
381.85	393.21
382.04	500.87
382.24	407.25
382.43	423.64
382.63	374.49
382.83	418.96
383.02	440.02
383.22	449.38
383.41	376.83
383.61	355.76
383.80	416.62
384.00	404.91
384.19	428.32
384.39	381.51
384.58	451.72
384.78	428.32
384.97	421.30
385.17	397.89
385.36	374.49
385.56	400.23
385.75	411.93
385.95	444.70
386.14	418.96
386.34	395.55
386.53	433.00
386.72	414.27
386.92	442.36
387.11	421.30
387.31	444.70
387.50	386.19
387.70	425.98
387.89	376.83
388.09	381.51
388.28	409.59
388.48	376.83
388.67	390.87
388.86	435.34
389.06	383.85
389.25	435.34
389.45	430.66
389.64	330.02
389.84	383.85
390.03	423.64
390.22	386.19
390.42	456.40
390.61	400.23
390.81	423.64
391.00	470.45
391.19	451.72
391.39	433.00
391.58	430.66
391.78	365.12
391.97	411.93
392.16	435.34
392.36	430.66
392.55	456.40
392.75	374.49
392.94	358.10
393.13	404.91
393.33	407.25
393.52	407.25
393.71	358.10
393.91	428.32
394.10	433.00
394.29	393.21
394.49	372.15
394.68	393.21
394.88	425.98
395.07	416.62
395.26	374.49
395.46	388.53
395.65	402.57
395.84	418.96
396.04	447.04
396.23	416.62
396.42	444.70
396.62	433.00
396.81	470.45
397.00	402.57
397.19	421.30
397.39	353.42
397.58	498.53
397.77	465.77
397.97	367.46
398.16	330.02
398.35	416.62
398.55	381.51
398.74	365.12
398.93	451.72
399.12	425.98
399.32	358.10
399.51	409.59
399.70	409.59
399.90	416.62
400.09	433.00
400.28	440.02
400.47	454.06
400.67	388.53
400.86	409.59
401.05	386.19
401.24	458.74
401.44	465.77
401.63	451.72
401.82	440.02
402.01	341.72
402.21	465.77
402.40	449.38
402.59	433.00
402.78	374.49
402.97	376.83
403.17	390.87
403.36	379.17
403.55	330.02
403.74	393.21
403.93	397.89
404.13	442.36
404.32	418.96
404.51	444.70
404.70	360.44
404.89	465.77
405.09	463.43
405.28	435.34
405.47	395.55
405.66	393.21
405.85	379.17
406.05	416.62
406.24	411.93
406.43	484.49
406.62	407.25
406.81	507.90
407.00	390.87
407.20	348.74
407.39	428.32
407.58	395.55
407.77	451.72
407.96	468.11
408.15	381.51
408.34	442.36
408.54	386.19
408.73	451.72
408.92	397.89
409.11	493.85
409.30	381.51
409.49	447.04
409.68	475.13
409.87	456.40
410.07	369.80
410.26	365.12
410.45	330.02
410.64	451.72
410.83	454.06
411.02	306.61
411.21	411.93
411.40	435.34
411.59	409.59
411.78	404.91
411.98	416.62
412.17	472.79
412.36	374.49
412.55	397.89
412.74	454.06
412.93	463.43
413.12	416.62
413.31	390.87
413.50	435.34
413.69	358.10
413.88	351.08
414.07	400.23
414.26	407.25
414.45	390.87
414.64	433.00
414.83	440.02
415.02	388.53
415.22	411.93
415.41	425.98
415.60	365.12
415.79	451.72
415.98	454.06
416.17	451.72
416.36	388.53
416.55	437.68
416.74	435.34
416.93	379.17
417.12	414.27
417.31	411.93
417.50	402.57
417.69	437.68
417.88	447.04
418.07	400.23
418.26	402.57
418.45	430.66
418.64	444.70
418.83	400.23
419.02	479.81
419.21	374.49
419.39	442.36
419.58	386.19
419.77	397.89
419.96	407.25
420.15	458.74
420.34	416.62
420.53	414.27
420.72	458.74
420.91	407.25
421.10	444.70
421.29	409.59
421.48	444.70
421.67	367.46
421.86	463.43
422.05	447.04
422.24	416.62
422.43	428.32
422.61	458.74
422.80	411.93
422.99	423.64
423.18	416.62
423.37	423.64
423.56	435.34
423.75	393.21
423.94	444.70
424.13	430.66
424.32	505.56
424.50	397.89
424.69	425.98
424.88	468.11
425.07	409.59
425.26	465.77
425.45	421.30
425.64	362.78
425.83	372.15
426.01	517.26
426.20	442.36
426.39	383.85
426.58	430.66
426.77	409.59
426.96	491.51
427.15	365.12
427.33	395.55
427.52	400.23
427.71	397.89
427.90	369.80
428.09	362.78
428.28	430.66
428.46	479.81
428.65	390.87
428.84	344.06
429.03	444.70
429.22	449.38
429.40	411.93
429.59	484.49
429.78	461.09
429.97	339.38
430.16	437.68
430.34	425.98
430.53	379.17
430.72	386.19
430.91	498.53
431.10	383.85
431.28	414.27
431.47	367.46
431.66	421.30
431.85	402.57
432.03	372.15
432.22	477.47
432.41	404.91
432.60	397.89
432.79	402.57
432.97	444.70
433.16	437.68
433.35	383.85
433.54	461.09
433.72	458.74
433.91	489.17
434.10	416.62
434.28	442.36
434.47	390.87
434.66	358.10
434.85	486.83
435.03	479.81
435.22	404.91
435.41	437.68
435.59	430.66
435.78	395.55
435.97	404.91
436.16	458.74
436.34	388.53
436.53	440.02
436.72	449.38
436.90	451.72
437.09	404.91
437.28	421.30
437.46	365.12
437.65	430.66
437.84	449.38
438.02	477.47
438.21	479.81
438.40	407.25
438.58	451.72
438.77	414.27
438.96	468.11
439.14	447.04
439.33	472.79
439.52	442.36
439.70	381.51
439.89	383.85
440.08	451.72
440.26	353.42
440.45	418.96
440.63	458.74
440.82	379.17
441.01	458.74
441.19	418.96
441.38	379.17
441.57	388.53
441.75	397.89
441.94	414.27
442.12	418.96
442.31	409.59
442.50	416.62
442.68	339.38
442.87	491.51
443.05	428.32
443.24	400.23
443.43	362.78
443.61	491.51
443.80	367.46
443.98	411.93
444.17	409.59
444.35	435.34
444.54	409.59
444.73	409.59
444.91	433.00
445.10	477.47
445.28	402.57
445.47	402.57
445.65	430.66
445.84	397.89
446.02	369.80
446.21	430.66
446.39	360.44
446.58	421.30
446.77	372.15
446.95	472.79
447.14	437.68
447.32	472.79
447.51	376.83
447.69	447.04
447.88	402.57
448.06	423.64
448.25	390.87
448.43	372.15
448.62	351.08
448.80	402.57
448.99	402.57
449.17	376.83
449.36	447.04
449.54	428.32
449.73	468.11
449.91	430.66
450.10	423.64
450.28	505.56
450.46	435.34
450.65	367.46
450.83	458.74
451.02	449.38
451.20	369.80
451.39	440.02
451.57	418.96
451.76	393.21
451.94	360.44
452.13	423.64
452.31	440.02
452.49	402.57
452.68	402.57
452.86	407.25
453.05	475.13
453.23	395.55
453.42	444.70
453.60	369.80
453.78	337.04
453.97	360.44
454.15	320.65
454.34	454.06
454.52	390.87
454.70	381.51
454.89	440.02
455.07	430.66
455.26	472.79
455.44	407.25
455.62	379.17
455.81	407.25
455.99	379.17
456.17	362.78
456.36	468.11
456.54	404.91
456.73	437.68
456.91	463.43
457.09	386.19
457.28	414.27
457.46	440.02
457.64	409.59
457.83	315.97
458.01	344.06
458.19	365.12
458.38	390.87
458.56	433.00
458.74	395.55
458.93	383.85
459.11	376.83
459.29	491.51
459.48	404.91
459.66	454.06
459.84	463.43
460.03	402.57
460.21	454.06
460.39	379.17
460.57	428.32
460.76	423.64
460.94	332.36
461.12	472.79
461.31	400.23
461.49	477.47
461.67	433.00
461.85	433.00
462.04	395.55
462.22	545.34
462.40	327.68
462.59	409.59
462.77	433.00
462.95	388.53
463.13	402.57
463.32	454.06
463.50	379.17
463.68	404.91
463.86	414.27
464.05	404.91
464.23	479.81
464.41	493.85
464.59	477.47
464.78	397.89
464.96	358.10
465.14	402.57
465.32	414.27
465.50	416.62
465.69	381.51
465.87	372.15
466.05	433.00
466.23	341.72
466.41	458.74
466.60	404.91
466.78	383.85
466.96	470.45
467.14	348.74
467.32	454.06
467.51	372.15
467.69	435.34
467.87	411.93
468.05	440.02
468.23	468.11
468.41	397.89
468.60	475.13
468.78	379.17
468.96	397.89
469.14	507.90
469.32	369.80
469.50	355.76
469.69	411.93
469.87	404.91
470.05	430.66
470.23	430.66
470.41	404.91
470.59	498.53
470.77	393.21
470.95	418.96
471.14	376.83
471.32	437.68
471.50	472.79
471.68	423.64
471.86	397.89
472.04	447.04
472.22	442.36
472.40	388.53
472.58	346.40
472.77	416.62
472.95	454.06
473.13	397.89
473.31	421.30
473.49	367.46
473.67	418.96
473.85	353.42
474.03	500.87
474.21	351.08
474.39	440.02
474.57	421.30
474.75	449.38
474.93	451.72
475.12	407.25
475.30	414.27
475.48	437.68
475.66	421.30
475.84	451.72
476.02	404.91
476.20	409.59
476.38	447.04
476.56	465.77
476.74	388.53
476.92	397.89
477.10	416.62
477.28	411.93
477.46	418.96
477.64	447.04
477.82	369.80
478.00	421.30
478.18	376.83
478.36	435.34
478.54	376.83
478.72	358.10
478.90	395.55
479.08	409.59
479.26	388.53
479.44	458.74
479.62	440.02
479.80	433.00
479.98	346.40
480.16	411.93
480.34	437.68
480.52	341.72
480.70	428.32
480.88	423.64
481.06	372.15
481.24	416.62
481.41	435.34
481.59	435.34
481.77	423.64
481.95	416.62
482.13	437.68
482.31	482.15
482.49	388.53
482.67	376.83
482.85	397.89
483.03	461.09
483.21	423.64
483.39	454.06
483.57	409.59
483.74	479.81
483.92	416.62
484.10	468.11
484.28	388.53
484.46	449.38
484.64	360.44
484.82	395.55
485.00	428.32
485.18	447.04
485.35	433.00
485.53	428.32
485.71	449.38
485.89	386.19
486.07	390.87
486.25	409.59
486.43	367.46
486.61	477.47
486.78	388.53
486.96	395.55
487.14	416.62
487.32	374.49
487.50	477.47
487.68	435.34
487.85	362.78
488.03	383.85
488.21	402.57
488.39	369.80
488.57	423.64
488.75	379.17
488.92	486.83
489.10	421.30
489.28	430.66
489.46	404.91
489.64	454.06
489.81	383.85
489.99	402.57
490.17	372.15
490.35	498.53
490.53	468.11
490.70	395.55
490.88	456.40
491.06	358.10
491.24	397.89
491.41	477.47
491.59	390.87
491.77	433.00
491.95	451.72
492.13	416.62
492.30	425.98
492.48	411.93
492.66	447.04
492.84	421.30
493.01	475.13
493.19	423.64
493.37	472.79
493.54	456.40
493.72	447.04
493.90	358.10
494.08	365.12
494.25	477.47
494.43	379.17
494.61	505.56
494.79	444.70
494.96	376.83
495.14	423.64
495.32	407.25
495.49	404.91
495.67	393.21
495.85	369.80
496.02	430.66
496.20	425.98
496.38	437.68
496.55	461.09
496.73	456.40
496.91	376.83
497.09	519.60
497.26	454.06
497.44	414.27
497.62	383.85
497.79	479.81
497.97	484.49
498.14	379.17
498.32	519.60
498.50	503.22
498.67	442.36
498.85	458.74
499.03	383.85
499.20	395.55
499.38	463.43
499.56	423.64
499.73	433.00
499.91	425.98
500.08	477.47
500.26	362.78
500.44	388.53
500.61	430.66
500.79	421.30
500.97	416.62
501.14	404.91
501.32	449.38
501.49	379.17
501.67	447.04
501.84	428.32
502.02	355.76
502.20	397.89
502.37	440.02
502.55	444.70
502.72	444.70
502.90	425.98
503.07	477.47
503.25	400.23
503.43	482.15
503.60	465.77
503.78	404.91
503.95	475.13
504.13	367.46
504.30	409.59
504.48	411.93
504.65	402.57
504.83	449.38
505.01	440.02
505.18	456.40
505.36	433.00
505.53	372.15
505.71	400.23
505.88	407.25
506.06	402.57
506.23	402.57
506.41	404.91
506.58	435.34
506.76	421.30
506.93	414.27
507.11	388.53
507.28	437.68
507.46	421.30
507.63	428.32
507.81	400.23
507.98	374.49
508.16	437.68
508.33	386.19
508.50	428.32
508.68	428.32
508.85	379.17
509.03	400.23
509.20	351.08
509.38	381.51
509.55	414.27
509.73	458.74
509.90	379.17
510.08	409.59
510.25	409.59
510.42	397.89
510.60	409.59
510.77	465.77
510.95	428.32
511.12	425.98
511.30	430.66
511.47	393.21
511.64	463.43
511.82	381.51
511.99	437.68
512.17	397.89
512.34	500.87
512.51	365.12
512.69	442.36
512.86	484.49
513.04	400.23
513.21	421.30
513.38	475.13
513.56	393.21
513.73	435.34
513.90	456.40
514.08	397.89
514.25	430.66
514.43	414.27
514.60	381.51
514.77	358.10
514.95	463.43
515.12	386.19
515.29	435.34
515.47	404.91
515.64	468.11
515.81	428.32
515.99	367.46
516.16	344.06
516.33	468.11
516.51	521.94
516.68	423.64
516.85	393.21
517.03	341.72
517.20	421.30
517.37	463.43
517.54	430.66
517.72	425.98
517.89	372.15
518.06	437.68
518.24	374.49
518.41	430.66
518.58	372.15
518.75	447.04
518.93	411.93
519.10	505.56
519.27	477.47
519.45	409.59
519.62	430.66
519.79	423.64
519.96	390.87
520.14	376.83
520.31	451.72
520.48	421.30
520.65	404.91
520.83	362.78
521.00	341.72
521.17	416.62
521.34	442.36
521.52	442.36
521.69	372.15
521.86	440.02
522.03	425.98
522.20	447.04
522.38	397.89
522.55	463.43
522.72	390.87
522.89	407.25
523.07	428.32
523.24	451.72
523.41	414.27
523.58	437.68
523.75	414.27
523.92	395.55
524.10	475.13
524.27	355.76
524.44	388.53
524.61	411.93
524.78	402.57
524.96	456.40
525.13	379.17
525.30	475.13
525.47	472.79
525.64	407.25
525.81	402.57
525.98	505.56
526.16	428.32
526.33	386.19
526.50	400.23
526.67	355.76
526.84	360.44
527.01	355.76
527.18	365.12
527.36	425.98
527.53	348.74
527.70	423.64
527.87	418.96
528.04	414.27
528.21	397.89
528.38	414.27
528.55	442.36
528.72	454.06
528.89	461.09
529.07	416.62
529.24	393.21
529.41	409.59
529.58	430.66
529.75	390.87
529.92	407.25
530.09	411.93
530.26	433.00
530.43	489.17
530.60	449.38
530.77	442.36
530.94	456.40
531.11	423.64
531.28	444.70
531.46	435.34
531.63	397.89
531.80	472.79
531.97	393.21
532.14	470.45
532.31	447.04
532.48	498.53
532.65	400.23
532.82	353.42
532.99	435.34
533.16	447.04
533.33	463.43
533.50	428.32
533.67	414.27
533.84	454.06
534.01	379.17
534.18	435.34
534.35	435.34
534.52	393.21
534.69	369.80
534.86	379.17
535.03	433.00
535.20	477.47
535.37	503.22
535.54	479.81
535.71	393.21
535.88	449.38
536.05	353.42
536.22	442.36
536.38	416.62
536.55	475.13
536.72	416.62
536.89	374.49
537.06	472.79
537.23	397.89
537.40	411.93
537.57	421.30
537.74	433.00
537.91	416.62
538.08	430.66
538.25	433.00
538.42	433.00
538.59	430.66
538.75	482.15
538.92	472.79
539.09	433.00
539.26	411.93
539.43	440.02
539.60	463.43
539.77	463.43
539.94	393.21
540.11	470.45
540.28	402.57
540.44	425.98
540.61	374.49
540.78	447.04
540.95	428.32
541.12	470.45
541.29	409.59
541.46	416.62
541.62	451.72
541.79	351.08
541.96	437.68
542.13	458.74
542.30	381.51
542.47	418.96
542.63	442.36
542.80	407.25
542.97	484.49
543.14	400.23
543.31	409.59
543.48	404.91
543.64	477.47
543.81	454.06
543.98	404.91
544.15	437.68
544.32	395.55
544.48	407.25
544.65	503.22
544.82	451.72
544.99	456.40
545.16	447.04
545.32	437.68
545.49	472.79
545.66	414.27
545.83	454.06
546.00	414.27
546.16	416.62
546.33	465.77
546.50	397.89
546.67	437.68
546.83	437.68
547.00	383.85
547.17	397.89
547.34	411.93
547.50	435.34
547.67	397.89
547.84	489.17
548.00	383.85
548.17	442.36
548.34	407.25
548.51	440.02
548.67	421.30
548.84	393.21
549.01	416.62
549.18	428.32
549.34	442.36
549.51	372.15
549.68	418.96
549.84	379.17
550.01	409.59
550.18	461.09
550.34	465.77
550.51	451.72
550.68	472.79
550.84	416.62
551.01	365.12
551.18	421.30
551.34	470.45
551.51	404.91
551.68	360.44
551.84	461.09
552.01	463.43
552.18	470.45
552.34	414.27
552.51	407.25
552.68	409.59
552.84	442.36
553.01	440.02
553.18	451.72
553.34	360.44
553.51	454.06
553.67	435.34
553.84	447.04
554.01	430.66
554.17	435.34
554.34	498.53
554.51	388.53
554.67	411.93
554.84	479.81
555.00	425.98
555.17	395.55
555.33	463.43
555.50	418.96
555.67	372.15
555.83	404.91
556.00	414.27
556.16	552.37
556.33	449.38
556.50	477.47
556.66	449.38
556.83	463.43
556.99	386.19
557.16	421.30
557.32	465.77
557.49	369.80
557.65	365.12
557.82	477.47
557.98	383.85
558.15	416.62
558.32	449.38
558.48	372.15
558.65	372.15
558.81	430.66
558.98	454.06
559.14	407.25
559.31	449.38
559.47	425.98
559.64	465.77
559.80	451.72
559.97	402.57
560.13	423.64
560.30	393.21
560.46	390.87
560.63	369.80
560.79	447.04
560.96	423.64
561.12	454.06
561.29	451.72
561.45	369.80
561.61	437.68
561.78	491.51
561.94	425.98
562.11	400.23
562.27	442.36
562.44	430.66
562.60	428.32
562.77	383.85
562.93	479.81
563.10	397.89
563.26	411.93
563.42	395.55
563.59	433.00
563.75	348.74
563.92	390.87
564.08	491.51
564.24	402.57
564.41	449.38
564.57	451.72
564.74	367.46
564.90	444.70
565.07	421.30
565.23	470.45
565.39	386.19
565.56	507.90
565.72	400.23
565.88	423.64
566.05	425.98
566.21	358.10
566.38	376.83
566.54	449.38
566.70	348.74
566.87	346.40
567.03	428.32
567.19	390.87
567.36	456.40
567.52	435.34
567.68	463.43
567.85	465.77
568.01	400.23
568.17	407.25
568.34	379.17
568.50	482.15
568.66	425.98
568.83	472.79
568.99	442.36
569.15	505.56
569.32	383.85
569.48	379.17
569.64	407.25
569.81	447.04
569.97	486.83
570.13	407.25
570.30	409.59
570.46	400.23
570.62	400.23
570.78	442.36
570.95	486.83
571.11	479.81
571.27	428.32
571.43	423.64
571.60	442.36
571.76	430.66
571.92	374.49
572.09	365.12
572.25	416.62
572.41	435.34
572.57	430.66
572.74	524.28
572.90	400.23
573.06	477.47
573.22	416.62
573.38	376.83
573.55	442.36
573.71	461.09
573.87	500.87
574.03	461.09
574.20	498.53
574.36	470.45
574.52	400.23
574.68	409.59
574.84	454.06
575.01	397.89
575.17	440.02
575.33	437.68
575.49	414.27
575.65	423.64
575.82	470.45
575.98	449.38
576.14	339.38
576.30	433.00
576.46	435.34
576.62	442.36
576.79	468.11
576.95	411.93
577.11	454.06
577.27	390.87
577.43	463.43
577.59	477.47
577.75	423.64
577.92	400.23
578.08	351.08
578.24	416.62
578.40	421.30
578.56	470.45
578.72	404.91
578.88	428.32
579.04	367.46
579.21	447.04
579.37	393.21
579.53	407.25
579.69	454.06
579.85	367.46
580.01	437.68
580.17	388.53
580.33	440.02
580.49	395.55
580.65	407.25
580.82	416.62
580.98	372.15
581.14	435.34
581.30	470.45
581.46	421.30
581.62	447.04
581.78	440.02
581.94	428.32
582.10	346.40
582.26	376.83
582.42	421.30
582.58	465.77
582.74	416.62
582.90	390.87
583.06	372.15
583.22	346.40
583.38	390.87
583.54	390.87
583.70	416.62
583.86	409.59
584.02	458.74
584.18	425.98
584.34	454.06
584.50	414.27
584.66	383.85
584.82	395.55
584.98	404.91
585.14	416.62
585.30	433.00
585.46	414.27
585.62	358.10
585.78	423.64
585.94	437.68
586.10	379.17
586.26	430.66
586.42	437.68
586.58	433.00
586.74	477.47
586.90	411.93
587.06	472.79
587.22	465.77
587.38	365.12
587.54	456.40
587.70	435.34
587.86	440.02
588.02	428.32
588.18	379.17
588.34	418.96
588.49	315.97
588.65	383.85
588.81	395.55
588.97	362.78
589.13	369.80
589.29	416.62
589.45	437.68
589.61	470.45
589.77	383.85
589.93	444.70
590.08	421.30
590.24	461.09
590.40	449.38
590.56	437.68
590.72	416.62
590.88	386.19
591.04	416.62
591.20	397.89
591.35	416.62
591.51	484.49
591.67	334.70
591.83	395.55
591.99	463.43
592.15	416.62
592.31	409.59
592.46	444.70
592.62	395.55
592.78	468.11
592.94	369.80
593.10	397.89
593.26	318.31
593.41	372.15
593.57	435.34
593.73	362.78
593.89	447.04
594.05	454.06
594.20	339.38
594.36	461.09
594.52	421.30
594.68	390.87
594.84	442.36
594.99	456.40
595.15	470.45
595.31	404.91
595.47	500.87
595.62	418.96
595.78	433.00
595.94	383.85
596.10	416.62
596.25	479.81
596.41	440.02
596.57	407.25
596.73	372.15
596.88	428.32
597.04	379.17
597.20	447.04
597.36	493.85
597.51	407.25
597.67	463.43
597.83	348.74
597.99	461.09
598.14	407.25
598.30	465.77
598.46	447.04
598.61	400.23
598.77	470.45
598.93	390.87
599.09	435.34
599.24	456.40
599.40	449.38
599.56	409.59
599.71	379.17
599.87	442.36
600.03	463.43
600.18	416.62
600.34	458.74
600.50	430.66
600.65	337.04
600.81	407.25
600.97	425.98
601.12	451.72
601.28	449.38
601.44	400.23
601.59	423.64
601.75	463.43
601.91	425.98
602.06	430.66
602.22	449.38
602.37	362.78
602.53	425.98
602.69	442.36
602.84	386.19
603.00	463.43
603.16	425.98
603.31	437.68
603.47	423.64
603.62	486.83
603.78	503.22
603.94	503.22
604.09	430.66
604.25	451.72
604.40	437.68
604.56	416.62
604.71	479.81
604.87	425.98
605.03	402.57
605.18	425.98
605.34	482.15
605.49	390.87
605.65	367.46
605.80	390.87
605.96	418.96
606.12	486.83
606.27	381.51
606.43	381.51
606.58	449.38
606.74	334.70
606.89	435.34
607.05	463.43
607.20	414.27
607.36	447.04
607.51	421.30
607.67	477.47
607.82	400.23
607.98	486.83
608.13	477.47
608.29	500.87
608.44	500.87
608.60	397.89
608.75	425.98
608.91	449.38
609.06	425.98
609.22	444.70
609.37	404.91
609.53	365.12
609.68	381.51
609.84	425.98
609.99	395.55
610.15	435.34
