SpectraSuite Data File
++++++++++++++++++++++++++++++++++++
Date: Fri Oct 25 12:10:31 EDT 2013
User: price-jones
Dark Spectrum Present: No
Reference Spectrum Present: No
Number of Sampled Component Spectra: 1
Spectrometers: USB2+H05261
Integration Time (usec): 100000 (USB2+H05261)
Spectra Averaged: 1 (USB2+H05261)
Boxcar Smoothing: 0 (USB2+H05261)
Correct for Electrical Dark: No (USB2+H05261)
Strobe/Lamp Enabled: No (USB2+H05261)
Correct for Detector Non-linearity: No (USB2+H05261)
Correct for Stray Light: No (USB2+H05261)
Number of Pixels in Processed Spectrum: 2048
>>>>>Begin Processed Spectral Data<<<<<
365.73	299.59
365.92	299.59
366.12	299.59
366.32	257.46
366.52	205.97
366.72	215.33
366.91	210.65
367.11	222.35
367.31	241.08
367.51	210.65
367.70	269.16
367.90	205.97
368.10	280.86
368.30	297.25
368.49	269.16
368.69	311.29
368.89	301.93
369.09	252.78
369.28	259.80
369.48	290.23
369.68	220.01
369.87	315.97
370.07	292.57
370.27	348.74
370.47	374.49
370.66	287.89
370.86	262.14
371.06	290.23
371.25	428.32
371.45	421.30
371.65	447.04
371.84	313.63
372.04	393.21
372.24	414.27
372.44	376.83
372.63	416.62
372.83	411.93
373.03	411.93
373.22	407.25
373.42	383.85
373.62	393.21
373.81	458.74
374.01	428.32
374.21	365.12
374.40	505.56
374.60	402.57
374.79	414.27
374.99	433.00
375.19	435.34
375.38	407.25
375.58	383.85
375.78	456.40
375.97	477.47
376.17	418.96
376.37	348.74
376.56	404.91
376.76	376.83
376.95	374.49
377.15	465.77
377.35	416.62
377.54	372.15
377.74	411.93
377.93	346.40
378.13	454.06
378.33	444.70
378.52	435.34
378.72	451.72
378.91	379.17
379.11	397.89
379.31	458.74
379.50	374.49
379.70	435.34
379.89	400.23
380.09	379.17
380.28	374.49
380.48	388.53
380.68	425.98
380.87	379.17
381.07	425.98
381.26	355.76
381.46	327.68
381.65	414.27
381.85	400.23
382.04	395.55
382.24	369.80
382.43	402.57
382.63	372.15
382.83	353.42
383.02	475.13
383.22	458.74
383.41	390.87
383.61	458.74
383.80	418.96
384.00	393.21
384.19	369.80
384.39	318.31
384.58	428.32
384.78	418.96
384.97	482.15
385.17	400.23
385.36	451.72
385.56	407.25
385.75	404.91
385.95	381.51
386.14	407.25
386.34	421.30
386.53	362.78
386.72	411.93
386.92	430.66
387.11	372.15
387.31	404.91
387.50	369.80
387.70	393.21
387.89	484.49
388.09	425.98
388.28	346.40
388.48	344.06
388.67	409.59
388.86	346.40
389.06	428.32
389.25	360.44
389.45	376.83
389.64	411.93
389.84	411.93
390.03	409.59
390.22	433.00
390.42	386.19
390.61	435.34
390.81	376.83
391.00	433.00
391.19	430.66
391.39	400.23
391.58	355.76
391.78	353.42
391.97	418.96
392.16	376.83
392.36	468.11
392.55	397.89
392.75	402.57
392.94	421.30
393.13	447.04
393.33	407.25
393.52	351.08
393.71	472.79
393.91	428.32
394.10	367.46
394.29	430.66
394.49	367.46
394.68	355.76
394.88	409.59
395.07	376.83
395.26	433.00
395.46	414.27
395.65	386.19
395.84	425.98
396.04	386.19
396.23	395.55
396.42	447.04
396.62	404.91
396.81	425.98
397.00	421.30
397.19	379.17
397.39	386.19
397.58	461.09
397.77	407.25
397.97	461.09
398.16	374.49
398.35	353.42
398.55	433.00
398.74	407.25
398.93	437.68
399.12	428.32
399.32	407.25
399.51	407.25
399.70	362.78
399.90	351.08
400.09	404.91
400.28	433.00
400.47	390.87
400.67	477.47
400.86	395.55
401.05	358.10
401.24	442.36
401.44	367.46
401.63	386.19
401.82	433.00
402.01	372.15
402.21	411.93
402.40	318.31
402.59	407.25
402.78	451.72
402.97	334.70
403.17	395.55
403.36	346.40
403.55	372.15
403.74	430.66
403.93	390.87
404.13	344.06
404.32	402.57
404.51	393.21
404.70	470.45
404.89	430.66
405.09	451.72
405.28	386.19
405.47	425.98
405.66	414.27
405.85	353.42
406.05	374.49
406.24	472.79
406.43	425.98
406.62	369.80
406.81	404.91
407.00	418.96
407.20	383.85
407.39	379.17
407.58	362.78
407.77	416.62
407.96	404.91
408.15	365.12
408.34	411.93
408.54	330.02
408.73	435.34
408.92	351.08
409.11	428.32
409.30	425.98
409.49	442.36
409.68	470.45
409.87	428.32
410.07	407.25
410.26	379.17
410.45	437.68
410.64	407.25
410.83	425.98
411.02	411.93
411.21	447.04
411.40	397.89
411.59	402.57
411.78	374.49
411.98	374.49
412.17	360.44
412.36	337.04
412.55	372.15
412.74	404.91
412.93	390.87
413.12	437.68
413.31	503.22
413.50	435.34
413.69	374.49
413.88	395.55
414.07	400.23
414.26	461.09
414.45	411.93
414.64	428.32
414.83	470.45
415.02	411.93
415.22	414.27
415.41	416.62
415.60	479.81
415.79	397.89
415.98	486.83
416.17	402.57
416.36	493.85
416.55	369.80
416.74	416.62
416.93	388.53
417.12	372.15
417.31	430.66
417.50	374.49
417.69	411.93
417.88	407.25
418.07	393.21
418.26	400.23
418.45	503.22
418.64	435.34
418.83	372.15
419.02	367.46
419.21	475.13
419.39	433.00
419.58	409.59
419.77	348.74
419.96	407.25
420.15	444.70
420.34	425.98
420.53	414.27
420.72	451.72
420.91	388.53
421.10	489.17
421.29	428.32
421.48	374.49
421.67	409.59
421.86	341.72
422.05	425.98
422.24	372.15
422.43	353.42
422.61	390.87
422.80	447.04
422.99	404.91
423.18	402.57
423.37	395.55
423.56	409.59
423.75	442.36
423.94	388.53
424.13	372.15
424.32	386.19
424.50	423.64
424.69	372.15
424.88	379.17
425.07	400.23
425.26	341.72
425.45	456.40
425.64	491.51
425.83	444.70
426.01	425.98
426.20	411.93
426.39	393.21
426.58	388.53
426.77	428.32
426.96	456.40
427.15	400.23
427.33	393.21
427.52	416.62
427.71	353.42
427.90	449.38
428.09	442.36
428.28	390.87
428.46	414.27
428.65	430.66
428.84	435.34
429.03	416.62
429.22	369.80
429.40	381.51
429.59	400.23
429.78	433.00
429.97	416.62
430.16	484.49
430.34	416.62
430.53	451.72
430.72	437.68
430.91	423.64
431.10	418.96
431.28	390.87
431.47	442.36
431.66	362.78
431.85	451.72
432.03	383.85
432.22	533.64
432.41	447.04
432.60	397.89
432.79	388.53
432.97	402.57
433.16	381.51
433.35	435.34
433.54	407.25
433.72	388.53
433.91	388.53
434.10	475.13
434.28	411.93
434.47	390.87
434.66	456.40
434.85	414.27
435.03	379.17
435.22	425.98
435.41	428.32
435.59	404.91
435.78	411.93
435.97	379.17
436.16	358.10
436.34	388.53
436.53	454.06
436.72	505.56
436.90	430.66
437.09	461.09
437.28	425.98
437.46	423.64
437.65	407.25
437.84	461.09
438.02	435.34
438.21	374.49
438.40	409.59
438.58	400.23
438.77	440.02
438.96	362.78
439.14	444.70
439.33	442.36
439.52	425.98
439.70	416.62
439.89	400.23
440.08	365.12
440.26	423.64
440.45	468.11
440.63	461.09
440.82	383.85
441.01	348.74
441.19	456.40
441.38	320.65
441.57	407.25
441.75	397.89
441.94	404.91
442.12	456.40
442.31	390.87
442.50	383.85
442.68	360.44
442.87	423.64
443.05	454.06
443.24	456.40
443.43	458.74
443.61	442.36
443.80	369.80
443.98	388.53
444.17	404.91
444.35	421.30
444.54	421.30
444.73	437.68
444.91	428.32
445.10	397.89
445.28	416.62
445.47	447.04
445.65	430.66
445.84	449.38
446.02	449.38
446.21	367.46
446.39	416.62
446.58	423.64
446.77	428.32
446.95	369.80
447.14	360.44
447.32	456.40
447.51	360.44
447.69	411.93
447.88	330.02
448.06	402.57
448.25	414.27
448.43	428.32
448.62	379.17
448.80	411.93
448.99	465.77
449.17	381.51
449.36	409.59
449.54	440.02
449.73	388.53
449.91	414.27
450.10	433.00
450.28	433.00
450.46	386.19
450.65	351.08
450.83	456.40
451.02	400.23
451.20	416.62
451.39	395.55
451.57	360.44
451.76	400.23
451.94	414.27
452.13	418.96
452.31	442.36
452.49	430.66
452.68	397.89
452.86	425.98
453.05	433.00
453.23	388.53
453.42	360.44
453.60	393.21
453.78	416.62
453.97	395.55
454.15	411.93
454.34	451.72
454.52	400.23
454.70	428.32
454.89	468.11
455.07	433.00
455.26	388.53
455.44	475.13
455.62	428.32
455.81	421.30
455.99	428.32
456.17	369.80
456.36	414.27
456.54	440.02
456.73	367.46
456.91	397.89
457.09	463.43
457.28	444.70
457.46	423.64
457.64	379.17
457.83	409.59
458.01	433.00
458.19	381.51
458.38	421.30
458.56	407.25
458.74	334.70
458.93	425.98
459.11	383.85
459.29	449.38
459.48	449.38
459.66	402.57
459.84	519.60
460.03	421.30
460.21	379.17
460.39	444.70
460.57	414.27
460.76	454.06
460.94	543.00
461.12	425.98
461.31	374.49
461.49	358.10
461.67	416.62
461.85	437.68
462.04	386.19
462.22	809.83
462.40	564.07
462.59	447.04
462.77	425.98
462.95	447.04
463.13	393.21
463.32	440.02
463.50	437.68
463.68	374.49
463.86	409.59
464.05	440.02
464.23	346.40
464.41	334.70
464.59	341.72
464.78	397.89
464.96	383.85
465.14	416.62
465.32	358.10
465.50	491.51
465.69	416.62
465.87	374.49
466.05	468.11
466.23	388.53
466.41	423.64
466.60	402.57
466.78	486.83
466.96	472.79
467.14	451.72
467.32	421.30
467.51	430.66
467.69	358.10
467.87	409.59
468.05	374.49
468.23	463.43
468.41	433.00
468.60	379.17
468.78	365.12
468.96	442.36
469.14	372.15
469.32	381.51
469.50	423.64
469.69	468.11
469.87	430.66
470.05	423.64
470.23	468.11
470.41	418.96
470.59	421.30
470.77	416.62
470.95	454.06
471.14	475.13
471.32	367.46
471.50	435.34
471.68	285.55
471.86	376.83
472.04	355.76
472.22	512.58
472.40	330.02
472.58	315.97
472.77	425.98
472.95	451.72
473.13	386.19
473.31	435.34
473.49	367.46
473.67	395.55
473.85	435.34
474.03	395.55
474.21	395.55
474.39	465.77
474.57	421.30
474.75	447.04
474.93	411.93
475.12	369.80
475.30	400.23
475.48	376.83
475.66	477.47
475.84	374.49
476.02	414.27
476.20	475.13
476.38	433.00
476.56	402.57
476.74	433.00
476.92	393.21
477.10	351.08
477.28	463.43
477.46	397.89
477.64	482.15
477.82	386.19
478.00	390.87
478.18	421.30
478.36	411.93
478.54	393.21
478.72	374.49
478.90	400.23
479.08	433.00
479.26	402.57
479.44	402.57
479.62	423.64
479.80	423.64
479.98	353.42
480.16	428.32
480.34	428.32
480.52	390.87
480.70	454.06
480.88	367.46
481.06	428.32
481.24	386.19
481.41	411.93
481.59	400.23
481.77	409.59
481.95	400.23
482.13	418.96
482.31	482.15
482.49	430.66
482.67	407.25
482.85	421.30
483.03	449.38
483.21	428.32
483.39	402.57
483.57	442.36
483.74	451.72
483.92	367.46
484.10	397.89
484.28	393.21
484.46	503.22
484.64	461.09
484.82	376.83
485.00	425.98
485.18	454.06
485.35	442.36
485.53	400.23
485.71	442.36
485.89	376.83
486.07	421.30
486.25	407.25
486.43	390.87
486.61	397.89
486.78	390.87
486.96	376.83
487.14	449.38
487.32	461.09
487.50	461.09
487.68	435.34
487.85	442.36
488.03	411.93
488.21	428.32
488.39	416.62
488.57	367.46
488.75	461.09
488.92	489.17
489.10	386.19
489.28	425.98
489.46	332.36
489.64	433.00
489.81	433.00
489.99	461.09
490.17	367.46
490.35	386.19
490.53	463.43
490.70	397.89
490.88	440.02
491.06	435.34
491.24	374.49
491.41	395.55
491.59	423.64
491.77	409.59
491.95	409.59
492.13	339.38
492.30	433.00
492.48	416.62
492.66	337.04
492.84	407.25
493.01	379.17
493.19	383.85
493.37	477.47
493.54	395.55
493.72	416.62
493.90	416.62
494.08	393.21
494.25	465.77
494.43	472.79
494.61	440.02
494.79	407.25
494.96	327.68
495.14	423.64
495.32	360.44
495.49	425.98
495.67	470.45
495.85	423.64
496.02	322.99
496.20	463.43
496.38	428.32
496.55	454.06
496.73	437.68
496.91	372.15
497.09	383.85
497.26	428.32
497.44	327.68
497.62	393.21
497.79	454.06
497.97	407.25
498.14	468.11
498.32	400.23
498.50	369.80
498.67	386.19
498.85	381.51
499.03	416.62
499.20	411.93
499.38	465.77
499.56	425.98
499.73	430.66
499.91	442.36
500.08	404.91
500.26	409.59
500.44	407.25
500.61	367.46
500.79	421.30
500.97	372.15
501.14	390.87
501.32	416.62
501.49	388.53
501.67	414.27
501.84	456.40
502.02	360.44
502.20	498.53
502.37	423.64
502.55	437.68
502.72	376.83
502.90	397.89
503.07	411.93
503.25	360.44
503.43	433.00
503.60	442.36
503.78	470.45
503.95	430.66
504.13	440.02
504.30	468.11
504.48	425.98
504.65	430.66
504.83	421.30
505.01	388.53
505.18	395.55
505.36	430.66
505.53	376.83
505.71	379.17
505.88	433.00
506.06	383.85
506.23	362.78
506.41	430.66
506.58	442.36
506.76	395.55
506.93	449.38
507.11	433.00
507.28	369.80
507.46	409.59
507.63	402.57
507.81	458.74
507.98	386.19
508.16	390.87
508.33	444.70
508.50	423.64
508.68	390.87
508.85	468.11
509.03	402.57
509.20	400.23
509.38	390.87
509.55	456.40
509.73	414.27
509.90	465.77
510.08	374.49
510.25	339.38
510.42	409.59
510.60	449.38
510.77	365.12
510.95	444.70
511.12	404.91
511.30	397.89
511.47	402.57
511.64	421.30
511.82	346.40
511.99	458.74
512.17	435.34
512.34	360.44
512.51	381.51
512.69	404.91
512.86	442.36
513.04	407.25
513.21	404.91
513.38	465.77
513.56	470.45
513.73	428.32
513.90	447.04
514.08	421.30
514.25	414.27
514.43	411.93
514.60	400.23
514.77	404.91
514.95	374.49
515.12	379.17
515.29	407.25
515.47	442.36
515.64	407.25
515.81	421.30
515.99	500.87
516.16	477.47
516.33	440.02
516.51	397.89
516.68	402.57
516.85	472.79
517.03	435.34
517.20	458.74
517.37	388.53
517.54	383.85
517.72	433.00
517.89	409.59
518.06	409.59
518.24	458.74
518.41	348.74
518.58	428.32
518.75	404.91
518.93	407.25
519.10	442.36
519.27	430.66
519.45	334.70
519.62	395.55
519.79	442.36
519.96	397.89
520.14	381.51
520.31	465.77
520.48	468.11
520.65	491.51
520.83	423.64
521.00	390.87
521.17	463.43
521.34	411.93
521.52	433.00
521.69	447.04
521.86	395.55
522.03	416.62
522.20	477.47
522.38	409.59
522.55	372.15
522.72	402.57
522.89	440.02
523.07	454.06
523.24	402.57
523.41	449.38
523.58	393.21
523.75	447.04
523.92	437.68
524.10	400.23
524.27	423.64
524.44	456.40
524.61	456.40
524.78	416.62
524.96	400.23
525.13	397.89
525.30	477.47
525.47	482.15
525.64	414.27
525.81	454.06
525.98	386.19
526.16	400.23
526.33	365.12
526.50	442.36
526.67	330.02
526.84	430.66
527.01	428.32
527.18	416.62
527.36	418.96
527.53	379.17
527.70	475.13
527.87	390.87
528.04	437.68
528.21	381.51
528.38	416.62
528.55	461.09
528.72	407.25
528.89	468.11
529.07	447.04
529.24	423.64
529.41	440.02
529.58	400.23
529.75	433.00
529.92	451.72
530.09	393.21
530.26	435.34
530.43	397.89
530.60	365.12
530.77	444.70
530.94	393.21
531.11	458.74
531.28	353.42
531.46	393.21
531.63	458.74
531.80	442.36
531.97	369.80
532.14	407.25
532.31	440.02
532.48	404.91
532.65	411.93
532.82	437.68
532.99	447.04
533.16	430.66
533.33	397.89
533.50	402.57
533.67	458.74
533.84	463.43
534.01	390.87
534.18	433.00
534.35	493.85
534.52	428.32
534.69	451.72
534.86	393.21
535.03	346.40
535.20	388.53
535.37	411.93
535.54	346.40
535.71	383.85
535.88	477.47
536.05	379.17
536.22	411.93
536.38	421.30
536.55	428.32
536.72	472.79
536.89	451.72
537.06	402.57
537.23	374.49
537.40	390.87
537.57	418.96
537.74	407.25
537.91	449.38
538.08	449.38
538.25	430.66
538.42	498.53
538.59	369.80
538.75	344.06
538.92	416.62
539.09	421.30
539.26	411.93
539.43	400.23
539.60	390.87
539.77	423.64
539.94	433.00
540.11	428.32
540.28	400.23
540.44	449.38
540.61	320.65
540.78	433.00
540.95	348.74
541.12	444.70
541.29	339.38
541.46	458.74
541.62	437.68
541.79	437.68
541.96	337.04
542.13	367.46
542.30	301.93
542.47	397.89
542.63	479.81
542.80	400.23
542.97	463.43
543.14	468.11
543.31	411.93
543.48	390.87
543.64	489.17
543.81	477.47
543.98	425.98
544.15	376.83
544.32	395.55
544.48	433.00
544.65	437.68
544.82	414.27
544.99	430.66
545.16	393.21
545.32	360.44
545.49	334.70
545.66	379.17
545.83	362.78
546.00	463.43
546.16	456.40
546.33	418.96
546.50	475.13
546.67	428.32
546.83	344.06
547.00	404.91
547.17	346.40
547.34	468.11
547.50	351.08
547.67	491.51
547.84	444.70
548.00	437.68
548.17	437.68
548.34	465.77
548.51	484.49
548.67	430.66
548.84	447.04
549.01	493.85
549.18	477.47
549.34	360.44
549.51	402.57
549.68	404.91
549.84	409.59
550.01	458.74
550.18	449.38
550.34	451.72
550.51	393.21
550.68	428.32
550.84	379.17
551.01	507.90
551.18	407.25
551.34	428.32
551.51	393.21
551.68	496.19
551.84	414.27
552.01	437.68
552.18	400.23
552.34	444.70
552.51	409.59
552.68	397.89
552.84	416.62
553.01	449.38
553.18	482.15
553.34	409.59
553.51	430.66
553.67	442.36
553.84	397.89
554.01	411.93
554.17	390.87
554.34	337.04
554.51	454.06
554.67	456.40
554.84	430.66
555.00	451.72
555.17	479.81
555.33	458.74
555.50	402.57
555.67	451.72
555.83	390.87
556.00	489.17
556.16	458.74
556.33	416.62
556.50	404.91
556.66	379.17
556.83	416.62
556.99	386.19
557.16	388.53
557.32	400.23
557.49	409.59
557.65	423.64
557.82	425.98
557.98	456.40
558.15	444.70
558.32	416.62
558.48	451.72
558.65	489.17
558.81	362.78
558.98	376.83
559.14	423.64
559.31	418.96
559.47	428.32
559.64	365.12
559.80	365.12
559.97	341.72
560.13	433.00
560.30	397.89
560.46	381.51
560.63	400.23
560.79	322.99
560.96	409.59
561.12	407.25
561.29	458.74
561.45	428.32
561.61	362.78
561.78	484.49
561.94	451.72
562.11	416.62
562.27	470.45
562.44	470.45
562.60	416.62
562.77	418.96
562.93	414.27
563.10	416.62
563.26	315.97
563.42	423.64
563.59	505.56
563.75	381.51
563.92	409.59
564.08	393.21
564.24	430.66
564.41	393.21
564.57	334.70
564.74	407.25
564.90	376.83
565.07	425.98
565.23	404.91
565.39	433.00
565.56	468.11
565.72	409.59
565.88	395.55
566.05	435.34
566.21	409.59
566.38	435.34
566.54	475.13
566.70	428.32
566.87	365.12
567.03	430.66
567.19	402.57
567.36	397.89
567.52	374.49
567.68	411.93
567.85	456.40
568.01	411.93
568.17	369.80
568.34	425.98
568.50	491.51
568.66	440.02
568.83	479.81
568.99	374.49
569.15	479.81
569.32	393.21
569.48	376.83
569.64	355.76
569.81	402.57
569.97	442.36
570.13	428.32
570.30	425.98
570.46	355.76
570.62	456.40
570.78	402.57
570.95	351.08
571.11	456.40
571.27	402.57
571.43	402.57
571.60	409.59
571.76	421.30
571.92	416.62
572.09	435.34
572.25	376.83
572.41	390.87
572.57	369.80
572.74	444.70
572.90	470.45
573.06	425.98
573.22	433.00
573.38	461.09
573.55	402.57
573.71	428.32
573.87	416.62
574.03	351.08
574.20	430.66
574.36	442.36
574.52	456.40
574.68	400.23
574.84	425.98
575.01	461.09
575.17	451.72
575.33	381.51
575.49	503.22
575.65	428.32
575.82	447.04
575.98	428.32
576.14	381.51
576.30	458.74
576.46	409.59
576.62	407.25
576.79	362.78
576.95	505.56
577.11	430.66
577.27	428.32
577.43	498.53
577.59	386.19
577.75	379.17
577.92	418.96
578.08	414.27
578.24	383.85
578.40	493.85
578.56	411.93
578.72	493.85
578.88	407.25
579.04	379.17
579.21	449.38
579.37	437.68
579.53	358.10
579.69	447.04
579.85	444.70
580.01	465.77
580.17	440.02
580.33	440.02
580.49	388.53
580.65	390.87
580.82	437.68
580.98	437.68
581.14	430.66
581.30	428.32
581.46	381.51
581.62	372.15
581.78	468.11
581.94	437.68
582.10	390.87
582.26	381.51
582.42	390.87
582.58	393.21
582.74	372.15
582.90	421.30
583.06	372.15
583.22	353.42
583.38	360.44
583.54	395.55
583.70	477.47
583.86	423.64
584.02	423.64
584.18	362.78
584.34	395.55
584.50	379.17
584.66	418.96
584.82	376.83
584.98	353.42
585.14	428.32
585.30	496.19
585.46	397.89
585.62	423.64
585.78	428.32
585.94	470.45
586.10	388.53
586.26	416.62
586.42	416.62
586.58	362.78
586.74	465.77
586.90	486.83
587.06	440.02
587.22	458.74
587.38	435.34
587.54	393.21
587.70	428.32
587.86	437.68
588.02	400.23
588.18	451.72
588.34	376.83
588.49	407.25
588.65	477.47
588.81	475.13
588.97	440.02
589.13	465.77
589.29	418.96
589.45	461.09
589.61	400.23
589.77	411.93
589.93	449.38
590.08	437.68
590.24	440.02
590.40	404.91
590.56	393.21
590.72	372.15
590.88	402.57
591.04	407.25
591.20	447.04
591.35	444.70
591.51	454.06
591.67	360.44
591.83	409.59
591.99	458.74
592.15	416.62
592.31	454.06
592.46	414.27
592.62	428.32
592.78	395.55
592.94	374.49
593.10	437.68
593.26	468.11
593.41	425.98
593.57	390.87
593.73	416.62
593.89	428.32
594.05	372.15
594.20	409.59
594.36	458.74
594.52	388.53
594.68	454.06
594.84	437.68
594.99	444.70
595.15	463.43
595.31	430.66
595.47	430.66
595.62	334.70
595.78	454.06
595.94	407.25
596.10	440.02
596.25	430.66
596.41	421.30
596.57	388.53
596.73	339.38
596.88	440.02
597.04	435.34
597.20	395.55
597.36	477.47
597.51	374.49
597.67	365.12
597.83	423.64
597.99	381.51
598.14	477.47
598.30	468.11
598.46	374.49
598.61	386.19
598.77	451.72
598.93	374.49
599.09	407.25
599.24	409.59
599.40	386.19
599.56	456.40
599.71	430.66
599.87	367.46
600.03	374.49
600.18	465.77
600.34	383.85
600.50	416.62
600.65	442.36
600.81	465.77
600.97	381.51
601.12	449.38
601.28	468.11
601.44	395.55
601.59	454.06
601.75	407.25
601.91	421.30
602.06	390.87
602.22	484.49
602.37	458.74
602.53	430.66
602.69	418.96
602.84	416.62
603.00	489.17
603.16	390.87
603.31	435.34
603.47	390.87
603.62	414.27
603.78	381.51
603.94	435.34
604.09	461.09
604.25	409.59
604.40	437.68
604.56	404.91
604.71	435.34
604.87	369.80
605.03	444.70
605.18	451.72
605.34	351.08
605.49	428.32
605.65	390.87
605.80	386.19
605.96	381.51
606.12	493.85
606.27	454.06
606.43	425.98
606.58	362.78
606.74	411.93
606.89	444.70
607.05	435.34
607.20	397.89
607.36	461.09
607.51	425.98
607.67	482.15
607.82	461.09
607.98	437.68
608.13	416.62
608.29	388.53
608.44	393.21
608.60	395.55
608.75	367.46
608.91	421.30
609.06	358.10
609.22	418.96
609.37	388.53
609.53	374.49
609.68	433.00
609.84	498.53
609.99	351.08
610.15	423.64
