SpectraSuite Data File
++++++++++++++++++++++++++++++++++++
Date: Fri Oct 25 12:10:53 EDT 2013
User: price-jones
Dark Spectrum Present: No
Reference Spectrum Present: No
Number of Sampled Component Spectra: 1
Spectrometers: USB2+H05261
Integration Time (usec): 100000 (USB2+H05261)
Spectra Averaged: 1 (USB2+H05261)
Boxcar Smoothing: 0 (USB2+H05261)
Correct for Electrical Dark: No (USB2+H05261)
Strobe/Lamp Enabled: No (USB2+H05261)
Correct for Detector Non-linearity: No (USB2+H05261)
Correct for Stray Light: No (USB2+H05261)
Number of Pixels in Processed Spectrum: 2048
>>>>>Begin Processed Spectral Data<<<<<
365.73	325.33
365.92	325.33
366.12	325.33
366.32	250.44
366.52	280.86
366.72	283.20
366.91	283.20
367.11	198.95
367.31	325.33
367.51	241.08
367.70	266.82
367.90	212.99
368.10	166.18
368.30	250.44
368.49	245.76
368.69	257.46
368.89	285.55
369.09	210.65
369.28	304.27
369.48	320.65
369.68	287.89
369.87	280.86
370.07	269.16
370.27	264.48
370.47	252.78
370.66	393.21
370.86	344.06
371.06	341.72
371.25	379.17
371.45	353.42
371.65	444.70
371.84	360.44
372.04	332.36
372.24	423.64
372.44	346.40
372.63	390.87
372.83	437.68
373.03	383.85
373.22	381.51
373.42	500.87
373.62	369.80
373.81	369.80
374.01	409.59
374.21	393.21
374.40	402.57
374.60	393.21
374.79	369.80
374.99	421.30
375.19	465.77
375.38	367.46
375.58	440.02
375.78	484.49
375.97	456.40
376.17	425.98
376.37	414.27
376.56	449.38
376.76	451.72
376.95	444.70
377.15	468.11
377.35	435.34
377.54	402.57
377.74	383.85
377.93	337.04
378.13	397.89
378.33	379.17
378.52	325.33
378.72	416.62
378.91	449.38
379.11	444.70
379.31	418.96
379.50	386.19
379.70	400.23
379.89	383.85
380.09	362.78
380.28	383.85
380.48	388.53
380.68	390.87
380.87	362.78
381.07	456.40
381.26	475.13
381.46	409.59
381.65	386.19
381.85	372.15
382.04	393.21
382.24	449.38
382.43	414.27
382.63	393.21
382.83	369.80
383.02	353.42
383.22	407.25
383.41	388.53
383.61	402.57
383.80	428.32
384.00	482.15
384.19	393.21
384.39	430.66
384.58	409.59
384.78	477.47
384.97	425.98
385.17	407.25
385.36	404.91
385.56	407.25
385.75	379.17
385.95	402.57
386.14	428.32
386.34	393.21
386.53	322.99
386.72	411.93
386.92	444.70
387.11	395.55
387.31	388.53
387.50	390.87
387.70	327.68
387.89	444.70
388.09	444.70
388.28	456.40
388.48	353.42
388.67	482.15
388.86	376.83
389.06	407.25
389.25	414.27
389.45	475.13
389.64	411.93
389.84	437.68
390.03	456.40
390.22	428.32
390.42	407.25
390.61	416.62
390.81	330.02
391.00	402.57
391.19	397.89
391.39	444.70
391.58	444.70
391.78	425.98
391.97	472.79
392.16	421.30
392.36	437.68
392.55	425.98
392.75	402.57
392.94	440.02
393.13	388.53
393.33	404.91
393.52	341.72
393.71	330.02
393.91	397.89
394.10	379.17
394.29	315.97
394.49	353.42
394.68	428.32
394.88	423.64
395.07	465.77
395.26	402.57
395.46	465.77
395.65	418.96
395.84	428.32
396.04	470.45
396.23	397.89
396.42	440.02
396.62	425.98
396.81	409.59
397.00	367.46
397.19	421.30
397.39	437.68
397.58	411.93
397.77	355.76
397.97	383.85
398.16	421.30
398.35	411.93
398.55	479.81
398.74	444.70
398.93	423.64
399.12	425.98
399.32	442.36
399.51	411.93
399.70	395.55
399.90	430.66
400.09	404.91
400.28	416.62
400.47	404.91
400.67	484.49
400.86	423.64
401.05	348.74
401.24	376.83
401.44	388.53
401.63	451.72
401.82	428.32
402.01	379.17
402.21	482.15
402.40	409.59
402.59	353.42
402.78	308.95
402.97	442.36
403.17	442.36
403.36	463.43
403.55	451.72
403.74	458.74
403.93	339.38
404.13	444.70
404.32	400.23
404.51	379.17
404.70	442.36
404.89	367.46
405.09	400.23
405.28	379.17
405.47	315.97
405.66	442.36
405.85	402.57
406.05	402.57
406.24	402.57
406.43	423.64
406.62	341.72
406.81	435.34
407.00	390.87
407.20	437.68
407.39	416.62
407.58	318.31
407.77	461.09
407.96	465.77
408.15	404.91
408.34	360.44
408.54	355.76
408.73	390.87
408.92	367.46
409.11	400.23
409.30	425.98
409.49	358.10
409.68	397.89
409.87	430.66
410.07	374.49
410.26	374.49
410.45	463.43
410.64	390.87
410.83	409.59
411.02	475.13
411.21	489.17
411.40	423.64
411.59	386.19
411.78	311.29
411.98	327.68
412.17	442.36
412.36	442.36
412.55	390.87
412.74	383.85
412.93	454.06
413.12	397.89
413.31	461.09
413.50	379.17
413.69	367.46
413.88	430.66
414.07	369.80
414.26	444.70
414.45	414.27
414.64	484.49
414.83	416.62
415.02	367.46
415.22	442.36
415.41	437.68
415.60	393.21
415.79	369.80
415.98	411.93
416.17	407.25
416.36	367.46
416.55	395.55
416.74	402.57
416.93	484.49
417.12	390.87
417.31	390.87
417.50	374.49
417.69	407.25
417.88	416.62
418.07	411.93
418.26	322.99
418.45	360.44
418.64	409.59
418.83	388.53
419.02	327.68
419.21	421.30
419.39	416.62
419.58	383.85
419.77	414.27
419.96	365.12
420.15	381.51
420.34	449.38
420.53	414.27
420.72	451.72
420.91	411.93
421.10	376.83
421.29	463.43
421.48	430.66
421.67	409.59
421.86	402.57
422.05	365.12
422.24	435.34
422.43	416.62
422.61	451.72
422.80	400.23
422.99	447.04
423.18	390.87
423.37	470.45
423.56	458.74
423.75	491.51
423.94	421.30
424.13	416.62
424.32	454.06
424.50	442.36
424.69	334.70
424.88	425.98
425.07	400.23
425.26	440.02
425.45	451.72
425.64	442.36
425.83	390.87
426.01	393.21
426.20	365.12
426.39	402.57
426.58	388.53
426.77	437.68
426.96	341.72
427.15	409.59
427.33	454.06
427.52	376.83
427.71	423.64
427.90	395.55
428.09	397.89
428.28	388.53
428.46	362.78
428.65	367.46
428.84	402.57
429.03	353.42
429.22	428.32
429.40	390.87
429.59	339.38
429.78	346.40
429.97	479.81
430.16	463.43
430.34	388.53
430.53	456.40
430.72	461.09
430.91	444.70
431.10	395.55
431.28	381.51
431.47	397.89
431.66	402.57
431.85	411.93
432.03	388.53
432.22	390.87
432.41	433.00
432.60	454.06
432.79	388.53
432.97	414.27
433.16	435.34
433.35	463.43
433.54	400.23
433.72	414.27
433.91	444.70
434.10	313.63
434.28	465.77
434.47	433.00
434.66	348.74
434.85	423.64
435.03	423.64
435.22	437.68
435.41	334.70
435.59	428.32
435.78	360.44
435.97	404.91
436.16	418.96
436.34	411.93
436.53	437.68
436.72	306.61
436.90	409.59
437.09	388.53
437.28	416.62
437.46	430.66
437.65	416.62
437.84	475.13
438.02	437.68
438.21	423.64
438.40	411.93
438.58	407.25
438.77	400.23
438.96	404.91
439.14	433.00
439.33	472.79
439.52	423.64
439.70	433.00
439.89	435.34
440.08	433.00
440.26	393.21
440.45	447.04
440.63	390.87
440.82	437.68
441.01	433.00
441.19	472.79
441.38	383.85
441.57	358.10
441.75	416.62
441.94	430.66
442.12	358.10
442.31	397.89
442.50	285.55
442.68	411.93
442.87	421.30
443.05	416.62
443.24	428.32
443.43	521.94
443.61	379.17
443.80	353.42
443.98	407.25
444.17	428.32
444.35	456.40
444.54	369.80
444.73	428.32
444.91	458.74
445.10	379.17
445.28	421.30
445.47	381.51
445.65	409.59
445.84	332.36
446.02	430.66
446.21	393.21
446.39	421.30
446.58	454.06
446.77	447.04
446.95	421.30
447.14	397.89
447.32	397.89
447.51	475.13
447.69	444.70
447.88	409.59
448.06	433.00
448.25	388.53
448.43	421.30
448.62	442.36
448.80	461.09
448.99	379.17
449.17	383.85
449.36	383.85
449.54	461.09
449.73	365.12
449.91	365.12
450.10	397.89
450.28	454.06
450.46	425.98
450.65	454.06
450.83	465.77
451.02	355.76
451.20	402.57
451.39	435.34
451.57	442.36
451.76	444.70
451.94	472.79
452.13	503.22
452.31	451.72
452.49	341.72
452.68	327.68
452.86	440.02
453.05	470.45
453.23	383.85
453.42	440.02
453.60	400.23
453.78	383.85
453.97	388.53
454.15	362.78
454.34	442.36
454.52	339.38
454.70	468.11
454.89	372.15
455.07	383.85
455.26	435.34
455.44	416.62
455.62	386.19
455.81	472.79
455.99	341.72
456.17	372.15
456.36	421.30
456.54	334.70
456.73	409.59
456.91	372.15
457.09	418.96
457.28	425.98
457.46	444.70
457.64	395.55
457.83	386.19
458.01	360.44
458.19	379.17
458.38	414.27
458.56	386.19
458.74	374.49
458.93	404.91
459.11	388.53
459.29	468.11
459.48	311.29
459.66	421.30
459.84	414.27
460.03	540.66
460.21	423.64
460.39	409.59
460.57	411.93
460.76	402.57
460.94	472.79
461.12	433.00
461.31	484.49
461.49	472.79
461.67	414.27
461.85	418.96
462.04	442.36
462.22	716.20
462.40	409.59
462.59	404.91
462.77	395.55
462.95	416.62
463.13	449.38
463.32	393.21
463.50	430.66
463.68	386.19
463.86	404.91
464.05	362.78
464.23	409.59
464.41	330.02
464.59	503.22
464.78	400.23
464.96	388.53
465.14	435.34
465.32	379.17
465.50	428.32
465.69	395.55
465.87	360.44
466.05	442.36
466.23	404.91
466.41	416.62
466.60	404.91
466.78	414.27
466.96	409.59
467.14	461.09
467.32	402.57
467.51	390.87
467.69	444.70
467.87	447.04
468.05	421.30
468.23	447.04
468.41	425.98
468.60	395.55
468.78	437.68
468.96	498.53
469.14	444.70
469.32	383.85
469.50	390.87
469.69	365.12
469.87	397.89
470.05	400.23
470.23	411.93
470.41	449.38
470.59	421.30
470.77	486.83
470.95	430.66
471.14	395.55
471.32	477.47
471.50	402.57
471.68	402.57
471.86	430.66
472.04	454.06
472.22	437.68
472.40	393.21
472.58	425.98
472.77	468.11
472.95	465.77
473.13	421.30
473.31	451.72
473.49	383.85
473.67	358.10
473.85	444.70
474.03	404.91
474.21	433.00
474.39	458.74
474.57	428.32
474.75	341.72
474.93	425.98
475.12	442.36
475.30	360.44
475.48	493.85
475.66	402.57
475.84	421.30
476.02	418.96
476.20	395.55
476.38	386.19
476.56	360.44
476.74	430.66
476.92	386.19
477.10	430.66
477.28	409.59
477.46	388.53
477.64	407.25
477.82	442.36
478.00	430.66
478.18	355.76
478.36	433.00
478.54	418.96
478.72	362.78
478.90	411.93
479.08	407.25
479.26	444.70
479.44	402.57
479.62	428.32
479.80	404.91
479.98	440.02
480.16	362.78
480.34	440.02
480.52	407.25
480.70	402.57
480.88	404.91
481.06	383.85
481.24	395.55
481.41	393.21
481.59	416.62
481.77	416.62
481.95	416.62
482.13	397.89
482.31	421.30
482.49	428.32
482.67	409.59
482.85	463.43
483.03	407.25
483.21	397.89
483.39	414.27
483.57	367.46
483.74	390.87
483.92	386.19
484.10	465.77
484.28	400.23
484.46	463.43
484.64	435.34
484.82	440.02
485.00	322.99
485.18	430.66
485.35	430.66
485.53	428.32
485.71	400.23
485.89	388.53
486.07	409.59
486.25	447.04
486.43	428.32
486.61	369.80
486.78	365.12
486.96	395.55
487.14	386.19
487.32	479.81
487.50	411.93
487.68	348.74
487.85	383.85
488.03	470.45
488.21	472.79
488.39	355.76
488.57	451.72
488.75	409.59
488.92	463.43
489.10	444.70
489.28	428.32
489.46	379.17
489.64	404.91
489.81	465.77
489.99	440.02
490.17	444.70
490.35	465.77
490.53	397.89
490.70	355.76
490.88	388.53
491.06	407.25
491.24	407.25
491.41	440.02
491.59	374.49
491.77	367.46
491.95	355.76
492.13	346.40
492.30	418.96
492.48	374.49
492.66	444.70
492.84	381.51
493.01	374.49
493.19	418.96
493.37	400.23
493.54	465.77
493.72	437.68
493.90	456.40
494.08	393.21
494.25	411.93
494.43	442.36
494.61	395.55
494.79	468.11
494.96	482.15
495.14	428.32
495.32	428.32
495.49	468.11
495.67	379.17
495.85	374.49
496.02	475.13
496.20	470.45
496.38	433.00
496.55	468.11
496.73	358.10
496.91	416.62
497.09	456.40
497.26	463.43
497.44	397.89
497.62	414.27
497.79	477.47
497.97	379.17
498.14	423.64
498.32	451.72
498.50	376.83
498.67	376.83
498.85	407.25
499.03	447.04
499.20	416.62
499.38	416.62
499.56	411.93
499.73	458.74
499.91	472.79
500.08	496.19
500.26	409.59
500.44	344.06
500.61	421.30
500.79	440.02
500.97	433.00
501.14	397.89
501.32	372.15
501.49	402.57
501.67	411.93
501.84	395.55
502.02	447.04
502.20	433.00
502.37	365.12
502.55	411.93
502.72	402.57
502.90	325.33
503.07	376.83
503.25	456.40
503.43	411.93
503.60	475.13
503.78	390.87
503.95	458.74
504.13	381.51
504.30	433.00
504.48	463.43
504.65	491.51
504.83	386.19
505.01	400.23
505.18	407.25
505.36	454.06
505.53	437.68
505.71	365.12
505.88	463.43
506.06	421.30
506.23	468.11
506.41	400.23
506.58	442.36
506.76	456.40
506.93	442.36
507.11	369.80
507.28	423.64
507.46	440.02
507.63	402.57
507.81	449.38
507.98	360.44
508.16	322.99
508.33	418.96
508.50	430.66
508.68	397.89
508.85	379.17
509.03	402.57
509.20	416.62
509.38	418.96
509.55	491.51
509.73	337.04
509.90	397.89
510.08	395.55
510.25	463.43
510.42	451.72
510.60	465.77
510.77	433.00
510.95	468.11
511.12	421.30
511.30	440.02
511.47	454.06
511.64	423.64
511.82	337.04
511.99	430.66
512.17	351.08
512.34	388.53
512.51	425.98
512.69	418.96
512.86	430.66
513.04	388.53
513.21	477.47
513.38	337.04
513.56	435.34
513.73	411.93
513.90	376.83
514.08	442.36
514.25	435.34
514.43	437.68
514.60	388.53
514.77	456.40
514.95	433.00
515.12	421.30
515.29	395.55
515.47	444.70
515.64	425.98
515.81	409.59
515.99	421.30
516.16	416.62
516.33	416.62
516.51	435.34
516.68	390.87
516.85	477.47
517.03	390.87
517.20	430.66
517.37	400.23
517.54	393.21
517.72	435.34
517.89	400.23
518.06	482.15
518.24	505.56
518.41	454.06
518.58	325.33
518.75	372.15
518.93	407.25
519.10	404.91
519.27	409.59
519.45	388.53
519.62	365.12
519.79	437.68
519.96	404.91
520.14	369.80
520.31	503.22
520.48	454.06
520.65	423.64
520.83	407.25
521.00	444.70
521.17	440.02
521.34	390.87
521.52	402.57
521.69	430.66
521.86	442.36
522.03	433.00
522.20	456.40
522.38	425.98
522.55	404.91
522.72	299.59
522.89	440.02
523.07	482.15
523.24	411.93
523.41	425.98
523.58	451.72
523.75	351.08
523.92	421.30
524.10	337.04
524.27	411.93
524.44	451.72
524.61	402.57
524.78	330.02
524.96	465.77
525.13	402.57
525.30	421.30
525.47	379.17
525.64	435.34
525.81	442.36
525.98	435.34
526.16	449.38
526.33	411.93
526.50	322.99
526.67	435.34
526.84	395.55
527.01	365.12
527.18	322.99
527.36	351.08
527.53	346.40
527.70	402.57
527.87	388.53
528.04	400.23
528.21	320.65
528.38	407.25
528.55	418.96
528.72	414.27
528.89	421.30
529.07	369.80
529.24	348.74
529.41	376.83
529.58	465.77
529.75	390.87
529.92	327.68
530.09	428.32
530.26	362.78
530.43	444.70
530.60	470.45
530.77	477.47
530.94	430.66
531.11	416.62
531.28	395.55
531.46	435.34
531.63	409.59
531.80	425.98
531.97	449.38
532.14	440.02
532.31	444.70
532.48	414.27
532.65	367.46
532.82	372.15
532.99	346.40
533.16	395.55
533.33	418.96
533.50	458.74
533.67	390.87
533.84	355.76
534.01	416.62
534.18	381.51
534.35	470.45
534.52	372.15
534.69	388.53
534.86	447.04
535.03	362.78
535.20	435.34
535.37	374.49
535.54	404.91
535.71	447.04
535.88	440.02
536.05	383.85
536.22	435.34
536.38	423.64
536.55	477.47
536.72	463.43
536.89	528.96
537.06	358.10
537.23	358.10
537.40	365.12
537.57	374.49
537.74	425.98
537.91	353.42
538.08	482.15
538.25	355.76
538.42	409.59
538.59	409.59
538.75	351.08
538.92	416.62
539.09	475.13
539.26	435.34
539.43	458.74
539.60	360.44
539.77	435.34
539.94	451.72
540.11	433.00
540.28	407.25
540.44	383.85
540.61	428.32
540.78	418.96
540.95	402.57
541.12	409.59
541.29	437.68
541.46	444.70
541.62	386.19
541.79	454.06
541.96	374.49
542.13	435.34
542.30	425.98
542.47	437.68
542.63	407.25
542.80	447.04
542.97	442.36
543.14	386.19
543.31	423.64
543.48	365.12
543.64	458.74
543.81	440.02
543.98	402.57
544.15	311.29
544.32	411.93
544.48	379.17
544.65	374.49
544.82	383.85
544.99	395.55
545.16	409.59
545.32	388.53
545.49	430.66
545.66	442.36
545.83	418.96
546.00	404.91
546.16	400.23
546.33	348.74
546.50	475.13
546.67	507.90
546.83	430.66
547.00	407.25
547.17	383.85
547.34	416.62
547.50	337.04
547.67	442.36
547.84	447.04
548.00	379.17
548.17	379.17
548.34	397.89
548.51	365.12
548.67	414.27
548.84	430.66
549.01	395.55
549.18	470.45
549.34	393.21
549.51	404.91
549.68	435.34
549.84	383.85
550.01	402.57
550.18	470.45
550.34	456.40
550.51	421.30
550.68	390.87
550.84	472.79
551.01	402.57
551.18	372.15
551.34	369.80
551.51	449.38
551.68	416.62
551.84	327.68
552.01	444.70
552.18	416.62
552.34	428.32
552.51	376.83
552.68	447.04
552.84	362.78
553.01	383.85
553.18	402.57
553.34	442.36
553.51	418.96
553.67	409.59
553.84	440.02
554.01	367.46
554.17	430.66
554.34	407.25
554.51	442.36
554.67	456.40
554.84	484.49
555.00	425.98
555.17	367.46
555.33	465.77
555.50	393.21
555.67	451.72
555.83	428.32
556.00	479.81
556.16	587.47
556.33	486.83
556.50	442.36
556.66	435.34
556.83	353.42
556.99	383.85
557.16	428.32
557.32	440.02
557.49	430.66
557.65	423.64
557.82	449.38
557.98	376.83
558.15	414.27
558.32	386.19
558.48	416.62
558.65	407.25
558.81	411.93
558.98	360.44
559.14	407.25
559.31	458.74
559.47	379.17
559.64	358.10
559.80	416.62
559.97	374.49
560.13	388.53
560.30	407.25
560.46	510.24
560.63	435.34
560.79	402.57
560.96	430.66
561.12	449.38
561.29	423.64
561.45	486.83
561.61	400.23
561.78	456.40
561.94	440.02
562.11	397.89
562.27	390.87
562.44	365.12
562.60	456.40
562.77	456.40
562.93	496.19
563.10	404.91
563.26	430.66
563.42	463.43
563.59	421.30
563.75	397.89
563.92	404.91
564.08	301.93
564.24	397.89
564.41	449.38
564.57	407.25
564.74	447.04
564.90	463.43
565.07	440.02
565.23	390.87
565.39	416.62
565.56	514.92
565.72	484.49
565.88	430.66
566.05	423.64
566.21	395.55
566.38	435.34
566.54	428.32
566.70	402.57
566.87	465.77
567.03	397.89
567.19	390.87
567.36	458.74
567.52	456.40
567.68	418.96
567.85	397.89
568.01	421.30
568.17	388.53
568.34	390.87
568.50	402.57
568.66	402.57
568.83	482.15
568.99	400.23
569.15	463.43
569.32	376.83
569.48	414.27
569.64	442.36
569.81	407.25
569.97	386.19
570.13	472.79
570.30	442.36
570.46	386.19
570.62	397.89
570.78	425.98
570.95	376.83
571.11	425.98
571.27	472.79
571.43	503.22
571.60	447.04
571.76	482.15
571.92	423.64
572.09	470.45
572.25	411.93
572.41	402.57
572.57	367.46
572.74	435.34
572.90	458.74
573.06	369.80
573.22	407.25
573.38	433.00
573.55	449.38
573.71	407.25
573.87	407.25
574.03	381.51
574.20	395.55
574.36	454.06
574.52	313.63
574.68	433.00
574.84	444.70
575.01	428.32
575.17	358.10
575.33	421.30
575.49	418.96
575.65	447.04
575.82	503.22
575.98	454.06
576.14	470.45
576.30	425.98
576.46	404.91
576.62	393.21
576.79	463.43
576.95	425.98
577.11	430.66
577.27	367.46
577.43	390.87
577.59	489.17
577.75	372.15
577.92	372.15
578.08	402.57
578.24	383.85
578.40	381.51
578.56	421.30
578.72	421.30
578.88	425.98
579.04	379.17
579.21	397.89
579.37	393.21
579.53	433.00
579.69	360.44
579.85	447.04
580.01	407.25
580.17	447.04
580.33	386.19
580.49	416.62
580.65	402.57
580.82	416.62
580.98	437.68
581.14	402.57
581.30	423.64
581.46	456.40
581.62	418.96
581.78	472.79
581.94	365.12
582.10	468.11
582.26	447.04
582.42	320.65
582.58	411.93
582.74	372.15
582.90	456.40
583.06	468.11
583.22	367.46
583.38	367.46
583.54	433.00
583.70	430.66
583.86	425.98
584.02	381.51
584.18	472.79
584.34	425.98
584.50	440.02
584.66	442.36
584.82	379.17
584.98	383.85
585.14	409.59
585.30	407.25
585.46	386.19
585.62	393.21
585.78	433.00
585.94	407.25
586.10	360.44
586.26	423.64
586.42	395.55
586.58	461.09
586.74	470.45
586.90	400.23
587.06	470.45
587.22	440.02
587.38	390.87
587.54	454.06
587.70	454.06
587.86	430.66
588.02	397.89
588.18	435.34
588.34	454.06
588.49	423.64
588.65	440.02
588.81	433.00
588.97	440.02
589.13	386.19
589.29	416.62
589.45	503.22
589.61	360.44
589.77	442.36
589.93	374.49
590.08	433.00
590.24	468.11
590.40	451.72
590.56	447.04
590.72	440.02
590.88	414.27
591.04	402.57
591.20	355.76
591.35	430.66
591.51	425.98
591.67	376.83
591.83	428.32
591.99	383.85
592.15	458.74
592.31	390.87
592.46	395.55
592.62	388.53
592.78	400.23
592.94	435.34
593.10	365.12
593.26	449.38
593.41	449.38
593.57	456.40
593.73	339.38
593.89	400.23
594.05	334.70
594.20	395.55
594.36	428.32
594.52	395.55
594.68	393.21
594.84	397.89
594.99	393.21
595.15	465.77
595.31	444.70
595.47	421.30
595.62	376.83
595.78	395.55
595.94	346.40
596.10	461.09
596.25	402.57
596.41	444.70
596.57	383.85
596.73	407.25
596.88	414.27
597.04	362.78
597.20	372.15
597.36	400.23
597.51	397.89
597.67	409.59
597.83	397.89
597.99	372.15
598.14	341.72
598.30	440.02
598.46	341.72
598.61	461.09
598.77	454.06
598.93	360.44
599.09	395.55
599.24	468.11
599.40	461.09
599.56	451.72
599.71	454.06
599.87	397.89
600.03	437.68
600.18	428.32
600.34	416.62
600.50	414.27
600.65	393.21
600.81	374.49
600.97	386.19
601.12	461.09
601.28	433.00
601.44	358.10
601.59	411.93
601.75	404.91
601.91	458.74
602.06	475.13
602.22	482.15
602.37	472.79
602.53	423.64
602.69	414.27
602.84	482.15
603.00	374.49
603.16	332.36
603.31	472.79
603.47	458.74
603.62	390.87
603.78	423.64
603.94	430.66
604.09	414.27
604.25	411.93
604.40	479.81
604.56	372.15
604.71	425.98
604.87	435.34
605.03	437.68
605.18	407.25
605.34	449.38
605.49	430.66
605.65	425.98
605.80	451.72
605.96	421.30
606.12	428.32
606.27	447.04
606.43	409.59
606.58	451.72
606.74	447.04
606.89	386.19
607.05	390.87
607.20	379.17
607.36	407.25
607.51	479.81
607.67	435.34
607.82	402.57
607.98	449.38
608.13	477.47
608.29	458.74
608.44	367.46
608.60	379.17
608.75	475.13
608.91	400.23
609.06	430.66
609.22	416.62
609.37	447.04
609.53	351.08
609.68	425.98
609.84	418.96
609.99	407.25
610.15	454.06
