SpectraSuite Data File
++++++++++++++++++++++++++++++++++++
Date: Fri Oct 25 12:11:05 EDT 2013
User: price-jones
Dark Spectrum Present: No
Reference Spectrum Present: No
Number of Sampled Component Spectra: 1
Spectrometers: USB2+H05261
Integration Time (usec): 100000 (USB2+H05261)
Spectra Averaged: 1 (USB2+H05261)
Boxcar Smoothing: 0 (USB2+H05261)
Correct for Electrical Dark: No (USB2+H05261)
Strobe/Lamp Enabled: No (USB2+H05261)
Correct for Detector Non-linearity: No (USB2+H05261)
Correct for Stray Light: No (USB2+H05261)
Number of Pixels in Processed Spectrum: 2048
>>>>>Begin Processed Spectral Data<<<<<
365.73	276.18
365.92	276.18
366.12	276.18
366.32	212.99
366.52	259.80
366.72	236.39
366.91	224.69
367.11	203.63
367.31	194.26
367.51	156.82
367.70	255.12
367.90	271.50
368.10	229.37
368.30	222.35
368.49	243.42
368.69	238.73
368.89	257.46
369.09	283.20
369.28	250.44
369.48	203.63
369.68	320.65
369.87	348.74
370.07	243.42
370.27	372.15
370.47	315.97
370.66	292.57
370.86	301.93
371.06	383.85
371.25	442.36
371.45	355.76
371.65	421.30
371.84	304.27
372.04	327.68
372.24	393.21
372.44	360.44
372.63	341.72
372.83	346.40
373.03	425.98
373.22	451.72
373.42	477.47
373.62	496.19
373.81	442.36
374.01	454.06
374.21	454.06
374.40	393.21
374.60	456.40
374.79	425.98
374.99	433.00
375.19	379.17
375.38	435.34
375.58	428.32
375.78	428.32
375.97	444.70
376.17	512.58
376.37	451.72
376.56	400.23
376.76	454.06
376.95	440.02
377.15	407.25
377.35	395.55
377.54	451.72
377.74	400.23
377.93	416.62
378.13	379.17
378.33	484.49
378.52	395.55
378.72	430.66
378.91	421.30
379.11	395.55
379.31	416.62
379.50	472.79
379.70	468.11
379.89	418.96
380.09	381.51
380.28	351.08
380.48	451.72
380.68	386.19
380.87	440.02
381.07	376.83
381.26	421.30
381.46	409.59
381.65	376.83
381.85	531.30
382.04	411.93
382.24	430.66
382.43	376.83
382.63	418.96
382.83	372.15
383.02	360.44
383.22	425.98
383.41	376.83
383.61	395.55
383.80	372.15
384.00	402.57
384.19	393.21
384.39	365.12
384.58	388.53
384.78	437.68
384.97	444.70
385.17	444.70
385.36	374.49
385.56	388.53
385.75	379.17
385.95	404.91
386.14	367.46
386.34	428.32
386.53	421.30
386.72	456.40
386.92	416.62
387.11	355.76
387.31	414.27
387.50	423.64
387.70	351.08
387.89	390.87
388.09	416.62
388.28	379.17
388.48	353.42
388.67	437.68
388.86	451.72
389.06	365.12
389.25	383.85
389.45	416.62
389.64	444.70
389.84	505.56
390.03	519.60
390.22	381.51
390.42	435.34
390.61	360.44
390.81	400.23
391.00	456.40
391.19	353.42
391.39	383.85
391.58	404.91
391.78	442.36
391.97	449.38
392.16	355.76
392.36	468.11
392.55	479.81
392.75	423.64
392.94	411.93
393.13	404.91
393.33	402.57
393.52	418.96
393.71	461.09
393.91	409.59
394.10	353.42
394.29	397.89
394.49	433.00
394.68	423.64
394.88	423.64
395.07	418.96
395.26	454.06
395.46	383.85
395.65	437.68
395.84	447.04
396.04	493.85
396.23	332.36
396.42	404.91
396.62	353.42
396.81	390.87
397.00	407.25
397.19	381.51
397.39	409.59
397.58	449.38
397.77	367.46
397.97	404.91
398.16	430.66
398.35	486.83
398.55	414.27
398.74	433.00
398.93	386.19
399.12	381.51
399.32	400.23
399.51	344.06
399.70	440.02
399.90	418.96
400.09	454.06
400.28	421.30
400.47	400.23
400.67	477.47
400.86	491.51
401.05	423.64
401.24	421.30
401.44	430.66
401.63	447.04
401.82	442.36
402.01	416.62
402.21	365.12
402.40	360.44
402.59	418.96
402.78	409.59
402.97	339.38
403.17	351.08
403.36	437.68
403.55	372.15
403.74	421.30
403.93	367.46
404.13	418.96
404.32	388.53
404.51	428.32
404.70	451.72
404.89	369.80
405.09	465.77
405.28	418.96
405.47	416.62
405.66	372.15
405.85	421.30
406.05	418.96
406.24	458.74
406.43	376.83
406.62	404.91
406.81	430.66
407.00	461.09
407.20	409.59
407.39	346.40
407.58	454.06
407.77	456.40
407.96	468.11
408.15	397.89
408.34	416.62
408.54	414.27
408.73	379.17
408.92	479.81
409.11	470.45
409.30	381.51
409.49	433.00
409.68	341.72
409.87	409.59
410.07	402.57
410.26	411.93
410.45	351.08
410.64	348.74
410.83	407.25
411.02	390.87
411.21	456.40
411.40	374.49
411.59	369.80
411.78	365.12
411.98	416.62
412.17	379.17
412.36	379.17
412.55	374.49
412.74	407.25
412.93	470.45
413.12	390.87
413.31	414.27
413.50	414.27
413.69	423.64
413.88	451.72
414.07	407.25
414.26	397.89
414.45	411.93
414.64	475.13
414.83	418.96
415.02	379.17
415.22	447.04
415.41	423.64
415.60	425.98
415.79	411.93
415.98	390.87
416.17	362.78
416.36	496.19
416.55	414.27
416.74	404.91
416.93	430.66
417.12	407.25
417.31	404.91
417.50	428.32
417.69	498.53
417.88	433.00
418.07	407.25
418.26	409.59
418.45	421.30
418.64	463.43
418.83	468.11
419.02	444.70
419.21	395.55
419.39	358.10
419.58	341.72
419.77	423.64
419.96	440.02
420.15	451.72
420.34	318.31
420.53	404.91
420.72	393.21
420.91	411.93
421.10	407.25
421.29	451.72
421.48	402.57
421.67	414.27
421.86	388.53
422.05	465.77
422.24	397.89
422.43	416.62
422.61	353.42
422.80	311.29
422.99	381.51
423.18	327.68
423.37	491.51
423.56	416.62
423.75	418.96
423.94	358.10
424.13	404.91
424.32	423.64
424.50	470.45
424.69	491.51
424.88	407.25
425.07	374.49
425.26	423.64
425.45	440.02
425.64	360.44
425.83	411.93
426.01	414.27
426.20	421.30
426.39	411.93
426.58	379.17
426.77	442.36
426.96	500.87
427.15	402.57
427.33	372.15
427.52	381.51
427.71	383.85
427.90	402.57
428.09	409.59
428.28	360.44
428.46	372.15
428.65	442.36
428.84	435.34
429.03	477.47
429.22	414.27
429.40	395.55
429.59	402.57
429.78	437.68
429.97	374.49
430.16	451.72
430.34	407.25
430.53	397.89
430.72	404.91
430.91	390.87
431.10	388.53
431.28	416.62
431.47	407.25
431.66	440.02
431.85	379.17
432.03	390.87
432.22	383.85
432.41	386.19
432.60	411.93
432.79	418.96
432.97	416.62
433.16	304.27
433.35	433.00
433.54	297.25
433.72	416.62
433.91	444.70
434.10	355.76
434.28	388.53
434.47	348.74
434.66	458.74
434.85	414.27
435.03	472.79
435.22	388.53
435.41	418.96
435.59	390.87
435.78	355.76
435.97	337.04
436.16	395.55
436.34	425.98
436.53	454.06
436.72	437.68
436.90	411.93
437.09	465.77
437.28	397.89
437.46	339.38
437.65	433.00
437.84	386.19
438.02	440.02
438.21	390.87
438.40	444.70
438.58	383.85
438.77	388.53
438.96	430.66
439.14	390.87
439.33	461.09
439.52	353.42
439.70	423.64
439.89	393.21
440.08	386.19
440.26	463.43
440.45	351.08
440.63	435.34
440.82	458.74
441.01	418.96
441.19	461.09
441.38	479.81
441.57	369.80
441.75	397.89
441.94	407.25
442.12	409.59
442.31	517.26
442.50	367.46
442.68	454.06
442.87	355.76
443.05	379.17
443.24	379.17
443.43	491.51
443.61	346.40
443.80	390.87
443.98	383.85
444.17	430.66
444.35	397.89
444.54	458.74
444.73	400.23
444.91	433.00
445.10	418.96
445.28	407.25
445.47	454.06
445.65	402.57
445.84	433.00
446.02	339.38
446.21	400.23
446.39	411.93
446.58	484.49
446.77	388.53
446.95	425.98
447.14	444.70
447.32	435.34
447.51	358.10
447.69	421.30
447.88	376.83
448.06	468.11
448.25	437.68
448.43	423.64
448.62	435.34
448.80	358.10
448.99	430.66
449.17	454.06
449.36	362.78
449.54	430.66
449.73	411.93
449.91	400.23
450.10	402.57
450.28	388.53
450.46	472.79
450.65	369.80
450.83	468.11
451.02	458.74
451.20	433.00
451.39	421.30
451.57	411.93
451.76	360.44
451.94	395.55
452.13	407.25
452.31	472.79
452.49	423.64
452.68	390.87
452.86	397.89
453.05	510.24
453.23	447.04
453.42	339.38
453.60	414.27
453.78	400.23
453.97	397.89
454.15	440.02
454.34	411.93
454.52	390.87
454.70	376.83
454.89	449.38
455.07	388.53
455.26	435.34
455.44	437.68
455.62	367.46
455.81	461.09
455.99	451.72
456.17	470.45
456.36	423.64
456.54	383.85
456.73	451.72
456.91	400.23
457.09	444.70
457.28	372.15
457.46	393.21
457.64	444.70
457.83	379.17
458.01	388.53
458.19	437.68
458.38	461.09
458.56	425.98
458.74	416.62
458.93	465.77
459.11	379.17
459.29	435.34
459.48	381.51
459.66	421.30
459.84	435.34
460.03	519.60
460.21	444.70
460.39	397.89
460.57	444.70
460.76	393.21
460.94	402.57
461.12	507.90
461.31	449.38
461.49	386.19
461.67	425.98
461.85	400.23
462.04	444.70
462.22	784.08
462.40	411.93
462.59	414.27
462.77	404.91
462.95	433.00
463.13	444.70
463.32	451.72
463.50	386.19
463.68	379.17
463.86	423.64
464.05	475.13
464.23	402.57
464.41	414.27
464.59	374.49
464.78	458.74
464.96	369.80
465.14	395.55
465.32	325.33
465.50	440.02
465.69	454.06
465.87	306.61
466.05	402.57
466.23	447.04
466.41	416.62
466.60	395.55
466.78	322.99
466.96	458.74
467.14	425.98
467.32	411.93
467.51	484.49
467.69	365.12
467.87	411.93
468.05	423.64
468.23	411.93
468.41	425.98
468.60	421.30
468.78	418.96
468.96	444.70
469.14	388.53
469.32	397.89
469.50	393.21
469.69	428.32
469.87	395.55
470.05	433.00
470.23	388.53
470.41	433.00
470.59	383.85
470.77	416.62
470.95	372.15
471.14	484.49
471.32	416.62
471.50	435.34
471.68	409.59
471.86	365.12
472.04	358.10
472.22	433.00
472.40	369.80
472.58	390.87
472.77	433.00
472.95	388.53
473.13	447.04
473.31	496.19
473.49	414.27
473.67	416.62
473.85	386.19
474.03	435.34
474.21	376.83
474.39	428.32
474.57	409.59
474.75	390.87
474.93	313.63
475.12	351.08
475.30	383.85
475.48	428.32
475.66	386.19
475.84	461.09
476.02	416.62
476.20	433.00
476.38	414.27
476.56	416.62
476.74	351.08
476.92	381.51
477.10	458.74
477.28	416.62
477.46	393.21
477.64	433.00
477.82	449.38
478.00	418.96
478.18	428.32
478.36	409.59
478.54	540.66
478.72	470.45
478.90	442.36
479.08	351.08
479.26	461.09
479.44	388.53
479.62	369.80
479.80	423.64
479.98	428.32
480.16	404.91
480.34	381.51
480.52	390.87
480.70	449.38
480.88	475.13
481.06	362.78
481.24	376.83
481.41	479.81
481.59	440.02
481.77	454.06
481.95	383.85
482.13	472.79
482.31	369.80
482.49	358.10
482.67	421.30
482.85	404.91
483.03	418.96
483.21	322.99
483.39	444.70
483.57	468.11
483.74	425.98
483.92	423.64
484.10	395.55
484.28	400.23
484.46	421.30
484.64	444.70
484.82	440.02
485.00	458.74
485.18	390.87
485.35	386.19
485.53	423.64
485.71	430.66
485.89	421.30
486.07	428.32
486.25	470.45
486.43	447.04
486.61	409.59
486.78	372.15
486.96	416.62
487.14	386.19
487.32	461.09
487.50	390.87
487.68	447.04
487.85	362.78
488.03	456.40
488.21	376.83
488.39	383.85
488.57	421.30
488.75	456.40
488.92	454.06
489.10	423.64
489.28	437.68
489.46	390.87
489.64	402.57
489.81	444.70
489.99	416.62
490.17	421.30
490.35	496.19
490.53	411.93
490.70	507.90
490.88	372.15
491.06	425.98
491.24	418.96
491.41	470.45
491.59	433.00
491.77	409.59
491.95	379.17
492.13	409.59
492.30	421.30
492.48	447.04
492.66	390.87
492.84	465.77
493.01	369.80
493.19	430.66
493.37	442.36
493.54	421.30
493.72	449.38
493.90	447.04
494.08	402.57
494.25	454.06
494.43	475.13
494.61	440.02
494.79	400.23
494.96	355.76
495.14	444.70
495.32	388.53
495.49	472.79
495.67	421.30
495.85	451.72
496.02	428.32
496.20	465.77
496.38	435.34
496.55	358.10
496.73	463.43
496.91	379.17
497.09	397.89
497.26	362.78
497.44	449.38
497.62	407.25
497.79	435.34
497.97	369.80
498.14	395.55
498.32	477.47
498.50	458.74
498.67	416.62
498.85	383.85
499.03	458.74
499.20	397.89
499.38	362.78
499.56	430.66
499.73	444.70
499.91	418.96
500.08	435.34
500.26	402.57
500.44	404.91
500.61	440.02
500.79	402.57
500.97	423.64
501.14	472.79
501.32	423.64
501.49	423.64
501.67	440.02
501.84	402.57
502.02	388.53
502.20	400.23
502.37	428.32
502.55	430.66
502.72	468.11
502.90	414.27
503.07	411.93
503.25	416.62
503.43	330.02
503.60	444.70
503.78	411.93
503.95	400.23
504.13	428.32
504.30	409.59
504.48	477.47
504.65	458.74
504.83	397.89
505.01	402.57
505.18	400.23
505.36	425.98
505.53	435.34
505.71	355.76
505.88	440.02
506.06	395.55
506.23	430.66
506.41	365.12
506.58	451.72
506.76	395.55
506.93	423.64
507.11	421.30
507.28	437.68
507.46	414.27
507.63	411.93
507.81	425.98
507.98	435.34
508.16	362.78
508.33	353.42
508.50	416.62
508.68	379.17
508.85	386.19
509.03	440.02
509.20	416.62
509.38	463.43
509.55	411.93
509.73	447.04
509.90	430.66
510.08	341.72
510.25	400.23
510.42	414.27
510.60	409.59
510.77	407.25
510.95	388.53
511.12	376.83
511.30	475.13
511.47	402.57
511.64	393.21
511.82	395.55
511.99	390.87
512.17	395.55
512.34	416.62
512.51	449.38
512.69	454.06
512.86	447.04
513.04	388.53
513.21	423.64
513.38	454.06
513.56	404.91
513.73	367.46
513.90	433.00
514.08	430.66
514.25	472.79
514.43	423.64
514.60	402.57
514.77	395.55
514.95	449.38
515.12	404.91
515.29	409.59
515.47	498.53
515.64	451.72
515.81	311.29
515.99	454.06
516.16	461.09
516.33	519.60
516.51	470.45
516.68	409.59
516.85	489.17
517.03	423.64
517.20	486.83
517.37	442.36
517.54	386.19
517.72	433.00
517.89	440.02
518.06	418.96
518.24	479.81
518.41	477.47
518.58	451.72
518.75	381.51
518.93	421.30
519.10	425.98
519.27	463.43
519.45	425.98
519.62	423.64
519.79	451.72
519.96	407.25
520.14	386.19
520.31	454.06
520.48	428.32
520.65	411.93
520.83	395.55
521.00	407.25
521.17	428.32
521.34	358.10
521.52	433.00
521.69	409.59
521.86	433.00
522.03	433.00
522.20	369.80
522.38	416.62
522.55	421.30
522.72	339.38
522.89	444.70
523.07	465.77
523.24	402.57
523.41	388.53
523.58	381.51
523.75	374.49
523.92	416.62
524.10	451.72
524.27	433.00
524.44	402.57
524.61	404.91
524.78	348.74
524.96	486.83
525.13	362.78
525.30	379.17
525.47	449.38
525.64	423.64
525.81	498.53
525.98	416.62
526.16	491.51
526.33	447.04
526.50	395.55
526.67	430.66
526.84	369.80
527.01	386.19
527.18	400.23
527.36	379.17
527.53	454.06
527.70	362.78
527.87	374.49
528.04	510.24
528.21	437.68
528.38	505.56
528.55	463.43
528.72	449.38
528.89	344.06
529.07	423.64
529.24	379.17
529.41	421.30
529.58	393.21
529.75	433.00
529.92	456.40
530.09	360.44
530.26	472.79
530.43	397.89
530.60	397.89
530.77	395.55
530.94	390.87
531.11	376.83
531.28	407.25
531.46	475.13
531.63	414.27
531.80	369.80
531.97	454.06
532.14	475.13
532.31	433.00
532.48	440.02
532.65	435.34
532.82	414.27
532.99	372.15
533.16	416.62
533.33	365.12
533.50	348.74
533.67	388.53
533.84	423.64
534.01	400.23
534.18	362.78
534.35	440.02
534.52	365.12
534.69	390.87
534.86	465.77
535.03	369.80
535.20	442.36
535.37	369.80
535.54	402.57
535.71	433.00
535.88	414.27
536.05	475.13
536.22	479.81
536.38	449.38
536.55	404.91
536.72	355.76
536.89	376.83
537.06	421.30
537.23	313.63
537.40	421.30
537.57	337.04
537.74	470.45
537.91	437.68
538.08	330.02
538.25	428.32
538.42	475.13
538.59	479.81
538.75	463.43
538.92	411.93
539.09	339.38
539.26	447.04
539.43	451.72
539.60	390.87
539.77	379.17
539.94	416.62
540.11	440.02
540.28	442.36
540.44	484.49
540.61	493.85
540.78	491.51
540.95	421.30
541.12	505.56
541.29	468.11
541.46	444.70
541.62	386.19
541.79	442.36
541.96	395.55
542.13	407.25
542.30	423.64
542.47	409.59
542.63	334.70
542.80	355.76
542.97	430.66
543.14	425.98
543.31	425.98
543.48	454.06
543.64	486.83
543.81	360.44
543.98	430.66
544.15	360.44
544.32	355.76
544.48	416.62
544.65	425.98
544.82	421.30
544.99	367.46
545.16	409.59
545.32	468.11
545.49	456.40
545.66	402.57
545.83	463.43
546.00	444.70
546.16	433.00
546.33	440.02
546.50	411.93
546.67	397.89
546.83	369.80
547.00	395.55
547.17	409.59
547.34	407.25
547.50	428.32
547.67	451.72
547.84	425.98
548.00	486.83
548.17	386.19
548.34	423.64
548.51	472.79
548.67	430.66
548.84	395.55
549.01	407.25
549.18	411.93
549.34	479.81
549.51	388.53
549.68	430.66
549.84	388.53
550.01	456.40
550.18	458.74
550.34	454.06
550.51	447.04
550.68	472.79
550.84	388.53
551.01	468.11
551.18	493.85
551.34	430.66
551.51	421.30
551.68	383.85
551.84	341.72
552.01	461.09
552.18	449.38
552.34	425.98
552.51	397.89
552.68	421.30
552.84	411.93
553.01	358.10
553.18	458.74
553.34	470.45
553.51	362.78
553.67	414.27
553.84	491.51
554.01	416.62
554.17	475.13
554.34	393.21
554.51	449.38
554.67	444.70
554.84	526.62
555.00	411.93
555.17	421.30
555.33	461.09
555.50	411.93
555.67	411.93
555.83	404.91
556.00	484.49
556.16	547.69
556.33	447.04
556.50	449.38
556.66	421.30
556.83	386.19
556.99	437.68
557.16	397.89
557.32	454.06
557.49	397.89
557.65	414.27
557.82	435.34
557.98	430.66
558.15	442.36
558.32	372.15
558.48	440.02
558.65	447.04
558.81	423.64
558.98	470.45
559.14	435.34
559.31	421.30
559.47	442.36
559.64	404.91
559.80	433.00
559.97	465.77
560.13	404.91
560.30	423.64
560.46	482.15
560.63	421.30
560.79	376.83
560.96	449.38
561.12	409.59
561.29	411.93
561.45	440.02
561.61	409.59
561.78	533.64
561.94	383.85
562.11	454.06
562.27	411.93
562.44	397.89
562.60	475.13
562.77	418.96
562.93	444.70
563.10	400.23
563.26	505.56
563.42	461.09
563.59	461.09
563.75	510.24
563.92	451.72
564.08	402.57
564.24	447.04
564.41	437.68
564.57	423.64
564.74	358.10
564.90	423.64
565.07	461.09
565.23	440.02
565.39	386.19
565.56	458.74
565.72	348.74
565.88	437.68
566.05	421.30
566.21	440.02
566.38	470.45
566.54	451.72
566.70	458.74
566.87	465.77
567.03	418.96
567.19	409.59
567.36	383.85
567.52	386.19
567.68	456.40
567.85	411.93
568.01	440.02
568.17	409.59
568.34	433.00
568.50	454.06
568.66	407.25
568.83	498.53
568.99	379.17
569.15	404.91
569.32	435.34
569.48	447.04
569.64	390.87
569.81	414.27
569.97	379.17
570.13	374.49
570.30	428.32
570.46	423.64
570.62	433.00
570.78	393.21
570.95	404.91
571.11	397.89
571.27	430.66
571.43	395.55
571.60	381.51
571.76	353.42
571.92	454.06
572.09	411.93
572.25	463.43
572.41	397.89
572.57	339.38
572.74	442.36
572.90	482.15
573.06	489.17
573.22	437.68
573.38	489.17
573.55	507.90
573.71	470.45
573.87	428.32
574.03	430.66
574.20	447.04
574.36	397.89
574.52	416.62
574.68	421.30
574.84	435.34
575.01	442.36
575.17	454.06
575.33	465.77
575.49	456.40
575.65	358.10
575.82	440.02
575.98	433.00
576.14	418.96
576.30	411.93
576.46	451.72
576.62	390.87
576.79	447.04
576.95	409.59
577.11	416.62
577.27	318.31
577.43	421.30
577.59	454.06
577.75	407.25
577.92	372.15
578.08	369.80
578.24	442.36
578.40	433.00
578.56	444.70
578.72	428.32
578.88	390.87
579.04	397.89
579.21	479.81
579.37	425.98
579.53	381.51
579.69	465.77
579.85	454.06
580.01	428.32
580.17	451.72
580.33	402.57
580.49	330.02
580.65	442.36
580.82	423.64
580.98	456.40
581.14	435.34
581.30	468.11
581.46	416.62
581.62	503.22
581.78	393.21
581.94	435.34
582.10	442.36
582.26	421.30
582.42	355.76
582.58	393.21
582.74	353.42
582.90	369.80
583.06	430.66
583.22	423.64
583.38	358.10
583.54	374.49
583.70	388.53
583.86	491.51
584.02	475.13
584.18	416.62
584.34	423.64
584.50	428.32
584.66	358.10
584.82	353.42
584.98	425.98
585.14	411.93
585.30	437.68
585.46	428.32
585.62	442.36
585.78	447.04
585.94	374.49
586.10	395.55
586.26	362.78
586.42	470.45
586.58	374.49
586.74	489.17
586.90	388.53
587.06	430.66
587.22	397.89
587.38	369.80
587.54	414.27
587.70	470.45
587.86	507.90
588.02	374.49
588.18	430.66
588.34	425.98
588.49	332.36
588.65	463.43
588.81	404.91
588.97	472.79
589.13	437.68
589.29	421.30
589.45	407.25
589.61	491.51
589.77	430.66
589.93	322.99
590.08	409.59
590.24	383.85
590.40	442.36
590.56	444.70
590.72	365.12
590.88	407.25
591.04	407.25
591.20	383.85
591.35	461.09
591.51	449.38
591.67	367.46
591.83	381.51
591.99	444.70
592.15	423.64
592.31	447.04
592.46	421.30
592.62	395.55
592.78	402.57
592.94	472.79
593.10	397.89
593.26	383.85
593.41	440.02
593.57	433.00
593.73	381.51
593.89	395.55
594.05	451.72
594.20	381.51
594.36	447.04
594.52	374.49
594.68	355.76
594.84	461.09
594.99	428.32
595.15	444.70
595.31	447.04
595.47	444.70
595.62	395.55
595.78	379.17
595.94	416.62
596.10	372.15
596.25	465.77
596.41	440.02
596.57	400.23
596.73	374.49
596.88	477.47
597.04	390.87
597.20	451.72
597.36	451.72
597.51	425.98
597.67	444.70
597.83	454.06
597.99	447.04
598.14	465.77
598.30	475.13
598.46	365.12
598.61	479.81
598.77	414.27
598.93	418.96
599.09	444.70
599.24	423.64
599.40	425.98
599.56	390.87
599.71	393.21
599.87	388.53
600.03	416.62
600.18	416.62
600.34	430.66
600.50	304.27
600.65	383.85
600.81	400.23
600.97	482.15
601.12	449.38
601.28	442.36
601.44	365.12
601.59	353.42
601.75	491.51
601.91	365.12
602.06	451.72
602.22	461.09
602.37	397.89
602.53	475.13
602.69	365.12
602.84	362.78
603.00	451.72
603.16	440.02
603.31	437.68
603.47	451.72
603.62	451.72
603.78	442.36
603.94	400.23
604.09	411.93
604.25	400.23
604.40	409.59
604.56	486.83
604.71	397.89
604.87	437.68
605.03	374.49
605.18	327.68
605.34	402.57
605.49	482.15
605.65	369.80
605.80	358.10
605.96	353.42
606.12	390.87
606.27	461.09
606.43	435.34
606.58	374.49
606.74	376.83
606.89	409.59
607.05	407.25
607.20	430.66
607.36	400.23
607.51	400.23
607.67	493.85
607.82	440.02
607.98	388.53
608.13	428.32
608.29	449.38
608.44	444.70
608.60	435.34
608.75	454.06
608.91	447.04
609.06	458.74
609.22	447.04
609.37	437.68
609.53	456.40
609.68	430.66
609.84	402.57
609.99	477.47
610.15	374.49
