SpectraSuite Data File
++++++++++++++++++++++++++++++++++++
Date: Fri Oct 25 12:11:01 EDT 2013
User: price-jones
Dark Spectrum Present: No
Reference Spectrum Present: No
Number of Sampled Component Spectra: 1
Spectrometers: USB2+H05261
Integration Time (usec): 100000 (USB2+H05261)
Spectra Averaged: 1 (USB2+H05261)
Boxcar Smoothing: 0 (USB2+H05261)
Correct for Electrical Dark: No (USB2+H05261)
Strobe/Lamp Enabled: No (USB2+H05261)
Correct for Detector Non-linearity: No (USB2+H05261)
Correct for Stray Light: No (USB2+H05261)
Number of Pixels in Processed Spectrum: 2048
>>>>>Begin Processed Spectral Data<<<<<
365.73	306.61
365.92	306.61
366.12	306.61
366.32	217.67
366.52	234.05
366.72	250.44
366.91	250.44
367.11	212.99
367.31	227.03
367.51	259.80
367.70	217.67
367.90	168.52
368.10	238.73
368.30	259.80
368.49	215.33
368.69	243.42
368.89	315.97
369.09	245.76
369.28	311.29
369.48	262.14
369.68	294.91
369.87	290.23
370.07	322.99
370.27	334.70
370.47	330.02
370.66	315.97
370.86	322.99
371.06	379.17
371.25	348.74
371.45	351.08
371.65	297.25
371.84	421.30
372.04	407.25
372.24	388.53
372.44	290.23
372.63	355.76
372.83	353.42
373.03	435.34
373.22	444.70
373.42	348.74
373.62	423.64
373.81	428.32
374.01	489.17
374.21	484.49
374.40	360.44
374.60	423.64
374.79	369.80
374.99	456.40
375.19	433.00
375.38	390.87
375.58	489.17
375.78	416.62
375.97	449.38
376.17	489.17
376.37	442.36
376.56	425.98
376.76	400.23
376.95	407.25
377.15	421.30
377.35	418.96
377.54	355.76
377.74	470.45
377.93	440.02
378.13	379.17
378.33	402.57
378.52	416.62
378.72	447.04
378.91	449.38
379.11	442.36
379.31	397.89
379.50	365.12
379.70	491.51
379.89	381.51
380.09	348.74
380.28	379.17
380.48	411.93
380.68	409.59
380.87	376.83
381.07	454.06
381.26	362.78
381.46	369.80
381.65	479.81
381.85	376.83
382.04	365.12
382.24	365.12
382.43	344.06
382.63	351.08
382.83	433.00
383.02	407.25
383.22	475.13
383.41	425.98
383.61	402.57
383.80	407.25
384.00	477.47
384.19	355.76
384.39	440.02
384.58	393.21
384.78	374.49
384.97	444.70
385.17	397.89
385.36	379.17
385.56	458.74
385.75	346.40
385.95	400.23
386.14	390.87
386.34	395.55
386.53	367.46
386.72	407.25
386.92	423.64
387.11	402.57
387.31	475.13
387.50	339.38
387.70	440.02
387.89	430.66
388.09	465.77
388.28	388.53
388.48	411.93
388.67	482.15
388.86	390.87
389.06	400.23
389.25	428.32
389.45	418.96
389.64	386.19
389.84	477.47
390.03	423.64
390.22	421.30
390.42	409.59
390.61	320.65
390.81	390.87
391.00	411.93
391.19	465.77
391.39	409.59
391.58	421.30
391.78	411.93
391.97	395.55
392.16	393.21
392.36	451.72
392.55	437.68
392.75	379.17
392.94	421.30
393.13	533.64
393.33	362.78
393.52	318.31
393.71	475.13
393.91	381.51
394.10	353.42
394.29	374.49
394.49	418.96
394.68	440.02
394.88	306.61
395.07	346.40
395.26	444.70
395.46	386.19
395.65	433.00
395.84	472.79
396.04	498.53
396.23	423.64
396.42	346.40
396.62	395.55
396.81	411.93
397.00	451.72
397.19	423.64
397.39	407.25
397.58	425.98
397.77	374.49
397.97	381.51
398.16	498.53
398.35	440.02
398.55	454.06
398.74	440.02
398.93	374.49
399.12	433.00
399.32	479.81
399.51	440.02
399.70	418.96
399.90	407.25
400.09	449.38
400.28	482.15
400.47	421.30
400.67	447.04
400.86	475.13
401.05	418.96
401.24	418.96
401.44	416.62
401.63	468.11
401.82	470.45
402.01	393.21
402.21	402.57
402.40	376.83
402.59	369.80
402.78	400.23
402.97	411.93
403.17	365.12
403.36	442.36
403.55	411.93
403.74	318.31
403.93	386.19
404.13	440.02
404.32	358.10
404.51	449.38
404.70	449.38
404.89	381.51
405.09	407.25
405.28	440.02
405.47	355.76
405.66	379.17
405.85	449.38
406.05	428.32
406.24	402.57
406.43	397.89
406.62	372.15
406.81	433.00
407.00	383.85
407.20	428.32
407.39	421.30
407.58	454.06
407.77	437.68
407.96	463.43
408.15	365.12
408.34	447.04
408.54	482.15
408.73	388.53
408.92	388.53
409.11	437.68
409.30	397.89
409.49	390.87
409.68	395.55
409.87	447.04
410.07	402.57
410.26	355.76
410.45	468.11
410.64	383.85
410.83	367.46
411.02	397.89
411.21	390.87
411.40	383.85
411.59	365.12
411.78	397.89
411.98	451.72
412.17	423.64
412.36	400.23
412.55	404.91
412.74	360.44
412.93	470.45
413.12	388.53
413.31	468.11
413.50	372.15
413.69	442.36
413.88	372.15
414.07	440.02
414.26	425.98
414.45	393.21
414.64	461.09
414.83	407.25
415.02	418.96
415.22	418.96
415.41	418.96
415.60	337.04
415.79	437.68
415.98	418.96
416.17	449.38
416.36	367.46
416.55	423.64
416.74	440.02
416.93	416.62
417.12	407.25
417.31	456.40
417.50	369.80
417.69	458.74
417.88	447.04
418.07	447.04
418.26	430.66
418.45	381.51
418.64	456.40
418.83	376.83
419.02	449.38
419.21	383.85
419.39	491.51
419.58	409.59
419.77	418.96
419.96	444.70
420.15	447.04
420.34	444.70
420.53	407.25
420.72	379.17
420.91	407.25
421.10	402.57
421.29	423.64
421.48	402.57
421.67	449.38
421.86	369.80
422.05	395.55
422.24	433.00
422.43	390.87
422.61	369.80
422.80	414.27
422.99	365.12
423.18	416.62
423.37	477.47
423.56	456.40
423.75	475.13
423.94	421.30
424.13	395.55
424.32	416.62
424.50	400.23
424.69	475.13
424.88	428.32
425.07	402.57
425.26	400.23
425.45	362.78
425.64	372.15
425.83	379.17
426.01	468.11
426.20	461.09
426.39	351.08
426.58	423.64
426.77	414.27
426.96	421.30
427.15	325.33
427.33	421.30
427.52	437.68
427.71	440.02
427.90	372.15
428.09	421.30
428.28	330.02
428.46	376.83
428.65	451.72
428.84	374.49
429.03	468.11
429.22	383.85
429.40	362.78
429.59	435.34
429.78	451.72
429.97	421.30
430.16	404.91
430.34	395.55
430.53	433.00
430.72	423.64
430.91	442.36
431.10	348.74
431.28	362.78
431.47	348.74
431.66	379.17
431.85	355.76
432.03	388.53
432.22	400.23
432.41	386.19
432.60	355.76
432.79	425.98
432.97	390.87
433.16	416.62
433.35	442.36
433.54	334.70
433.72	425.98
433.91	433.00
434.10	369.80
434.28	376.83
434.47	386.19
434.66	451.72
434.85	388.53
435.03	451.72
435.22	397.89
435.41	479.81
435.59	449.38
435.78	416.62
435.97	454.06
436.16	369.80
436.34	395.55
436.53	461.09
436.72	402.57
436.90	369.80
437.09	390.87
437.28	451.72
437.46	451.72
437.65	381.51
437.84	374.49
438.02	383.85
438.21	390.87
438.40	461.09
438.58	362.78
438.77	430.66
438.96	425.98
439.14	393.21
439.33	416.62
439.52	379.17
439.70	454.06
439.89	470.45
440.08	388.53
440.26	465.77
440.45	430.66
440.63	409.59
440.82	449.38
441.01	376.83
441.19	416.62
441.38	433.00
441.57	390.87
441.75	362.78
441.94	423.64
442.12	388.53
442.31	449.38
442.50	421.30
442.68	390.87
442.87	428.32
443.05	360.44
443.24	334.70
443.43	421.30
443.61	381.51
443.80	386.19
443.98	418.96
444.17	379.17
444.35	433.00
444.54	400.23
444.73	470.45
444.91	425.98
445.10	388.53
445.28	444.70
445.47	376.83
445.65	458.74
445.84	421.30
446.02	435.34
446.21	339.38
446.39	447.04
446.58	411.93
446.77	369.80
446.95	430.66
447.14	461.09
447.32	390.87
447.51	369.80
447.69	409.59
447.88	395.55
448.06	402.57
448.25	374.49
448.43	407.25
448.62	402.57
448.80	482.15
448.99	400.23
449.17	325.33
449.36	447.04
449.54	407.25
449.73	383.85
449.91	404.91
450.10	397.89
450.28	435.34
450.46	451.72
450.65	458.74
450.83	463.43
451.02	395.55
451.20	428.32
451.39	369.80
451.57	388.53
451.76	411.93
451.94	388.53
452.13	451.72
452.31	465.77
452.49	421.30
452.68	395.55
452.86	386.19
453.05	423.64
453.23	395.55
453.42	468.11
453.60	430.66
453.78	428.32
453.97	346.40
454.15	440.02
454.34	411.93
454.52	449.38
454.70	491.51
454.89	465.77
455.07	447.04
455.26	421.30
455.44	437.68
455.62	376.83
455.81	456.40
455.99	433.00
456.17	456.40
456.36	404.91
456.54	360.44
456.73	416.62
456.91	437.68
457.09	414.27
457.28	313.63
457.46	435.34
457.64	463.43
457.83	433.00
458.01	442.36
458.19	440.02
458.38	379.17
458.56	416.62
458.74	383.85
458.93	351.08
459.11	433.00
459.29	390.87
459.48	365.12
459.66	360.44
459.84	416.62
460.03	461.09
460.21	430.66
460.39	400.23
460.57	416.62
460.76	386.19
460.94	449.38
461.12	451.72
461.31	479.81
461.49	407.25
461.67	367.46
461.85	369.80
462.04	454.06
462.22	514.92
462.40	442.36
462.59	400.23
462.77	468.11
462.95	428.32
463.13	351.08
463.32	369.80
463.50	458.74
463.68	390.87
463.86	346.40
464.05	395.55
464.23	418.96
464.41	442.36
464.59	376.83
464.78	465.77
464.96	369.80
465.14	411.93
465.32	442.36
465.50	397.89
465.69	437.68
465.87	327.68
466.05	421.30
466.23	444.70
466.41	444.70
466.60	437.68
466.78	475.13
466.96	440.02
467.14	444.70
467.32	414.27
467.51	402.57
467.69	444.70
467.87	491.51
468.05	411.93
468.23	437.68
468.41	472.79
468.60	435.34
468.78	463.43
468.96	444.70
469.14	418.96
469.32	400.23
469.50	442.36
469.69	440.02
469.87	449.38
470.05	402.57
470.23	428.32
470.41	409.59
470.59	355.76
470.77	435.34
470.95	414.27
471.14	440.02
471.32	362.78
471.50	454.06
471.68	339.38
471.86	379.17
472.04	418.96
472.22	416.62
472.40	351.08
472.58	355.76
472.77	400.23
472.95	402.57
473.13	489.17
473.31	407.25
473.49	374.49
473.67	433.00
473.85	411.93
474.03	430.66
474.21	421.30
474.39	484.49
474.57	451.72
474.75	435.34
474.93	435.34
475.12	393.21
475.30	346.40
475.48	362.78
475.66	437.68
475.84	425.98
476.02	367.46
476.20	442.36
476.38	475.13
476.56	505.56
476.74	461.09
476.92	414.27
477.10	430.66
477.28	430.66
477.46	449.38
477.64	400.23
477.82	435.34
478.00	449.38
478.18	470.45
478.36	416.62
478.54	395.55
478.72	367.46
478.90	381.51
479.08	428.32
479.26	418.96
479.44	407.25
479.62	358.10
479.80	433.00
479.98	425.98
480.16	397.89
480.34	449.38
480.52	365.12
480.70	433.00
480.88	400.23
481.06	308.95
481.24	470.45
481.41	414.27
481.59	409.59
481.77	451.72
481.95	430.66
482.13	390.87
482.31	369.80
482.49	365.12
482.67	379.17
482.85	395.55
483.03	390.87
483.21	440.02
483.39	393.21
483.57	425.98
483.74	306.61
483.92	456.40
484.10	402.57
484.28	425.98
484.46	447.04
484.64	362.78
484.82	449.38
485.00	425.98
485.18	496.19
485.35	353.42
485.53	358.10
485.71	449.38
485.89	351.08
486.07	451.72
486.25	411.93
486.43	444.70
486.61	409.59
486.78	444.70
486.96	437.68
487.14	411.93
487.32	416.62
487.50	404.91
487.68	425.98
487.85	388.53
488.03	418.96
488.21	404.91
488.39	454.06
488.57	390.87
488.75	341.72
488.92	463.43
489.10	416.62
489.28	491.51
489.46	381.51
489.64	472.79
489.81	428.32
489.99	435.34
490.17	440.02
490.35	425.98
490.53	334.70
490.70	454.06
490.88	402.57
491.06	351.08
491.24	388.53
491.41	358.10
491.59	486.83
491.77	461.09
491.95	425.98
492.13	414.27
492.30	327.68
492.48	421.30
492.66	409.59
492.84	418.96
493.01	418.96
493.19	344.06
493.37	463.43
493.54	407.25
493.72	381.51
493.90	428.32
494.08	376.83
494.25	433.00
494.43	397.89
494.61	484.49
494.79	386.19
494.96	374.49
495.14	425.98
495.32	482.15
495.49	414.27
495.67	339.38
495.85	430.66
496.02	390.87
496.20	416.62
496.38	440.02
496.55	402.57
496.73	360.44
496.91	444.70
497.09	440.02
497.26	395.55
497.44	411.93
497.62	559.39
497.79	430.66
497.97	475.13
498.14	395.55
498.32	395.55
498.50	458.74
498.67	369.80
498.85	444.70
499.03	365.12
499.20	411.93
499.38	383.85
499.56	351.08
499.73	409.59
499.91	430.66
500.08	423.64
500.26	449.38
500.44	414.27
500.61	395.55
500.79	468.11
500.97	404.91
501.14	528.96
501.32	404.91
501.49	461.09
501.67	470.45
501.84	433.00
502.02	369.80
502.20	500.87
502.37	386.19
502.55	365.12
502.72	397.89
502.90	402.57
503.07	393.21
503.25	444.70
503.43	447.04
503.60	411.93
503.78	407.25
503.95	407.25
504.13	482.15
504.30	397.89
504.48	454.06
504.65	447.04
504.83	440.02
505.01	346.40
505.18	418.96
505.36	397.89
505.53	435.34
505.71	454.06
505.88	416.62
506.06	402.57
506.23	423.64
506.41	421.30
506.58	482.15
506.76	449.38
506.93	437.68
507.11	468.11
507.28	423.64
507.46	397.89
507.63	435.34
507.81	404.91
507.98	477.47
508.16	407.25
508.33	456.40
508.50	454.06
508.68	362.78
508.85	409.59
509.03	456.40
509.20	440.02
509.38	442.36
509.55	440.02
509.73	433.00
509.90	437.68
510.08	395.55
510.25	468.11
510.42	409.59
510.60	379.17
510.77	388.53
510.95	435.34
511.12	416.62
511.30	372.15
511.47	372.15
511.64	465.77
511.82	458.74
511.99	444.70
512.17	423.64
512.34	428.32
512.51	374.49
512.69	400.23
512.86	472.79
513.04	402.57
513.21	409.59
513.38	400.23
513.56	421.30
513.73	454.06
513.90	425.98
514.08	423.64
514.25	468.11
514.43	428.32
514.60	416.62
514.77	374.49
514.95	393.21
515.12	423.64
515.29	416.62
515.47	369.80
515.64	355.76
515.81	456.40
515.99	472.79
516.16	346.40
516.33	491.51
516.51	390.87
516.68	365.12
516.85	360.44
517.03	428.32
517.20	454.06
517.37	465.77
517.54	451.72
517.72	437.68
517.89	428.32
518.06	437.68
518.24	376.83
518.41	472.79
518.58	388.53
518.75	402.57
518.93	433.00
519.10	437.68
519.27	339.38
519.45	423.64
519.62	390.87
519.79	346.40
519.96	468.11
520.14	395.55
520.31	395.55
520.48	442.36
520.65	423.64
520.83	451.72
521.00	409.59
521.17	444.70
521.34	358.10
521.52	400.23
521.69	435.34
521.86	421.30
522.03	414.27
522.20	433.00
522.38	388.53
522.55	367.46
522.72	411.93
522.89	402.57
523.07	447.04
523.24	383.85
523.41	444.70
523.58	458.74
523.75	468.11
523.92	360.44
524.10	416.62
524.27	353.42
524.44	397.89
524.61	409.59
524.78	353.42
524.96	397.89
525.13	440.02
525.30	425.98
525.47	456.40
525.64	376.83
525.81	458.74
525.98	510.24
526.16	369.80
526.33	407.25
526.50	435.34
526.67	381.51
526.84	362.78
527.01	369.80
527.18	425.98
527.36	416.62
527.53	388.53
527.70	433.00
527.87	393.21
528.04	503.22
528.21	418.96
528.38	477.47
528.55	346.40
528.72	416.62
528.89	416.62
529.07	360.44
529.24	388.53
529.41	395.55
529.58	409.59
529.75	386.19
529.92	423.64
530.09	381.51
530.26	454.06
530.43	496.19
530.60	369.80
530.77	390.87
530.94	479.81
531.11	423.64
531.28	435.34
531.46	395.55
531.63	416.62
531.80	421.30
531.97	393.21
532.14	479.81
532.31	444.70
532.48	437.68
532.65	447.04
532.82	477.47
532.99	376.83
533.16	454.06
533.33	430.66
533.50	402.57
533.67	430.66
533.84	383.85
534.01	507.90
534.18	528.96
534.35	390.87
534.52	470.45
534.69	409.59
534.86	482.15
535.03	500.87
535.20	362.78
535.37	360.44
535.54	437.68
535.71	407.25
535.88	519.60
536.05	365.12
536.22	339.38
536.38	411.93
536.55	395.55
536.72	409.59
536.89	376.83
537.06	437.68
537.23	440.02
537.40	395.55
537.57	344.06
537.74	482.15
537.91	402.57
538.08	442.36
538.25	440.02
538.42	477.47
538.59	463.43
538.75	416.62
538.92	376.83
539.09	512.58
539.26	369.80
539.43	458.74
539.60	428.32
539.77	437.68
539.94	430.66
540.11	339.38
540.28	348.74
540.44	447.04
540.61	369.80
540.78	341.72
540.95	353.42
541.12	444.70
541.29	428.32
541.46	437.68
541.62	500.87
541.79	346.40
541.96	369.80
542.13	407.25
542.30	409.59
542.47	425.98
542.63	400.23
542.80	468.11
542.97	383.85
543.14	414.27
543.31	425.98
543.48	388.53
543.64	409.59
543.81	461.09
543.98	414.27
544.15	393.21
544.32	489.17
544.48	456.40
544.65	430.66
544.82	437.68
544.99	442.36
545.16	404.91
545.32	416.62
545.49	423.64
545.66	367.46
545.83	379.17
546.00	437.68
546.16	407.25
546.33	505.56
546.50	451.72
546.67	449.38
546.83	437.68
547.00	463.43
547.17	449.38
547.34	428.32
547.50	425.98
547.67	400.23
547.84	374.49
548.00	484.49
548.17	360.44
548.34	402.57
548.51	489.17
548.67	418.96
548.84	379.17
549.01	402.57
549.18	418.96
549.34	411.93
549.51	365.12
549.68	372.15
549.84	440.02
550.01	393.21
550.18	456.40
550.34	484.49
550.51	425.98
550.68	470.45
550.84	440.02
551.01	428.32
551.18	458.74
551.34	440.02
551.51	440.02
551.68	390.87
551.84	444.70
552.01	379.17
552.18	489.17
552.34	477.47
552.51	444.70
552.68	449.38
552.84	433.00
553.01	409.59
553.18	404.91
553.34	435.34
553.51	437.68
553.67	376.83
553.84	449.38
554.01	409.59
554.17	510.24
554.34	367.46
554.51	416.62
554.67	482.15
554.84	395.55
555.00	409.59
555.17	437.68
555.33	416.62
555.50	397.89
555.67	383.85
555.83	440.02
556.00	330.02
556.16	510.24
556.33	440.02
556.50	374.49
556.66	386.19
556.83	407.25
556.99	486.83
557.16	425.98
557.32	435.34
557.49	447.04
557.65	421.30
557.82	400.23
557.98	423.64
558.15	414.27
558.32	428.32
558.48	433.00
558.65	470.45
558.81	470.45
558.98	428.32
559.14	416.62
559.31	390.87
559.47	430.66
559.64	409.59
559.80	416.62
559.97	381.51
560.13	308.95
560.30	372.15
560.46	475.13
560.63	418.96
560.79	470.45
560.96	425.98
561.12	435.34
561.29	433.00
561.45	477.47
561.61	454.06
561.78	468.11
561.94	491.51
562.11	386.19
562.27	407.25
562.44	447.04
562.60	510.24
562.77	442.36
562.93	472.79
563.10	435.34
563.26	388.53
563.42	402.57
563.59	498.53
563.75	468.11
563.92	435.34
564.08	386.19
564.24	395.55
564.41	484.49
564.57	334.70
564.74	407.25
564.90	411.93
565.07	447.04
565.23	437.68
565.39	407.25
565.56	416.62
565.72	348.74
565.88	521.94
566.05	428.32
566.21	407.25
566.38	416.62
566.54	449.38
566.70	440.02
566.87	372.15
567.03	376.83
567.19	395.55
567.36	358.10
567.52	484.49
567.68	411.93
567.85	433.00
568.01	433.00
568.17	437.68
568.34	311.29
568.50	479.81
568.66	407.25
568.83	559.39
568.99	393.21
569.15	458.74
569.32	369.80
569.48	468.11
569.64	507.90
569.81	477.47
569.97	451.72
570.13	437.68
570.30	395.55
570.46	433.00
570.62	388.53
570.78	397.89
570.95	351.08
571.11	433.00
571.27	447.04
571.43	362.78
571.60	409.59
571.76	367.46
571.92	346.40
572.09	411.93
572.25	374.49
572.41	404.91
572.57	416.62
572.74	423.64
572.90	400.23
573.06	388.53
573.22	421.30
573.38	456.40
573.55	456.40
573.71	414.27
573.87	416.62
574.03	383.85
574.20	435.34
574.36	425.98
574.52	421.30
574.68	507.90
574.84	411.93
575.01	407.25
575.17	421.30
575.33	404.91
575.49	437.68
575.65	414.27
575.82	433.00
575.98	421.30
576.14	395.55
576.30	472.79
576.46	447.04
576.62	463.43
576.79	414.27
576.95	435.34
577.11	433.00
577.27	358.10
577.43	400.23
577.59	411.93
577.75	390.87
577.92	444.70
578.08	409.59
578.24	404.91
578.40	440.02
578.56	402.57
578.72	442.36
578.88	362.78
579.04	414.27
579.21	379.17
579.37	447.04
579.53	461.09
579.69	390.87
579.85	533.64
580.01	425.98
580.17	395.55
580.33	372.15
580.49	461.09
580.65	430.66
580.82	365.12
580.98	472.79
581.14	362.78
581.30	433.00
581.46	444.70
581.62	418.96
581.78	416.62
581.94	393.21
582.10	311.29
582.26	456.40
582.42	362.78
582.58	421.30
582.74	348.74
582.90	411.93
583.06	369.80
583.22	386.19
583.38	407.25
583.54	416.62
583.70	444.70
583.86	404.91
584.02	409.59
584.18	461.09
584.34	454.06
584.50	386.19
584.66	383.85
584.82	372.15
584.98	395.55
585.14	430.66
585.30	484.49
585.46	444.70
585.62	388.53
585.78	390.87
585.94	402.57
586.10	430.66
586.26	498.53
586.42	533.64
586.58	454.06
586.74	435.34
586.90	416.62
587.06	428.32
587.22	451.72
587.38	367.46
587.54	369.80
587.70	456.40
587.86	479.81
588.02	334.70
588.18	393.21
588.34	479.81
588.49	379.17
588.65	435.34
588.81	418.96
588.97	393.21
589.13	430.66
589.29	451.72
589.45	463.43
589.61	351.08
589.77	425.98
589.93	344.06
590.08	407.25
590.24	367.46
590.40	362.78
590.56	430.66
590.72	491.51
590.88	379.17
591.04	465.77
591.20	409.59
591.35	463.43
591.51	428.32
591.67	411.93
591.83	404.91
591.99	418.96
592.15	437.68
592.31	437.68
592.46	388.53
592.62	430.66
592.78	386.19
592.94	409.59
593.10	397.89
593.26	437.68
593.41	409.59
593.57	411.93
593.73	437.68
593.89	414.27
594.05	414.27
594.20	418.96
594.36	489.17
594.52	463.43
594.68	451.72
594.84	447.04
594.99	425.98
595.15	440.02
595.31	411.93
595.47	465.77
595.62	404.91
595.78	383.85
595.94	414.27
596.10	463.43
596.25	360.44
596.41	416.62
596.57	397.89
596.73	404.91
596.88	468.11
597.04	390.87
597.20	479.81
597.36	440.02
597.51	430.66
597.67	386.19
597.83	341.72
597.99	355.76
598.14	416.62
598.30	416.62
598.46	388.53
598.61	423.64
598.77	365.12
598.93	381.51
599.09	418.96
599.24	505.56
599.40	411.93
599.56	435.34
599.71	379.17
599.87	454.06
600.03	416.62
600.18	456.40
600.34	442.36
600.50	376.83
600.65	358.10
600.81	400.23
600.97	404.91
601.12	395.55
601.28	493.85
601.44	388.53
601.59	360.44
601.75	430.66
601.91	458.74
602.06	428.32
602.22	437.68
602.37	416.62
602.53	444.70
602.69	484.49
602.84	402.57
603.00	386.19
603.16	458.74
603.31	447.04
603.47	414.27
603.62	325.33
603.78	404.91
603.94	451.72
604.09	381.51
604.25	489.17
604.40	447.04
604.56	365.12
604.71	433.00
604.87	376.83
605.03	372.15
605.18	409.59
605.34	458.74
605.49	444.70
605.65	409.59
605.80	376.83
605.96	404.91
606.12	454.06
606.27	423.64
606.43	402.57
606.58	444.70
606.74	355.76
606.89	393.21
607.05	489.17
607.20	433.00
607.36	482.15
607.51	435.34
607.67	435.34
607.82	404.91
607.98	407.25
608.13	390.87
608.29	451.72
608.44	524.28
608.60	409.59
608.75	421.30
608.91	409.59
609.06	416.62
609.22	414.27
609.37	451.72
609.53	397.89
609.68	348.74
609.84	409.59
609.99	444.70
610.15	411.93
