SpectraSuite Data File
++++++++++++++++++++++++++++++++++++
Date: Fri Oct 25 12:11:31 EDT 2013
User: price-jones
Dark Spectrum Present: No
Reference Spectrum Present: No
Number of Sampled Component Spectra: 1
Spectrometers: USB2+H05261
Integration Time (usec): 100000 (USB2+H05261)
Spectra Averaged: 1 (USB2+H05261)
Boxcar Smoothing: 0 (USB2+H05261)
Correct for Electrical Dark: No (USB2+H05261)
Strobe/Lamp Enabled: No (USB2+H05261)
Correct for Detector Non-linearity: No (USB2+H05261)
Correct for Stray Light: No (USB2+H05261)
Number of Pixels in Processed Spectrum: 2048
>>>>>Begin Processed Spectral Data<<<<<
365.73	351.08
365.92	351.08
366.12	351.08
366.32	229.37
366.52	262.14
366.72	252.78
366.91	198.95
367.11	236.39
367.31	210.65
367.51	252.78
367.70	217.67
367.90	229.37
368.10	294.91
368.30	257.46
368.49	245.76
368.69	191.92
368.89	257.46
369.09	229.37
369.28	334.70
369.48	294.91
369.68	241.08
369.87	231.71
370.07	313.63
370.27	325.33
370.47	313.63
370.66	358.10
370.86	313.63
371.06	355.76
371.25	325.33
371.45	365.12
371.65	421.30
371.84	348.74
372.04	440.02
372.24	489.17
372.44	390.87
372.63	365.12
372.83	421.30
373.03	440.02
373.22	437.68
373.42	435.34
373.62	423.64
373.81	418.96
374.01	442.36
374.21	430.66
374.40	456.40
374.60	498.53
374.79	395.55
374.99	477.47
375.19	512.58
375.38	472.79
375.58	428.32
375.78	409.59
375.97	381.51
376.17	423.64
376.37	395.55
376.56	456.40
376.76	320.65
376.95	423.64
377.15	440.02
377.35	463.43
377.54	409.59
377.74	395.55
377.93	418.96
378.13	407.25
378.33	400.23
378.52	444.70
378.72	400.23
378.91	386.19
379.11	421.30
379.31	411.93
379.50	372.15
379.70	400.23
379.89	416.62
380.09	390.87
380.28	355.76
380.48	355.76
380.68	470.45
380.87	322.99
381.07	400.23
381.26	414.27
381.46	409.59
381.65	435.34
381.85	425.98
382.04	407.25
382.24	475.13
382.43	404.91
382.63	465.77
382.83	376.83
383.02	454.06
383.22	402.57
383.41	416.62
383.61	383.85
383.80	376.83
384.00	397.89
384.19	353.42
384.39	416.62
384.58	461.09
384.78	330.02
384.97	430.66
385.17	456.40
385.36	444.70
385.56	402.57
385.75	423.64
385.95	397.89
386.14	470.45
386.34	395.55
386.53	442.36
386.72	404.91
386.92	454.06
387.11	393.21
387.31	444.70
387.50	418.96
387.70	381.51
387.89	407.25
388.09	435.34
388.28	430.66
388.48	341.72
388.67	376.83
388.86	428.32
389.06	425.98
389.25	428.32
389.45	404.91
389.64	463.43
389.84	442.36
390.03	383.85
390.22	395.55
390.42	428.32
390.61	461.09
390.81	456.40
391.00	421.30
391.19	411.93
391.39	451.72
391.58	411.93
391.78	454.06
391.97	444.70
392.16	437.68
392.36	489.17
392.55	440.02
392.75	451.72
392.94	386.19
393.13	416.62
393.33	418.96
393.52	407.25
393.71	428.32
393.91	404.91
394.10	411.93
394.29	369.80
394.49	390.87
394.68	423.64
394.88	430.66
395.07	388.53
395.26	428.32
395.46	442.36
395.65	407.25
395.84	365.12
396.04	440.02
396.23	433.00
396.42	433.00
396.62	444.70
396.81	397.89
397.00	383.85
397.19	402.57
397.39	355.76
397.58	489.17
397.77	454.06
397.97	444.70
398.16	411.93
398.35	449.38
398.55	397.89
398.74	428.32
398.93	425.98
399.12	440.02
399.32	433.00
399.51	437.68
399.70	454.06
399.90	465.77
400.09	437.68
400.28	330.02
400.47	276.18
400.67	409.59
400.86	376.83
401.05	433.00
401.24	437.68
401.44	421.30
401.63	433.00
401.82	418.96
402.01	344.06
402.21	390.87
402.40	334.70
402.59	409.59
402.78	355.76
402.97	444.70
403.17	461.09
403.36	369.80
403.55	402.57
403.74	404.91
403.93	351.08
404.13	393.21
404.32	397.89
404.51	400.23
404.70	451.72
404.89	409.59
405.09	418.96
405.28	388.53
405.47	383.85
405.66	454.06
405.85	435.34
406.05	442.36
406.24	407.25
406.43	468.11
406.62	421.30
406.81	482.15
407.00	402.57
407.20	397.89
407.39	433.00
407.58	388.53
407.77	397.89
407.96	425.98
408.15	388.53
408.34	498.53
408.54	454.06
408.73	404.91
408.92	318.31
409.11	430.66
409.30	440.02
409.49	409.59
409.68	447.04
409.87	358.10
410.07	369.80
410.26	418.96
410.45	402.57
410.64	416.62
410.83	388.53
411.02	428.32
411.21	428.32
411.40	337.04
411.59	376.83
411.78	421.30
411.98	386.19
412.17	433.00
412.36	423.64
412.55	351.08
412.74	400.23
412.93	428.32
413.12	390.87
413.31	433.00
413.50	376.83
413.69	374.49
413.88	428.32
414.07	383.85
414.26	362.78
414.45	346.40
414.64	407.25
414.83	435.34
415.02	479.81
415.22	416.62
415.41	477.47
415.60	414.27
415.79	362.78
415.98	468.11
416.17	353.42
416.36	390.87
416.55	374.49
416.74	454.06
416.93	470.45
417.12	470.45
417.31	381.51
417.50	451.72
417.69	423.64
417.88	416.62
418.07	346.40
418.26	397.89
418.45	433.00
418.64	353.42
418.83	390.87
419.02	341.72
419.21	416.62
419.39	447.04
419.58	390.87
419.77	369.80
419.96	425.98
420.15	479.81
420.34	409.59
420.53	435.34
420.72	486.83
420.91	393.21
421.10	355.76
421.29	414.27
421.48	411.93
421.67	435.34
421.86	383.85
422.05	416.62
422.24	421.30
422.43	461.09
422.61	372.15
422.80	404.91
422.99	433.00
423.18	402.57
423.37	411.93
423.56	463.43
423.75	395.55
423.94	374.49
424.13	456.40
424.32	351.08
424.50	430.66
424.69	381.51
424.88	402.57
425.07	395.55
425.26	416.62
425.45	395.55
425.64	386.19
425.83	365.12
426.01	482.15
426.20	358.10
426.39	344.06
426.58	400.23
426.77	390.87
426.96	414.27
427.15	388.53
427.33	402.57
427.52	355.76
427.71	430.66
427.90	435.34
428.09	393.21
428.28	355.76
428.46	386.19
428.65	386.19
428.84	451.72
429.03	381.51
429.22	428.32
429.40	362.78
429.59	337.04
429.78	465.77
429.97	477.47
430.16	463.43
430.34	411.93
430.53	458.74
430.72	430.66
430.91	395.55
431.10	362.78
431.28	404.91
431.47	332.36
431.66	351.08
431.85	428.32
432.03	435.34
432.22	456.40
432.41	411.93
432.60	423.64
432.79	393.21
432.97	442.36
433.16	360.44
433.35	477.47
433.54	308.95
433.72	461.09
433.91	416.62
434.10	407.25
434.28	437.68
434.47	407.25
434.66	416.62
434.85	362.78
435.03	425.98
435.22	381.51
435.41	414.27
435.59	400.23
435.78	390.87
435.97	344.06
436.16	437.68
436.34	404.91
436.53	409.59
436.72	409.59
436.90	351.08
437.09	386.19
437.28	425.98
437.46	341.72
437.65	442.36
437.84	447.04
438.02	411.93
438.21	482.15
438.40	440.02
438.58	379.17
438.77	367.46
438.96	404.91
439.14	365.12
439.33	414.27
439.52	475.13
439.70	376.83
439.89	409.59
440.08	435.34
440.26	351.08
440.45	496.19
440.63	475.13
440.82	390.87
441.01	367.46
441.19	400.23
441.38	376.83
441.57	397.89
441.75	388.53
441.94	355.76
442.12	393.21
442.31	397.89
442.50	435.34
442.68	428.32
442.87	489.17
443.05	367.46
443.24	430.66
443.43	451.72
443.61	351.08
443.80	372.15
443.98	386.19
444.17	360.44
444.35	372.15
444.54	404.91
444.73	465.77
444.91	421.30
445.10	411.93
445.28	493.85
445.47	428.32
445.65	383.85
445.84	454.06
446.02	435.34
446.21	381.51
446.39	421.30
446.58	367.46
446.77	458.74
446.95	379.17
447.14	503.22
447.32	418.96
447.51	463.43
447.69	379.17
447.88	411.93
448.06	503.22
448.25	435.34
448.43	454.06
448.62	456.40
448.80	479.81
448.99	430.66
449.17	358.10
449.36	388.53
449.54	407.25
449.73	381.51
449.91	414.27
450.10	407.25
450.28	393.21
450.46	547.69
450.65	416.62
450.83	411.93
451.02	470.45
451.20	416.62
451.39	393.21
451.57	433.00
451.76	475.13
451.94	458.74
452.13	437.68
452.31	454.06
452.49	447.04
452.68	423.64
452.86	463.43
453.05	477.47
453.23	451.72
453.42	461.09
453.60	477.47
453.78	411.93
453.97	447.04
454.15	433.00
454.34	411.93
454.52	418.96
454.70	463.43
454.89	407.25
455.07	353.42
455.26	372.15
455.44	379.17
455.62	458.74
455.81	421.30
455.99	461.09
456.17	456.40
456.36	386.19
456.54	454.06
456.73	409.59
456.91	376.83
457.09	407.25
457.28	500.87
457.46	381.51
457.64	433.00
457.83	414.27
458.01	463.43
458.19	332.36
458.38	388.53
458.56	451.72
458.74	344.06
458.93	367.46
459.11	477.47
459.29	447.04
459.48	440.02
459.66	449.38
459.84	451.72
460.03	503.22
460.21	404.91
460.39	477.47
460.57	468.11
460.76	435.34
460.94	503.22
461.12	449.38
461.31	430.66
461.49	414.27
461.67	381.51
461.85	362.78
462.04	418.96
462.22	774.72
462.40	435.34
462.59	418.96
462.77	433.00
462.95	498.53
463.13	449.38
463.32	486.83
463.50	416.62
463.68	468.11
463.86	437.68
464.05	414.27
464.23	395.55
464.41	458.74
464.59	400.23
464.78	358.10
464.96	472.79
465.14	376.83
465.32	407.25
465.50	414.27
465.69	365.12
465.87	346.40
466.05	433.00
466.23	440.02
466.41	484.49
466.60	404.91
466.78	400.23
466.96	353.42
467.14	367.46
467.32	416.62
467.51	411.93
467.69	440.02
467.87	484.49
468.05	409.59
468.23	418.96
468.41	440.02
468.60	376.83
468.78	400.23
468.96	372.15
469.14	463.43
469.32	362.78
469.50	393.21
469.69	407.25
469.87	402.57
470.05	423.64
470.23	369.80
470.41	411.93
470.59	444.70
470.77	468.11
470.95	411.93
471.14	449.38
471.32	386.19
471.50	386.19
471.68	383.85
471.86	397.89
472.04	355.76
472.22	470.45
472.40	397.89
472.58	430.66
472.77	470.45
472.95	339.38
473.13	479.81
473.31	433.00
473.49	472.79
473.67	369.80
473.85	472.79
474.03	454.06
474.21	435.34
474.39	440.02
474.57	519.60
474.75	470.45
474.93	425.98
475.12	346.40
475.30	435.34
475.48	402.57
475.66	428.32
475.84	376.83
476.02	341.72
476.20	421.30
476.38	411.93
476.56	421.30
476.74	390.87
476.92	461.09
477.10	393.21
477.28	440.02
477.46	381.51
477.64	447.04
477.82	395.55
478.00	444.70
478.18	461.09
478.36	486.83
478.54	430.66
478.72	433.00
478.90	435.34
479.08	365.12
479.26	372.15
479.44	475.13
479.62	341.72
479.80	430.66
479.98	425.98
480.16	367.46
480.34	355.76
480.52	397.89
480.70	440.02
480.88	416.62
481.06	397.89
481.24	358.10
481.41	470.45
481.59	433.00
481.77	442.36
481.95	430.66
482.13	465.77
482.31	351.08
482.49	414.27
482.67	407.25
482.85	433.00
483.03	503.22
483.21	355.76
483.39	409.59
483.57	433.00
483.74	425.98
483.92	379.17
484.10	430.66
484.28	390.87
484.46	376.83
484.64	381.51
484.82	433.00
485.00	414.27
485.18	435.34
485.35	393.21
485.53	383.85
485.71	454.06
485.89	437.68
486.07	388.53
486.25	409.59
486.43	411.93
486.61	449.38
486.78	491.51
486.96	348.74
487.14	395.55
487.32	390.87
487.50	383.85
487.68	430.66
487.85	395.55
488.03	407.25
488.21	440.02
488.39	383.85
488.57	475.13
488.75	409.59
488.92	486.83
489.10	407.25
489.28	440.02
489.46	397.89
489.64	465.77
489.81	435.34
489.99	327.68
490.17	390.87
490.35	458.74
490.53	395.55
490.70	383.85
490.88	418.96
491.06	379.17
491.24	440.02
491.41	454.06
491.59	482.15
491.77	440.02
491.95	402.57
492.13	430.66
492.30	404.91
492.48	376.83
492.66	395.55
492.84	367.46
493.01	379.17
493.19	437.68
493.37	451.72
493.54	411.93
493.72	402.57
493.90	372.15
494.08	388.53
494.25	383.85
494.43	435.34
494.61	489.17
494.79	365.12
494.96	402.57
495.14	470.45
495.32	442.36
495.49	327.68
495.67	409.59
495.85	393.21
496.02	435.34
496.20	449.38
496.38	355.76
496.55	414.27
496.73	390.87
496.91	402.57
497.09	517.26
497.26	416.62
497.44	376.83
497.62	325.33
497.79	395.55
497.97	491.51
498.14	358.10
498.32	393.21
498.50	442.36
498.67	400.23
498.85	435.34
499.03	461.09
499.20	397.89
499.38	372.15
499.56	437.68
499.73	447.04
499.91	468.11
500.08	390.87
500.26	451.72
500.44	428.32
500.61	440.02
500.79	463.43
500.97	451.72
501.14	454.06
501.32	423.64
501.49	381.51
501.67	456.40
501.84	358.10
502.02	407.25
502.20	379.17
502.37	430.66
502.55	379.17
502.72	435.34
502.90	414.27
503.07	433.00
503.25	372.15
503.43	346.40
503.60	376.83
503.78	425.98
503.95	430.66
504.13	435.34
504.30	442.36
504.48	496.19
504.65	486.83
504.83	484.49
505.01	414.27
505.18	479.81
505.36	421.30
505.53	418.96
505.71	411.93
505.88	433.00
506.06	425.98
506.23	465.77
506.41	379.17
506.58	423.64
506.76	404.91
506.93	465.77
507.11	475.13
507.28	428.32
507.46	325.33
507.63	402.57
507.81	484.49
507.98	430.66
508.16	465.77
508.33	397.89
508.50	433.00
508.68	383.85
508.85	402.57
509.03	416.62
509.20	442.36
509.38	430.66
509.55	369.80
509.73	437.68
509.90	491.51
510.08	402.57
510.25	341.72
510.42	334.70
510.60	381.51
510.77	468.11
510.95	472.79
511.12	451.72
511.30	468.11
511.47	383.85
511.64	463.43
511.82	440.02
511.99	451.72
512.17	433.00
512.34	444.70
512.51	395.55
512.69	433.00
512.86	386.19
513.04	381.51
513.21	430.66
513.38	423.64
513.56	421.30
513.73	409.59
513.90	421.30
514.08	402.57
514.25	477.47
514.43	472.79
514.60	351.08
514.77	411.93
514.95	489.17
515.12	416.62
515.29	444.70
515.47	437.68
515.64	440.02
515.81	397.89
515.99	416.62
516.16	437.68
516.33	409.59
516.51	451.72
516.68	425.98
516.85	416.62
517.03	468.11
517.20	461.09
517.37	381.51
517.54	440.02
517.72	409.59
517.89	407.25
518.06	425.98
518.24	498.53
518.41	500.87
518.58	411.93
518.75	367.46
518.93	449.38
519.10	449.38
519.27	379.17
519.45	353.42
519.62	400.23
519.79	440.02
519.96	395.55
520.14	442.36
520.31	421.30
520.48	456.40
520.65	362.78
520.83	418.96
521.00	390.87
521.17	447.04
521.34	290.23
521.52	447.04
521.69	433.00
521.86	409.59
522.03	367.46
522.20	482.15
522.38	425.98
522.55	425.98
522.72	360.44
522.89	472.79
523.07	390.87
523.24	416.62
523.41	360.44
523.58	348.74
523.75	299.59
523.92	456.40
524.10	489.17
524.27	379.17
524.44	360.44
524.61	421.30
524.78	430.66
524.96	433.00
525.13	425.98
525.30	505.56
525.47	421.30
525.64	447.04
525.81	334.70
525.98	470.45
526.16	458.74
526.33	440.02
526.50	369.80
526.67	407.25
526.84	374.49
527.01	367.46
527.18	465.77
527.36	440.02
527.53	397.89
527.70	503.22
527.87	491.51
528.04	465.77
528.21	397.89
528.38	409.59
528.55	442.36
528.72	435.34
528.89	486.83
529.07	507.90
529.24	423.64
529.41	402.57
529.58	376.83
529.75	367.46
529.92	433.00
530.09	367.46
530.26	484.49
530.43	397.89
530.60	390.87
530.77	425.98
530.94	400.23
531.11	437.68
531.28	454.06
531.46	411.93
531.63	416.62
531.80	454.06
531.97	442.36
532.14	381.51
532.31	383.85
532.48	491.51
532.65	435.34
532.82	449.38
532.99	454.06
533.16	386.19
533.33	451.72
533.50	421.30
533.67	369.80
533.84	486.83
534.01	444.70
534.18	447.04
534.35	442.36
534.52	437.68
534.69	463.43
534.86	428.32
535.03	355.76
535.20	372.15
535.37	433.00
535.54	425.98
535.71	411.93
535.88	458.74
536.05	341.72
536.22	484.49
536.38	400.23
536.55	381.51
536.72	414.27
536.89	423.64
537.06	379.17
537.23	402.57
537.40	486.83
537.57	444.70
537.74	447.04
537.91	388.53
538.08	402.57
538.25	388.53
538.42	463.43
538.59	440.02
538.75	379.17
538.92	428.32
539.09	409.59
539.26	365.12
539.43	428.32
539.60	400.23
539.77	404.91
539.94	456.40
540.11	348.74
540.28	461.09
540.44	423.64
540.61	512.58
540.78	358.10
540.95	430.66
541.12	465.77
541.29	423.64
541.46	507.90
541.62	379.17
541.79	407.25
541.96	423.64
542.13	360.44
542.30	400.23
542.47	435.34
542.63	430.66
542.80	379.17
542.97	461.09
543.14	430.66
543.31	482.15
543.48	407.25
543.64	388.53
543.81	409.59
543.98	461.09
544.15	468.11
544.32	416.62
544.48	447.04
544.65	428.32
544.82	404.91
544.99	444.70
545.16	437.68
545.32	393.21
545.49	491.51
545.66	381.51
545.83	414.27
546.00	376.83
546.16	360.44
546.33	447.04
546.50	437.68
546.67	369.80
546.83	442.36
547.00	433.00
547.17	416.62
547.34	416.62
547.50	409.59
547.67	355.76
547.84	386.19
548.00	358.10
548.17	353.42
548.34	489.17
548.51	503.22
548.67	421.30
548.84	423.64
549.01	409.59
549.18	416.62
549.34	411.93
549.51	428.32
549.68	416.62
549.84	388.53
550.01	428.32
550.18	538.32
550.34	430.66
550.51	411.93
550.68	430.66
550.84	423.64
551.01	395.55
551.18	383.85
551.34	372.15
551.51	416.62
551.68	472.79
551.84	437.68
552.01	376.83
552.18	433.00
552.34	397.89
552.51	458.74
552.68	465.77
552.84	461.09
553.01	414.27
553.18	437.68
553.34	400.23
553.51	418.96
553.67	437.68
553.84	425.98
554.01	500.87
554.17	477.47
554.34	414.27
554.51	425.98
554.67	447.04
554.84	383.85
555.00	393.21
555.17	444.70
555.33	400.23
555.50	472.79
555.67	355.76
555.83	367.46
556.00	505.56
556.16	580.45
556.33	423.64
556.50	390.87
556.66	362.78
556.83	362.78
556.99	369.80
557.16	449.38
557.32	437.68
557.49	414.27
557.65	475.13
557.82	447.04
557.98	388.53
558.15	374.49
558.32	456.40
558.48	374.49
558.65	367.46
558.81	475.13
558.98	430.66
559.14	477.47
559.31	430.66
559.47	430.66
559.64	360.44
559.80	437.68
559.97	456.40
560.13	484.49
560.30	395.55
560.46	442.36
560.63	397.89
560.79	383.85
560.96	362.78
561.12	437.68
561.29	458.74
561.45	411.93
561.61	428.32
561.78	524.28
561.94	395.55
562.11	454.06
562.27	416.62
562.44	414.27
562.60	437.68
562.77	430.66
562.93	475.13
563.10	353.42
563.26	404.91
563.42	437.68
563.59	425.98
563.75	442.36
563.92	484.49
564.08	447.04
564.24	393.21
564.41	456.40
564.57	383.85
564.74	444.70
564.90	437.68
565.07	484.49
565.23	447.04
565.39	433.00
565.56	456.40
565.72	416.62
565.88	362.78
566.05	400.23
566.21	435.34
566.38	414.27
566.54	414.27
566.70	442.36
566.87	393.21
567.03	454.06
567.19	482.15
567.36	449.38
567.52	433.00
567.68	418.96
567.85	440.02
568.01	421.30
568.17	477.47
568.34	418.96
568.50	367.46
568.66	435.34
568.83	475.13
568.99	416.62
569.15	517.26
569.32	468.11
569.48	470.45
569.64	362.78
569.81	421.30
569.97	451.72
570.13	395.55
570.30	433.00
570.46	383.85
570.62	463.43
570.78	395.55
570.95	425.98
571.11	465.77
571.27	468.11
571.43	407.25
571.60	468.11
571.76	411.93
571.92	409.59
572.09	430.66
572.25	454.06
572.41	402.57
572.57	456.40
572.74	433.00
572.90	465.77
573.06	369.80
573.22	468.11
573.38	388.53
573.55	489.17
573.71	423.64
573.87	440.02
574.03	414.27
574.20	341.72
574.36	388.53
574.52	407.25
574.68	411.93
574.84	421.30
575.01	383.85
575.17	496.19
575.33	449.38
575.49	402.57
575.65	411.93
575.82	395.55
575.98	454.06
576.14	358.10
576.30	365.12
576.46	421.30
576.62	358.10
576.79	369.80
576.95	456.40
577.11	395.55
577.27	484.49
577.43	447.04
577.59	440.02
577.75	421.30
577.92	393.21
578.08	397.89
578.24	362.78
578.40	440.02
578.56	454.06
578.72	493.85
578.88	447.04
579.04	397.89
579.21	433.00
579.37	411.93
579.53	386.19
579.69	458.74
579.85	454.06
580.01	409.59
580.17	339.38
580.33	402.57
580.49	458.74
580.65	376.83
580.82	449.38
580.98	381.51
581.14	414.27
581.30	393.21
581.46	447.04
581.62	444.70
581.78	346.40
581.94	545.34
582.10	381.51
582.26	369.80
582.42	376.83
582.58	430.66
582.74	395.55
582.90	458.74
583.06	418.96
583.22	390.87
583.38	383.85
583.54	395.55
583.70	381.51
583.86	454.06
584.02	365.12
584.18	449.38
584.34	437.68
584.50	409.59
584.66	418.96
584.82	402.57
584.98	404.91
585.14	423.64
585.30	381.51
585.46	348.74
585.62	409.59
585.78	407.25
585.94	414.27
586.10	386.19
586.26	491.51
586.42	456.40
586.58	409.59
586.74	393.21
586.90	395.55
587.06	468.11
587.22	423.64
587.38	397.89
587.54	351.08
587.70	381.51
587.86	463.43
588.02	444.70
588.18	447.04
588.34	322.99
588.49	315.97
588.65	440.02
588.81	381.51
588.97	313.63
589.13	444.70
589.29	425.98
589.45	440.02
589.61	477.47
589.77	411.93
589.93	433.00
590.08	383.85
590.24	421.30
590.40	468.11
590.56	404.91
590.72	470.45
590.88	416.62
591.04	418.96
591.20	400.23
591.35	418.96
591.51	358.10
591.67	386.19
591.83	433.00
591.99	330.02
592.15	440.02
592.31	484.49
592.46	365.12
592.62	395.55
592.78	437.68
592.94	456.40
593.10	425.98
593.26	348.74
593.41	465.77
593.57	346.40
593.73	315.97
593.89	390.87
594.05	423.64
594.20	332.36
594.36	442.36
594.52	386.19
594.68	475.13
594.84	353.42
594.99	388.53
595.15	404.91
595.31	447.04
595.47	411.93
595.62	346.40
595.78	414.27
595.94	390.87
596.10	451.72
596.25	400.23
596.41	447.04
596.57	355.76
596.73	362.78
596.88	440.02
597.04	393.21
597.20	379.17
597.36	397.89
597.51	393.21
597.67	372.15
597.83	414.27
597.99	465.77
598.14	430.66
598.30	437.68
598.46	369.80
598.61	416.62
598.77	388.53
598.93	435.34
599.09	444.70
599.24	400.23
599.40	449.38
599.56	388.53
599.71	430.66
599.87	362.78
600.03	423.64
600.18	470.45
600.34	456.40
600.50	458.74
600.65	440.02
600.81	465.77
600.97	449.38
601.12	442.36
601.28	461.09
601.44	479.81
601.59	440.02
601.75	489.17
601.91	514.92
602.06	369.80
602.22	489.17
602.37	400.23
602.53	423.64
602.69	386.19
602.84	423.64
603.00	407.25
603.16	442.36
603.31	430.66
603.47	411.93
603.62	395.55
603.78	367.46
603.94	468.11
604.09	435.34
604.25	376.83
604.40	379.17
604.56	390.87
604.71	442.36
604.87	433.00
605.03	395.55
605.18	416.62
605.34	414.27
605.49	465.77
605.65	425.98
605.80	416.62
605.96	411.93
606.12	444.70
606.27	421.30
606.43	402.57
606.58	435.34
606.74	414.27
606.89	383.85
607.05	421.30
607.20	411.93
607.36	444.70
607.51	440.02
607.67	383.85
607.82	386.19
607.98	414.27
608.13	379.17
608.29	376.83
608.44	521.94
608.60	421.30
608.75	482.15
608.91	470.45
609.06	435.34
609.22	337.04
609.37	404.91
609.53	407.25
609.68	351.08
609.84	435.34
609.99	437.68
610.15	482.15
