SpectraSuite Data File
++++++++++++++++++++++++++++++++++++
Date: Fri Oct 25 12:10:30 EDT 2013
User: price-jones
Dark Spectrum Present: No
Reference Spectrum Present: No
Number of Sampled Component Spectra: 1
Spectrometers: USB2+H05261
Integration Time (usec): 100000 (USB2+H05261)
Spectra Averaged: 1 (USB2+H05261)
Boxcar Smoothing: 0 (USB2+H05261)
Correct for Electrical Dark: No (USB2+H05261)
Strobe/Lamp Enabled: No (USB2+H05261)
Correct for Detector Non-linearity: No (USB2+H05261)
Correct for Stray Light: No (USB2+H05261)
Number of Pixels in Processed Spectrum: 2048
>>>>>Begin Processed Spectral Data<<<<<
365.73	348.74
365.92	348.74
366.12	348.74
366.32	311.29
366.52	273.84
366.72	269.16
366.91	191.92
367.11	184.90
367.31	252.78
367.51	238.73
367.70	301.93
367.90	245.76
368.10	217.67
368.30	224.69
368.49	269.16
368.69	301.93
368.89	208.31
369.09	210.65
369.28	318.31
369.48	269.16
369.68	280.86
369.87	304.27
370.07	280.86
370.27	327.68
370.47	290.23
370.66	257.46
370.86	348.74
371.06	351.08
371.25	341.72
371.45	337.04
371.65	360.44
371.84	367.46
372.04	376.83
372.24	367.46
372.44	383.85
372.63	358.10
372.83	388.53
373.03	411.93
373.22	402.57
373.42	386.19
373.62	456.40
373.81	411.93
374.01	414.27
374.21	404.91
374.40	449.38
374.60	409.59
374.79	451.72
374.99	369.80
375.19	369.80
375.38	472.79
375.58	472.79
375.78	433.00
375.97	402.57
376.17	454.06
376.37	451.72
376.56	407.25
376.76	320.65
376.95	390.87
377.15	390.87
377.35	418.96
377.54	411.93
377.74	376.83
377.93	369.80
378.13	372.15
378.33	390.87
378.52	404.91
378.72	367.46
378.91	416.62
379.11	383.85
379.31	346.40
379.50	484.49
379.70	397.89
379.89	402.57
380.09	337.04
380.28	353.42
380.48	379.17
380.68	386.19
380.87	360.44
381.07	421.30
381.26	376.83
381.46	332.36
381.65	404.91
381.85	435.34
382.04	390.87
382.24	416.62
382.43	404.91
382.63	409.59
382.83	395.55
383.02	421.30
383.22	407.25
383.41	358.10
383.61	416.62
383.80	447.04
384.00	416.62
384.19	404.91
384.39	458.74
384.58	369.80
384.78	381.51
384.97	435.34
385.17	454.06
385.36	379.17
385.56	355.76
385.75	447.04
385.95	461.09
386.14	355.76
386.34	374.49
386.53	374.49
386.72	358.10
386.92	458.74
387.11	435.34
387.31	400.23
387.50	367.46
387.70	339.38
387.89	425.98
388.09	447.04
388.28	353.42
388.48	421.30
388.67	402.57
388.86	421.30
389.06	477.47
389.25	402.57
389.45	353.42
389.64	372.15
389.84	451.72
390.03	397.89
390.22	423.64
390.42	463.43
390.61	358.10
390.81	337.04
391.00	430.66
391.19	440.02
391.39	360.44
391.58	358.10
391.78	376.83
391.97	458.74
392.16	440.02
392.36	444.70
392.55	461.09
392.75	440.02
392.94	381.51
393.13	451.72
393.33	362.78
393.52	479.81
393.71	409.59
393.91	367.46
394.10	376.83
394.29	372.15
394.49	409.59
394.68	301.93
394.88	388.53
395.07	388.53
395.26	353.42
395.46	435.34
395.65	365.12
395.84	447.04
396.04	458.74
396.23	362.78
396.42	353.42
396.62	449.38
396.81	418.96
397.00	365.12
397.19	376.83
397.39	411.93
397.58	496.19
397.77	433.00
397.97	484.49
398.16	421.30
398.35	341.72
398.55	451.72
398.74	411.93
398.93	400.23
399.12	379.17
399.32	425.98
399.51	332.36
399.70	463.43
399.90	341.72
400.09	437.68
400.28	404.91
400.47	418.96
400.67	433.00
400.86	409.59
401.05	454.06
401.24	379.17
401.44	397.89
401.63	468.11
401.82	444.70
402.01	458.74
402.21	367.46
402.40	437.68
402.59	400.23
402.78	374.49
402.97	395.55
403.17	402.57
403.36	362.78
403.55	367.46
403.74	393.21
403.93	416.62
404.13	400.23
404.32	416.62
404.51	393.21
404.70	411.93
404.89	402.57
405.09	428.32
405.28	344.06
405.47	402.57
405.66	428.32
405.85	351.08
406.05	465.77
406.24	393.21
406.43	393.21
406.62	369.80
406.81	388.53
407.00	327.68
407.20	367.46
407.39	308.95
407.58	301.93
407.77	421.30
407.96	393.21
408.15	362.78
408.34	442.36
408.54	407.25
408.73	400.23
408.92	425.98
409.11	416.62
409.30	414.27
409.49	393.21
409.68	425.98
409.87	514.92
410.07	334.70
410.26	365.12
410.45	496.19
410.64	386.19
410.83	397.89
411.02	435.34
411.21	423.64
411.40	454.06
411.59	367.46
411.78	421.30
411.98	451.72
412.17	484.49
412.36	477.47
412.55	433.00
412.74	435.34
412.93	482.15
413.12	404.91
413.31	388.53
413.50	486.83
413.69	376.83
413.88	411.93
414.07	390.87
414.26	440.02
414.45	428.32
414.64	330.02
414.83	416.62
415.02	428.32
415.22	395.55
415.41	393.21
415.60	346.40
415.79	454.06
415.98	411.93
416.17	454.06
416.36	402.57
416.55	400.23
416.74	449.38
416.93	400.23
417.12	435.34
417.31	397.89
417.50	407.25
417.69	395.55
417.88	402.57
418.07	381.51
418.26	475.13
418.45	409.59
418.64	433.00
418.83	449.38
419.02	404.91
419.21	379.17
419.39	447.04
419.58	376.83
419.77	351.08
419.96	404.91
420.15	407.25
420.34	477.47
420.53	484.49
420.72	442.36
420.91	395.55
421.10	344.06
421.29	376.83
421.48	409.59
421.67	444.70
421.86	369.80
422.05	416.62
422.24	465.77
422.43	390.87
422.61	440.02
422.80	330.02
422.99	458.74
423.18	386.19
423.37	456.40
423.56	414.27
423.75	395.55
423.94	369.80
424.13	498.53
424.32	418.96
424.50	430.66
424.69	404.91
424.88	444.70
425.07	411.93
425.26	435.34
425.45	402.57
425.64	376.83
425.83	365.12
426.01	404.91
426.20	388.53
426.39	400.23
426.58	456.40
426.77	402.57
426.96	418.96
427.15	444.70
427.33	372.15
427.52	416.62
427.71	461.09
427.90	414.27
428.09	416.62
428.28	411.93
428.46	390.87
428.65	418.96
428.84	423.64
429.03	421.30
429.22	454.06
429.40	442.36
429.59	306.61
429.78	374.49
429.97	369.80
430.16	409.59
430.34	367.46
430.53	393.21
430.72	421.30
430.91	390.87
431.10	367.46
431.28	374.49
431.47	400.23
431.66	472.79
431.85	409.59
432.03	404.91
432.22	379.17
432.41	428.32
432.60	447.04
432.79	379.17
432.97	447.04
433.16	386.19
433.35	369.80
433.54	472.79
433.72	468.11
433.91	470.45
434.10	409.59
434.28	358.10
434.47	348.74
434.66	482.15
434.85	397.89
435.03	390.87
435.22	402.57
435.41	430.66
435.59	430.66
435.78	395.55
435.97	311.29
436.16	409.59
436.34	395.55
436.53	437.68
436.72	393.21
436.90	500.87
437.09	362.78
437.28	498.53
437.46	402.57
437.65	442.36
437.84	433.00
438.02	486.83
438.21	433.00
438.40	425.98
438.58	374.49
438.77	493.85
438.96	386.19
439.14	362.78
439.33	386.19
439.52	409.59
439.70	425.98
439.89	365.12
440.08	418.96
440.26	435.34
440.45	472.79
440.63	437.68
440.82	393.21
441.01	463.43
441.19	435.34
441.38	381.51
441.57	477.47
441.75	355.76
441.94	425.98
442.12	433.00
442.31	444.70
442.50	430.66
442.68	369.80
442.87	381.51
443.05	337.04
443.24	414.27
443.43	437.68
443.61	447.04
443.80	280.86
443.98	416.62
444.17	362.78
444.35	461.09
444.54	367.46
444.73	454.06
444.91	435.34
445.10	442.36
445.28	423.64
445.47	428.32
445.65	472.79
445.84	390.87
446.02	442.36
446.21	458.74
446.39	491.51
446.58	409.59
446.77	409.59
446.95	433.00
447.14	400.23
447.32	449.38
447.51	465.77
447.69	444.70
447.88	381.51
448.06	440.02
448.25	367.46
448.43	409.59
448.62	421.30
448.80	383.85
448.99	421.30
449.17	449.38
449.36	418.96
449.54	451.72
449.73	451.72
449.91	407.25
450.10	463.43
450.28	423.64
450.46	409.59
450.65	486.83
450.83	379.17
451.02	407.25
451.20	447.04
451.39	444.70
451.57	367.46
451.76	428.32
451.94	496.19
452.13	425.98
452.31	421.30
452.49	390.87
452.68	369.80
452.86	421.30
453.05	390.87
453.23	397.89
453.42	393.21
453.60	381.51
453.78	433.00
453.97	423.64
454.15	386.19
454.34	423.64
454.52	400.23
454.70	479.81
454.89	440.02
455.07	428.32
455.26	458.74
455.44	475.13
455.62	388.53
455.81	437.68
455.99	440.02
456.17	454.06
456.36	428.32
456.54	390.87
456.73	404.91
456.91	407.25
457.09	393.21
457.28	425.98
457.46	402.57
457.64	386.19
457.83	451.72
458.01	390.87
458.19	397.89
458.38	416.62
458.56	393.21
458.74	386.19
458.93	433.00
459.11	430.66
459.29	435.34
459.48	472.79
459.66	451.72
459.84	435.34
460.03	482.15
460.21	451.72
460.39	348.74
460.57	472.79
460.76	449.38
460.94	351.08
461.12	397.89
461.31	397.89
461.49	407.25
461.67	294.91
461.85	451.72
462.04	421.30
462.22	760.67
462.40	404.91
462.59	407.25
462.77	411.93
462.95	395.55
463.13	360.44
463.32	468.11
463.50	395.55
463.68	400.23
463.86	458.74
464.05	447.04
464.23	372.15
464.41	416.62
464.59	407.25
464.78	444.70
464.96	390.87
465.14	430.66
465.32	360.44
465.50	444.70
465.69	440.02
465.87	437.68
466.05	397.89
466.23	397.89
466.41	414.27
466.60	435.34
466.78	402.57
466.96	376.83
467.14	369.80
467.32	409.59
467.51	456.40
467.69	383.85
467.87	447.04
468.05	374.49
468.23	386.19
468.41	458.74
468.60	470.45
468.78	475.13
468.96	372.15
469.14	379.17
469.32	386.19
469.50	376.83
469.69	411.93
469.87	451.72
470.05	454.06
470.23	409.59
470.41	367.46
470.59	437.68
470.77	435.34
470.95	369.80
471.14	489.17
471.32	397.89
471.50	512.58
471.68	430.66
471.86	374.49
472.04	369.80
472.22	407.25
472.40	498.53
472.58	423.64
472.77	372.15
472.95	465.77
473.13	428.32
473.31	409.59
473.49	395.55
473.67	461.09
473.85	442.36
474.03	440.02
474.21	414.27
474.39	407.25
474.57	463.43
474.75	407.25
474.93	362.78
475.12	498.53
475.30	395.55
475.48	374.49
475.66	411.93
475.84	463.43
476.02	451.72
476.20	491.51
476.38	437.68
476.56	428.32
476.74	369.80
476.92	400.23
477.10	423.64
477.28	425.98
477.46	416.62
477.64	379.17
477.82	393.21
478.00	416.62
478.18	379.17
478.36	421.30
478.54	400.23
478.72	388.53
478.90	433.00
479.08	458.74
479.26	451.72
479.44	435.34
479.62	386.19
479.80	393.21
479.98	444.70
480.16	386.19
480.34	477.47
480.52	362.78
480.70	365.12
480.88	414.27
481.06	416.62
481.24	381.51
481.41	367.46
481.59	428.32
481.77	416.62
481.95	397.89
482.13	421.30
482.31	411.93
482.49	423.64
482.67	449.38
482.85	404.91
483.03	411.93
483.21	454.06
483.39	358.10
483.57	402.57
483.74	395.55
483.92	423.64
484.10	414.27
484.28	430.66
484.46	461.09
484.64	397.89
484.82	463.43
485.00	369.80
485.18	430.66
485.35	456.40
485.53	461.09
485.71	395.55
485.89	376.83
486.07	423.64
486.25	514.92
486.43	451.72
486.61	423.64
486.78	465.77
486.96	433.00
487.14	416.62
487.32	379.17
487.50	414.27
487.68	393.21
487.85	437.68
488.03	397.89
488.21	470.45
488.39	407.25
488.57	477.47
488.75	435.34
488.92	505.56
489.10	428.32
489.28	421.30
489.46	388.53
489.64	449.38
489.81	388.53
489.99	411.93
490.17	395.55
490.35	430.66
490.53	433.00
490.70	423.64
490.88	393.21
491.06	414.27
491.24	425.98
491.41	447.04
491.59	383.85
491.77	458.74
491.95	386.19
492.13	404.91
492.30	461.09
492.48	358.10
492.66	451.72
492.84	393.21
493.01	470.45
493.19	411.93
493.37	372.15
493.54	421.30
493.72	383.85
493.90	402.57
494.08	416.62
494.25	416.62
494.43	475.13
494.61	402.57
494.79	407.25
494.96	414.27
495.14	440.02
495.32	400.23
495.49	379.17
495.67	395.55
495.85	418.96
496.02	381.51
496.20	416.62
496.38	407.25
496.55	379.17
496.73	404.91
496.91	430.66
497.09	409.59
497.26	376.83
497.44	425.98
497.62	376.83
497.79	402.57
497.97	428.32
498.14	414.27
498.32	428.32
498.50	369.80
498.67	386.19
498.85	430.66
499.03	435.34
499.20	442.36
499.38	369.80
499.56	428.32
499.73	470.45
499.91	360.44
500.08	362.78
500.26	435.34
500.44	404.91
500.61	456.40
500.79	379.17
500.97	369.80
501.14	486.83
501.32	435.34
501.49	477.47
501.67	421.30
501.84	437.68
502.02	433.00
502.20	526.62
502.37	447.04
502.55	472.79
502.72	381.51
502.90	433.00
503.07	404.91
503.25	465.77
503.43	383.85
503.60	372.15
503.78	397.89
503.95	383.85
504.13	374.49
504.30	362.78
504.48	416.62
504.65	383.85
504.83	437.68
505.01	430.66
505.18	414.27
505.36	320.65
505.53	395.55
505.71	348.74
505.88	524.28
506.06	425.98
506.23	430.66
506.41	414.27
506.58	362.78
506.76	447.04
506.93	372.15
507.11	444.70
507.28	411.93
507.46	395.55
507.63	435.34
507.81	393.21
507.98	421.30
508.16	395.55
508.33	388.53
508.50	477.47
508.68	514.92
508.85	507.90
509.03	367.46
509.20	386.19
509.38	435.34
509.55	435.34
509.73	353.42
509.90	465.77
510.08	341.72
510.25	365.12
510.42	442.36
510.60	358.10
510.77	402.57
510.95	374.49
511.12	337.04
511.30	407.25
511.47	381.51
511.64	404.91
511.82	320.65
511.99	393.21
512.17	369.80
512.34	379.17
512.51	461.09
512.69	351.08
512.86	416.62
513.04	428.32
513.21	421.30
513.38	418.96
513.56	421.30
513.73	425.98
513.90	461.09
514.08	341.72
514.25	383.85
514.43	353.42
514.60	346.40
514.77	388.53
514.95	374.49
515.12	437.68
515.29	402.57
515.47	379.17
515.64	456.40
515.81	465.77
515.99	447.04
516.16	458.74
516.33	449.38
516.51	362.78
516.68	362.78
516.85	367.46
517.03	367.46
517.20	341.72
517.37	390.87
517.54	454.06
517.72	404.91
517.89	358.10
518.06	362.78
518.24	463.43
518.41	440.02
518.58	416.62
518.75	402.57
518.93	447.04
519.10	416.62
519.27	402.57
519.45	393.21
519.62	411.93
519.79	463.43
519.96	416.62
520.14	407.25
520.31	383.85
520.48	435.34
520.65	423.64
520.83	430.66
521.00	388.53
521.17	418.96
521.34	423.64
521.52	383.85
521.69	402.57
521.86	381.51
522.03	416.62
522.20	489.17
522.38	449.38
522.55	383.85
522.72	444.70
522.89	456.40
523.07	524.28
523.24	397.89
523.41	390.87
523.58	402.57
523.75	449.38
523.92	414.27
524.10	339.38
524.27	442.36
524.44	404.91
524.61	451.72
524.78	411.93
524.96	447.04
525.13	447.04
525.30	388.53
525.47	379.17
525.64	402.57
525.81	449.38
525.98	367.46
526.16	418.96
526.33	411.93
526.50	381.51
526.67	414.27
526.84	416.62
527.01	383.85
527.18	435.34
527.36	444.70
527.53	411.93
527.70	425.98
527.87	461.09
528.04	447.04
528.21	477.47
528.38	449.38
528.55	433.00
528.72	418.96
528.89	451.72
529.07	390.87
529.24	423.64
529.41	444.70
529.58	404.91
529.75	402.57
529.92	374.49
530.09	435.34
530.26	449.38
530.43	442.36
530.60	397.89
530.77	402.57
530.94	393.21
531.11	430.66
531.28	425.98
531.46	315.97
531.63	358.10
531.80	383.85
531.97	402.57
532.14	425.98
532.31	451.72
532.48	353.42
532.65	379.17
532.82	456.40
532.99	440.02
533.16	430.66
533.33	344.06
533.50	435.34
533.67	381.51
533.84	458.74
534.01	421.30
534.18	484.49
534.35	430.66
534.52	421.30
534.69	454.06
534.86	451.72
535.03	374.49
535.20	454.06
535.37	425.98
535.54	348.74
535.71	372.15
535.88	484.49
536.05	423.64
536.22	454.06
536.38	400.23
536.55	463.43
536.72	470.45
536.89	376.83
537.06	437.68
537.23	416.62
537.40	470.45
537.57	376.83
537.74	489.17
537.91	451.72
538.08	456.40
538.25	409.59
538.42	435.34
538.59	421.30
538.75	369.80
538.92	369.80
539.09	472.79
539.26	454.06
539.43	435.34
539.60	477.47
539.77	442.36
539.94	479.81
540.11	465.77
540.28	456.40
540.44	454.06
540.61	477.47
540.78	437.68
540.95	372.15
541.12	393.21
541.29	372.15
541.46	458.74
541.62	454.06
541.79	409.59
541.96	388.53
542.13	397.89
542.30	372.15
542.47	433.00
542.63	447.04
542.80	416.62
542.97	418.96
543.14	388.53
543.31	388.53
543.48	353.42
543.64	451.72
543.81	428.32
543.98	442.36
544.15	440.02
544.32	416.62
544.48	304.27
544.65	374.49
544.82	374.49
544.99	421.30
545.16	425.98
545.32	360.44
545.49	465.77
545.66	433.00
545.83	442.36
546.00	409.59
546.16	402.57
546.33	355.76
546.50	390.87
546.67	418.96
546.83	491.51
547.00	414.27
547.17	372.15
547.34	442.36
547.50	367.46
547.67	435.34
547.84	440.02
548.00	482.15
548.17	421.30
548.34	402.57
548.51	489.17
548.67	423.64
548.84	411.93
549.01	388.53
549.18	414.27
549.34	461.09
549.51	409.59
549.68	484.49
549.84	386.19
550.01	341.72
550.18	512.58
550.34	500.87
550.51	444.70
550.68	482.15
550.84	402.57
551.01	381.51
551.18	454.06
551.34	433.00
551.51	472.79
551.68	390.87
551.84	376.83
552.01	416.62
552.18	383.85
552.34	428.32
552.51	411.93
552.68	400.23
552.84	437.68
553.01	423.64
553.18	451.72
553.34	465.77
553.51	435.34
553.67	376.83
553.84	437.68
554.01	437.68
554.17	390.87
554.34	465.77
554.51	461.09
554.67	414.27
554.84	407.25
555.00	348.74
555.17	425.98
555.33	383.85
555.50	437.68
555.67	395.55
555.83	418.96
556.00	461.09
556.16	538.32
556.33	402.57
556.50	402.57
556.66	386.19
556.83	386.19
556.99	454.06
557.16	447.04
557.32	402.57
557.49	430.66
557.65	372.15
557.82	418.96
557.98	430.66
558.15	400.23
558.32	430.66
558.48	482.15
558.65	449.38
558.81	444.70
558.98	383.85
559.14	416.62
559.31	430.66
559.47	390.87
559.64	409.59
559.80	500.87
559.97	379.17
560.13	496.19
560.30	353.42
560.46	383.85
560.63	376.83
560.79	395.55
560.96	404.91
561.12	442.36
561.29	514.92
561.45	332.36
561.61	440.02
561.78	512.58
561.94	397.89
562.11	451.72
562.27	409.59
562.44	447.04
562.60	451.72
562.77	423.64
562.93	526.62
563.10	358.10
563.26	437.68
563.42	390.87
563.59	425.98
563.75	404.91
563.92	428.32
564.08	496.19
564.24	437.68
564.41	482.15
564.57	376.83
564.74	430.66
564.90	461.09
565.07	430.66
565.23	458.74
565.39	397.89
565.56	435.34
565.72	421.30
565.88	379.17
566.05	444.70
566.21	503.22
566.38	393.21
566.54	397.89
566.70	360.44
566.87	407.25
567.03	451.72
567.19	456.40
567.36	402.57
567.52	437.68
567.68	451.72
567.85	433.00
568.01	430.66
568.17	435.34
568.34	444.70
568.50	435.34
568.66	454.06
568.83	472.79
568.99	433.00
569.15	433.00
569.32	449.38
569.48	395.55
569.64	465.77
569.81	456.40
569.97	489.17
570.13	395.55
570.30	447.04
570.46	414.27
570.62	381.51
570.78	390.87
570.95	449.38
571.11	414.27
571.27	463.43
571.43	423.64
571.60	461.09
571.76	400.23
571.92	425.98
572.09	402.57
572.25	442.36
572.41	332.36
572.57	423.64
572.74	433.00
572.90	407.25
573.06	390.87
573.22	402.57
573.38	395.55
573.55	440.02
573.71	381.51
573.87	416.62
574.03	423.64
574.20	376.83
574.36	390.87
574.52	402.57
574.68	449.38
574.84	472.79
575.01	440.02
575.17	458.74
575.33	388.53
575.49	409.59
575.65	381.51
575.82	444.70
575.98	416.62
576.14	390.87
576.30	428.32
576.46	355.76
576.62	451.72
576.79	372.15
576.95	402.57
577.11	404.91
577.27	451.72
577.43	409.59
577.59	465.77
577.75	482.15
577.92	407.25
578.08	440.02
578.24	407.25
578.40	435.34
578.56	367.46
578.72	447.04
578.88	489.17
579.04	411.93
579.21	414.27
579.37	334.70
579.53	395.55
579.69	383.85
579.85	430.66
580.01	430.66
580.17	404.91
580.33	484.49
580.49	409.59
580.65	402.57
580.82	425.98
580.98	393.21
581.14	423.64
581.30	451.72
581.46	400.23
581.62	470.45
581.78	458.74
581.94	447.04
582.10	407.25
582.26	451.72
582.42	461.09
582.58	404.91
582.74	409.59
582.90	365.12
583.06	383.85
583.22	409.59
583.38	355.76
583.54	430.66
583.70	407.25
583.86	444.70
584.02	400.23
584.18	393.21
584.34	400.23
584.50	360.44
584.66	379.17
584.82	414.27
584.98	440.02
585.14	425.98
585.30	379.17
585.46	423.64
585.62	404.91
585.78	381.51
585.94	388.53
586.10	435.34
586.26	414.27
586.42	456.40
586.58	414.27
586.74	416.62
586.90	414.27
587.06	435.34
587.22	358.10
587.38	423.64
587.54	407.25
587.70	381.51
587.86	416.62
588.02	421.30
588.18	451.72
588.34	355.76
588.49	292.57
588.65	381.51
588.81	365.12
588.97	411.93
589.13	409.59
589.29	395.55
589.45	463.43
589.61	386.19
589.77	463.43
589.93	458.74
590.08	407.25
590.24	416.62
590.40	374.49
590.56	484.49
590.72	407.25
590.88	360.44
591.04	416.62
591.20	449.38
591.35	379.17
591.51	390.87
591.67	365.12
591.83	447.04
591.99	393.21
592.15	461.09
592.31	484.49
592.46	369.80
592.62	484.49
592.78	440.02
592.94	449.38
593.10	388.53
593.26	409.59
593.41	416.62
593.57	421.30
593.73	411.93
593.89	454.06
594.05	397.89
594.20	381.51
594.36	456.40
594.52	479.81
594.68	393.21
594.84	365.12
594.99	454.06
595.15	437.68
595.31	379.17
595.47	404.91
595.62	449.38
595.78	409.59
595.94	372.15
596.10	437.68
596.25	472.79
596.41	430.66
596.57	365.12
596.73	376.83
596.88	400.23
597.04	470.45
597.20	428.32
597.36	475.13
597.51	388.53
597.67	472.79
597.83	393.21
597.99	465.77
598.14	404.91
598.30	437.68
598.46	400.23
598.61	369.80
598.77	409.59
598.93	381.51
599.09	388.53
599.24	442.36
599.40	400.23
599.56	397.89
599.71	416.62
599.87	411.93
600.03	374.49
600.18	437.68
600.34	411.93
600.50	400.23
600.65	442.36
600.81	475.13
600.97	449.38
601.12	402.57
601.28	404.91
601.44	463.43
601.59	334.70
601.75	409.59
601.91	407.25
602.06	430.66
602.22	512.58
602.37	463.43
602.53	428.32
602.69	482.15
602.84	379.17
603.00	393.21
603.16	449.38
603.31	425.98
603.47	451.72
603.62	437.68
603.78	416.62
603.94	521.94
604.09	383.85
604.25	414.27
604.40	367.46
604.56	449.38
604.71	341.72
604.87	337.04
605.03	374.49
605.18	454.06
605.34	472.79
605.49	400.23
605.65	388.53
605.80	444.70
605.96	470.45
606.12	428.32
606.27	421.30
606.43	374.49
606.58	440.02
606.74	440.02
606.89	400.23
607.05	444.70
607.20	442.36
607.36	437.68
607.51	416.62
607.67	407.25
607.82	407.25
607.98	407.25
608.13	395.55
608.29	437.68
608.44	358.10
608.60	388.53
608.75	458.74
608.91	428.32
609.06	369.80
609.22	409.59
609.37	386.19
609.53	402.57
609.68	409.59
609.84	358.10
609.99	327.68
610.15	428.32
