SpectraSuite Data File
++++++++++++++++++++++++++++++++++++
Date: Fri Oct 25 12:11:06 EDT 2013
User: price-jones
Dark Spectrum Present: No
Reference Spectrum Present: No
Number of Sampled Component Spectra: 1
Spectrometers: USB2+H05261
Integration Time (usec): 100000 (USB2+H05261)
Spectra Averaged: 1 (USB2+H05261)
Boxcar Smoothing: 0 (USB2+H05261)
Correct for Electrical Dark: No (USB2+H05261)
Strobe/Lamp Enabled: No (USB2+H05261)
Correct for Detector Non-linearity: No (USB2+H05261)
Correct for Stray Light: No (USB2+H05261)
Number of Pixels in Processed Spectrum: 2048
>>>>>Begin Processed Spectral Data<<<<<
365.73	381.51
365.92	381.51
366.12	381.51
366.32	227.03
366.52	210.65
366.72	241.08
366.91	215.33
367.11	306.61
367.31	273.84
367.51	266.82
367.70	243.42
367.90	217.67
368.10	236.39
368.30	184.90
368.49	212.99
368.69	264.48
368.89	365.12
369.09	266.82
369.28	224.69
369.48	271.50
369.68	358.10
369.87	322.99
370.07	264.48
370.27	322.99
370.47	346.40
370.66	327.68
370.86	351.08
371.06	339.38
371.25	416.62
371.45	355.76
371.65	421.30
371.84	330.02
372.04	355.76
372.24	433.00
372.44	383.85
372.63	393.21
372.83	407.25
373.03	409.59
373.22	360.44
373.42	433.00
373.62	376.83
373.81	411.93
374.01	365.12
374.21	442.36
374.40	428.32
374.60	435.34
374.79	477.47
374.99	463.43
375.19	440.02
375.38	479.81
375.58	505.56
375.78	428.32
375.97	402.57
376.17	456.40
376.37	381.51
376.56	418.96
376.76	421.30
376.95	416.62
377.15	421.30
377.35	454.06
377.54	400.23
377.74	348.74
377.93	379.17
378.13	374.49
378.33	409.59
378.52	360.44
378.72	444.70
378.91	411.93
379.11	381.51
379.31	374.49
379.50	390.87
379.70	425.98
379.89	346.40
380.09	430.66
380.28	461.09
380.48	404.91
380.68	454.06
380.87	353.42
381.07	367.46
381.26	430.66
381.46	416.62
381.65	433.00
381.85	451.72
382.04	444.70
382.24	507.90
382.43	449.38
382.63	330.02
382.83	442.36
383.02	397.89
383.22	402.57
383.41	397.89
383.61	484.49
383.80	411.93
384.00	423.64
384.19	386.19
384.39	456.40
384.58	454.06
384.78	400.23
384.97	418.96
385.17	475.13
385.36	433.00
385.56	468.11
385.75	367.46
385.95	435.34
386.14	440.02
386.34	397.89
386.53	411.93
386.72	411.93
386.92	423.64
387.11	395.55
387.31	386.19
387.50	414.27
387.70	400.23
387.89	425.98
388.09	404.91
388.28	367.46
388.48	421.30
388.67	393.21
388.86	433.00
389.06	465.77
389.25	395.55
389.45	472.79
389.64	390.87
389.84	435.34
390.03	367.46
390.22	386.19
390.42	447.04
390.61	372.15
390.81	362.78
391.00	355.76
391.19	383.85
391.39	365.12
391.58	425.98
391.78	351.08
391.97	395.55
392.16	362.78
392.36	367.46
392.55	376.83
392.75	479.81
392.94	360.44
393.13	418.96
393.33	409.59
393.52	374.49
393.71	437.68
393.91	362.78
394.10	411.93
394.29	409.59
394.49	388.53
394.68	444.70
394.88	430.66
395.07	421.30
395.26	442.36
395.46	451.72
395.65	409.59
395.84	353.42
396.04	482.15
396.23	435.34
396.42	388.53
396.62	430.66
396.81	381.51
397.00	360.44
397.19	339.38
397.39	374.49
397.58	425.98
397.77	388.53
397.97	355.76
398.16	456.40
398.35	407.25
398.55	454.06
398.74	440.02
398.93	465.77
399.12	447.04
399.32	414.27
399.51	285.55
399.70	428.32
399.90	430.66
400.09	423.64
400.28	397.89
400.47	346.40
400.67	470.45
400.86	402.57
401.05	437.68
401.24	484.49
401.44	493.85
401.63	444.70
401.82	381.51
402.01	355.76
402.21	374.49
402.40	416.62
402.59	386.19
402.78	416.62
402.97	411.93
403.17	404.91
403.36	362.78
403.55	379.17
403.74	355.76
403.93	418.96
404.13	517.26
404.32	362.78
404.51	421.30
404.70	390.87
404.89	411.93
405.09	418.96
405.28	440.02
405.47	365.12
405.66	404.91
405.85	430.66
406.05	416.62
406.24	390.87
406.43	458.74
406.62	362.78
406.81	397.89
407.00	512.58
407.20	423.64
407.39	367.46
407.58	372.15
407.77	409.59
407.96	454.06
408.15	475.13
408.34	402.57
408.54	458.74
408.73	472.79
408.92	362.78
409.11	381.51
409.30	486.83
409.49	386.19
409.68	416.62
409.87	393.21
410.07	470.45
410.26	411.93
410.45	379.17
410.64	428.32
410.83	290.23
411.02	404.91
411.21	425.98
411.40	470.45
411.59	430.66
411.78	449.38
411.98	454.06
412.17	442.36
412.36	397.89
412.55	400.23
412.74	435.34
412.93	409.59
413.12	447.04
413.31	425.98
413.50	425.98
413.69	447.04
413.88	435.34
414.07	449.38
414.26	470.45
414.45	472.79
414.64	369.80
414.83	503.22
415.02	365.12
415.22	374.49
415.41	472.79
415.60	407.25
415.79	418.96
415.98	414.27
416.17	461.09
416.36	456.40
416.55	458.74
416.74	388.53
416.93	454.06
417.12	388.53
417.31	437.68
417.50	423.64
417.69	395.55
417.88	362.78
418.07	381.51
418.26	414.27
418.45	409.59
418.64	440.02
418.83	414.27
419.02	430.66
419.21	411.93
419.39	409.59
419.58	454.06
419.77	414.27
419.96	437.68
420.15	433.00
420.34	428.32
420.53	334.70
420.72	393.21
420.91	381.51
421.10	407.25
421.29	449.38
421.48	468.11
421.67	416.62
421.86	395.55
422.05	390.87
422.24	423.64
422.43	346.40
422.61	430.66
422.80	463.43
422.99	477.47
423.18	430.66
423.37	447.04
423.56	430.66
423.75	449.38
423.94	416.62
424.13	444.70
424.32	353.42
424.50	346.40
424.69	397.89
424.88	416.62
425.07	369.80
425.26	404.91
425.45	423.64
425.64	433.00
425.83	397.89
426.01	411.93
426.20	360.44
426.39	390.87
426.58	339.38
426.77	381.51
426.96	418.96
427.15	411.93
427.33	437.68
427.52	381.51
427.71	386.19
427.90	435.34
428.09	397.89
428.28	468.11
428.46	409.59
428.65	407.25
428.84	397.89
429.03	372.15
429.22	484.49
429.40	440.02
429.59	358.10
429.78	416.62
429.97	454.06
430.16	461.09
430.34	355.76
430.53	344.06
430.72	418.96
430.91	418.96
431.10	393.21
431.28	458.74
431.47	425.98
431.66	433.00
431.85	383.85
432.03	423.64
432.22	414.27
432.41	491.51
432.60	409.59
432.79	397.89
432.97	365.12
433.16	416.62
433.35	418.96
433.54	423.64
433.72	477.47
433.91	411.93
434.10	353.42
434.28	435.34
434.47	437.68
434.66	430.66
434.85	444.70
435.03	404.91
435.22	449.38
435.41	390.87
435.59	376.83
435.78	416.62
435.97	374.49
436.16	461.09
436.34	421.30
436.53	449.38
436.72	428.32
436.90	421.30
437.09	444.70
437.28	386.19
437.46	388.53
437.65	395.55
437.84	383.85
438.02	430.66
438.21	414.27
438.40	409.59
438.58	418.96
438.77	442.36
438.96	444.70
439.14	318.31
439.33	315.97
439.52	416.62
439.70	397.89
439.89	344.06
440.08	351.08
440.26	444.70
440.45	409.59
440.63	425.98
440.82	423.64
441.01	393.21
441.19	386.19
441.38	358.10
441.57	372.15
441.75	339.38
441.94	433.00
442.12	381.51
442.31	458.74
442.50	400.23
442.68	421.30
442.87	440.02
443.05	414.27
443.24	383.85
443.43	388.53
443.61	402.57
443.80	409.59
443.98	365.12
444.17	369.80
444.35	418.96
444.54	397.89
444.73	472.79
444.91	416.62
445.10	451.72
445.28	440.02
445.47	428.32
445.65	472.79
445.84	435.34
446.02	414.27
446.21	421.30
446.39	433.00
446.58	463.43
446.77	404.91
446.95	397.89
447.14	421.30
447.32	458.74
447.51	390.87
447.69	447.04
447.88	475.13
448.06	458.74
448.25	430.66
448.43	433.00
448.62	416.62
448.80	369.80
448.99	421.30
449.17	437.68
449.36	425.98
449.54	395.55
449.73	369.80
449.91	451.72
450.10	423.64
450.28	386.19
450.46	458.74
450.65	496.19
450.83	423.64
451.02	376.83
451.20	404.91
451.39	414.27
451.57	425.98
451.76	400.23
451.94	430.66
452.13	372.15
452.31	416.62
452.49	433.00
452.68	428.32
452.86	414.27
453.05	489.17
453.23	479.81
453.42	362.78
453.60	407.25
453.78	447.04
453.97	411.93
454.15	400.23
454.34	395.55
454.52	341.72
454.70	451.72
454.89	400.23
455.07	374.49
455.26	367.46
455.44	454.06
455.62	386.19
455.81	383.85
455.99	423.64
456.17	402.57
456.36	400.23
456.54	367.46
456.73	376.83
456.91	411.93
457.09	397.89
457.28	449.38
457.46	379.17
457.64	433.00
457.83	442.36
458.01	393.21
458.19	449.38
458.38	407.25
458.56	470.45
458.74	421.30
458.93	416.62
459.11	489.17
459.29	365.12
459.48	379.17
459.66	358.10
459.84	472.79
460.03	468.11
460.21	428.32
460.39	365.12
460.57	428.32
460.76	337.04
460.94	418.96
461.12	496.19
461.31	416.62
461.49	348.74
461.67	470.45
461.85	470.45
462.04	423.64
462.22	706.84
462.40	346.40
462.59	472.79
462.77	388.53
462.95	428.32
463.13	425.98
463.32	409.59
463.50	444.70
463.68	414.27
463.86	414.27
464.05	404.91
464.23	463.43
464.41	470.45
464.59	433.00
464.78	447.04
464.96	341.72
465.14	409.59
465.32	395.55
465.50	447.04
465.69	423.64
465.87	411.93
466.05	433.00
466.23	360.44
466.41	372.15
466.60	407.25
466.78	409.59
466.96	376.83
467.14	468.11
467.32	383.85
467.51	400.23
467.69	435.34
467.87	388.53
468.05	332.36
468.23	423.64
468.41	451.72
468.60	393.21
468.78	489.17
468.96	390.87
469.14	409.59
469.32	337.04
469.50	470.45
469.69	505.56
469.87	421.30
470.05	355.76
470.23	400.23
470.41	346.40
470.59	435.34
470.77	376.83
470.95	369.80
471.14	458.74
471.32	461.09
471.50	400.23
471.68	421.30
471.86	379.17
472.04	418.96
472.22	390.87
472.40	447.04
472.58	407.25
472.77	393.21
472.95	442.36
473.13	451.72
473.31	449.38
473.49	409.59
473.67	355.76
473.85	458.74
474.03	379.17
474.21	402.57
474.39	437.68
474.57	449.38
474.75	465.77
474.93	451.72
475.12	358.10
475.30	374.49
475.48	381.51
475.66	409.59
475.84	358.10
476.02	397.89
476.20	362.78
476.38	435.34
476.56	475.13
476.74	430.66
476.92	411.93
477.10	463.43
477.28	376.83
477.46	411.93
477.64	524.28
477.82	393.21
478.00	376.83
478.18	383.85
478.36	451.72
478.54	458.74
478.72	414.27
478.90	437.68
479.08	400.23
479.26	339.38
479.44	458.74
479.62	433.00
479.80	374.49
479.98	325.33
480.16	334.70
480.34	404.91
480.52	447.04
480.70	430.66
480.88	414.27
481.06	386.19
481.24	346.40
481.41	365.12
481.59	463.43
481.77	493.85
481.95	393.21
482.13	416.62
482.31	402.57
482.49	416.62
482.67	409.59
482.85	475.13
483.03	423.64
483.21	465.77
483.39	423.64
483.57	379.17
483.74	425.98
483.92	423.64
484.10	425.98
484.28	423.64
484.46	451.72
484.64	367.46
484.82	418.96
485.00	369.80
485.18	334.70
485.35	454.06
485.53	484.49
485.71	512.58
485.89	362.78
486.07	433.00
486.25	341.72
486.43	421.30
486.61	395.55
486.78	407.25
486.96	360.44
487.14	491.51
487.32	407.25
487.50	393.21
487.68	414.27
487.85	418.96
488.03	430.66
488.21	463.43
488.39	437.68
488.57	435.34
488.75	383.85
488.92	409.59
489.10	388.53
489.28	416.62
489.46	411.93
489.64	362.78
489.81	341.72
489.99	397.89
490.17	337.04
490.35	430.66
490.53	442.36
490.70	348.74
490.88	491.51
491.06	465.77
491.24	503.22
491.41	461.09
491.59	400.23
491.77	367.46
491.95	447.04
492.13	430.66
492.30	449.38
492.48	433.00
492.66	435.34
492.84	425.98
493.01	395.55
493.19	421.30
493.37	402.57
493.54	421.30
493.72	400.23
493.90	383.85
494.08	479.81
494.25	374.49
494.43	367.46
494.61	465.77
494.79	458.74
494.96	411.93
495.14	454.06
495.32	367.46
495.49	519.60
495.67	477.47
495.85	493.85
496.02	360.44
496.20	400.23
496.38	383.85
496.55	372.15
496.73	428.32
496.91	386.19
497.09	423.64
497.26	383.85
497.44	365.12
497.62	449.38
497.79	411.93
497.97	435.34
498.14	381.51
498.32	407.25
498.50	400.23
498.67	414.27
498.85	433.00
499.03	402.57
499.20	351.08
499.38	360.44
499.56	440.02
499.73	456.40
499.91	472.79
500.08	400.23
500.26	376.83
500.44	414.27
500.61	437.68
500.79	400.23
500.97	402.57
501.14	437.68
501.32	447.04
501.49	500.87
501.67	414.27
501.84	414.27
502.02	355.76
502.20	449.38
502.37	428.32
502.55	430.66
502.72	418.96
502.90	425.98
503.07	440.02
503.25	414.27
503.43	414.27
503.60	433.00
503.78	472.79
503.95	390.87
504.13	414.27
504.30	421.30
504.48	421.30
504.65	514.92
504.83	477.47
505.01	386.19
505.18	358.10
505.36	416.62
505.53	475.13
505.71	482.15
505.88	510.24
506.06	421.30
506.23	374.49
506.41	369.80
506.58	463.43
506.76	404.91
506.93	468.11
507.11	477.47
507.28	407.25
507.46	440.02
507.63	402.57
507.81	433.00
507.98	390.87
508.16	447.04
508.33	388.53
508.50	425.98
508.68	437.68
508.85	407.25
509.03	416.62
509.20	404.91
509.38	379.17
509.55	465.77
509.73	468.11
509.90	409.59
510.08	397.89
510.25	414.27
510.42	404.91
510.60	447.04
510.77	404.91
510.95	465.77
511.12	444.70
511.30	461.09
511.47	407.25
511.64	482.15
511.82	395.55
511.99	418.96
512.17	425.98
512.34	423.64
512.51	407.25
512.69	442.36
512.86	381.51
513.04	430.66
513.21	381.51
513.38	428.32
513.56	430.66
513.73	393.21
513.90	409.59
514.08	376.83
514.25	411.93
514.43	360.44
514.60	407.25
514.77	365.12
514.95	393.21
515.12	362.78
515.29	407.25
515.47	414.27
515.64	388.53
515.81	428.32
515.99	498.53
516.16	489.17
516.33	444.70
516.51	416.62
516.68	404.91
516.85	479.81
517.03	454.06
517.20	409.59
517.37	423.64
517.54	463.43
517.72	362.78
517.89	414.27
518.06	376.83
518.24	482.15
518.41	463.43
518.58	372.15
518.75	318.31
518.93	416.62
519.10	430.66
519.27	428.32
519.45	421.30
519.62	383.85
519.79	416.62
519.96	425.98
520.14	454.06
520.31	465.77
520.48	437.68
520.65	449.38
520.83	404.91
521.00	416.62
521.17	447.04
521.34	386.19
521.52	397.89
521.69	444.70
521.86	479.81
522.03	362.78
522.20	444.70
522.38	409.59
522.55	442.36
522.72	351.08
522.89	425.98
523.07	423.64
523.24	454.06
523.41	390.87
523.58	451.72
523.75	369.80
523.92	383.85
524.10	428.32
524.27	369.80
524.44	369.80
524.61	390.87
524.78	381.51
524.96	416.62
525.13	437.68
525.30	414.27
525.47	435.34
525.64	435.34
525.81	437.68
525.98	463.43
526.16	437.68
526.33	390.87
526.50	421.30
526.67	425.98
526.84	358.10
527.01	339.38
527.18	360.44
527.36	449.38
527.53	411.93
527.70	397.89
527.87	414.27
528.04	503.22
528.21	397.89
528.38	458.74
528.55	470.45
528.72	388.53
528.89	425.98
529.07	418.96
529.24	437.68
529.41	456.40
529.58	456.40
529.75	433.00
529.92	451.72
530.09	461.09
530.26	472.79
530.43	468.11
530.60	414.27
530.77	456.40
530.94	456.40
531.11	411.93
531.28	397.89
531.46	393.21
531.63	358.10
531.80	351.08
531.97	461.09
532.14	383.85
532.31	442.36
532.48	339.38
532.65	411.93
532.82	367.46
532.99	433.00
533.16	416.62
533.33	414.27
533.50	484.49
533.67	395.55
533.84	440.02
534.01	414.27
534.18	393.21
534.35	433.00
534.52	477.47
534.69	468.11
534.86	376.83
535.03	465.77
535.20	418.96
535.37	425.98
535.54	454.06
535.71	409.59
535.88	437.68
536.05	376.83
536.22	409.59
536.38	428.32
536.55	421.30
536.72	486.83
536.89	372.15
537.06	465.77
537.23	465.77
537.40	414.27
537.57	393.21
537.74	430.66
537.91	409.59
538.08	393.21
538.25	423.64
538.42	437.68
538.59	430.66
538.75	428.32
538.92	411.93
539.09	468.11
539.26	437.68
539.43	440.02
539.60	414.27
539.77	404.91
539.94	416.62
540.11	414.27
540.28	407.25
540.44	379.17
540.61	428.32
540.78	400.23
540.95	425.98
541.12	465.77
541.29	376.83
541.46	386.19
541.62	397.89
541.79	425.98
541.96	358.10
542.13	418.96
542.30	409.59
542.47	379.17
542.63	447.04
542.80	458.74
542.97	404.91
543.14	440.02
543.31	437.68
543.48	397.89
543.64	433.00
543.81	418.96
543.98	358.10
544.15	400.23
544.32	447.04
544.48	402.57
544.65	334.70
544.82	411.93
544.99	411.93
545.16	435.34
545.32	372.15
545.49	435.34
545.66	372.15
545.83	351.08
546.00	414.27
546.16	433.00
546.33	437.68
546.50	355.76
546.67	528.96
546.83	433.00
547.00	386.19
547.17	369.80
547.34	416.62
547.50	388.53
547.67	402.57
547.84	451.72
548.00	386.19
548.17	379.17
548.34	374.49
548.51	411.93
548.67	425.98
548.84	414.27
549.01	423.64
549.18	367.46
549.34	440.02
549.51	369.80
549.68	454.06
549.84	447.04
550.01	414.27
550.18	475.13
550.34	428.32
550.51	327.68
550.68	383.85
550.84	433.00
551.01	437.68
551.18	414.27
551.34	402.57
551.51	372.15
551.68	416.62
551.84	407.25
552.01	428.32
552.18	425.98
552.34	454.06
552.51	372.15
552.68	400.23
552.84	381.51
553.01	423.64
553.18	447.04
553.34	433.00
553.51	423.64
553.67	400.23
553.84	489.17
554.01	409.59
554.17	414.27
554.34	414.27
554.51	472.79
554.67	430.66
554.84	442.36
555.00	447.04
555.17	444.70
555.33	440.02
555.50	425.98
555.67	454.06
555.83	404.91
556.00	411.93
556.16	524.28
556.33	484.49
556.50	416.62
556.66	386.19
556.83	447.04
556.99	425.98
557.16	472.79
557.32	388.53
557.49	437.68
557.65	470.45
557.82	397.89
557.98	477.47
558.15	376.83
558.32	395.55
558.48	414.27
558.65	418.96
558.81	386.19
558.98	407.25
559.14	449.38
559.31	421.30
559.47	395.55
559.64	355.76
559.80	390.87
559.97	444.70
560.13	376.83
560.30	374.49
560.46	341.72
560.63	397.89
560.79	461.09
560.96	458.74
561.12	425.98
561.29	428.32
561.45	440.02
561.61	423.64
561.78	418.96
561.94	470.45
562.11	430.66
562.27	461.09
562.44	402.57
562.60	407.25
562.77	414.27
562.93	461.09
563.10	449.38
563.26	372.15
563.42	447.04
563.59	468.11
563.75	390.87
563.92	416.62
564.08	449.38
564.24	447.04
564.41	550.03
564.57	477.47
564.74	411.93
564.90	402.57
565.07	411.93
565.23	554.71
565.39	433.00
565.56	465.77
565.72	353.42
565.88	435.34
566.05	461.09
566.21	414.27
566.38	425.98
566.54	409.59
566.70	433.00
566.87	402.57
567.03	433.00
567.19	388.53
567.36	386.19
567.52	468.11
567.68	507.90
567.85	400.23
568.01	332.36
568.17	407.25
568.34	414.27
568.50	451.72
568.66	388.53
568.83	505.56
568.99	458.74
569.15	407.25
569.32	437.68
569.48	400.23
569.64	423.64
569.81	402.57
569.97	449.38
570.13	404.91
570.30	404.91
570.46	365.12
570.62	451.72
570.78	390.87
570.95	468.11
571.11	421.30
571.27	470.45
571.43	383.85
571.60	430.66
571.76	369.80
571.92	472.79
572.09	308.95
572.25	402.57
572.41	393.21
572.57	472.79
572.74	440.02
572.90	456.40
573.06	440.02
573.22	369.80
573.38	416.62
573.55	465.77
573.71	386.19
573.87	442.36
574.03	367.46
574.20	416.62
574.36	386.19
574.52	400.23
574.68	400.23
574.84	360.44
575.01	339.38
575.17	416.62
575.33	440.02
575.49	379.17
575.65	451.72
575.82	397.89
575.98	465.77
576.14	393.21
576.30	332.36
576.46	416.62
576.62	454.06
576.79	428.32
576.95	418.96
577.11	444.70
577.27	433.00
577.43	458.74
577.59	393.21
577.75	395.55
577.92	393.21
578.08	334.70
578.24	376.83
578.40	421.30
578.56	444.70
578.72	451.72
578.88	496.19
579.04	449.38
579.21	402.57
579.37	416.62
579.53	374.49
579.69	451.72
579.85	437.68
580.01	454.06
580.17	383.85
580.33	461.09
580.49	400.23
580.65	339.38
580.82	337.04
580.98	395.55
581.14	400.23
581.30	397.89
581.46	388.53
581.62	472.79
581.78	376.83
581.94	449.38
582.10	344.06
582.26	397.89
582.42	395.55
582.58	423.64
582.74	402.57
582.90	418.96
583.06	428.32
583.22	374.49
583.38	376.83
583.54	400.23
583.70	505.56
583.86	341.72
584.02	388.53
584.18	491.51
584.34	454.06
584.50	376.83
584.66	395.55
584.82	381.51
584.98	444.70
585.14	440.02
585.30	447.04
585.46	409.59
585.62	409.59
585.78	433.00
585.94	437.68
586.10	430.66
586.26	383.85
586.42	435.34
586.58	435.34
586.74	395.55
586.90	358.10
587.06	477.47
587.22	372.15
587.38	418.96
587.54	365.12
587.70	456.40
587.86	458.74
588.02	407.25
588.18	442.36
588.34	430.66
588.49	428.32
588.65	491.51
588.81	411.93
588.97	482.15
589.13	465.77
589.29	395.55
589.45	493.85
589.61	451.72
589.77	372.15
589.93	358.10
590.08	362.78
590.24	365.12
590.40	430.66
590.56	421.30
590.72	435.34
590.88	402.57
591.04	440.02
591.20	355.76
591.35	444.70
591.51	402.57
591.67	379.17
591.83	355.76
591.99	395.55
592.15	423.64
592.31	337.04
592.46	451.72
592.62	330.02
592.78	430.66
592.94	404.91
593.10	325.33
593.26	440.02
593.41	416.62
593.57	442.36
593.73	390.87
593.89	414.27
594.05	465.77
594.20	383.85
594.36	472.79
594.52	465.77
594.68	418.96
594.84	451.72
594.99	463.43
595.15	510.24
595.31	486.83
595.47	458.74
595.62	372.15
595.78	379.17
595.94	451.72
596.10	479.81
596.25	388.53
596.41	447.04
596.57	337.04
596.73	409.59
596.88	498.53
597.04	330.02
597.20	421.30
597.36	315.97
597.51	402.57
597.67	404.91
597.83	435.34
597.99	322.99
598.14	472.79
598.30	451.72
598.46	339.38
598.61	411.93
598.77	484.49
598.93	437.68
599.09	416.62
599.24	430.66
599.40	479.81
599.56	458.74
599.71	355.76
599.87	362.78
600.03	493.85
600.18	475.13
600.34	461.09
600.50	355.76
600.65	486.83
600.81	369.80
600.97	463.43
601.12	430.66
601.28	463.43
601.44	367.46
601.59	444.70
601.75	435.34
601.91	404.91
602.06	440.02
602.22	491.51
602.37	440.02
602.53	458.74
602.69	428.32
602.84	386.19
603.00	337.04
603.16	409.59
603.31	421.30
603.47	416.62
603.62	402.57
603.78	367.46
603.94	468.11
604.09	433.00
604.25	365.12
604.40	414.27
604.56	428.32
604.71	454.06
604.87	545.34
605.03	418.96
605.18	461.09
605.34	447.04
605.49	425.98
605.65	402.57
605.80	440.02
605.96	435.34
606.12	482.15
606.27	470.45
606.43	454.06
606.58	388.53
606.74	517.26
606.89	388.53
607.05	411.93
607.20	418.96
607.36	390.87
607.51	444.70
607.67	409.59
607.82	388.53
607.98	355.76
608.13	454.06
608.29	411.93
608.44	430.66
608.60	479.81
608.75	369.80
608.91	423.64
609.06	386.19
609.22	456.40
609.37	393.21
609.53	390.87
609.68	344.06
609.84	468.11
609.99	360.44
610.15	491.51
