SpectraSuite Data File
++++++++++++++++++++++++++++++++++++
Date: Fri Oct 25 12:10:56 EDT 2013
User: price-jones
Dark Spectrum Present: No
Reference Spectrum Present: No
Number of Sampled Component Spectra: 1
Spectrometers: USB2+H05261
Integration Time (usec): 100000 (USB2+H05261)
Spectra Averaged: 1 (USB2+H05261)
Boxcar Smoothing: 0 (USB2+H05261)
Correct for Electrical Dark: No (USB2+H05261)
Strobe/Lamp Enabled: No (USB2+H05261)
Correct for Detector Non-linearity: No (USB2+H05261)
Correct for Stray Light: No (USB2+H05261)
Number of Pixels in Processed Spectrum: 2048
>>>>>Begin Processed Spectral Data<<<<<
365.73	358.10
365.92	358.10
366.12	358.10
366.32	234.05
366.52	196.60
366.72	231.71
366.91	238.73
367.11	222.35
367.31	187.24
367.51	273.84
367.70	262.14
367.90	222.35
368.10	250.44
368.30	222.35
368.49	210.65
368.69	308.95
368.89	257.46
369.09	252.78
369.28	283.20
369.48	259.80
369.68	278.52
369.87	334.70
370.07	287.89
370.27	322.99
370.47	304.27
370.66	379.17
370.86	442.36
371.06	402.57
371.25	381.51
371.45	362.78
371.65	372.15
371.84	325.33
372.04	334.70
372.24	383.85
372.44	362.78
372.63	402.57
372.83	425.98
373.03	470.45
373.22	442.36
373.42	425.98
373.62	388.53
373.81	451.72
374.01	393.21
374.21	358.10
374.40	418.96
374.60	440.02
374.79	423.64
374.99	400.23
375.19	461.09
375.38	421.30
375.58	425.98
375.78	388.53
375.97	449.38
376.17	440.02
376.37	444.70
376.56	440.02
376.76	454.06
376.95	461.09
377.15	449.38
377.35	421.30
377.54	409.59
377.74	411.93
377.93	411.93
378.13	362.78
378.33	486.83
378.52	411.93
378.72	355.76
378.91	425.98
379.11	381.51
379.31	402.57
379.50	311.29
379.70	337.04
379.89	397.89
380.09	421.30
380.28	372.15
380.48	433.00
380.68	376.83
380.87	358.10
381.07	381.51
381.26	416.62
381.46	421.30
381.65	372.15
381.85	423.64
382.04	433.00
382.24	451.72
382.43	367.46
382.63	402.57
382.83	372.15
383.02	344.06
383.22	400.23
383.41	444.70
383.61	414.27
383.80	451.72
384.00	423.64
384.19	362.78
384.39	418.96
384.58	407.25
384.78	383.85
384.97	367.46
385.17	379.17
385.36	313.63
385.56	447.04
385.75	393.21
385.95	442.36
386.14	425.98
386.34	365.12
386.53	425.98
386.72	402.57
386.92	507.90
387.11	383.85
387.31	374.49
387.50	442.36
387.70	435.34
387.89	388.53
388.09	358.10
388.28	327.68
388.48	362.78
388.67	440.02
388.86	393.21
389.06	442.36
389.25	430.66
389.45	465.77
389.64	369.80
389.84	402.57
390.03	435.34
390.22	428.32
390.42	454.06
390.61	327.68
390.81	383.85
391.00	423.64
391.19	365.12
391.39	381.51
391.58	388.53
391.78	503.22
391.97	369.80
392.16	416.62
392.36	390.87
392.55	430.66
392.75	414.27
392.94	304.27
393.13	489.17
393.33	423.64
393.52	440.02
393.71	397.89
393.91	479.81
394.10	383.85
394.29	416.62
394.49	416.62
394.68	428.32
394.88	421.30
395.07	463.43
395.26	358.10
395.46	456.40
395.65	465.77
395.84	409.59
396.04	435.34
396.23	416.62
396.42	425.98
396.62	442.36
396.81	416.62
397.00	390.87
397.19	388.53
397.39	454.06
397.58	421.30
397.77	372.15
397.97	425.98
398.16	414.27
398.35	414.27
398.55	383.85
398.74	496.19
398.93	358.10
399.12	477.47
399.32	447.04
399.51	416.62
399.70	381.51
399.90	433.00
400.09	409.59
400.28	414.27
400.47	477.47
400.67	418.96
400.86	435.34
401.05	416.62
401.24	430.66
401.44	465.77
401.63	428.32
401.82	386.19
402.01	294.91
402.21	435.34
402.40	360.44
402.59	367.46
402.78	386.19
402.97	325.33
403.17	376.83
403.36	421.30
403.55	425.98
403.74	425.98
403.93	404.91
404.13	451.72
404.32	383.85
404.51	383.85
404.70	486.83
404.89	414.27
405.09	444.70
405.28	355.76
405.47	327.68
405.66	442.36
405.85	381.51
406.05	447.04
406.24	407.25
406.43	407.25
406.62	414.27
406.81	447.04
407.00	402.57
407.20	433.00
407.39	379.17
407.58	409.59
407.77	395.55
407.96	404.91
408.15	491.51
408.34	327.68
408.54	425.98
408.73	400.23
408.92	337.04
409.11	383.85
409.30	388.53
409.49	430.66
409.68	388.53
409.87	344.06
410.07	348.74
410.26	409.59
410.45	383.85
410.64	332.36
410.83	454.06
411.02	374.49
411.21	433.00
411.40	425.98
411.59	355.76
411.78	388.53
411.98	435.34
412.17	339.38
412.36	449.38
412.55	404.91
412.74	395.55
412.93	395.55
413.12	379.17
413.31	433.00
413.50	348.74
413.69	376.83
413.88	498.53
414.07	397.89
414.26	393.21
414.45	292.57
414.64	397.89
414.83	390.87
415.02	421.30
415.22	386.19
415.41	397.89
415.60	430.66
415.79	365.12
415.98	484.49
416.17	440.02
416.36	383.85
416.55	355.76
416.74	435.34
416.93	425.98
417.12	390.87
417.31	381.51
417.50	400.23
417.69	477.47
417.88	367.46
418.07	376.83
418.26	444.70
418.45	400.23
418.64	423.64
418.83	388.53
419.02	379.17
419.21	390.87
419.39	388.53
419.58	435.34
419.77	414.27
419.96	479.81
420.15	367.46
420.34	423.64
420.53	390.87
420.72	421.30
420.91	404.91
421.10	388.53
421.29	369.80
421.48	423.64
421.67	461.09
421.86	437.68
422.05	411.93
422.24	440.02
422.43	500.87
422.61	425.98
422.80	411.93
422.99	381.51
423.18	386.19
423.37	397.89
423.56	402.57
423.75	519.60
423.94	395.55
424.13	430.66
424.32	435.34
424.50	320.65
424.69	369.80
424.88	440.02
425.07	372.15
425.26	447.04
425.45	454.06
425.64	414.27
425.83	404.91
426.01	430.66
426.20	456.40
426.39	423.64
426.58	428.32
426.77	418.96
426.96	435.34
427.15	416.62
427.33	360.44
427.52	437.68
427.71	416.62
427.90	423.64
428.09	421.30
428.28	416.62
428.46	365.12
428.65	430.66
428.84	397.89
429.03	514.92
429.22	367.46
429.40	447.04
429.59	374.49
429.78	367.46
429.97	362.78
430.16	390.87
430.34	390.87
430.53	360.44
430.72	397.89
430.91	421.30
431.10	411.93
431.28	444.70
431.47	444.70
431.66	498.53
431.85	430.66
432.03	383.85
432.22	433.00
432.41	393.21
432.60	444.70
432.79	447.04
432.97	411.93
433.16	411.93
433.35	379.17
433.54	435.34
433.72	451.72
433.91	430.66
434.10	425.98
434.28	465.77
434.47	369.80
434.66	397.89
434.85	421.30
435.03	442.36
435.22	376.83
435.41	437.68
435.59	454.06
435.78	423.64
435.97	416.62
436.16	496.19
436.34	440.02
436.53	416.62
436.72	444.70
436.90	435.34
437.09	479.81
437.28	442.36
437.46	425.98
437.65	390.87
437.84	449.38
438.02	484.49
438.21	447.04
438.40	369.80
438.58	360.44
438.77	400.23
438.96	482.15
439.14	355.76
439.33	397.89
439.52	348.74
439.70	433.00
439.89	397.89
440.08	449.38
440.26	442.36
440.45	409.59
440.63	418.96
440.82	402.57
441.01	393.21
441.19	423.64
441.38	402.57
441.57	381.51
441.75	393.21
441.94	479.81
442.12	400.23
442.31	435.34
442.50	458.74
442.68	358.10
442.87	351.08
443.05	383.85
443.24	369.80
443.43	435.34
443.61	374.49
443.80	362.78
443.98	444.70
444.17	428.32
444.35	444.70
444.54	437.68
444.73	409.59
444.91	367.46
445.10	416.62
445.28	407.25
445.47	433.00
445.65	421.30
445.84	425.98
446.02	376.83
446.21	421.30
446.39	440.02
446.58	425.98
446.77	414.27
446.95	358.10
447.14	397.89
447.32	341.72
447.51	442.36
447.69	437.68
447.88	442.36
448.06	531.30
448.25	442.36
448.43	404.91
448.62	320.65
448.80	409.59
448.99	472.79
449.17	482.15
449.36	472.79
449.54	433.00
449.73	346.40
449.91	425.98
450.10	395.55
450.28	421.30
450.46	512.58
450.65	421.30
450.83	423.64
451.02	414.27
451.20	425.98
451.39	456.40
451.57	376.83
451.76	451.72
451.94	442.36
452.13	482.15
452.31	458.74
452.49	421.30
452.68	381.51
452.86	458.74
453.05	458.74
453.23	376.83
453.42	465.77
453.60	397.89
453.78	458.74
453.97	411.93
454.15	397.89
454.34	430.66
454.52	369.80
454.70	449.38
454.89	358.10
455.07	407.25
455.26	414.27
455.44	421.30
455.62	381.51
455.81	444.70
455.99	381.51
456.17	479.81
456.36	437.68
456.54	451.72
456.73	388.53
456.91	369.80
457.09	414.27
457.28	447.04
457.46	393.21
457.64	433.00
457.83	390.87
458.01	407.25
458.19	451.72
458.38	376.83
458.56	416.62
458.74	402.57
458.93	449.38
459.11	404.91
459.29	355.76
459.48	451.72
459.66	458.74
459.84	414.27
460.03	484.49
460.21	444.70
460.39	388.53
460.57	442.36
460.76	351.08
460.94	404.91
461.12	442.36
461.31	425.98
461.49	435.34
461.67	388.53
461.85	449.38
462.04	440.02
462.22	734.93
462.40	465.77
462.59	411.93
462.77	454.06
462.95	374.49
463.13	351.08
463.32	433.00
463.50	421.30
463.68	383.85
463.86	306.61
464.05	437.68
464.23	461.09
464.41	344.06
464.59	409.59
464.78	454.06
464.96	351.08
465.14	337.04
465.32	386.19
465.50	409.59
465.69	423.64
465.87	395.55
466.05	404.91
466.23	397.89
466.41	348.74
466.60	404.91
466.78	362.78
466.96	365.12
467.14	425.98
467.32	407.25
467.51	440.02
467.69	437.68
467.87	411.93
468.05	393.21
468.23	430.66
468.41	418.96
468.60	428.32
468.78	390.87
468.96	435.34
469.14	383.85
469.32	358.10
469.50	416.62
469.69	449.38
469.87	468.11
470.05	449.38
470.23	397.89
470.41	402.57
470.59	428.32
470.77	397.89
470.95	346.40
471.14	416.62
471.32	418.96
471.50	414.27
471.68	330.02
471.86	355.76
472.04	393.21
472.22	461.09
472.40	381.51
472.58	454.06
472.77	353.42
472.95	414.27
473.13	430.66
473.31	418.96
473.49	393.21
473.67	437.68
473.85	435.34
474.03	395.55
474.21	404.91
474.39	418.96
474.57	397.89
474.75	519.60
474.93	437.68
475.12	395.55
475.30	393.21
475.48	365.12
475.66	442.36
475.84	346.40
476.02	381.51
476.20	456.40
476.38	435.34
476.56	472.79
476.74	425.98
476.92	458.74
477.10	397.89
477.28	484.49
477.46	402.57
477.64	425.98
477.82	421.30
478.00	386.19
478.18	433.00
478.36	458.74
478.54	416.62
478.72	418.96
478.90	362.78
479.08	355.76
479.26	440.02
479.44	393.21
479.62	393.21
479.80	414.27
479.98	411.93
480.16	425.98
480.34	418.96
480.52	402.57
480.70	465.77
480.88	404.91
481.06	402.57
481.24	383.85
481.41	374.49
481.59	421.30
481.77	414.27
481.95	468.11
482.13	461.09
482.31	435.34
482.49	400.23
482.67	409.59
482.85	362.78
483.03	414.27
483.21	402.57
483.39	407.25
483.57	386.19
483.74	390.87
483.92	409.59
484.10	379.17
484.28	409.59
484.46	433.00
484.64	409.59
484.82	404.91
485.00	475.13
485.18	444.70
485.35	407.25
485.53	409.59
485.71	435.34
485.89	404.91
486.07	423.64
486.25	414.27
486.43	428.32
486.61	433.00
486.78	407.25
486.96	388.53
487.14	388.53
487.32	430.66
487.50	409.59
487.68	418.96
487.85	332.36
488.03	322.99
488.21	386.19
488.39	409.59
488.57	421.30
488.75	423.64
488.92	489.17
489.10	397.89
489.28	428.32
489.46	414.27
489.64	351.08
489.81	475.13
489.99	341.72
490.17	353.42
490.35	550.03
490.53	390.87
490.70	442.36
490.88	444.70
491.06	397.89
491.24	358.10
491.41	437.68
491.59	475.13
491.77	407.25
491.95	390.87
492.13	414.27
492.30	514.92
492.48	423.64
492.66	449.38
492.84	449.38
493.01	400.23
493.19	395.55
493.37	470.45
493.54	372.15
493.72	421.30
493.90	402.57
494.08	458.74
494.25	388.53
494.43	444.70
494.61	416.62
494.79	397.89
494.96	423.64
495.14	409.59
495.32	414.27
495.49	449.38
495.67	369.80
495.85	435.34
496.02	362.78
496.20	404.91
496.38	433.00
496.55	393.21
496.73	395.55
496.91	409.59
497.09	414.27
497.26	337.04
497.44	360.44
497.62	465.77
497.79	416.62
497.97	500.87
498.14	376.83
498.32	428.32
498.50	341.72
498.67	407.25
498.85	442.36
499.03	437.68
499.20	425.98
499.38	381.51
499.56	386.19
499.73	503.22
499.91	416.62
500.08	423.64
500.26	358.10
500.44	463.43
500.61	416.62
500.79	353.42
500.97	383.85
501.14	409.59
501.32	484.49
501.49	472.79
501.67	388.53
501.84	430.66
502.02	381.51
502.20	454.06
502.37	456.40
502.55	376.83
502.72	433.00
502.90	470.45
503.07	393.21
503.25	486.83
503.43	411.93
503.60	493.85
503.78	421.30
503.95	449.38
504.13	428.32
504.30	355.76
504.48	411.93
504.65	491.51
504.83	360.44
505.01	425.98
505.18	470.45
505.36	433.00
505.53	461.09
505.71	390.87
505.88	407.25
506.06	381.51
506.23	400.23
506.41	404.91
506.58	386.19
506.76	367.46
506.93	390.87
507.11	404.91
507.28	409.59
507.46	463.43
507.63	425.98
507.81	390.87
507.98	397.89
508.16	379.17
508.33	451.72
508.50	433.00
508.68	407.25
508.85	411.93
509.03	397.89
509.20	435.34
509.38	402.57
509.55	435.34
509.73	416.62
509.90	393.21
510.08	393.21
510.25	376.83
510.42	447.04
510.60	444.70
510.77	463.43
510.95	402.57
511.12	365.12
511.30	369.80
511.47	369.80
511.64	470.45
511.82	442.36
511.99	451.72
512.17	390.87
512.34	444.70
512.51	383.85
512.69	435.34
512.86	477.47
513.04	435.34
513.21	447.04
513.38	407.25
513.56	435.34
513.73	433.00
513.90	388.53
514.08	388.53
514.25	416.62
514.43	449.38
514.60	395.55
514.77	388.53
514.95	447.04
515.12	379.17
515.29	447.04
515.47	489.17
515.64	440.02
515.81	388.53
515.99	421.30
516.16	388.53
516.33	437.68
516.51	400.23
516.68	440.02
516.85	440.02
517.03	332.36
517.20	430.66
517.37	423.64
517.54	411.93
517.72	435.34
517.89	294.91
518.06	344.06
518.24	449.38
518.41	489.17
518.58	472.79
518.75	367.46
518.93	402.57
519.10	526.62
519.27	376.83
519.45	407.25
519.62	330.02
519.79	416.62
519.96	411.93
520.14	362.78
520.31	423.64
520.48	484.49
520.65	414.27
520.83	416.62
521.00	355.76
521.17	442.36
521.34	393.21
521.52	414.27
521.69	388.53
521.86	411.93
522.03	402.57
522.20	475.13
522.38	397.89
522.55	414.27
522.72	376.83
522.89	470.45
523.07	486.83
523.24	320.65
523.41	416.62
523.58	381.51
523.75	458.74
523.92	447.04
524.10	358.10
524.27	388.53
524.44	463.43
524.61	470.45
524.78	365.12
524.96	435.34
525.13	386.19
525.30	435.34
525.47	376.83
525.64	393.21
525.81	465.77
525.98	493.85
526.16	456.40
526.33	425.98
526.50	498.53
526.67	388.53
526.84	346.40
527.01	390.87
527.18	393.21
527.36	414.27
527.53	421.30
527.70	365.12
527.87	367.46
528.04	435.34
528.21	374.49
528.38	418.96
528.55	437.68
528.72	491.51
528.89	463.43
529.07	400.23
529.24	449.38
529.41	470.45
529.58	400.23
529.75	393.21
529.92	393.21
530.09	447.04
530.26	440.02
530.43	430.66
530.60	416.62
530.77	376.83
530.94	397.89
531.11	397.89
531.28	421.30
531.46	376.83
531.63	430.66
531.80	461.09
531.97	395.55
532.14	449.38
532.31	435.34
532.48	360.44
532.65	383.85
532.82	397.89
532.99	477.47
533.16	437.68
533.33	411.93
533.50	325.33
533.67	353.42
533.84	449.38
534.01	456.40
534.18	374.49
534.35	376.83
534.52	369.80
534.69	444.70
534.86	367.46
535.03	454.06
535.20	430.66
535.37	428.32
535.54	437.68
535.71	421.30
535.88	496.19
536.05	332.36
536.22	498.53
536.38	390.87
536.55	442.36
536.72	390.87
536.89	397.89
537.06	374.49
537.23	423.64
537.40	400.23
537.57	381.51
537.74	486.83
537.91	451.72
538.08	360.44
538.25	393.21
538.42	346.40
538.59	414.27
538.75	416.62
538.92	430.66
539.09	449.38
539.26	416.62
539.43	442.36
539.60	442.36
539.77	433.00
539.94	425.98
540.11	418.96
540.28	458.74
540.44	449.38
540.61	423.64
540.78	416.62
540.95	358.10
541.12	461.09
541.29	409.59
541.46	409.59
541.62	430.66
541.79	423.64
541.96	416.62
542.13	411.93
542.30	372.15
542.47	463.43
542.63	355.76
542.80	362.78
542.97	465.77
543.14	390.87
543.31	447.04
543.48	402.57
543.64	383.85
543.81	449.38
543.98	451.72
544.15	379.17
544.32	411.93
544.48	440.02
544.65	402.57
544.82	418.96
544.99	447.04
545.16	404.91
545.32	425.98
545.49	416.62
545.66	437.68
545.83	360.44
546.00	496.19
546.16	409.59
546.33	355.76
546.50	346.40
546.67	425.98
546.83	442.36
547.00	372.15
547.17	386.19
547.34	433.00
547.50	379.17
547.67	374.49
547.84	379.17
548.00	458.74
548.17	397.89
548.34	444.70
548.51	393.21
548.67	400.23
548.84	423.64
549.01	402.57
549.18	388.53
549.34	411.93
549.51	423.64
549.68	395.55
549.84	365.12
550.01	430.66
550.18	381.51
550.34	430.66
550.51	397.89
550.68	442.36
550.84	435.34
551.01	390.87
551.18	400.23
551.34	367.46
551.51	407.25
551.68	362.78
551.84	437.68
552.01	407.25
552.18	411.93
552.34	430.66
552.51	440.02
552.68	428.32
552.84	444.70
553.01	421.30
553.18	397.89
553.34	374.49
553.51	395.55
553.67	442.36
553.84	440.02
554.01	402.57
554.17	430.66
554.34	376.83
554.51	425.98
554.67	440.02
554.84	454.06
555.00	407.25
555.17	458.74
555.33	449.38
555.50	430.66
555.67	407.25
555.83	449.38
556.00	416.62
556.16	472.79
556.33	433.00
556.50	397.89
556.66	388.53
556.83	404.91
556.99	444.70
557.16	395.55
557.32	393.21
557.49	367.46
557.65	425.98
557.82	404.91
557.98	454.06
558.15	330.02
558.32	458.74
558.48	379.17
558.65	404.91
558.81	423.64
558.98	444.70
559.14	433.00
559.31	482.15
559.47	383.85
559.64	388.53
559.80	423.64
559.97	351.08
560.13	442.36
560.30	369.80
560.46	344.06
560.63	393.21
560.79	332.36
560.96	386.19
561.12	440.02
561.29	444.70
561.45	395.55
561.61	463.43
561.78	465.77
561.94	433.00
562.11	421.30
562.27	430.66
562.44	355.76
562.60	430.66
562.77	402.57
562.93	468.11
563.10	465.77
563.26	442.36
563.42	433.00
563.59	491.51
563.75	425.98
563.92	444.70
564.08	442.36
564.24	428.32
564.41	493.85
564.57	372.15
564.74	379.17
564.90	379.17
565.07	482.15
565.23	449.38
565.39	400.23
565.56	414.27
565.72	376.83
565.88	486.83
566.05	451.72
566.21	325.33
566.38	430.66
566.54	404.91
566.70	416.62
566.87	395.55
567.03	402.57
567.19	456.40
567.36	428.32
567.52	416.62
567.68	430.66
567.85	383.85
568.01	416.62
568.17	416.62
568.34	421.30
568.50	449.38
568.66	449.38
568.83	425.98
568.99	456.40
569.15	365.12
569.32	418.96
569.48	451.72
569.64	496.19
569.81	421.30
569.97	421.30
570.13	489.17
570.30	437.68
570.46	346.40
570.62	367.46
570.78	407.25
570.95	395.55
571.11	376.83
571.27	433.00
571.43	404.91
571.60	470.45
571.76	411.93
571.92	435.34
572.09	337.04
572.25	404.91
572.41	440.02
572.57	416.62
572.74	479.81
572.90	454.06
573.06	456.40
573.22	435.34
573.38	423.64
573.55	411.93
573.71	430.66
573.87	400.23
574.03	449.38
574.20	409.59
574.36	514.92
574.52	372.15
574.68	418.96
574.84	472.79
575.01	404.91
575.17	379.17
575.33	346.40
575.49	447.04
575.65	383.85
575.82	376.83
575.98	447.04
576.14	365.12
576.30	344.06
576.46	421.30
576.62	388.53
576.79	475.13
576.95	449.38
577.11	379.17
577.27	416.62
577.43	437.68
577.59	388.53
577.75	442.36
577.92	395.55
578.08	388.53
578.24	400.23
578.40	411.93
578.56	440.02
578.72	428.32
578.88	444.70
579.04	411.93
579.21	409.59
579.37	418.96
579.53	379.17
579.69	414.27
579.85	360.44
580.01	451.72
580.17	430.66
580.33	416.62
580.49	461.09
580.65	390.87
580.82	407.25
580.98	402.57
581.14	386.19
581.30	400.23
581.46	379.17
581.62	477.47
581.78	393.21
581.94	418.96
582.10	416.62
582.26	390.87
582.42	407.25
582.58	348.74
582.74	379.17
582.90	482.15
583.06	395.55
583.22	404.91
583.38	395.55
583.54	449.38
583.70	402.57
583.86	332.36
584.02	390.87
584.18	440.02
584.34	353.42
584.50	351.08
584.66	416.62
584.82	330.02
584.98	395.55
585.14	379.17
585.30	461.09
585.46	447.04
585.62	369.80
585.78	430.66
585.94	425.98
586.10	418.96
586.26	362.78
586.42	428.32
586.58	367.46
586.74	475.13
586.90	386.19
587.06	461.09
587.22	416.62
587.38	381.51
587.54	365.12
587.70	470.45
587.86	407.25
588.02	416.62
588.18	362.78
588.34	411.93
588.49	393.21
588.65	458.74
588.81	428.32
588.97	423.64
589.13	411.93
589.29	454.06
589.45	447.04
589.61	440.02
589.77	425.98
589.93	444.70
590.08	358.10
590.24	477.47
590.40	435.34
590.56	425.98
590.72	475.13
590.88	428.32
591.04	433.00
591.20	390.87
591.35	496.19
591.51	376.83
591.67	458.74
591.83	379.17
591.99	346.40
592.15	440.02
592.31	414.27
592.46	411.93
592.62	402.57
592.78	414.27
592.94	418.96
593.10	407.25
593.26	425.98
593.41	397.89
593.57	423.64
593.73	449.38
593.89	348.74
594.05	379.17
594.20	355.76
594.36	507.90
594.52	423.64
594.68	433.00
594.84	477.47
594.99	447.04
595.15	400.23
595.31	388.53
595.47	437.68
595.62	411.93
595.78	437.68
595.94	440.02
596.10	407.25
596.25	402.57
596.41	442.36
596.57	454.06
596.73	437.68
596.88	383.85
597.04	435.34
597.20	395.55
597.36	430.66
597.51	395.55
597.67	372.15
597.83	475.13
597.99	379.17
598.14	411.93
598.30	404.91
598.46	456.40
598.61	418.96
598.77	475.13
598.93	440.02
599.09	334.70
599.24	416.62
599.40	423.64
599.56	418.96
599.71	393.21
599.87	456.40
600.03	416.62
600.18	414.27
600.34	437.68
600.50	444.70
600.65	397.89
600.81	479.81
600.97	367.46
601.12	482.15
601.28	454.06
601.44	463.43
601.59	463.43
601.75	376.83
601.91	367.46
602.06	388.53
602.22	482.15
602.37	444.70
602.53	468.11
602.69	442.36
602.84	362.78
603.00	416.62
603.16	444.70
603.31	348.74
603.47	477.47
603.62	348.74
603.78	362.78
603.94	421.30
604.09	404.91
604.25	447.04
604.40	348.74
604.56	418.96
604.71	444.70
604.87	456.40
605.03	454.06
605.18	414.27
605.34	414.27
605.49	390.87
605.65	395.55
605.80	407.25
605.96	433.00
606.12	435.34
606.27	461.09
606.43	346.40
606.58	402.57
606.74	500.87
606.89	477.47
607.05	402.57
607.20	400.23
607.36	395.55
607.51	421.30
607.67	400.23
607.82	498.53
607.98	449.38
608.13	451.72
608.29	435.34
608.44	470.45
608.60	451.72
608.75	447.04
608.91	461.09
609.06	374.49
609.22	454.06
609.37	454.06
609.53	360.44
609.68	440.02
609.84	388.53
609.99	299.59
610.15	451.72
