SpectraSuite Data File
++++++++++++++++++++++++++++++++++++
Date: Fri Oct 25 12:10:07 EDT 2013
User: price-jones
Dark Spectrum Present: No
Reference Spectrum Present: No
Number of Sampled Component Spectra: 1
Spectrometers: USB2+H05261
Integration Time (usec): 100000 (USB2+H05261)
Spectra Averaged: 1 (USB2+H05261)
Boxcar Smoothing: 0 (USB2+H05261)
Correct for Electrical Dark: No (USB2+H05261)
Strobe/Lamp Enabled: No (USB2+H05261)
Correct for Detector Non-linearity: No (USB2+H05261)
Correct for Stray Light: No (USB2+H05261)
Number of Pixels in Processed Spectrum: 2048
>>>>>Begin Processed Spectral Data<<<<<
365.73	327.68
365.92	327.68
366.12	327.68
366.32	264.48
366.52	337.04
366.72	301.93
366.91	248.10
367.11	229.37
367.31	241.08
367.51	180.22
367.70	187.24
367.90	227.03
368.10	224.69
368.30	177.88
368.49	224.69
368.69	283.20
368.89	292.57
369.09	299.59
369.28	227.03
369.48	245.76
369.68	238.73
369.87	266.82
370.07	271.50
370.27	355.76
370.47	330.02
370.66	273.84
370.86	383.85
371.06	320.65
371.25	355.76
371.45	311.29
371.65	372.15
371.84	386.19
372.04	337.04
372.24	404.91
372.44	418.96
372.63	337.04
372.83	428.32
373.03	463.43
373.22	386.19
373.42	409.59
373.62	437.68
373.81	400.23
374.01	355.76
374.21	397.89
374.40	433.00
374.60	458.74
374.79	365.12
374.99	477.47
375.19	447.04
375.38	400.23
375.58	475.13
375.78	444.70
375.97	411.93
376.17	423.64
376.37	397.89
376.56	440.02
376.76	390.87
376.95	362.78
377.15	470.45
377.35	355.76
377.54	407.25
377.74	397.89
377.93	381.51
378.13	418.96
378.33	482.15
378.52	430.66
378.72	407.25
378.91	468.11
379.11	367.46
379.31	416.62
379.50	337.04
379.70	421.30
379.89	454.06
380.09	418.96
380.28	400.23
380.48	416.62
380.68	369.80
380.87	411.93
381.07	400.23
381.26	416.62
381.46	383.85
381.65	379.17
381.85	400.23
382.04	489.17
382.24	381.51
382.43	376.83
382.63	358.10
382.83	369.80
383.02	390.87
383.22	421.30
383.41	440.02
383.61	437.68
383.80	491.51
384.00	416.62
384.19	358.10
384.39	402.57
384.58	397.89
384.78	383.85
384.97	372.15
385.17	416.62
385.36	402.57
385.56	367.46
385.75	386.19
385.95	393.21
386.14	400.23
386.34	374.49
386.53	428.32
386.72	325.33
386.92	423.64
387.11	409.59
387.31	411.93
387.50	407.25
387.70	397.89
387.89	409.59
388.09	376.83
388.28	407.25
388.48	346.40
388.67	400.23
388.86	428.32
389.06	437.68
389.25	372.15
389.45	367.46
389.64	428.32
389.84	418.96
390.03	407.25
390.22	376.83
390.42	437.68
390.61	447.04
390.81	409.59
391.00	404.91
391.19	402.57
391.39	468.11
391.58	390.87
391.78	400.23
391.97	428.32
392.16	425.98
392.36	463.43
392.55	400.23
392.75	395.55
392.94	414.27
393.13	463.43
393.33	376.83
393.52	404.91
393.71	470.45
393.91	362.78
394.10	369.80
394.29	372.15
394.49	425.98
394.68	407.25
394.88	374.49
395.07	379.17
395.26	383.85
395.46	458.74
395.65	404.91
395.84	374.49
396.04	449.38
396.23	416.62
396.42	344.06
396.62	372.15
396.81	395.55
397.00	304.27
397.19	379.17
397.39	416.62
397.58	477.47
397.77	397.89
397.97	411.93
398.16	404.91
398.35	425.98
398.55	444.70
398.74	381.51
398.93	330.02
399.12	430.66
399.32	409.59
399.51	402.57
399.70	383.85
399.90	437.68
400.09	463.43
400.28	430.66
400.47	386.19
400.67	400.23
400.86	386.19
401.05	393.21
401.24	449.38
401.44	433.00
401.63	442.36
401.82	367.46
402.01	414.27
402.21	395.55
402.40	407.25
402.59	421.30
402.78	386.19
402.97	381.51
403.17	393.21
403.36	400.23
403.55	393.21
403.74	381.51
403.93	393.21
404.13	449.38
404.32	437.68
404.51	379.17
404.70	381.51
404.89	362.78
405.09	404.91
405.28	433.00
405.47	435.34
405.66	402.57
405.85	421.30
406.05	348.74
406.24	400.23
406.43	414.27
406.62	402.57
406.81	475.13
407.00	379.17
407.20	367.46
407.39	386.19
407.58	416.62
407.77	365.12
407.96	386.19
408.15	383.85
408.34	447.04
408.54	421.30
408.73	423.64
408.92	418.96
409.11	440.02
409.30	362.78
409.49	449.38
409.68	454.06
409.87	409.59
410.07	369.80
410.26	418.96
410.45	421.30
410.64	402.57
410.83	425.98
411.02	374.49
411.21	397.89
411.40	454.06
411.59	430.66
411.78	388.53
411.98	416.62
412.17	404.91
412.36	386.19
412.55	397.89
412.74	444.70
412.93	470.45
413.12	386.19
413.31	407.25
413.50	454.06
413.69	437.68
413.88	437.68
414.07	376.83
414.26	475.13
414.45	386.19
414.64	407.25
414.83	404.91
415.02	475.13
415.22	379.17
415.41	369.80
415.60	381.51
415.79	376.83
415.98	390.87
416.17	421.30
416.36	411.93
416.55	421.30
416.74	409.59
416.93	456.40
417.12	390.87
417.31	374.49
417.50	388.53
417.69	433.00
417.88	393.21
418.07	430.66
418.26	440.02
418.45	388.53
418.64	423.64
418.83	414.27
419.02	442.36
419.21	461.09
419.39	472.79
419.58	355.76
419.77	360.44
419.96	472.79
420.15	484.49
420.34	334.70
420.53	407.25
420.72	411.93
420.91	416.62
421.10	367.46
421.29	437.68
421.48	463.43
421.67	454.06
421.86	409.59
422.05	423.64
422.24	409.59
422.43	386.19
422.61	416.62
422.80	409.59
422.99	472.79
423.18	447.04
423.37	444.70
423.56	421.30
423.75	365.12
423.94	416.62
424.13	428.32
424.32	435.34
424.50	372.15
424.69	376.83
424.88	500.87
425.07	320.65
425.26	358.10
425.45	393.21
425.64	376.83
425.83	423.64
426.01	411.93
426.20	402.57
426.39	416.62
426.58	372.15
426.77	393.21
426.96	468.11
427.15	437.68
427.33	369.80
427.52	458.74
427.71	416.62
427.90	344.06
428.09	400.23
428.28	491.51
428.46	407.25
428.65	456.40
428.84	449.38
429.03	383.85
429.22	418.96
429.40	332.36
429.59	404.91
429.78	437.68
429.97	376.83
430.16	437.68
430.34	334.70
430.53	421.30
430.72	388.53
430.91	402.57
431.10	411.93
431.28	372.15
431.47	425.98
431.66	339.38
431.85	411.93
432.03	400.23
432.22	425.98
432.41	386.19
432.60	456.40
432.79	402.57
432.97	402.57
433.16	402.57
433.35	367.46
433.54	463.43
433.72	456.40
433.91	430.66
434.10	421.30
434.28	372.15
434.47	381.51
434.66	372.15
434.85	428.32
435.03	430.66
435.22	388.53
435.41	411.93
435.59	433.00
435.78	411.93
435.97	407.25
436.16	442.36
436.34	435.34
436.53	440.02
436.72	456.40
436.90	430.66
437.09	428.32
437.28	372.15
437.46	322.99
437.65	383.85
437.84	491.51
438.02	379.17
438.21	456.40
438.40	442.36
438.58	383.85
438.77	402.57
438.96	402.57
439.14	360.44
439.33	444.70
439.52	400.23
439.70	351.08
439.89	393.21
440.08	400.23
440.26	395.55
440.45	411.93
440.63	393.21
440.82	395.55
441.01	397.89
441.19	339.38
441.38	393.21
441.57	425.98
441.75	407.25
441.94	386.19
442.12	477.47
442.31	395.55
442.50	428.32
442.68	404.91
442.87	421.30
443.05	447.04
443.24	461.09
443.43	451.72
443.61	379.17
443.80	407.25
443.98	353.42
444.17	470.45
444.35	379.17
444.54	428.32
444.73	402.57
444.91	465.77
445.10	393.21
445.28	395.55
445.47	362.78
445.65	367.46
445.84	393.21
446.02	458.74
446.21	444.70
446.39	421.30
446.58	346.40
446.77	381.51
446.95	369.80
447.14	418.96
447.32	461.09
447.51	491.51
447.69	400.23
447.88	397.89
448.06	365.12
448.25	423.64
448.43	402.57
448.62	304.27
448.80	362.78
448.99	402.57
449.17	423.64
449.36	472.79
449.54	409.59
449.73	449.38
449.91	425.98
450.10	437.68
450.28	423.64
450.46	437.68
450.65	362.78
450.83	395.55
451.02	409.59
451.20	435.34
451.39	449.38
451.57	418.96
451.76	360.44
451.94	355.76
452.13	444.70
452.31	428.32
452.49	416.62
452.68	418.96
452.86	433.00
453.05	423.64
453.23	390.87
453.42	372.15
453.60	376.83
453.78	381.51
453.97	461.09
454.15	341.72
454.34	376.83
454.52	386.19
454.70	430.66
454.89	344.06
455.07	386.19
455.26	402.57
455.44	409.59
455.62	400.23
455.81	372.15
455.99	423.64
456.17	383.85
456.36	402.57
456.54	369.80
456.73	400.23
456.91	428.32
457.09	353.42
457.28	461.09
457.46	411.93
457.64	468.11
457.83	397.89
458.01	360.44
458.19	414.27
458.38	355.76
458.56	437.68
458.74	402.57
458.93	386.19
459.11	407.25
459.29	376.83
459.48	397.89
459.66	435.34
459.84	444.70
460.03	372.15
460.21	437.68
460.39	402.57
460.57	454.06
460.76	353.42
460.94	327.68
461.12	404.91
461.31	393.21
461.49	425.98
461.67	393.21
461.85	379.17
462.04	362.78
462.22	760.67
462.40	461.09
462.59	430.66
462.77	447.04
462.95	386.19
463.13	362.78
463.32	437.68
463.50	454.06
463.68	346.40
463.86	397.89
464.05	409.59
464.23	425.98
464.41	407.25
464.59	390.87
464.78	416.62
464.96	425.98
465.14	421.30
465.32	454.06
465.50	454.06
465.69	409.59
465.87	425.98
466.05	430.66
466.23	423.64
466.41	433.00
466.60	334.70
466.78	451.72
466.96	409.59
467.14	383.85
467.32	367.46
467.51	390.87
467.69	393.21
467.87	447.04
468.05	400.23
468.23	433.00
468.41	484.49
468.60	383.85
468.78	376.83
468.96	409.59
469.14	355.76
469.32	404.91
469.50	376.83
469.69	437.68
469.87	433.00
470.05	379.17
470.23	390.87
470.41	456.40
470.59	339.38
470.77	414.27
470.95	421.30
471.14	442.36
471.32	395.55
471.50	428.32
471.68	390.87
471.86	355.76
472.04	400.23
472.22	390.87
472.40	397.89
472.58	430.66
472.77	428.32
472.95	400.23
473.13	442.36
473.31	418.96
473.49	489.17
473.67	411.93
473.85	435.34
474.03	425.98
474.21	440.02
474.39	383.85
474.57	447.04
474.75	451.72
474.93	440.02
475.12	388.53
475.30	430.66
475.48	470.45
475.66	381.51
475.84	486.83
476.02	442.36
476.20	425.98
476.38	351.08
476.56	451.72
476.74	425.98
476.92	416.62
477.10	435.34
477.28	404.91
477.46	390.87
477.64	416.62
477.82	451.72
478.00	423.64
478.18	348.74
478.36	430.66
478.54	367.46
478.72	358.10
478.90	472.79
479.08	397.89
479.26	416.62
479.44	428.32
479.62	521.94
479.80	383.85
479.98	411.93
480.16	332.36
480.34	409.59
480.52	421.30
480.70	390.87
480.88	397.89
481.06	458.74
481.24	358.10
481.41	372.15
481.59	369.80
481.77	444.70
481.95	409.59
482.13	433.00
482.31	433.00
482.49	421.30
482.67	397.89
482.85	360.44
483.03	458.74
483.21	428.32
483.39	404.91
483.57	388.53
483.74	414.27
483.92	423.64
484.10	402.57
484.28	381.51
484.46	463.43
484.64	362.78
484.82	346.40
485.00	418.96
485.18	442.36
485.35	440.02
485.53	369.80
485.71	484.49
485.89	395.55
486.07	404.91
486.25	477.47
486.43	409.59
486.61	440.02
486.78	416.62
486.96	351.08
487.14	437.68
487.32	423.64
487.50	402.57
487.68	383.85
487.85	425.98
488.03	397.89
488.21	458.74
488.39	444.70
488.57	472.79
488.75	353.42
488.92	594.50
489.10	379.17
489.28	465.77
489.46	468.11
489.64	355.76
489.81	475.13
489.99	475.13
490.17	367.46
490.35	447.04
490.53	423.64
490.70	362.78
490.88	486.83
491.06	418.96
491.24	367.46
491.41	425.98
491.59	409.59
491.77	322.99
491.95	428.32
492.13	461.09
492.30	430.66
492.48	479.81
492.66	435.34
492.84	479.81
493.01	381.51
493.19	444.70
493.37	428.32
493.54	484.49
493.72	365.12
493.90	411.93
494.08	418.96
494.25	430.66
494.43	409.59
494.61	440.02
494.79	430.66
494.96	425.98
495.14	475.13
495.32	360.44
495.49	465.77
495.67	404.91
495.85	360.44
496.02	386.19
496.20	425.98
496.38	418.96
496.55	379.17
496.73	456.40
496.91	376.83
497.09	449.38
497.26	425.98
497.44	397.89
497.62	402.57
497.79	400.23
497.97	374.49
498.14	407.25
498.32	440.02
498.50	404.91
498.67	409.59
498.85	454.06
499.03	491.51
499.20	425.98
499.38	411.93
499.56	458.74
499.73	477.47
499.91	414.27
500.08	374.49
500.26	393.21
500.44	400.23
500.61	374.49
500.79	416.62
500.97	379.17
501.14	437.68
501.32	414.27
501.49	365.12
501.67	433.00
501.84	447.04
502.02	383.85
502.20	423.64
502.37	463.43
502.55	390.87
502.72	491.51
502.90	411.93
503.07	367.46
503.25	383.85
503.43	404.91
503.60	430.66
503.78	433.00
503.95	409.59
504.13	425.98
504.30	397.89
504.48	388.53
504.65	468.11
504.83	470.45
505.01	411.93
505.18	402.57
505.36	285.55
505.53	456.40
505.71	367.46
505.88	470.45
506.06	444.70
506.23	346.40
506.41	390.87
506.58	484.49
506.76	386.19
506.93	433.00
507.11	437.68
507.28	421.30
507.46	395.55
507.63	437.68
507.81	444.70
507.98	425.98
508.16	404.91
508.33	383.85
508.50	435.34
508.68	454.06
508.85	383.85
509.03	397.89
509.20	423.64
509.38	437.68
509.55	411.93
509.73	367.46
509.90	437.68
510.08	383.85
510.25	400.23
510.42	367.46
510.60	395.55
510.77	372.15
510.95	458.74
511.12	414.27
511.30	456.40
511.47	437.68
511.64	524.28
511.82	411.93
511.99	444.70
512.17	407.25
512.34	388.53
512.51	463.43
512.69	435.34
512.86	447.04
513.04	461.09
513.21	491.51
513.38	381.51
513.56	313.63
513.73	444.70
513.90	421.30
514.08	463.43
514.25	437.68
514.43	374.49
514.60	407.25
514.77	463.43
514.95	479.81
515.12	418.96
515.29	463.43
515.47	411.93
515.64	355.76
515.81	442.36
515.99	388.53
516.16	451.72
516.33	425.98
516.51	416.62
516.68	411.93
516.85	411.93
517.03	358.10
517.20	358.10
517.37	369.80
517.54	423.64
517.72	437.68
517.89	416.62
518.06	386.19
518.24	505.56
518.41	411.93
518.58	486.83
518.75	372.15
518.93	383.85
519.10	367.46
519.27	381.51
519.45	393.21
519.62	461.09
519.79	402.57
519.96	409.59
520.14	393.21
520.31	461.09
520.48	409.59
520.65	444.70
520.83	498.53
521.00	437.68
521.17	400.23
521.34	400.23
521.52	414.27
521.69	440.02
521.86	407.25
522.03	411.93
522.20	421.30
522.38	454.06
522.55	433.00
522.72	461.09
522.89	421.30
523.07	447.04
523.24	353.42
523.41	353.42
523.58	444.70
523.75	388.53
523.92	416.62
524.10	416.62
524.27	383.85
524.44	386.19
524.61	411.93
524.78	430.66
524.96	404.91
525.13	411.93
525.30	489.17
525.47	388.53
525.64	449.38
525.81	430.66
525.98	346.40
526.16	425.98
526.33	358.10
526.50	498.53
526.67	486.83
526.84	433.00
527.01	397.89
527.18	491.51
527.36	397.89
527.53	376.83
527.70	444.70
527.87	397.89
528.04	402.57
528.21	458.74
528.38	421.30
528.55	489.17
528.72	407.25
528.89	409.59
529.07	477.47
529.24	430.66
529.41	407.25
529.58	400.23
529.75	468.11
529.92	409.59
530.09	440.02
530.26	404.91
530.43	449.38
530.60	360.44
530.77	414.27
530.94	374.49
531.11	449.38
531.28	388.53
531.46	395.55
531.63	348.74
531.80	381.51
531.97	444.70
532.14	425.98
532.31	479.81
532.48	503.22
532.65	423.64
532.82	395.55
532.99	372.15
533.16	372.15
533.33	395.55
533.50	418.96
533.67	425.98
533.84	461.09
534.01	468.11
534.18	447.04
534.35	416.62
534.52	414.27
534.69	404.91
534.86	414.27
535.03	409.59
535.20	444.70
535.37	428.32
535.54	458.74
535.71	421.30
535.88	472.79
536.05	421.30
536.22	325.33
536.38	451.72
536.55	393.21
536.72	451.72
536.89	348.74
537.06	393.21
537.23	411.93
537.40	395.55
537.57	386.19
537.74	491.51
537.91	482.15
538.08	313.63
538.25	456.40
538.42	433.00
538.59	454.06
538.75	456.40
538.92	414.27
539.09	447.04
539.26	449.38
539.43	428.32
539.60	374.49
539.77	383.85
539.94	430.66
540.11	411.93
540.28	437.68
540.44	416.62
540.61	393.21
540.78	477.47
540.95	463.43
541.12	411.93
541.29	433.00
541.46	421.30
541.62	393.21
541.79	409.59
541.96	414.27
542.13	388.53
542.30	397.89
542.47	397.89
542.63	437.68
542.80	482.15
542.97	407.25
543.14	393.21
543.31	461.09
543.48	510.24
543.64	402.57
543.81	397.89
543.98	379.17
544.15	397.89
544.32	358.10
544.48	442.36
544.65	437.68
544.82	442.36
544.99	404.91
545.16	372.15
545.32	386.19
545.49	454.06
545.66	411.93
545.83	479.81
546.00	416.62
546.16	425.98
546.33	407.25
546.50	411.93
546.67	456.40
546.83	425.98
547.00	470.45
547.17	454.06
547.34	388.53
547.50	386.19
547.67	397.89
547.84	362.78
548.00	416.62
548.17	428.32
548.34	479.81
548.51	461.09
548.67	519.60
548.84	395.55
549.01	477.47
549.18	442.36
549.34	430.66
549.51	386.19
549.68	409.59
549.84	444.70
550.01	414.27
550.18	430.66
550.34	430.66
550.51	416.62
550.68	472.79
550.84	477.47
551.01	493.85
551.18	479.81
551.34	411.93
551.51	374.49
551.68	425.98
551.84	421.30
552.01	351.08
552.18	477.47
552.34	348.74
552.51	440.02
552.68	409.59
552.84	451.72
553.01	404.91
553.18	388.53
553.34	470.45
553.51	440.02
553.67	444.70
553.84	493.85
554.01	416.62
554.17	409.59
554.34	355.76
554.51	421.30
554.67	435.34
554.84	400.23
555.00	461.09
555.17	430.66
555.33	428.32
555.50	402.57
555.67	397.89
555.83	437.68
556.00	421.30
556.16	571.09
556.33	430.66
556.50	367.46
556.66	435.34
556.83	461.09
556.99	407.25
557.16	505.56
557.32	449.38
557.49	402.57
557.65	360.44
557.82	411.93
557.98	440.02
558.15	444.70
558.32	421.30
558.48	440.02
558.65	404.91
558.81	395.55
558.98	458.74
559.14	381.51
559.31	489.17
559.47	442.36
559.64	411.93
559.80	369.80
559.97	355.76
560.13	465.77
560.30	383.85
560.46	365.12
560.63	390.87
560.79	484.49
560.96	409.59
561.12	468.11
561.29	407.25
561.45	395.55
561.61	374.49
561.78	456.40
561.94	435.34
562.11	435.34
562.27	379.17
562.44	397.89
562.60	390.87
562.77	397.89
562.93	477.47
563.10	397.89
563.26	393.21
563.42	470.45
563.59	484.49
563.75	397.89
563.92	437.68
564.08	369.80
564.24	454.06
564.41	477.47
564.57	393.21
564.74	458.74
564.90	393.21
565.07	430.66
565.23	491.51
565.39	372.15
565.56	442.36
565.72	397.89
565.88	414.27
566.05	456.40
566.21	416.62
566.38	358.10
566.54	482.15
566.70	479.81
566.87	425.98
567.03	437.68
567.19	421.30
567.36	444.70
567.52	477.47
567.68	505.56
567.85	423.64
568.01	416.62
568.17	414.27
568.34	465.77
568.50	505.56
568.66	416.62
568.83	521.94
568.99	351.08
569.15	447.04
569.32	383.85
569.48	294.91
569.64	461.09
569.81	442.36
569.97	400.23
570.13	409.59
570.30	369.80
570.46	430.66
570.62	458.74
570.78	423.64
570.95	407.25
571.11	500.87
571.27	325.33
571.43	381.51
571.60	383.85
571.76	425.98
571.92	411.93
572.09	383.85
572.25	409.59
572.41	472.79
572.57	479.81
572.74	435.34
572.90	444.70
573.06	320.65
573.22	330.02
573.38	362.78
573.55	423.64
573.71	400.23
573.87	484.49
574.03	400.23
574.20	404.91
574.36	411.93
574.52	397.89
574.68	372.15
574.84	388.53
575.01	465.77
575.17	395.55
575.33	465.77
575.49	428.32
575.65	409.59
575.82	376.83
575.98	360.44
576.14	423.64
576.30	461.09
576.46	451.72
576.62	388.53
576.79	381.51
576.95	503.22
577.11	425.98
577.27	409.59
577.43	451.72
577.59	447.04
577.75	451.72
577.92	437.68
578.08	393.21
578.24	402.57
578.40	397.89
578.56	367.46
578.72	435.34
578.88	414.27
579.04	447.04
579.21	414.27
579.37	351.08
579.53	386.19
579.69	468.11
579.85	383.85
580.01	465.77
580.17	416.62
580.33	360.44
580.49	348.74
580.65	416.62
580.82	440.02
580.98	393.21
581.14	374.49
581.30	475.13
581.46	369.80
581.62	437.68
581.78	351.08
581.94	379.17
582.10	411.93
582.26	381.51
582.42	407.25
582.58	386.19
582.74	418.96
582.90	383.85
583.06	451.72
583.22	397.89
583.38	435.34
583.54	421.30
583.70	421.30
583.86	444.70
584.02	395.55
584.18	451.72
584.34	435.34
584.50	416.62
584.66	334.70
584.82	355.76
584.98	416.62
585.14	369.80
585.30	449.38
585.46	428.32
585.62	386.19
585.78	390.87
585.94	372.15
586.10	435.34
586.26	484.49
586.42	484.49
586.58	423.64
586.74	433.00
586.90	461.09
587.06	407.25
587.22	390.87
587.38	458.74
587.54	395.55
587.70	416.62
587.86	425.98
588.02	425.98
588.18	411.93
588.34	470.45
588.49	411.93
588.65	418.96
588.81	479.81
588.97	358.10
589.13	369.80
589.29	451.72
589.45	470.45
589.61	421.30
589.77	425.98
589.93	386.19
590.08	425.98
590.24	395.55
590.40	449.38
590.56	454.06
590.72	334.70
590.88	369.80
591.04	393.21
591.20	362.78
591.35	433.00
591.51	433.00
591.67	447.04
591.83	376.83
591.99	400.23
592.15	435.34
592.31	468.11
592.46	421.30
592.62	465.77
592.78	402.57
592.94	379.17
593.10	425.98
593.26	425.98
593.41	430.66
593.57	400.23
593.73	402.57
593.89	510.24
594.05	421.30
594.20	433.00
594.36	414.27
594.52	433.00
594.68	388.53
594.84	428.32
594.99	500.87
595.15	461.09
595.31	498.53
595.47	454.06
595.62	381.51
595.78	393.21
595.94	442.36
596.10	451.72
596.25	379.17
596.41	442.36
596.57	461.09
596.73	418.96
596.88	472.79
597.04	418.96
597.20	442.36
597.36	437.68
597.51	386.19
597.67	393.21
597.83	346.40
597.99	404.91
598.14	348.74
598.30	463.43
598.46	465.77
598.61	440.02
598.77	456.40
598.93	393.21
599.09	393.21
599.24	440.02
599.40	423.64
599.56	381.51
599.71	421.30
599.87	400.23
600.03	374.49
600.18	428.32
600.34	414.27
600.50	423.64
600.65	421.30
600.81	416.62
600.97	470.45
601.12	372.15
601.28	456.40
601.44	425.98
601.59	402.57
601.75	440.02
601.91	397.89
602.06	428.32
602.22	461.09
602.37	442.36
602.53	437.68
602.69	538.32
602.84	465.77
603.00	404.91
603.16	418.96
603.31	379.17
603.47	409.59
603.62	374.49
603.78	414.27
603.94	447.04
604.09	386.19
604.25	437.68
604.40	428.32
604.56	381.51
604.71	470.45
604.87	414.27
605.03	421.30
605.18	362.78
605.34	449.38
605.49	442.36
605.65	372.15
605.80	400.23
605.96	365.12
606.12	475.13
606.27	533.64
606.43	423.64
606.58	437.68
606.74	454.06
606.89	369.80
607.05	386.19
607.20	341.72
607.36	463.43
607.51	395.55
607.67	395.55
607.82	416.62
607.98	451.72
608.13	461.09
608.29	367.46
608.44	454.06
608.60	386.19
608.75	456.40
608.91	468.11
609.06	397.89
609.22	496.19
609.37	491.51
609.53	376.83
609.68	433.00
609.84	402.57
609.99	409.59
610.15	381.51
