SpectraSuite Data File
++++++++++++++++++++++++++++++++++++
Date: Fri Oct 25 12:11:46 EDT 2013
User: price-jones
Dark Spectrum Present: No
Reference Spectrum Present: No
Number of Sampled Component Spectra: 1
Spectrometers: USB2+H05261
Integration Time (usec): 100000 (USB2+H05261)
Spectra Averaged: 1 (USB2+H05261)
Boxcar Smoothing: 0 (USB2+H05261)
Correct for Electrical Dark: No (USB2+H05261)
Strobe/Lamp Enabled: No (USB2+H05261)
Correct for Detector Non-linearity: No (USB2+H05261)
Correct for Stray Light: No (USB2+H05261)
Number of Pixels in Processed Spectrum: 2048
>>>>>Begin Processed Spectral Data<<<<<
365.73	369.80
365.92	369.80
366.12	369.80
366.32	299.59
366.52	243.42
366.72	355.76
366.91	222.35
367.11	198.95
367.31	283.20
367.51	276.18
367.70	259.80
367.90	245.76
368.10	255.12
368.30	196.60
368.49	220.01
368.69	273.84
368.89	297.25
369.09	210.65
369.28	271.50
369.48	320.65
369.68	313.63
369.87	346.40
370.07	367.46
370.27	318.31
370.47	358.10
370.66	360.44
370.86	315.97
371.06	372.15
371.25	376.83
371.45	379.17
371.65	376.83
371.84	318.31
372.04	388.53
372.24	416.62
372.44	362.78
372.63	397.89
372.83	379.17
373.03	374.49
373.22	400.23
373.42	442.36
373.62	430.66
373.81	451.72
374.01	409.59
374.21	423.64
374.40	390.87
374.60	463.43
374.79	435.34
374.99	388.53
375.19	507.90
375.38	463.43
375.58	458.74
375.78	407.25
375.97	409.59
376.17	449.38
376.37	400.23
376.56	456.40
376.76	376.83
376.95	409.59
377.15	428.32
377.35	383.85
377.54	397.89
377.74	451.72
377.93	468.11
378.13	440.02
378.33	430.66
378.52	397.89
378.72	386.19
378.91	440.02
379.11	381.51
379.31	390.87
379.50	379.17
379.70	390.87
379.89	440.02
380.09	351.08
380.28	397.89
380.48	362.78
380.68	442.36
380.87	379.17
381.07	489.17
381.26	456.40
381.46	486.83
381.65	414.27
381.85	390.87
382.04	400.23
382.24	339.38
382.43	393.21
382.63	425.98
382.83	409.59
383.02	411.93
383.22	334.70
383.41	407.25
383.61	470.45
383.80	440.02
384.00	416.62
384.19	386.19
384.39	414.27
384.58	423.64
384.78	358.10
384.97	362.78
385.17	402.57
385.36	451.72
385.56	369.80
385.75	440.02
385.95	461.09
386.14	360.44
386.34	430.66
386.53	369.80
386.72	337.04
386.92	381.51
387.11	477.47
387.31	444.70
387.50	365.12
387.70	353.42
387.89	411.93
388.09	388.53
388.28	397.89
388.48	400.23
388.67	381.51
388.86	388.53
389.06	409.59
389.25	411.93
389.45	475.13
389.64	386.19
389.84	465.77
390.03	447.04
390.22	503.22
390.42	330.02
390.61	376.83
390.81	365.12
391.00	402.57
391.19	444.70
391.39	411.93
391.58	409.59
391.78	442.36
391.97	493.85
392.16	454.06
392.36	395.55
392.55	454.06
392.75	407.25
392.94	433.00
393.13	503.22
393.33	458.74
393.52	337.04
393.71	407.25
393.91	433.00
394.10	388.53
394.29	465.77
394.49	372.15
394.68	390.87
394.88	386.19
395.07	456.40
395.26	381.51
395.46	407.25
395.65	437.68
395.84	430.66
396.04	475.13
396.23	395.55
396.42	353.42
396.62	423.64
396.81	402.57
397.00	393.21
397.19	369.80
397.39	442.36
397.58	435.34
397.77	409.59
397.97	386.19
398.16	397.89
398.35	435.34
398.55	395.55
398.74	404.91
398.93	397.89
399.12	454.06
399.32	393.21
399.51	437.68
399.70	442.36
399.90	344.06
400.09	465.77
400.28	465.77
400.47	409.59
400.67	414.27
400.86	411.93
401.05	400.23
401.24	461.09
401.44	444.70
401.63	423.64
401.82	367.46
402.01	376.83
402.21	397.89
402.40	388.53
402.59	411.93
402.78	411.93
402.97	358.10
403.17	479.81
403.36	388.53
403.55	407.25
403.74	404.91
403.93	376.83
404.13	437.68
404.32	442.36
404.51	444.70
404.70	449.38
404.89	433.00
405.09	362.78
405.28	381.51
405.47	440.02
405.66	409.59
405.85	489.17
406.05	461.09
406.24	435.34
406.43	404.91
406.62	386.19
406.81	381.51
407.00	390.87
407.20	409.59
407.39	498.53
407.58	421.30
407.77	416.62
407.96	411.93
408.15	421.30
408.34	404.91
408.54	409.59
408.73	386.19
408.92	430.66
409.11	388.53
409.30	409.59
409.49	376.83
409.68	421.30
409.87	451.72
410.07	479.81
410.26	463.43
410.45	374.49
410.64	425.98
410.83	421.30
411.02	447.04
411.21	400.23
411.40	423.64
411.59	425.98
411.78	416.62
411.98	416.62
412.17	365.12
412.36	379.17
412.55	423.64
412.74	447.04
412.93	444.70
413.12	393.21
413.31	337.04
413.50	428.32
413.69	430.66
413.88	428.32
414.07	433.00
414.26	400.23
414.45	479.81
414.64	407.25
414.83	369.80
415.02	421.30
415.22	407.25
415.41	491.51
415.60	440.02
415.79	369.80
415.98	428.32
416.17	430.66
416.36	395.55
416.55	337.04
416.74	454.06
416.93	444.70
417.12	348.74
417.31	386.19
417.50	421.30
417.69	442.36
417.88	437.68
418.07	383.85
418.26	393.21
418.45	386.19
418.64	440.02
418.83	383.85
419.02	449.38
419.21	372.15
419.39	341.72
419.58	409.59
419.77	383.85
419.96	395.55
420.15	418.96
420.34	479.81
420.53	404.91
420.72	421.30
420.91	416.62
421.10	388.53
421.29	435.34
421.48	430.66
421.67	393.21
421.86	421.30
422.05	444.70
422.24	407.25
422.43	358.10
422.61	407.25
422.80	423.64
422.99	442.36
423.18	390.87
423.37	383.85
423.56	470.45
423.75	444.70
423.94	435.34
424.13	421.30
424.32	402.57
424.50	407.25
424.69	477.47
424.88	447.04
425.07	430.66
425.26	442.36
425.45	444.70
425.64	454.06
425.83	416.62
426.01	496.19
426.20	425.98
426.39	414.27
426.58	379.17
426.77	437.68
426.96	437.68
427.15	388.53
427.33	386.19
427.52	402.57
427.71	393.21
427.90	423.64
428.09	414.27
428.28	381.51
428.46	372.15
428.65	376.83
428.84	418.96
429.03	461.09
429.22	397.89
429.40	355.76
429.59	374.49
429.78	491.51
429.97	374.49
430.16	407.25
430.34	435.34
430.53	414.27
430.72	416.62
430.91	409.59
431.10	388.53
431.28	437.68
431.47	451.72
431.66	411.93
431.85	428.32
432.03	447.04
432.22	440.02
432.41	423.64
432.60	489.17
432.79	374.49
432.97	379.17
433.16	437.68
433.35	447.04
433.54	400.23
433.72	484.49
433.91	355.76
434.10	442.36
434.28	407.25
434.47	304.27
434.66	540.66
434.85	421.30
435.03	449.38
435.22	362.78
435.41	465.77
435.59	425.98
435.78	423.64
435.97	404.91
436.16	414.27
436.34	388.53
436.53	386.19
436.72	425.98
436.90	411.93
437.09	454.06
437.28	421.30
437.46	437.68
437.65	400.23
437.84	468.11
438.02	447.04
438.21	454.06
438.40	454.06
438.58	327.68
438.77	351.08
438.96	472.79
439.14	404.91
439.33	355.76
439.52	414.27
439.70	435.34
439.89	374.49
440.08	402.57
440.26	341.72
440.45	418.96
440.63	367.46
440.82	400.23
441.01	327.68
441.19	435.34
441.38	386.19
441.57	430.66
441.75	397.89
441.94	376.83
442.12	383.85
442.31	493.85
442.50	374.49
442.68	423.64
442.87	430.66
443.05	400.23
443.24	381.51
443.43	458.74
443.61	458.74
443.80	376.83
443.98	510.24
444.17	369.80
444.35	395.55
444.54	433.00
444.73	421.30
444.91	447.04
445.10	470.45
445.28	386.19
445.47	416.62
445.65	433.00
445.84	428.32
446.02	454.06
446.21	428.32
446.39	449.38
446.58	369.80
446.77	330.02
446.95	404.91
447.14	379.17
447.32	458.74
447.51	461.09
447.69	386.19
447.88	407.25
448.06	404.91
448.25	461.09
448.43	486.83
448.62	414.27
448.80	465.77
448.99	489.17
449.17	486.83
449.36	433.00
449.54	477.47
449.73	433.00
449.91	437.68
450.10	418.96
450.28	484.49
450.46	444.70
450.65	421.30
450.83	440.02
451.02	482.15
451.20	423.64
451.39	374.49
451.57	404.91
451.76	407.25
451.94	444.70
452.13	397.89
452.31	423.64
452.49	418.96
452.68	442.36
452.86	433.00
453.05	418.96
453.23	440.02
453.42	390.87
453.60	376.83
453.78	465.77
453.97	449.38
454.15	421.30
454.34	440.02
454.52	362.78
454.70	397.89
454.89	444.70
455.07	423.64
455.26	454.06
455.44	456.40
455.62	388.53
455.81	374.49
455.99	454.06
456.17	449.38
456.36	414.27
456.54	386.19
456.73	386.19
456.91	362.78
457.09	421.30
457.28	428.32
457.46	393.21
457.64	379.17
457.83	365.12
458.01	458.74
458.19	430.66
458.38	468.11
458.56	440.02
458.74	369.80
458.93	383.85
459.11	465.77
459.29	390.87
459.48	433.00
459.66	433.00
459.84	395.55
460.03	433.00
460.21	461.09
460.39	461.09
460.57	470.45
460.76	444.70
460.94	440.02
461.12	430.66
461.31	440.02
461.49	421.30
461.67	458.74
461.85	505.56
462.04	437.68
462.22	821.53
462.40	484.49
462.59	430.66
462.77	351.08
462.95	365.12
463.13	472.79
463.32	465.77
463.50	470.45
463.68	386.19
463.86	463.43
464.05	404.91
464.23	416.62
464.41	337.04
464.59	372.15
464.78	428.32
464.96	461.09
465.14	395.55
465.32	365.12
465.50	449.38
465.69	397.89
465.87	372.15
466.05	477.47
466.23	330.02
466.41	400.23
466.60	383.85
466.78	477.47
466.96	332.36
467.14	395.55
467.32	395.55
467.51	451.72
467.69	479.81
467.87	409.59
468.05	435.34
468.23	514.92
468.41	402.57
468.60	451.72
468.78	465.77
468.96	458.74
469.14	482.15
469.32	440.02
469.50	388.53
469.69	440.02
469.87	454.06
470.05	482.15
470.23	472.79
470.41	365.12
470.59	421.30
470.77	409.59
470.95	381.51
471.14	428.32
471.32	418.96
471.50	442.36
471.68	339.38
471.86	393.21
472.04	411.93
472.22	449.38
472.40	435.34
472.58	381.51
472.77	327.68
472.95	416.62
473.13	449.38
473.31	393.21
473.49	395.55
473.67	444.70
473.85	461.09
474.03	425.98
474.21	416.62
474.39	482.15
474.57	484.49
474.75	376.83
474.93	390.87
475.12	456.40
475.30	463.43
475.48	404.91
475.66	400.23
475.84	456.40
476.02	435.34
476.20	470.45
476.38	440.02
476.56	449.38
476.74	433.00
476.92	463.43
477.10	437.68
477.28	416.62
477.46	435.34
477.64	435.34
477.82	353.42
478.00	402.57
478.18	416.62
478.36	430.66
478.54	313.63
478.72	404.91
478.90	500.87
479.08	379.17
479.26	458.74
479.44	367.46
479.62	423.64
479.80	355.76
479.98	390.87
480.16	397.89
480.34	461.09
480.52	332.36
480.70	465.77
480.88	304.27
481.06	402.57
481.24	358.10
481.41	447.04
481.59	505.56
481.77	505.56
481.95	395.55
482.13	404.91
482.31	425.98
482.49	472.79
482.67	423.64
482.85	435.34
483.03	430.66
483.21	435.34
483.39	372.15
483.57	365.12
483.74	433.00
483.92	383.85
484.10	440.02
484.28	463.43
484.46	484.49
484.64	528.96
484.82	449.38
485.00	346.40
485.18	493.85
485.35	437.68
485.53	414.27
485.71	479.81
485.89	374.49
486.07	388.53
486.25	430.66
486.43	402.57
486.61	397.89
486.78	334.70
486.96	386.19
487.14	428.32
487.32	475.13
487.50	346.40
487.68	411.93
487.85	440.02
488.03	362.78
488.21	470.45
488.39	496.19
488.57	428.32
488.75	390.87
488.92	463.43
489.10	414.27
489.28	430.66
489.46	362.78
489.64	407.25
489.81	484.49
489.99	447.04
490.17	454.06
490.35	456.40
490.53	440.02
490.70	482.15
490.88	430.66
491.06	414.27
491.24	456.40
491.41	341.72
491.59	416.62
491.77	433.00
491.95	465.77
492.13	447.04
492.30	416.62
492.48	374.49
492.66	486.83
492.84	430.66
493.01	433.00
493.19	444.70
493.37	414.27
493.54	435.34
493.72	358.10
493.90	421.30
494.08	409.59
494.25	400.23
494.43	402.57
494.61	353.42
494.79	404.91
494.96	393.21
495.14	454.06
495.32	430.66
495.49	421.30
495.67	414.27
495.85	397.89
496.02	397.89
496.20	409.59
496.38	393.21
496.55	447.04
496.73	489.17
496.91	388.53
497.09	414.27
497.26	430.66
497.44	362.78
497.62	425.98
497.79	428.32
497.97	395.55
498.14	374.49
498.32	386.19
498.50	447.04
498.67	484.49
498.85	451.72
499.03	435.34
499.20	348.74
499.38	458.74
499.56	407.25
499.73	451.72
499.91	451.72
500.08	463.43
500.26	437.68
500.44	372.15
500.61	454.06
500.79	418.96
500.97	440.02
501.14	449.38
501.32	428.32
501.49	444.70
501.67	395.55
501.84	418.96
502.02	383.85
502.20	428.32
502.37	430.66
502.55	454.06
502.72	416.62
502.90	393.21
503.07	423.64
503.25	440.02
503.43	472.79
503.60	449.38
503.78	447.04
503.95	395.55
504.13	388.53
504.30	372.15
504.48	437.68
504.65	425.98
504.83	463.43
505.01	407.25
505.18	463.43
505.36	423.64
505.53	440.02
505.71	456.40
505.88	456.40
506.06	444.70
506.23	451.72
506.41	360.44
506.58	337.04
506.76	425.98
506.93	395.55
507.11	418.96
507.28	456.40
507.46	379.17
507.63	444.70
507.81	374.49
507.98	393.21
508.16	425.98
508.33	395.55
508.50	449.38
508.68	388.53
508.85	449.38
509.03	416.62
509.20	367.46
509.38	416.62
509.55	421.30
509.73	402.57
509.90	461.09
510.08	318.31
510.25	332.36
510.42	435.34
510.60	393.21
510.77	414.27
510.95	414.27
511.12	418.96
511.30	337.04
511.47	479.81
511.64	526.62
511.82	360.44
511.99	390.87
512.17	367.46
512.34	381.51
512.51	386.19
512.69	353.42
512.86	400.23
513.04	470.45
513.21	369.80
513.38	346.40
513.56	407.25
513.73	421.30
513.90	435.34
514.08	353.42
514.25	447.04
514.43	472.79
514.60	388.53
514.77	376.83
514.95	440.02
515.12	500.87
515.29	454.06
515.47	339.38
515.64	339.38
515.81	409.59
515.99	486.83
516.16	496.19
516.33	383.85
516.51	348.74
516.68	374.49
516.85	414.27
517.03	433.00
517.20	451.72
517.37	435.34
517.54	493.85
517.72	463.43
517.89	498.53
518.06	498.53
518.24	449.38
518.41	507.90
518.58	425.98
518.75	400.23
518.93	383.85
519.10	421.30
519.27	428.32
519.45	433.00
519.62	442.36
519.79	423.64
519.96	442.36
520.14	367.46
520.31	402.57
520.48	379.17
520.65	388.53
520.83	505.56
521.00	463.43
521.17	428.32
521.34	416.62
521.52	479.81
521.69	362.78
521.86	433.00
522.03	435.34
522.20	444.70
522.38	404.91
522.55	292.57
522.72	353.42
522.89	409.59
523.07	397.89
523.24	376.83
523.41	386.19
523.58	498.53
523.75	418.96
523.92	456.40
524.10	430.66
524.27	362.78
524.44	358.10
524.61	409.59
524.78	372.15
524.96	407.25
525.13	440.02
525.30	433.00
525.47	400.23
525.64	451.72
525.81	418.96
525.98	416.62
526.16	425.98
526.33	447.04
526.50	358.10
526.67	379.17
526.84	444.70
527.01	435.34
527.18	409.59
527.36	475.13
527.53	372.15
527.70	484.49
527.87	433.00
528.04	500.87
528.21	411.93
528.38	470.45
528.55	428.32
528.72	463.43
528.89	451.72
529.07	447.04
529.24	390.87
529.41	397.89
529.58	425.98
529.75	390.87
529.92	435.34
530.09	388.53
530.26	451.72
530.43	414.27
530.60	407.25
530.77	423.64
530.94	442.36
531.11	423.64
531.28	458.74
531.46	433.00
531.63	383.85
531.80	444.70
531.97	435.34
532.14	449.38
532.31	414.27
532.48	395.55
532.65	449.38
532.82	447.04
532.99	461.09
533.16	379.17
533.33	456.40
533.50	477.47
533.67	418.96
533.84	367.46
534.01	315.97
534.18	360.44
534.35	360.44
534.52	468.11
534.69	491.51
534.86	454.06
535.03	435.34
535.20	369.80
535.37	393.21
535.54	404.91
535.71	418.96
535.88	435.34
536.05	351.08
536.22	423.64
536.38	388.53
536.55	472.79
536.72	395.55
536.89	369.80
537.06	397.89
537.23	388.53
537.40	477.47
537.57	425.98
537.74	500.87
537.91	454.06
538.08	393.21
538.25	503.22
538.42	414.27
538.59	376.83
538.75	362.78
538.92	428.32
539.09	400.23
539.26	430.66
539.43	468.11
539.60	379.17
539.77	388.53
539.94	404.91
540.11	358.10
540.28	435.34
540.44	425.98
540.61	386.19
540.78	414.27
540.95	418.96
541.12	472.79
541.29	386.19
541.46	423.64
541.62	425.98
541.79	423.64
541.96	423.64
542.13	444.70
542.30	353.42
542.47	411.93
542.63	463.43
542.80	447.04
542.97	442.36
543.14	425.98
543.31	486.83
543.48	388.53
543.64	393.21
543.81	425.98
543.98	395.55
544.15	395.55
544.32	456.40
544.48	346.40
544.65	376.83
544.82	451.72
544.99	503.22
545.16	355.76
545.32	421.30
545.49	411.93
545.66	463.43
545.83	416.62
546.00	437.68
546.16	376.83
546.33	400.23
546.50	404.91
546.67	444.70
546.83	416.62
547.00	454.06
547.17	411.93
547.34	407.25
547.50	393.21
547.67	437.68
547.84	423.64
548.00	440.02
548.17	416.62
548.34	463.43
548.51	510.24
548.67	386.19
548.84	337.04
549.01	430.66
549.18	484.49
549.34	458.74
549.51	397.89
549.68	402.57
549.84	369.80
550.01	400.23
550.18	477.47
550.34	411.93
550.51	374.49
550.68	454.06
550.84	395.55
551.01	491.51
551.18	433.00
551.34	397.89
551.51	409.59
551.68	395.55
551.84	451.72
552.01	458.74
552.18	449.38
552.34	458.74
552.51	393.21
552.68	430.66
552.84	416.62
553.01	472.79
553.18	433.00
553.34	376.83
553.51	390.87
553.67	444.70
553.84	505.56
554.01	407.25
554.17	428.32
554.34	395.55
554.51	430.66
554.67	376.83
554.84	393.21
555.00	404.91
555.17	393.21
555.33	369.80
555.50	416.62
555.67	435.34
555.83	355.76
556.00	428.32
556.16	601.52
556.33	454.06
556.50	416.62
556.66	433.00
556.83	418.96
556.99	479.81
557.16	479.81
557.32	435.34
557.49	421.30
557.65	454.06
557.82	409.59
557.98	388.53
558.15	353.42
558.32	369.80
558.48	369.80
558.65	416.62
558.81	458.74
558.98	395.55
559.14	517.26
559.31	402.57
559.47	411.93
559.64	367.46
559.80	362.78
559.97	330.02
560.13	433.00
560.30	273.84
560.46	416.62
560.63	372.15
560.79	447.04
560.96	440.02
561.12	468.11
561.29	409.59
561.45	395.55
561.61	311.29
561.78	435.34
561.94	421.30
562.11	388.53
562.27	407.25
562.44	395.55
562.60	388.53
562.77	334.70
562.93	402.57
563.10	395.55
563.26	407.25
563.42	489.17
563.59	435.34
563.75	395.55
563.92	397.89
564.08	381.51
564.24	397.89
564.41	456.40
564.57	468.11
564.74	404.91
564.90	383.85
565.07	430.66
565.23	433.00
565.39	418.96
565.56	444.70
565.72	416.62
565.88	440.02
566.05	372.15
566.21	402.57
566.38	423.64
566.54	407.25
566.70	449.38
566.87	440.02
567.03	381.51
567.19	451.72
567.36	514.92
567.52	472.79
567.68	421.30
567.85	407.25
568.01	400.23
568.17	383.85
568.34	397.89
568.50	428.32
568.66	421.30
568.83	496.19
568.99	358.10
569.15	437.68
569.32	416.62
569.48	451.72
569.64	510.24
569.81	430.66
569.97	433.00
570.13	449.38
570.30	451.72
570.46	440.02
570.62	442.36
570.78	411.93
570.95	423.64
571.11	440.02
571.27	526.62
571.43	435.34
571.60	433.00
571.76	421.30
571.92	423.64
572.09	456.40
572.25	423.64
572.41	351.08
572.57	355.76
572.74	479.81
572.90	393.21
573.06	402.57
573.22	418.96
573.38	477.47
573.55	409.59
573.71	418.96
573.87	416.62
574.03	344.06
574.20	491.51
574.36	435.34
574.52	388.53
574.68	440.02
574.84	451.72
575.01	435.34
575.17	512.58
575.33	425.98
575.49	461.09
575.65	402.57
575.82	468.11
575.98	458.74
576.14	477.47
576.30	454.06
576.46	430.66
576.62	465.77
576.79	428.32
576.95	395.55
577.11	393.21
577.27	442.36
577.43	449.38
577.59	554.71
577.75	447.04
577.92	397.89
578.08	395.55
578.24	369.80
578.40	440.02
578.56	433.00
578.72	381.51
578.88	409.59
579.04	458.74
579.21	425.98
579.37	451.72
579.53	468.11
579.69	433.00
579.85	353.42
580.01	425.98
580.17	449.38
580.33	402.57
580.49	428.32
580.65	447.04
580.82	393.21
580.98	383.85
581.14	411.93
581.30	414.27
581.46	381.51
581.62	470.45
581.78	404.91
581.94	472.79
582.10	435.34
582.26	425.98
582.42	454.06
582.58	442.36
582.74	465.77
582.90	407.25
583.06	477.47
583.22	402.57
583.38	397.89
583.54	379.17
583.70	407.25
583.86	531.30
584.02	353.42
584.18	461.09
584.34	332.36
584.50	379.17
584.66	339.38
584.82	435.34
584.98	411.93
585.14	456.40
585.30	461.09
585.46	442.36
585.62	491.51
585.78	362.78
585.94	414.27
586.10	433.00
586.26	451.72
586.42	505.56
586.58	369.80
586.74	409.59
586.90	388.53
587.06	397.89
587.22	447.04
587.38	365.12
587.54	386.19
587.70	416.62
587.86	409.59
588.02	395.55
588.18	435.34
588.34	409.59
588.49	428.32
588.65	395.55
588.81	463.43
588.97	451.72
589.13	430.66
589.29	428.32
589.45	489.17
589.61	437.68
589.77	500.87
589.93	411.93
590.08	437.68
590.24	365.12
590.40	395.55
590.56	437.68
590.72	416.62
590.88	379.17
591.04	472.79
591.20	435.34
591.35	477.47
591.51	435.34
591.67	367.46
591.83	407.25
591.99	440.02
592.15	472.79
592.31	442.36
592.46	437.68
592.62	447.04
592.78	379.17
592.94	409.59
593.10	374.49
593.26	418.96
593.41	365.12
593.57	449.38
593.73	418.96
593.89	409.59
594.05	433.00
594.20	484.49
594.36	388.53
594.52	397.89
594.68	414.27
594.84	451.72
594.99	472.79
595.15	404.91
595.31	454.06
595.47	503.22
595.62	409.59
595.78	355.76
595.94	400.23
596.10	433.00
596.25	402.57
596.41	379.17
596.57	390.87
596.73	407.25
596.88	444.70
597.04	423.64
597.20	458.74
597.36	397.89
597.51	407.25
597.67	397.89
597.83	418.96
597.99	367.46
598.14	358.10
598.30	440.02
598.46	421.30
598.61	421.30
598.77	449.38
598.93	421.30
599.09	442.36
599.24	414.27
599.40	442.36
599.56	428.32
599.71	463.43
599.87	425.98
600.03	444.70
600.18	416.62
600.34	388.53
600.50	400.23
600.65	449.38
600.81	463.43
600.97	454.06
601.12	465.77
601.28	477.47
601.44	435.34
601.59	353.42
601.75	388.53
601.91	395.55
602.06	465.77
602.22	444.70
602.37	437.68
602.53	383.85
602.69	402.57
602.84	358.10
603.00	472.79
603.16	475.13
603.31	402.57
603.47	404.91
603.62	395.55
603.78	390.87
603.94	479.81
604.09	418.96
604.25	449.38
604.40	409.59
604.56	414.27
604.71	390.87
604.87	463.43
605.03	407.25
605.18	411.93
605.34	322.99
605.49	416.62
605.65	372.15
605.80	407.25
605.96	423.64
606.12	402.57
606.27	430.66
606.43	416.62
606.58	395.55
606.74	423.64
606.89	390.87
607.05	416.62
607.20	433.00
607.36	428.32
607.51	395.55
607.67	437.68
607.82	491.51
607.98	456.40
608.13	425.98
608.29	454.06
608.44	379.17
608.60	447.04
608.75	372.15
608.91	428.32
609.06	470.45
609.22	437.68
609.37	404.91
609.53	388.53
609.68	386.19
609.84	421.30
609.99	442.36
610.15	475.13
