SpectraSuite Data File
++++++++++++++++++++++++++++++++++++
Date: Fri Oct 25 12:11:46 EDT 2013
User: price-jones
Dark Spectrum Present: No
Reference Spectrum Present: No
Number of Sampled Component Spectra: 1
Spectrometers: USB2+H05261
Integration Time (usec): 100000 (USB2+H05261)
Spectra Averaged: 1 (USB2+H05261)
Boxcar Smoothing: 0 (USB2+H05261)
Correct for Electrical Dark: No (USB2+H05261)
Strobe/Lamp Enabled: No (USB2+H05261)
Correct for Detector Non-linearity: No (USB2+H05261)
Correct for Stray Light: No (USB2+H05261)
Number of Pixels in Processed Spectrum: 2048
>>>>>Begin Processed Spectral Data<<<<<
365.73	285.55
365.92	285.55
366.12	285.55
366.32	262.14
366.52	257.46
366.72	245.76
366.91	205.97
367.11	266.82
367.31	196.60
367.51	250.44
367.70	243.42
367.90	266.82
368.10	266.82
368.30	259.80
368.49	217.67
368.69	273.84
368.89	262.14
369.09	229.37
369.28	264.48
369.48	266.82
369.68	264.48
369.87	266.82
370.07	297.25
370.27	318.31
370.47	358.10
370.66	315.97
370.86	327.68
371.06	416.62
371.25	386.19
371.45	327.68
371.65	397.89
371.84	332.36
372.04	409.59
372.24	411.93
372.44	390.87
372.63	393.21
372.83	376.83
373.03	454.06
373.22	360.44
373.42	395.55
373.62	372.15
373.81	470.45
374.01	449.38
374.21	407.25
374.40	376.83
374.60	461.09
374.79	411.93
374.99	393.21
375.19	397.89
375.38	416.62
375.58	433.00
375.78	456.40
375.97	369.80
376.17	383.85
376.37	411.93
376.56	449.38
376.76	367.46
376.95	425.98
377.15	461.09
377.35	390.87
377.54	395.55
377.74	418.96
377.93	369.80
378.13	372.15
378.33	449.38
378.52	341.72
378.72	461.09
378.91	393.21
379.11	416.62
379.31	395.55
379.50	409.59
379.70	418.96
379.89	390.87
380.09	414.27
380.28	411.93
380.48	397.89
380.68	306.61
380.87	388.53
381.07	360.44
381.26	428.32
381.46	482.15
381.65	454.06
381.85	379.17
382.04	423.64
382.24	383.85
382.43	383.85
382.63	386.19
382.83	421.30
383.02	397.89
383.22	397.89
383.41	358.10
383.61	276.18
383.80	404.91
384.00	414.27
384.19	402.57
384.39	358.10
384.58	390.87
384.78	379.17
384.97	383.85
385.17	404.91
385.36	404.91
385.56	421.30
385.75	435.34
385.95	404.91
386.14	374.49
386.34	395.55
386.53	423.64
386.72	423.64
386.92	400.23
387.11	360.44
387.31	430.66
387.50	388.53
387.70	411.93
387.89	383.85
388.09	395.55
388.28	400.23
388.48	402.57
388.67	365.12
388.86	367.46
389.06	402.57
389.25	421.30
389.45	404.91
389.64	402.57
389.84	449.38
390.03	411.93
390.22	456.40
390.42	414.27
390.61	418.96
390.81	381.51
391.00	463.43
391.19	414.27
391.39	444.70
391.58	355.76
391.78	397.89
391.97	458.74
392.16	348.74
392.36	381.51
392.55	376.83
392.75	433.00
392.94	315.97
393.13	461.09
393.33	444.70
393.52	470.45
393.71	437.68
393.91	449.38
394.10	418.96
394.29	376.83
394.49	383.85
394.68	409.59
394.88	390.87
395.07	411.93
395.26	381.51
395.46	358.10
395.65	440.02
395.84	456.40
396.04	402.57
396.23	423.64
396.42	372.15
396.62	404.91
396.81	482.15
397.00	423.64
397.19	376.83
397.39	355.76
397.58	482.15
397.77	454.06
397.97	402.57
398.16	411.93
398.35	444.70
398.55	425.98
398.74	386.19
398.93	472.79
399.12	390.87
399.32	367.46
399.51	362.78
399.70	421.30
399.90	447.04
400.09	353.42
400.28	421.30
400.47	430.66
400.67	423.64
400.86	421.30
401.05	454.06
401.24	397.89
401.44	404.91
401.63	414.27
401.82	315.97
402.01	400.23
402.21	437.68
402.40	407.25
402.59	444.70
402.78	430.66
402.97	435.34
403.17	346.40
403.36	325.33
403.55	322.99
403.74	374.49
403.93	393.21
404.13	444.70
404.32	386.19
404.51	393.21
404.70	402.57
404.89	369.80
405.09	442.36
405.28	470.45
405.47	414.27
405.66	458.74
405.85	395.55
406.05	442.36
406.24	423.64
406.43	355.76
406.62	386.19
406.81	435.34
407.00	470.45
407.20	425.98
407.39	416.62
407.58	393.21
407.77	395.55
407.96	484.49
408.15	339.38
408.34	376.83
408.54	386.19
408.73	365.12
408.92	416.62
409.11	454.06
409.30	433.00
409.49	334.70
409.68	353.42
409.87	404.91
410.07	440.02
410.26	428.32
410.45	421.30
410.64	472.79
410.83	428.32
411.02	376.83
411.21	386.19
411.40	409.59
411.59	402.57
411.78	407.25
411.98	376.83
412.17	463.43
412.36	409.59
412.55	477.47
412.74	430.66
412.93	468.11
413.12	383.85
413.31	489.17
413.50	372.15
413.69	404.91
413.88	512.58
414.07	463.43
414.26	423.64
414.45	369.80
414.64	440.02
414.83	512.58
415.02	435.34
415.22	447.04
415.41	404.91
415.60	341.72
415.79	444.70
415.98	421.30
416.17	337.04
416.36	454.06
416.55	362.78
416.74	428.32
416.93	444.70
417.12	400.23
417.31	388.53
417.50	414.27
417.69	437.68
417.88	376.83
418.07	435.34
418.26	383.85
418.45	451.72
418.64	470.45
418.83	395.55
419.02	367.46
419.21	421.30
419.39	416.62
419.58	365.12
419.77	358.10
419.96	475.13
420.15	421.30
420.34	386.19
420.53	395.55
420.72	407.25
420.91	475.13
421.10	440.02
421.29	425.98
421.48	433.00
421.67	433.00
421.86	369.80
422.05	337.04
422.24	388.53
422.43	512.58
422.61	397.89
422.80	433.00
422.99	416.62
423.18	355.76
423.37	428.32
423.56	395.55
423.75	344.06
423.94	428.32
424.13	379.17
424.32	418.96
424.50	454.06
424.69	379.17
424.88	435.34
425.07	423.64
425.26	346.40
425.45	379.17
425.64	458.74
425.83	381.51
426.01	440.02
426.20	423.64
426.39	418.96
426.58	348.74
426.77	367.46
426.96	388.53
427.15	402.57
427.33	353.42
427.52	447.04
427.71	395.55
427.90	461.09
428.09	397.89
428.28	383.85
428.46	386.19
428.65	472.79
428.84	379.17
429.03	472.79
429.22	409.59
429.40	409.59
429.59	447.04
429.78	435.34
429.97	402.57
430.16	447.04
430.34	388.53
430.53	400.23
430.72	360.44
430.91	430.66
431.10	383.85
431.28	411.93
431.47	369.80
431.66	339.38
431.85	315.97
432.03	393.21
432.22	442.36
432.41	479.81
432.60	425.98
432.79	365.12
432.97	367.46
433.16	367.46
433.35	418.96
433.54	414.27
433.72	409.59
433.91	440.02
434.10	397.89
434.28	411.93
434.47	475.13
434.66	477.47
434.85	337.04
435.03	404.91
435.22	428.32
435.41	447.04
435.59	409.59
435.78	393.21
435.97	379.17
436.16	430.66
436.34	407.25
436.53	477.47
436.72	475.13
436.90	463.43
437.09	407.25
437.28	423.64
437.46	435.34
437.65	521.94
437.84	416.62
438.02	397.89
438.21	435.34
438.40	367.46
438.58	290.23
438.77	372.15
438.96	393.21
439.14	390.87
439.33	433.00
439.52	383.85
439.70	400.23
439.89	451.72
440.08	423.64
440.26	330.02
440.45	425.98
440.63	383.85
440.82	423.64
441.01	339.38
441.19	346.40
441.38	449.38
441.57	390.87
441.75	407.25
441.94	472.79
442.12	454.06
442.31	365.12
442.50	428.32
442.68	444.70
442.87	433.00
443.05	360.44
443.24	454.06
443.43	500.87
443.61	430.66
443.80	456.40
443.98	416.62
444.17	418.96
444.35	475.13
444.54	507.90
444.73	454.06
444.91	428.32
445.10	425.98
445.28	423.64
445.47	411.93
445.65	425.98
445.84	395.55
446.02	397.89
446.21	416.62
446.39	470.45
446.58	447.04
446.77	458.74
446.95	407.25
447.14	344.06
447.32	470.45
447.51	449.38
447.69	463.43
447.88	376.83
448.06	430.66
448.25	397.89
448.43	468.11
448.62	376.83
448.80	449.38
448.99	442.36
449.17	451.72
449.36	444.70
449.54	400.23
449.73	388.53
449.91	433.00
450.10	397.89
450.28	468.11
450.46	421.30
450.65	484.49
450.83	423.64
451.02	369.80
451.20	402.57
451.39	472.79
451.57	400.23
451.76	411.93
451.94	433.00
452.13	407.25
452.31	433.00
452.49	411.93
452.68	444.70
452.86	418.96
453.05	458.74
453.23	442.36
453.42	374.49
453.60	414.27
453.78	388.53
453.97	358.10
454.15	416.62
454.34	327.68
454.52	386.19
454.70	418.96
454.89	397.89
455.07	404.91
455.26	416.62
455.44	428.32
455.62	404.91
455.81	496.19
455.99	418.96
456.17	430.66
456.36	461.09
456.54	440.02
456.73	440.02
456.91	425.98
457.09	461.09
457.28	456.40
457.46	428.32
457.64	440.02
457.83	416.62
458.01	402.57
458.19	454.06
458.38	451.72
458.56	381.51
458.74	409.59
458.93	393.21
459.11	395.55
459.29	409.59
459.48	472.79
459.66	435.34
459.84	428.32
460.03	521.94
460.21	414.27
460.39	435.34
460.57	404.91
460.76	395.55
460.94	332.36
461.12	447.04
461.31	404.91
461.49	437.68
461.67	451.72
461.85	435.34
462.04	463.43
462.22	786.42
462.40	451.72
462.59	428.32
462.77	330.02
462.95	393.21
463.13	493.85
463.32	407.25
463.50	447.04
463.68	400.23
463.86	414.27
464.05	458.74
464.23	400.23
464.41	442.36
464.59	430.66
464.78	454.06
464.96	374.49
465.14	409.59
465.32	454.06
465.50	465.77
465.69	437.68
465.87	355.76
466.05	463.43
466.23	400.23
466.41	456.40
466.60	397.89
466.78	409.59
466.96	456.40
467.14	383.85
467.32	407.25
467.51	386.19
467.69	482.15
467.87	423.64
468.05	496.19
468.23	425.98
468.41	388.53
468.60	395.55
468.78	360.44
468.96	400.23
469.14	414.27
469.32	381.51
469.50	390.87
469.69	416.62
469.87	395.55
470.05	461.09
470.23	465.77
470.41	414.27
470.59	337.04
470.77	414.27
470.95	463.43
471.14	454.06
471.32	447.04
471.50	519.60
471.68	475.13
471.86	409.59
472.04	409.59
472.22	386.19
472.40	355.76
472.58	402.57
472.77	351.08
472.95	472.79
473.13	491.51
473.31	407.25
473.49	362.78
473.67	367.46
473.85	390.87
474.03	458.74
474.21	425.98
474.39	358.10
474.57	386.19
474.75	468.11
474.93	381.51
475.12	376.83
475.30	386.19
475.48	404.91
475.66	428.32
475.84	416.62
476.02	425.98
476.20	365.12
476.38	388.53
476.56	454.06
476.74	461.09
476.92	479.81
477.10	383.85
477.28	414.27
477.46	437.68
477.64	428.32
477.82	428.32
478.00	376.83
478.18	437.68
478.36	362.78
478.54	390.87
478.72	400.23
478.90	334.70
479.08	425.98
479.26	430.66
479.44	400.23
479.62	456.40
479.80	339.38
479.98	498.53
480.16	362.78
480.34	454.06
480.52	447.04
480.70	440.02
480.88	449.38
481.06	369.80
481.24	454.06
481.41	479.81
481.59	409.59
481.77	458.74
481.95	458.74
482.13	489.17
482.31	411.93
482.49	372.15
482.67	435.34
482.85	440.02
483.03	418.96
483.21	440.02
483.39	381.51
483.57	330.02
483.74	421.30
483.92	381.51
484.10	428.32
484.28	402.57
484.46	461.09
484.64	395.55
484.82	404.91
485.00	444.70
485.18	383.85
485.35	414.27
485.53	482.15
485.71	360.44
485.89	451.72
486.07	386.19
486.25	451.72
486.43	365.12
486.61	351.08
486.78	470.45
486.96	498.53
487.14	454.06
487.32	458.74
487.50	477.47
487.68	386.19
487.85	372.15
488.03	451.72
488.21	386.19
488.39	444.70
488.57	397.89
488.75	442.36
488.92	507.90
489.10	491.51
489.28	468.11
489.46	376.83
489.64	339.38
489.81	390.87
489.99	383.85
490.17	409.59
490.35	383.85
490.53	395.55
490.70	400.23
490.88	383.85
491.06	430.66
491.24	442.36
491.41	386.19
491.59	458.74
491.77	381.51
491.95	416.62
492.13	421.30
492.30	416.62
492.48	407.25
492.66	416.62
492.84	423.64
493.01	416.62
493.19	369.80
493.37	435.34
493.54	421.30
493.72	372.15
493.90	435.34
494.08	444.70
494.25	458.74
494.43	456.40
494.61	383.85
494.79	472.79
494.96	442.36
495.14	344.06
495.32	381.51
495.49	444.70
495.67	526.62
495.85	449.38
496.02	360.44
496.20	421.30
496.38	376.83
496.55	358.10
496.73	498.53
496.91	374.49
497.09	430.66
497.26	416.62
497.44	362.78
497.62	388.53
497.79	395.55
497.97	482.15
498.14	397.89
498.32	428.32
498.50	402.57
498.67	418.96
498.85	458.74
499.03	416.62
499.20	435.34
499.38	400.23
499.56	374.49
499.73	444.70
499.91	425.98
500.08	456.40
500.26	440.02
500.44	395.55
500.61	418.96
500.79	386.19
500.97	435.34
501.14	423.64
501.32	411.93
501.49	393.21
501.67	433.00
501.84	423.64
502.02	498.53
502.20	451.72
502.37	393.21
502.55	388.53
502.72	381.51
502.90	444.70
503.07	461.09
503.25	465.77
503.43	374.49
503.60	418.96
503.78	374.49
503.95	393.21
504.13	367.46
504.30	533.64
504.48	454.06
504.65	463.43
504.83	400.23
505.01	451.72
505.18	430.66
505.36	348.74
505.53	379.17
505.71	369.80
505.88	458.74
506.06	404.91
506.23	472.79
506.41	447.04
506.58	418.96
506.76	454.06
506.93	365.12
507.11	416.62
507.28	383.85
507.46	409.59
507.63	407.25
507.81	411.93
507.98	402.57
508.16	437.68
508.33	414.27
508.50	479.81
508.68	468.11
508.85	498.53
509.03	454.06
509.20	358.10
509.38	409.59
509.55	402.57
509.73	468.11
509.90	440.02
510.08	416.62
510.25	393.21
510.42	400.23
510.60	416.62
510.77	447.04
510.95	433.00
511.12	351.08
511.30	510.24
511.47	461.09
511.64	484.49
511.82	367.46
511.99	409.59
512.17	346.40
512.34	421.30
512.51	397.89
512.69	372.15
512.86	421.30
513.04	440.02
513.21	500.87
513.38	337.04
513.56	425.98
513.73	423.64
513.90	425.98
514.08	440.02
514.25	402.57
514.43	425.98
514.60	397.89
514.77	346.40
514.95	409.59
515.12	418.96
515.29	402.57
515.47	449.38
515.64	435.34
515.81	449.38
515.99	341.72
516.16	386.19
516.33	395.55
516.51	451.72
516.68	444.70
516.85	433.00
517.03	456.40
517.20	428.32
517.37	472.79
517.54	400.23
517.72	409.59
517.89	395.55
518.06	442.36
518.24	479.81
518.41	491.51
518.58	472.79
518.75	383.85
518.93	433.00
519.10	407.25
519.27	397.89
519.45	440.02
519.62	407.25
519.79	411.93
519.96	418.96
520.14	414.27
520.31	475.13
520.48	393.21
520.65	393.21
520.83	477.47
521.00	423.64
521.17	465.77
521.34	428.32
521.52	477.47
521.69	407.25
521.86	379.17
522.03	447.04
522.20	395.55
522.38	390.87
522.55	379.17
522.72	430.66
522.89	444.70
523.07	484.49
523.24	369.80
523.41	397.89
523.58	355.76
523.75	435.34
523.92	430.66
524.10	339.38
524.27	400.23
524.44	463.43
524.61	433.00
524.78	372.15
524.96	437.68
525.13	533.64
525.30	386.19
525.47	423.64
525.64	456.40
525.81	418.96
525.98	346.40
526.16	433.00
526.33	402.57
526.50	428.32
526.67	421.30
526.84	465.77
527.01	337.04
527.18	418.96
527.36	386.19
527.53	414.27
527.70	489.17
527.87	454.06
528.04	475.13
528.21	397.89
528.38	400.23
528.55	463.43
528.72	433.00
528.89	465.77
529.07	416.62
529.24	397.89
529.41	491.51
529.58	458.74
529.75	475.13
529.92	400.23
530.09	437.68
530.26	442.36
530.43	416.62
530.60	404.91
530.77	479.81
530.94	411.93
531.11	447.04
531.28	409.59
531.46	423.64
531.63	397.89
531.80	423.64
531.97	425.98
532.14	376.83
532.31	437.68
532.48	400.23
532.65	435.34
532.82	428.32
532.99	390.87
533.16	397.89
533.33	458.74
533.50	444.70
533.67	514.92
533.84	433.00
534.01	442.36
534.18	444.70
534.35	400.23
534.52	381.51
534.69	388.53
534.86	402.57
535.03	479.81
535.20	470.45
535.37	498.53
535.54	489.17
535.71	390.87
535.88	442.36
536.05	407.25
536.22	390.87
536.38	486.83
536.55	461.09
536.72	472.79
536.89	383.85
537.06	447.04
537.23	425.98
537.40	381.51
537.57	421.30
537.74	442.36
537.91	404.91
538.08	423.64
538.25	451.72
538.42	416.62
538.59	418.96
538.75	400.23
538.92	360.44
539.09	428.32
539.26	400.23
539.43	381.51
539.60	418.96
539.77	444.70
539.94	428.32
540.11	428.32
540.28	409.59
540.44	486.83
540.61	475.13
540.78	411.93
540.95	393.21
541.12	402.57
541.29	393.21
541.46	458.74
541.62	407.25
541.79	355.76
541.96	297.25
542.13	517.26
542.30	486.83
542.47	425.98
542.63	461.09
542.80	411.93
542.97	430.66
543.14	442.36
543.31	390.87
543.48	397.89
543.64	425.98
543.81	468.11
543.98	397.89
544.15	393.21
544.32	407.25
544.48	475.13
544.65	444.70
544.82	425.98
544.99	372.15
545.16	416.62
545.32	463.43
545.49	386.19
545.66	400.23
545.83	409.59
546.00	437.68
546.16	425.98
546.33	386.19
546.50	400.23
546.67	496.19
546.83	449.38
547.00	414.27
547.17	451.72
547.34	421.30
547.50	468.11
547.67	423.64
547.84	451.72
548.00	381.51
548.17	388.53
548.34	486.83
548.51	414.27
548.67	433.00
548.84	367.46
549.01	404.91
549.18	447.04
549.34	395.55
549.51	430.66
549.68	472.79
549.84	397.89
550.01	353.42
550.18	451.72
550.34	425.98
550.51	442.36
550.68	447.04
550.84	433.00
551.01	423.64
551.18	470.45
551.34	428.32
551.51	341.72
551.68	318.31
551.84	430.66
552.01	388.53
552.18	404.91
552.34	505.56
552.51	358.10
552.68	468.11
552.84	416.62
553.01	451.72
553.18	425.98
553.34	388.53
553.51	433.00
553.67	470.45
553.84	397.89
554.01	402.57
554.17	454.06
554.34	430.66
554.51	463.43
554.67	449.38
554.84	400.23
555.00	435.34
555.17	423.64
555.33	348.74
555.50	407.25
555.67	409.59
555.83	414.27
556.00	344.06
556.16	561.73
556.33	407.25
556.50	407.25
556.66	472.79
556.83	358.10
556.99	386.19
557.16	367.46
557.32	414.27
557.49	440.02
557.65	386.19
557.82	355.76
557.98	456.40
558.15	407.25
558.32	348.74
558.48	423.64
558.65	416.62
558.81	477.47
558.98	454.06
559.14	367.46
559.31	442.36
559.47	484.49
559.64	330.02
559.80	477.47
559.97	348.74
560.13	411.93
560.30	383.85
560.46	393.21
560.63	447.04
560.79	418.96
560.96	449.38
561.12	447.04
561.29	360.44
561.45	435.34
561.61	458.74
561.78	449.38
561.94	440.02
562.11	447.04
562.27	470.45
562.44	433.00
562.60	407.25
562.77	465.77
562.93	566.41
563.10	421.30
563.26	430.66
563.42	442.36
563.59	423.64
563.75	376.83
563.92	496.19
564.08	390.87
564.24	472.79
564.41	475.13
564.57	360.44
564.74	393.21
564.90	411.93
565.07	337.04
565.23	425.98
565.39	376.83
565.56	358.10
565.72	423.64
565.88	451.72
566.05	425.98
566.21	369.80
566.38	517.26
566.54	444.70
566.70	421.30
566.87	428.32
567.03	425.98
567.19	418.96
567.36	381.51
567.52	402.57
567.68	437.68
567.85	393.21
568.01	461.09
568.17	341.72
568.34	454.06
568.50	407.25
568.66	407.25
568.83	397.89
568.99	407.25
569.15	418.96
569.32	454.06
569.48	402.57
569.64	409.59
569.81	388.53
569.97	358.10
570.13	451.72
570.30	388.53
570.46	390.87
570.62	475.13
570.78	449.38
570.95	362.78
571.11	458.74
571.27	444.70
571.43	458.74
571.60	514.92
571.76	409.59
571.92	449.38
572.09	458.74
572.25	388.53
572.41	414.27
572.57	388.53
572.74	440.02
572.90	390.87
573.06	482.15
573.22	444.70
573.38	423.64
573.55	477.47
573.71	416.62
573.87	454.06
574.03	433.00
574.20	360.44
574.36	388.53
574.52	489.17
574.68	362.78
574.84	411.93
575.01	376.83
575.17	458.74
575.33	418.96
575.49	451.72
575.65	411.93
575.82	416.62
575.98	390.87
576.14	463.43
576.30	442.36
576.46	409.59
576.62	404.91
576.79	381.51
576.95	440.02
577.11	447.04
577.27	430.66
577.43	425.98
577.59	447.04
577.75	337.04
577.92	451.72
578.08	472.79
578.24	409.59
578.40	472.79
578.56	465.77
578.72	505.56
578.88	461.09
579.04	423.64
579.21	484.49
579.37	358.10
579.53	456.40
579.69	418.96
579.85	362.78
580.01	376.83
580.17	383.85
580.33	404.91
580.49	425.98
580.65	411.93
580.82	451.72
580.98	428.32
581.14	369.80
581.30	442.36
581.46	369.80
581.62	400.23
581.78	404.91
581.94	500.87
582.10	379.17
582.26	393.21
582.42	418.96
582.58	447.04
582.74	423.64
582.90	404.91
583.06	388.53
583.22	402.57
583.38	454.06
583.54	463.43
583.70	444.70
583.86	369.80
584.02	428.32
584.18	458.74
584.34	425.98
584.50	404.91
584.66	444.70
584.82	383.85
584.98	388.53
585.14	440.02
585.30	447.04
585.46	425.98
585.62	440.02
585.78	454.06
585.94	472.79
586.10	421.30
586.26	411.93
586.42	409.59
586.58	447.04
586.74	400.23
586.90	468.11
587.06	437.68
587.22	484.49
587.38	430.66
587.54	355.76
587.70	414.27
587.86	468.11
588.02	423.64
588.18	407.25
588.34	409.59
588.49	454.06
588.65	423.64
588.81	421.30
588.97	383.85
589.13	374.49
589.29	369.80
589.45	440.02
589.61	315.97
589.77	454.06
589.93	435.34
590.08	444.70
590.24	374.49
590.40	411.93
590.56	449.38
590.72	486.83
590.88	362.78
591.04	451.72
591.20	388.53
591.35	388.53
591.51	374.49
591.67	414.27
591.83	390.87
591.99	388.53
592.15	521.94
592.31	454.06
592.46	404.91
592.62	411.93
592.78	400.23
592.94	379.17
593.10	409.59
593.26	440.02
593.41	404.91
593.57	447.04
593.73	447.04
593.89	447.04
594.05	393.21
594.20	442.36
594.36	404.91
594.52	465.77
594.68	414.27
594.84	493.85
594.99	514.92
595.15	461.09
595.31	454.06
595.47	435.34
595.62	472.79
595.78	496.19
595.94	433.00
596.10	437.68
596.25	414.27
596.41	472.79
596.57	379.17
596.73	393.21
596.88	472.79
597.04	400.23
597.20	411.93
597.36	428.32
597.51	465.77
597.67	404.91
597.83	433.00
597.99	409.59
598.14	468.11
598.30	449.38
598.46	433.00
598.61	444.70
598.77	458.74
598.93	388.53
599.09	421.30
599.24	435.34
599.40	477.47
599.56	379.17
599.71	388.53
599.87	454.06
600.03	421.30
600.18	397.89
600.34	404.91
600.50	411.93
600.65	365.12
600.81	472.79
600.97	421.30
601.12	365.12
601.28	381.51
601.44	449.38
601.59	454.06
601.75	393.21
601.91	374.49
602.06	440.02
602.22	491.51
602.37	454.06
602.53	433.00
602.69	444.70
602.84	416.62
603.00	411.93
603.16	505.56
603.31	433.00
603.47	376.83
603.62	367.46
603.78	430.66
603.94	395.55
604.09	407.25
604.25	454.06
604.40	409.59
604.56	465.77
604.71	437.68
604.87	418.96
605.03	435.34
605.18	409.59
605.34	465.77
605.49	428.32
605.65	428.32
605.80	369.80
605.96	425.98
606.12	454.06
606.27	472.79
606.43	407.25
606.58	447.04
606.74	463.43
606.89	418.96
607.05	409.59
607.20	425.98
607.36	411.93
607.51	437.68
607.67	423.64
607.82	418.96
607.98	496.19
608.13	437.68
608.29	383.85
608.44	425.98
608.60	440.02
608.75	482.15
608.91	423.64
609.06	449.38
609.22	500.87
609.37	409.59
609.53	383.85
609.68	409.59
609.84	353.42
609.99	409.59
610.15	423.64
