SpectraSuite Data File
++++++++++++++++++++++++++++++++++++
Date: Fri Oct 25 12:11:09 EDT 2013
User: price-jones
Dark Spectrum Present: No
Reference Spectrum Present: No
Number of Sampled Component Spectra: 1
Spectrometers: USB2+H05261
Integration Time (usec): 100000 (USB2+H05261)
Spectra Averaged: 1 (USB2+H05261)
Boxcar Smoothing: 0 (USB2+H05261)
Correct for Electrical Dark: No (USB2+H05261)
Strobe/Lamp Enabled: No (USB2+H05261)
Correct for Detector Non-linearity: No (USB2+H05261)
Correct for Stray Light: No (USB2+H05261)
Number of Pixels in Processed Spectrum: 2048
>>>>>Begin Processed Spectral Data<<<<<
365.73	374.49
365.92	374.49
366.12	374.49
366.32	276.18
366.52	191.92
366.72	269.16
366.91	154.48
367.11	222.35
367.31	168.52
367.51	278.52
367.70	220.01
367.90	170.86
368.10	271.50
368.30	285.55
368.49	248.10
368.69	278.52
368.89	224.69
369.09	189.58
369.28	236.39
369.48	325.33
369.68	285.55
369.87	306.61
370.07	341.72
370.27	390.87
370.47	283.20
370.66	334.70
370.86	344.06
371.06	341.72
371.25	381.51
371.45	348.74
371.65	386.19
371.84	365.12
372.04	325.33
372.24	397.89
372.44	374.49
372.63	355.76
372.83	372.15
373.03	365.12
373.22	407.25
373.42	444.70
373.62	447.04
373.81	365.12
374.01	418.96
374.21	447.04
374.40	376.83
374.60	461.09
374.79	386.19
374.99	383.85
375.19	372.15
375.38	414.27
375.58	433.00
375.78	475.13
375.97	449.38
376.17	484.49
376.37	411.93
376.56	425.98
376.76	395.55
376.95	372.15
377.15	407.25
377.35	440.02
377.54	468.11
377.74	442.36
377.93	367.46
378.13	395.55
378.33	514.92
378.52	393.21
378.72	507.90
378.91	425.98
379.11	386.19
379.31	496.19
379.50	365.12
379.70	386.19
379.89	430.66
380.09	332.36
380.28	341.72
380.48	437.68
380.68	379.17
380.87	374.49
381.07	440.02
381.26	461.09
381.46	395.55
381.65	388.53
381.85	369.80
382.04	386.19
382.24	388.53
382.43	395.55
382.63	395.55
382.83	395.55
383.02	346.40
383.22	526.62
383.41	484.49
383.61	404.91
383.80	444.70
384.00	411.93
384.19	386.19
384.39	442.36
384.58	418.96
384.78	456.40
384.97	472.79
385.17	376.83
385.36	421.30
385.56	355.76
385.75	486.83
385.95	414.27
386.14	397.89
386.34	447.04
386.53	369.80
386.72	358.10
386.92	376.83
387.11	465.77
387.31	435.34
387.50	416.62
387.70	362.78
387.89	395.55
388.09	414.27
388.28	358.10
388.48	367.46
388.67	433.00
388.86	421.30
389.06	425.98
389.25	409.59
389.45	346.40
389.64	376.83
389.84	416.62
390.03	433.00
390.22	400.23
390.42	423.64
390.61	395.55
390.81	376.83
391.00	428.32
391.19	358.10
391.39	404.91
391.58	372.15
391.78	395.55
391.97	428.32
392.16	367.46
392.36	414.27
392.55	451.72
392.75	395.55
392.94	402.57
393.13	489.17
393.33	451.72
393.52	409.59
393.71	409.59
393.91	360.44
394.10	437.68
394.29	390.87
394.49	386.19
394.68	369.80
394.88	421.30
395.07	400.23
395.26	367.46
395.46	388.53
395.65	388.53
395.84	379.17
396.04	411.93
396.23	458.74
396.42	376.83
396.62	505.56
396.81	355.76
397.00	397.89
397.19	381.51
397.39	379.17
397.58	468.11
397.77	451.72
397.97	456.40
398.16	388.53
398.35	409.59
398.55	416.62
398.74	397.89
398.93	463.43
399.12	402.57
399.32	395.55
399.51	397.89
399.70	383.85
399.90	353.42
400.09	414.27
400.28	379.17
400.47	325.33
400.67	430.66
400.86	402.57
401.05	367.46
401.24	454.06
401.44	435.34
401.63	395.55
401.82	491.51
402.01	381.51
402.21	402.57
402.40	414.27
402.59	383.85
402.78	365.12
402.97	447.04
403.17	381.51
403.36	425.98
403.55	414.27
403.74	400.23
403.93	404.91
404.13	372.15
404.32	367.46
404.51	418.96
404.70	379.17
404.89	397.89
405.09	461.09
405.28	433.00
405.47	447.04
405.66	395.55
405.85	404.91
406.05	428.32
406.24	365.12
406.43	379.17
406.62	330.02
406.81	444.70
407.00	341.72
407.20	404.91
407.39	402.57
407.58	435.34
407.77	362.78
407.96	409.59
408.15	472.79
408.34	348.74
408.54	421.30
408.73	444.70
408.92	327.68
409.11	376.83
409.30	435.34
409.49	381.51
409.68	374.49
409.87	428.32
410.07	425.98
410.26	369.80
410.45	442.36
410.64	360.44
410.83	433.00
411.02	402.57
411.21	379.17
411.40	386.19
411.59	395.55
411.78	376.83
411.98	397.89
412.17	341.72
412.36	468.11
412.55	374.49
412.74	428.32
412.93	463.43
413.12	402.57
413.31	449.38
413.50	451.72
413.69	404.91
413.88	376.83
414.07	423.64
414.26	449.38
414.45	447.04
414.64	430.66
414.83	411.93
415.02	442.36
415.22	416.62
415.41	423.64
415.60	423.64
415.79	402.57
415.98	411.93
416.17	418.96
416.36	397.89
416.55	404.91
416.74	404.91
416.93	330.02
417.12	407.25
417.31	372.15
417.50	400.23
417.69	435.34
417.88	397.89
418.07	416.62
418.26	367.46
418.45	428.32
418.64	404.91
418.83	388.53
419.02	444.70
419.21	425.98
419.39	444.70
419.58	444.70
419.77	386.19
419.96	407.25
420.15	451.72
420.34	376.83
420.53	351.08
420.72	472.79
420.91	369.80
421.10	393.21
421.29	479.81
421.48	433.00
421.67	402.57
421.86	400.23
422.05	372.15
422.24	440.02
422.43	390.87
422.61	397.89
422.80	418.96
422.99	423.64
423.18	437.68
423.37	365.12
423.56	386.19
423.75	400.23
423.94	395.55
424.13	369.80
424.32	407.25
424.50	416.62
424.69	421.30
424.88	393.21
425.07	404.91
425.26	442.36
425.45	447.04
425.64	479.81
425.83	500.87
426.01	428.32
426.20	308.95
426.39	348.74
426.58	400.23
426.77	393.21
426.96	390.87
427.15	409.59
427.33	400.23
427.52	418.96
427.71	470.45
427.90	367.46
428.09	390.87
428.28	360.44
428.46	407.25
428.65	475.13
428.84	404.91
429.03	435.34
429.22	451.72
429.40	379.17
429.59	390.87
429.78	374.49
429.97	353.42
430.16	330.02
430.34	421.30
430.53	409.59
430.72	444.70
430.91	468.11
431.10	411.93
431.28	404.91
431.47	409.59
431.66	390.87
431.85	414.27
432.03	332.36
432.22	400.23
432.41	442.36
432.60	386.19
432.79	388.53
432.97	479.81
433.16	411.93
433.35	449.38
433.54	395.55
433.72	376.83
433.91	463.43
434.10	400.23
434.28	367.46
434.47	381.51
434.66	383.85
434.85	348.74
435.03	437.68
435.22	428.32
435.41	442.36
435.59	409.59
435.78	447.04
435.97	461.09
436.16	418.96
436.34	393.21
436.53	479.81
436.72	425.98
436.90	402.57
437.09	442.36
437.28	397.89
437.46	369.80
437.65	337.04
437.84	428.32
438.02	355.76
438.21	435.34
438.40	407.25
438.58	418.96
438.77	397.89
438.96	346.40
439.14	447.04
439.33	416.62
439.52	437.68
439.70	365.12
439.89	468.11
440.08	414.27
440.26	400.23
440.45	437.68
440.63	447.04
440.82	449.38
441.01	416.62
441.19	437.68
441.38	374.49
441.57	430.66
441.75	393.21
441.94	461.09
442.12	421.30
442.31	407.25
442.50	397.89
442.68	433.00
442.87	381.51
443.05	379.17
443.24	425.98
443.43	414.27
443.61	461.09
443.80	437.68
443.98	400.23
444.17	484.49
444.35	416.62
444.54	386.19
444.73	437.68
444.91	440.02
445.10	393.21
445.28	353.42
445.47	409.59
445.65	440.02
445.84	379.17
446.02	430.66
446.21	376.83
446.39	374.49
446.58	397.89
446.77	395.55
446.95	428.32
447.14	418.96
447.32	458.74
447.51	430.66
447.69	400.23
447.88	388.53
448.06	437.68
448.25	381.51
448.43	411.93
448.62	369.80
448.80	451.72
448.99	393.21
449.17	428.32
449.36	388.53
449.54	416.62
449.73	411.93
449.91	493.85
450.10	437.68
450.28	503.22
450.46	465.77
450.65	437.68
450.83	404.91
451.02	414.27
451.20	390.87
451.39	440.02
451.57	421.30
451.76	367.46
451.94	468.11
452.13	379.17
452.31	390.87
452.49	407.25
452.68	423.64
452.86	430.66
453.05	458.74
453.23	381.51
453.42	390.87
453.60	414.27
453.78	388.53
453.97	362.78
454.15	337.04
454.34	477.47
454.52	393.21
454.70	400.23
454.89	402.57
455.07	390.87
455.26	386.19
455.44	479.81
455.62	442.36
455.81	369.80
455.99	425.98
456.17	365.12
456.36	482.15
456.54	440.02
456.73	341.72
456.91	339.38
457.09	411.93
457.28	372.15
457.46	402.57
457.64	435.34
457.83	425.98
458.01	395.55
458.19	402.57
458.38	425.98
458.56	409.59
458.74	386.19
458.93	447.04
459.11	447.04
459.29	416.62
459.48	479.81
459.66	442.36
459.84	472.79
460.03	472.79
460.21	503.22
460.39	437.68
460.57	435.34
460.76	451.72
460.94	353.42
461.12	449.38
461.31	404.91
461.49	421.30
461.67	435.34
461.85	374.49
462.04	428.32
462.22	711.52
462.40	440.02
462.59	407.25
462.77	402.57
462.95	423.64
463.13	470.45
463.32	428.32
463.50	383.85
463.68	390.87
463.86	395.55
464.05	433.00
464.23	325.33
464.41	449.38
464.59	414.27
464.78	372.15
464.96	397.89
465.14	404.91
465.32	400.23
465.50	404.91
465.69	461.09
465.87	433.00
466.05	451.72
466.23	404.91
466.41	416.62
466.60	397.89
466.78	383.85
466.96	383.85
467.14	386.19
467.32	423.64
467.51	521.94
467.69	407.25
467.87	404.91
468.05	425.98
468.23	514.92
468.41	428.32
468.60	489.17
468.78	383.85
468.96	440.02
469.14	383.85
469.32	400.23
469.50	395.55
469.69	447.04
469.87	433.00
470.05	425.98
470.23	381.51
470.41	423.64
470.59	456.40
470.77	402.57
470.95	491.51
471.14	428.32
471.32	428.32
471.50	386.19
471.68	367.46
471.86	465.77
472.04	388.53
472.22	416.62
472.40	383.85
472.58	437.68
472.77	411.93
472.95	400.23
473.13	395.55
473.31	437.68
473.49	400.23
473.67	402.57
473.85	369.80
474.03	348.74
474.21	376.83
474.39	379.17
474.57	468.11
474.75	493.85
474.93	468.11
475.12	440.02
475.30	376.83
475.48	425.98
475.66	409.59
475.84	440.02
476.02	397.89
476.20	395.55
476.38	414.27
476.56	517.26
476.74	341.72
476.92	369.80
477.10	479.81
477.28	461.09
477.46	477.47
477.64	304.27
477.82	386.19
478.00	400.23
478.18	421.30
478.36	489.17
478.54	428.32
478.72	397.89
478.90	411.93
479.08	390.87
479.26	372.15
479.44	430.66
479.62	376.83
479.80	458.74
479.98	353.42
480.16	348.74
480.34	379.17
480.52	463.43
480.70	454.06
480.88	421.30
481.06	428.32
481.24	376.83
481.41	425.98
481.59	435.34
481.77	440.02
481.95	461.09
482.13	475.13
482.31	423.64
482.49	482.15
482.67	442.36
482.85	416.62
483.03	526.62
483.21	388.53
483.39	374.49
483.57	339.38
483.74	428.32
483.92	395.55
484.10	372.15
484.28	440.02
484.46	493.85
484.64	358.10
484.82	484.49
485.00	409.59
485.18	442.36
485.35	435.34
485.53	418.96
485.71	437.68
485.89	433.00
486.07	444.70
486.25	468.11
486.43	437.68
486.61	421.30
486.78	444.70
486.96	425.98
487.14	472.79
487.32	388.53
487.50	510.24
487.68	421.30
487.85	369.80
488.03	479.81
488.21	477.47
488.39	409.59
488.57	367.46
488.75	393.21
488.92	482.15
489.10	390.87
489.28	346.40
489.46	416.62
489.64	400.23
489.81	416.62
489.99	437.68
490.17	393.21
490.35	449.38
490.53	510.24
490.70	465.77
490.88	395.55
491.06	386.19
491.24	421.30
491.41	430.66
491.59	416.62
491.77	376.83
491.95	362.78
492.13	322.99
492.30	416.62
492.48	393.21
492.66	463.43
492.84	390.87
493.01	404.91
493.19	500.87
493.37	468.11
493.54	451.72
493.72	468.11
493.90	435.34
494.08	437.68
494.25	407.25
494.43	416.62
494.61	407.25
494.79	402.57
494.96	374.49
495.14	428.32
495.32	461.09
495.49	409.59
495.67	376.83
495.85	404.91
496.02	475.13
496.20	395.55
496.38	411.93
496.55	421.30
496.73	397.89
496.91	386.19
497.09	414.27
497.26	400.23
497.44	475.13
497.62	402.57
497.79	358.10
497.97	442.36
498.14	404.91
498.32	472.79
498.50	430.66
498.67	416.62
498.85	425.98
499.03	395.55
499.20	334.70
499.38	430.66
499.56	376.83
499.73	461.09
499.91	451.72
500.08	454.06
500.26	390.87
500.44	362.78
500.61	458.74
500.79	367.46
500.97	395.55
501.14	470.45
501.32	489.17
501.49	456.40
501.67	365.12
501.84	425.98
502.02	475.13
502.20	510.24
502.37	393.21
502.55	407.25
502.72	425.98
502.90	456.40
503.07	379.17
503.25	421.30
503.43	423.64
503.60	355.76
503.78	402.57
503.95	433.00
504.13	360.44
504.30	402.57
504.48	379.17
504.65	468.11
504.83	425.98
505.01	435.34
505.18	418.96
505.36	353.42
505.53	416.62
505.71	376.83
505.88	414.27
506.06	367.46
506.23	381.51
506.41	395.55
506.58	423.64
506.76	414.27
506.93	390.87
507.11	444.70
507.28	369.80
507.46	447.04
507.63	386.19
507.81	433.00
507.98	425.98
508.16	482.15
508.33	393.21
508.50	440.02
508.68	397.89
508.85	418.96
509.03	376.83
509.20	414.27
509.38	402.57
509.55	470.45
509.73	437.68
509.90	437.68
510.08	442.36
510.25	367.46
510.42	369.80
510.60	402.57
510.77	458.74
510.95	409.59
511.12	379.17
511.30	470.45
511.47	421.30
511.64	442.36
511.82	379.17
511.99	334.70
512.17	454.06
512.34	428.32
512.51	358.10
512.69	402.57
512.86	402.57
513.04	414.27
513.21	489.17
513.38	428.32
513.56	440.02
513.73	430.66
513.90	388.53
514.08	311.29
514.25	379.17
514.43	510.24
514.60	407.25
514.77	367.46
514.95	404.91
515.12	430.66
515.29	407.25
515.47	388.53
515.64	444.70
515.81	472.79
515.99	409.59
516.16	454.06
516.33	404.91
516.51	395.55
516.68	444.70
516.85	407.25
517.03	386.19
517.20	470.45
517.37	362.78
517.54	351.08
517.72	442.36
517.89	428.32
518.06	332.36
518.24	376.83
518.41	400.23
518.58	423.64
518.75	383.85
518.93	346.40
519.10	430.66
519.27	428.32
519.45	477.47
519.62	454.06
519.79	407.25
519.96	407.25
520.14	374.49
520.31	447.04
520.48	433.00
520.65	433.00
520.83	433.00
521.00	414.27
521.17	407.25
521.34	409.59
521.52	400.23
521.69	409.59
521.86	409.59
522.03	379.17
522.20	425.98
522.38	416.62
522.55	376.83
522.72	465.77
522.89	404.91
523.07	505.56
523.24	423.64
523.41	379.17
523.58	402.57
523.75	430.66
523.92	440.02
524.10	411.93
524.27	433.00
524.44	372.15
524.61	383.85
524.78	461.09
524.96	390.87
525.13	458.74
525.30	449.38
525.47	442.36
525.64	463.43
525.81	379.17
525.98	440.02
526.16	365.12
526.33	491.51
526.50	472.79
526.67	477.47
526.84	442.36
527.01	374.49
527.18	451.72
527.36	444.70
527.53	470.45
527.70	418.96
527.87	400.23
528.04	557.05
528.21	472.79
528.38	390.87
528.55	468.11
528.72	442.36
528.89	404.91
529.07	484.49
529.24	388.53
529.41	447.04
529.58	433.00
529.75	465.77
529.92	489.17
530.09	435.34
530.26	386.19
530.43	395.55
530.60	416.62
530.77	442.36
530.94	470.45
531.11	393.21
531.28	435.34
531.46	430.66
531.63	463.43
531.80	423.64
531.97	433.00
532.14	386.19
532.31	395.55
532.48	365.12
532.65	454.06
532.82	367.46
532.99	440.02
533.16	482.15
533.33	425.98
533.50	421.30
533.67	454.06
533.84	395.55
534.01	367.46
534.18	362.78
534.35	383.85
534.52	433.00
534.69	447.04
534.86	435.34
535.03	409.59
535.20	444.70
535.37	458.74
535.54	400.23
535.71	414.27
535.88	400.23
536.05	430.66
536.22	421.30
536.38	397.89
536.55	393.21
536.72	454.06
536.89	421.30
537.06	390.87
537.23	428.32
537.40	376.83
537.57	369.80
537.74	407.25
537.91	463.43
538.08	461.09
538.25	407.25
538.42	407.25
538.59	402.57
538.75	447.04
538.92	430.66
539.09	451.72
539.26	390.87
539.43	468.11
539.60	437.68
539.77	418.96
539.94	355.76
540.11	472.79
540.28	454.06
540.44	437.68
540.61	393.21
540.78	456.40
540.95	430.66
541.12	435.34
541.29	407.25
541.46	519.60
541.62	360.44
541.79	418.96
541.96	416.62
542.13	416.62
542.30	381.51
542.47	365.12
542.63	411.93
542.80	418.96
542.97	484.49
543.14	411.93
543.31	400.23
543.48	411.93
543.64	486.83
543.81	433.00
543.98	414.27
544.15	409.59
544.32	505.56
544.48	360.44
544.65	404.91
544.82	437.68
544.99	407.25
545.16	486.83
545.32	358.10
545.49	386.19
545.66	418.96
545.83	428.32
546.00	451.72
546.16	351.08
546.33	386.19
546.50	414.27
546.67	430.66
546.83	465.77
547.00	465.77
547.17	369.80
547.34	421.30
547.50	428.32
547.67	447.04
547.84	458.74
548.00	514.92
548.17	444.70
548.34	484.49
548.51	397.89
548.67	433.00
548.84	491.51
549.01	489.17
549.18	402.57
549.34	454.06
549.51	407.25
549.68	379.17
549.84	470.45
550.01	395.55
550.18	458.74
550.34	449.38
550.51	362.78
550.68	535.98
550.84	390.87
551.01	486.83
551.18	489.17
551.34	458.74
551.51	451.72
551.68	449.38
551.84	484.49
552.01	393.21
552.18	444.70
552.34	351.08
552.51	400.23
552.68	425.98
552.84	442.36
553.01	477.47
553.18	425.98
553.34	423.64
553.51	360.44
553.67	348.74
553.84	538.32
554.01	454.06
554.17	444.70
554.34	395.55
554.51	379.17
554.67	468.11
554.84	433.00
555.00	440.02
555.17	430.66
555.33	440.02
555.50	395.55
555.67	386.19
555.83	294.91
556.00	374.49
556.16	568.75
556.33	421.30
556.50	386.19
556.66	486.83
556.83	344.06
556.99	411.93
557.16	379.17
557.32	433.00
557.49	379.17
557.65	414.27
557.82	414.27
557.98	341.72
558.15	442.36
558.32	397.89
558.48	433.00
558.65	451.72
558.81	435.34
558.98	472.79
559.14	433.00
559.31	404.91
559.47	463.43
559.64	407.25
559.80	369.80
559.97	365.12
560.13	383.85
560.30	358.10
560.46	437.68
560.63	379.17
560.79	425.98
560.96	395.55
561.12	381.51
561.29	451.72
561.45	414.27
561.61	358.10
561.78	486.83
561.94	407.25
562.11	468.11
562.27	362.78
562.44	414.27
562.60	442.36
562.77	416.62
562.93	500.87
563.10	367.46
563.26	482.15
563.42	437.68
563.59	374.49
563.75	418.96
563.92	442.36
564.08	379.17
564.24	416.62
564.41	470.45
564.57	330.02
564.74	414.27
564.90	468.11
565.07	430.66
565.23	442.36
565.39	437.68
565.56	404.91
565.72	365.12
565.88	454.06
566.05	346.40
566.21	456.40
566.38	365.12
566.54	486.83
566.70	447.04
566.87	381.51
567.03	383.85
567.19	425.98
567.36	461.09
567.52	418.96
567.68	437.68
567.85	393.21
568.01	447.04
568.17	447.04
568.34	447.04
568.50	498.53
568.66	362.78
568.83	444.70
568.99	416.62
569.15	521.94
569.32	440.02
569.48	425.98
569.64	397.89
569.81	367.46
569.97	484.49
570.13	383.85
570.30	477.47
570.46	421.30
570.62	360.44
570.78	421.30
570.95	381.51
571.11	425.98
571.27	428.32
571.43	395.55
571.60	341.72
571.76	444.70
571.92	400.23
572.09	397.89
572.25	379.17
572.41	435.34
572.57	383.85
572.74	507.90
572.90	470.45
573.06	411.93
573.22	393.21
573.38	423.64
573.55	430.66
573.71	465.77
573.87	383.85
574.03	454.06
574.20	442.36
574.36	423.64
574.52	454.06
574.68	447.04
574.84	433.00
575.01	402.57
575.17	381.51
575.33	407.25
575.49	491.51
575.65	447.04
575.82	400.23
575.98	454.06
576.14	409.59
576.30	402.57
576.46	400.23
576.62	475.13
576.79	440.02
576.95	503.22
577.11	393.21
577.27	376.83
577.43	475.13
577.59	491.51
577.75	428.32
577.92	456.40
578.08	358.10
578.24	388.53
578.40	458.74
578.56	416.62
578.72	472.79
578.88	458.74
579.04	365.12
579.21	463.43
579.37	400.23
579.53	440.02
579.69	386.19
579.85	404.91
580.01	400.23
580.17	379.17
580.33	411.93
580.49	395.55
580.65	442.36
580.82	404.91
580.98	437.68
581.14	407.25
581.30	507.90
581.46	430.66
581.62	423.64
581.78	409.59
581.94	447.04
582.10	418.96
582.26	456.40
582.42	409.59
582.58	440.02
582.74	444.70
582.90	425.98
583.06	475.13
583.22	472.79
583.38	407.25
583.54	440.02
583.70	449.38
583.86	355.76
584.02	454.06
584.18	470.45
584.34	428.32
584.50	360.44
584.66	442.36
584.82	435.34
584.98	400.23
585.14	451.72
585.30	456.40
585.46	475.13
585.62	425.98
585.78	395.55
585.94	503.22
586.10	428.32
586.26	442.36
586.42	379.17
586.58	418.96
586.74	386.19
586.90	407.25
587.06	411.93
587.22	461.09
587.38	454.06
587.54	437.68
587.70	458.74
587.86	369.80
588.02	433.00
588.18	440.02
588.34	470.45
588.49	381.51
588.65	468.11
588.81	435.34
588.97	416.62
589.13	472.79
589.29	468.11
589.45	503.22
589.61	425.98
589.77	428.32
589.93	390.87
590.08	411.93
590.24	383.85
590.40	393.21
590.56	477.47
590.72	416.62
590.88	322.99
591.04	402.57
591.20	346.40
591.35	465.77
591.51	383.85
591.67	383.85
591.83	423.64
591.99	491.51
592.15	428.32
592.31	454.06
592.46	407.25
592.62	449.38
592.78	437.68
592.94	444.70
593.10	423.64
593.26	379.17
593.41	376.83
593.57	376.83
593.73	400.23
593.89	414.27
594.05	444.70
594.20	381.51
594.36	393.21
594.52	383.85
594.68	475.13
594.84	388.53
594.99	463.43
595.15	442.36
595.31	505.56
595.47	470.45
595.62	397.89
595.78	430.66
595.94	423.64
596.10	414.27
596.25	449.38
596.41	418.96
596.57	383.85
596.73	381.51
596.88	435.34
597.04	414.27
597.20	416.62
597.36	437.68
597.51	433.00
597.67	402.57
597.83	414.27
597.99	421.30
598.14	402.57
598.30	447.04
598.46	388.53
598.61	440.02
598.77	383.85
598.93	430.66
599.09	360.44
599.24	379.17
599.40	367.46
599.56	442.36
599.71	512.58
599.87	491.51
600.03	416.62
600.18	372.15
600.34	390.87
600.50	381.51
600.65	372.15
600.81	341.72
600.97	430.66
601.12	447.04
601.28	482.15
601.44	519.60
601.59	411.93
601.75	470.45
601.91	393.21
602.06	390.87
602.22	500.87
602.37	409.59
602.53	440.02
602.69	486.83
602.84	470.45
603.00	440.02
603.16	388.53
603.31	451.72
603.47	409.59
603.62	407.25
603.78	416.62
603.94	428.32
604.09	465.77
604.25	465.77
604.40	395.55
604.56	360.44
604.71	358.10
604.87	388.53
605.03	472.79
605.18	383.85
605.34	423.64
605.49	416.62
605.65	416.62
605.80	365.12
605.96	395.55
606.12	390.87
606.27	444.70
606.43	379.17
606.58	397.89
606.74	379.17
606.89	369.80
607.05	449.38
607.20	493.85
607.36	416.62
607.51	423.64
607.67	421.30
607.82	472.79
607.98	458.74
608.13	407.25
608.29	421.30
608.44	454.06
608.60	395.55
608.75	421.30
608.91	411.93
609.06	414.27
609.22	547.69
609.37	491.51
609.53	397.89
609.68	451.72
609.84	456.40
609.99	397.89
610.15	425.98
