SpectraSuite Data File
++++++++++++++++++++++++++++++++++++
Date: Fri Oct 25 12:11:26 EDT 2013
User: price-jones
Dark Spectrum Present: No
Reference Spectrum Present: No
Number of Sampled Component Spectra: 1
Spectrometers: USB2+H05261
Integration Time (usec): 100000 (USB2+H05261)
Spectra Averaged: 1 (USB2+H05261)
Boxcar Smoothing: 0 (USB2+H05261)
Correct for Electrical Dark: No (USB2+H05261)
Strobe/Lamp Enabled: No (USB2+H05261)
Correct for Detector Non-linearity: No (USB2+H05261)
Correct for Stray Light: No (USB2+H05261)
Number of Pixels in Processed Spectrum: 2048
>>>>>Begin Processed Spectral Data<<<<<
365.73	320.65
365.92	320.65
366.12	320.65
366.32	266.82
366.52	269.16
366.72	215.33
366.91	252.78
367.11	283.20
367.31	220.01
367.51	266.82
367.70	252.78
367.90	245.76
368.10	243.42
368.30	280.86
368.49	257.46
368.69	248.10
368.89	236.39
369.09	187.24
369.28	227.03
369.48	287.89
369.68	285.55
369.87	255.12
370.07	241.08
370.27	301.93
370.47	339.38
370.66	418.96
370.86	365.12
371.06	383.85
371.25	400.23
371.45	395.55
371.65	358.10
371.84	269.16
372.04	388.53
372.24	395.55
372.44	383.85
372.63	423.64
372.83	372.15
373.03	400.23
373.22	411.93
373.42	407.25
373.62	454.06
373.81	374.49
374.01	451.72
374.21	482.15
374.40	409.59
374.60	386.19
374.79	409.59
374.99	383.85
375.19	447.04
375.38	416.62
375.58	425.98
375.78	519.60
375.97	507.90
376.17	486.83
376.37	489.17
376.56	428.32
376.76	390.87
376.95	477.47
377.15	468.11
377.35	416.62
377.54	514.92
377.74	418.96
377.93	430.66
378.13	418.96
378.33	390.87
378.52	433.00
378.72	407.25
378.91	437.68
379.11	360.44
379.31	379.17
379.50	369.80
379.70	456.40
379.89	395.55
380.09	409.59
380.28	442.36
380.48	470.45
380.68	482.15
380.87	435.34
381.07	423.64
381.26	407.25
381.46	374.49
381.65	393.21
381.85	447.04
382.04	418.96
382.24	365.12
382.43	421.30
382.63	351.08
382.83	400.23
383.02	421.30
383.22	390.87
383.41	381.51
383.61	451.72
383.80	397.89
384.00	360.44
384.19	386.19
384.39	411.93
384.58	381.51
384.78	447.04
384.97	411.93
385.17	416.62
385.36	428.32
385.56	421.30
385.75	348.74
385.95	435.34
386.14	416.62
386.34	423.64
386.53	416.62
386.72	358.10
386.92	496.19
387.11	414.27
387.31	381.51
387.50	400.23
387.70	409.59
387.89	348.74
388.09	341.72
388.28	395.55
388.48	402.57
388.67	418.96
388.86	376.83
389.06	407.25
389.25	411.93
389.45	440.02
389.64	430.66
389.84	440.02
390.03	433.00
390.22	402.57
390.42	402.57
390.61	344.06
390.81	388.53
391.00	334.70
391.19	440.02
391.39	414.27
391.58	367.46
391.78	404.91
391.97	430.66
392.16	386.19
392.36	461.09
392.55	454.06
392.75	451.72
392.94	468.11
393.13	472.79
393.33	477.47
393.52	486.83
393.71	367.46
393.91	433.00
394.10	407.25
394.29	444.70
394.49	409.59
394.68	402.57
394.88	440.02
395.07	416.62
395.26	430.66
395.46	355.76
395.65	367.46
395.84	402.57
396.04	440.02
396.23	404.91
396.42	458.74
396.62	393.21
396.81	393.21
397.00	428.32
397.19	423.64
397.39	404.91
397.58	348.74
397.77	458.74
397.97	325.33
398.16	421.30
398.35	414.27
398.55	435.34
398.74	351.08
398.93	388.53
399.12	395.55
399.32	425.98
399.51	414.27
399.70	327.68
399.90	435.34
400.09	442.36
400.28	440.02
400.47	397.89
400.67	402.57
400.86	395.55
401.05	320.65
401.24	468.11
401.44	416.62
401.63	395.55
401.82	404.91
402.01	381.51
402.21	482.15
402.40	404.91
402.59	353.42
402.78	423.64
402.97	435.34
403.17	372.15
403.36	409.59
403.55	411.93
403.74	465.77
403.93	414.27
404.13	503.22
404.32	411.93
404.51	341.72
404.70	437.68
404.89	425.98
405.09	451.72
405.28	320.65
405.47	484.49
405.66	397.89
405.85	381.51
406.05	475.13
406.24	379.17
406.43	428.32
406.62	416.62
406.81	400.23
407.00	449.38
407.20	374.49
407.39	409.59
407.58	390.87
407.77	472.79
407.96	365.12
408.15	470.45
408.34	468.11
408.54	437.68
408.73	404.91
408.92	400.23
409.11	376.83
409.30	383.85
409.49	428.32
409.68	355.76
409.87	461.09
410.07	320.65
410.26	397.89
410.45	393.21
410.64	388.53
410.83	381.51
411.02	372.15
411.21	451.72
411.40	404.91
411.59	409.59
411.78	332.36
411.98	468.11
412.17	383.85
412.36	353.42
412.55	360.44
412.74	444.70
412.93	444.70
413.12	428.32
413.31	425.98
413.50	461.09
413.69	442.36
413.88	524.28
414.07	421.30
414.26	404.91
414.45	414.27
414.64	397.89
414.83	442.36
415.02	444.70
415.22	393.21
415.41	428.32
415.60	402.57
415.79	493.85
415.98	442.36
416.17	423.64
416.36	358.10
416.55	430.66
416.74	437.68
416.93	435.34
417.12	393.21
417.31	444.70
417.50	404.91
417.69	402.57
417.88	435.34
418.07	444.70
418.26	395.55
418.45	425.98
418.64	400.23
418.83	344.06
419.02	444.70
419.21	390.87
419.39	344.06
419.58	395.55
419.77	400.23
419.96	425.98
420.15	489.17
420.34	409.59
420.53	400.23
420.72	416.62
420.91	353.42
421.10	379.17
421.29	393.21
421.48	411.93
421.67	430.66
421.86	454.06
422.05	461.09
422.24	451.72
422.43	362.78
422.61	404.91
422.80	397.89
422.99	402.57
423.18	381.51
423.37	416.62
423.56	400.23
423.75	447.04
423.94	425.98
424.13	418.96
424.32	414.27
424.50	440.02
424.69	407.25
424.88	447.04
425.07	447.04
425.26	400.23
425.45	458.74
425.64	355.76
425.83	383.85
426.01	418.96
426.20	358.10
426.39	393.21
426.58	505.56
426.77	430.66
426.96	423.64
427.15	465.77
427.33	416.62
427.52	388.53
427.71	358.10
427.90	407.25
428.09	355.76
428.28	425.98
428.46	444.70
428.65	407.25
428.84	388.53
429.03	435.34
429.22	463.43
429.40	407.25
429.59	421.30
429.78	421.30
429.97	402.57
430.16	337.04
430.34	365.12
430.53	435.34
430.72	376.83
430.91	388.53
431.10	428.32
431.28	358.10
431.47	372.15
431.66	409.59
431.85	365.12
432.03	418.96
432.22	477.47
432.41	451.72
432.60	383.85
432.79	367.46
432.97	346.40
433.16	400.23
433.35	369.80
433.54	402.57
433.72	416.62
433.91	447.04
434.10	393.21
434.28	451.72
434.47	404.91
434.66	423.64
434.85	414.27
435.03	388.53
435.22	458.74
435.41	386.19
435.59	451.72
435.78	400.23
435.97	404.91
436.16	430.66
436.34	388.53
436.53	435.34
436.72	407.25
436.90	428.32
437.09	444.70
437.28	440.02
437.46	475.13
437.65	402.57
437.84	367.46
438.02	414.27
438.21	407.25
438.40	374.49
438.58	393.21
438.77	404.91
438.96	304.27
439.14	369.80
439.33	393.21
439.52	425.98
439.70	390.87
439.89	397.89
440.08	381.51
440.26	322.99
440.45	421.30
440.63	430.66
440.82	407.25
441.01	468.11
441.19	390.87
441.38	433.00
441.57	393.21
441.75	423.64
441.94	454.06
442.12	430.66
442.31	365.12
442.50	414.27
442.68	517.26
442.87	442.36
443.05	444.70
443.24	346.40
443.43	390.87
443.61	493.85
443.80	491.51
443.98	423.64
444.17	414.27
444.35	421.30
444.54	386.19
444.73	461.09
444.91	428.32
445.10	444.70
445.28	409.59
445.47	402.57
445.65	353.42
445.84	435.34
446.02	447.04
446.21	428.32
446.39	442.36
446.58	428.32
446.77	447.04
446.95	444.70
447.14	449.38
447.32	482.15
447.51	411.93
447.69	425.98
447.88	390.87
448.06	400.23
448.25	379.17
448.43	433.00
448.62	418.96
448.80	425.98
448.99	428.32
449.17	465.77
449.36	507.90
449.54	454.06
449.73	395.55
449.91	362.78
450.10	348.74
450.28	489.17
450.46	484.49
450.65	402.57
450.83	397.89
451.02	414.27
451.20	395.55
451.39	374.49
451.57	449.38
451.76	444.70
451.94	428.32
452.13	402.57
452.31	458.74
452.49	430.66
452.68	447.04
452.86	423.64
453.05	416.62
453.23	372.15
453.42	414.27
453.60	388.53
453.78	332.36
453.97	379.17
454.15	376.83
454.34	425.98
454.52	358.10
454.70	489.17
454.89	437.68
455.07	437.68
455.26	430.66
455.44	390.87
455.62	383.85
455.81	374.49
455.99	493.85
456.17	411.93
456.36	400.23
456.54	449.38
456.73	395.55
456.91	379.17
457.09	517.26
457.28	451.72
457.46	369.80
457.64	407.25
457.83	442.36
458.01	423.64
458.19	409.59
458.38	449.38
458.56	379.17
458.74	425.98
458.93	388.53
459.11	404.91
459.29	414.27
459.48	414.27
459.66	451.72
459.84	435.34
460.03	484.49
460.21	388.53
460.39	461.09
460.57	416.62
460.76	433.00
460.94	444.70
461.12	437.68
461.31	372.15
461.49	458.74
461.67	383.85
461.85	400.23
462.04	465.77
462.22	746.63
462.40	472.79
462.59	397.89
462.77	330.02
462.95	433.00
463.13	442.36
463.32	390.87
463.50	301.93
463.68	409.59
463.86	414.27
464.05	393.21
464.23	418.96
464.41	447.04
464.59	407.25
464.78	386.19
464.96	337.04
465.14	355.76
465.32	395.55
465.50	423.64
465.69	454.06
465.87	374.49
466.05	423.64
466.23	435.34
466.41	393.21
466.60	397.89
466.78	421.30
466.96	430.66
467.14	395.55
467.32	386.19
467.51	381.51
467.69	402.57
467.87	367.46
468.05	454.06
468.23	472.79
468.41	477.47
468.60	423.64
468.78	470.45
468.96	397.89
469.14	411.93
469.32	365.12
469.50	393.21
469.69	437.68
469.87	397.89
470.05	395.55
470.23	437.68
470.41	388.53
470.59	423.64
470.77	444.70
470.95	381.51
471.14	444.70
471.32	400.23
471.50	449.38
471.68	430.66
471.86	463.43
472.04	404.91
472.22	344.06
472.40	388.53
472.58	383.85
472.77	454.06
472.95	334.70
473.13	430.66
473.31	437.68
473.49	409.59
473.67	421.30
473.85	437.68
474.03	451.72
474.21	451.72
474.39	475.13
474.57	463.43
474.75	477.47
474.93	435.34
475.12	463.43
475.30	425.98
475.48	393.21
475.66	454.06
475.84	484.49
476.02	430.66
476.20	430.66
476.38	447.04
476.56	449.38
476.74	402.57
476.92	313.63
477.10	404.91
477.28	472.79
477.46	374.49
477.64	435.34
477.82	449.38
478.00	447.04
478.18	407.25
478.36	409.59
478.54	372.15
478.72	451.72
478.90	390.87
479.08	374.49
479.26	430.66
479.44	440.02
479.62	355.76
479.80	519.60
479.98	351.08
480.16	416.62
480.34	461.09
480.52	472.79
480.70	404.91
480.88	400.23
481.06	418.96
481.24	383.85
481.41	395.55
481.59	425.98
481.77	486.83
481.95	416.62
482.13	393.21
482.31	444.70
482.49	411.93
482.67	411.93
482.85	475.13
483.03	402.57
483.21	397.89
483.39	365.12
483.57	376.83
483.74	393.21
483.92	388.53
484.10	388.53
484.28	353.42
484.46	461.09
484.64	365.12
484.82	402.57
485.00	461.09
485.18	315.97
485.35	381.51
485.53	423.64
485.71	402.57
485.89	447.04
486.07	418.96
486.25	479.81
486.43	425.98
486.61	472.79
486.78	430.66
486.96	395.55
487.14	449.38
487.32	454.06
487.50	425.98
487.68	456.40
487.85	411.93
488.03	461.09
488.21	418.96
488.39	416.62
488.57	444.70
488.75	351.08
488.92	514.92
489.10	500.87
489.28	447.04
489.46	407.25
489.64	393.21
489.81	386.19
489.99	451.72
490.17	489.17
490.35	517.26
490.53	367.46
490.70	423.64
490.88	355.76
491.06	500.87
491.24	395.55
491.41	379.17
491.59	414.27
491.77	358.10
491.95	409.59
492.13	388.53
492.30	454.06
492.48	442.36
492.66	400.23
492.84	440.02
493.01	449.38
493.19	500.87
493.37	468.11
493.54	393.21
493.72	397.89
493.90	365.12
494.08	358.10
494.25	414.27
494.43	433.00
494.61	421.30
494.79	421.30
494.96	454.06
495.14	437.68
495.32	407.25
495.49	381.51
495.67	360.44
495.85	421.30
496.02	442.36
496.20	461.09
496.38	344.06
496.55	404.91
496.73	456.40
496.91	465.77
497.09	411.93
497.26	386.19
497.44	407.25
497.62	477.47
497.79	372.15
497.97	430.66
498.14	393.21
498.32	407.25
498.50	409.59
498.67	390.87
498.85	409.59
499.03	386.19
499.20	386.19
499.38	475.13
499.56	423.64
499.73	395.55
499.91	442.36
500.08	447.04
500.26	442.36
500.44	418.96
500.61	451.72
500.79	381.51
500.97	411.93
501.14	437.68
501.32	463.43
501.49	433.00
501.67	433.00
501.84	454.06
502.02	379.17
502.20	486.83
502.37	383.85
502.55	472.79
502.72	390.87
502.90	383.85
503.07	404.91
503.25	454.06
503.43	442.36
503.60	465.77
503.78	374.49
503.95	404.91
504.13	470.45
504.30	388.53
504.48	418.96
504.65	475.13
504.83	493.85
505.01	388.53
505.18	381.51
505.36	365.12
505.53	421.30
505.71	358.10
505.88	409.59
506.06	397.89
506.23	421.30
506.41	400.23
506.58	423.64
506.76	381.51
506.93	390.87
507.11	409.59
507.28	297.25
507.46	351.08
507.63	435.34
507.81	435.34
507.98	383.85
508.16	437.68
508.33	425.98
508.50	477.47
508.68	400.23
508.85	388.53
509.03	381.51
509.20	435.34
509.38	423.64
509.55	351.08
509.73	451.72
509.90	451.72
510.08	400.23
510.25	519.60
510.42	411.93
510.60	421.30
510.77	482.15
510.95	400.23
511.12	430.66
511.30	414.27
511.47	414.27
511.64	421.30
511.82	362.78
511.99	456.40
512.17	395.55
512.34	402.57
512.51	442.36
512.69	486.83
512.86	472.79
513.04	360.44
513.21	425.98
513.38	358.10
513.56	425.98
513.73	444.70
513.90	372.15
514.08	381.51
514.25	491.51
514.43	470.45
514.60	383.85
514.77	376.83
514.95	395.55
515.12	454.06
515.29	369.80
515.47	372.15
515.64	451.72
515.81	458.74
515.99	435.34
516.16	407.25
516.33	430.66
516.51	407.25
516.68	362.78
516.85	421.30
517.03	442.36
517.20	416.62
517.37	468.11
517.54	416.62
517.72	397.89
517.89	409.59
518.06	435.34
518.24	409.59
518.41	440.02
518.58	358.10
518.75	430.66
518.93	400.23
519.10	440.02
519.27	475.13
519.45	428.32
519.62	416.62
519.79	505.56
519.96	395.55
520.14	402.57
520.31	500.87
520.48	430.66
520.65	456.40
520.83	435.34
521.00	404.91
521.17	425.98
521.34	449.38
521.52	423.64
521.69	461.09
521.86	388.53
522.03	425.98
522.20	447.04
522.38	425.98
522.55	404.91
522.72	428.32
522.89	430.66
523.07	416.62
523.24	376.83
523.41	423.64
523.58	444.70
523.75	440.02
523.92	390.87
524.10	421.30
524.27	376.83
524.44	407.25
524.61	409.59
524.78	433.00
524.96	458.74
525.13	390.87
525.30	376.83
525.47	376.83
525.64	381.51
525.81	395.55
525.98	348.74
526.16	486.83
526.33	339.38
526.50	454.06
526.67	444.70
526.84	351.08
527.01	482.15
527.18	416.62
527.36	325.33
527.53	454.06
527.70	369.80
527.87	404.91
528.04	491.51
528.21	423.64
528.38	465.77
528.55	451.72
528.72	374.49
528.89	437.68
529.07	400.23
529.24	397.89
529.41	442.36
529.58	397.89
529.75	444.70
529.92	397.89
530.09	341.72
530.26	388.53
530.43	411.93
530.60	449.38
530.77	367.46
530.94	435.34
531.11	451.72
531.28	423.64
531.46	386.19
531.63	402.57
531.80	437.68
531.97	407.25
532.14	400.23
532.31	337.04
532.48	449.38
532.65	435.34
532.82	447.04
532.99	482.15
533.16	374.49
533.33	435.34
533.50	423.64
533.67	409.59
533.84	409.59
534.01	430.66
534.18	379.17
534.35	383.85
534.52	393.21
534.69	435.34
534.86	433.00
535.03	322.99
535.20	395.55
535.37	493.85
535.54	442.36
535.71	454.06
535.88	461.09
536.05	386.19
536.22	425.98
536.38	397.89
536.55	465.77
536.72	454.06
536.89	381.51
537.06	407.25
537.23	404.91
537.40	456.40
537.57	425.98
537.74	472.79
537.91	435.34
538.08	458.74
538.25	477.47
538.42	395.55
538.59	397.89
538.75	393.21
538.92	423.64
539.09	409.59
539.26	479.81
539.43	482.15
539.60	407.25
539.77	440.02
539.94	421.30
540.11	458.74
540.28	409.59
540.44	402.57
540.61	444.70
540.78	397.89
540.95	425.98
541.12	365.12
541.29	367.46
541.46	416.62
541.62	402.57
541.79	486.83
541.96	454.06
542.13	390.87
542.30	374.49
542.47	479.81
542.63	416.62
542.80	435.34
542.97	468.11
543.14	458.74
543.31	435.34
543.48	411.93
543.64	397.89
543.81	383.85
543.98	374.49
544.15	355.76
544.32	440.02
544.48	339.38
544.65	369.80
544.82	390.87
544.99	390.87
545.16	379.17
545.32	442.36
545.49	418.96
545.66	414.27
545.83	346.40
546.00	292.57
546.16	318.31
546.33	435.34
546.50	348.74
546.67	491.51
546.83	430.66
547.00	423.64
547.17	376.83
547.34	428.32
547.50	407.25
547.67	397.89
547.84	449.38
548.00	348.74
548.17	442.36
548.34	451.72
548.51	440.02
548.67	444.70
548.84	409.59
549.01	367.46
549.18	404.91
549.34	400.23
549.51	390.87
549.68	454.06
549.84	372.15
550.01	397.89
550.18	407.25
550.34	423.64
550.51	409.59
550.68	442.36
550.84	390.87
551.01	416.62
551.18	390.87
551.34	390.87
551.51	472.79
551.68	451.72
551.84	402.57
552.01	381.51
552.18	397.89
552.34	444.70
552.51	463.43
552.68	416.62
552.84	379.17
553.01	451.72
553.18	463.43
553.34	500.87
553.51	339.38
553.67	404.91
553.84	421.30
554.01	402.57
554.17	355.76
554.34	435.34
554.51	451.72
554.67	444.70
554.84	425.98
555.00	397.89
555.17	407.25
555.33	409.59
555.50	421.30
555.67	372.15
555.83	421.30
556.00	447.04
556.16	526.62
556.33	477.47
556.50	369.80
556.66	430.66
556.83	449.38
556.99	369.80
557.16	381.51
557.32	353.42
557.49	409.59
557.65	447.04
557.82	395.55
557.98	463.43
558.15	428.32
558.32	447.04
558.48	430.66
558.65	402.57
558.81	451.72
558.98	379.17
559.14	454.06
559.31	500.87
559.47	407.25
559.64	500.87
559.80	400.23
559.97	395.55
560.13	461.09
560.30	418.96
560.46	402.57
560.63	409.59
560.79	381.51
560.96	376.83
561.12	430.66
561.29	458.74
561.45	421.30
561.61	472.79
561.78	442.36
561.94	418.96
562.11	411.93
562.27	402.57
562.44	386.19
562.60	341.72
562.77	425.98
562.93	484.49
563.10	369.80
563.26	418.96
563.42	430.66
563.59	388.53
563.75	411.93
563.92	404.91
564.08	425.98
564.24	400.23
564.41	461.09
564.57	468.11
564.74	416.62
564.90	425.98
565.07	416.62
565.23	421.30
565.39	369.80
565.56	416.62
565.72	411.93
565.88	379.17
566.05	397.89
566.21	367.46
566.38	355.76
566.54	461.09
566.70	365.12
566.87	372.15
567.03	428.32
567.19	409.59
567.36	463.43
567.52	386.19
567.68	454.06
567.85	456.40
568.01	423.64
568.17	404.91
568.34	393.21
568.50	440.02
568.66	470.45
568.83	524.28
568.99	442.36
569.15	402.57
569.32	404.91
569.48	451.72
569.64	421.30
569.81	421.30
569.97	407.25
570.13	489.17
570.30	383.85
570.46	425.98
570.62	463.43
570.78	395.55
570.95	425.98
571.11	470.45
571.27	505.56
571.43	346.40
571.60	461.09
571.76	447.04
571.92	360.44
572.09	365.12
572.25	388.53
572.41	442.36
572.57	386.19
572.74	414.27
572.90	414.27
573.06	388.53
573.22	456.40
573.38	421.30
573.55	447.04
573.71	409.59
573.87	454.06
574.03	353.42
574.20	472.79
574.36	407.25
574.52	440.02
574.68	409.59
574.84	442.36
575.01	421.30
575.17	475.13
575.33	435.34
575.49	411.93
575.65	451.72
575.82	407.25
575.98	454.06
576.14	449.38
576.30	428.32
576.46	383.85
576.62	465.77
576.79	454.06
576.95	449.38
577.11	409.59
577.27	407.25
577.43	393.21
577.59	442.36
577.75	456.40
577.92	409.59
578.08	341.72
578.24	383.85
578.40	418.96
578.56	381.51
578.72	454.06
578.88	524.28
579.04	449.38
579.21	477.47
579.37	428.32
579.53	435.34
579.69	451.72
579.85	512.58
580.01	433.00
580.17	407.25
580.33	430.66
580.49	388.53
580.65	411.93
580.82	358.10
580.98	451.72
581.14	393.21
581.30	465.77
581.46	374.49
581.62	435.34
581.78	386.19
581.94	353.42
582.10	374.49
582.26	477.47
582.42	440.02
582.58	416.62
582.74	351.08
582.90	444.70
583.06	395.55
583.22	353.42
583.38	400.23
583.54	372.15
583.70	447.04
583.86	442.36
584.02	451.72
584.18	449.38
584.34	402.57
584.50	423.64
584.66	369.80
584.82	418.96
584.98	411.93
585.14	397.89
585.30	458.74
585.46	397.89
585.62	376.83
585.78	411.93
585.94	414.27
586.10	512.58
586.26	386.19
586.42	358.10
586.58	395.55
586.74	393.21
586.90	468.11
587.06	475.13
587.22	395.55
587.38	390.87
587.54	440.02
587.70	463.43
587.86	472.79
588.02	423.64
588.18	400.23
588.34	456.40
588.49	454.06
588.65	381.51
588.81	355.76
588.97	428.32
589.13	393.21
589.29	444.70
589.45	414.27
589.61	454.06
589.77	482.15
589.93	362.78
590.08	404.91
590.24	353.42
590.40	433.00
590.56	404.91
590.72	425.98
590.88	465.77
591.04	423.64
591.20	440.02
591.35	458.74
591.51	341.72
591.67	388.53
591.83	358.10
591.99	411.93
592.15	397.89
592.31	500.87
592.46	388.53
592.62	496.19
592.78	397.89
592.94	433.00
593.10	395.55
593.26	400.23
593.41	430.66
593.57	407.25
593.73	381.51
593.89	437.68
594.05	433.00
594.20	491.51
594.36	470.45
594.52	395.55
594.68	411.93
594.84	444.70
594.99	465.77
595.15	440.02
595.31	507.90
595.47	472.79
595.62	381.51
595.78	374.49
595.94	397.89
596.10	411.93
596.25	402.57
596.41	440.02
596.57	425.98
596.73	360.44
596.88	374.49
597.04	433.00
597.20	374.49
597.36	372.15
597.51	400.23
597.67	362.78
597.83	486.83
597.99	444.70
598.14	423.64
598.30	433.00
598.46	400.23
598.61	505.56
598.77	433.00
598.93	407.25
599.09	435.34
599.24	407.25
599.40	390.87
599.56	451.72
599.71	388.53
599.87	388.53
600.03	411.93
600.18	486.83
600.34	376.83
600.50	430.66
600.65	463.43
600.81	519.60
600.97	423.64
601.12	414.27
601.28	360.44
601.44	393.21
601.59	407.25
601.75	454.06
601.91	411.93
602.06	388.53
602.22	454.06
602.37	407.25
602.53	376.83
602.69	407.25
602.84	341.72
603.00	472.79
603.16	407.25
603.31	409.59
603.47	486.83
603.62	428.32
603.78	416.62
603.94	425.98
604.09	402.57
604.25	482.15
604.40	451.72
604.56	442.36
604.71	381.51
604.87	458.74
605.03	376.83
605.18	482.15
605.34	477.47
605.49	360.44
605.65	421.30
605.80	416.62
605.96	416.62
606.12	442.36
606.27	365.12
606.43	440.02
606.58	444.70
606.74	463.43
606.89	444.70
607.05	479.81
607.20	402.57
607.36	409.59
607.51	430.66
607.67	374.49
607.82	440.02
607.98	433.00
608.13	416.62
608.29	454.06
608.44	411.93
608.60	395.55
608.75	435.34
608.91	390.87
609.06	425.98
609.22	440.02
609.37	414.27
609.53	435.34
609.68	414.27
609.84	372.15
609.99	435.34
610.15	414.27
