SpectraSuite Data File
++++++++++++++++++++++++++++++++++++
Date: Fri Oct 25 12:10:18 EDT 2013
User: price-jones
Dark Spectrum Present: No
Reference Spectrum Present: No
Number of Sampled Component Spectra: 1
Spectrometers: USB2+H05261
Integration Time (usec): 100000 (USB2+H05261)
Spectra Averaged: 1 (USB2+H05261)
Boxcar Smoothing: 0 (USB2+H05261)
Correct for Electrical Dark: No (USB2+H05261)
Strobe/Lamp Enabled: No (USB2+H05261)
Correct for Detector Non-linearity: No (USB2+H05261)
Correct for Stray Light: No (USB2+H05261)
Number of Pixels in Processed Spectrum: 2048
>>>>>Begin Processed Spectral Data<<<<<
365.73	294.91
365.92	294.91
366.12	294.91
366.32	280.86
366.52	180.22
366.72	269.16
366.91	203.63
367.11	227.03
367.31	255.12
367.51	238.73
367.70	194.26
367.90	255.12
368.10	203.63
368.30	276.18
368.49	194.26
368.69	278.52
368.89	248.10
369.09	290.23
369.28	236.39
369.48	262.14
369.68	252.78
369.87	292.57
370.07	315.97
370.27	353.42
370.47	369.80
370.66	313.63
370.86	374.49
371.06	444.70
371.25	433.00
371.45	414.27
371.65	337.04
371.84	318.31
372.04	416.62
372.24	425.98
372.44	414.27
372.63	332.36
372.83	440.02
373.03	355.76
373.22	418.96
373.42	433.00
373.62	433.00
373.81	484.49
374.01	477.47
374.21	465.77
374.40	447.04
374.60	472.79
374.79	402.57
374.99	465.77
375.19	416.62
375.38	423.64
375.58	386.19
375.78	390.87
375.97	440.02
376.17	463.43
376.37	374.49
376.56	456.40
376.76	411.93
376.95	456.40
377.15	390.87
377.35	451.72
377.54	397.89
377.74	407.25
377.93	414.27
378.13	430.66
378.33	425.98
378.52	346.40
378.72	362.78
378.91	430.66
379.11	433.00
379.31	376.83
379.50	369.80
379.70	461.09
379.89	463.43
380.09	430.66
380.28	404.91
380.48	411.93
380.68	430.66
380.87	372.15
381.07	463.43
381.26	409.59
381.46	362.78
381.65	416.62
381.85	444.70
382.04	390.87
382.24	376.83
382.43	376.83
382.63	353.42
382.83	308.95
383.02	444.70
383.22	496.19
383.41	395.55
383.61	479.81
383.80	430.66
384.00	369.80
384.19	339.38
384.39	411.93
384.58	369.80
384.78	411.93
384.97	337.04
385.17	381.51
385.36	395.55
385.56	365.12
385.75	395.55
385.95	400.23
386.14	409.59
386.34	348.74
386.53	386.19
386.72	421.30
386.92	437.68
387.11	404.91
387.31	409.59
387.50	451.72
387.70	402.57
387.89	339.38
388.09	437.68
388.28	311.29
388.48	402.57
388.67	416.62
388.86	372.15
389.06	383.85
389.25	430.66
389.45	451.72
389.64	395.55
389.84	425.98
390.03	360.44
390.22	395.55
390.42	381.51
390.61	440.02
390.81	393.21
391.00	395.55
391.19	465.77
391.39	444.70
391.58	496.19
391.78	454.06
391.97	449.38
392.16	400.23
392.36	470.45
392.55	463.43
392.75	486.83
392.94	402.57
393.13	454.06
393.33	503.22
393.52	318.31
393.71	477.47
393.91	362.78
394.10	393.21
394.29	341.72
394.49	299.59
394.68	383.85
394.88	430.66
395.07	388.53
395.26	454.06
395.46	430.66
395.65	418.96
395.84	341.72
396.04	470.45
396.23	435.34
396.42	468.11
396.62	461.09
396.81	444.70
397.00	379.17
397.19	418.96
397.39	355.76
397.58	435.34
397.77	465.77
397.97	393.21
398.16	362.78
398.35	383.85
398.55	409.59
398.74	390.87
398.93	416.62
399.12	386.19
399.32	444.70
399.51	500.87
399.70	400.23
399.90	386.19
400.09	468.11
400.28	435.34
400.47	362.78
400.67	479.81
400.86	395.55
401.05	411.93
401.24	409.59
401.44	472.79
401.63	383.85
401.82	423.64
402.01	395.55
402.21	418.96
402.40	468.11
402.59	400.23
402.78	421.30
402.97	374.49
403.17	381.51
403.36	341.72
403.55	421.30
403.74	402.57
403.93	381.51
404.13	369.80
404.32	344.06
404.51	437.68
404.70	369.80
404.89	409.59
405.09	442.36
405.28	428.32
405.47	393.21
405.66	400.23
405.85	433.00
406.05	390.87
406.24	322.99
406.43	423.64
406.62	372.15
406.81	484.49
407.00	414.27
407.20	379.17
407.39	379.17
407.58	367.46
407.77	353.42
407.96	435.34
408.15	435.34
408.34	461.09
408.54	402.57
408.73	374.49
408.92	442.36
409.11	449.38
409.30	393.21
409.49	362.78
409.68	425.98
409.87	449.38
410.07	414.27
410.26	425.98
410.45	386.19
410.64	465.77
410.83	468.11
411.02	362.78
411.21	458.74
411.40	409.59
411.59	418.96
411.78	433.00
411.98	402.57
412.17	472.79
412.36	407.25
412.55	332.36
412.74	402.57
412.93	442.36
413.12	334.70
413.31	418.96
413.50	404.91
413.69	437.68
413.88	416.62
414.07	444.70
414.26	493.85
414.45	407.25
414.64	390.87
414.83	397.89
415.02	458.74
415.22	400.23
415.41	444.70
415.60	306.61
415.79	402.57
415.98	402.57
416.17	395.55
416.36	421.30
416.55	458.74
416.74	411.93
416.93	482.15
417.12	351.08
417.31	362.78
417.50	325.33
417.69	393.21
417.88	362.78
418.07	430.66
418.26	447.04
418.45	383.85
418.64	407.25
418.83	367.46
419.02	360.44
419.21	407.25
419.39	458.74
419.58	344.06
419.77	402.57
419.96	369.80
420.15	435.34
420.34	365.12
420.53	435.34
420.72	393.21
420.91	444.70
421.10	400.23
421.29	444.70
421.48	360.44
421.67	433.00
421.86	411.93
422.05	425.98
422.24	437.68
422.43	449.38
422.61	416.62
422.80	416.62
422.99	428.32
423.18	395.55
423.37	418.96
423.56	404.91
423.75	433.00
423.94	400.23
424.13	362.78
424.32	397.89
424.50	360.44
424.69	400.23
424.88	449.38
425.07	367.46
425.26	397.89
425.45	447.04
425.64	369.80
425.83	358.10
426.01	388.53
426.20	461.09
426.39	414.27
426.58	418.96
426.77	386.19
426.96	404.91
427.15	416.62
427.33	428.32
427.52	418.96
427.71	475.13
427.90	447.04
428.09	414.27
428.28	400.23
428.46	388.53
428.65	433.00
428.84	388.53
429.03	395.55
429.22	477.47
429.40	355.76
429.59	348.74
429.78	374.49
429.97	386.19
430.16	390.87
430.34	390.87
430.53	390.87
430.72	440.02
430.91	444.70
431.10	440.02
431.28	400.23
431.47	397.89
431.66	463.43
431.85	386.19
432.03	358.10
432.22	383.85
432.41	400.23
432.60	425.98
432.79	355.76
432.97	409.59
433.16	423.64
433.35	404.91
433.54	463.43
433.72	449.38
433.91	447.04
434.10	388.53
434.28	393.21
434.47	465.77
434.66	428.32
434.85	390.87
435.03	421.30
435.22	346.40
435.41	461.09
435.59	421.30
435.78	374.49
435.97	374.49
436.16	430.66
436.34	360.44
436.53	355.76
436.72	374.49
436.90	451.72
437.09	493.85
437.28	404.91
437.46	454.06
437.65	337.04
437.84	376.83
438.02	421.30
438.21	390.87
438.40	409.59
438.58	397.89
438.77	454.06
438.96	365.12
439.14	449.38
439.33	437.68
439.52	428.32
439.70	430.66
439.89	414.27
440.08	465.77
440.26	395.55
440.45	444.70
440.63	411.93
440.82	423.64
441.01	430.66
441.19	411.93
441.38	402.57
441.57	454.06
441.75	444.70
441.94	451.72
442.12	416.62
442.31	383.85
442.50	451.72
442.68	402.57
442.87	423.64
443.05	393.21
443.24	346.40
443.43	456.40
443.61	472.79
443.80	421.30
443.98	449.38
444.17	355.76
444.35	507.90
444.54	388.53
444.73	416.62
444.91	365.12
445.10	362.78
445.28	390.87
445.47	402.57
445.65	369.80
445.84	400.23
446.02	428.32
446.21	461.09
446.39	376.83
446.58	411.93
446.77	397.89
446.95	416.62
447.14	521.94
447.32	456.40
447.51	416.62
447.69	376.83
447.88	458.74
448.06	468.11
448.25	383.85
448.43	397.89
448.62	390.87
448.80	454.06
448.99	430.66
449.17	390.87
449.36	393.21
449.54	388.53
449.73	440.02
449.91	411.93
450.10	402.57
450.28	425.98
450.46	437.68
450.65	437.68
450.83	376.83
451.02	395.55
451.20	355.76
451.39	383.85
451.57	404.91
451.76	400.23
451.94	369.80
452.13	418.96
452.31	472.79
452.49	442.36
452.68	418.96
452.86	463.43
453.05	379.17
453.23	386.19
453.42	416.62
453.60	365.12
453.78	444.70
453.97	334.70
454.15	381.51
454.34	388.53
454.52	400.23
454.70	479.81
454.89	465.77
455.07	428.32
455.26	397.89
455.44	355.76
455.62	425.98
455.81	512.58
455.99	437.68
456.17	369.80
456.36	409.59
456.54	425.98
456.73	376.83
456.91	397.89
457.09	451.72
457.28	376.83
457.46	526.62
457.64	386.19
457.83	400.23
458.01	388.53
458.19	458.74
458.38	376.83
458.56	430.66
458.74	390.87
458.93	440.02
459.11	346.40
459.29	390.87
459.48	449.38
459.66	454.06
459.84	428.32
460.03	507.90
460.21	372.15
460.39	379.17
460.57	407.25
460.76	430.66
460.94	402.57
461.12	390.87
461.31	395.55
461.49	395.55
461.67	451.72
461.85	442.36
462.04	379.17
462.22	802.80
462.40	418.96
462.59	433.00
462.77	369.80
462.95	411.93
463.13	353.42
463.32	442.36
463.50	428.32
463.68	437.68
463.86	456.40
464.05	451.72
464.23	416.62
464.41	430.66
464.59	383.85
464.78	444.70
464.96	416.62
465.14	360.44
465.32	454.06
465.50	435.34
465.69	430.66
465.87	346.40
466.05	414.27
466.23	451.72
466.41	386.19
466.60	379.17
466.78	442.36
466.96	463.43
467.14	428.32
467.32	430.66
467.51	374.49
467.69	451.72
467.87	381.51
468.05	470.45
468.23	475.13
468.41	428.32
468.60	421.30
468.78	346.40
468.96	435.34
469.14	437.68
469.32	447.04
469.50	440.02
469.69	404.91
469.87	454.06
470.05	433.00
470.23	456.40
470.41	365.12
470.59	365.12
470.77	442.36
470.95	430.66
471.14	374.49
471.32	395.55
471.50	402.57
471.68	409.59
471.86	430.66
472.04	365.12
472.22	425.98
472.40	397.89
472.58	351.08
472.77	332.36
472.95	425.98
473.13	496.19
473.31	440.02
473.49	369.80
473.67	435.34
473.85	440.02
474.03	500.87
474.21	353.42
474.39	421.30
474.57	482.15
474.75	386.19
474.93	407.25
475.12	369.80
475.30	421.30
475.48	372.15
475.66	472.79
475.84	367.46
476.02	402.57
476.20	444.70
476.38	390.87
476.56	435.34
476.74	456.40
476.92	418.96
477.10	423.64
477.28	416.62
477.46	369.80
477.64	428.32
477.82	433.00
478.00	447.04
478.18	486.83
478.36	393.21
478.54	463.43
478.72	451.72
478.90	376.83
479.08	372.15
479.26	444.70
479.44	362.78
479.62	437.68
479.80	411.93
479.98	397.89
480.16	418.96
480.34	428.32
480.52	418.96
480.70	493.85
480.88	411.93
481.06	475.13
481.24	393.21
481.41	491.51
481.59	421.30
481.77	402.57
481.95	479.81
482.13	465.77
482.31	491.51
482.49	402.57
482.67	470.45
482.85	404.91
483.03	400.23
483.21	395.55
483.39	372.15
483.57	407.25
483.74	442.36
483.92	414.27
484.10	397.89
484.28	397.89
484.46	409.59
484.64	416.62
484.82	428.32
485.00	402.57
485.18	461.09
485.35	465.77
485.53	390.87
485.71	440.02
485.89	430.66
486.07	386.19
486.25	472.79
486.43	395.55
486.61	437.68
486.78	418.96
486.96	423.64
487.14	411.93
487.32	395.55
487.50	341.72
487.68	423.64
487.85	353.42
488.03	442.36
488.21	465.77
488.39	414.27
488.57	395.55
488.75	416.62
488.92	456.40
489.10	334.70
489.28	414.27
489.46	402.57
489.64	425.98
489.81	393.21
489.99	379.17
490.17	374.49
490.35	447.04
490.53	416.62
490.70	414.27
490.88	421.30
491.06	461.09
491.24	425.98
491.41	437.68
491.59	386.19
491.77	386.19
491.95	372.15
492.13	388.53
492.30	374.49
492.48	395.55
492.66	404.91
492.84	348.74
493.01	404.91
493.19	381.51
493.37	475.13
493.54	482.15
493.72	435.34
493.90	433.00
494.08	409.59
494.25	479.81
494.43	407.25
494.61	346.40
494.79	411.93
494.96	428.32
495.14	402.57
495.32	383.85
495.49	386.19
495.67	418.96
495.85	484.49
496.02	416.62
496.20	425.98
496.38	479.81
496.55	330.02
496.73	428.32
496.91	388.53
497.09	404.91
497.26	461.09
497.44	421.30
497.62	463.43
497.79	435.34
497.97	397.89
498.14	395.55
498.32	376.83
498.50	444.70
498.67	409.59
498.85	346.40
499.03	383.85
499.20	437.68
499.38	386.19
499.56	402.57
499.73	418.96
499.91	456.40
500.08	430.66
500.26	411.93
500.44	395.55
500.61	365.12
500.79	423.64
500.97	400.23
501.14	442.36
501.32	397.89
501.49	428.32
501.67	416.62
501.84	482.15
502.02	444.70
502.20	491.51
502.37	372.15
502.55	400.23
502.72	411.93
502.90	430.66
503.07	407.25
503.25	440.02
503.43	341.72
503.60	334.70
503.78	341.72
503.95	407.25
504.13	341.72
504.30	402.57
504.48	297.25
504.65	409.59
504.83	407.25
505.01	365.12
505.18	444.70
505.36	472.79
505.53	409.59
505.71	411.93
505.88	489.17
506.06	383.85
506.23	456.40
506.41	493.85
506.58	383.85
506.76	465.77
506.93	416.62
507.11	437.68
507.28	395.55
507.46	374.49
507.63	421.30
507.81	372.15
507.98	433.00
508.16	409.59
508.33	374.49
508.50	397.89
508.68	372.15
508.85	374.49
509.03	400.23
509.20	337.04
509.38	447.04
509.55	416.62
509.73	437.68
509.90	514.92
510.08	397.89
510.25	369.80
510.42	374.49
510.60	400.23
510.77	362.78
510.95	400.23
511.12	388.53
511.30	425.98
511.47	423.64
511.64	404.91
511.82	409.59
511.99	461.09
512.17	414.27
512.34	388.53
512.51	444.70
512.69	388.53
512.86	461.09
513.04	379.17
513.21	454.06
513.38	383.85
513.56	482.15
513.73	433.00
513.90	395.55
514.08	397.89
514.25	421.30
514.43	402.57
514.60	388.53
514.77	400.23
514.95	449.38
515.12	414.27
515.29	381.51
515.47	411.93
515.64	454.06
515.81	407.25
515.99	428.32
516.16	440.02
516.33	440.02
516.51	388.53
516.68	414.27
516.85	409.59
517.03	409.59
517.20	475.13
517.37	447.04
517.54	355.76
517.72	386.19
517.89	339.38
518.06	395.55
518.24	463.43
518.41	381.51
518.58	369.80
518.75	407.25
518.93	341.72
519.10	433.00
519.27	393.21
519.45	421.30
519.62	456.40
519.79	451.72
519.96	440.02
520.14	414.27
520.31	381.51
520.48	440.02
520.65	374.49
520.83	407.25
521.00	388.53
521.17	418.96
521.34	458.74
521.52	407.25
521.69	397.89
521.86	383.85
522.03	416.62
522.20	458.74
522.38	435.34
522.55	376.83
522.72	458.74
522.89	383.85
523.07	444.70
523.24	390.87
523.41	418.96
523.58	421.30
523.75	407.25
523.92	379.17
524.10	428.32
524.27	400.23
524.44	430.66
524.61	390.87
524.78	416.62
524.96	447.04
525.13	407.25
525.30	505.56
525.47	400.23
525.64	482.15
525.81	470.45
525.98	491.51
526.16	456.40
526.33	367.46
526.50	318.31
526.67	456.40
526.84	442.36
527.01	365.12
527.18	414.27
527.36	383.85
527.53	440.02
527.70	344.06
527.87	447.04
528.04	456.40
528.21	337.04
528.38	442.36
528.55	465.77
528.72	433.00
528.89	463.43
529.07	400.23
529.24	386.19
529.41	444.70
529.58	404.91
529.75	374.49
529.92	465.77
530.09	451.72
530.26	430.66
530.43	376.83
530.60	395.55
530.77	416.62
530.94	411.93
531.11	421.30
531.28	393.21
531.46	397.89
531.63	407.25
531.80	414.27
531.97	416.62
532.14	447.04
532.31	449.38
532.48	411.93
532.65	454.06
532.82	386.19
532.99	383.85
533.16	425.98
533.33	472.79
533.50	421.30
533.67	383.85
533.84	407.25
534.01	393.21
534.18	372.15
534.35	423.64
534.52	454.06
534.69	379.17
534.86	451.72
535.03	407.25
535.20	390.87
535.37	461.09
535.54	407.25
535.71	425.98
535.88	496.19
536.05	372.15
536.22	390.87
536.38	491.51
536.55	456.40
536.72	386.19
536.89	390.87
537.06	397.89
537.23	425.98
537.40	397.89
537.57	376.83
537.74	463.43
537.91	416.62
538.08	388.53
538.25	451.72
538.42	484.49
538.59	376.83
538.75	409.59
538.92	407.25
539.09	470.45
539.26	365.12
539.43	442.36
539.60	383.85
539.77	409.59
539.94	472.79
540.11	449.38
540.28	416.62
540.44	472.79
540.61	421.30
540.78	372.15
540.95	393.21
541.12	468.11
541.29	421.30
541.46	374.49
541.62	430.66
541.79	465.77
541.96	400.23
542.13	440.02
542.30	379.17
542.47	454.06
542.63	470.45
542.80	404.91
542.97	435.34
543.14	482.15
543.31	425.98
543.48	386.19
543.64	435.34
543.81	517.26
543.98	425.98
544.15	440.02
544.32	414.27
544.48	493.85
544.65	355.76
544.82	369.80
544.99	425.98
545.16	482.15
545.32	407.25
545.49	421.30
545.66	451.72
545.83	416.62
546.00	367.46
546.16	369.80
546.33	404.91
546.50	372.15
546.67	477.47
546.83	395.55
547.00	390.87
547.17	374.49
547.34	423.64
547.50	447.04
547.67	397.89
547.84	397.89
548.00	449.38
548.17	428.32
548.34	397.89
548.51	491.51
548.67	411.93
548.84	388.53
549.01	390.87
549.18	425.98
549.34	425.98
549.51	444.70
549.68	367.46
549.84	437.68
550.01	418.96
550.18	479.81
550.34	463.43
550.51	440.02
550.68	456.40
550.84	402.57
551.01	423.64
551.18	397.89
551.34	362.78
551.51	472.79
551.68	416.62
551.84	437.68
552.01	454.06
552.18	416.62
552.34	451.72
552.51	444.70
552.68	402.57
552.84	447.04
553.01	416.62
553.18	461.09
553.34	444.70
553.51	425.98
553.67	435.34
553.84	407.25
554.01	404.91
554.17	386.19
554.34	435.34
554.51	393.21
554.67	437.68
554.84	472.79
555.00	388.53
555.17	421.30
555.33	451.72
555.50	470.45
555.67	367.46
555.83	397.89
556.00	344.06
556.16	449.38
556.33	456.40
556.50	369.80
556.66	444.70
556.83	461.09
556.99	372.15
557.16	386.19
557.32	409.59
557.49	430.66
557.65	409.59
557.82	463.43
557.98	367.46
558.15	351.08
558.32	409.59
558.48	437.68
558.65	454.06
558.81	386.19
558.98	482.15
559.14	449.38
559.31	461.09
559.47	463.43
559.64	383.85
559.80	383.85
559.97	428.32
560.13	430.66
560.30	423.64
560.46	409.59
560.63	407.25
560.79	468.11
560.96	482.15
561.12	362.78
561.29	498.53
561.45	444.70
561.61	454.06
561.78	479.81
561.94	407.25
562.11	418.96
562.27	433.00
562.44	395.55
562.60	425.98
562.77	393.21
562.93	400.23
563.10	437.68
563.26	430.66
563.42	454.06
563.59	416.62
563.75	358.10
563.92	381.51
564.08	390.87
564.24	407.25
564.41	454.06
564.57	456.40
564.74	414.27
564.90	379.17
565.07	433.00
565.23	435.34
565.39	365.12
565.56	365.12
565.72	425.98
565.88	451.72
566.05	449.38
566.21	418.96
566.38	374.49
566.54	395.55
566.70	386.19
566.87	402.57
567.03	379.17
567.19	493.85
567.36	475.13
567.52	423.64
567.68	400.23
567.85	454.06
568.01	301.93
568.17	341.72
568.34	493.85
568.50	449.38
568.66	430.66
568.83	465.77
568.99	318.31
569.15	444.70
569.32	489.17
569.48	493.85
569.64	358.10
569.81	449.38
569.97	397.89
570.13	470.45
570.30	374.49
570.46	440.02
570.62	444.70
570.78	423.64
570.95	437.68
571.11	484.49
571.27	465.77
571.43	433.00
571.60	479.81
571.76	423.64
571.92	449.38
572.09	397.89
572.25	348.74
572.41	402.57
572.57	400.23
572.74	407.25
572.90	379.17
573.06	407.25
573.22	472.79
573.38	498.53
573.55	449.38
573.71	444.70
573.87	465.77
574.03	388.53
574.20	404.91
574.36	442.36
574.52	435.34
574.68	423.64
574.84	381.51
575.01	461.09
575.17	470.45
575.33	421.30
575.49	409.59
575.65	477.47
575.82	355.76
575.98	456.40
576.14	395.55
576.30	360.44
576.46	486.83
576.62	425.98
576.79	440.02
576.95	440.02
577.11	327.68
577.27	421.30
577.43	454.06
577.59	482.15
577.75	470.45
577.92	395.55
578.08	468.11
578.24	449.38
578.40	449.38
578.56	454.06
578.72	379.17
578.88	418.96
579.04	456.40
579.21	451.72
579.37	374.49
579.53	393.21
579.69	477.47
579.85	348.74
580.01	463.43
580.17	482.15
580.33	414.27
580.49	351.08
580.65	447.04
580.82	381.51
580.98	423.64
581.14	454.06
581.30	461.09
581.46	428.32
581.62	482.15
581.78	425.98
581.94	393.21
582.10	416.62
582.26	386.19
582.42	351.08
582.58	397.89
582.74	372.15
582.90	402.57
583.06	449.38
583.22	414.27
583.38	425.98
583.54	400.23
583.70	482.15
583.86	383.85
584.02	465.77
584.18	496.19
584.34	369.80
584.50	388.53
584.66	402.57
584.82	393.21
584.98	440.02
585.14	393.21
585.30	505.56
585.46	395.55
585.62	376.83
585.78	374.49
585.94	449.38
586.10	397.89
586.26	393.21
586.42	484.49
586.58	454.06
586.74	393.21
586.90	435.34
587.06	449.38
587.22	393.21
587.38	332.36
587.54	442.36
587.70	383.85
587.86	397.89
588.02	404.91
588.18	482.15
588.34	393.21
588.49	395.55
588.65	407.25
588.81	402.57
588.97	395.55
589.13	440.02
589.29	407.25
589.45	472.79
589.61	428.32
589.77	423.64
589.93	379.17
590.08	458.74
590.24	425.98
590.40	325.33
590.56	351.08
590.72	355.76
590.88	379.17
591.04	362.78
591.20	393.21
591.35	482.15
591.51	400.23
591.67	435.34
591.83	433.00
591.99	425.98
592.15	404.91
592.31	433.00
592.46	400.23
592.62	437.68
592.78	451.72
592.94	461.09
593.10	414.27
593.26	395.55
593.41	433.00
593.57	402.57
593.73	430.66
593.89	409.59
594.05	362.78
594.20	393.21
594.36	414.27
594.52	440.02
594.68	461.09
594.84	468.11
594.99	409.59
595.15	383.85
595.31	440.02
595.47	444.70
595.62	404.91
595.78	393.21
595.94	372.15
596.10	514.92
596.25	449.38
596.41	477.47
596.57	395.55
596.73	416.62
596.88	411.93
597.04	468.11
597.20	402.57
597.36	386.19
597.51	397.89
597.67	404.91
597.83	428.32
597.99	414.27
598.14	411.93
598.30	411.93
598.46	421.30
598.61	430.66
598.77	395.55
598.93	477.47
599.09	386.19
599.24	411.93
599.40	411.93
599.56	418.96
599.71	355.76
599.87	470.45
600.03	416.62
600.18	437.68
600.34	428.32
600.50	395.55
600.65	365.12
600.81	437.68
600.97	437.68
601.12	414.27
601.28	386.19
601.44	418.96
601.59	416.62
601.75	423.64
601.91	395.55
602.06	362.78
602.22	517.26
602.37	444.70
602.53	458.74
602.69	362.78
602.84	414.27
603.00	386.19
603.16	402.57
603.31	404.91
603.47	395.55
603.62	374.49
603.78	416.62
603.94	437.68
604.09	447.04
604.25	372.15
604.40	440.02
604.56	437.68
604.71	344.06
604.87	416.62
605.03	374.49
605.18	430.66
605.34	418.96
605.49	414.27
605.65	381.51
605.80	395.55
605.96	442.36
606.12	409.59
606.27	468.11
606.43	470.45
606.58	468.11
606.74	451.72
606.89	374.49
607.05	425.98
607.20	388.53
607.36	411.93
607.51	435.34
607.67	451.72
607.82	351.08
607.98	547.69
608.13	430.66
608.29	440.02
608.44	421.30
608.60	463.43
608.75	402.57
608.91	344.06
609.06	500.87
609.22	447.04
609.37	477.47
609.53	468.11
609.68	407.25
609.84	454.06
609.99	430.66
610.15	454.06
