SpectraSuite Data File
++++++++++++++++++++++++++++++++++++
Date: Fri Oct 25 12:10:45 EDT 2013
User: price-jones
Dark Spectrum Present: No
Reference Spectrum Present: No
Number of Sampled Component Spectra: 1
Spectrometers: USB2+H05261
Integration Time (usec): 100000 (USB2+H05261)
Spectra Averaged: 1 (USB2+H05261)
Boxcar Smoothing: 0 (USB2+H05261)
Correct for Electrical Dark: No (USB2+H05261)
Strobe/Lamp Enabled: No (USB2+H05261)
Correct for Detector Non-linearity: No (USB2+H05261)
Correct for Stray Light: No (USB2+H05261)
Number of Pixels in Processed Spectrum: 2048
>>>>>Begin Processed Spectral Data<<<<<
365.73	360.44
365.92	360.44
366.12	360.44
366.32	297.25
366.52	248.10
366.72	208.31
366.91	297.25
367.11	250.44
367.31	154.48
367.51	220.01
367.70	241.08
367.90	264.48
368.10	252.78
368.30	196.60
368.49	238.73
368.69	222.35
368.89	241.08
369.09	198.95
369.28	297.25
369.48	264.48
369.68	297.25
369.87	311.29
370.07	250.44
370.27	358.10
370.47	301.93
370.66	330.02
370.86	278.52
371.06	423.64
371.25	320.65
371.45	252.78
371.65	360.44
371.84	386.19
372.04	334.70
372.24	358.10
372.44	374.49
372.63	362.78
372.83	362.78
373.03	379.17
373.22	395.55
373.42	442.36
373.62	369.80
373.81	414.27
374.01	390.87
374.21	456.40
374.40	484.49
374.60	404.91
374.79	423.64
374.99	414.27
375.19	456.40
375.38	437.68
375.58	402.57
375.78	486.83
375.97	369.80
376.17	416.62
376.37	390.87
376.56	386.19
376.76	348.74
376.95	421.30
377.15	390.87
377.35	397.89
377.54	395.55
377.74	388.53
377.93	433.00
378.13	435.34
378.33	461.09
378.52	411.93
378.72	458.74
378.91	421.30
379.11	341.72
379.31	390.87
379.50	493.85
379.70	421.30
379.89	472.79
380.09	395.55
380.28	397.89
380.48	325.33
380.68	390.87
380.87	447.04
381.07	421.30
381.26	433.00
381.46	372.15
381.65	414.27
381.85	372.15
382.04	416.62
382.24	362.78
382.43	437.68
382.63	351.08
382.83	411.93
383.02	423.64
383.22	395.55
383.41	383.85
383.61	409.59
383.80	365.12
384.00	454.06
384.19	423.64
384.39	390.87
384.58	402.57
384.78	428.32
384.97	414.27
385.17	402.57
385.36	348.74
385.56	414.27
385.75	456.40
385.95	386.19
386.14	358.10
386.34	374.49
386.53	397.89
386.72	362.78
386.92	388.53
387.11	435.34
387.31	397.89
387.50	440.02
387.70	404.91
387.89	430.66
388.09	369.80
388.28	435.34
388.48	388.53
388.67	440.02
388.86	449.38
389.06	440.02
389.25	414.27
389.45	425.98
389.64	395.55
389.84	369.80
390.03	353.42
390.22	395.55
390.42	416.62
390.61	435.34
390.81	388.53
391.00	362.78
391.19	472.79
391.39	388.53
391.58	433.00
391.78	484.49
391.97	430.66
392.16	421.30
392.36	423.64
392.55	421.30
392.75	362.78
392.94	418.96
393.13	404.91
393.33	337.04
393.52	318.31
393.71	402.57
393.91	475.13
394.10	383.85
394.29	447.04
394.49	367.46
394.68	381.51
394.88	407.25
395.07	440.02
395.26	383.85
395.46	447.04
395.65	407.25
395.84	433.00
396.04	493.85
396.23	369.80
396.42	367.46
396.62	421.30
396.81	390.87
397.00	409.59
397.19	332.36
397.39	327.68
397.58	447.04
397.77	397.89
397.97	390.87
398.16	449.38
398.35	369.80
398.55	449.38
398.74	482.15
398.93	435.34
399.12	365.12
399.32	437.68
399.51	510.24
399.70	425.98
399.90	456.40
400.09	404.91
400.28	381.51
400.47	374.49
400.67	381.51
400.86	388.53
401.05	484.49
401.24	428.32
401.44	374.49
401.63	369.80
401.82	425.98
402.01	400.23
402.21	369.80
402.40	414.27
402.59	451.72
402.78	404.91
402.97	330.02
403.17	409.59
403.36	409.59
403.55	404.91
403.74	404.91
403.93	395.55
404.13	409.59
404.32	435.34
404.51	393.21
404.70	433.00
404.89	416.62
405.09	381.51
405.28	402.57
405.47	414.27
405.66	379.17
405.85	416.62
406.05	390.87
406.24	374.49
406.43	369.80
406.62	400.23
406.81	409.59
407.00	423.64
407.20	379.17
407.39	315.97
407.58	409.59
407.77	397.89
407.96	444.70
408.15	409.59
408.34	416.62
408.54	444.70
408.73	395.55
408.92	461.09
409.11	344.06
409.30	393.21
409.49	418.96
409.68	369.80
409.87	344.06
410.07	435.34
410.26	451.72
410.45	334.70
410.64	360.44
410.83	442.36
411.02	397.89
411.21	400.23
411.40	423.64
411.59	344.06
411.78	435.34
411.98	369.80
412.17	477.47
412.36	475.13
412.55	437.68
412.74	463.43
412.93	435.34
413.12	402.57
413.31	372.15
413.50	458.74
413.69	376.83
413.88	404.91
414.07	376.83
414.26	409.59
414.45	433.00
414.64	433.00
414.83	440.02
415.02	437.68
415.22	463.43
415.41	411.93
415.60	372.15
415.79	376.83
415.98	496.19
416.17	367.46
416.36	411.93
416.55	390.87
416.74	447.04
416.93	372.15
417.12	351.08
417.31	386.19
417.50	369.80
417.69	428.32
417.88	437.68
418.07	367.46
418.26	404.91
418.45	395.55
418.64	395.55
418.83	451.72
419.02	414.27
419.21	379.17
419.39	416.62
419.58	360.44
419.77	308.95
419.96	414.27
420.15	416.62
420.34	374.49
420.53	442.36
420.72	451.72
420.91	400.23
421.10	353.42
421.29	409.59
421.48	390.87
421.67	411.93
421.86	437.68
422.05	341.72
422.24	442.36
422.43	402.57
422.61	442.36
422.80	395.55
422.99	362.78
423.18	397.89
423.37	468.11
423.56	386.19
423.75	423.64
423.94	383.85
424.13	449.38
424.32	442.36
424.50	397.89
424.69	390.87
424.88	402.57
425.07	400.23
425.26	442.36
425.45	397.89
425.64	372.15
425.83	367.46
426.01	477.47
426.20	444.70
426.39	369.80
426.58	383.85
426.77	440.02
426.96	489.17
427.15	489.17
427.33	383.85
427.52	428.32
427.71	456.40
427.90	348.74
428.09	486.83
428.28	409.59
428.46	390.87
428.65	468.11
428.84	418.96
429.03	519.60
429.22	519.60
429.40	388.53
429.59	348.74
429.78	447.04
429.97	407.25
430.16	437.68
430.34	433.00
430.53	451.72
430.72	423.64
430.91	388.53
431.10	339.38
431.28	383.85
431.47	416.62
431.66	421.30
431.85	442.36
432.03	379.17
432.22	489.17
432.41	479.81
432.60	444.70
432.79	425.98
432.97	428.32
433.16	416.62
433.35	416.62
433.54	414.27
433.72	379.17
433.91	449.38
434.10	383.85
434.28	404.91
434.47	397.89
434.66	362.78
434.85	418.96
435.03	475.13
435.22	404.91
435.41	393.21
435.59	367.46
435.78	444.70
435.97	447.04
436.16	418.96
436.34	308.95
436.53	376.83
436.72	510.24
436.90	472.79
437.09	423.64
437.28	390.87
437.46	411.93
437.65	465.77
437.84	362.78
438.02	411.93
438.21	339.38
438.40	374.49
438.58	376.83
438.77	428.32
438.96	348.74
439.14	383.85
439.33	400.23
439.52	411.93
439.70	428.32
439.89	482.15
440.08	411.93
440.26	374.49
440.45	435.34
440.63	372.15
440.82	433.00
441.01	449.38
441.19	472.79
441.38	360.44
441.57	433.00
441.75	507.90
441.94	430.66
442.12	407.25
442.31	411.93
442.50	463.43
442.68	411.93
442.87	367.46
443.05	416.62
443.24	489.17
443.43	355.76
443.61	367.46
443.80	388.53
443.98	433.00
444.17	376.83
444.35	465.77
444.54	428.32
444.73	409.59
444.91	397.89
445.10	348.74
445.28	369.80
445.47	421.30
445.65	374.49
445.84	416.62
446.02	386.19
446.21	423.64
446.39	416.62
446.58	465.77
446.77	376.83
446.95	440.02
447.14	461.09
447.32	461.09
447.51	435.34
447.69	409.59
447.88	388.53
448.06	465.77
448.25	402.57
448.43	404.91
448.62	451.72
448.80	388.53
448.99	416.62
449.17	416.62
449.36	409.59
449.54	423.64
449.73	414.27
449.91	376.83
450.10	348.74
450.28	404.91
450.46	496.19
450.65	390.87
450.83	393.21
451.02	383.85
451.20	395.55
451.39	477.47
451.57	372.15
451.76	444.70
451.94	454.06
452.13	442.36
452.31	425.98
452.49	433.00
452.68	369.80
452.86	463.43
453.05	348.74
453.23	395.55
453.42	442.36
453.60	395.55
453.78	433.00
453.97	418.96
454.15	365.12
454.34	390.87
454.52	402.57
454.70	425.98
454.89	360.44
455.07	344.06
455.26	379.17
455.44	344.06
455.62	416.62
455.81	390.87
455.99	444.70
456.17	435.34
456.36	397.89
456.54	395.55
456.73	428.32
456.91	451.72
457.09	369.80
457.28	416.62
457.46	369.80
457.64	330.02
457.83	440.02
458.01	416.62
458.19	409.59
458.38	477.47
458.56	379.17
458.74	339.38
458.93	418.96
459.11	423.64
459.29	404.91
459.48	416.62
459.66	421.30
459.84	449.38
460.03	428.32
460.21	463.43
460.39	388.53
460.57	425.98
460.76	369.80
460.94	393.21
461.12	409.59
461.31	351.08
461.49	442.36
461.67	414.27
461.85	397.89
462.04	458.74
462.22	725.57
462.40	407.25
462.59	496.19
462.77	454.06
462.95	393.21
463.13	409.59
463.32	458.74
463.50	416.62
463.68	437.68
463.86	362.78
464.05	430.66
464.23	456.40
464.41	423.64
464.59	360.44
464.78	414.27
464.96	519.60
465.14	458.74
465.32	379.17
465.50	402.57
465.69	500.87
465.87	421.30
466.05	348.74
466.23	409.59
466.41	404.91
466.60	435.34
466.78	355.76
466.96	386.19
467.14	383.85
467.32	444.70
467.51	447.04
467.69	416.62
467.87	477.47
468.05	418.96
468.23	388.53
468.41	379.17
468.60	362.78
468.78	372.15
468.96	414.27
469.14	449.38
469.32	374.49
469.50	369.80
469.69	437.68
469.87	332.36
470.05	409.59
470.23	468.11
470.41	360.44
470.59	416.62
470.77	451.72
470.95	440.02
471.14	407.25
471.32	430.66
471.50	465.77
471.68	437.68
471.86	425.98
472.04	395.55
472.22	383.85
472.40	418.96
472.58	402.57
472.77	407.25
472.95	344.06
473.13	463.43
473.31	428.32
473.49	416.62
473.67	390.87
473.85	423.64
474.03	449.38
474.21	390.87
474.39	447.04
474.57	414.27
474.75	496.19
474.93	400.23
475.12	388.53
475.30	440.02
475.48	393.21
475.66	369.80
475.84	400.23
476.02	374.49
476.20	465.77
476.38	379.17
476.56	416.62
476.74	388.53
476.92	374.49
477.10	393.21
477.28	376.83
477.46	348.74
477.64	367.46
477.82	468.11
478.00	414.27
478.18	388.53
478.36	379.17
478.54	475.13
478.72	339.38
478.90	402.57
479.08	407.25
479.26	372.15
479.44	472.79
479.62	503.22
479.80	437.68
479.98	463.43
480.16	437.68
480.34	451.72
480.52	362.78
480.70	369.80
480.88	407.25
481.06	365.12
481.24	444.70
481.41	482.15
481.59	388.53
481.77	402.57
481.95	358.10
482.13	484.49
482.31	414.27
482.49	409.59
482.67	397.89
482.85	337.04
483.03	433.00
483.21	423.64
483.39	355.76
483.57	388.53
483.74	416.62
483.92	372.15
484.10	365.12
484.28	369.80
484.46	465.77
484.64	374.49
484.82	383.85
485.00	393.21
485.18	496.19
485.35	400.23
485.53	444.70
485.71	428.32
485.89	360.44
486.07	388.53
486.25	454.06
486.43	414.27
486.61	383.85
486.78	407.25
486.96	367.46
487.14	444.70
487.32	379.17
487.50	409.59
487.68	411.93
487.85	435.34
488.03	447.04
488.21	379.17
488.39	449.38
488.57	390.87
488.75	404.91
488.92	472.79
489.10	451.72
489.28	428.32
489.46	418.96
489.64	414.27
489.81	484.49
489.99	390.87
490.17	402.57
490.35	482.15
490.53	428.32
490.70	416.62
490.88	435.34
491.06	386.19
491.24	465.77
491.41	360.44
491.59	418.96
491.77	334.70
491.95	400.23
492.13	400.23
492.30	395.55
492.48	388.53
492.66	435.34
492.84	351.08
493.01	386.19
493.19	393.21
493.37	421.30
493.54	416.62
493.72	353.42
493.90	397.89
494.08	369.80
494.25	468.11
494.43	388.53
494.61	440.02
494.79	395.55
494.96	374.49
495.14	404.91
495.32	383.85
495.49	470.45
495.67	374.49
495.85	397.89
496.02	458.74
496.20	393.21
496.38	430.66
496.55	393.21
496.73	500.87
496.91	402.57
497.09	423.64
497.26	411.93
497.44	414.27
497.62	360.44
497.79	418.96
497.97	447.04
498.14	444.70
498.32	423.64
498.50	454.06
498.67	390.87
498.85	437.68
499.03	442.36
499.20	402.57
499.38	360.44
499.56	351.08
499.73	458.74
499.91	425.98
500.08	507.90
500.26	423.64
500.44	437.68
500.61	390.87
500.79	435.34
500.97	418.96
501.14	425.98
501.32	416.62
501.49	468.11
501.67	402.57
501.84	409.59
502.02	461.09
502.20	458.74
502.37	397.89
502.55	358.10
502.72	407.25
502.90	458.74
503.07	390.87
503.25	393.21
503.43	365.12
503.60	322.99
503.78	454.06
503.95	416.62
504.13	547.69
504.30	435.34
504.48	454.06
504.65	456.40
504.83	428.32
505.01	409.59
505.18	444.70
505.36	447.04
505.53	355.76
505.71	421.30
505.88	374.49
506.06	463.43
506.23	458.74
506.41	372.15
506.58	360.44
506.76	440.02
506.93	440.02
507.11	468.11
507.28	428.32
507.46	421.30
507.63	414.27
507.81	379.17
507.98	468.11
508.16	458.74
508.33	418.96
508.50	407.25
508.68	440.02
508.85	491.51
509.03	440.02
509.20	404.91
509.38	404.91
509.55	449.38
509.73	402.57
509.90	400.23
510.08	402.57
510.25	416.62
510.42	402.57
510.60	337.04
510.77	414.27
510.95	411.93
511.12	454.06
511.30	404.91
511.47	411.93
511.64	496.19
511.82	395.55
511.99	463.43
512.17	397.89
512.34	397.89
512.51	423.64
512.69	463.43
512.86	404.91
513.04	402.57
513.21	440.02
513.38	425.98
513.56	454.06
513.73	334.70
513.90	454.06
514.08	381.51
514.25	367.46
514.43	500.87
514.60	414.27
514.77	355.76
514.95	402.57
515.12	400.23
515.29	433.00
515.47	430.66
515.64	458.74
515.81	435.34
515.99	390.87
516.16	437.68
516.33	475.13
516.51	341.72
516.68	447.04
516.85	416.62
517.03	477.47
517.20	486.83
517.37	365.12
517.54	442.36
517.72	447.04
517.89	390.87
518.06	411.93
518.24	423.64
518.41	482.15
518.58	500.87
518.75	458.74
518.93	390.87
519.10	386.19
519.27	416.62
519.45	442.36
519.62	372.15
519.79	416.62
519.96	372.15
520.14	461.09
520.31	379.17
520.48	404.91
520.65	484.49
520.83	395.55
521.00	411.93
521.17	444.70
521.34	423.64
521.52	402.57
521.69	404.91
521.86	367.46
522.03	461.09
522.20	411.93
522.38	437.68
522.55	358.10
522.72	456.40
522.89	461.09
523.07	402.57
523.24	423.64
523.41	418.96
523.58	418.96
523.75	463.43
523.92	283.20
524.10	437.68
524.27	435.34
524.44	437.68
524.61	409.59
524.78	437.68
524.96	482.15
525.13	428.32
525.30	461.09
525.47	440.02
525.64	468.11
525.81	390.87
525.98	428.32
526.16	379.17
526.33	435.34
526.50	369.80
526.67	472.79
526.84	388.53
527.01	421.30
527.18	451.72
527.36	414.27
527.53	388.53
527.70	362.78
527.87	383.85
528.04	421.30
528.21	381.51
528.38	447.04
528.55	489.17
528.72	425.98
528.89	526.62
529.07	404.91
529.24	339.38
529.41	461.09
529.58	407.25
529.75	379.17
529.92	442.36
530.09	435.34
530.26	411.93
530.43	407.25
530.60	374.49
530.77	397.89
530.94	407.25
531.11	372.15
531.28	440.02
531.46	433.00
531.63	423.64
531.80	442.36
531.97	498.53
532.14	461.09
532.31	404.91
532.48	465.77
532.65	514.92
532.82	362.78
532.99	416.62
533.16	362.78
533.33	397.89
533.50	421.30
533.67	423.64
533.84	369.80
534.01	411.93
534.18	409.59
534.35	358.10
534.52	428.32
534.69	386.19
534.86	423.64
535.03	360.44
535.20	388.53
535.37	400.23
535.54	421.30
535.71	425.98
535.88	383.85
536.05	383.85
536.22	449.38
536.38	416.62
536.55	334.70
536.72	465.77
536.89	461.09
537.06	437.68
537.23	400.23
537.40	421.30
537.57	381.51
537.74	421.30
537.91	430.66
538.08	404.91
538.25	444.70
538.42	383.85
538.59	430.66
538.75	358.10
538.92	428.32
539.09	470.45
539.26	435.34
539.43	479.81
539.60	425.98
539.77	358.10
539.94	414.27
540.11	456.40
540.28	468.11
540.44	479.81
540.61	388.53
540.78	397.89
540.95	433.00
541.12	463.43
541.29	411.93
541.46	514.92
541.62	404.91
541.79	472.79
541.96	400.23
542.13	407.25
542.30	454.06
542.47	430.66
542.63	397.89
542.80	433.00
542.97	400.23
543.14	449.38
543.31	404.91
543.48	388.53
543.64	463.43
543.81	433.00
543.98	433.00
544.15	423.64
544.32	437.68
544.48	414.27
544.65	376.83
544.82	442.36
544.99	425.98
545.16	395.55
545.32	402.57
545.49	306.61
545.66	416.62
545.83	425.98
546.00	397.89
546.16	435.34
546.33	379.17
546.50	379.17
546.67	451.72
546.83	348.74
547.00	411.93
547.17	400.23
547.34	428.32
547.50	367.46
547.67	339.38
547.84	435.34
548.00	418.96
548.17	472.79
548.34	416.62
548.51	379.17
548.67	475.13
548.84	486.83
549.01	465.77
549.18	486.83
549.34	411.93
549.51	365.12
549.68	418.96
549.84	421.30
550.01	390.87
550.18	449.38
550.34	418.96
550.51	383.85
550.68	425.98
550.84	423.64
551.01	397.89
551.18	430.66
551.34	442.36
551.51	472.79
551.68	421.30
551.84	360.44
552.01	367.46
552.18	404.91
552.34	402.57
552.51	421.30
552.68	374.49
552.84	444.70
553.01	418.96
553.18	440.02
553.34	430.66
553.51	421.30
553.67	433.00
553.84	409.59
554.01	376.83
554.17	411.93
554.34	341.72
554.51	524.28
554.67	414.27
554.84	456.40
555.00	390.87
555.17	423.64
555.33	468.11
555.50	362.78
555.67	409.59
555.83	393.21
556.00	400.23
556.16	531.30
556.33	479.81
556.50	442.36
556.66	421.30
556.83	414.27
556.99	414.27
557.16	339.38
557.32	355.76
557.49	402.57
557.65	374.49
557.82	421.30
557.98	472.79
558.15	456.40
558.32	404.91
558.48	435.34
558.65	411.93
558.81	341.72
558.98	404.91
559.14	454.06
559.31	425.98
559.47	337.04
559.64	465.77
559.80	355.76
559.97	372.15
560.13	393.21
560.30	386.19
560.46	486.83
560.63	397.89
560.79	348.74
560.96	451.72
561.12	393.21
561.29	395.55
561.45	402.57
561.61	390.87
561.78	489.17
561.94	379.17
562.11	407.25
562.27	430.66
562.44	425.98
562.60	449.38
562.77	423.64
562.93	498.53
563.10	454.06
563.26	463.43
563.42	514.92
563.59	447.04
563.75	444.70
563.92	430.66
564.08	454.06
564.24	468.11
564.41	430.66
564.57	376.83
564.74	393.21
564.90	461.09
565.07	447.04
565.23	428.32
565.39	402.57
565.56	498.53
565.72	435.34
565.88	409.59
566.05	458.74
566.21	367.46
566.38	407.25
566.54	465.77
566.70	353.42
566.87	376.83
567.03	306.61
567.19	416.62
567.36	484.49
567.52	454.06
567.68	491.51
567.85	423.64
568.01	430.66
568.17	425.98
568.34	409.59
568.50	374.49
568.66	397.89
568.83	503.22
568.99	404.91
569.15	512.58
569.32	433.00
569.48	423.64
569.64	353.42
569.81	416.62
569.97	411.93
570.13	423.64
570.30	320.65
570.46	400.23
570.62	465.77
570.78	414.27
570.95	386.19
571.11	444.70
571.27	425.98
571.43	404.91
571.60	411.93
571.76	414.27
571.92	463.43
572.09	365.12
572.25	442.36
572.41	449.38
572.57	365.12
572.74	484.49
572.90	482.15
573.06	388.53
573.22	397.89
573.38	503.22
573.55	500.87
573.71	430.66
573.87	421.30
574.03	423.64
574.20	428.32
574.36	465.77
574.52	447.04
574.68	320.65
574.84	414.27
575.01	400.23
575.17	463.43
575.33	383.85
575.49	395.55
575.65	461.09
575.82	461.09
575.98	449.38
576.14	463.43
576.30	379.17
576.46	437.68
576.62	465.77
576.79	376.83
576.95	421.30
577.11	416.62
577.27	430.66
577.43	440.02
577.59	470.45
577.75	421.30
577.92	381.51
578.08	383.85
578.24	517.26
578.40	442.36
578.56	372.15
578.72	442.36
578.88	447.04
579.04	491.51
579.21	428.32
579.37	465.77
579.53	461.09
579.69	498.53
579.85	390.87
580.01	372.15
580.17	421.30
580.33	437.68
580.49	402.57
580.65	444.70
580.82	397.89
580.98	346.40
581.14	458.74
581.30	381.51
581.46	400.23
581.62	458.74
581.78	346.40
581.94	416.62
582.10	400.23
582.26	407.25
582.42	388.53
582.58	376.83
582.74	428.32
582.90	330.02
583.06	416.62
583.22	425.98
583.38	388.53
583.54	383.85
583.70	463.43
583.86	470.45
584.02	337.04
584.18	374.49
584.34	423.64
584.50	388.53
584.66	463.43
584.82	313.63
584.98	355.76
585.14	404.91
585.30	482.15
585.46	423.64
585.62	395.55
585.78	360.44
585.94	454.06
586.10	465.77
586.26	411.93
586.42	498.53
586.58	362.78
586.74	402.57
586.90	512.58
587.06	421.30
587.22	388.53
587.38	418.96
587.54	442.36
587.70	451.72
587.86	393.21
588.02	440.02
588.18	479.81
588.34	442.36
588.49	388.53
588.65	369.80
588.81	327.68
588.97	372.15
589.13	407.25
589.29	404.91
589.45	491.51
589.61	390.87
589.77	484.49
589.93	334.70
590.08	425.98
590.24	388.53
590.40	461.09
590.56	430.66
590.72	447.04
590.88	374.49
591.04	383.85
591.20	475.13
591.35	390.87
591.51	430.66
591.67	365.12
591.83	414.27
591.99	407.25
592.15	355.76
592.31	423.64
592.46	353.42
592.62	418.96
592.78	479.81
592.94	454.06
593.10	369.80
593.26	390.87
593.41	493.85
593.57	461.09
593.73	477.47
593.89	428.32
594.05	444.70
594.20	425.98
594.36	425.98
594.52	344.06
594.68	442.36
594.84	416.62
594.99	463.43
595.15	435.34
595.31	493.85
595.47	400.23
595.62	379.17
595.78	472.79
595.94	372.15
596.10	402.57
596.25	428.32
596.41	451.72
596.57	404.91
596.73	397.89
596.88	425.98
597.04	407.25
597.20	395.55
597.36	454.06
597.51	416.62
597.67	351.08
597.83	365.12
597.99	435.34
598.14	433.00
598.30	486.83
598.46	484.49
598.61	451.72
598.77	411.93
598.93	416.62
599.09	416.62
599.24	425.98
599.40	411.93
599.56	416.62
599.71	468.11
599.87	390.87
600.03	451.72
600.18	421.30
600.34	388.53
600.50	379.17
600.65	395.55
600.81	433.00
600.97	381.51
601.12	327.68
601.28	519.60
601.44	470.45
601.59	393.21
601.75	383.85
601.91	442.36
602.06	383.85
602.22	463.43
602.37	489.17
602.53	367.46
602.69	393.21
602.84	444.70
603.00	400.23
603.16	397.89
603.31	402.57
603.47	421.30
603.62	447.04
603.78	465.77
603.94	433.00
604.09	407.25
604.25	400.23
604.40	381.51
604.56	369.80
604.71	416.62
604.87	367.46
605.03	470.45
605.18	407.25
605.34	454.06
605.49	346.40
605.65	449.38
605.80	489.17
605.96	423.64
606.12	414.27
606.27	404.91
606.43	372.15
606.58	433.00
606.74	379.17
606.89	442.36
607.05	470.45
607.20	421.30
607.36	475.13
607.51	367.46
607.67	353.42
607.82	440.02
607.98	458.74
608.13	442.36
608.29	388.53
608.44	414.27
608.60	414.27
608.75	496.19
608.91	440.02
609.06	409.59
609.22	484.49
609.37	346.40
609.53	407.25
609.68	428.32
609.84	404.91
609.99	407.25
610.15	449.38
