SpectraSuite Data File
++++++++++++++++++++++++++++++++++++
Date: Fri Oct 25 12:10:22 EDT 2013
User: price-jones
Dark Spectrum Present: No
Reference Spectrum Present: No
Number of Sampled Component Spectra: 1
Spectrometers: USB2+H05261
Integration Time (usec): 100000 (USB2+H05261)
Spectra Averaged: 1 (USB2+H05261)
Boxcar Smoothing: 0 (USB2+H05261)
Correct for Electrical Dark: No (USB2+H05261)
Strobe/Lamp Enabled: No (USB2+H05261)
Correct for Detector Non-linearity: No (USB2+H05261)
Correct for Stray Light: No (USB2+H05261)
Number of Pixels in Processed Spectrum: 2048
>>>>>Begin Processed Spectral Data<<<<<
365.73	348.74
365.92	348.74
366.12	348.74
366.32	227.03
366.52	180.22
366.72	292.57
366.91	222.35
367.11	173.20
367.31	299.59
367.51	278.52
367.70	243.42
367.90	308.95
368.10	208.31
368.30	238.73
368.49	217.67
368.69	243.42
368.89	266.82
369.09	266.82
369.28	276.18
369.48	273.84
369.68	315.97
369.87	290.23
370.07	241.08
370.27	252.78
370.47	339.38
370.66	311.29
370.86	390.87
371.06	393.21
371.25	482.15
371.45	390.87
371.65	360.44
371.84	362.78
372.04	407.25
372.24	407.25
372.44	423.64
372.63	433.00
372.83	381.51
373.03	416.62
373.22	367.46
373.42	381.51
373.62	374.49
373.81	463.43
374.01	414.27
374.21	386.19
374.40	360.44
374.60	463.43
374.79	433.00
374.99	388.53
375.19	411.93
375.38	344.06
375.58	411.93
375.78	430.66
375.97	402.57
376.17	390.87
376.37	337.04
376.56	376.83
376.76	454.06
376.95	489.17
377.15	475.13
377.35	418.96
377.54	341.72
377.74	381.51
377.93	418.96
378.13	411.93
378.33	416.62
378.52	407.25
378.72	388.53
378.91	433.00
379.11	425.98
379.31	414.27
379.50	337.04
379.70	346.40
379.89	456.40
380.09	334.70
380.28	346.40
380.48	421.30
380.68	372.15
380.87	376.83
381.07	330.02
381.26	400.23
381.46	383.85
381.65	376.83
381.85	367.46
382.04	400.23
382.24	423.64
382.43	367.46
382.63	344.06
382.83	346.40
383.02	428.32
383.22	435.34
383.41	386.19
383.61	386.19
383.80	360.44
384.00	280.86
384.19	404.91
384.39	414.27
384.58	374.49
384.78	365.12
384.97	376.83
385.17	393.21
385.36	376.83
385.56	416.62
385.75	484.49
385.95	348.74
386.14	348.74
386.34	362.78
386.53	435.34
386.72	468.11
386.92	374.49
387.11	404.91
387.31	402.57
387.50	334.70
387.70	362.78
387.89	369.80
388.09	416.62
388.28	402.57
388.48	327.68
388.67	423.64
388.86	348.74
389.06	390.87
389.25	416.62
389.45	447.04
389.64	409.59
389.84	425.98
390.03	444.70
390.22	376.83
390.42	416.62
390.61	353.42
390.81	425.98
391.00	400.23
391.19	360.44
391.39	414.27
391.58	372.15
391.78	440.02
391.97	395.55
392.16	369.80
392.36	479.81
392.55	409.59
392.75	507.90
392.94	440.02
393.13	475.13
393.33	390.87
393.52	362.78
393.71	517.26
393.91	383.85
394.10	416.62
394.29	425.98
394.49	355.76
394.68	400.23
394.88	393.21
395.07	463.43
395.26	416.62
395.46	425.98
395.65	433.00
395.84	344.06
396.04	409.59
396.23	411.93
396.42	379.17
396.62	454.06
396.81	367.46
397.00	423.64
397.19	428.32
397.39	390.87
397.58	334.70
397.77	397.89
397.97	423.64
398.16	390.87
398.35	367.46
398.55	381.51
398.74	407.25
398.93	390.87
399.12	421.30
399.32	461.09
399.51	383.85
399.70	346.40
399.90	388.53
400.09	430.66
400.28	407.25
400.47	362.78
400.67	397.89
400.86	388.53
401.05	383.85
401.24	351.08
401.44	414.27
401.63	421.30
401.82	498.53
402.01	397.89
402.21	397.89
402.40	376.83
402.59	388.53
402.78	402.57
402.97	454.06
403.17	411.93
403.36	379.17
403.55	416.62
403.74	344.06
403.93	489.17
404.13	409.59
404.32	435.34
404.51	369.80
404.70	437.68
404.89	404.91
405.09	381.51
405.28	395.55
405.47	379.17
405.66	435.34
405.85	440.02
406.05	463.43
406.24	388.53
406.43	423.64
406.62	482.15
406.81	425.98
407.00	367.46
407.20	447.04
407.39	362.78
407.58	430.66
407.77	435.34
407.96	430.66
408.15	430.66
408.34	400.23
408.54	475.13
408.73	346.40
408.92	313.63
409.11	402.57
409.30	435.34
409.49	386.19
409.68	348.74
409.87	397.89
410.07	397.89
410.26	472.79
410.45	358.10
410.64	355.76
410.83	409.59
411.02	430.66
411.21	428.32
411.40	379.17
411.59	383.85
411.78	430.66
411.98	397.89
412.17	383.85
412.36	341.72
412.55	411.93
412.74	454.06
412.93	491.51
413.12	351.08
413.31	390.87
413.50	386.19
413.69	430.66
413.88	348.74
414.07	339.38
414.26	388.53
414.45	381.51
414.64	444.70
414.83	367.46
415.02	404.91
415.22	404.91
415.41	425.98
415.60	414.27
415.79	465.77
415.98	458.74
416.17	367.46
416.36	374.49
416.55	337.04
416.74	388.53
416.93	372.15
417.12	383.85
417.31	416.62
417.50	447.04
417.69	449.38
417.88	369.80
418.07	325.33
418.26	425.98
418.45	444.70
418.64	409.59
418.83	388.53
419.02	383.85
419.21	451.72
419.39	386.19
419.58	458.74
419.77	360.44
419.96	468.11
420.15	414.27
420.34	313.63
420.53	437.68
420.72	421.30
420.91	423.64
421.10	440.02
421.29	411.93
421.48	461.09
421.67	437.68
421.86	395.55
422.05	393.21
422.24	395.55
422.43	404.91
422.61	348.74
422.80	444.70
422.99	383.85
423.18	393.21
423.37	344.06
423.56	400.23
423.75	449.38
423.94	468.11
424.13	411.93
424.32	465.77
424.50	402.57
424.69	402.57
424.88	390.87
425.07	409.59
425.26	395.55
425.45	414.27
425.64	489.17
425.83	447.04
426.01	447.04
426.20	379.17
426.39	369.80
426.58	414.27
426.77	388.53
426.96	463.43
427.15	435.34
427.33	367.46
427.52	351.08
427.71	416.62
427.90	414.27
428.09	374.49
428.28	393.21
428.46	395.55
428.65	472.79
428.84	353.42
429.03	411.93
429.22	423.64
429.40	411.93
429.59	421.30
429.78	411.93
429.97	421.30
430.16	411.93
430.34	383.85
430.53	376.83
430.72	484.49
430.91	390.87
431.10	376.83
431.28	386.19
431.47	416.62
431.66	379.17
431.85	416.62
432.03	454.06
432.22	444.70
432.41	435.34
432.60	433.00
432.79	409.59
432.97	456.40
433.16	390.87
433.35	379.17
433.54	418.96
433.72	425.98
433.91	404.91
434.10	477.47
434.28	430.66
434.47	365.12
434.66	444.70
434.85	407.25
435.03	395.55
435.22	400.23
435.41	374.49
435.59	360.44
435.78	414.27
435.97	440.02
436.16	386.19
436.34	451.72
436.53	388.53
436.72	440.02
436.90	435.34
437.09	421.30
437.28	430.66
437.46	409.59
437.65	440.02
437.84	428.32
438.02	369.80
438.21	423.64
438.40	491.51
438.58	433.00
438.77	365.12
438.96	369.80
439.14	339.38
439.33	379.17
439.52	383.85
439.70	414.27
439.89	395.55
440.08	372.15
440.26	409.59
440.45	414.27
440.63	397.89
440.82	416.62
441.01	435.34
441.19	418.96
441.38	397.89
441.57	416.62
441.75	444.70
441.94	433.00
442.12	437.68
442.31	433.00
442.50	442.36
442.68	409.59
442.87	454.06
443.05	472.79
443.24	468.11
443.43	358.10
443.61	362.78
443.80	348.74
443.98	404.91
444.17	428.32
444.35	444.70
444.54	407.25
444.73	388.53
444.91	456.40
445.10	435.34
445.28	449.38
445.47	461.09
445.65	493.85
445.84	397.89
446.02	465.77
446.21	470.45
446.39	395.55
446.58	484.49
446.77	458.74
446.95	402.57
447.14	355.76
447.32	388.53
447.51	482.15
447.69	430.66
447.88	383.85
448.06	428.32
448.25	388.53
448.43	379.17
448.62	402.57
448.80	533.64
448.99	379.17
449.17	397.89
449.36	372.15
449.54	379.17
449.73	402.57
449.91	332.36
450.10	376.83
450.28	423.64
450.46	435.34
450.65	425.98
450.83	437.68
451.02	430.66
451.20	388.53
451.39	386.19
451.57	390.87
451.76	493.85
451.94	442.36
452.13	395.55
452.31	456.40
452.49	461.09
452.68	372.15
452.86	414.27
453.05	416.62
453.23	404.91
453.42	393.21
453.60	322.99
453.78	374.49
453.97	444.70
454.15	435.34
454.34	458.74
454.52	369.80
454.70	418.96
454.89	533.64
455.07	362.78
455.26	423.64
455.44	376.83
455.62	442.36
455.81	374.49
455.99	397.89
456.17	393.21
456.36	400.23
456.54	418.96
456.73	379.17
456.91	407.25
457.09	400.23
457.28	402.57
457.46	437.68
457.64	423.64
457.83	383.85
458.01	344.06
458.19	393.21
458.38	409.59
458.56	337.04
458.74	407.25
458.93	360.44
459.11	444.70
459.29	430.66
459.48	374.49
459.66	409.59
459.84	407.25
460.03	449.38
460.21	451.72
460.39	397.89
460.57	360.44
460.76	475.13
460.94	435.34
461.12	400.23
461.31	397.89
461.49	416.62
461.67	393.21
461.85	388.53
462.04	381.51
462.22	777.06
462.40	449.38
462.59	433.00
462.77	360.44
462.95	437.68
463.13	418.96
463.32	423.64
463.50	444.70
463.68	374.49
463.86	337.04
464.05	390.87
464.23	423.64
464.41	409.59
464.59	337.04
464.78	388.53
464.96	339.38
465.14	444.70
465.32	395.55
465.50	416.62
465.69	421.30
465.87	435.34
466.05	414.27
466.23	327.68
466.41	388.53
466.60	421.30
466.78	425.98
466.96	435.34
467.14	454.06
467.32	430.66
467.51	409.59
467.69	355.76
467.87	428.32
468.05	360.44
468.23	496.19
468.41	383.85
468.60	437.68
468.78	461.09
468.96	404.91
469.14	416.62
469.32	416.62
469.50	386.19
469.69	325.33
469.87	463.43
470.05	430.66
470.23	358.10
470.41	393.21
470.59	418.96
470.77	360.44
470.95	402.57
471.14	395.55
471.32	430.66
471.50	454.06
471.68	451.72
471.86	372.15
472.04	374.49
472.22	447.04
472.40	369.80
472.58	416.62
472.77	414.27
472.95	400.23
473.13	447.04
473.31	409.59
473.49	393.21
473.67	395.55
473.85	444.70
474.03	425.98
474.21	383.85
474.39	514.92
474.57	500.87
474.75	372.15
474.93	325.33
475.12	409.59
475.30	334.70
475.48	440.02
475.66	435.34
475.84	437.68
476.02	425.98
476.20	390.87
476.38	407.25
476.56	491.51
476.74	369.80
476.92	428.32
477.10	425.98
477.28	416.62
477.46	416.62
477.64	428.32
477.82	437.68
478.00	404.91
478.18	393.21
478.36	374.49
478.54	433.00
478.72	297.25
478.90	437.68
479.08	430.66
479.26	351.08
479.44	465.77
479.62	447.04
479.80	355.76
479.98	447.04
480.16	458.74
480.34	351.08
480.52	346.40
480.70	409.59
480.88	369.80
481.06	365.12
481.24	390.87
481.41	388.53
481.59	402.57
481.77	430.66
481.95	418.96
482.13	409.59
482.31	390.87
482.49	372.15
482.67	388.53
482.85	475.13
483.03	463.43
483.21	423.64
483.39	397.89
483.57	404.91
483.74	437.68
483.92	414.27
484.10	400.23
484.28	414.27
484.46	395.55
484.64	409.59
484.82	397.89
485.00	400.23
485.18	463.43
485.35	395.55
485.53	386.19
485.71	465.77
485.89	388.53
486.07	433.00
486.25	451.72
486.43	512.58
486.61	351.08
486.78	407.25
486.96	362.78
487.14	386.19
487.32	425.98
487.50	383.85
487.68	397.89
487.85	381.51
488.03	437.68
488.21	379.17
488.39	461.09
488.57	372.15
488.75	524.28
488.92	505.56
489.10	425.98
489.28	503.22
489.46	369.80
489.64	365.12
489.81	421.30
489.99	423.64
490.17	425.98
490.35	421.30
490.53	411.93
490.70	444.70
490.88	400.23
491.06	360.44
491.24	421.30
491.41	383.85
491.59	421.30
491.77	491.51
491.95	425.98
492.13	353.42
492.30	407.25
492.48	440.02
492.66	315.97
492.84	381.51
493.01	388.53
493.19	379.17
493.37	414.27
493.54	423.64
493.72	395.55
493.90	433.00
494.08	533.64
494.25	440.02
494.43	411.93
494.61	451.72
494.79	362.78
494.96	416.62
495.14	416.62
495.32	404.91
495.49	397.89
495.67	463.43
495.85	381.51
496.02	292.57
496.20	411.93
496.38	433.00
496.55	416.62
496.73	407.25
496.91	360.44
497.09	430.66
497.26	486.83
497.44	444.70
497.62	433.00
497.79	451.72
497.97	503.22
498.14	416.62
498.32	374.49
498.50	365.12
498.67	381.51
498.85	388.53
499.03	351.08
499.20	407.25
499.38	360.44
499.56	479.81
499.73	393.21
499.91	461.09
500.08	465.77
500.26	414.27
500.44	411.93
500.61	397.89
500.79	330.02
500.97	414.27
501.14	477.47
501.32	400.23
501.49	381.51
501.67	409.59
501.84	402.57
502.02	421.30
502.20	383.85
502.37	458.74
502.55	402.57
502.72	402.57
502.90	395.55
503.07	367.46
503.25	362.78
503.43	428.32
503.60	472.79
503.78	475.13
503.95	414.27
504.13	409.59
504.30	418.96
504.48	484.49
504.65	430.66
504.83	484.49
505.01	423.64
505.18	435.34
505.36	386.19
505.53	411.93
505.71	465.77
505.88	458.74
506.06	472.79
506.23	411.93
506.41	383.85
506.58	475.13
506.76	437.68
506.93	437.68
507.11	374.49
507.28	421.30
507.46	454.06
507.63	442.36
507.81	404.91
507.98	414.27
508.16	400.23
508.33	383.85
508.50	369.80
508.68	430.66
508.85	348.74
509.03	353.42
509.20	383.85
509.38	475.13
509.55	435.34
509.73	379.17
509.90	421.30
510.08	400.23
510.25	390.87
510.42	414.27
510.60	442.36
510.77	423.64
510.95	358.10
511.12	449.38
511.30	444.70
511.47	475.13
511.64	409.59
511.82	449.38
511.99	397.89
512.17	423.64
512.34	393.21
512.51	390.87
512.69	423.64
512.86	404.91
513.04	383.85
513.21	407.25
513.38	407.25
513.56	383.85
513.73	379.17
513.90	423.64
514.08	416.62
514.25	358.10
514.43	461.09
514.60	395.55
514.77	383.85
514.95	435.34
515.12	454.06
515.29	470.45
515.47	475.13
515.64	430.66
515.81	365.12
515.99	376.83
516.16	444.70
516.33	458.74
516.51	468.11
516.68	404.91
516.85	430.66
517.03	414.27
517.20	416.62
517.37	372.15
517.54	365.12
517.72	470.45
517.89	465.77
518.06	344.06
518.24	479.81
518.41	496.19
518.58	383.85
518.75	447.04
518.93	454.06
519.10	404.91
519.27	449.38
519.45	409.59
519.62	414.27
519.79	428.32
519.96	379.17
520.14	456.40
520.31	433.00
520.48	374.49
520.65	367.46
520.83	428.32
521.00	402.57
521.17	444.70
521.34	353.42
521.52	463.43
521.69	407.25
521.86	423.64
522.03	430.66
522.20	491.51
522.38	430.66
522.55	433.00
522.72	430.66
522.89	409.59
523.07	521.94
523.24	346.40
523.41	428.32
523.58	421.30
523.75	390.87
523.92	447.04
524.10	440.02
524.27	360.44
524.44	435.34
524.61	414.27
524.78	425.98
524.96	435.34
525.13	496.19
525.30	449.38
525.47	435.34
525.64	379.17
525.81	390.87
525.98	454.06
526.16	456.40
526.33	388.53
526.50	386.19
526.67	374.49
526.84	468.11
527.01	374.49
527.18	447.04
527.36	411.93
527.53	348.74
527.70	358.10
527.87	351.08
528.04	416.62
528.21	409.59
528.38	449.38
528.55	425.98
528.72	479.81
528.89	402.57
529.07	472.79
529.24	416.62
529.41	418.96
529.58	369.80
529.75	404.91
529.92	360.44
530.09	351.08
530.26	486.83
530.43	449.38
530.60	393.21
530.77	449.38
530.94	409.59
531.11	465.77
531.28	393.21
531.46	362.78
531.63	493.85
531.80	440.02
531.97	379.17
532.14	395.55
532.31	416.62
532.48	372.15
532.65	461.09
532.82	486.83
532.99	325.33
533.16	348.74
533.33	409.59
533.50	423.64
533.67	421.30
533.84	470.45
534.01	433.00
534.18	351.08
534.35	435.34
534.52	458.74
534.69	442.36
534.86	435.34
535.03	425.98
535.20	409.59
535.37	341.72
535.54	423.64
535.71	472.79
535.88	503.22
536.05	397.89
536.22	386.19
536.38	404.91
536.55	440.02
536.72	351.08
536.89	395.55
537.06	470.45
537.23	442.36
537.40	355.76
537.57	404.91
537.74	463.43
537.91	421.30
538.08	496.19
538.25	423.64
538.42	425.98
538.59	395.55
538.75	358.10
538.92	400.23
539.09	404.91
539.26	475.13
539.43	496.19
539.60	465.77
539.77	440.02
539.94	507.90
540.11	454.06
540.28	383.85
540.44	463.43
540.61	372.15
540.78	428.32
540.95	430.66
541.12	423.64
541.29	409.59
541.46	430.66
541.62	381.51
541.79	376.83
541.96	428.32
542.13	379.17
542.30	416.62
542.47	463.43
542.63	475.13
542.80	376.83
542.97	376.83
543.14	428.32
543.31	435.34
543.48	407.25
543.64	444.70
543.81	416.62
543.98	421.30
544.15	409.59
544.32	447.04
544.48	421.30
544.65	395.55
544.82	416.62
544.99	379.17
545.16	376.83
545.32	376.83
545.49	383.85
545.66	451.72
545.83	376.83
546.00	486.83
546.16	461.09
546.33	390.87
546.50	411.93
546.67	379.17
546.83	442.36
547.00	393.21
547.17	362.78
547.34	306.61
547.50	482.15
547.67	456.40
547.84	418.96
548.00	425.98
548.17	458.74
548.34	472.79
548.51	521.94
548.67	348.74
548.84	416.62
549.01	414.27
549.18	402.57
549.34	341.72
549.51	409.59
549.68	435.34
549.84	407.25
550.01	437.68
550.18	507.90
550.34	447.04
550.51	425.98
550.68	402.57
550.84	468.11
551.01	482.15
551.18	402.57
551.34	465.77
551.51	444.70
551.68	390.87
551.84	479.81
552.01	454.06
552.18	425.98
552.34	395.55
552.51	421.30
552.68	454.06
552.84	463.43
553.01	454.06
553.18	402.57
553.34	428.32
553.51	390.87
553.67	402.57
553.84	442.36
554.01	358.10
554.17	421.30
554.34	360.44
554.51	447.04
554.67	416.62
554.84	421.30
555.00	388.53
555.17	425.98
555.33	498.53
555.50	447.04
555.67	435.34
555.83	395.55
556.00	404.91
556.16	482.15
556.33	402.57
556.50	381.51
556.66	393.21
556.83	362.78
556.99	360.44
557.16	440.02
557.32	517.26
557.49	475.13
557.65	425.98
557.82	451.72
557.98	374.49
558.15	461.09
558.32	449.38
558.48	402.57
558.65	454.06
558.81	437.68
558.98	393.21
559.14	423.64
559.31	407.25
559.47	475.13
559.64	411.93
559.80	353.42
559.97	414.27
560.13	435.34
560.30	407.25
560.46	362.78
560.63	423.64
560.79	400.23
560.96	423.64
561.12	475.13
561.29	461.09
561.45	388.53
561.61	358.10
561.78	376.83
561.94	437.68
562.11	425.98
562.27	404.91
562.44	390.87
562.60	468.11
562.77	409.59
562.93	528.96
563.10	463.43
563.26	407.25
563.42	451.72
563.59	430.66
563.75	444.70
563.92	465.77
564.08	472.79
564.24	372.15
564.41	348.74
564.57	449.38
564.74	411.93
564.90	383.85
565.07	449.38
565.23	411.93
565.39	376.83
565.56	458.74
565.72	409.59
565.88	402.57
566.05	365.12
566.21	351.08
566.38	402.57
566.54	491.51
566.70	444.70
566.87	320.65
567.03	365.12
567.19	395.55
567.36	423.64
567.52	451.72
567.68	372.15
567.85	493.85
568.01	379.17
568.17	383.85
568.34	390.87
568.50	472.79
568.66	402.57
568.83	484.49
568.99	404.91
569.15	418.96
569.32	411.93
569.48	402.57
569.64	430.66
569.81	475.13
569.97	402.57
570.13	468.11
570.30	416.62
570.46	442.36
570.62	402.57
570.78	435.34
570.95	404.91
571.11	409.59
571.27	397.89
571.43	416.62
571.60	470.45
571.76	379.17
571.92	344.06
572.09	390.87
572.25	416.62
572.41	402.57
572.57	348.74
572.74	463.43
572.90	437.68
573.06	442.36
573.22	330.02
573.38	397.89
573.55	437.68
573.71	383.85
573.87	425.98
574.03	386.19
574.20	409.59
574.36	367.46
574.52	435.34
574.68	407.25
574.84	423.64
575.01	353.42
575.17	407.25
575.33	528.96
575.49	423.64
575.65	447.04
575.82	376.83
575.98	379.17
576.14	367.46
576.30	397.89
576.46	430.66
576.62	414.27
576.79	465.77
576.95	454.06
577.11	397.89
577.27	451.72
577.43	451.72
577.59	435.34
577.75	447.04
577.92	425.98
578.08	461.09
578.24	386.19
578.40	379.17
578.56	454.06
578.72	461.09
578.88	482.15
579.04	423.64
579.21	449.38
579.37	402.57
579.53	337.04
579.69	430.66
579.85	362.78
580.01	362.78
580.17	409.59
580.33	341.72
580.49	451.72
580.65	447.04
580.82	393.21
580.98	451.72
581.14	418.96
581.30	472.79
581.46	425.98
581.62	409.59
581.78	400.23
581.94	449.38
582.10	383.85
582.26	463.43
582.42	388.53
582.58	437.68
582.74	433.00
582.90	428.32
583.06	468.11
583.22	440.02
583.38	440.02
583.54	395.55
583.70	404.91
583.86	374.49
584.02	447.04
584.18	416.62
584.34	393.21
584.50	400.23
584.66	407.25
584.82	390.87
584.98	393.21
585.14	327.68
585.30	376.83
585.46	416.62
585.62	351.08
585.78	383.85
585.94	395.55
586.10	346.40
586.26	390.87
586.42	461.09
586.58	477.47
586.74	407.25
586.90	393.21
587.06	418.96
587.22	388.53
587.38	393.21
587.54	360.44
587.70	346.40
587.86	388.53
588.02	433.00
588.18	402.57
588.34	468.11
588.49	437.68
588.65	449.38
588.81	470.45
588.97	440.02
589.13	428.32
589.29	472.79
589.45	472.79
589.61	472.79
589.77	421.30
589.93	372.15
590.08	402.57
590.24	449.38
590.40	454.06
590.56	491.51
590.72	477.47
590.88	397.89
591.04	358.10
591.20	440.02
591.35	414.27
591.51	414.27
591.67	414.27
591.83	440.02
591.99	381.51
592.15	423.64
592.31	416.62
592.46	402.57
592.62	475.13
592.78	425.98
592.94	465.77
593.10	365.12
593.26	411.93
593.41	425.98
593.57	454.06
593.73	379.17
593.89	444.70
594.05	346.40
594.20	411.93
594.36	472.79
594.52	367.46
594.68	337.04
594.84	517.26
594.99	463.43
595.15	383.85
595.31	397.89
595.47	479.81
595.62	411.93
595.78	433.00
595.94	437.68
596.10	433.00
596.25	418.96
596.41	416.62
596.57	404.91
596.73	360.44
596.88	407.25
597.04	355.76
597.20	337.04
597.36	458.74
597.51	402.57
597.67	374.49
597.83	430.66
597.99	402.57
598.14	423.64
598.30	451.72
598.46	301.93
598.61	395.55
598.77	463.43
598.93	376.83
599.09	390.87
599.24	372.15
599.40	442.36
599.56	423.64
599.71	430.66
599.87	374.49
600.03	407.25
600.18	416.62
600.34	374.49
600.50	479.81
600.65	435.34
600.81	433.00
600.97	369.80
601.12	374.49
601.28	402.57
601.44	472.79
601.59	386.19
601.75	381.51
601.91	344.06
602.06	386.19
602.22	533.64
602.37	425.98
602.53	437.68
602.69	442.36
602.84	397.89
603.00	449.38
603.16	486.83
603.31	423.64
603.47	433.00
603.62	472.79
603.78	442.36
603.94	449.38
604.09	407.25
604.25	456.40
604.40	456.40
604.56	418.96
604.71	404.91
604.87	367.46
605.03	433.00
605.18	425.98
605.34	351.08
605.49	379.17
605.65	383.85
605.80	362.78
605.96	404.91
606.12	400.23
606.27	428.32
606.43	414.27
606.58	437.68
606.74	425.98
606.89	472.79
607.05	425.98
607.20	397.89
607.36	386.19
607.51	372.15
607.67	465.77
607.82	358.10
607.98	447.04
608.13	404.91
608.29	397.89
608.44	369.80
608.60	379.17
608.75	404.91
608.91	437.68
609.06	404.91
609.22	393.21
609.37	479.81
609.53	433.00
609.68	404.91
609.84	397.89
609.99	430.66
610.15	360.44
