SpectraSuite Data File
++++++++++++++++++++++++++++++++++++
Date: Fri Oct 25 12:11:45 EDT 2013
User: price-jones
Dark Spectrum Present: No
Reference Spectrum Present: No
Number of Sampled Component Spectra: 1
Spectrometers: USB2+H05261
Integration Time (usec): 100000 (USB2+H05261)
Spectra Averaged: 1 (USB2+H05261)
Boxcar Smoothing: 0 (USB2+H05261)
Correct for Electrical Dark: No (USB2+H05261)
Strobe/Lamp Enabled: No (USB2+H05261)
Correct for Detector Non-linearity: No (USB2+H05261)
Correct for Stray Light: No (USB2+H05261)
Number of Pixels in Processed Spectrum: 2048
>>>>>Begin Processed Spectral Data<<<<<
365.73	311.29
365.92	311.29
366.12	311.29
366.32	210.65
366.52	212.99
366.72	276.18
366.91	271.50
367.11	224.69
367.31	276.18
367.51	283.20
367.70	280.86
367.90	212.99
368.10	220.01
368.30	245.76
368.49	191.92
368.69	238.73
368.89	283.20
369.09	271.50
369.28	264.48
369.48	266.82
369.68	217.67
369.87	290.23
370.07	332.36
370.27	325.33
370.47	315.97
370.66	313.63
370.86	351.08
371.06	409.59
371.25	369.80
371.45	360.44
371.65	381.51
371.84	318.31
372.04	440.02
372.24	358.10
372.44	379.17
372.63	423.64
372.83	414.27
373.03	468.11
373.22	433.00
373.42	402.57
373.62	449.38
373.81	465.77
374.01	472.79
374.21	411.93
374.40	425.98
374.60	524.28
374.79	374.49
374.99	489.17
375.19	430.66
375.38	491.51
375.58	524.28
375.78	435.34
375.97	390.87
376.17	418.96
376.37	433.00
376.56	402.57
376.76	358.10
376.95	332.36
377.15	428.32
377.35	433.00
377.54	390.87
377.74	411.93
377.93	369.80
378.13	409.59
378.33	383.85
378.52	393.21
378.72	423.64
378.91	411.93
379.11	409.59
379.31	404.91
379.50	430.66
379.70	388.53
379.89	388.53
380.09	372.15
380.28	423.64
380.48	383.85
380.68	400.23
380.87	407.25
381.07	423.64
381.26	369.80
381.46	430.66
381.65	418.96
381.85	416.62
382.04	395.55
382.24	365.12
382.43	409.59
382.63	376.83
382.83	428.32
383.02	402.57
383.22	461.09
383.41	414.27
383.61	468.11
383.80	463.43
384.00	390.87
384.19	381.51
384.39	479.81
384.58	451.72
384.78	386.19
384.97	411.93
385.17	407.25
385.36	381.51
385.56	414.27
385.75	404.91
385.95	353.42
386.14	430.66
386.34	416.62
386.53	458.74
386.72	451.72
386.92	379.17
387.11	383.85
387.31	358.10
387.50	383.85
387.70	348.74
387.89	404.91
388.09	444.70
388.28	388.53
388.48	379.17
388.67	402.57
388.86	449.38
389.06	407.25
389.25	430.66
389.45	409.59
389.64	393.21
389.84	423.64
390.03	407.25
390.22	411.93
390.42	414.27
390.61	407.25
390.81	379.17
391.00	397.89
391.19	372.15
391.39	416.62
391.58	322.99
391.78	444.70
391.97	437.68
392.16	395.55
392.36	383.85
392.55	379.17
392.75	414.27
392.94	421.30
393.13	418.96
393.33	414.27
393.52	442.36
393.71	484.49
393.91	355.76
394.10	463.43
394.29	409.59
394.49	397.89
394.68	411.93
394.88	428.32
395.07	458.74
395.26	430.66
395.46	423.64
395.65	440.02
395.84	425.98
396.04	465.77
396.23	381.51
396.42	400.23
396.62	339.38
396.81	440.02
397.00	440.02
397.19	425.98
397.39	395.55
397.58	428.32
397.77	381.51
397.97	330.02
398.16	376.83
398.35	411.93
398.55	400.23
398.74	393.21
398.93	388.53
399.12	372.15
399.32	428.32
399.51	404.91
399.70	402.57
399.90	327.68
400.09	430.66
400.28	365.12
400.47	430.66
400.67	402.57
400.86	402.57
401.05	484.49
401.24	402.57
401.44	430.66
401.63	425.98
401.82	435.34
402.01	433.00
402.21	379.17
402.40	367.46
402.59	383.85
402.78	393.21
402.97	486.83
403.17	400.23
403.36	393.21
403.55	454.06
403.74	416.62
403.93	393.21
404.13	470.45
404.32	393.21
404.51	414.27
404.70	393.21
404.89	341.72
405.09	414.27
405.28	360.44
405.47	327.68
405.66	388.53
405.85	383.85
406.05	442.36
406.24	491.51
406.43	395.55
406.62	414.27
406.81	468.11
407.00	346.40
407.20	425.98
407.39	358.10
407.58	454.06
407.77	430.66
407.96	400.23
408.15	372.15
408.34	451.72
408.54	346.40
408.73	447.04
408.92	456.40
409.11	395.55
409.30	411.93
409.49	330.02
409.68	404.91
409.87	437.68
410.07	451.72
410.26	433.00
410.45	411.93
410.64	418.96
410.83	395.55
411.02	383.85
411.21	397.89
411.40	449.38
411.59	346.40
411.78	442.36
411.98	365.12
412.17	430.66
412.36	400.23
412.55	418.96
412.74	402.57
412.93	461.09
413.12	395.55
413.31	486.83
413.50	390.87
413.69	444.70
413.88	374.49
414.07	383.85
414.26	397.89
414.45	355.76
414.64	393.21
414.83	351.08
415.02	404.91
415.22	421.30
415.41	451.72
415.60	463.43
415.79	402.57
415.98	416.62
416.17	451.72
416.36	433.00
416.55	360.44
416.74	433.00
416.93	447.04
417.12	461.09
417.31	421.30
417.50	416.62
417.69	444.70
417.88	411.93
418.07	395.55
418.26	486.83
418.45	409.59
418.64	437.68
418.83	416.62
419.02	365.12
419.21	416.62
419.39	458.74
419.58	372.15
419.77	421.30
419.96	430.66
420.15	397.89
420.34	404.91
420.53	372.15
420.72	402.57
420.91	351.08
421.10	423.64
421.29	437.68
421.48	489.17
421.67	449.38
421.86	430.66
422.05	449.38
422.24	421.30
422.43	360.44
422.61	404.91
422.80	414.27
422.99	376.83
423.18	458.74
423.37	388.53
423.56	402.57
423.75	491.51
423.94	447.04
424.13	472.79
424.32	428.32
424.50	435.34
424.69	428.32
424.88	503.22
425.07	369.80
425.26	416.62
425.45	393.21
425.64	425.98
425.83	348.74
426.01	362.78
426.20	362.78
426.39	437.68
426.58	430.66
426.77	430.66
426.96	355.76
427.15	365.12
427.33	365.12
427.52	390.87
427.71	442.36
427.90	393.21
428.09	397.89
428.28	407.25
428.46	416.62
428.65	376.83
428.84	465.77
429.03	447.04
429.22	411.93
429.40	397.89
429.59	402.57
429.78	479.81
429.97	400.23
430.16	341.72
430.34	353.42
430.53	355.76
430.72	409.59
430.91	414.27
431.10	421.30
431.28	468.11
431.47	416.62
431.66	376.83
431.85	404.91
432.03	421.30
432.22	540.66
432.41	433.00
432.60	414.27
432.79	372.15
432.97	407.25
433.16	365.12
433.35	390.87
433.54	461.09
433.72	395.55
433.91	510.24
434.10	383.85
434.28	362.78
434.47	358.10
434.66	442.36
434.85	388.53
435.03	388.53
435.22	449.38
435.41	458.74
435.59	348.74
435.78	423.64
435.97	454.06
436.16	435.34
436.34	390.87
436.53	482.15
436.72	348.74
436.90	390.87
437.09	451.72
437.28	470.45
437.46	454.06
437.65	404.91
437.84	386.19
438.02	428.32
438.21	409.59
438.40	493.85
438.58	388.53
438.77	463.43
438.96	416.62
439.14	505.56
439.33	433.00
439.52	381.51
439.70	468.11
439.89	433.00
440.08	411.93
440.26	428.32
440.45	397.89
440.63	411.93
440.82	341.72
441.01	362.78
441.19	435.34
441.38	411.93
441.57	437.68
441.75	407.25
441.94	407.25
442.12	400.23
442.31	437.68
442.50	360.44
442.68	458.74
442.87	433.00
443.05	423.64
443.24	383.85
443.43	409.59
443.61	440.02
443.80	365.12
443.98	411.93
444.17	372.15
444.35	400.23
444.54	351.08
444.73	362.78
444.91	449.38
445.10	418.96
445.28	376.83
445.47	400.23
445.65	407.25
445.84	362.78
446.02	393.21
446.21	444.70
446.39	433.00
446.58	491.51
446.77	351.08
446.95	442.36
447.14	442.36
447.32	477.47
447.51	353.42
447.69	418.96
447.88	435.34
448.06	400.23
448.25	451.72
448.43	451.72
448.62	369.80
448.80	393.21
448.99	393.21
449.17	386.19
449.36	423.64
449.54	437.68
449.73	465.77
449.91	468.11
450.10	454.06
450.28	442.36
450.46	468.11
450.65	456.40
450.83	416.62
451.02	341.72
451.20	397.89
451.39	451.72
451.57	425.98
451.76	423.64
451.94	423.64
452.13	386.19
452.31	414.27
452.49	428.32
452.68	418.96
452.86	433.00
453.05	491.51
453.23	383.85
453.42	402.57
453.60	351.08
453.78	402.57
453.97	376.83
454.15	414.27
454.34	409.59
454.52	351.08
454.70	416.62
454.89	463.43
455.07	411.93
455.26	367.46
455.44	463.43
455.62	463.43
455.81	437.68
455.99	433.00
456.17	390.87
456.36	414.27
456.54	440.02
456.73	395.55
456.91	337.04
457.09	465.77
457.28	407.25
457.46	390.87
457.64	386.19
457.83	404.91
458.01	409.59
458.19	514.92
458.38	397.89
458.56	435.34
458.74	339.38
458.93	437.68
459.11	386.19
459.29	386.19
459.48	393.21
459.66	430.66
459.84	475.13
460.03	458.74
460.21	472.79
460.39	442.36
460.57	447.04
460.76	498.53
460.94	397.89
461.12	407.25
461.31	421.30
461.49	383.85
461.67	423.64
461.85	472.79
462.04	440.02
462.22	734.93
462.40	339.38
462.59	425.98
462.77	404.91
462.95	425.98
463.13	437.68
463.32	423.64
463.50	440.02
463.68	440.02
463.86	435.34
464.05	369.80
464.23	458.74
464.41	416.62
464.59	454.06
464.78	409.59
464.96	348.74
465.14	358.10
465.32	355.76
465.50	428.32
465.69	397.89
465.87	428.32
466.05	475.13
466.23	454.06
466.41	383.85
466.60	456.40
466.78	407.25
466.96	404.91
467.14	416.62
467.32	379.17
467.51	447.04
467.69	421.30
467.87	437.68
468.05	404.91
468.23	421.30
468.41	444.70
468.60	507.90
468.78	444.70
468.96	482.15
469.14	454.06
469.32	390.87
469.50	423.64
469.69	465.77
469.87	421.30
470.05	458.74
470.23	470.45
470.41	465.77
470.59	479.81
470.77	433.00
470.95	376.83
471.14	397.89
471.32	390.87
471.50	461.09
471.68	374.49
471.86	461.09
472.04	451.72
472.22	409.59
472.40	400.23
472.58	407.25
472.77	383.85
472.95	465.77
473.13	449.38
473.31	365.12
473.49	421.30
473.67	390.87
473.85	428.32
474.03	411.93
474.21	416.62
474.39	374.49
474.57	479.81
474.75	393.21
474.93	416.62
475.12	390.87
475.30	435.34
475.48	353.42
475.66	355.76
475.84	435.34
476.02	456.40
476.20	472.79
476.38	416.62
476.56	404.91
476.74	416.62
476.92	407.25
477.10	402.57
477.28	444.70
477.46	376.83
477.64	402.57
477.82	381.51
478.00	425.98
478.18	358.10
478.36	440.02
478.54	437.68
478.72	430.66
478.90	475.13
479.08	444.70
479.26	468.11
479.44	454.06
479.62	388.53
479.80	409.59
479.98	358.10
480.16	397.89
480.34	435.34
480.52	393.21
480.70	393.21
480.88	386.19
481.06	390.87
481.24	409.59
481.41	379.17
481.59	437.68
481.77	297.25
481.95	376.83
482.13	442.36
482.31	435.34
482.49	456.40
482.67	428.32
482.85	430.66
483.03	444.70
483.21	372.15
483.39	430.66
483.57	433.00
483.74	437.68
483.92	383.85
484.10	435.34
484.28	404.91
484.46	519.60
484.64	390.87
484.82	418.96
485.00	465.77
485.18	407.25
485.35	440.02
485.53	458.74
485.71	428.32
485.89	414.27
486.07	411.93
486.25	421.30
486.43	442.36
486.61	386.19
486.78	374.49
486.96	383.85
487.14	442.36
487.32	428.32
487.50	360.44
487.68	308.95
487.85	372.15
488.03	444.70
488.21	386.19
488.39	468.11
488.57	440.02
488.75	381.51
488.92	440.02
489.10	381.51
489.28	414.27
489.46	353.42
489.64	369.80
489.81	365.12
489.99	376.83
490.17	390.87
490.35	503.22
490.53	435.34
490.70	472.79
490.88	386.19
491.06	444.70
491.24	414.27
491.41	463.43
491.59	421.30
491.77	430.66
491.95	421.30
492.13	379.17
492.30	437.68
492.48	430.66
492.66	425.98
492.84	430.66
493.01	308.95
493.19	472.79
493.37	463.43
493.54	390.87
493.72	348.74
493.90	458.74
494.08	428.32
494.25	430.66
494.43	404.91
494.61	414.27
494.79	433.00
494.96	376.83
495.14	465.77
495.32	423.64
495.49	416.62
495.67	376.83
495.85	416.62
496.02	379.17
496.20	409.59
496.38	414.27
496.55	416.62
496.73	465.77
496.91	390.87
497.09	425.98
497.26	491.51
497.44	414.27
497.62	414.27
497.79	470.45
497.97	458.74
498.14	425.98
498.32	390.87
498.50	348.74
498.67	430.66
498.85	442.36
499.03	449.38
499.20	402.57
499.38	486.83
499.56	351.08
499.73	418.96
499.91	468.11
500.08	484.49
500.26	435.34
500.44	402.57
500.61	454.06
500.79	367.46
500.97	423.64
501.14	433.00
501.32	346.40
501.49	386.19
501.67	428.32
501.84	425.98
502.02	437.68
502.20	507.90
502.37	390.87
502.55	440.02
502.72	451.72
502.90	449.38
503.07	442.36
503.25	390.87
503.43	369.80
503.60	454.06
503.78	320.65
503.95	411.93
504.13	383.85
504.30	339.38
504.48	524.28
504.65	416.62
504.83	444.70
505.01	468.11
505.18	416.62
505.36	411.93
505.53	425.98
505.71	365.12
505.88	468.11
506.06	468.11
506.23	449.38
506.41	325.33
506.58	411.93
506.76	367.46
506.93	358.10
507.11	451.72
507.28	451.72
507.46	430.66
507.63	498.53
507.81	423.64
507.98	407.25
508.16	416.62
508.33	451.72
508.50	416.62
508.68	379.17
508.85	383.85
509.03	451.72
509.20	433.00
509.38	421.30
509.55	428.32
509.73	425.98
509.90	468.11
510.08	404.91
510.25	416.62
510.42	395.55
510.60	435.34
510.77	421.30
510.95	435.34
511.12	393.21
511.30	435.34
511.47	425.98
511.64	444.70
511.82	390.87
511.99	395.55
512.17	386.19
512.34	372.15
512.51	360.44
512.69	355.76
512.86	451.72
513.04	437.68
513.21	493.85
513.38	353.42
513.56	416.62
513.73	484.49
513.90	390.87
514.08	479.81
514.25	428.32
514.43	444.70
514.60	407.25
514.77	447.04
514.95	421.30
515.12	433.00
515.29	437.68
515.47	411.93
515.64	407.25
515.81	437.68
515.99	428.32
516.16	414.27
516.33	514.92
516.51	456.40
516.68	461.09
516.85	395.55
517.03	381.51
517.20	376.83
517.37	404.91
517.54	407.25
517.72	395.55
517.89	395.55
518.06	416.62
518.24	449.38
518.41	416.62
518.58	409.59
518.75	430.66
518.93	358.10
519.10	421.30
519.27	351.08
519.45	440.02
519.62	435.34
519.79	407.25
519.96	416.62
520.14	468.11
520.31	470.45
520.48	442.36
520.65	486.83
520.83	374.49
521.00	393.21
521.17	449.38
521.34	425.98
521.52	421.30
521.69	381.51
521.86	362.78
522.03	449.38
522.20	404.91
522.38	425.98
522.55	418.96
522.72	451.72
522.89	437.68
523.07	472.79
523.24	475.13
523.41	346.40
523.58	351.08
523.75	411.93
523.92	414.27
524.10	437.68
524.27	390.87
524.44	395.55
524.61	503.22
524.78	400.23
524.96	437.68
525.13	454.06
525.30	428.32
525.47	395.55
525.64	374.49
525.81	409.59
525.98	440.02
526.16	379.17
526.33	369.80
526.50	402.57
526.67	451.72
526.84	348.74
527.01	379.17
527.18	430.66
527.36	381.51
527.53	433.00
527.70	442.36
527.87	397.89
528.04	407.25
528.21	442.36
528.38	437.68
528.55	458.74
528.72	428.32
528.89	416.62
529.07	456.40
529.24	465.77
529.41	461.09
529.58	395.55
529.75	475.13
529.92	477.47
530.09	454.06
530.26	442.36
530.43	430.66
530.60	407.25
530.77	393.21
530.94	358.10
531.11	376.83
531.28	440.02
531.46	472.79
531.63	416.62
531.80	468.11
531.97	449.38
532.14	388.53
532.31	400.23
532.48	416.62
532.65	386.19
532.82	404.91
532.99	411.93
533.16	355.76
533.33	393.21
533.50	454.06
533.67	423.64
533.84	505.56
534.01	353.42
534.18	383.85
534.35	433.00
534.52	397.89
534.69	440.02
534.86	433.00
535.03	416.62
535.20	414.27
535.37	400.23
535.54	374.49
535.71	444.70
535.88	503.22
536.05	440.02
536.22	400.23
536.38	470.45
536.55	442.36
536.72	402.57
536.89	430.66
537.06	341.72
537.23	365.12
537.40	423.64
537.57	416.62
537.74	491.51
537.91	465.77
538.08	468.11
538.25	454.06
538.42	456.40
538.59	428.32
538.75	330.02
538.92	430.66
539.09	425.98
539.26	383.85
539.43	465.77
539.60	465.77
539.77	458.74
539.94	416.62
540.11	435.34
540.28	407.25
540.44	381.51
540.61	358.10
540.78	416.62
540.95	454.06
541.12	482.15
541.29	444.70
541.46	386.19
541.62	428.32
541.79	425.98
541.96	390.87
542.13	395.55
542.30	407.25
542.47	433.00
542.63	402.57
542.80	388.53
542.97	451.72
543.14	416.62
543.31	421.30
543.48	461.09
543.64	477.47
543.81	423.64
543.98	451.72
544.15	437.68
544.32	416.62
544.48	383.85
544.65	449.38
544.82	362.78
544.99	519.60
545.16	510.24
545.32	433.00
545.49	402.57
545.66	414.27
545.83	404.91
546.00	409.59
546.16	437.68
546.33	414.27
546.50	442.36
546.67	425.98
546.83	458.74
547.00	400.23
547.17	397.89
547.34	372.15
547.50	376.83
547.67	423.64
547.84	430.66
548.00	477.47
548.17	386.19
548.34	379.17
548.51	355.76
548.67	404.91
548.84	416.62
549.01	367.46
549.18	379.17
549.34	390.87
549.51	437.68
549.68	435.34
549.84	369.80
550.01	334.70
550.18	444.70
550.34	390.87
550.51	454.06
550.68	472.79
550.84	503.22
551.01	383.85
551.18	435.34
551.34	421.30
551.51	421.30
551.68	430.66
551.84	477.47
552.01	381.51
552.18	372.15
552.34	411.93
552.51	418.96
552.68	379.17
552.84	390.87
553.01	421.30
553.18	449.38
553.34	414.27
553.51	369.80
553.67	451.72
553.84	454.06
554.01	409.59
554.17	393.21
554.34	430.66
554.51	447.04
554.67	451.72
554.84	421.30
555.00	409.59
555.17	484.49
555.33	425.98
555.50	411.93
555.67	407.25
555.83	451.72
556.00	372.15
556.16	571.09
556.33	491.51
556.50	458.74
556.66	442.36
556.83	381.51
556.99	444.70
557.16	465.77
557.32	425.98
557.49	383.85
557.65	458.74
557.82	454.06
557.98	463.43
558.15	423.64
558.32	444.70
558.48	435.34
558.65	376.83
558.81	433.00
558.98	519.60
559.14	416.62
559.31	409.59
559.47	360.44
559.64	463.43
559.80	449.38
559.97	369.80
560.13	355.76
560.30	500.87
560.46	442.36
560.63	404.91
560.79	447.04
560.96	390.87
561.12	414.27
561.29	416.62
561.45	421.30
561.61	458.74
561.78	484.49
561.94	404.91
562.11	440.02
562.27	402.57
562.44	475.13
562.60	440.02
562.77	365.12
562.93	447.04
563.10	409.59
563.26	437.68
563.42	423.64
563.59	414.27
563.75	444.70
563.92	447.04
564.08	468.11
564.24	486.83
564.41	531.30
564.57	414.27
564.74	416.62
564.90	402.57
565.07	353.42
565.23	418.96
565.39	353.42
565.56	451.72
565.72	393.21
565.88	351.08
566.05	360.44
566.21	367.46
566.38	348.74
566.54	437.68
566.70	376.83
566.87	393.21
567.03	418.96
567.19	435.34
567.36	451.72
567.52	372.15
567.68	435.34
567.85	454.06
568.01	421.30
568.17	472.79
568.34	393.21
568.50	491.51
568.66	430.66
568.83	468.11
568.99	414.27
569.15	428.32
569.32	421.30
569.48	367.46
569.64	456.40
569.81	437.68
569.97	372.15
570.13	418.96
570.30	351.08
570.46	418.96
570.62	479.81
570.78	503.22
570.95	379.17
571.11	498.53
571.27	454.06
571.43	440.02
571.60	372.15
571.76	344.06
571.92	421.30
572.09	409.59
572.25	404.91
572.41	365.12
572.57	447.04
572.74	475.13
572.90	440.02
573.06	397.89
573.22	430.66
573.38	458.74
573.55	421.30
573.71	353.42
573.87	407.25
574.03	383.85
574.20	458.74
574.36	351.08
574.52	458.74
574.68	468.11
574.84	411.93
575.01	437.68
575.17	442.36
575.33	465.77
575.49	428.32
575.65	421.30
575.82	411.93
575.98	395.55
576.14	491.51
576.30	435.34
576.46	444.70
576.62	440.02
576.79	430.66
576.95	341.72
577.11	449.38
577.27	425.98
577.43	477.47
577.59	475.13
577.75	386.19
577.92	409.59
578.08	348.74
578.24	428.32
578.40	435.34
578.56	435.34
578.72	440.02
578.88	500.87
579.04	402.57
579.21	442.36
579.37	454.06
579.53	435.34
579.69	404.91
579.85	428.32
580.01	425.98
580.17	440.02
580.33	447.04
580.49	482.15
580.65	444.70
580.82	437.68
580.98	360.44
581.14	393.21
581.30	503.22
581.46	437.68
581.62	454.06
581.78	409.59
581.94	433.00
582.10	393.21
582.26	372.15
582.42	482.15
582.58	430.66
582.74	425.98
582.90	337.04
583.06	433.00
583.22	407.25
583.38	482.15
583.54	381.51
583.70	416.62
583.86	414.27
584.02	379.17
584.18	461.09
584.34	428.32
584.50	454.06
584.66	400.23
584.82	393.21
584.98	433.00
585.14	390.87
585.30	461.09
585.46	454.06
585.62	416.62
585.78	395.55
585.94	404.91
586.10	458.74
586.26	341.72
586.42	397.89
586.58	395.55
586.74	435.34
586.90	423.64
587.06	444.70
587.22	402.57
587.38	409.59
587.54	414.27
587.70	440.02
587.86	374.49
588.02	393.21
588.18	409.59
588.34	388.53
588.49	379.17
588.65	397.89
588.81	411.93
588.97	454.06
589.13	362.78
589.29	486.83
589.45	442.36
589.61	433.00
589.77	451.72
589.93	379.17
590.08	461.09
590.24	433.00
590.40	374.49
590.56	397.89
590.72	390.87
590.88	468.11
591.04	482.15
591.20	470.45
591.35	397.89
591.51	444.70
591.67	449.38
591.83	428.32
591.99	355.76
592.15	484.49
592.31	449.38
592.46	372.15
592.62	423.64
592.78	351.08
592.94	430.66
593.10	428.32
593.26	404.91
593.41	393.21
593.57	400.23
593.73	397.89
593.89	388.53
594.05	421.30
594.20	388.53
594.36	477.47
594.52	404.91
594.68	383.85
594.84	486.83
594.99	458.74
595.15	477.47
595.31	402.57
595.47	404.91
595.62	388.53
595.78	393.21
595.94	498.53
596.10	489.17
596.25	465.77
596.41	348.74
596.57	393.21
596.73	418.96
596.88	397.89
597.04	468.11
597.20	430.66
597.36	388.53
597.51	381.51
597.67	397.89
597.83	395.55
597.99	386.19
598.14	461.09
598.30	416.62
598.46	425.98
598.61	442.36
598.77	465.77
598.93	376.83
599.09	475.13
599.24	425.98
599.40	358.10
599.56	425.98
599.71	407.25
599.87	395.55
600.03	435.34
600.18	395.55
600.34	456.40
600.50	425.98
600.65	463.43
600.81	390.87
600.97	423.64
601.12	418.96
601.28	477.47
601.44	379.17
601.59	383.85
601.75	433.00
601.91	433.00
602.06	330.02
602.22	454.06
602.37	346.40
602.53	416.62
602.69	379.17
602.84	395.55
603.00	388.53
603.16	397.89
603.31	418.96
603.47	463.43
603.62	423.64
603.78	479.81
603.94	404.91
604.09	475.13
604.25	435.34
604.40	407.25
604.56	451.72
604.71	433.00
604.87	531.30
605.03	418.96
605.18	435.34
605.34	386.19
605.49	442.36
605.65	400.23
605.80	397.89
605.96	472.79
606.12	440.02
606.27	437.68
606.43	400.23
606.58	395.55
606.74	463.43
606.89	463.43
607.05	421.30
607.20	442.36
607.36	421.30
607.51	386.19
607.67	447.04
607.82	397.89
607.98	451.72
608.13	463.43
608.29	447.04
608.44	491.51
608.60	411.93
608.75	444.70
608.91	430.66
609.06	482.15
609.22	521.94
609.37	390.87
609.53	388.53
609.68	414.27
609.84	407.25
609.99	407.25
610.15	428.32
