SpectraSuite Data File
++++++++++++++++++++++++++++++++++++
Date: Fri Oct 25 12:10:26 EDT 2013
User: price-jones
Dark Spectrum Present: No
Reference Spectrum Present: No
Number of Sampled Component Spectra: 1
Spectrometers: USB2+H05261
Integration Time (usec): 100000 (USB2+H05261)
Spectra Averaged: 1 (USB2+H05261)
Boxcar Smoothing: 0 (USB2+H05261)
Correct for Electrical Dark: No (USB2+H05261)
Strobe/Lamp Enabled: No (USB2+H05261)
Correct for Detector Non-linearity: No (USB2+H05261)
Correct for Stray Light: No (USB2+H05261)
Number of Pixels in Processed Spectrum: 2048
>>>>>Begin Processed Spectral Data<<<<<
365.73	365.12
365.92	365.12
366.12	365.12
366.32	248.10
366.52	250.44
366.72	257.46
366.91	184.90
367.11	320.65
367.31	248.10
367.51	187.24
367.70	304.27
367.90	285.55
368.10	224.69
368.30	227.03
368.49	159.16
368.69	234.05
368.89	315.97
369.09	238.73
369.28	285.55
369.48	280.86
369.68	334.70
369.87	318.31
370.07	311.29
370.27	351.08
370.47	299.59
370.66	327.68
370.86	360.44
371.06	353.42
371.25	409.59
371.45	376.83
371.65	351.08
371.84	444.70
372.04	386.19
372.24	381.51
372.44	404.91
372.63	423.64
372.83	451.72
373.03	435.34
373.22	402.57
373.42	411.93
373.62	388.53
373.81	421.30
374.01	465.77
374.21	430.66
374.40	465.77
374.60	447.04
374.79	482.15
374.99	428.32
375.19	404.91
375.38	383.85
375.58	449.38
375.78	437.68
375.97	358.10
376.17	456.40
376.37	383.85
376.56	451.72
376.76	430.66
376.95	365.12
377.15	435.34
377.35	456.40
377.54	390.87
377.74	430.66
377.93	416.62
378.13	360.44
378.33	400.23
378.52	451.72
378.72	425.98
378.91	454.06
379.11	383.85
379.31	397.89
379.50	433.00
379.70	428.32
379.89	433.00
380.09	444.70
380.28	379.17
380.48	386.19
380.68	430.66
380.87	397.89
381.07	409.59
381.26	425.98
381.46	414.27
381.65	458.74
381.85	386.19
382.04	433.00
382.24	362.78
382.43	428.32
382.63	458.74
382.83	334.70
383.02	404.91
383.22	437.68
383.41	416.62
383.61	402.57
383.80	433.00
384.00	334.70
384.19	437.68
384.39	358.10
384.58	421.30
384.78	447.04
384.97	409.59
385.17	486.83
385.36	372.15
385.56	447.04
385.75	376.83
385.95	425.98
386.14	435.34
386.34	402.57
386.53	423.64
386.72	376.83
386.92	390.87
387.11	440.02
387.31	444.70
387.50	400.23
387.70	395.55
387.89	400.23
388.09	369.80
388.28	395.55
388.48	379.17
388.67	388.53
388.86	454.06
389.06	358.10
389.25	435.34
389.45	409.59
389.64	416.62
389.84	379.17
390.03	423.64
390.22	421.30
390.42	390.87
390.61	407.25
390.81	369.80
391.00	430.66
391.19	360.44
391.39	444.70
391.58	346.40
391.78	395.55
391.97	374.49
392.16	407.25
392.36	491.51
392.55	407.25
392.75	388.53
392.94	456.40
393.13	386.19
393.33	365.12
393.52	383.85
393.71	400.23
393.91	423.64
394.10	423.64
394.29	411.93
394.49	388.53
394.68	416.62
394.88	411.93
395.07	449.38
395.26	409.59
395.46	442.36
395.65	435.34
395.84	428.32
396.04	447.04
396.23	428.32
396.42	395.55
396.62	421.30
396.81	435.34
397.00	395.55
397.19	458.74
397.39	421.30
397.58	367.46
397.77	400.23
397.97	395.55
398.16	411.93
398.35	409.59
398.55	416.62
398.74	402.57
398.93	360.44
399.12	397.89
399.32	383.85
399.51	447.04
399.70	461.09
399.90	414.27
400.09	433.00
400.28	472.79
400.47	376.83
400.67	423.64
400.86	383.85
401.05	388.53
401.24	407.25
401.44	437.68
401.63	407.25
401.82	433.00
402.01	365.12
402.21	409.59
402.40	362.78
402.59	428.32
402.78	376.83
402.97	393.21
403.17	339.38
403.36	463.43
403.55	390.87
403.74	409.59
403.93	444.70
404.13	458.74
404.32	355.76
404.51	414.27
404.70	390.87
404.89	400.23
405.09	449.38
405.28	461.09
405.47	388.53
405.66	372.15
405.85	416.62
406.05	461.09
406.24	313.63
406.43	463.43
406.62	477.47
406.81	451.72
407.00	383.85
407.20	404.91
407.39	411.93
407.58	379.17
407.77	458.74
407.96	400.23
408.15	355.76
408.34	402.57
408.54	376.83
408.73	351.08
408.92	465.77
409.11	437.68
409.30	402.57
409.49	451.72
409.68	486.83
409.87	369.80
410.07	407.25
410.26	423.64
410.45	428.32
410.64	339.38
410.83	425.98
411.02	414.27
411.21	475.13
411.40	512.58
411.59	402.57
411.78	437.68
411.98	407.25
412.17	414.27
412.36	355.76
412.55	451.72
412.74	374.49
412.93	489.17
413.12	440.02
413.31	475.13
413.50	369.80
413.69	351.08
413.88	489.17
414.07	433.00
414.26	386.19
414.45	407.25
414.64	447.04
414.83	395.55
415.02	313.63
415.22	395.55
415.41	386.19
415.60	461.09
415.79	409.59
415.98	411.93
416.17	409.59
416.36	428.32
416.55	372.15
416.74	442.36
416.93	383.85
417.12	407.25
417.31	461.09
417.50	465.77
417.69	454.06
417.88	386.19
418.07	416.62
418.26	360.44
418.45	409.59
418.64	433.00
418.83	437.68
419.02	400.23
419.21	456.40
419.39	447.04
419.58	442.36
419.77	379.17
419.96	430.66
420.15	397.89
420.34	390.87
420.53	435.34
420.72	444.70
420.91	409.59
421.10	430.66
421.29	395.55
421.48	416.62
421.67	390.87
421.86	346.40
422.05	437.68
422.24	390.87
422.43	423.64
422.61	414.27
422.80	447.04
422.99	433.00
423.18	456.40
423.37	447.04
423.56	484.49
423.75	486.83
423.94	346.40
424.13	365.12
424.32	458.74
424.50	442.36
424.69	454.06
424.88	477.47
425.07	454.06
425.26	447.04
425.45	397.89
425.64	447.04
425.83	404.91
426.01	395.55
426.20	447.04
426.39	390.87
426.58	383.85
426.77	411.93
426.96	447.04
427.15	355.76
427.33	388.53
427.52	442.36
427.71	416.62
427.90	425.98
428.09	407.25
428.28	414.27
428.46	447.04
428.65	461.09
428.84	430.66
429.03	397.89
429.22	472.79
429.40	456.40
429.59	393.21
429.78	353.42
429.97	397.89
430.16	435.34
430.34	346.40
430.53	411.93
430.72	430.66
430.91	421.30
431.10	409.59
431.28	472.79
431.47	404.91
431.66	482.15
431.85	355.76
432.03	461.09
432.22	404.91
432.41	369.80
432.60	400.23
432.79	423.64
432.97	404.91
433.16	416.62
433.35	372.15
433.54	393.21
433.72	425.98
433.91	414.27
434.10	463.43
434.28	397.89
434.47	386.19
434.66	433.00
434.85	327.68
435.03	365.12
435.22	461.09
435.41	496.19
435.59	402.57
435.78	454.06
435.97	376.83
436.16	430.66
436.34	470.45
436.53	393.21
436.72	440.02
436.90	428.32
437.09	393.21
437.28	369.80
437.46	442.36
437.65	423.64
437.84	461.09
438.02	463.43
438.21	465.77
438.40	435.34
438.58	402.57
438.77	381.51
438.96	421.30
439.14	341.72
439.33	411.93
439.52	416.62
439.70	409.59
439.89	482.15
440.08	437.68
440.26	379.17
440.45	400.23
440.63	428.32
440.82	437.68
441.01	477.47
441.19	400.23
441.38	454.06
441.57	428.32
441.75	407.25
441.94	451.72
442.12	423.64
442.31	337.04
442.50	346.40
442.68	390.87
442.87	440.02
443.05	430.66
443.24	430.66
443.43	416.62
443.61	425.98
443.80	409.59
443.98	407.25
444.17	355.76
444.35	372.15
444.54	379.17
444.73	404.91
444.91	400.23
445.10	390.87
445.28	390.87
445.47	376.83
445.65	440.02
445.84	440.02
446.02	416.62
446.21	376.83
446.39	418.96
446.58	442.36
446.77	362.78
446.95	418.96
447.14	418.96
447.32	421.30
447.51	433.00
447.69	430.66
447.88	454.06
448.06	433.00
448.25	456.40
448.43	463.43
448.62	428.32
448.80	425.98
448.99	407.25
449.17	425.98
449.36	418.96
449.54	390.87
449.73	376.83
449.91	409.59
450.10	404.91
450.28	472.79
450.46	512.58
450.65	409.59
450.83	411.93
451.02	386.19
451.20	365.12
451.39	374.49
451.57	341.72
451.76	360.44
451.94	444.70
452.13	461.09
452.31	475.13
452.49	372.15
452.68	440.02
452.86	404.91
453.05	496.19
453.23	447.04
453.42	383.85
453.60	400.23
453.78	374.49
453.97	393.21
454.15	346.40
454.34	425.98
454.52	358.10
454.70	397.89
454.89	423.64
455.07	362.78
455.26	437.68
455.44	409.59
455.62	482.15
455.81	437.68
455.99	454.06
456.17	390.87
456.36	425.98
456.54	344.06
456.73	346.40
456.91	414.27
457.09	409.59
457.28	402.57
457.46	390.87
457.64	411.93
457.83	425.98
458.01	433.00
458.19	400.23
458.38	390.87
458.56	395.55
458.74	451.72
458.93	433.00
459.11	447.04
459.29	486.83
459.48	414.27
459.66	472.79
459.84	407.25
460.03	468.11
460.21	409.59
460.39	433.00
460.57	416.62
460.76	430.66
460.94	465.77
461.12	407.25
461.31	395.55
461.49	411.93
461.67	444.70
461.85	435.34
462.04	416.62
462.22	767.70
462.40	388.53
462.59	465.77
462.77	444.70
462.95	425.98
463.13	512.58
463.32	449.38
463.50	475.13
463.68	374.49
463.86	393.21
464.05	442.36
464.23	372.15
464.41	404.91
464.59	407.25
464.78	386.19
464.96	330.02
465.14	433.00
465.32	393.21
465.50	437.68
465.69	454.06
465.87	447.04
466.05	447.04
466.23	416.62
466.41	411.93
466.60	458.74
466.78	341.72
466.96	486.83
467.14	451.72
467.32	444.70
467.51	414.27
467.69	416.62
467.87	435.34
468.05	400.23
468.23	456.40
468.41	386.19
468.60	407.25
468.78	411.93
468.96	374.49
469.14	423.64
469.32	381.51
469.50	339.38
469.69	451.72
469.87	386.19
470.05	379.17
470.23	416.62
470.41	416.62
470.59	360.44
470.77	416.62
470.95	456.40
471.14	416.62
471.32	369.80
471.50	458.74
471.68	458.74
471.86	416.62
472.04	397.89
472.22	503.22
472.40	428.32
472.58	447.04
472.77	374.49
472.95	454.06
473.13	449.38
473.31	444.70
473.49	411.93
473.67	397.89
473.85	390.87
474.03	428.32
474.21	388.53
474.39	482.15
474.57	414.27
474.75	367.46
474.93	397.89
475.12	440.02
475.30	433.00
475.48	407.25
475.66	402.57
475.84	416.62
476.02	395.55
476.20	379.17
476.38	383.85
476.56	500.87
476.74	388.53
476.92	358.10
477.10	437.68
477.28	428.32
477.46	428.32
477.64	402.57
477.82	407.25
478.00	468.11
478.18	456.40
478.36	433.00
478.54	423.64
478.72	386.19
478.90	437.68
479.08	470.45
479.26	451.72
479.44	353.42
479.62	435.34
479.80	388.53
479.98	369.80
480.16	463.43
480.34	433.00
480.52	395.55
480.70	383.85
480.88	409.59
481.06	400.23
481.24	383.85
481.41	416.62
481.59	379.17
481.77	390.87
481.95	400.23
482.13	447.04
482.31	414.27
482.49	402.57
482.67	477.47
482.85	447.04
483.03	425.98
483.21	416.62
483.39	430.66
483.57	425.98
483.74	421.30
483.92	369.80
484.10	402.57
484.28	435.34
484.46	423.64
484.64	411.93
484.82	449.38
485.00	447.04
485.18	425.98
485.35	393.21
485.53	433.00
485.71	461.09
485.89	400.23
486.07	388.53
486.25	477.47
486.43	430.66
486.61	458.74
486.78	447.04
486.96	433.00
487.14	500.87
487.32	411.93
487.50	402.57
487.68	400.23
487.85	423.64
488.03	447.04
488.21	421.30
488.39	395.55
488.57	428.32
488.75	395.55
488.92	503.22
489.10	362.78
489.28	458.74
489.46	397.89
489.64	423.64
489.81	465.77
489.99	533.64
490.17	407.25
490.35	416.62
490.53	437.68
490.70	418.96
490.88	428.32
491.06	362.78
491.24	433.00
491.41	416.62
491.59	428.32
491.77	425.98
491.95	428.32
492.13	411.93
492.30	395.55
492.48	428.32
492.66	421.30
492.84	393.21
493.01	430.66
493.19	409.59
493.37	491.51
493.54	397.89
493.72	454.06
493.90	372.15
494.08	418.96
494.25	496.19
494.43	454.06
494.61	386.19
494.79	416.62
494.96	386.19
495.14	386.19
495.32	435.34
495.49	367.46
495.67	433.00
495.85	409.59
496.02	379.17
496.20	393.21
496.38	416.62
496.55	374.49
496.73	393.21
496.91	491.51
497.09	489.17
497.26	386.19
497.44	428.32
497.62	322.99
497.79	437.68
497.97	407.25
498.14	463.43
498.32	433.00
498.50	451.72
498.67	456.40
498.85	376.83
499.03	379.17
499.20	442.36
499.38	440.02
499.56	355.76
499.73	421.30
499.91	395.55
500.08	496.19
500.26	425.98
500.44	411.93
500.61	465.77
500.79	409.59
500.97	386.19
501.14	407.25
501.32	374.49
501.49	421.30
501.67	369.80
501.84	447.04
502.02	388.53
502.20	435.34
502.37	425.98
502.55	416.62
502.72	447.04
502.90	386.19
503.07	418.96
503.25	376.83
503.43	442.36
503.60	456.40
503.78	365.12
503.95	374.49
504.13	425.98
504.30	428.32
504.48	416.62
504.65	528.96
504.83	442.36
505.01	386.19
505.18	402.57
505.36	402.57
505.53	376.83
505.71	411.93
505.88	395.55
506.06	386.19
506.23	416.62
506.41	418.96
506.58	369.80
506.76	409.59
506.93	421.30
507.11	418.96
507.28	425.98
507.46	390.87
507.63	402.57
507.81	386.19
507.98	390.87
508.16	442.36
508.33	421.30
508.50	411.93
508.68	484.49
508.85	470.45
509.03	372.15
509.20	437.68
509.38	447.04
509.55	365.12
509.73	416.62
509.90	409.59
510.08	358.10
510.25	437.68
510.42	440.02
510.60	463.43
510.77	440.02
510.95	390.87
511.12	360.44
511.30	428.32
511.47	449.38
511.64	430.66
511.82	400.23
511.99	416.62
512.17	372.15
512.34	365.12
512.51	348.74
512.69	404.91
512.86	425.98
513.04	386.19
513.21	435.34
513.38	421.30
513.56	463.43
513.73	418.96
513.90	400.23
514.08	353.42
514.25	379.17
514.43	346.40
514.60	475.13
514.77	458.74
514.95	416.62
515.12	421.30
515.29	404.91
515.47	440.02
515.64	421.30
515.81	395.55
515.99	442.36
516.16	435.34
516.33	402.57
516.51	393.21
516.68	304.27
516.85	393.21
517.03	402.57
517.20	489.17
517.37	447.04
517.54	491.51
517.72	428.32
517.89	369.80
518.06	437.68
518.24	479.81
518.41	430.66
518.58	430.66
518.75	416.62
518.93	353.42
519.10	395.55
519.27	449.38
519.45	477.47
519.62	428.32
519.79	414.27
519.96	393.21
520.14	472.79
520.31	433.00
520.48	430.66
520.65	416.62
520.83	353.42
521.00	411.93
521.17	393.21
521.34	383.85
521.52	386.19
521.69	369.80
521.86	411.93
522.03	416.62
522.20	379.17
522.38	430.66
522.55	372.15
522.72	379.17
522.89	358.10
523.07	374.49
523.24	393.21
523.41	447.04
523.58	339.38
523.75	416.62
523.92	393.21
524.10	381.51
524.27	344.06
524.44	428.32
524.61	418.96
524.78	425.98
524.96	386.19
525.13	409.59
525.30	477.47
525.47	517.26
525.64	423.64
525.81	390.87
525.98	400.23
526.16	339.38
526.33	346.40
526.50	348.74
526.67	456.40
526.84	425.98
527.01	430.66
527.18	437.68
527.36	376.83
527.53	409.59
527.70	440.02
527.87	388.53
528.04	421.30
528.21	381.51
528.38	421.30
528.55	433.00
528.72	416.62
528.89	444.70
529.07	423.64
529.24	489.17
529.41	447.04
529.58	428.32
529.75	447.04
529.92	491.51
530.09	465.77
530.26	451.72
530.43	430.66
530.60	369.80
530.77	362.78
530.94	395.55
531.11	416.62
531.28	393.21
531.46	397.89
531.63	486.83
531.80	409.59
531.97	400.23
532.14	400.23
532.31	454.06
532.48	409.59
532.65	437.68
532.82	409.59
532.99	397.89
533.16	418.96
533.33	435.34
533.50	411.93
533.67	388.53
533.84	486.83
534.01	400.23
534.18	435.34
534.35	397.89
534.52	416.62
534.69	339.38
534.86	402.57
535.03	451.72
535.20	369.80
535.37	433.00
535.54	430.66
535.71	355.76
535.88	428.32
536.05	409.59
536.22	388.53
536.38	409.59
536.55	372.15
536.72	395.55
536.89	388.53
537.06	418.96
537.23	395.55
537.40	409.59
537.57	388.53
537.74	479.81
537.91	440.02
538.08	454.06
538.25	395.55
538.42	407.25
538.59	428.32
538.75	404.91
538.92	451.72
539.09	437.68
539.26	390.87
539.43	409.59
539.60	404.91
539.77	414.27
539.94	475.13
540.11	388.53
540.28	421.30
540.44	402.57
540.61	416.62
540.78	444.70
540.95	418.96
541.12	379.17
541.29	414.27
541.46	442.36
541.62	390.87
541.79	451.72
541.96	423.64
542.13	360.44
542.30	484.49
542.47	437.68
542.63	390.87
542.80	468.11
542.97	440.02
543.14	367.46
543.31	414.27
543.48	386.19
543.64	421.30
543.81	421.30
543.98	395.55
544.15	362.78
544.32	379.17
544.48	430.66
544.65	430.66
544.82	468.11
544.99	372.15
545.16	397.89
545.32	414.27
545.49	353.42
545.66	468.11
545.83	395.55
546.00	362.78
546.16	388.53
546.33	414.27
546.50	386.19
546.67	447.04
546.83	365.12
547.00	388.53
547.17	379.17
547.34	447.04
547.50	428.32
547.67	369.80
547.84	430.66
548.00	454.06
548.17	418.96
548.34	425.98
548.51	365.12
548.67	407.25
548.84	339.38
549.01	367.46
549.18	407.25
549.34	339.38
549.51	393.21
549.68	407.25
549.84	444.70
550.01	386.19
550.18	425.98
550.34	458.74
550.51	475.13
550.68	470.45
550.84	337.04
551.01	402.57
551.18	468.11
551.34	402.57
551.51	430.66
551.68	355.76
551.84	400.23
552.01	444.70
552.18	386.19
552.34	414.27
552.51	423.64
552.68	465.77
552.84	435.34
553.01	395.55
553.18	486.83
553.34	498.53
553.51	440.02
553.67	416.62
553.84	433.00
554.01	442.36
554.17	430.66
554.34	362.78
554.51	463.43
554.67	451.72
554.84	456.40
555.00	470.45
555.17	425.98
555.33	311.29
555.50	433.00
555.67	451.72
555.83	374.49
556.00	447.04
556.16	552.37
556.33	486.83
556.50	351.08
556.66	355.76
556.83	461.09
556.99	414.27
557.16	444.70
557.32	360.44
557.49	437.68
557.65	437.68
557.82	397.89
557.98	421.30
558.15	404.91
558.32	416.62
558.48	414.27
558.65	470.45
558.81	458.74
558.98	395.55
559.14	407.25
559.31	461.09
559.47	454.06
559.64	374.49
559.80	334.70
559.97	414.27
560.13	416.62
560.30	397.89
560.46	402.57
560.63	400.23
560.79	374.49
560.96	470.45
561.12	454.06
561.29	400.23
561.45	461.09
561.61	468.11
561.78	479.81
561.94	451.72
562.11	400.23
562.27	400.23
562.44	421.30
562.60	351.08
562.77	395.55
562.93	454.06
563.10	388.53
563.26	416.62
563.42	418.96
563.59	433.00
563.75	376.83
563.92	414.27
564.08	440.02
564.24	430.66
564.41	400.23
564.57	428.32
564.74	435.34
564.90	435.34
565.07	449.38
565.23	421.30
565.39	393.21
565.56	517.26
565.72	430.66
565.88	425.98
566.05	393.21
566.21	386.19
566.38	411.93
566.54	407.25
566.70	437.68
566.87	444.70
567.03	425.98
567.19	451.72
567.36	451.72
567.52	393.21
567.68	374.49
567.85	451.72
568.01	395.55
568.17	404.91
568.34	407.25
568.50	451.72
568.66	362.78
568.83	512.58
568.99	437.68
569.15	447.04
569.32	383.85
569.48	397.89
569.64	397.89
569.81	437.68
569.97	456.40
570.13	425.98
570.30	374.49
570.46	416.62
570.62	433.00
570.78	397.89
570.95	341.72
571.11	425.98
571.27	449.38
571.43	351.08
571.60	425.98
571.76	374.49
571.92	449.38
572.09	416.62
572.25	393.21
572.41	456.40
572.57	404.91
572.74	454.06
572.90	463.43
573.06	404.91
573.22	369.80
573.38	400.23
573.55	362.78
573.71	395.55
573.87	374.49
574.03	433.00
574.20	423.64
574.36	435.34
574.52	465.77
574.68	367.46
574.84	423.64
575.01	376.83
575.17	458.74
575.33	425.98
575.49	440.02
575.65	428.32
575.82	418.96
575.98	447.04
576.14	390.87
576.30	435.34
576.46	418.96
576.62	351.08
576.79	423.64
576.95	461.09
577.11	430.66
577.27	423.64
577.43	435.34
577.59	461.09
577.75	383.85
577.92	407.25
578.08	369.80
578.24	470.45
578.40	458.74
578.56	454.06
578.72	496.19
578.88	416.62
579.04	458.74
579.21	402.57
579.37	353.42
579.53	358.10
579.69	475.13
579.85	381.51
580.01	407.25
580.17	428.32
580.33	430.66
580.49	454.06
580.65	423.64
580.82	437.68
580.98	456.40
581.14	383.85
581.30	463.43
581.46	458.74
581.62	402.57
581.78	362.78
581.94	461.09
582.10	421.30
582.26	395.55
582.42	386.19
582.58	395.55
582.74	421.30
582.90	416.62
583.06	369.80
583.22	400.23
583.38	472.79
583.54	449.38
583.70	437.68
583.86	407.25
584.02	376.83
584.18	437.68
584.34	395.55
584.50	425.98
584.66	456.40
584.82	388.53
584.98	407.25
585.14	404.91
585.30	456.40
585.46	351.08
585.62	393.21
585.78	369.80
585.94	456.40
586.10	430.66
586.26	433.00
586.42	442.36
586.58	451.72
586.74	395.55
586.90	449.38
587.06	416.62
587.22	365.12
587.38	433.00
587.54	428.32
587.70	465.77
587.86	404.91
588.02	367.46
588.18	447.04
588.34	477.47
588.49	444.70
588.65	428.32
588.81	395.55
588.97	440.02
589.13	465.77
589.29	395.55
589.45	461.09
589.61	421.30
589.77	461.09
589.93	414.27
590.08	369.80
590.24	423.64
590.40	435.34
590.56	372.15
590.72	353.42
590.88	404.91
591.04	397.89
591.20	435.34
591.35	425.98
591.51	458.74
591.67	428.32
591.83	465.77
591.99	435.34
592.15	440.02
592.31	418.96
592.46	491.51
592.62	489.17
592.78	388.53
592.94	388.53
593.10	339.38
593.26	444.70
593.41	447.04
593.57	318.31
593.73	404.91
593.89	379.17
594.05	400.23
594.20	475.13
594.36	486.83
594.52	372.15
594.68	440.02
594.84	444.70
594.99	482.15
595.15	360.44
595.31	505.56
595.47	512.58
595.62	428.32
595.78	344.06
595.94	404.91
596.10	395.55
596.25	430.66
596.41	463.43
596.57	400.23
596.73	369.80
596.88	409.59
597.04	416.62
597.20	447.04
597.36	414.27
597.51	421.30
597.67	440.02
597.83	404.91
597.99	451.72
598.14	402.57
598.30	435.34
598.46	409.59
598.61	322.99
598.77	454.06
598.93	332.36
599.09	395.55
599.24	496.19
599.40	411.93
599.56	383.85
599.71	479.81
599.87	416.62
600.03	491.51
600.18	416.62
600.34	484.49
600.50	498.53
600.65	383.85
600.81	433.00
600.97	365.12
601.12	409.59
601.28	442.36
601.44	379.17
601.59	486.83
601.75	395.55
601.91	369.80
602.06	454.06
602.22	479.81
602.37	475.13
602.53	430.66
602.69	449.38
602.84	386.19
603.00	425.98
603.16	449.38
603.31	484.49
603.47	461.09
603.62	433.00
603.78	454.06
603.94	435.34
604.09	442.36
604.25	407.25
604.40	428.32
604.56	433.00
604.71	381.51
604.87	418.96
605.03	404.91
605.18	484.49
605.34	390.87
605.49	433.00
605.65	433.00
605.80	393.21
605.96	421.30
606.12	423.64
606.27	489.17
606.43	365.12
606.58	362.78
606.74	407.25
606.89	463.43
607.05	414.27
607.20	346.40
607.36	428.32
607.51	456.40
607.67	402.57
607.82	414.27
607.98	421.30
608.13	463.43
608.29	409.59
608.44	433.00
608.60	472.79
608.75	433.00
608.91	435.34
609.06	470.45
609.22	458.74
609.37	472.79
609.53	418.96
609.68	430.66
609.84	414.27
609.99	433.00
610.15	365.12
