SpectraSuite Data File
++++++++++++++++++++++++++++++++++++
Date: Fri Oct 25 12:10:52 EDT 2013
User: price-jones
Dark Spectrum Present: No
Reference Spectrum Present: No
Number of Sampled Component Spectra: 1
Spectrometers: USB2+H05261
Integration Time (usec): 100000 (USB2+H05261)
Spectra Averaged: 1 (USB2+H05261)
Boxcar Smoothing: 0 (USB2+H05261)
Correct for Electrical Dark: No (USB2+H05261)
Strobe/Lamp Enabled: No (USB2+H05261)
Correct for Detector Non-linearity: No (USB2+H05261)
Correct for Stray Light: No (USB2+H05261)
Number of Pixels in Processed Spectrum: 2048
>>>>>Begin Processed Spectral Data<<<<<
365.73	299.59
365.92	299.59
366.12	299.59
366.32	236.39
366.52	224.69
366.72	212.99
366.91	257.46
367.11	224.69
367.31	220.01
367.51	259.80
367.70	252.78
367.90	212.99
368.10	212.99
368.30	189.58
368.49	220.01
368.69	269.16
368.89	299.59
369.09	175.54
369.28	250.44
369.48	271.50
369.68	287.89
369.87	271.50
370.07	294.91
370.27	327.68
370.47	287.89
370.66	339.38
370.86	362.78
371.06	353.42
371.25	423.64
371.45	390.87
371.65	407.25
371.84	386.19
372.04	381.51
372.24	437.68
372.44	388.53
372.63	395.55
372.83	374.49
373.03	447.04
373.22	379.17
373.42	404.91
373.62	397.89
373.81	400.23
374.01	418.96
374.21	414.27
374.40	456.40
374.60	465.77
374.79	414.27
374.99	404.91
375.19	454.06
375.38	376.83
375.58	456.40
375.78	437.68
375.97	423.64
376.17	498.53
376.37	423.64
376.56	437.68
376.76	470.45
376.95	346.40
377.15	409.59
377.35	395.55
377.54	372.15
377.74	423.64
377.93	372.15
378.13	402.57
378.33	428.32
378.52	390.87
378.72	507.90
378.91	428.32
379.11	397.89
379.31	402.57
379.50	381.51
379.70	358.10
379.89	372.15
380.09	369.80
380.28	381.51
380.48	390.87
380.68	390.87
380.87	351.08
381.07	372.15
381.26	397.89
381.46	386.19
381.65	428.32
381.85	355.76
382.04	369.80
382.24	409.59
382.43	348.74
382.63	383.85
382.83	414.27
383.02	465.77
383.22	510.24
383.41	425.98
383.61	507.90
383.80	395.55
384.00	430.66
384.19	418.96
384.39	367.46
384.58	393.21
384.78	400.23
384.97	409.59
385.17	449.38
385.36	409.59
385.56	423.64
385.75	374.49
385.95	404.91
386.14	381.51
386.34	376.83
386.53	414.27
386.72	379.17
386.92	447.04
387.11	449.38
387.31	454.06
387.50	437.68
387.70	416.62
387.89	409.59
388.09	449.38
388.28	397.89
388.48	351.08
388.67	425.98
388.86	386.19
389.06	425.98
389.25	353.42
389.45	348.74
389.64	428.32
389.84	451.72
390.03	479.81
390.22	374.49
390.42	404.91
390.61	463.43
390.81	402.57
391.00	416.62
391.19	351.08
391.39	369.80
391.58	346.40
391.78	425.98
391.97	447.04
392.16	381.51
392.36	409.59
392.55	339.38
392.75	367.46
392.94	421.30
393.13	425.98
393.33	402.57
393.52	407.25
393.71	397.89
393.91	421.30
394.10	386.19
394.29	409.59
394.49	435.34
394.68	400.23
394.88	425.98
395.07	465.77
395.26	395.55
395.46	379.17
395.65	409.59
395.84	416.62
396.04	477.47
396.23	423.64
396.42	414.27
396.62	414.27
396.81	428.32
397.00	379.17
397.19	470.45
397.39	451.72
397.58	440.02
397.77	376.83
397.97	430.66
398.16	362.78
398.35	435.34
398.55	379.17
398.74	376.83
398.93	393.21
399.12	404.91
399.32	381.51
399.51	411.93
399.70	423.64
399.90	456.40
400.09	404.91
400.28	390.87
400.47	428.32
400.67	421.30
400.86	433.00
401.05	442.36
401.24	475.13
401.44	421.30
401.63	344.06
401.82	468.11
402.01	400.23
402.21	390.87
402.40	442.36
402.59	423.64
402.78	374.49
402.97	404.91
403.17	418.96
403.36	355.76
403.55	418.96
403.74	395.55
403.93	414.27
404.13	348.74
404.32	362.78
404.51	418.96
404.70	409.59
404.89	365.12
405.09	430.66
405.28	484.49
405.47	416.62
405.66	477.47
405.85	440.02
406.05	407.25
406.24	430.66
406.43	360.44
406.62	388.53
406.81	421.30
407.00	444.70
407.20	437.68
407.39	355.76
407.58	414.27
407.77	381.51
407.96	423.64
408.15	381.51
408.34	416.62
408.54	425.98
408.73	430.66
408.92	386.19
409.11	444.70
409.30	393.21
409.49	372.15
409.68	463.43
409.87	409.59
410.07	442.36
410.26	418.96
410.45	325.33
410.64	346.40
410.83	449.38
411.02	449.38
411.21	393.21
411.40	402.57
411.59	395.55
411.78	402.57
411.98	440.02
412.17	327.68
412.36	400.23
412.55	353.42
412.74	444.70
412.93	388.53
413.12	339.38
413.31	360.44
413.50	486.83
413.69	423.64
413.88	428.32
414.07	442.36
414.26	369.80
414.45	407.25
414.64	353.42
414.83	374.49
415.02	395.55
415.22	376.83
415.41	456.40
415.60	341.72
415.79	458.74
415.98	425.98
416.17	465.77
416.36	425.98
416.55	376.83
416.74	475.13
416.93	402.57
417.12	360.44
417.31	376.83
417.50	444.70
417.69	444.70
417.88	463.43
418.07	376.83
418.26	388.53
418.45	358.10
418.64	491.51
418.83	400.23
419.02	430.66
419.21	430.66
419.39	402.57
419.58	341.72
419.77	351.08
419.96	479.81
420.15	397.89
420.34	444.70
420.53	400.23
420.72	407.25
420.91	409.59
421.10	444.70
421.29	442.36
421.48	440.02
421.67	442.36
421.86	351.08
422.05	390.87
422.24	400.23
422.43	393.21
422.61	395.55
422.80	418.96
422.99	423.64
423.18	418.96
423.37	465.77
423.56	397.89
423.75	409.59
423.94	465.77
424.13	416.62
424.32	416.62
424.50	477.47
424.69	409.59
424.88	519.60
425.07	395.55
425.26	386.19
425.45	383.85
425.64	379.17
425.83	383.85
426.01	404.91
426.20	418.96
426.39	334.70
426.58	353.42
426.77	437.68
426.96	421.30
427.15	407.25
427.33	369.80
427.52	355.76
427.71	388.53
427.90	404.91
428.09	386.19
428.28	346.40
428.46	447.04
428.65	461.09
428.84	423.64
429.03	416.62
429.22	421.30
429.40	376.83
429.59	341.72
429.78	367.46
429.97	400.23
430.16	339.38
430.34	390.87
430.53	379.17
430.72	386.19
430.91	404.91
431.10	430.66
431.28	365.12
431.47	386.19
431.66	465.77
431.85	423.64
432.03	423.64
432.22	414.27
432.41	402.57
432.60	444.70
432.79	376.83
432.97	294.91
433.16	369.80
433.35	372.15
433.54	372.15
433.72	409.59
433.91	472.79
434.10	423.64
434.28	381.51
434.47	395.55
434.66	454.06
434.85	479.81
435.03	402.57
435.22	411.93
435.41	486.83
435.59	379.17
435.78	404.91
435.97	425.98
436.16	416.62
436.34	411.93
436.53	397.89
436.72	416.62
436.90	404.91
437.09	360.44
437.28	407.25
437.46	430.66
437.65	444.70
437.84	381.51
438.02	425.98
438.21	444.70
438.40	381.51
438.58	416.62
438.77	461.09
438.96	400.23
439.14	409.59
439.33	468.11
439.52	433.00
439.70	395.55
439.89	477.47
440.08	402.57
440.26	388.53
440.45	414.27
440.63	348.74
440.82	468.11
441.01	433.00
441.19	449.38
441.38	482.15
441.57	397.89
441.75	428.32
441.94	472.79
442.12	430.66
442.31	414.27
442.50	374.49
442.68	365.12
442.87	447.04
443.05	411.93
443.24	428.32
443.43	360.44
443.61	428.32
443.80	397.89
443.98	402.57
444.17	383.85
444.35	458.74
444.54	386.19
444.73	521.94
444.91	440.02
445.10	414.27
445.28	425.98
445.47	449.38
445.65	351.08
445.84	430.66
446.02	421.30
446.21	369.80
446.39	414.27
446.58	451.72
446.77	437.68
446.95	425.98
447.14	388.53
447.32	440.02
447.51	425.98
447.69	423.64
447.88	454.06
448.06	388.53
448.25	372.15
448.43	390.87
448.62	416.62
448.80	468.11
448.99	491.51
449.17	433.00
449.36	416.62
449.54	470.45
449.73	430.66
449.91	386.19
450.10	414.27
450.28	367.46
450.46	393.21
450.65	465.77
450.83	411.93
451.02	463.43
451.20	383.85
451.39	346.40
451.57	341.72
451.76	388.53
451.94	351.08
452.13	400.23
452.31	430.66
452.49	376.83
452.68	433.00
452.86	367.46
453.05	468.11
453.23	510.24
453.42	400.23
453.60	433.00
453.78	428.32
453.97	397.89
454.15	348.74
454.34	428.32
454.52	383.85
454.70	554.71
454.89	428.32
455.07	435.34
455.26	351.08
455.44	374.49
455.62	374.49
455.81	440.02
455.99	461.09
456.17	479.81
456.36	433.00
456.54	433.00
456.73	430.66
456.91	395.55
457.09	449.38
457.28	402.57
457.46	362.78
457.64	463.43
457.83	400.23
458.01	423.64
458.19	390.87
458.38	334.70
458.56	444.70
458.74	447.04
458.93	362.78
459.11	428.32
459.29	435.34
459.48	355.76
459.66	517.26
459.84	433.00
460.03	491.51
460.21	456.40
460.39	430.66
460.57	442.36
460.76	386.19
460.94	407.25
461.12	423.64
461.31	402.57
461.49	416.62
461.67	440.02
461.85	425.98
462.04	397.89
462.22	765.36
462.40	442.36
462.59	461.09
462.77	383.85
462.95	433.00
463.13	437.68
463.32	475.13
463.50	421.30
463.68	444.70
463.86	482.15
464.05	461.09
464.23	475.13
464.41	451.72
464.59	409.59
464.78	383.85
464.96	421.30
465.14	346.40
465.32	409.59
465.50	379.17
465.69	421.30
465.87	451.72
466.05	440.02
466.23	425.98
466.41	365.12
466.60	388.53
466.78	451.72
466.96	505.56
467.14	418.96
467.32	454.06
467.51	444.70
467.69	390.87
467.87	451.72
468.05	374.49
468.23	437.68
468.41	346.40
468.60	416.62
468.78	461.09
468.96	461.09
469.14	444.70
469.32	444.70
469.50	292.57
469.69	451.72
469.87	428.32
470.05	418.96
470.23	411.93
470.41	313.63
470.59	404.91
470.77	451.72
470.95	360.44
471.14	428.32
471.32	400.23
471.50	414.27
471.68	397.89
471.86	470.45
472.04	416.62
472.22	440.02
472.40	390.87
472.58	409.59
472.77	463.43
472.95	369.80
473.13	374.49
473.31	414.27
473.49	330.02
473.67	313.63
473.85	416.62
474.03	468.11
474.21	369.80
474.39	465.77
474.57	404.91
474.75	423.64
474.93	386.19
475.12	374.49
475.30	400.23
475.48	411.93
475.66	339.38
475.84	435.34
476.02	421.30
476.20	404.91
476.38	428.32
476.56	433.00
476.74	407.25
476.92	418.96
477.10	414.27
477.28	430.66
477.46	369.80
477.64	421.30
477.82	369.80
478.00	425.98
478.18	372.15
478.36	355.76
478.54	425.98
478.72	390.87
478.90	395.55
479.08	381.51
479.26	449.38
479.44	409.59
479.62	390.87
479.80	423.64
479.98	404.91
480.16	456.40
480.34	447.04
480.52	369.80
480.70	435.34
480.88	404.91
481.06	337.04
481.24	397.89
481.41	383.85
481.59	376.83
481.77	479.81
481.95	381.51
482.13	484.49
482.31	353.42
482.49	451.72
482.67	367.46
482.85	409.59
483.03	437.68
483.21	395.55
483.39	423.64
483.57	465.77
483.74	486.83
483.92	414.27
484.10	468.11
484.28	447.04
484.46	463.43
484.64	416.62
484.82	414.27
485.00	458.74
485.18	454.06
485.35	395.55
485.53	395.55
485.71	442.36
485.89	388.53
486.07	409.59
486.25	475.13
486.43	383.85
486.61	416.62
486.78	411.93
486.96	395.55
487.14	411.93
487.32	407.25
487.50	491.51
487.68	416.62
487.85	433.00
488.03	390.87
488.21	444.70
488.39	430.66
488.57	416.62
488.75	428.32
488.92	482.15
489.10	435.34
489.28	503.22
489.46	386.19
489.64	407.25
489.81	358.10
489.99	470.45
490.17	395.55
490.35	528.96
490.53	461.09
490.70	418.96
490.88	395.55
491.06	376.83
491.24	407.25
491.41	425.98
491.59	472.79
491.77	388.53
491.95	449.38
492.13	451.72
492.30	386.19
492.48	404.91
492.66	440.02
492.84	395.55
493.01	449.38
493.19	348.74
493.37	367.46
493.54	444.70
493.72	503.22
493.90	402.57
494.08	465.77
494.25	489.17
494.43	458.74
494.61	390.87
494.79	442.36
494.96	379.17
495.14	461.09
495.32	404.91
495.49	395.55
495.67	393.21
495.85	362.78
496.02	428.32
496.20	449.38
496.38	402.57
496.55	433.00
496.73	400.23
496.91	395.55
497.09	449.38
497.26	442.36
497.44	397.89
497.62	395.55
497.79	440.02
497.97	409.59
498.14	402.57
498.32	428.32
498.50	421.30
498.67	411.93
498.85	447.04
499.03	482.15
499.20	397.89
499.38	353.42
499.56	423.64
499.73	447.04
499.91	451.72
500.08	362.78
500.26	383.85
500.44	404.91
500.61	414.27
500.79	320.65
500.97	428.32
501.14	433.00
501.32	411.93
501.49	430.66
501.67	430.66
501.84	435.34
502.02	381.51
502.20	465.77
502.37	461.09
502.55	458.74
502.72	409.59
502.90	418.96
503.07	435.34
503.25	407.25
503.43	393.21
503.60	369.80
503.78	425.98
503.95	458.74
504.13	393.21
504.30	428.32
504.48	498.53
504.65	444.70
504.83	451.72
505.01	372.15
505.18	423.64
505.36	433.00
505.53	381.51
505.71	386.19
505.88	425.98
506.06	351.08
506.23	421.30
506.41	414.27
506.58	409.59
506.76	365.12
506.93	386.19
507.11	372.15
507.28	386.19
507.46	409.59
507.63	395.55
507.81	489.17
507.98	456.40
508.16	447.04
508.33	423.64
508.50	451.72
508.68	369.80
508.85	482.15
509.03	418.96
509.20	393.21
509.38	390.87
509.55	428.32
509.73	447.04
509.90	390.87
510.08	421.30
510.25	454.06
510.42	458.74
510.60	407.25
510.77	397.89
510.95	423.64
511.12	400.23
511.30	437.68
511.47	442.36
511.64	393.21
511.82	327.68
511.99	344.06
512.17	423.64
512.34	341.72
512.51	437.68
512.69	468.11
512.86	465.77
513.04	444.70
513.21	416.62
513.38	402.57
513.56	383.85
513.73	367.46
513.90	327.68
514.08	435.34
514.25	449.38
514.43	386.19
514.60	330.02
514.77	447.04
514.95	435.34
515.12	444.70
515.29	386.19
515.47	442.36
515.64	346.40
515.81	475.13
515.99	381.51
516.16	416.62
516.33	423.64
516.51	393.21
516.68	416.62
516.85	346.40
517.03	428.32
517.20	425.98
517.37	440.02
517.54	465.77
517.72	414.27
517.89	442.36
518.06	463.43
518.24	447.04
518.41	440.02
518.58	416.62
518.75	365.12
518.93	409.59
519.10	456.40
519.27	346.40
519.45	315.97
519.62	435.34
519.79	463.43
519.96	437.68
520.14	454.06
520.31	388.53
520.48	444.70
520.65	400.23
520.83	447.04
521.00	456.40
521.17	386.19
521.34	407.25
521.52	381.51
521.69	435.34
521.86	332.36
522.03	489.17
522.20	435.34
522.38	294.91
522.55	437.68
522.72	477.47
522.89	449.38
523.07	463.43
523.24	404.91
523.41	442.36
523.58	416.62
523.75	374.49
523.92	360.44
524.10	461.09
524.27	404.91
524.44	433.00
524.61	479.81
524.78	379.17
524.96	393.21
525.13	395.55
525.30	451.72
525.47	468.11
525.64	411.93
525.81	402.57
525.98	414.27
526.16	379.17
526.33	379.17
526.50	362.78
526.67	407.25
526.84	411.93
527.01	411.93
527.18	423.64
527.36	374.49
527.53	411.93
527.70	454.06
527.87	402.57
528.04	409.59
528.21	418.96
528.38	355.76
528.55	409.59
528.72	428.32
528.89	411.93
529.07	428.32
529.24	372.15
529.41	440.02
529.58	416.62
529.75	388.53
529.92	437.68
530.09	341.72
530.26	442.36
530.43	421.30
530.60	395.55
530.77	381.51
530.94	465.77
531.11	397.89
531.28	379.17
531.46	444.70
531.63	435.34
531.80	411.93
531.97	365.12
532.14	421.30
532.31	425.98
532.48	388.53
532.65	367.46
532.82	437.68
532.99	402.57
533.16	425.98
533.33	367.46
533.50	421.30
533.67	440.02
533.84	456.40
534.01	421.30
534.18	454.06
534.35	454.06
534.52	414.27
534.69	430.66
534.86	362.78
535.03	423.64
535.20	386.19
535.37	440.02
535.54	435.34
535.71	451.72
535.88	397.89
536.05	411.93
536.22	414.27
536.38	390.87
536.55	421.30
536.72	449.38
536.89	416.62
537.06	372.15
537.23	379.17
537.40	409.59
537.57	318.31
537.74	486.83
537.91	451.72
538.08	423.64
538.25	428.32
538.42	393.21
538.59	454.06
538.75	442.36
538.92	411.93
539.09	435.34
539.26	423.64
539.43	428.32
539.60	440.02
539.77	411.93
539.94	334.70
540.11	409.59
540.28	402.57
540.44	449.38
540.61	372.15
540.78	433.00
540.95	395.55
541.12	470.45
541.29	409.59
541.46	430.66
541.62	430.66
541.79	423.64
541.96	390.87
542.13	428.32
542.30	416.62
542.47	444.70
542.63	388.53
542.80	355.76
542.97	442.36
543.14	451.72
543.31	374.49
543.48	365.12
543.64	369.80
543.81	430.66
543.98	442.36
544.15	423.64
544.32	407.25
544.48	437.68
544.65	397.89
544.82	411.93
544.99	440.02
545.16	454.06
545.32	423.64
545.49	449.38
545.66	402.57
545.83	416.62
546.00	379.17
546.16	407.25
546.33	484.49
546.50	400.23
546.67	381.51
546.83	463.43
547.00	440.02
547.17	369.80
547.34	437.68
547.50	423.64
547.67	367.46
547.84	383.85
548.00	451.72
548.17	435.34
548.34	367.46
548.51	470.45
548.67	447.04
548.84	456.40
549.01	454.06
549.18	390.87
549.34	402.57
549.51	404.91
549.68	493.85
549.84	400.23
550.01	388.53
550.18	528.96
550.34	463.43
550.51	440.02
550.68	489.17
550.84	376.83
551.01	447.04
551.18	393.21
551.34	423.64
551.51	388.53
551.68	440.02
551.84	404.91
552.01	374.49
552.18	454.06
552.34	444.70
552.51	435.34
552.68	475.13
552.84	510.24
553.01	423.64
553.18	418.96
553.34	454.06
553.51	463.43
553.67	470.45
553.84	435.34
554.01	397.89
554.17	433.00
554.34	400.23
554.51	376.83
554.67	416.62
554.84	411.93
555.00	376.83
555.17	411.93
555.33	442.36
555.50	493.85
555.67	386.19
555.83	454.06
556.00	437.68
556.16	552.37
556.33	463.43
556.50	369.80
556.66	440.02
556.83	470.45
556.99	402.57
557.16	400.23
557.32	325.33
557.49	353.42
557.65	414.27
557.82	440.02
557.98	418.96
558.15	367.46
558.32	442.36
558.48	407.25
558.65	355.76
558.81	372.15
558.98	433.00
559.14	374.49
559.31	388.53
559.47	374.49
559.64	416.62
559.80	341.72
559.97	383.85
560.13	411.93
560.30	447.04
560.46	372.15
560.63	437.68
560.79	449.38
560.96	409.59
561.12	442.36
561.29	414.27
561.45	425.98
561.61	411.93
561.78	440.02
561.94	393.21
562.11	407.25
562.27	421.30
562.44	468.11
562.60	409.59
562.77	404.91
562.93	510.24
563.10	407.25
563.26	383.85
563.42	428.32
563.59	367.46
563.75	386.19
563.92	393.21
564.08	423.64
564.24	435.34
564.41	468.11
564.57	423.64
564.74	465.77
564.90	496.19
565.07	449.38
565.23	451.72
565.39	416.62
565.56	409.59
565.72	397.89
565.88	449.38
566.05	379.17
566.21	386.19
566.38	447.04
566.54	428.32
566.70	367.46
566.87	395.55
567.03	407.25
567.19	388.53
567.36	386.19
567.52	447.04
567.68	440.02
567.85	393.21
568.01	386.19
568.17	440.02
568.34	425.98
568.50	454.06
568.66	322.99
568.83	416.62
568.99	440.02
569.15	507.90
569.32	407.25
569.48	386.19
569.64	437.68
569.81	477.47
569.97	367.46
570.13	372.15
570.30	451.72
570.46	355.76
570.62	374.49
570.78	390.87
570.95	376.83
571.11	451.72
571.27	479.81
571.43	402.57
571.60	444.70
571.76	386.19
571.92	423.64
572.09	397.89
572.25	330.02
572.41	376.83
572.57	362.78
572.74	496.19
572.90	475.13
573.06	355.76
573.22	435.34
573.38	449.38
573.55	404.91
573.71	418.96
573.87	400.23
574.03	348.74
574.20	451.72
574.36	442.36
574.52	458.74
574.68	388.53
574.84	388.53
575.01	372.15
575.17	479.81
575.33	451.72
575.49	416.62
575.65	362.78
575.82	461.09
575.98	449.38
576.14	390.87
576.30	358.10
576.46	402.57
576.62	444.70
576.79	404.91
576.95	407.25
577.11	411.93
577.27	388.53
577.43	400.23
577.59	442.36
577.75	397.89
577.92	418.96
578.08	456.40
578.24	353.42
578.40	395.55
578.56	461.09
578.72	407.25
578.88	409.59
579.04	341.72
579.21	444.70
579.37	365.12
579.53	433.00
579.69	425.98
579.85	355.76
580.01	395.55
580.17	435.34
580.33	393.21
580.49	468.11
580.65	379.17
580.82	470.45
580.98	404.91
581.14	456.40
581.30	416.62
581.46	393.21
581.62	430.66
581.78	379.17
581.94	421.30
582.10	325.33
582.26	353.42
582.42	390.87
582.58	365.12
582.74	416.62
582.90	484.49
583.06	409.59
583.22	421.30
583.38	386.19
583.54	351.08
583.70	430.66
583.86	341.72
584.02	437.68
584.18	479.81
584.34	517.26
584.50	390.87
584.66	447.04
584.82	358.10
584.98	376.83
585.14	435.34
585.30	416.62
585.46	435.34
585.62	355.76
585.78	393.21
585.94	390.87
586.10	475.13
586.26	442.36
586.42	416.62
586.58	451.72
586.74	447.04
586.90	374.49
587.06	418.96
587.22	414.27
587.38	433.00
587.54	449.38
587.70	362.78
587.86	447.04
588.02	425.98
588.18	423.64
588.34	395.55
588.49	322.99
588.65	400.23
588.81	428.32
588.97	383.85
589.13	430.66
589.29	437.68
589.45	440.02
589.61	390.87
589.77	351.08
589.93	376.83
590.08	346.40
590.24	365.12
590.40	397.89
590.56	393.21
590.72	390.87
590.88	425.98
591.04	414.27
591.20	435.34
591.35	465.77
591.51	440.02
591.67	395.55
591.83	430.66
591.99	421.30
592.15	425.98
592.31	477.47
592.46	383.85
592.62	472.79
592.78	512.58
592.94	411.93
593.10	386.19
593.26	376.83
593.41	397.89
593.57	369.80
593.73	409.59
593.89	454.06
594.05	325.33
594.20	397.89
594.36	393.21
594.52	395.55
594.68	404.91
594.84	400.23
594.99	454.06
595.15	444.70
595.31	383.85
595.47	512.58
595.62	351.08
595.78	468.11
595.94	447.04
596.10	416.62
596.25	414.27
596.41	393.21
596.57	421.30
596.73	381.51
596.88	355.76
597.04	451.72
597.20	421.30
597.36	458.74
597.51	400.23
597.67	418.96
597.83	397.89
597.99	402.57
598.14	458.74
598.30	416.62
598.46	447.04
598.61	470.45
598.77	463.43
598.93	407.25
599.09	404.91
599.24	472.79
599.40	367.46
599.56	365.12
599.71	395.55
599.87	451.72
600.03	428.32
600.18	458.74
600.34	416.62
600.50	440.02
600.65	437.68
600.81	423.64
600.97	362.78
601.12	388.53
601.28	454.06
601.44	449.38
601.59	409.59
601.75	472.79
601.91	369.80
602.06	393.21
602.22	470.45
602.37	437.68
602.53	428.32
602.69	442.36
602.84	365.12
603.00	393.21
603.16	383.85
603.31	456.40
603.47	397.89
603.62	386.19
603.78	395.55
603.94	433.00
604.09	433.00
604.25	404.91
604.40	379.17
604.56	402.57
604.71	388.53
604.87	367.46
605.03	475.13
605.18	510.24
605.34	430.66
605.49	365.12
605.65	456.40
605.80	465.77
605.96	440.02
606.12	409.59
606.27	425.98
606.43	404.91
606.58	465.77
606.74	430.66
606.89	411.93
607.05	397.89
607.20	383.85
607.36	369.80
607.51	442.36
607.67	433.00
607.82	435.34
607.98	430.66
608.13	390.87
608.29	409.59
608.44	423.64
608.60	461.09
608.75	458.74
608.91	463.43
609.06	397.89
609.22	493.85
609.37	376.83
609.53	451.72
609.68	421.30
609.84	486.83
609.99	416.62
610.15	395.55
