SpectraSuite Data File
++++++++++++++++++++++++++++++++++++
Date: Fri Oct 25 12:11:43 EDT 2013
User: price-jones
Dark Spectrum Present: No
Reference Spectrum Present: No
Number of Sampled Component Spectra: 1
Spectrometers: USB2+H05261
Integration Time (usec): 100000 (USB2+H05261)
Spectra Averaged: 1 (USB2+H05261)
Boxcar Smoothing: 0 (USB2+H05261)
Correct for Electrical Dark: No (USB2+H05261)
Strobe/Lamp Enabled: No (USB2+H05261)
Correct for Detector Non-linearity: No (USB2+H05261)
Correct for Stray Light: No (USB2+H05261)
Number of Pixels in Processed Spectrum: 2048
>>>>>Begin Processed Spectral Data<<<<<
365.73	353.42
365.92	353.42
366.12	353.42
366.32	243.42
366.52	250.44
366.72	259.80
366.91	212.99
367.11	308.95
367.31	248.10
367.51	250.44
367.70	229.37
367.90	227.03
368.10	299.59
368.30	220.01
368.49	243.42
368.69	341.72
368.89	224.69
369.09	203.63
369.28	220.01
369.48	243.42
369.68	238.73
369.87	266.82
370.07	301.93
370.27	327.68
370.47	280.86
370.66	318.31
370.86	381.51
371.06	465.77
371.25	400.23
371.45	344.06
371.65	425.98
371.84	346.40
372.04	383.85
372.24	402.57
372.44	390.87
372.63	409.59
372.83	353.42
373.03	449.38
373.22	353.42
373.42	484.49
373.62	449.38
373.81	346.40
374.01	451.72
374.21	510.24
374.40	428.32
374.60	393.21
374.79	402.57
374.99	414.27
375.19	400.23
375.38	479.81
375.58	407.25
375.78	409.59
375.97	493.85
376.17	393.21
376.37	402.57
376.56	414.27
376.76	409.59
376.95	444.70
377.15	440.02
377.35	402.57
377.54	440.02
377.74	365.12
377.93	395.55
378.13	423.64
378.33	428.32
378.52	489.17
378.72	372.15
378.91	418.96
379.11	437.68
379.31	440.02
379.50	472.79
379.70	414.27
379.89	416.62
380.09	407.25
380.28	400.23
380.48	500.87
380.68	381.51
380.87	376.83
381.07	369.80
381.26	458.74
381.46	379.17
381.65	383.85
381.85	418.96
382.04	411.93
382.24	442.36
382.43	376.83
382.63	454.06
382.83	472.79
383.02	451.72
383.22	402.57
383.41	498.53
383.61	402.57
383.80	498.53
384.00	360.44
384.19	332.36
384.39	407.25
384.58	404.91
384.78	425.98
384.97	388.53
385.17	414.27
385.36	449.38
385.56	400.23
385.75	416.62
385.95	421.30
386.14	451.72
386.34	416.62
386.53	376.83
386.72	433.00
386.92	435.34
387.11	376.83
387.31	383.85
387.50	351.08
387.70	440.02
387.89	425.98
388.09	376.83
388.28	440.02
388.48	351.08
388.67	437.68
388.86	404.91
389.06	386.19
389.25	402.57
389.45	407.25
389.64	379.17
389.84	458.74
390.03	479.81
390.22	428.32
390.42	379.17
390.61	449.38
390.81	383.85
391.00	421.30
391.19	397.89
391.39	402.57
391.58	435.34
391.78	433.00
391.97	383.85
392.16	358.10
392.36	444.70
392.55	489.17
392.75	358.10
392.94	332.36
393.13	411.93
393.33	418.96
393.52	318.31
393.71	458.74
393.91	358.10
394.10	433.00
394.29	421.30
394.49	386.19
394.68	411.93
394.88	425.98
395.07	433.00
395.26	430.66
395.46	390.87
395.65	346.40
395.84	416.62
396.04	433.00
396.23	486.83
396.42	421.30
396.62	395.55
396.81	393.21
397.00	449.38
397.19	425.98
397.39	411.93
397.58	367.46
397.77	367.46
397.97	414.27
398.16	390.87
398.35	355.76
398.55	334.70
398.74	351.08
398.93	440.02
399.12	353.42
399.32	414.27
399.51	402.57
399.70	407.25
399.90	444.70
400.09	379.17
400.28	425.98
400.47	376.83
400.67	451.72
400.86	386.19
401.05	404.91
401.24	395.55
401.44	376.83
401.63	397.89
401.82	409.59
402.01	358.10
402.21	465.77
402.40	437.68
402.59	390.87
402.78	374.49
402.97	430.66
403.17	456.40
403.36	369.80
403.55	330.02
403.74	334.70
403.93	374.49
404.13	411.93
404.32	400.23
404.51	447.04
404.70	468.11
404.89	414.27
405.09	395.55
405.28	416.62
405.47	414.27
405.66	472.79
405.85	433.00
406.05	379.17
406.24	369.80
406.43	404.91
406.62	442.36
406.81	404.91
407.00	416.62
407.20	369.80
407.39	416.62
407.58	418.96
407.77	440.02
407.96	334.70
408.15	381.51
408.34	390.87
408.54	388.53
408.73	365.12
408.92	383.85
409.11	428.32
409.30	397.89
409.49	425.98
409.68	423.64
409.87	374.49
410.07	388.53
410.26	409.59
410.45	388.53
410.64	425.98
410.83	362.78
411.02	369.80
411.21	379.17
411.40	383.85
411.59	402.57
411.78	365.12
411.98	372.15
412.17	362.78
412.36	428.32
412.55	468.11
412.74	433.00
412.93	444.70
413.12	428.32
413.31	418.96
413.50	461.09
413.69	351.08
413.88	358.10
414.07	386.19
414.26	423.64
414.45	388.53
414.64	411.93
414.83	442.36
415.02	409.59
415.22	437.68
415.41	411.93
415.60	440.02
415.79	383.85
415.98	393.21
416.17	397.89
416.36	411.93
416.55	414.27
416.74	425.98
416.93	418.96
417.12	395.55
417.31	388.53
417.50	376.83
417.69	465.77
417.88	421.30
418.07	458.74
418.26	512.58
418.45	376.83
418.64	411.93
418.83	348.74
419.02	407.25
419.21	322.99
419.39	437.68
419.58	351.08
419.77	442.36
419.96	484.49
420.15	449.38
420.34	468.11
420.53	390.87
420.72	449.38
420.91	428.32
421.10	362.78
421.29	386.19
421.48	475.13
421.67	362.78
421.86	374.49
422.05	411.93
422.24	344.06
422.43	376.83
422.61	402.57
422.80	358.10
422.99	437.68
423.18	414.27
423.37	409.59
423.56	418.96
423.75	409.59
423.94	388.53
424.13	433.00
424.32	404.91
424.50	390.87
424.69	393.21
424.88	437.68
425.07	437.68
425.26	418.96
425.45	397.89
425.64	393.21
425.83	489.17
426.01	440.02
426.20	461.09
426.39	433.00
426.58	430.66
426.77	397.89
426.96	320.65
427.15	423.64
427.33	372.15
427.52	402.57
427.71	416.62
427.90	444.70
428.09	400.23
428.28	421.30
428.46	360.44
428.65	421.30
428.84	337.04
429.03	498.53
429.22	463.43
429.40	409.59
429.59	386.19
429.78	442.36
429.97	477.47
430.16	390.87
430.34	472.79
430.53	468.11
430.72	369.80
430.91	440.02
431.10	425.98
431.28	390.87
431.47	437.68
431.66	393.21
431.85	444.70
432.03	411.93
432.22	430.66
432.41	400.23
432.60	435.34
432.79	407.25
432.97	386.19
433.16	435.34
433.35	418.96
433.54	334.70
433.72	386.19
433.91	337.04
434.10	421.30
434.28	447.04
434.47	337.04
434.66	470.45
434.85	442.36
435.03	379.17
435.22	435.34
435.41	374.49
435.59	442.36
435.78	402.57
435.97	390.87
436.16	383.85
436.34	393.21
436.53	468.11
436.72	451.72
436.90	428.32
437.09	402.57
437.28	353.42
437.46	358.10
437.65	503.22
437.84	500.87
438.02	447.04
438.21	447.04
438.40	362.78
438.58	444.70
438.77	449.38
438.96	447.04
439.14	456.40
439.33	451.72
439.52	433.00
439.70	477.47
439.89	428.32
440.08	461.09
440.26	421.30
440.45	468.11
440.63	428.32
440.82	472.79
441.01	395.55
441.19	388.53
441.38	416.62
441.57	383.85
441.75	454.06
441.94	411.93
442.12	425.98
442.31	397.89
442.50	423.64
442.68	327.68
442.87	304.27
443.05	395.55
443.24	393.21
443.43	421.30
443.61	428.32
443.80	472.79
443.98	437.68
444.17	395.55
444.35	379.17
444.54	437.68
444.73	440.02
444.91	433.00
445.10	360.44
445.28	416.62
445.47	388.53
445.65	407.25
445.84	411.93
446.02	376.83
446.21	311.29
446.39	409.59
446.58	400.23
446.77	376.83
446.95	463.43
447.14	374.49
447.32	472.79
447.51	388.53
447.69	428.32
447.88	360.44
448.06	407.25
448.25	407.25
448.43	383.85
448.62	344.06
448.80	360.44
448.99	381.51
449.17	379.17
449.36	475.13
449.54	397.89
449.73	411.93
449.91	421.30
450.10	423.64
450.28	461.09
450.46	447.04
450.65	360.44
450.83	372.15
451.02	369.80
451.20	374.49
451.39	404.91
451.57	414.27
451.76	421.30
451.94	458.74
452.13	428.32
452.31	489.17
452.49	425.98
452.68	423.64
452.86	491.51
453.05	437.68
453.23	386.19
453.42	430.66
453.60	475.13
453.78	435.34
453.97	423.64
454.15	383.85
454.34	458.74
454.52	402.57
454.70	386.19
454.89	390.87
455.07	339.38
455.26	435.34
455.44	444.70
455.62	451.72
455.81	358.10
455.99	381.51
456.17	395.55
456.36	372.15
456.54	416.62
456.73	386.19
456.91	386.19
457.09	414.27
457.28	407.25
457.46	341.72
457.64	475.13
457.83	447.04
458.01	379.17
458.19	503.22
458.38	339.38
458.56	430.66
458.74	472.79
458.93	454.06
459.11	472.79
459.29	348.74
459.48	484.49
459.66	425.98
459.84	379.17
460.03	454.06
460.21	425.98
460.39	381.51
460.57	400.23
460.76	369.80
460.94	372.15
461.12	465.77
461.31	416.62
461.49	379.17
461.67	437.68
461.85	416.62
462.04	400.23
462.22	770.04
462.40	411.93
462.59	442.36
462.77	355.76
462.95	365.12
463.13	444.70
463.32	540.66
463.50	393.21
463.68	411.93
463.86	397.89
464.05	374.49
464.23	505.56
464.41	397.89
464.59	414.27
464.78	390.87
464.96	428.32
465.14	369.80
465.32	468.11
465.50	374.49
465.69	456.40
465.87	390.87
466.05	358.10
466.23	395.55
466.41	435.34
466.60	369.80
466.78	461.09
466.96	444.70
467.14	407.25
467.32	444.70
467.51	440.02
467.69	477.47
467.87	465.77
468.05	390.87
468.23	454.06
468.41	404.91
468.60	409.59
468.78	451.72
468.96	428.32
469.14	465.77
469.32	418.96
469.50	435.34
469.69	388.53
469.87	458.74
470.05	355.76
470.23	390.87
470.41	430.66
470.59	435.34
470.77	461.09
470.95	444.70
471.14	367.46
471.32	411.93
471.50	404.91
471.68	411.93
471.86	433.00
472.04	395.55
472.22	458.74
472.40	416.62
472.58	381.51
472.77	397.89
472.95	500.87
473.13	454.06
473.31	517.26
473.49	360.44
473.67	472.79
473.85	383.85
474.03	414.27
474.21	442.36
474.39	388.53
474.57	442.36
474.75	475.13
474.93	409.59
475.12	397.89
475.30	430.66
475.48	393.21
475.66	365.12
475.84	484.49
476.02	430.66
476.20	388.53
476.38	428.32
476.56	458.74
476.74	416.62
476.92	327.68
477.10	418.96
477.28	402.57
477.46	437.68
477.64	451.72
477.82	341.72
478.00	397.89
478.18	402.57
478.36	411.93
478.54	353.42
478.72	482.15
478.90	468.11
479.08	407.25
479.26	381.51
479.44	369.80
479.62	421.30
479.80	407.25
479.98	402.57
480.16	393.21
480.34	388.53
480.52	418.96
480.70	416.62
480.88	421.30
481.06	407.25
481.24	428.32
481.41	430.66
481.59	449.38
481.77	402.57
481.95	430.66
482.13	400.23
482.31	407.25
482.49	400.23
482.67	395.55
482.85	423.64
483.03	381.51
483.21	365.12
483.39	358.10
483.57	395.55
483.74	470.45
483.92	397.89
484.10	376.83
484.28	409.59
484.46	430.66
484.64	421.30
484.82	456.40
485.00	447.04
485.18	404.91
485.35	374.49
485.53	376.83
485.71	421.30
485.89	395.55
486.07	330.02
486.25	479.81
486.43	416.62
486.61	477.47
486.78	454.06
486.96	414.27
487.14	437.68
487.32	411.93
487.50	372.15
487.68	435.34
487.85	339.38
488.03	447.04
488.21	376.83
488.39	456.40
488.57	444.70
488.75	444.70
488.92	496.19
489.10	390.87
489.28	414.27
489.46	348.74
489.64	388.53
489.81	465.77
489.99	437.68
490.17	393.21
490.35	472.79
490.53	330.02
490.70	411.93
490.88	397.89
491.06	461.09
491.24	489.17
491.41	486.83
491.59	425.98
491.77	397.89
491.95	386.19
492.13	402.57
492.30	423.64
492.48	383.85
492.66	418.96
492.84	365.12
493.01	425.98
493.19	458.74
493.37	456.40
493.54	447.04
493.72	421.30
493.90	358.10
494.08	365.12
494.25	397.89
494.43	425.98
494.61	421.30
494.79	351.08
494.96	404.91
495.14	456.40
495.32	407.25
495.49	430.66
495.67	491.51
495.85	393.21
496.02	433.00
496.20	381.51
496.38	386.19
496.55	407.25
496.73	348.74
496.91	414.27
497.09	397.89
497.26	355.76
497.44	409.59
497.62	468.11
497.79	411.93
497.97	362.78
498.14	461.09
498.32	404.91
498.50	409.59
498.67	381.51
498.85	381.51
499.03	414.27
499.20	409.59
499.38	418.96
499.56	430.66
499.73	456.40
499.91	388.53
500.08	397.89
500.26	458.74
500.44	510.24
500.61	458.74
500.79	369.80
500.97	486.83
501.14	428.32
501.32	500.87
501.49	409.59
501.67	435.34
501.84	395.55
502.02	379.17
502.20	437.68
502.37	444.70
502.55	327.68
502.72	428.32
502.90	416.62
503.07	369.80
503.25	449.38
503.43	418.96
503.60	365.12
503.78	400.23
503.95	461.09
504.13	428.32
504.30	430.66
504.48	400.23
504.65	433.00
504.83	428.32
505.01	339.38
505.18	430.66
505.36	440.02
505.53	456.40
505.71	421.30
505.88	475.13
506.06	418.96
506.23	447.04
506.41	390.87
506.58	418.96
506.76	376.83
506.93	372.15
507.11	444.70
507.28	423.64
507.46	397.89
507.63	388.53
507.81	355.76
507.98	362.78
508.16	407.25
508.33	369.80
508.50	346.40
508.68	404.91
508.85	433.00
509.03	393.21
509.20	379.17
509.38	376.83
509.55	442.36
509.73	400.23
509.90	475.13
510.08	416.62
510.25	465.77
510.42	425.98
510.60	397.89
510.77	435.34
510.95	425.98
511.12	433.00
511.30	425.98
511.47	386.19
511.64	461.09
511.82	416.62
511.99	437.68
512.17	449.38
512.34	397.89
512.51	470.45
512.69	435.34
512.86	428.32
513.04	346.40
513.21	440.02
513.38	402.57
513.56	400.23
513.73	414.27
513.90	390.87
514.08	456.40
514.25	402.57
514.43	365.12
514.60	374.49
514.77	400.23
514.95	421.30
515.12	400.23
515.29	433.00
515.47	435.34
515.64	402.57
515.81	472.79
515.99	423.64
516.16	390.87
516.33	425.98
516.51	456.40
516.68	400.23
516.85	369.80
517.03	397.89
517.20	351.08
517.37	435.34
517.54	498.53
517.72	440.02
517.89	393.21
518.06	442.36
518.24	475.13
518.41	517.26
518.58	425.98
518.75	496.19
518.93	442.36
519.10	407.25
519.27	395.55
519.45	388.53
519.62	421.30
519.79	470.45
519.96	365.12
520.14	430.66
520.31	393.21
520.48	423.64
520.65	409.59
520.83	454.06
521.00	400.23
521.17	477.47
521.34	381.51
521.52	411.93
521.69	358.10
521.86	407.25
522.03	400.23
522.20	482.15
522.38	440.02
522.55	416.62
522.72	414.27
522.89	435.34
523.07	451.72
523.24	409.59
523.41	397.89
523.58	407.25
523.75	395.55
523.92	461.09
524.10	458.74
524.27	440.02
524.44	433.00
524.61	421.30
524.78	461.09
524.96	430.66
525.13	388.53
525.30	400.23
525.47	395.55
525.64	376.83
525.81	482.15
525.98	458.74
526.16	430.66
526.33	411.93
526.50	414.27
526.67	386.19
526.84	416.62
527.01	428.32
527.18	449.38
527.36	425.98
527.53	456.40
527.70	425.98
527.87	456.40
528.04	484.49
528.21	423.64
528.38	451.72
528.55	486.83
528.72	411.93
528.89	491.51
529.07	414.27
529.24	442.36
529.41	489.17
529.58	463.43
529.75	400.23
529.92	400.23
530.09	351.08
530.26	470.45
530.43	430.66
530.60	421.30
530.77	407.25
530.94	430.66
531.11	435.34
531.28	463.43
531.46	325.33
531.63	440.02
531.80	386.19
531.97	418.96
532.14	337.04
532.31	407.25
532.48	456.40
532.65	388.53
532.82	484.49
532.99	472.79
533.16	381.51
533.33	454.06
533.50	411.93
533.67	428.32
533.84	390.87
534.01	449.38
534.18	437.68
534.35	454.06
534.52	461.09
534.69	447.04
534.86	402.57
535.03	411.93
535.20	315.97
535.37	416.62
535.54	428.32
535.71	407.25
535.88	369.80
536.05	360.44
536.22	484.49
536.38	416.62
536.55	482.15
536.72	400.23
536.89	344.06
537.06	461.09
537.23	496.19
537.40	379.17
537.57	301.93
537.74	496.19
537.91	400.23
538.08	423.64
538.25	381.51
538.42	397.89
538.59	442.36
538.75	374.49
538.92	430.66
539.09	435.34
539.26	397.89
539.43	482.15
539.60	414.27
539.77	409.59
539.94	390.87
540.11	425.98
540.28	397.89
540.44	374.49
540.61	390.87
540.78	433.00
540.95	411.93
541.12	447.04
541.29	409.59
541.46	461.09
541.62	369.80
541.79	393.21
541.96	348.74
542.13	379.17
542.30	346.40
542.47	447.04
542.63	414.27
542.80	402.57
542.97	418.96
543.14	437.68
543.31	465.77
543.48	409.59
543.64	395.55
543.81	456.40
543.98	386.19
544.15	423.64
544.32	433.00
544.48	393.21
544.65	362.78
544.82	440.02
544.99	451.72
545.16	433.00
545.32	486.83
545.49	444.70
545.66	447.04
545.83	397.89
546.00	428.32
546.16	374.49
546.33	344.06
546.50	477.47
546.67	407.25
546.83	456.40
547.00	437.68
547.17	414.27
547.34	416.62
547.50	360.44
547.67	470.45
547.84	435.34
548.00	425.98
548.17	355.76
548.34	430.66
548.51	435.34
548.67	458.74
548.84	407.25
549.01	440.02
549.18	449.38
549.34	407.25
549.51	414.27
549.68	404.91
549.84	416.62
550.01	360.44
550.18	521.94
550.34	493.85
550.51	362.78
550.68	458.74
550.84	400.23
551.01	440.02
551.18	433.00
551.34	440.02
551.51	465.77
551.68	437.68
551.84	418.96
552.01	430.66
552.18	447.04
552.34	423.64
552.51	482.15
552.68	461.09
552.84	425.98
553.01	500.87
553.18	458.74
553.34	440.02
553.51	397.89
553.67	461.09
553.84	500.87
554.01	395.55
554.17	463.43
554.34	402.57
554.51	454.06
554.67	433.00
554.84	440.02
555.00	423.64
555.17	423.64
555.33	414.27
555.50	416.62
555.67	491.51
555.83	404.91
556.00	376.83
556.16	603.86
556.33	416.62
556.50	451.72
556.66	437.68
556.83	390.87
556.99	388.53
557.16	407.25
557.32	372.15
557.49	351.08
557.65	428.32
557.82	362.78
557.98	500.87
558.15	421.30
558.32	393.21
558.48	376.83
558.65	440.02
558.81	395.55
558.98	437.68
559.14	444.70
559.31	372.15
559.47	433.00
559.64	355.76
559.80	402.57
559.97	416.62
560.13	411.93
560.30	402.57
560.46	411.93
560.63	456.40
560.79	442.36
560.96	447.04
561.12	416.62
561.29	472.79
561.45	339.38
561.61	334.70
561.78	552.37
561.94	444.70
562.11	407.25
562.27	454.06
562.44	421.30
562.60	463.43
562.77	449.38
562.93	425.98
563.10	430.66
563.26	372.15
563.42	482.15
563.59	430.66
563.75	416.62
563.92	454.06
564.08	411.93
564.24	475.13
564.41	458.74
564.57	414.27
564.74	383.85
564.90	479.81
565.07	400.23
565.23	454.06
565.39	423.64
565.56	400.23
565.72	400.23
565.88	376.83
566.05	383.85
566.21	393.21
566.38	341.72
566.54	447.04
566.70	433.00
566.87	451.72
567.03	456.40
567.19	449.38
567.36	458.74
567.52	435.34
567.68	381.51
567.85	444.70
568.01	519.60
568.17	409.59
568.34	402.57
568.50	407.25
568.66	465.77
568.83	451.72
568.99	369.80
569.15	451.72
569.32	390.87
569.48	454.06
569.64	521.94
569.81	433.00
569.97	449.38
570.13	454.06
570.30	414.27
570.46	388.53
570.62	423.64
570.78	411.93
570.95	355.76
571.11	395.55
571.27	388.53
571.43	383.85
571.60	404.91
571.76	355.76
571.92	358.10
572.09	449.38
572.25	465.77
572.41	421.30
572.57	379.17
572.74	435.34
572.90	388.53
573.06	414.27
573.22	477.47
573.38	489.17
573.55	442.36
573.71	479.81
573.87	418.96
574.03	425.98
574.20	416.62
574.36	447.04
574.52	421.30
574.68	381.51
574.84	430.66
575.01	416.62
575.17	404.91
575.33	428.32
575.49	402.57
575.65	400.23
575.82	437.68
575.98	400.23
576.14	458.74
576.30	458.74
576.46	465.77
576.62	395.55
576.79	444.70
576.95	414.27
577.11	468.11
577.27	407.25
577.43	433.00
577.59	414.27
577.75	447.04
577.92	353.42
578.08	390.87
578.24	404.91
578.40	461.09
578.56	533.64
578.72	484.49
578.88	470.45
579.04	461.09
579.21	435.34
579.37	500.87
579.53	479.81
579.69	451.72
579.85	430.66
580.01	374.49
580.17	409.59
580.33	425.98
580.49	388.53
580.65	418.96
580.82	418.96
580.98	404.91
581.14	383.85
581.30	433.00
581.46	470.45
581.62	430.66
581.78	433.00
581.94	411.93
582.10	395.55
582.26	454.06
582.42	468.11
582.58	472.79
582.74	409.59
582.90	397.89
583.06	386.19
583.22	383.85
583.38	379.17
583.54	418.96
583.70	411.93
583.86	461.09
584.02	482.15
584.18	386.19
584.34	411.93
584.50	348.74
584.66	435.34
584.82	421.30
584.98	407.25
585.14	414.27
585.30	404.91
585.46	400.23
585.62	440.02
585.78	414.27
585.94	395.55
586.10	440.02
586.26	454.06
586.42	458.74
586.58	330.02
586.74	444.70
586.90	379.17
587.06	437.68
587.22	447.04
587.38	418.96
587.54	386.19
587.70	421.30
587.86	344.06
588.02	376.83
588.18	491.51
588.34	395.55
588.49	397.89
588.65	475.13
588.81	374.49
588.97	411.93
589.13	411.93
589.29	379.17
589.45	435.34
589.61	393.21
589.77	404.91
589.93	365.12
590.08	402.57
590.24	386.19
590.40	400.23
590.56	472.79
590.72	440.02
590.88	393.21
591.04	461.09
591.20	341.72
591.35	472.79
591.51	437.68
591.67	402.57
591.83	449.38
591.99	418.96
592.15	423.64
592.31	500.87
592.46	400.23
592.62	433.00
592.78	430.66
592.94	409.59
593.10	433.00
593.26	381.51
593.41	374.49
593.57	404.91
593.73	376.83
593.89	447.04
594.05	372.15
594.20	477.47
594.36	444.70
594.52	386.19
594.68	486.83
594.84	433.00
594.99	491.51
595.15	468.11
595.31	421.30
595.47	416.62
595.62	425.98
595.78	407.25
595.94	397.89
596.10	458.74
596.25	428.32
596.41	428.32
596.57	463.43
596.73	416.62
596.88	376.83
597.04	454.06
597.20	454.06
597.36	428.32
597.51	482.15
597.67	390.87
597.83	397.89
597.99	379.17
598.14	362.78
598.30	463.43
598.46	395.55
598.61	447.04
598.77	454.06
598.93	423.64
599.09	423.64
599.24	407.25
599.40	482.15
599.56	337.04
599.71	397.89
599.87	416.62
600.03	416.62
600.18	465.77
600.34	461.09
600.50	374.49
600.65	397.89
600.81	470.45
600.97	442.36
601.12	428.32
601.28	458.74
601.44	421.30
601.59	409.59
601.75	447.04
601.91	447.04
602.06	433.00
602.22	489.17
602.37	451.72
602.53	449.38
602.69	400.23
602.84	397.89
603.00	416.62
603.16	463.43
603.31	400.23
603.47	430.66
603.62	325.33
603.78	421.30
603.94	430.66
604.09	493.85
604.25	421.30
604.40	388.53
604.56	430.66
604.71	411.93
604.87	435.34
605.03	451.72
605.18	482.15
605.34	491.51
605.49	468.11
605.65	407.25
605.80	433.00
605.96	400.23
606.12	411.93
606.27	365.12
606.43	369.80
606.58	402.57
606.74	397.89
606.89	404.91
607.05	454.06
607.20	379.17
607.36	421.30
607.51	414.27
607.67	447.04
607.82	416.62
607.98	393.21
608.13	463.43
608.29	440.02
608.44	425.98
608.60	421.30
608.75	465.77
608.91	407.25
609.06	411.93
609.22	404.91
609.37	418.96
609.53	386.19
609.68	383.85
609.84	381.51
609.99	334.70
610.15	463.43
