SpectraSuite Data File
++++++++++++++++++++++++++++++++++++
Date: Fri Oct 25 12:10:48 EDT 2013
User: price-jones
Dark Spectrum Present: No
Reference Spectrum Present: No
Number of Sampled Component Spectra: 1
Spectrometers: USB2+H05261
Integration Time (usec): 100000 (USB2+H05261)
Spectra Averaged: 1 (USB2+H05261)
Boxcar Smoothing: 0 (USB2+H05261)
Correct for Electrical Dark: No (USB2+H05261)
Strobe/Lamp Enabled: No (USB2+H05261)
Correct for Detector Non-linearity: No (USB2+H05261)
Correct for Stray Light: No (USB2+H05261)
Number of Pixels in Processed Spectrum: 2048
>>>>>Begin Processed Spectral Data<<<<<
365.73	334.70
365.92	334.70
366.12	334.70
366.32	262.14
366.52	241.08
366.72	353.42
366.91	182.56
367.11	259.80
367.31	264.48
367.51	177.88
367.70	227.03
367.90	280.86
368.10	224.69
368.30	276.18
368.49	203.63
368.69	341.72
368.89	241.08
369.09	248.10
369.28	243.42
369.48	278.52
369.68	278.52
369.87	306.61
370.07	262.14
370.27	304.27
370.47	330.02
370.66	334.70
370.86	348.74
371.06	421.30
371.25	440.02
371.45	367.46
371.65	411.93
371.84	381.51
372.04	362.78
372.24	346.40
372.44	428.32
372.63	400.23
372.83	498.53
373.03	447.04
373.22	395.55
373.42	414.27
373.62	433.00
373.81	461.09
374.01	383.85
374.21	430.66
374.40	456.40
374.60	449.38
374.79	383.85
374.99	435.34
375.19	454.06
375.38	444.70
375.58	444.70
375.78	416.62
375.97	397.89
376.17	402.57
376.37	395.55
376.56	435.34
376.76	383.85
376.95	416.62
377.15	451.72
377.35	409.59
377.54	435.34
377.74	437.68
377.93	400.23
378.13	409.59
378.33	358.10
378.52	358.10
378.72	451.72
378.91	456.40
379.11	418.96
379.31	393.21
379.50	388.53
379.70	365.12
379.89	374.49
380.09	362.78
380.28	339.38
380.48	353.42
380.68	407.25
380.87	367.46
381.07	334.70
381.26	379.17
381.46	358.10
381.65	348.74
381.85	369.80
382.04	423.64
382.24	430.66
382.43	374.49
382.63	355.76
382.83	449.38
383.02	456.40
383.22	425.98
383.41	407.25
383.61	362.78
383.80	433.00
384.00	379.17
384.19	351.08
384.39	465.77
384.58	390.87
384.78	386.19
384.97	400.23
385.17	407.25
385.36	390.87
385.56	397.89
385.75	362.78
385.95	395.55
386.14	416.62
386.34	444.70
386.53	318.31
386.72	440.02
386.92	435.34
387.11	407.25
387.31	308.95
387.50	416.62
387.70	449.38
387.89	414.27
388.09	346.40
388.28	428.32
388.48	355.76
388.67	360.44
388.86	444.70
389.06	353.42
389.25	451.72
389.45	482.15
389.64	358.10
389.84	433.00
390.03	383.85
390.22	470.45
390.42	402.57
390.61	393.21
390.81	369.80
391.00	362.78
391.19	383.85
391.39	372.15
391.58	430.66
391.78	360.44
391.97	416.62
392.16	348.74
392.36	442.36
392.55	393.21
392.75	414.27
392.94	416.62
393.13	433.00
393.33	414.27
393.52	411.93
393.71	458.74
393.91	407.25
394.10	337.04
394.29	320.65
394.49	365.12
394.68	390.87
394.88	409.59
395.07	430.66
395.26	386.19
395.46	496.19
395.65	386.19
395.84	355.76
396.04	500.87
396.23	358.10
396.42	404.91
396.62	433.00
396.81	383.85
397.00	414.27
397.19	491.51
397.39	433.00
397.58	451.72
397.77	386.19
397.97	369.80
398.16	372.15
398.35	402.57
398.55	388.53
398.74	397.89
398.93	390.87
399.12	362.78
399.32	425.98
399.51	421.30
399.70	404.91
399.90	423.64
400.09	437.68
400.28	374.49
400.47	447.04
400.67	367.46
400.86	388.53
401.05	379.17
401.24	421.30
401.44	451.72
401.63	393.21
401.82	444.70
402.01	428.32
402.21	451.72
402.40	407.25
402.59	433.00
402.78	421.30
402.97	393.21
403.17	409.59
403.36	463.43
403.55	400.23
403.74	423.64
403.93	418.96
404.13	365.12
404.32	390.87
404.51	397.89
404.70	358.10
404.89	437.68
405.09	491.51
405.28	395.55
405.47	367.46
405.66	440.02
405.85	428.32
406.05	393.21
406.24	374.49
406.43	393.21
406.62	362.78
406.81	454.06
407.00	440.02
407.20	461.09
407.39	402.57
407.58	404.91
407.77	400.23
407.96	416.62
408.15	376.83
408.34	348.74
408.54	489.17
408.73	365.12
408.92	416.62
409.11	404.91
409.30	418.96
409.49	454.06
409.68	386.19
409.87	437.68
410.07	397.89
410.26	475.13
410.45	440.02
410.64	409.59
410.83	402.57
411.02	477.47
411.21	379.17
411.40	430.66
411.59	379.17
411.78	395.55
411.98	440.02
412.17	294.91
412.36	341.72
412.55	409.59
412.74	376.83
412.93	421.30
413.12	414.27
413.31	383.85
413.50	390.87
413.69	407.25
413.88	442.36
414.07	390.87
414.26	369.80
414.45	433.00
414.64	374.49
414.83	367.46
415.02	428.32
415.22	379.17
415.41	435.34
415.60	390.87
415.79	425.98
415.98	402.57
416.17	458.74
416.36	400.23
416.55	444.70
416.74	454.06
416.93	367.46
417.12	388.53
417.31	407.25
417.50	416.62
417.69	458.74
417.88	374.49
418.07	435.34
418.26	454.06
418.45	414.27
418.64	416.62
418.83	374.49
419.02	416.62
419.21	395.55
419.39	407.25
419.58	416.62
419.77	369.80
419.96	454.06
420.15	421.30
420.34	437.68
420.53	463.43
420.72	379.17
420.91	444.70
421.10	423.64
421.29	430.66
421.48	421.30
421.67	416.62
421.86	409.59
422.05	416.62
422.24	423.64
422.43	421.30
422.61	404.91
422.80	447.04
422.99	411.93
423.18	414.27
423.37	407.25
423.56	477.47
423.75	440.02
423.94	423.64
424.13	332.36
424.32	428.32
424.50	456.40
424.69	498.53
424.88	409.59
425.07	365.12
425.26	376.83
425.45	372.15
425.64	423.64
425.83	416.62
426.01	388.53
426.20	416.62
426.39	355.76
426.58	390.87
426.77	386.19
426.96	437.68
427.15	393.21
427.33	425.98
427.52	360.44
427.71	390.87
427.90	447.04
428.09	360.44
428.28	367.46
428.46	325.33
428.65	395.55
428.84	381.51
429.03	416.62
429.22	437.68
429.40	383.85
429.59	393.21
429.78	444.70
429.97	414.27
430.16	402.57
430.34	358.10
430.53	379.17
430.72	390.87
430.91	400.23
431.10	400.23
431.28	388.53
431.47	433.00
431.66	353.42
431.85	433.00
432.03	421.30
432.22	437.68
432.41	404.91
432.60	421.30
432.79	423.64
432.97	472.79
433.16	442.36
433.35	376.83
433.54	430.66
433.72	433.00
433.91	374.49
434.10	470.45
434.28	386.19
434.47	346.40
434.66	397.89
434.85	411.93
435.03	425.98
435.22	376.83
435.41	409.59
435.59	449.38
435.78	475.13
435.97	395.55
436.16	451.72
436.34	409.59
436.53	423.64
436.72	409.59
436.90	421.30
437.09	442.36
437.28	395.55
437.46	397.89
437.65	454.06
437.84	393.21
438.02	433.00
438.21	428.32
438.40	400.23
438.58	404.91
438.77	376.83
438.96	463.43
439.14	400.23
439.33	393.21
439.52	418.96
439.70	433.00
439.89	454.06
440.08	411.93
440.26	440.02
440.45	383.85
440.63	428.32
440.82	367.46
441.01	404.91
441.19	365.12
441.38	461.09
441.57	491.51
441.75	421.30
441.94	390.87
442.12	404.91
442.31	383.85
442.50	442.36
442.68	365.12
442.87	381.51
443.05	421.30
443.24	414.27
443.43	404.91
443.61	440.02
443.80	362.78
443.98	372.15
444.17	402.57
444.35	404.91
444.54	418.96
444.73	388.53
444.91	400.23
445.10	421.30
445.28	416.62
445.47	418.96
445.65	397.89
445.84	458.74
446.02	440.02
446.21	430.66
446.39	414.27
446.58	402.57
446.77	393.21
446.95	472.79
447.14	414.27
447.32	414.27
447.51	421.30
447.69	379.17
447.88	456.40
448.06	358.10
448.25	407.25
448.43	393.21
448.62	440.02
448.80	407.25
448.99	430.66
449.17	458.74
449.36	447.04
449.54	493.85
449.73	454.06
449.91	351.08
450.10	358.10
450.28	447.04
450.46	442.36
450.65	535.98
450.83	503.22
451.02	411.93
451.20	433.00
451.39	379.17
451.57	435.34
451.76	414.27
451.94	379.17
452.13	440.02
452.31	451.72
452.49	395.55
452.68	383.85
452.86	372.15
453.05	489.17
453.23	393.21
453.42	433.00
453.60	421.30
453.78	402.57
453.97	353.42
454.15	353.42
454.34	433.00
454.52	348.74
454.70	482.15
454.89	458.74
455.07	414.27
455.26	409.59
455.44	369.80
455.62	423.64
455.81	397.89
455.99	447.04
456.17	428.32
456.36	440.02
456.54	407.25
456.73	409.59
456.91	388.53
457.09	369.80
457.28	461.09
457.46	423.64
457.64	449.38
457.83	393.21
458.01	386.19
458.19	423.64
458.38	397.89
458.56	414.27
458.74	353.42
458.93	395.55
459.11	411.93
459.29	463.43
459.48	397.89
459.66	447.04
459.84	421.30
460.03	337.04
460.21	416.62
460.39	421.30
460.57	437.68
460.76	407.25
460.94	447.04
461.12	416.62
461.31	447.04
461.49	311.29
461.67	444.70
461.85	407.25
462.04	344.06
462.22	781.74
462.40	386.19
462.59	433.00
462.77	360.44
462.95	416.62
463.13	407.25
463.32	360.44
463.50	418.96
463.68	454.06
463.86	402.57
464.05	435.34
464.23	447.04
464.41	444.70
464.59	421.30
464.78	414.27
464.96	433.00
465.14	414.27
465.32	433.00
465.50	374.49
465.69	440.02
465.87	372.15
466.05	430.66
466.23	407.25
466.41	404.91
466.60	369.80
466.78	440.02
466.96	442.36
467.14	440.02
467.32	435.34
467.51	475.13
467.69	526.62
467.87	425.98
468.05	423.64
468.23	458.74
468.41	463.43
468.60	367.46
468.78	456.40
468.96	472.79
469.14	437.68
469.32	346.40
469.50	407.25
469.69	458.74
469.87	435.34
470.05	503.22
470.23	409.59
470.41	418.96
470.59	397.89
470.77	507.90
470.95	393.21
471.14	437.68
471.32	465.77
471.50	386.19
471.68	454.06
471.86	444.70
472.04	433.00
472.22	425.98
472.40	418.96
472.58	421.30
472.77	334.70
472.95	421.30
473.13	458.74
473.31	451.72
473.49	388.53
473.67	437.68
473.85	411.93
474.03	388.53
474.21	418.96
474.39	477.47
474.57	435.34
474.75	400.23
474.93	369.80
475.12	402.57
475.30	381.51
475.48	416.62
475.66	376.83
475.84	369.80
476.02	500.87
476.20	376.83
476.38	514.92
476.56	425.98
476.74	451.72
476.92	397.89
477.10	402.57
477.28	416.62
477.46	447.04
477.64	400.23
477.82	379.17
478.00	435.34
478.18	416.62
478.36	456.40
478.54	367.46
478.72	411.93
478.90	430.66
479.08	423.64
479.26	360.44
479.44	348.74
479.62	315.97
479.80	425.98
479.98	397.89
480.16	418.96
480.34	428.32
480.52	369.80
480.70	390.87
480.88	442.36
481.06	409.59
481.24	383.85
481.41	383.85
481.59	383.85
481.77	400.23
481.95	421.30
482.13	397.89
482.31	360.44
482.49	327.68
482.67	414.27
482.85	388.53
483.03	421.30
483.21	402.57
483.39	365.12
483.57	414.27
483.74	388.53
483.92	388.53
484.10	440.02
484.28	484.49
484.46	475.13
484.64	428.32
484.82	393.21
485.00	423.64
485.18	428.32
485.35	337.04
485.53	416.62
485.71	456.40
485.89	409.59
486.07	383.85
486.25	423.64
486.43	521.94
486.61	470.45
486.78	461.09
486.96	400.23
487.14	458.74
487.32	369.80
487.50	390.87
487.68	440.02
487.85	444.70
488.03	414.27
488.21	444.70
488.39	465.77
488.57	465.77
488.75	454.06
488.92	507.90
489.10	402.57
489.28	400.23
489.46	365.12
489.64	381.51
489.81	369.80
489.99	383.85
490.17	440.02
490.35	456.40
490.53	379.17
490.70	433.00
490.88	400.23
491.06	341.72
491.24	346.40
491.41	433.00
491.59	435.34
491.77	416.62
491.95	425.98
492.13	390.87
492.30	447.04
492.48	353.42
492.66	425.98
492.84	411.93
493.01	437.68
493.19	376.83
493.37	512.58
493.54	418.96
493.72	395.55
493.90	416.62
494.08	430.66
494.25	346.40
494.43	433.00
494.61	374.49
494.79	388.53
494.96	425.98
495.14	376.83
495.32	383.85
495.49	454.06
495.67	411.93
495.85	388.53
496.02	428.32
496.20	404.91
496.38	463.43
496.55	379.17
496.73	388.53
496.91	423.64
497.09	496.19
497.26	416.62
497.44	414.27
497.62	435.34
497.79	369.80
497.97	351.08
498.14	430.66
498.32	463.43
498.50	447.04
498.67	379.17
498.85	458.74
499.03	449.38
499.20	404.91
499.38	428.32
499.56	463.43
499.73	346.40
499.91	437.68
500.08	489.17
500.26	414.27
500.44	374.49
500.61	461.09
500.79	423.64
500.97	468.11
501.14	430.66
501.32	458.74
501.49	521.94
501.67	404.91
501.84	454.06
502.02	400.23
502.20	498.53
502.37	463.43
502.55	425.98
502.72	358.10
502.90	416.62
503.07	374.49
503.25	411.93
503.43	388.53
503.60	376.83
503.78	407.25
503.95	402.57
504.13	409.59
504.30	367.46
504.48	395.55
504.65	425.98
504.83	395.55
505.01	428.32
505.18	360.44
505.36	442.36
505.53	369.80
505.71	447.04
505.88	425.98
506.06	390.87
506.23	437.68
506.41	355.76
506.58	421.30
506.76	339.38
506.93	365.12
507.11	407.25
507.28	421.30
507.46	449.38
507.63	409.59
507.81	362.78
507.98	367.46
508.16	414.27
508.33	355.76
508.50	402.57
508.68	447.04
508.85	454.06
509.03	374.49
509.20	430.66
509.38	454.06
509.55	440.02
509.73	383.85
509.90	440.02
510.08	425.98
510.25	421.30
510.42	400.23
510.60	407.25
510.77	486.83
510.95	395.55
511.12	379.17
511.30	430.66
511.47	332.36
511.64	449.38
511.82	330.02
511.99	397.89
512.17	435.34
512.34	386.19
512.51	463.43
512.69	409.59
512.86	411.93
513.04	456.40
513.21	397.89
513.38	388.53
513.56	369.80
513.73	493.85
513.90	416.62
514.08	430.66
514.25	416.62
514.43	376.83
514.60	479.81
514.77	325.33
514.95	442.36
515.12	425.98
515.29	395.55
515.47	463.43
515.64	372.15
515.81	425.98
515.99	442.36
516.16	369.80
516.33	430.66
516.51	374.49
516.68	440.02
516.85	355.76
517.03	423.64
517.20	430.66
517.37	376.83
517.54	500.87
517.72	374.49
517.89	362.78
518.06	435.34
518.24	442.36
518.41	470.45
518.58	461.09
518.75	397.89
518.93	430.66
519.10	421.30
519.27	442.36
519.45	393.21
519.62	402.57
519.79	456.40
519.96	411.93
520.14	458.74
520.31	428.32
520.48	393.21
520.65	404.91
520.83	470.45
521.00	400.23
521.17	386.19
521.34	402.57
521.52	440.02
521.69	470.45
521.86	322.99
522.03	472.79
522.20	498.53
522.38	454.06
522.55	433.00
522.72	414.27
522.89	482.15
523.07	486.83
523.24	451.72
523.41	468.11
523.58	451.72
523.75	440.02
523.92	416.62
524.10	479.81
524.27	409.59
524.44	362.78
524.61	463.43
524.78	411.93
524.96	341.72
525.13	395.55
525.30	425.98
525.47	482.15
525.64	402.57
525.81	369.80
525.98	339.38
526.16	407.25
526.33	451.72
526.50	444.70
526.67	379.17
526.84	383.85
527.01	465.77
527.18	369.80
527.36	411.93
527.53	433.00
527.70	440.02
527.87	414.27
528.04	503.22
528.21	428.32
528.38	374.49
528.55	425.98
528.72	456.40
528.89	447.04
529.07	369.80
529.24	428.32
529.41	484.49
529.58	404.91
529.75	423.64
529.92	393.21
530.09	397.89
530.26	425.98
530.43	425.98
530.60	421.30
530.77	358.10
530.94	362.78
531.11	383.85
531.28	383.85
531.46	404.91
531.63	404.91
531.80	414.27
531.97	411.93
532.14	386.19
532.31	402.57
532.48	372.15
532.65	475.13
532.82	456.40
532.99	411.93
533.16	372.15
533.33	435.34
533.50	379.17
533.67	414.27
533.84	383.85
534.01	395.55
534.18	397.89
534.35	407.25
534.52	482.15
534.69	472.79
534.86	423.64
535.03	404.91
535.20	365.12
535.37	423.64
535.54	383.85
535.71	367.46
535.88	411.93
536.05	470.45
536.22	430.66
536.38	449.38
536.55	524.28
536.72	454.06
536.89	470.45
537.06	428.32
537.23	332.36
537.40	421.30
537.57	400.23
537.74	475.13
537.91	421.30
538.08	433.00
538.25	418.96
538.42	379.17
538.59	355.76
538.75	388.53
538.92	461.09
539.09	433.00
539.26	454.06
539.43	454.06
539.60	404.91
539.77	442.36
539.94	461.09
540.11	437.68
540.28	362.78
540.44	449.38
540.61	369.80
540.78	437.68
540.95	390.87
541.12	362.78
541.29	402.57
541.46	444.70
541.62	360.44
541.79	465.77
541.96	379.17
542.13	351.08
542.30	332.36
542.47	402.57
542.63	339.38
542.80	414.27
542.97	465.77
543.14	388.53
543.31	409.59
543.48	383.85
543.64	444.70
543.81	449.38
543.98	437.68
544.15	423.64
544.32	449.38
544.48	444.70
544.65	341.72
544.82	428.32
544.99	402.57
545.16	409.59
545.32	468.11
545.49	393.21
545.66	411.93
545.83	423.64
546.00	372.15
546.16	430.66
546.33	388.53
546.50	383.85
546.67	484.49
546.83	390.87
547.00	435.34
547.17	360.44
547.34	416.62
547.50	367.46
547.67	409.59
547.84	367.46
548.00	458.74
548.17	454.06
548.34	414.27
548.51	435.34
548.67	393.21
548.84	416.62
549.01	381.51
549.18	444.70
549.34	447.04
549.51	447.04
549.68	430.66
549.84	421.30
550.01	440.02
550.18	493.85
550.34	533.64
550.51	472.79
550.68	482.15
550.84	402.57
551.01	423.64
551.18	395.55
551.34	475.13
551.51	374.49
551.68	456.40
551.84	376.83
552.01	346.40
552.18	409.59
552.34	472.79
552.51	500.87
552.68	411.93
552.84	414.27
553.01	390.87
553.18	390.87
553.34	414.27
553.51	360.44
553.67	421.30
553.84	418.96
554.01	393.21
554.17	454.06
554.34	325.33
554.51	390.87
554.67	395.55
554.84	379.17
555.00	407.25
555.17	383.85
555.33	381.51
555.50	395.55
555.67	407.25
555.83	428.32
556.00	475.13
556.16	557.05
556.33	449.38
556.50	435.34
556.66	397.89
556.83	358.10
556.99	414.27
557.16	418.96
557.32	449.38
557.49	454.06
557.65	337.04
557.82	407.25
557.98	449.38
558.15	386.19
558.32	475.13
558.48	411.93
558.65	447.04
558.81	458.74
558.98	383.85
559.14	444.70
559.31	482.15
559.47	449.38
559.64	456.40
559.80	425.98
559.97	372.15
560.13	411.93
560.30	404.91
560.46	428.32
560.63	447.04
560.79	454.06
560.96	393.21
561.12	458.74
561.29	414.27
561.45	381.51
561.61	386.19
561.78	491.51
561.94	435.34
562.11	425.98
562.27	461.09
562.44	449.38
562.60	402.57
562.77	374.49
562.93	491.51
563.10	404.91
563.26	428.32
563.42	449.38
563.59	369.80
563.75	451.72
563.92	454.06
564.08	414.27
564.24	395.55
564.41	442.36
564.57	397.89
564.74	313.63
564.90	430.66
565.07	344.06
565.23	433.00
565.39	358.10
565.56	414.27
565.72	381.51
565.88	435.34
566.05	496.19
566.21	456.40
566.38	512.58
566.54	411.93
566.70	440.02
566.87	425.98
567.03	404.91
567.19	407.25
567.36	444.70
567.52	428.32
567.68	390.87
567.85	463.43
568.01	404.91
568.17	397.89
568.34	418.96
568.50	430.66
568.66	440.02
568.83	468.11
568.99	393.21
569.15	458.74
569.32	388.53
569.48	437.68
569.64	449.38
569.81	381.51
569.97	444.70
570.13	423.64
570.30	510.24
570.46	411.93
570.62	360.44
570.78	468.11
570.95	318.31
571.11	430.66
571.27	402.57
571.43	367.46
571.60	416.62
571.76	447.04
571.92	395.55
572.09	423.64
572.25	376.83
572.41	468.11
572.57	407.25
572.74	447.04
572.90	484.49
573.06	449.38
573.22	435.34
573.38	442.36
573.55	409.59
573.71	388.53
573.87	425.98
574.03	369.80
574.20	409.59
574.36	418.96
574.52	388.53
574.68	435.34
574.84	388.53
575.01	346.40
575.17	447.04
575.33	430.66
575.49	440.02
575.65	435.34
575.82	449.38
575.98	477.47
576.14	440.02
576.30	470.45
576.46	369.80
576.62	369.80
576.79	451.72
576.95	442.36
577.11	437.68
577.27	456.40
577.43	510.24
577.59	503.22
577.75	442.36
577.92	440.02
578.08	425.98
578.24	442.36
578.40	475.13
578.56	437.68
578.72	444.70
578.88	458.74
579.04	379.17
579.21	365.12
579.37	414.27
579.53	442.36
579.69	489.17
579.85	372.15
580.01	454.06
580.17	355.76
580.33	390.87
580.49	355.76
580.65	388.53
580.82	510.24
580.98	421.30
581.14	393.21
581.30	388.53
581.46	433.00
581.62	468.11
581.78	430.66
581.94	458.74
582.10	386.19
582.26	440.02
582.42	360.44
582.58	477.47
582.74	475.13
582.90	407.25
583.06	428.32
583.22	435.34
583.38	411.93
583.54	355.76
583.70	425.98
583.86	472.79
584.02	411.93
584.18	456.40
584.34	402.57
584.50	393.21
584.66	435.34
584.82	416.62
584.98	458.74
585.14	407.25
585.30	414.27
585.46	428.32
585.62	365.12
585.78	433.00
585.94	425.98
586.10	397.89
586.26	386.19
586.42	411.93
586.58	437.68
586.74	325.33
586.90	397.89
587.06	390.87
587.22	468.11
587.38	425.98
587.54	458.74
587.70	428.32
587.86	477.47
588.02	470.45
588.18	388.53
588.34	447.04
588.49	421.30
588.65	433.00
588.81	447.04
588.97	416.62
589.13	400.23
589.29	411.93
589.45	421.30
589.61	414.27
589.77	514.92
589.93	351.08
590.08	470.45
590.24	402.57
590.40	425.98
590.56	433.00
590.72	407.25
590.88	397.89
591.04	397.89
591.20	409.59
591.35	332.36
591.51	416.62
591.67	428.32
591.83	430.66
591.99	435.34
592.15	517.26
592.31	430.66
592.46	428.32
592.62	365.12
592.78	444.70
592.94	390.87
593.10	500.87
593.26	458.74
593.41	447.04
593.57	430.66
593.73	409.59
593.89	407.25
594.05	395.55
594.20	442.36
594.36	433.00
594.52	425.98
594.68	416.62
594.84	477.47
594.99	451.72
595.15	379.17
595.31	477.47
595.47	433.00
595.62	449.38
595.78	388.53
595.94	379.17
596.10	416.62
596.25	421.30
596.41	447.04
596.57	365.12
596.73	404.91
596.88	421.30
597.04	355.76
597.20	414.27
597.36	416.62
597.51	348.74
597.67	388.53
597.83	442.36
597.99	367.46
598.14	388.53
598.30	456.40
598.46	507.90
598.61	437.68
598.77	425.98
598.93	404.91
599.09	416.62
599.24	416.62
599.40	367.46
599.56	442.36
599.71	489.17
599.87	423.64
600.03	411.93
600.18	397.89
600.34	332.36
600.50	372.15
600.65	461.09
600.81	393.21
600.97	477.47
601.12	430.66
601.28	519.60
601.44	444.70
601.59	339.38
601.75	461.09
601.91	468.11
602.06	379.17
602.22	472.79
602.37	454.06
602.53	374.49
602.69	365.12
602.84	390.87
603.00	411.93
603.16	489.17
603.31	416.62
603.47	484.49
603.62	395.55
603.78	346.40
603.94	465.77
604.09	414.27
604.25	397.89
604.40	444.70
604.56	418.96
604.71	470.45
604.87	351.08
605.03	400.23
605.18	360.44
605.34	468.11
605.49	421.30
605.65	400.23
605.80	409.59
605.96	440.02
606.12	346.40
606.27	393.21
606.43	369.80
606.58	442.36
606.74	421.30
606.89	433.00
607.05	428.32
607.20	477.47
607.36	463.43
607.51	440.02
607.67	435.34
607.82	407.25
607.98	425.98
608.13	411.93
608.29	407.25
608.44	430.66
608.60	482.15
608.75	491.51
608.91	425.98
609.06	468.11
609.22	423.64
609.37	421.30
609.53	454.06
609.68	397.89
609.84	379.17
609.99	440.02
610.15	411.93
