SpectraSuite Data File
++++++++++++++++++++++++++++++++++++
Date: Fri Oct 25 12:10:41 EDT 2013
User: price-jones
Dark Spectrum Present: No
Reference Spectrum Present: No
Number of Sampled Component Spectra: 1
Spectrometers: USB2+H05261
Integration Time (usec): 100000 (USB2+H05261)
Spectra Averaged: 1 (USB2+H05261)
Boxcar Smoothing: 0 (USB2+H05261)
Correct for Electrical Dark: No (USB2+H05261)
Strobe/Lamp Enabled: No (USB2+H05261)
Correct for Detector Non-linearity: No (USB2+H05261)
Correct for Stray Light: No (USB2+H05261)
Number of Pixels in Processed Spectrum: 2048
>>>>>Begin Processed Spectral Data<<<<<
365.73	311.29
365.92	311.29
366.12	311.29
366.32	325.33
366.52	184.90
366.72	257.46
366.91	290.23
367.11	245.76
367.31	259.80
367.51	198.95
367.70	227.03
367.90	189.58
368.10	234.05
368.30	229.37
368.49	280.86
368.69	203.63
368.89	271.50
369.09	271.50
369.28	273.84
369.48	245.76
369.68	278.52
369.87	379.17
370.07	362.78
370.27	327.68
370.47	311.29
370.66	332.36
370.86	306.61
371.06	383.85
371.25	383.85
371.45	327.68
371.65	433.00
371.84	458.74
372.04	360.44
372.24	423.64
372.44	372.15
372.63	358.10
372.83	416.62
373.03	395.55
373.22	395.55
373.42	440.02
373.62	416.62
373.81	465.77
374.01	482.15
374.21	496.19
374.40	416.62
374.60	461.09
374.79	383.85
374.99	477.47
375.19	355.76
375.38	418.96
375.58	491.51
375.78	433.00
375.97	390.87
376.17	390.87
376.37	418.96
376.56	397.89
376.76	416.62
376.95	447.04
377.15	430.66
377.35	374.49
377.54	365.12
377.74	407.25
377.93	421.30
378.13	374.49
378.33	437.68
378.52	433.00
378.72	407.25
378.91	416.62
379.11	414.27
379.31	393.21
379.50	428.32
379.70	425.98
379.89	421.30
380.09	416.62
380.28	374.49
380.48	468.11
380.68	365.12
380.87	407.25
381.07	322.99
381.26	440.02
381.46	402.57
381.65	437.68
381.85	395.55
382.04	416.62
382.24	374.49
382.43	400.23
382.63	365.12
382.83	353.42
383.02	463.43
383.22	372.15
383.41	355.76
383.61	355.76
383.80	372.15
384.00	465.77
384.19	416.62
384.39	437.68
384.58	372.15
384.78	470.45
384.97	491.51
385.17	414.27
385.36	379.17
385.56	512.58
385.75	313.63
385.95	409.59
386.14	461.09
386.34	402.57
386.53	442.36
386.72	433.00
386.92	414.27
387.11	397.89
387.31	397.89
387.50	423.64
387.70	461.09
387.89	367.46
388.09	414.27
388.28	353.42
388.48	423.64
388.67	395.55
388.86	404.91
389.06	463.43
389.25	454.06
389.45	428.32
389.64	449.38
389.84	393.21
390.03	440.02
390.22	369.80
390.42	409.59
390.61	425.98
390.81	393.21
391.00	407.25
391.19	435.34
391.39	362.78
391.58	428.32
391.78	416.62
391.97	379.17
392.16	395.55
392.36	442.36
392.55	468.11
392.75	407.25
392.94	379.17
393.13	409.59
393.33	404.91
393.52	355.76
393.71	433.00
393.91	367.46
394.10	393.21
394.29	416.62
394.49	290.23
394.68	397.89
394.88	393.21
395.07	470.45
395.26	428.32
395.46	416.62
395.65	407.25
395.84	447.04
396.04	498.53
396.23	428.32
396.42	365.12
396.62	425.98
396.81	461.09
397.00	358.10
397.19	358.10
397.39	332.36
397.58	404.91
397.77	390.87
397.97	449.38
398.16	435.34
398.35	425.98
398.55	341.72
398.74	308.95
398.93	414.27
399.12	325.33
399.32	388.53
399.51	365.12
399.70	489.17
399.90	351.08
400.09	414.27
400.28	411.93
400.47	409.59
400.67	482.15
400.86	430.66
401.05	440.02
401.24	400.23
401.44	458.74
401.63	362.78
401.82	393.21
402.01	301.93
402.21	402.57
402.40	358.10
402.59	433.00
402.78	433.00
402.97	421.30
403.17	393.21
403.36	423.64
403.55	414.27
403.74	468.11
403.93	437.68
404.13	458.74
404.32	355.76
404.51	374.49
404.70	400.23
404.89	374.49
405.09	447.04
405.28	442.36
405.47	362.78
405.66	418.96
405.85	428.32
406.05	437.68
406.24	454.06
406.43	444.70
406.62	489.17
406.81	479.81
407.00	468.11
407.20	411.93
407.39	372.15
407.58	430.66
407.77	365.12
407.96	447.04
408.15	369.80
408.34	390.87
408.54	409.59
408.73	421.30
408.92	353.42
409.11	402.57
409.30	430.66
409.49	407.25
409.68	433.00
409.87	430.66
410.07	381.51
410.26	337.04
410.45	358.10
410.64	458.74
410.83	423.64
411.02	421.30
411.21	433.00
411.40	437.68
411.59	444.70
411.78	362.78
411.98	414.27
412.17	393.21
412.36	386.19
412.55	423.64
412.74	372.15
412.93	435.34
413.12	362.78
413.31	475.13
413.50	386.19
413.69	428.32
413.88	425.98
414.07	470.45
414.26	355.76
414.45	433.00
414.64	433.00
414.83	418.96
415.02	425.98
415.22	372.15
415.41	421.30
415.60	411.93
415.79	379.17
415.98	447.04
416.17	472.79
416.36	395.55
416.55	482.15
416.74	470.45
416.93	390.87
417.12	400.23
417.31	414.27
417.50	390.87
417.69	465.77
417.88	402.57
418.07	360.44
418.26	442.36
418.45	379.17
418.64	470.45
418.83	451.72
419.02	386.19
419.21	400.23
419.39	407.25
419.58	351.08
419.77	360.44
419.96	416.62
420.15	393.21
420.34	444.70
420.53	393.21
420.72	425.98
420.91	397.89
421.10	348.74
421.29	376.83
421.48	365.12
421.67	435.34
421.86	440.02
422.05	437.68
422.24	390.87
422.43	390.87
422.61	411.93
422.80	423.64
422.99	411.93
423.18	383.85
423.37	425.98
423.56	461.09
423.75	388.53
423.94	414.27
424.13	411.93
424.32	379.17
424.50	430.66
424.69	414.27
424.88	381.51
425.07	447.04
425.26	456.40
425.45	379.17
425.64	376.83
425.83	353.42
426.01	400.23
426.20	409.59
426.39	416.62
426.58	409.59
426.77	411.93
426.96	379.17
427.15	482.15
427.33	388.53
427.52	456.40
427.71	402.57
427.90	393.21
428.09	351.08
428.28	407.25
428.46	451.72
428.65	425.98
428.84	463.43
429.03	454.06
429.22	355.76
429.40	440.02
429.59	402.57
429.78	402.57
429.97	365.12
430.16	447.04
430.34	414.27
430.53	458.74
430.72	409.59
430.91	414.27
431.10	418.96
431.28	435.34
431.47	444.70
431.66	355.76
431.85	386.19
432.03	411.93
432.22	468.11
432.41	360.44
432.60	386.19
432.79	379.17
432.97	500.87
433.16	451.72
433.35	381.51
433.54	388.53
433.72	440.02
433.91	400.23
434.10	390.87
434.28	372.15
434.47	479.81
434.66	470.45
434.85	362.78
435.03	414.27
435.22	472.79
435.41	454.06
435.59	423.64
435.78	528.96
435.97	465.77
436.16	421.30
436.34	428.32
436.53	383.85
436.72	411.93
436.90	435.34
437.09	428.32
437.28	402.57
437.46	435.34
437.65	358.10
437.84	430.66
438.02	451.72
438.21	442.36
438.40	407.25
438.58	362.78
438.77	489.17
438.96	395.55
439.14	437.68
439.33	376.83
439.52	465.77
439.70	435.34
439.89	442.36
440.08	388.53
440.26	454.06
440.45	397.89
440.63	430.66
440.82	463.43
441.01	339.38
441.19	320.65
441.38	425.98
441.57	407.25
441.75	397.89
441.94	489.17
442.12	388.53
442.31	423.64
442.50	454.06
442.68	395.55
442.87	407.25
443.05	332.36
443.24	447.04
443.43	320.65
443.61	500.87
443.80	463.43
443.98	402.57
444.17	425.98
444.35	451.72
444.54	325.33
444.73	425.98
444.91	418.96
445.10	416.62
445.28	470.45
445.47	449.38
445.65	351.08
445.84	454.06
446.02	393.21
446.21	341.72
446.39	404.91
446.58	416.62
446.77	454.06
446.95	482.15
447.14	430.66
447.32	435.34
447.51	505.56
447.69	416.62
447.88	449.38
448.06	437.68
448.25	353.42
448.43	315.97
448.62	421.30
448.80	423.64
448.99	482.15
449.17	372.15
449.36	414.27
449.54	421.30
449.73	292.57
449.91	416.62
450.10	442.36
450.28	390.87
450.46	428.32
450.65	463.43
450.83	407.25
451.02	386.19
451.20	353.42
451.39	383.85
451.57	367.46
451.76	381.51
451.94	393.21
452.13	444.70
452.31	484.49
452.49	437.68
452.68	397.89
452.86	463.43
453.05	468.11
453.23	388.53
453.42	390.87
453.60	411.93
453.78	409.59
453.97	400.23
454.15	374.49
454.34	393.21
454.52	425.98
454.70	465.77
454.89	437.68
455.07	433.00
455.26	414.27
455.44	423.64
455.62	418.96
455.81	444.70
455.99	496.19
456.17	463.43
456.36	437.68
456.54	414.27
456.73	393.21
456.91	463.43
457.09	372.15
457.28	444.70
457.46	440.02
457.64	444.70
457.83	418.96
458.01	425.98
458.19	472.79
458.38	381.51
458.56	468.11
458.74	409.59
458.93	458.74
459.11	454.06
459.29	444.70
459.48	402.57
459.66	433.00
459.84	456.40
460.03	402.57
460.21	491.51
460.39	367.46
460.57	435.34
460.76	463.43
460.94	365.12
461.12	428.32
461.31	489.17
461.49	369.80
461.67	409.59
461.85	421.30
462.04	386.19
462.22	774.72
462.40	421.30
462.59	409.59
462.77	395.55
462.95	451.72
463.13	395.55
463.32	402.57
463.50	418.96
463.68	444.70
463.86	376.83
464.05	428.32
464.23	444.70
464.41	447.04
464.59	465.77
464.78	327.68
464.96	404.91
465.14	365.12
465.32	430.66
465.50	440.02
465.69	475.13
465.87	444.70
466.05	374.49
466.23	353.42
466.41	430.66
466.60	334.70
466.78	442.36
466.96	416.62
467.14	421.30
467.32	465.77
467.51	421.30
467.69	351.08
467.87	472.79
468.05	390.87
468.23	449.38
468.41	458.74
468.60	447.04
468.78	433.00
468.96	451.72
469.14	454.06
469.32	400.23
469.50	458.74
469.69	447.04
469.87	458.74
470.05	428.32
470.23	433.00
470.41	374.49
470.59	437.68
470.77	418.96
470.95	397.89
471.14	447.04
471.32	388.53
471.50	414.27
471.68	430.66
471.86	306.61
472.04	442.36
472.22	433.00
472.40	435.34
472.58	351.08
472.77	451.72
472.95	381.51
473.13	435.34
473.31	411.93
473.49	440.02
473.67	386.19
473.85	395.55
474.03	411.93
474.21	418.96
474.39	451.72
474.57	472.79
474.75	400.23
474.93	414.27
475.12	379.17
475.30	395.55
475.48	428.32
475.66	409.59
475.84	416.62
476.02	395.55
476.20	416.62
476.38	416.62
476.56	444.70
476.74	409.59
476.92	411.93
477.10	372.15
477.28	461.09
477.46	428.32
477.64	470.45
477.82	472.79
478.00	418.96
478.18	430.66
478.36	440.02
478.54	463.43
478.72	475.13
478.90	407.25
479.08	437.68
479.26	428.32
479.44	437.68
479.62	397.89
479.80	414.27
479.98	397.89
480.16	362.78
480.34	465.77
480.52	376.83
480.70	337.04
480.88	351.08
481.06	379.17
481.24	367.46
481.41	437.68
481.59	402.57
481.77	435.34
481.95	421.30
482.13	397.89
482.31	418.96
482.49	365.12
482.67	414.27
482.85	456.40
483.03	435.34
483.21	421.30
483.39	388.53
483.57	456.40
483.74	411.93
483.92	376.83
484.10	397.89
484.28	430.66
484.46	428.32
484.64	470.45
484.82	447.04
485.00	404.91
485.18	397.89
485.35	381.51
485.53	435.34
485.71	425.98
485.89	383.85
486.07	390.87
486.25	472.79
486.43	423.64
486.61	372.15
486.78	477.47
486.96	388.53
487.14	376.83
487.32	393.21
487.50	486.83
487.68	465.77
487.85	433.00
488.03	449.38
488.21	386.19
488.39	404.91
488.57	454.06
488.75	388.53
488.92	482.15
489.10	468.11
489.28	435.34
489.46	379.17
489.64	425.98
489.81	498.53
489.99	337.04
490.17	376.83
490.35	465.77
490.53	360.44
490.70	416.62
490.88	463.43
491.06	358.10
491.24	388.53
491.41	451.72
491.59	449.38
491.77	425.98
491.95	386.19
492.13	463.43
492.30	421.30
492.48	458.74
492.66	435.34
492.84	374.49
493.01	402.57
493.19	390.87
493.37	454.06
493.54	365.12
493.72	418.96
493.90	365.12
494.08	437.68
494.25	404.91
494.43	470.45
494.61	390.87
494.79	376.83
494.96	337.04
495.14	395.55
495.32	463.43
495.49	449.38
495.67	423.64
495.85	421.30
496.02	344.06
496.20	402.57
496.38	400.23
496.55	379.17
496.73	489.17
496.91	372.15
497.09	381.51
497.26	440.02
497.44	416.62
497.62	374.49
497.79	409.59
497.97	440.02
498.14	327.68
498.32	416.62
498.50	409.59
498.67	437.68
498.85	402.57
499.03	458.74
499.20	376.83
499.38	369.80
499.56	400.23
499.73	465.77
499.91	447.04
500.08	447.04
500.26	409.59
500.44	393.21
500.61	461.09
500.79	341.72
500.97	421.30
501.14	500.87
501.32	447.04
501.49	418.96
501.67	479.81
501.84	414.27
502.02	435.34
502.20	397.89
502.37	416.62
502.55	437.68
502.72	423.64
502.90	461.09
503.07	423.64
503.25	437.68
503.43	390.87
503.60	491.51
503.78	353.42
503.95	435.34
504.13	423.64
504.30	433.00
504.48	421.30
504.65	416.62
504.83	393.21
505.01	425.98
505.18	374.49
505.36	369.80
505.53	374.49
505.71	390.87
505.88	475.13
506.06	463.43
506.23	437.68
506.41	360.44
506.58	430.66
506.76	414.27
506.93	341.72
507.11	411.93
507.28	442.36
507.46	397.89
507.63	449.38
507.81	376.83
507.98	418.96
508.16	442.36
508.33	397.89
508.50	454.06
508.68	381.51
508.85	393.21
509.03	395.55
509.20	421.30
509.38	468.11
509.55	449.38
509.73	395.55
509.90	449.38
510.08	388.53
510.25	458.74
510.42	404.91
510.60	381.51
510.77	383.85
510.95	435.34
511.12	435.34
511.30	475.13
511.47	430.66
511.64	393.21
511.82	456.40
511.99	372.15
512.17	402.57
512.34	404.91
512.51	367.46
512.69	388.53
512.86	461.09
513.04	482.15
513.21	393.21
513.38	418.96
513.56	404.91
513.73	418.96
513.90	416.62
514.08	393.21
514.25	409.59
514.43	428.32
514.60	360.44
514.77	379.17
514.95	418.96
515.12	353.42
515.29	390.87
515.47	325.33
515.64	339.38
515.81	348.74
515.99	418.96
516.16	486.83
516.33	374.49
516.51	381.51
516.68	409.59
516.85	425.98
517.03	388.53
517.20	374.49
517.37	407.25
517.54	402.57
517.72	355.76
517.89	437.68
518.06	395.55
518.24	393.21
518.41	440.02
518.58	418.96
518.75	435.34
518.93	416.62
519.10	430.66
519.27	451.72
519.45	433.00
519.62	430.66
519.79	454.06
519.96	369.80
520.14	400.23
520.31	477.47
520.48	421.30
520.65	421.30
520.83	472.79
521.00	381.51
521.17	400.23
521.34	418.96
521.52	428.32
521.69	409.59
521.86	451.72
522.03	407.25
522.20	496.19
522.38	414.27
522.55	477.47
522.72	433.00
522.89	404.91
523.07	468.11
523.24	477.47
523.41	477.47
523.58	451.72
523.75	479.81
523.92	353.42
524.10	404.91
524.27	425.98
524.44	374.49
524.61	407.25
524.78	411.93
524.96	442.36
525.13	437.68
525.30	409.59
525.47	407.25
525.64	475.13
525.81	425.98
525.98	367.46
526.16	418.96
526.33	454.06
526.50	435.34
526.67	372.15
526.84	411.93
527.01	400.23
527.18	447.04
527.36	435.34
527.53	404.91
527.70	444.70
527.87	486.83
528.04	496.19
528.21	327.68
528.38	435.34
528.55	510.24
528.72	465.77
528.89	442.36
529.07	479.81
529.24	409.59
529.41	465.77
529.58	454.06
529.75	404.91
529.92	442.36
530.09	402.57
530.26	435.34
530.43	395.55
530.60	351.08
530.77	430.66
530.94	475.13
531.11	414.27
531.28	421.30
531.46	330.02
531.63	390.87
531.80	411.93
531.97	383.85
532.14	409.59
532.31	489.17
532.48	416.62
532.65	351.08
532.82	416.62
532.99	430.66
533.16	435.34
533.33	390.87
533.50	367.46
533.67	344.06
533.84	360.44
534.01	362.78
534.18	442.36
534.35	472.79
534.52	418.96
534.69	379.17
534.86	379.17
535.03	442.36
535.20	414.27
535.37	470.45
535.54	358.10
535.71	372.15
535.88	430.66
536.05	397.89
536.22	449.38
536.38	416.62
536.55	428.32
536.72	416.62
536.89	369.80
537.06	404.91
537.23	322.99
537.40	421.30
537.57	435.34
537.74	498.53
537.91	461.09
538.08	451.72
538.25	381.51
538.42	322.99
538.59	330.02
538.75	435.34
538.92	442.36
539.09	472.79
539.26	468.11
539.43	421.30
539.60	409.59
539.77	414.27
539.94	400.23
540.11	418.96
540.28	475.13
540.44	519.60
540.61	440.02
540.78	447.04
540.95	411.93
541.12	444.70
541.29	390.87
541.46	456.40
541.62	416.62
541.79	404.91
541.96	489.17
542.13	397.89
542.30	365.12
542.47	367.46
542.63	435.34
542.80	374.49
542.97	440.02
543.14	468.11
543.31	433.00
543.48	400.23
543.64	395.55
543.81	461.09
543.98	411.93
544.15	348.74
544.32	435.34
544.48	402.57
544.65	465.77
544.82	388.53
544.99	430.66
545.16	407.25
545.32	433.00
545.49	423.64
545.66	348.74
545.83	416.62
546.00	428.32
546.16	416.62
546.33	360.44
546.50	407.25
546.67	409.59
546.83	418.96
547.00	416.62
547.17	397.89
547.34	381.51
547.50	444.70
547.67	393.21
547.84	348.74
548.00	468.11
548.17	407.25
548.34	402.57
548.51	475.13
548.67	444.70
548.84	451.72
549.01	489.17
549.18	444.70
549.34	421.30
549.51	421.30
549.68	442.36
549.84	463.43
550.01	344.06
550.18	449.38
550.34	430.66
550.51	421.30
550.68	411.93
550.84	468.11
551.01	372.15
551.18	428.32
551.34	414.27
551.51	409.59
551.68	386.19
551.84	428.32
552.01	444.70
552.18	409.59
552.34	463.43
552.51	472.79
552.68	409.59
552.84	393.21
553.01	447.04
553.18	416.62
553.34	479.81
553.51	416.62
553.67	440.02
553.84	421.30
554.01	425.98
554.17	491.51
554.34	449.38
554.51	341.72
554.67	470.45
554.84	477.47
555.00	418.96
555.17	393.21
555.33	402.57
555.50	468.11
555.67	451.72
555.83	397.89
556.00	444.70
556.16	550.03
556.33	498.53
556.50	425.98
556.66	479.81
556.83	404.91
556.99	416.62
557.16	444.70
557.32	468.11
557.49	477.47
557.65	430.66
557.82	376.83
557.98	362.78
558.15	430.66
558.32	437.68
558.48	418.96
558.65	409.59
558.81	395.55
558.98	376.83
559.14	423.64
559.31	393.21
559.47	440.02
559.64	400.23
559.80	440.02
559.97	376.83
560.13	346.40
560.30	386.19
560.46	444.70
560.63	397.89
560.79	428.32
560.96	386.19
561.12	423.64
561.29	367.46
561.45	444.70
561.61	369.80
561.78	437.68
561.94	440.02
562.11	402.57
562.27	414.27
562.44	402.57
562.60	423.64
562.77	421.30
562.93	435.34
563.10	430.66
563.26	418.96
563.42	400.23
563.59	423.64
563.75	465.77
563.92	430.66
564.08	411.93
564.24	447.04
564.41	444.70
564.57	435.34
564.74	425.98
564.90	447.04
565.07	465.77
565.23	400.23
565.39	365.12
565.56	411.93
565.72	414.27
565.88	418.96
566.05	444.70
566.21	409.59
566.38	390.87
566.54	437.68
566.70	416.62
566.87	433.00
567.03	433.00
567.19	442.36
567.36	411.93
567.52	383.85
567.68	388.53
567.85	386.19
568.01	421.30
568.17	362.78
568.34	285.55
568.50	531.30
568.66	428.32
568.83	475.13
568.99	425.98
569.15	404.91
569.32	341.72
569.48	437.68
569.64	404.91
569.81	430.66
569.97	414.27
570.13	475.13
570.30	402.57
570.46	360.44
570.62	397.89
570.78	400.23
570.95	430.66
571.11	411.93
571.27	454.06
571.43	367.46
571.60	311.29
571.76	409.59
571.92	440.02
572.09	393.21
572.25	376.83
572.41	465.77
572.57	390.87
572.74	425.98
572.90	416.62
573.06	409.59
573.22	454.06
573.38	454.06
573.55	383.85
573.71	454.06
573.87	418.96
574.03	383.85
574.20	454.06
574.36	404.91
574.52	414.27
574.68	393.21
574.84	388.53
575.01	425.98
575.17	421.30
575.33	386.19
575.49	428.32
575.65	367.46
575.82	435.34
575.98	414.27
576.14	381.51
576.30	449.38
576.46	477.47
576.62	421.30
576.79	428.32
576.95	449.38
577.11	402.57
577.27	407.25
577.43	461.09
577.59	430.66
577.75	521.94
577.92	367.46
578.08	379.17
578.24	428.32
578.40	468.11
578.56	451.72
578.72	442.36
578.88	400.23
579.04	447.04
579.21	447.04
579.37	418.96
579.53	423.64
579.69	430.66
579.85	421.30
580.01	397.89
580.17	365.12
580.33	454.06
580.49	376.83
580.65	470.45
580.82	425.98
580.98	433.00
581.14	407.25
581.30	433.00
581.46	428.32
581.62	358.10
581.78	404.91
581.94	330.02
582.10	468.11
582.26	430.66
582.42	400.23
582.58	416.62
582.74	390.87
582.90	447.04
583.06	451.72
583.22	447.04
583.38	421.30
583.54	372.15
583.70	383.85
583.86	351.08
584.02	381.51
584.18	482.15
584.34	435.34
584.50	442.36
584.66	456.40
584.82	414.27
584.98	451.72
585.14	390.87
585.30	451.72
585.46	379.17
585.62	381.51
585.78	395.55
585.94	458.74
586.10	330.02
586.26	437.68
586.42	447.04
586.58	397.89
586.74	425.98
586.90	472.79
587.06	381.51
587.22	428.32
587.38	423.64
587.54	383.85
587.70	442.36
587.86	425.98
588.02	381.51
588.18	454.06
588.34	400.23
588.49	423.64
588.65	442.36
588.81	404.91
588.97	400.23
589.13	360.44
589.29	397.89
589.45	510.24
589.61	451.72
589.77	472.79
589.93	409.59
590.08	374.49
590.24	430.66
590.40	383.85
590.56	482.15
590.72	425.98
590.88	454.06
591.04	423.64
591.20	421.30
591.35	470.45
591.51	437.68
591.67	428.32
591.83	337.04
591.99	381.51
592.15	442.36
592.31	461.09
592.46	411.93
592.62	437.68
592.78	390.87
592.94	353.42
593.10	402.57
593.26	355.76
593.41	372.15
593.57	468.11
593.73	440.02
593.89	397.89
594.05	388.53
594.20	444.70
594.36	444.70
594.52	421.30
594.68	360.44
594.84	386.19
594.99	444.70
595.15	435.34
595.31	463.43
595.47	477.47
595.62	411.93
595.78	458.74
595.94	493.85
596.10	447.04
596.25	440.02
596.41	430.66
596.57	521.94
596.73	428.32
596.88	491.51
597.04	442.36
597.20	402.57
597.36	404.91
597.51	425.98
597.67	475.13
597.83	402.57
597.99	500.87
598.14	428.32
598.30	430.66
598.46	430.66
598.61	475.13
598.77	423.64
598.93	374.49
599.09	437.68
599.24	440.02
599.40	475.13
599.56	416.62
599.71	470.45
599.87	491.51
600.03	393.21
600.18	444.70
600.34	472.79
600.50	374.49
600.65	435.34
600.81	477.47
600.97	409.59
601.12	449.38
601.28	416.62
601.44	461.09
601.59	402.57
601.75	402.57
601.91	393.21
602.06	510.24
602.22	493.85
602.37	369.80
602.53	416.62
602.69	458.74
602.84	430.66
603.00	447.04
603.16	491.51
603.31	400.23
603.47	440.02
603.62	489.17
603.78	437.68
603.94	411.93
604.09	414.27
604.25	397.89
604.40	390.87
604.56	428.32
604.71	468.11
604.87	388.53
605.03	383.85
605.18	409.59
605.34	409.59
605.49	463.43
605.65	430.66
605.80	411.93
605.96	348.74
606.12	404.91
606.27	386.19
606.43	407.25
606.58	337.04
606.74	400.23
606.89	421.30
607.05	463.43
607.20	414.27
607.36	507.90
607.51	435.34
607.67	411.93
607.82	465.77
607.98	409.59
608.13	376.83
608.29	428.32
608.44	430.66
608.60	521.94
608.75	386.19
608.91	400.23
609.06	418.96
609.22	437.68
609.37	355.76
609.53	463.43
609.68	365.12
609.84	379.17
609.99	348.74
610.15	425.98
