SpectraSuite Data File
++++++++++++++++++++++++++++++++++++
Date: Fri Oct 25 12:11:39 EDT 2013
User: price-jones
Dark Spectrum Present: No
Reference Spectrum Present: No
Number of Sampled Component Spectra: 1
Spectrometers: USB2+H05261
Integration Time (usec): 100000 (USB2+H05261)
Spectra Averaged: 1 (USB2+H05261)
Boxcar Smoothing: 0 (USB2+H05261)
Correct for Electrical Dark: No (USB2+H05261)
Strobe/Lamp Enabled: No (USB2+H05261)
Correct for Detector Non-linearity: No (USB2+H05261)
Correct for Stray Light: No (USB2+H05261)
Number of Pixels in Processed Spectrum: 2048
>>>>>Begin Processed Spectral Data<<<<<
365.73	367.46
365.92	367.46
366.12	367.46
366.32	236.39
366.52	212.99
366.72	304.27
366.91	215.33
367.11	273.84
367.31	234.05
367.51	168.52
367.70	292.57
367.90	348.74
368.10	250.44
368.30	313.63
368.49	287.89
368.69	184.90
368.89	315.97
369.09	236.39
369.28	266.82
369.48	241.08
369.68	264.48
369.87	283.20
370.07	372.15
370.27	332.36
370.47	301.93
370.66	320.65
370.86	341.72
371.06	278.52
371.25	400.23
371.45	416.62
371.65	351.08
371.84	341.72
372.04	381.51
372.24	409.59
372.44	348.74
372.63	440.02
372.83	447.04
373.03	477.47
373.22	475.13
373.42	428.32
373.62	334.70
373.81	423.64
374.01	369.80
374.21	402.57
374.40	437.68
374.60	472.79
374.79	374.49
374.99	440.02
375.19	491.51
375.38	425.98
375.58	369.80
375.78	421.30
375.97	346.40
376.17	451.72
376.37	411.93
376.56	390.87
376.76	351.08
376.95	381.51
377.15	440.02
377.35	425.98
377.54	386.19
377.74	442.36
377.93	493.85
378.13	418.96
378.33	404.91
378.52	416.62
378.72	374.49
378.91	440.02
379.11	428.32
379.31	320.65
379.50	315.97
379.70	500.87
379.89	472.79
380.09	372.15
380.28	365.12
380.48	433.00
380.68	365.12
380.87	409.59
381.07	400.23
381.26	397.89
381.46	376.83
381.65	463.43
381.85	358.10
382.04	407.25
382.24	500.87
382.43	465.77
382.63	423.64
382.83	428.32
383.02	381.51
383.22	383.85
383.41	472.79
383.61	423.64
383.80	442.36
384.00	409.59
384.19	416.62
384.39	465.77
384.58	423.64
384.78	404.91
384.97	404.91
385.17	388.53
385.36	320.65
385.56	353.42
385.75	365.12
385.95	414.27
386.14	381.51
386.34	414.27
386.53	414.27
386.72	447.04
386.92	402.57
387.11	428.32
387.31	383.85
387.50	411.93
387.70	414.27
387.89	425.98
388.09	390.87
388.28	360.44
388.48	440.02
388.67	461.09
388.86	451.72
389.06	395.55
389.25	374.49
389.45	414.27
389.64	372.15
389.84	386.19
390.03	470.45
390.22	393.21
390.42	395.55
390.61	411.93
390.81	330.02
391.00	416.62
391.19	449.38
391.39	437.68
391.58	437.68
391.78	430.66
391.97	393.21
392.16	372.15
392.36	383.85
392.55	465.77
392.75	355.76
392.94	386.19
393.13	407.25
393.33	376.83
393.52	433.00
393.71	425.98
393.91	463.43
394.10	365.12
394.29	395.55
394.49	367.46
394.68	425.98
394.88	468.11
395.07	470.45
395.26	444.70
395.46	411.93
395.65	421.30
395.84	435.34
396.04	489.17
396.23	400.23
396.42	442.36
396.62	437.68
396.81	435.34
397.00	376.83
397.19	395.55
397.39	388.53
397.58	409.59
397.77	416.62
397.97	379.17
398.16	404.91
398.35	423.64
398.55	456.40
398.74	386.19
398.93	397.89
399.12	404.91
399.32	404.91
399.51	470.45
399.70	418.96
399.90	416.62
400.09	397.89
400.28	449.38
400.47	425.98
400.67	374.49
400.86	433.00
401.05	470.45
401.24	463.43
401.44	395.55
401.63	388.53
401.82	407.25
402.01	379.17
402.21	393.21
402.40	365.12
402.59	386.19
402.78	428.32
402.97	430.66
403.17	447.04
403.36	379.17
403.55	372.15
403.74	344.06
403.93	365.12
404.13	414.27
404.32	383.85
404.51	418.96
404.70	430.66
404.89	414.27
405.09	421.30
405.28	409.59
405.47	498.53
405.66	411.93
405.85	397.89
406.05	390.87
406.24	400.23
406.43	395.55
406.62	421.30
406.81	482.15
407.00	449.38
407.20	407.25
407.39	397.89
407.58	451.72
407.77	442.36
407.96	404.91
408.15	454.06
408.34	379.17
408.54	355.76
408.73	414.27
408.92	407.25
409.11	425.98
409.30	451.72
409.49	433.00
409.68	409.59
409.87	456.40
410.07	358.10
410.26	437.68
410.45	362.78
410.64	458.74
410.83	390.87
411.02	362.78
411.21	454.06
411.40	428.32
411.59	383.85
411.78	369.80
411.98	414.27
412.17	372.15
412.36	379.17
412.55	393.21
412.74	498.53
412.93	360.44
413.12	444.70
413.31	353.42
413.50	367.46
413.69	433.00
413.88	456.40
414.07	468.11
414.26	400.23
414.45	430.66
414.64	390.87
414.83	358.10
415.02	454.06
415.22	482.15
415.41	351.08
415.60	376.83
415.79	411.93
415.98	423.64
416.17	454.06
416.36	360.44
416.55	435.34
416.74	458.74
416.93	372.15
417.12	386.19
417.31	402.57
417.50	379.17
417.69	414.27
417.88	383.85
418.07	409.59
418.26	344.06
418.45	461.09
418.64	472.79
418.83	463.43
419.02	444.70
419.21	418.96
419.39	444.70
419.58	372.15
419.77	322.99
419.96	407.25
420.15	334.70
420.34	411.93
420.53	421.30
420.72	428.32
420.91	463.43
421.10	388.53
421.29	393.21
421.48	407.25
421.67	423.64
421.86	407.25
422.05	369.80
422.24	379.17
422.43	346.40
422.61	407.25
422.80	421.30
422.99	395.55
423.18	400.23
423.37	362.78
423.56	458.74
423.75	433.00
423.94	346.40
424.13	351.08
424.32	465.77
424.50	425.98
424.69	379.17
424.88	388.53
425.07	369.80
425.26	381.51
425.45	430.66
425.64	374.49
425.83	369.80
426.01	475.13
426.20	451.72
426.39	339.38
426.58	386.19
426.77	512.58
426.96	421.30
427.15	458.74
427.33	521.94
427.52	461.09
427.71	395.55
427.90	386.19
428.09	369.80
428.28	395.55
428.46	407.25
428.65	461.09
428.84	411.93
429.03	454.06
429.22	442.36
429.40	341.72
429.59	365.12
429.78	435.34
429.97	475.13
430.16	409.59
430.34	411.93
430.53	416.62
430.72	418.96
430.91	447.04
431.10	435.34
431.28	397.89
431.47	430.66
431.66	454.06
431.85	409.59
432.03	344.06
432.22	440.02
432.41	362.78
432.60	482.15
432.79	404.91
432.97	454.06
433.16	435.34
433.35	435.34
433.54	369.80
433.72	360.44
433.91	390.87
434.10	365.12
434.28	425.98
434.47	341.72
434.66	393.21
434.85	390.87
435.03	383.85
435.22	472.79
435.41	372.15
435.59	353.42
435.78	381.51
435.97	402.57
436.16	442.36
436.34	369.80
436.53	425.98
436.72	517.26
436.90	451.72
437.09	395.55
437.28	402.57
437.46	411.93
437.65	447.04
437.84	463.43
438.02	365.12
438.21	402.57
438.40	421.30
438.58	470.45
438.77	425.98
438.96	444.70
439.14	327.68
439.33	390.87
439.52	423.64
439.70	395.55
439.89	381.51
440.08	421.30
440.26	489.17
440.45	416.62
440.63	372.15
440.82	463.43
441.01	430.66
441.19	383.85
441.38	442.36
441.57	393.21
441.75	444.70
441.94	442.36
442.12	442.36
442.31	433.00
442.50	463.43
442.68	374.49
442.87	416.62
443.05	407.25
443.24	465.77
443.43	416.62
443.61	416.62
443.80	365.12
443.98	407.25
444.17	428.32
444.35	449.38
444.54	456.40
444.73	402.57
444.91	456.40
445.10	374.49
445.28	397.89
445.47	400.23
445.65	477.47
445.84	397.89
446.02	325.33
446.21	383.85
446.39	409.59
446.58	414.27
446.77	390.87
446.95	404.91
447.14	388.53
447.32	442.36
447.51	409.59
447.69	395.55
447.88	404.91
448.06	472.79
448.25	318.31
448.43	442.36
448.62	344.06
448.80	425.98
448.99	442.36
449.17	433.00
449.36	451.72
449.54	517.26
449.73	437.68
449.91	388.53
450.10	430.66
450.28	444.70
450.46	407.25
450.65	461.09
450.83	479.81
451.02	493.85
451.20	390.87
451.39	369.80
451.57	468.11
451.76	379.17
451.94	428.32
452.13	442.36
452.31	440.02
452.49	433.00
452.68	367.46
452.86	411.93
453.05	482.15
453.23	447.04
453.42	315.97
453.60	402.57
453.78	390.87
453.97	440.02
454.15	430.66
454.34	383.85
454.52	397.89
454.70	465.77
454.89	433.00
455.07	383.85
455.26	334.70
455.44	425.98
455.62	397.89
455.81	479.81
455.99	449.38
456.17	437.68
456.36	372.15
456.54	379.17
456.73	355.76
456.91	444.70
457.09	444.70
457.28	390.87
457.46	360.44
457.64	493.85
457.83	362.78
458.01	334.70
458.19	449.38
458.38	447.04
458.56	414.27
458.74	430.66
458.93	437.68
459.11	461.09
459.29	437.68
459.48	463.43
459.66	414.27
459.84	435.34
460.03	411.93
460.21	404.91
460.39	475.13
460.57	479.81
460.76	411.93
460.94	411.93
461.12	461.09
461.31	454.06
461.49	404.91
461.67	451.72
461.85	435.34
462.04	442.36
462.22	837.91
462.40	428.32
462.59	447.04
462.77	451.72
462.95	468.11
463.13	444.70
463.32	470.45
463.50	465.77
463.68	383.85
463.86	456.40
464.05	442.36
464.23	381.51
464.41	411.93
464.59	400.23
464.78	381.51
464.96	449.38
465.14	442.36
465.32	351.08
465.50	428.32
465.69	430.66
465.87	381.51
466.05	472.79
466.23	367.46
466.41	423.64
466.60	440.02
466.78	411.93
466.96	442.36
467.14	372.15
467.32	430.66
467.51	365.12
467.69	346.40
467.87	440.02
468.05	390.87
468.23	442.36
468.41	489.17
468.60	407.25
468.78	409.59
468.96	465.77
469.14	416.62
469.32	353.42
469.50	365.12
469.69	353.42
469.87	397.89
470.05	383.85
470.23	411.93
470.41	435.34
470.59	381.51
470.77	440.02
470.95	374.49
471.14	414.27
471.32	444.70
471.50	477.47
471.68	365.12
471.86	449.38
472.04	402.57
472.22	451.72
472.40	390.87
472.58	421.30
472.77	332.36
472.95	402.57
473.13	451.72
473.31	411.93
473.49	337.04
473.67	451.72
473.85	519.60
474.03	428.32
474.21	451.72
474.39	369.80
474.57	486.83
474.75	395.55
474.93	437.68
475.12	351.08
475.30	383.85
475.48	472.79
475.66	386.19
475.84	379.17
476.02	355.76
476.20	414.27
476.38	440.02
476.56	442.36
476.74	388.53
476.92	482.15
477.10	390.87
477.28	463.43
477.46	395.55
477.64	433.00
477.82	442.36
478.00	418.96
478.18	416.62
478.36	374.49
478.54	435.34
478.72	461.09
478.90	442.36
479.08	486.83
479.26	461.09
479.44	416.62
479.62	428.32
479.80	433.00
479.98	416.62
480.16	393.21
480.34	358.10
480.52	407.25
480.70	454.06
480.88	428.32
481.06	458.74
481.24	423.64
481.41	449.38
481.59	470.45
481.77	489.17
481.95	404.91
482.13	463.43
482.31	479.81
482.49	348.74
482.67	388.53
482.85	447.04
483.03	435.34
483.21	435.34
483.39	449.38
483.57	341.72
483.74	430.66
483.92	428.32
484.10	423.64
484.28	442.36
484.46	437.68
484.64	376.83
484.82	386.19
485.00	411.93
485.18	383.85
485.35	353.42
485.53	407.25
485.71	486.83
485.89	409.59
486.07	404.91
486.25	456.40
486.43	379.17
486.61	397.89
486.78	454.06
486.96	433.00
487.14	425.98
487.32	418.96
487.50	421.30
487.68	461.09
487.85	437.68
488.03	374.49
488.21	421.30
488.39	381.51
488.57	447.04
488.75	411.93
488.92	514.92
489.10	404.91
489.28	463.43
489.46	440.02
489.64	402.57
489.81	374.49
489.99	355.76
490.17	407.25
490.35	425.98
490.53	372.15
490.70	358.10
490.88	407.25
491.06	337.04
491.24	411.93
491.41	456.40
491.59	430.66
491.77	404.91
491.95	437.68
492.13	437.68
492.30	435.34
492.48	379.17
492.66	386.19
492.84	355.76
493.01	353.42
493.19	407.25
493.37	482.15
493.54	395.55
493.72	393.21
493.90	383.85
494.08	386.19
494.25	421.30
494.43	346.40
494.61	430.66
494.79	395.55
494.96	397.89
495.14	418.96
495.32	437.68
495.49	421.30
495.67	393.21
495.85	465.77
496.02	435.34
496.20	402.57
496.38	454.06
496.55	482.15
496.73	400.23
496.91	374.49
497.09	337.04
497.26	386.19
497.44	423.64
497.62	402.57
497.79	346.40
497.97	479.81
498.14	442.36
498.32	435.34
498.50	388.53
498.67	402.57
498.85	409.59
499.03	372.15
499.20	444.70
499.38	409.59
499.56	330.02
499.73	402.57
499.91	484.49
500.08	458.74
500.26	463.43
500.44	348.74
500.61	454.06
500.79	388.53
500.97	451.72
501.14	458.74
501.32	477.47
501.49	395.55
501.67	430.66
501.84	444.70
502.02	344.06
502.20	409.59
502.37	325.33
502.55	381.51
502.72	367.46
502.90	409.59
503.07	360.44
503.25	433.00
503.43	423.64
503.60	395.55
503.78	447.04
503.95	444.70
504.13	388.53
504.30	409.59
504.48	425.98
504.65	411.93
504.83	425.98
505.01	470.45
505.18	444.70
505.36	435.34
505.53	425.98
505.71	433.00
505.88	365.12
506.06	322.99
506.23	411.93
506.41	456.40
506.58	440.02
506.76	423.64
506.93	402.57
507.11	437.68
507.28	449.38
507.46	430.66
507.63	386.19
507.81	477.47
507.98	421.30
508.16	435.34
508.33	463.43
508.50	418.96
508.68	358.10
508.85	447.04
509.03	409.59
509.20	442.36
509.38	374.49
509.55	374.49
509.73	433.00
509.90	418.96
510.08	418.96
510.25	468.11
510.42	423.64
510.60	475.13
510.77	418.96
510.95	482.15
511.12	386.19
511.30	479.81
511.47	404.91
511.64	482.15
511.82	372.15
511.99	400.23
512.17	353.42
512.34	360.44
512.51	449.38
512.69	468.11
512.86	430.66
513.04	477.47
513.21	379.17
513.38	376.83
513.56	454.06
513.73	381.51
513.90	421.30
514.08	400.23
514.25	470.45
514.43	447.04
514.60	482.15
514.77	404.91
514.95	390.87
515.12	365.12
515.29	421.30
515.47	393.21
515.64	416.62
515.81	400.23
515.99	400.23
516.16	468.11
516.33	510.24
516.51	430.66
516.68	400.23
516.85	461.09
517.03	369.80
517.20	428.32
517.37	414.27
517.54	411.93
517.72	362.78
517.89	414.27
518.06	468.11
518.24	465.77
518.41	409.59
518.58	355.76
518.75	433.00
518.93	437.68
519.10	362.78
519.27	358.10
519.45	423.64
519.62	496.19
519.79	409.59
519.96	475.13
520.14	372.15
520.31	447.04
520.48	400.23
520.65	414.27
520.83	430.66
521.00	468.11
521.17	404.91
521.34	411.93
521.52	409.59
521.69	407.25
521.86	346.40
522.03	402.57
522.20	397.89
522.38	463.43
522.55	400.23
522.72	390.87
522.89	395.55
523.07	475.13
523.24	470.45
523.41	372.15
523.58	372.15
523.75	369.80
523.92	374.49
524.10	402.57
524.27	372.15
524.44	423.64
524.61	416.62
524.78	442.36
524.96	395.55
525.13	477.47
525.30	557.05
525.47	409.59
525.64	393.21
525.81	479.81
525.98	376.83
526.16	322.99
526.33	400.23
526.50	397.89
526.67	465.77
526.84	477.47
527.01	510.24
527.18	423.64
527.36	400.23
527.53	393.21
527.70	367.46
527.87	397.89
528.04	463.43
528.21	404.91
528.38	374.49
528.55	386.19
528.72	402.57
528.89	468.11
529.07	447.04
529.24	376.83
529.41	381.51
529.58	372.15
529.75	409.59
529.92	360.44
530.09	402.57
530.26	397.89
530.43	397.89
530.60	421.30
530.77	435.34
530.94	505.56
531.11	470.45
531.28	411.93
531.46	423.64
531.63	465.77
531.80	451.72
531.97	395.55
532.14	451.72
532.31	468.11
532.48	372.15
532.65	437.68
532.82	447.04
532.99	344.06
533.16	411.93
533.33	454.06
533.50	433.00
533.67	395.55
533.84	465.77
534.01	416.62
534.18	376.83
534.35	402.57
534.52	402.57
534.69	372.15
534.86	482.15
535.03	444.70
535.20	411.93
535.37	344.06
535.54	440.02
535.71	411.93
535.88	418.96
536.05	440.02
536.22	400.23
536.38	416.62
536.55	404.91
536.72	470.45
536.89	400.23
537.06	341.72
537.23	423.64
537.40	358.10
537.57	376.83
537.74	437.68
537.91	407.25
538.08	543.00
538.25	472.79
538.42	428.32
538.59	437.68
538.75	341.72
538.92	430.66
539.09	447.04
539.26	367.46
539.43	498.53
539.60	409.59
539.77	386.19
539.94	393.21
540.11	479.81
540.28	449.38
540.44	402.57
540.61	402.57
540.78	402.57
540.95	465.77
541.12	395.55
541.29	421.30
541.46	442.36
541.62	386.19
541.79	390.87
541.96	449.38
542.13	402.57
542.30	372.15
542.47	423.64
542.63	397.89
542.80	433.00
542.97	491.51
543.14	442.36
543.31	397.89
543.48	397.89
543.64	500.87
543.81	500.87
543.98	404.91
544.15	407.25
544.32	425.98
544.48	414.27
544.65	376.83
544.82	369.80
544.99	351.08
545.16	486.83
545.32	418.96
545.49	402.57
545.66	444.70
545.83	383.85
546.00	390.87
546.16	489.17
546.33	390.87
546.50	404.91
546.67	397.89
546.83	428.32
547.00	505.56
547.17	374.49
547.34	388.53
547.50	390.87
547.67	477.47
547.84	430.66
548.00	456.40
548.17	433.00
548.34	395.55
548.51	407.25
548.67	423.64
548.84	407.25
549.01	397.89
549.18	393.21
549.34	428.32
549.51	451.72
549.68	418.96
549.84	407.25
550.01	444.70
550.18	465.77
550.34	461.09
550.51	348.74
550.68	512.58
550.84	507.90
551.01	411.93
551.18	416.62
551.34	379.17
551.51	461.09
551.68	456.40
551.84	400.23
552.01	341.72
552.18	390.87
552.34	421.30
552.51	355.76
552.68	449.38
552.84	461.09
553.01	404.91
553.18	423.64
553.34	393.21
553.51	346.40
553.67	402.57
553.84	465.77
554.01	428.32
554.17	402.57
554.34	454.06
554.51	491.51
554.67	470.45
554.84	507.90
555.00	442.36
555.17	430.66
555.33	404.91
555.50	447.04
555.67	456.40
555.83	470.45
556.00	456.40
556.16	489.17
556.33	475.13
556.50	416.62
556.66	437.68
556.83	454.06
556.99	407.25
557.16	362.78
557.32	442.36
557.49	454.06
557.65	404.91
557.82	423.64
557.98	418.96
558.15	374.49
558.32	397.89
558.48	437.68
558.65	465.77
558.81	404.91
558.98	411.93
559.14	444.70
559.31	503.22
559.47	393.21
559.64	425.98
559.80	397.89
559.97	433.00
560.13	545.34
560.30	386.19
560.46	404.91
560.63	414.27
560.79	430.66
560.96	447.04
561.12	407.25
561.29	407.25
561.45	390.87
561.61	381.51
561.78	468.11
561.94	416.62
562.11	447.04
562.27	433.00
562.44	454.06
562.60	440.02
562.77	374.49
562.93	411.93
563.10	365.12
563.26	456.40
563.42	458.74
563.59	425.98
563.75	400.23
563.92	395.55
564.08	416.62
564.24	451.72
564.41	404.91
564.57	475.13
564.74	369.80
564.90	500.87
565.07	379.17
565.23	463.43
565.39	428.32
565.56	327.68
565.72	374.49
565.88	393.21
566.05	421.30
566.21	325.33
566.38	425.98
566.54	454.06
566.70	468.11
566.87	449.38
567.03	386.19
567.19	416.62
567.36	418.96
567.52	409.59
567.68	477.47
567.85	433.00
568.01	348.74
568.17	425.98
568.34	341.72
568.50	421.30
568.66	407.25
568.83	454.06
568.99	491.51
569.15	400.23
569.32	449.38
569.48	402.57
569.64	341.72
569.81	372.15
569.97	447.04
570.13	407.25
570.30	510.24
570.46	421.30
570.62	493.85
570.78	362.78
570.95	463.43
571.11	421.30
571.27	461.09
571.43	425.98
571.60	458.74
571.76	418.96
571.92	372.15
572.09	440.02
572.25	465.77
572.41	444.70
572.57	411.93
572.74	428.32
572.90	498.53
573.06	418.96
573.22	411.93
573.38	428.32
573.55	430.66
573.71	372.15
573.87	430.66
574.03	423.64
574.20	430.66
574.36	437.68
574.52	416.62
574.68	449.38
574.84	479.81
575.01	456.40
575.17	484.49
575.33	514.92
575.49	418.96
575.65	346.40
575.82	463.43
575.98	491.51
576.14	369.80
576.30	379.17
576.46	397.89
576.62	423.64
576.79	437.68
576.95	486.83
577.11	421.30
577.27	404.91
577.43	472.79
577.59	510.24
577.75	383.85
577.92	428.32
578.08	447.04
578.24	379.17
578.40	341.72
578.56	458.74
578.72	482.15
578.88	458.74
579.04	393.21
579.21	395.55
579.37	437.68
579.53	334.70
579.69	416.62
579.85	428.32
580.01	379.17
580.17	365.12
580.33	416.62
580.49	332.36
580.65	353.42
580.82	437.68
580.98	374.49
581.14	423.64
581.30	461.09
581.46	482.15
581.62	437.68
581.78	447.04
581.94	496.19
582.10	355.76
582.26	404.91
582.42	376.83
582.58	486.83
582.74	414.27
582.90	402.57
583.06	454.06
583.22	388.53
583.38	418.96
583.54	454.06
583.70	388.53
583.86	362.78
584.02	440.02
584.18	456.40
584.34	383.85
584.50	416.62
584.66	339.38
584.82	344.06
584.98	414.27
585.14	388.53
585.30	402.57
585.46	451.72
585.62	451.72
585.78	393.21
585.94	468.11
586.10	430.66
586.26	365.12
586.42	472.79
586.58	409.59
586.74	390.87
586.90	475.13
587.06	414.27
587.22	414.27
587.38	428.32
587.54	395.55
587.70	477.47
587.86	386.19
588.02	355.76
588.18	393.21
588.34	423.64
588.49	397.89
588.65	383.85
588.81	411.93
588.97	402.57
589.13	414.27
589.29	388.53
589.45	454.06
589.61	421.30
589.77	365.12
589.93	454.06
590.08	372.15
590.24	372.15
590.40	447.04
590.56	468.11
590.72	367.46
590.88	430.66
591.04	411.93
591.20	390.87
591.35	461.09
591.51	435.34
591.67	411.93
591.83	386.19
591.99	379.17
592.15	468.11
592.31	386.19
592.46	430.66
592.62	461.09
592.78	411.93
592.94	428.32
593.10	402.57
593.26	440.02
593.41	458.74
593.57	376.83
593.73	447.04
593.89	404.91
594.05	491.51
594.20	484.49
594.36	425.98
594.52	379.17
594.68	400.23
594.84	418.96
594.99	456.40
595.15	390.87
595.31	376.83
595.47	425.98
595.62	416.62
595.78	418.96
595.94	449.38
596.10	458.74
596.25	409.59
596.41	369.80
596.57	416.62
596.73	397.89
596.88	372.15
597.04	444.70
597.20	388.53
597.36	458.74
597.51	404.91
597.67	428.32
597.83	339.38
597.99	447.04
598.14	409.59
598.30	447.04
598.46	414.27
598.61	404.91
598.77	433.00
598.93	367.46
599.09	393.21
599.24	395.55
599.40	468.11
599.56	463.43
599.71	388.53
599.87	433.00
600.03	395.55
600.18	433.00
600.34	425.98
600.50	451.72
600.65	358.10
600.81	416.62
600.97	393.21
601.12	430.66
601.28	440.02
601.44	409.59
601.59	449.38
601.75	430.66
601.91	425.98
602.06	444.70
602.22	528.96
602.37	409.59
602.53	428.32
602.69	411.93
602.84	376.83
603.00	418.96
603.16	470.45
603.31	440.02
603.47	374.49
603.62	425.98
603.78	421.30
603.94	428.32
604.09	374.49
604.25	407.25
604.40	421.30
604.56	543.00
604.71	440.02
604.87	386.19
605.03	493.85
605.18	425.98
605.34	402.57
605.49	367.46
605.65	402.57
605.80	367.46
605.96	456.40
606.12	472.79
606.27	454.06
606.43	402.57
606.58	449.38
606.74	444.70
606.89	395.55
607.05	400.23
607.20	465.77
607.36	440.02
607.51	437.68
607.67	458.74
607.82	477.47
607.98	435.34
608.13	507.90
608.29	414.27
608.44	472.79
608.60	454.06
608.75	430.66
608.91	442.36
609.06	461.09
609.22	449.38
609.37	390.87
609.53	372.15
609.68	400.23
609.84	411.93
609.99	414.27
610.15	465.77
