SpectraSuite Data File
++++++++++++++++++++++++++++++++++++
Date: Fri Oct 25 12:11:11 EDT 2013
User: price-jones
Dark Spectrum Present: No
Reference Spectrum Present: No
Number of Sampled Component Spectra: 1
Spectrometers: USB2+H05261
Integration Time (usec): 100000 (USB2+H05261)
Spectra Averaged: 1 (USB2+H05261)
Boxcar Smoothing: 0 (USB2+H05261)
Correct for Electrical Dark: No (USB2+H05261)
Strobe/Lamp Enabled: No (USB2+H05261)
Correct for Detector Non-linearity: No (USB2+H05261)
Correct for Stray Light: No (USB2+H05261)
Number of Pixels in Processed Spectrum: 2048
>>>>>Begin Processed Spectral Data<<<<<
365.73	311.29
365.92	311.29
366.12	311.29
366.32	283.20
366.52	236.39
366.72	210.65
366.91	262.14
367.11	264.48
367.31	278.52
367.51	290.23
367.70	276.18
367.90	248.10
368.10	215.33
368.30	243.42
368.49	205.97
368.69	184.90
368.89	252.78
369.09	236.39
369.28	210.65
369.48	215.33
369.68	304.27
369.87	285.55
370.07	311.29
370.27	327.68
370.47	294.91
370.66	320.65
370.86	308.95
371.06	358.10
371.25	383.85
371.45	346.40
371.65	348.74
371.84	348.74
372.04	400.23
372.24	454.06
372.44	411.93
372.63	318.31
372.83	372.15
373.03	440.02
373.22	388.53
373.42	411.93
373.62	421.30
373.81	435.34
374.01	423.64
374.21	360.44
374.40	491.51
374.60	425.98
374.79	479.81
374.99	440.02
375.19	395.55
375.38	402.57
375.58	454.06
375.78	482.15
375.97	440.02
376.17	447.04
376.37	423.64
376.56	395.55
376.76	397.89
376.95	395.55
377.15	435.34
377.35	418.96
377.54	393.21
377.74	404.91
377.93	454.06
378.13	386.19
378.33	414.27
378.52	332.36
378.72	428.32
378.91	407.25
379.11	418.96
379.31	425.98
379.50	386.19
379.70	416.62
379.89	423.64
380.09	433.00
380.28	402.57
380.48	444.70
380.68	414.27
380.87	402.57
381.07	437.68
381.26	447.04
381.46	411.93
381.65	418.96
381.85	437.68
382.04	376.83
382.24	578.11
382.43	374.49
382.63	400.23
382.83	414.27
383.02	444.70
383.22	444.70
383.41	409.59
383.61	435.34
383.80	425.98
384.00	322.99
384.19	341.72
384.39	416.62
384.58	411.93
384.78	358.10
384.97	442.36
385.17	411.93
385.36	458.74
385.56	383.85
385.75	355.76
385.95	409.59
386.14	437.68
386.34	358.10
386.53	437.68
386.72	400.23
386.92	447.04
387.11	390.87
387.31	367.46
387.50	416.62
387.70	386.19
387.89	365.12
388.09	400.23
388.28	369.80
388.48	437.68
388.67	386.19
388.86	395.55
389.06	397.89
389.25	402.57
389.45	430.66
389.64	409.59
389.84	390.87
390.03	449.38
390.22	411.93
390.42	409.59
390.61	393.21
390.81	486.83
391.00	322.99
391.19	379.17
391.39	390.87
391.58	421.30
391.78	411.93
391.97	435.34
392.16	369.80
392.36	465.77
392.55	393.21
392.75	465.77
392.94	388.53
393.13	447.04
393.33	397.89
393.52	402.57
393.71	407.25
393.91	444.70
394.10	447.04
394.29	379.17
394.49	423.64
394.68	369.80
394.88	372.15
395.07	449.38
395.26	386.19
395.46	395.55
395.65	482.15
395.84	414.27
396.04	461.09
396.23	407.25
396.42	416.62
396.62	482.15
396.81	458.74
397.00	402.57
397.19	402.57
397.39	393.21
397.58	409.59
397.77	386.19
397.97	383.85
398.16	369.80
398.35	362.78
398.55	404.91
398.74	365.12
398.93	435.34
399.12	393.21
399.32	433.00
399.51	351.08
399.70	510.24
399.90	416.62
400.09	397.89
400.28	332.36
400.47	416.62
400.67	498.53
400.86	372.15
401.05	358.10
401.24	425.98
401.44	444.70
401.63	388.53
401.82	341.72
402.01	348.74
402.21	409.59
402.40	414.27
402.59	440.02
402.78	444.70
402.97	421.30
403.17	362.78
403.36	465.77
403.55	400.23
403.74	416.62
403.93	425.98
404.13	404.91
404.32	362.78
404.51	433.00
404.70	344.06
404.89	334.70
405.09	517.26
405.28	447.04
405.47	374.49
405.66	404.91
405.85	411.93
406.05	454.06
406.24	444.70
406.43	400.23
406.62	404.91
406.81	365.12
407.00	433.00
407.20	402.57
407.39	428.32
407.58	337.04
407.77	421.30
407.96	477.47
408.15	477.47
408.34	447.04
408.54	358.10
408.73	358.10
408.92	444.70
409.11	430.66
409.30	458.74
409.49	395.55
409.68	381.51
409.87	409.59
410.07	372.15
410.26	409.59
410.45	416.62
410.64	306.61
410.83	407.25
411.02	409.59
411.21	437.68
411.40	447.04
411.59	435.34
411.78	425.98
411.98	421.30
412.17	416.62
412.36	428.32
412.55	353.42
412.74	397.89
412.93	430.66
413.12	400.23
413.31	397.89
413.50	463.43
413.69	379.17
413.88	367.46
414.07	376.83
414.26	379.17
414.45	409.59
414.64	428.32
414.83	416.62
415.02	456.40
415.22	404.91
415.41	423.64
415.60	395.55
415.79	442.36
415.98	411.93
416.17	346.40
416.36	421.30
416.55	372.15
416.74	393.21
416.93	444.70
417.12	435.34
417.31	402.57
417.50	425.98
417.69	437.68
417.88	421.30
418.07	388.53
418.26	407.25
418.45	407.25
418.64	414.27
418.83	358.10
419.02	407.25
419.21	379.17
419.39	430.66
419.58	435.34
419.77	404.91
419.96	482.15
420.15	477.47
420.34	344.06
420.53	416.62
420.72	470.45
420.91	395.55
421.10	393.21
421.29	433.00
421.48	388.53
421.67	414.27
421.86	428.32
422.05	388.53
422.24	414.27
422.43	421.30
422.61	376.83
422.80	409.59
422.99	468.11
423.18	425.98
423.37	407.25
423.56	407.25
423.75	376.83
423.94	346.40
424.13	468.11
424.32	388.53
424.50	360.44
424.69	390.87
424.88	407.25
425.07	418.96
425.26	440.02
425.45	404.91
425.64	365.12
425.83	454.06
426.01	416.62
426.20	393.21
426.39	447.04
426.58	416.62
426.77	498.53
426.96	414.27
427.15	414.27
427.33	339.38
427.52	388.53
427.71	362.78
427.90	416.62
428.09	383.85
428.28	409.59
428.46	451.72
428.65	428.32
428.84	381.51
429.03	425.98
429.22	418.96
429.40	437.68
429.59	404.91
429.78	404.91
429.97	376.83
430.16	484.49
430.34	454.06
430.53	367.46
430.72	337.04
430.91	360.44
431.10	416.62
431.28	440.02
431.47	458.74
431.66	428.32
431.85	362.78
432.03	367.46
432.22	456.40
432.41	458.74
432.60	425.98
432.79	358.10
432.97	418.96
433.16	376.83
433.35	423.64
433.54	393.21
433.72	425.98
433.91	437.68
434.10	379.17
434.28	416.62
434.47	320.65
434.66	433.00
434.85	390.87
435.03	465.77
435.22	433.00
435.41	442.36
435.59	362.78
435.78	395.55
435.97	435.34
436.16	388.53
436.34	409.59
436.53	456.40
436.72	456.40
436.90	435.34
437.09	428.32
437.28	423.64
437.46	400.23
437.65	374.49
437.84	477.47
438.02	383.85
438.21	400.23
438.40	411.93
438.58	456.40
438.77	428.32
438.96	390.87
439.14	301.93
439.33	409.59
439.52	472.79
439.70	454.06
439.89	418.96
440.08	402.57
440.26	383.85
440.45	407.25
440.63	414.27
440.82	383.85
441.01	463.43
441.19	372.15
441.38	407.25
441.57	451.72
441.75	461.09
441.94	470.45
442.12	505.56
442.31	449.38
442.50	381.51
442.68	390.87
442.87	395.55
443.05	442.36
443.24	463.43
443.43	416.62
443.61	486.83
443.80	379.17
443.98	393.21
444.17	442.36
444.35	498.53
444.54	367.46
444.73	376.83
444.91	449.38
445.10	367.46
445.28	372.15
445.47	451.72
445.65	400.23
445.84	397.89
446.02	430.66
446.21	395.55
446.39	433.00
446.58	472.79
446.77	461.09
446.95	374.49
447.14	306.61
447.32	430.66
447.51	395.55
447.69	421.30
447.88	531.30
448.06	367.46
448.25	353.42
448.43	465.77
448.62	386.19
448.80	437.68
448.99	458.74
449.17	421.30
449.36	388.53
449.54	383.85
449.73	402.57
449.91	444.70
450.10	425.98
450.28	496.19
450.46	451.72
450.65	435.34
450.83	400.23
451.02	411.93
451.20	442.36
451.39	360.44
451.57	409.59
451.76	493.85
451.94	388.53
452.13	430.66
452.31	425.98
452.49	388.53
452.68	470.45
452.86	320.65
453.05	456.40
453.23	369.80
453.42	376.83
453.60	379.17
453.78	421.30
453.97	489.17
454.15	430.66
454.34	409.59
454.52	369.80
454.70	395.55
454.89	442.36
455.07	454.06
455.26	468.11
455.44	468.11
455.62	383.85
455.81	463.43
455.99	437.68
456.17	449.38
456.36	442.36
456.54	369.80
456.73	456.40
456.91	390.87
457.09	465.77
457.28	503.22
457.46	435.34
457.64	442.36
457.83	383.85
458.01	386.19
458.19	463.43
458.38	351.08
458.56	400.23
458.74	442.36
458.93	444.70
459.11	442.36
459.29	425.98
459.48	461.09
459.66	421.30
459.84	435.34
460.03	451.72
460.21	428.32
460.39	425.98
460.57	468.11
460.76	458.74
460.94	395.55
461.12	514.92
461.31	449.38
461.49	339.38
461.67	407.25
461.85	376.83
462.04	470.45
462.22	802.80
462.40	454.06
462.59	374.49
462.77	423.64
462.95	451.72
463.13	418.96
463.32	437.68
463.50	470.45
463.68	407.25
463.86	334.70
464.05	409.59
464.23	425.98
464.41	440.02
464.59	395.55
464.78	383.85
464.96	440.02
465.14	397.89
465.32	393.21
465.50	510.24
465.69	468.11
465.87	486.83
466.05	435.34
466.23	428.32
466.41	397.89
466.60	395.55
466.78	454.06
466.96	416.62
467.14	418.96
467.32	456.40
467.51	421.30
467.69	379.17
467.87	442.36
468.05	442.36
468.23	416.62
468.41	465.77
468.60	456.40
468.78	416.62
468.96	414.27
469.14	454.06
469.32	428.32
469.50	489.17
469.69	416.62
469.87	369.80
470.05	395.55
470.23	418.96
470.41	388.53
470.59	362.78
470.77	423.64
470.95	362.78
471.14	421.30
471.32	433.00
471.50	477.47
471.68	435.34
471.86	332.36
472.04	428.32
472.22	404.91
472.40	337.04
472.58	330.02
472.77	355.76
472.95	416.62
473.13	428.32
473.31	456.40
473.49	379.17
473.67	397.89
473.85	463.43
474.03	416.62
474.21	440.02
474.39	531.30
474.57	454.06
474.75	390.87
474.93	369.80
475.12	423.64
475.30	423.64
475.48	379.17
475.66	369.80
475.84	337.04
476.02	386.19
476.20	442.36
476.38	486.83
476.56	433.00
476.74	447.04
476.92	360.44
477.10	409.59
477.28	454.06
477.46	362.78
477.64	454.06
477.82	397.89
478.00	409.59
478.18	454.06
478.36	395.55
478.54	388.53
478.72	404.91
478.90	425.98
479.08	451.72
479.26	395.55
479.44	397.89
479.62	433.00
479.80	320.65
479.98	397.89
480.16	489.17
480.34	447.04
480.52	454.06
480.70	416.62
480.88	358.10
481.06	383.85
481.24	386.19
481.41	421.30
481.59	423.64
481.77	383.85
481.95	428.32
482.13	477.47
482.31	397.89
482.49	456.40
482.67	447.04
482.85	393.21
483.03	409.59
483.21	486.83
483.39	388.53
483.57	411.93
483.74	388.53
483.92	442.36
484.10	360.44
484.28	423.64
484.46	465.77
484.64	472.79
484.82	421.30
485.00	418.96
485.18	393.21
485.35	440.02
485.53	390.87
485.71	440.02
485.89	372.15
486.07	418.96
486.25	397.89
486.43	360.44
486.61	477.47
486.78	409.59
486.96	379.17
487.14	358.10
487.32	421.30
487.50	447.04
487.68	383.85
487.85	393.21
488.03	402.57
488.21	458.74
488.39	489.17
488.57	409.59
488.75	390.87
488.92	486.83
489.10	395.55
489.28	454.06
489.46	468.11
489.64	444.70
489.81	395.55
489.99	470.45
490.17	376.83
490.35	491.51
490.53	449.38
490.70	484.49
490.88	423.64
491.06	440.02
491.24	400.23
491.41	437.68
491.59	447.04
491.77	421.30
491.95	388.53
492.13	414.27
492.30	423.64
492.48	458.74
492.66	423.64
492.84	463.43
493.01	395.55
493.19	440.02
493.37	428.32
493.54	435.34
493.72	428.32
493.90	348.74
494.08	411.93
494.25	440.02
494.43	388.53
494.61	489.17
494.79	393.21
494.96	430.66
495.14	337.04
495.32	409.59
495.49	512.58
495.67	369.80
495.85	360.44
496.02	367.46
496.20	454.06
496.38	447.04
496.55	407.25
496.73	416.62
496.91	346.40
497.09	411.93
497.26	395.55
497.44	440.02
497.62	404.91
497.79	461.09
497.97	470.45
498.14	430.66
498.32	407.25
498.50	414.27
498.67	402.57
498.85	435.34
499.03	407.25
499.20	402.57
499.38	437.68
499.56	393.21
499.73	447.04
499.91	491.51
500.08	512.58
500.26	411.93
500.44	463.43
500.61	362.78
500.79	407.25
500.97	447.04
501.14	507.90
501.32	379.17
501.49	421.30
501.67	454.06
501.84	425.98
502.02	425.98
502.20	395.55
502.37	418.96
502.55	435.34
502.72	327.68
502.90	379.17
503.07	458.74
503.25	470.45
503.43	519.60
503.60	381.51
503.78	433.00
503.95	388.53
504.13	456.40
504.30	390.87
504.48	461.09
504.65	456.40
504.83	479.81
505.01	404.91
505.18	409.59
505.36	430.66
505.53	468.11
505.71	425.98
505.88	442.36
506.06	461.09
506.23	402.57
506.41	404.91
506.58	402.57
506.76	477.47
506.93	477.47
507.11	456.40
507.28	325.33
507.46	423.64
507.63	465.77
507.81	372.15
507.98	402.57
508.16	388.53
508.33	423.64
508.50	433.00
508.68	365.12
508.85	381.51
509.03	362.78
509.20	388.53
509.38	458.74
509.55	433.00
509.73	468.11
509.90	409.59
510.08	355.76
510.25	339.38
510.42	477.47
510.60	470.45
510.77	404.91
510.95	421.30
511.12	369.80
511.30	496.19
511.47	397.89
511.64	416.62
511.82	376.83
511.99	355.76
512.17	388.53
512.34	402.57
512.51	388.53
512.69	353.42
512.86	463.43
513.04	381.51
513.21	423.64
513.38	442.36
513.56	449.38
513.73	409.59
513.90	409.59
514.08	411.93
514.25	470.45
514.43	461.09
514.60	376.83
514.77	362.78
514.95	428.32
515.12	430.66
515.29	442.36
515.47	440.02
515.64	442.36
515.81	367.46
515.99	411.93
516.16	348.74
516.33	411.93
516.51	407.25
516.68	407.25
516.85	458.74
517.03	381.51
517.20	538.32
517.37	465.77
517.54	383.85
517.72	400.23
517.89	423.64
518.06	376.83
518.24	444.70
518.41	451.72
518.58	454.06
518.75	447.04
518.93	451.72
519.10	451.72
519.27	454.06
519.45	348.74
519.62	402.57
519.79	479.81
519.96	437.68
520.14	454.06
520.31	395.55
520.48	409.59
520.65	449.38
520.83	479.81
521.00	449.38
521.17	444.70
521.34	407.25
521.52	388.53
521.69	414.27
521.86	418.96
522.03	428.32
522.20	428.32
522.38	325.33
522.55	416.62
522.72	388.53
522.89	348.74
523.07	526.62
523.24	367.46
523.41	409.59
523.58	411.93
523.75	440.02
523.92	421.30
524.10	390.87
524.27	437.68
524.44	365.12
524.61	456.40
524.78	414.27
524.96	388.53
525.13	383.85
525.30	416.62
525.47	458.74
525.64	440.02
525.81	383.85
525.98	386.19
526.16	421.30
526.33	381.51
526.50	414.27
526.67	414.27
526.84	437.68
527.01	400.23
527.18	379.17
527.36	348.74
527.53	397.89
527.70	442.36
527.87	379.17
528.04	397.89
528.21	376.83
528.38	395.55
528.55	449.38
528.72	451.72
528.89	510.24
529.07	416.62
529.24	414.27
529.41	435.34
529.58	393.21
529.75	465.77
529.92	400.23
530.09	411.93
530.26	407.25
530.43	395.55
530.60	386.19
530.77	425.98
530.94	402.57
531.11	388.53
531.28	416.62
531.46	372.15
531.63	388.53
531.80	470.45
531.97	428.32
532.14	334.70
532.31	369.80
532.48	486.83
532.65	351.08
532.82	381.51
532.99	430.66
533.16	379.17
533.33	407.25
533.50	402.57
533.67	449.38
533.84	407.25
534.01	409.59
534.18	369.80
534.35	376.83
534.52	440.02
534.69	493.85
534.86	411.93
535.03	435.34
535.20	414.27
535.37	451.72
535.54	449.38
535.71	386.19
535.88	484.49
536.05	402.57
536.22	538.32
536.38	470.45
536.55	379.17
536.72	444.70
536.89	369.80
537.06	390.87
537.23	428.32
537.40	358.10
537.57	500.87
537.74	498.53
537.91	407.25
538.08	402.57
538.25	402.57
538.42	428.32
538.59	440.02
538.75	407.25
538.92	376.83
539.09	379.17
539.26	437.68
539.43	433.00
539.60	400.23
539.77	372.15
539.94	407.25
540.11	351.08
540.28	425.98
540.44	390.87
540.61	395.55
540.78	337.04
540.95	365.12
541.12	442.36
541.29	362.78
541.46	461.09
541.62	482.15
541.79	489.17
541.96	456.40
542.13	423.64
542.30	449.38
542.47	444.70
542.63	475.13
542.80	404.91
542.97	465.77
543.14	428.32
543.31	479.81
543.48	496.19
543.64	472.79
543.81	404.91
543.98	348.74
544.15	386.19
544.32	428.32
544.48	395.55
544.65	407.25
544.82	468.11
544.99	433.00
545.16	407.25
545.32	379.17
545.49	477.47
545.66	425.98
545.83	409.59
546.00	484.49
546.16	442.36
546.33	458.74
546.50	447.04
546.67	423.64
546.83	444.70
547.00	468.11
547.17	437.68
547.34	440.02
547.50	421.30
547.67	360.44
547.84	367.46
548.00	444.70
548.17	428.32
548.34	395.55
548.51	505.56
548.67	428.32
548.84	351.08
549.01	465.77
549.18	454.06
549.34	414.27
549.51	404.91
549.68	416.62
549.84	365.12
550.01	390.87
550.18	458.74
550.34	477.47
550.51	472.79
550.68	416.62
550.84	395.55
551.01	465.77
551.18	493.85
551.34	435.34
551.51	470.45
551.68	395.55
551.84	465.77
552.01	430.66
552.18	423.64
552.34	479.81
552.51	414.27
552.68	404.91
552.84	393.21
553.01	468.11
553.18	407.25
553.34	395.55
553.51	437.68
553.67	489.17
553.84	447.04
554.01	404.91
554.17	428.32
554.34	421.30
554.51	479.81
554.67	538.32
554.84	433.00
555.00	421.30
555.17	433.00
555.33	451.72
555.50	411.93
555.67	449.38
555.83	409.59
556.00	390.87
556.16	528.96
556.33	463.43
556.50	440.02
556.66	400.23
556.83	369.80
556.99	404.91
557.16	454.06
557.32	365.12
557.49	400.23
557.65	461.09
557.82	358.10
557.98	416.62
558.15	454.06
558.32	390.87
558.48	414.27
558.65	390.87
558.81	505.56
558.98	456.40
559.14	423.64
559.31	388.53
559.47	397.89
559.64	386.19
559.80	390.87
559.97	444.70
560.13	379.17
560.30	362.78
560.46	447.04
560.63	444.70
560.79	411.93
560.96	437.68
561.12	374.49
561.29	437.68
561.45	423.64
561.61	461.09
561.78	461.09
561.94	463.43
562.11	456.40
562.27	409.59
562.44	383.85
562.60	411.93
562.77	421.30
562.93	486.83
563.10	372.15
563.26	444.70
563.42	418.96
563.59	430.66
563.75	358.10
563.92	458.74
564.08	388.53
564.24	498.53
564.41	414.27
564.57	435.34
564.74	442.36
564.90	470.45
565.07	423.64
565.23	365.12
565.39	470.45
565.56	472.79
565.72	411.93
565.88	423.64
566.05	449.38
566.21	402.57
566.38	440.02
566.54	425.98
566.70	395.55
566.87	379.17
567.03	428.32
567.19	442.36
567.36	472.79
567.52	404.91
567.68	437.68
567.85	472.79
568.01	421.30
568.17	346.40
568.34	458.74
568.50	491.51
568.66	430.66
568.83	479.81
568.99	479.81
569.15	486.83
569.32	397.89
569.48	411.93
569.64	442.36
569.81	304.27
569.97	330.02
570.13	463.43
570.30	327.68
570.46	383.85
570.62	418.96
570.78	433.00
570.95	386.19
571.11	468.11
571.27	528.96
571.43	411.93
571.60	435.34
571.76	416.62
571.92	461.09
572.09	421.30
572.25	388.53
572.41	393.21
572.57	430.66
572.74	496.19
572.90	423.64
573.06	416.62
573.22	404.91
573.38	486.83
573.55	477.47
573.71	437.68
573.87	425.98
574.03	353.42
574.20	461.09
574.36	402.57
574.52	411.93
574.68	430.66
574.84	435.34
575.01	390.87
575.17	400.23
575.33	383.85
575.49	423.64
575.65	428.32
575.82	433.00
575.98	425.98
576.14	418.96
576.30	379.17
576.46	407.25
576.62	449.38
576.79	496.19
576.95	404.91
577.11	376.83
577.27	442.36
577.43	428.32
577.59	444.70
577.75	451.72
577.92	383.85
578.08	418.96
578.24	430.66
578.40	430.66
578.56	421.30
578.72	414.27
578.88	409.59
579.04	451.72
579.21	463.43
579.37	369.80
579.53	386.19
579.69	465.77
579.85	496.19
580.01	489.17
580.17	421.30
580.33	360.44
580.49	383.85
580.65	358.10
580.82	386.19
580.98	374.49
581.14	358.10
581.30	456.40
581.46	414.27
581.62	447.04
581.78	358.10
581.94	458.74
582.10	433.00
582.26	444.70
582.42	463.43
582.58	475.13
582.74	390.87
582.90	383.85
583.06	444.70
583.22	444.70
583.38	379.17
583.54	433.00
583.70	407.25
583.86	440.02
584.02	365.12
584.18	421.30
584.34	437.68
584.50	423.64
584.66	393.21
584.82	360.44
584.98	430.66
585.14	386.19
585.30	397.89
585.46	418.96
585.62	348.74
585.78	416.62
585.94	437.68
586.10	365.12
586.26	433.00
586.42	510.24
586.58	472.79
586.74	411.93
586.90	351.08
587.06	421.30
587.22	423.64
587.38	365.12
587.54	444.70
587.70	430.66
587.86	383.85
588.02	421.30
588.18	369.80
588.34	402.57
588.49	367.46
588.65	454.06
588.81	470.45
588.97	358.10
589.13	379.17
589.29	386.19
589.45	425.98
589.61	421.30
589.77	458.74
589.93	451.72
590.08	393.21
590.24	369.80
590.40	400.23
590.56	493.85
590.72	416.62
590.88	416.62
591.04	484.49
591.20	414.27
591.35	456.40
591.51	404.91
591.67	470.45
591.83	428.32
591.99	440.02
592.15	437.68
592.31	372.15
592.46	421.30
592.62	521.94
592.78	463.43
592.94	407.25
593.10	369.80
593.26	388.53
593.41	461.09
593.57	470.45
593.73	421.30
593.89	458.74
594.05	437.68
594.20	440.02
594.36	390.87
594.52	444.70
594.68	404.91
594.84	447.04
594.99	411.93
595.15	400.23
595.31	444.70
595.47	463.43
595.62	430.66
595.78	376.83
595.94	449.38
596.10	428.32
596.25	433.00
596.41	430.66
596.57	449.38
596.73	355.76
596.88	435.34
597.04	423.64
597.20	433.00
597.36	447.04
597.51	369.80
597.67	341.72
597.83	362.78
597.99	465.77
598.14	433.00
598.30	447.04
598.46	376.83
598.61	423.64
598.77	496.19
598.93	372.15
599.09	414.27
599.24	411.93
599.40	458.74
599.56	376.83
599.71	390.87
599.87	461.09
600.03	383.85
600.18	339.38
600.34	470.45
600.50	433.00
600.65	386.19
600.81	482.15
600.97	393.21
601.12	418.96
601.28	414.27
601.44	374.49
601.59	423.64
601.75	348.74
601.91	430.66
602.06	416.62
602.22	416.62
602.37	411.93
602.53	442.36
602.69	397.89
602.84	433.00
603.00	440.02
603.16	454.06
603.31	402.57
603.47	411.93
603.62	339.38
603.78	451.72
603.94	400.23
604.09	423.64
604.25	421.30
604.40	395.55
604.56	414.27
604.71	393.21
604.87	428.32
605.03	409.59
605.18	404.91
605.34	428.32
605.49	451.72
605.65	379.17
605.80	416.62
605.96	489.17
606.12	479.81
606.27	470.45
606.43	458.74
606.58	444.70
606.74	510.24
606.89	475.13
607.05	440.02
607.20	351.08
607.36	379.17
607.51	369.80
607.67	376.83
607.82	411.93
607.98	397.89
608.13	374.49
608.29	416.62
608.44	383.85
608.60	451.72
608.75	435.34
608.91	346.40
609.06	437.68
609.22	416.62
609.37	498.53
609.53	414.27
609.68	416.62
609.84	428.32
609.99	435.34
610.15	503.22
