SpectraSuite Data File
++++++++++++++++++++++++++++++++++++
Date: Fri Oct 25 12:10:14 EDT 2013
User: price-jones
Dark Spectrum Present: No
Reference Spectrum Present: No
Number of Sampled Component Spectra: 1
Spectrometers: USB2+H05261
Integration Time (usec): 100000 (USB2+H05261)
Spectra Averaged: 1 (USB2+H05261)
Boxcar Smoothing: 0 (USB2+H05261)
Correct for Electrical Dark: No (USB2+H05261)
Strobe/Lamp Enabled: No (USB2+H05261)
Correct for Detector Non-linearity: No (USB2+H05261)
Correct for Stray Light: No (USB2+H05261)
Number of Pixels in Processed Spectrum: 2048
>>>>>Begin Processed Spectral Data<<<<<
365.73	400.23
365.92	400.23
366.12	400.23
366.32	203.63
366.52	276.18
366.72	313.63
366.91	215.33
367.11	177.88
367.31	163.84
367.51	191.92
367.70	229.37
367.90	201.29
368.10	196.60
368.30	180.22
368.49	224.69
368.69	318.31
368.89	271.50
369.09	252.78
369.28	236.39
369.48	315.97
369.68	332.36
369.87	327.68
370.07	334.70
370.27	297.25
370.47	327.68
370.66	299.59
370.86	325.33
371.06	367.46
371.25	442.36
371.45	334.70
371.65	355.76
371.84	341.72
372.04	287.89
372.24	461.09
372.44	383.85
372.63	447.04
372.83	383.85
373.03	369.80
373.22	334.70
373.42	325.33
373.62	428.32
373.81	390.87
374.01	472.79
374.21	470.45
374.40	472.79
374.60	458.74
374.79	416.62
374.99	365.12
375.19	334.70
375.38	365.12
375.58	437.68
375.78	409.59
375.97	437.68
376.17	470.45
376.37	418.96
376.56	416.62
376.76	365.12
376.95	447.04
377.15	416.62
377.35	404.91
377.54	407.25
377.74	374.49
377.93	477.47
378.13	372.15
378.33	430.66
378.52	374.49
378.72	442.36
378.91	461.09
379.11	437.68
379.31	346.40
379.50	297.25
379.70	470.45
379.89	365.12
380.09	379.17
380.28	437.68
380.48	365.12
380.68	351.08
380.87	379.17
381.07	458.74
381.26	440.02
381.46	341.72
381.65	430.66
381.85	409.59
382.04	351.08
382.24	386.19
382.43	402.57
382.63	383.85
382.83	358.10
383.02	470.45
383.22	435.34
383.41	416.62
383.61	358.10
383.80	428.32
384.00	404.91
384.19	454.06
384.39	498.53
384.58	355.76
384.78	379.17
384.97	411.93
385.17	418.96
385.36	397.89
385.56	402.57
385.75	348.74
385.95	404.91
386.14	433.00
386.34	388.53
386.53	428.32
386.72	414.27
386.92	440.02
387.11	430.66
387.31	383.85
387.50	341.72
387.70	404.91
387.89	414.27
388.09	367.46
388.28	393.21
388.48	362.78
388.67	423.64
388.86	390.87
389.06	369.80
389.25	397.89
389.45	418.96
389.64	390.87
389.84	393.21
390.03	400.23
390.22	383.85
390.42	395.55
390.61	402.57
390.81	362.78
391.00	454.06
391.19	486.83
391.39	433.00
391.58	444.70
391.78	383.85
391.97	416.62
392.16	440.02
392.36	463.43
392.55	414.27
392.75	435.34
392.94	440.02
393.13	454.06
393.33	437.68
393.52	383.85
393.71	465.77
393.91	393.21
394.10	416.62
394.29	395.55
394.49	383.85
394.68	421.30
394.88	425.98
395.07	381.51
395.26	440.02
395.46	411.93
395.65	388.53
395.84	454.06
396.04	491.51
396.23	339.38
396.42	428.32
396.62	397.89
396.81	423.64
397.00	372.15
397.19	407.25
397.39	383.85
397.58	404.91
397.77	421.30
397.97	404.91
398.16	442.36
398.35	395.55
398.55	322.99
398.74	454.06
398.93	383.85
399.12	423.64
399.32	411.93
399.51	430.66
399.70	423.64
399.90	386.19
400.09	397.89
400.28	449.38
400.47	393.21
400.67	395.55
400.86	374.49
401.05	423.64
401.24	386.19
401.44	421.30
401.63	421.30
401.82	390.87
402.01	353.42
402.21	451.72
402.40	423.64
402.59	372.15
402.78	383.85
402.97	404.91
403.17	395.55
403.36	437.68
403.55	365.12
403.74	456.40
403.93	435.34
404.13	479.81
404.32	374.49
404.51	414.27
404.70	348.74
404.89	449.38
405.09	400.23
405.28	362.78
405.47	395.55
405.66	437.68
405.85	428.32
406.05	433.00
406.24	409.59
406.43	334.70
406.62	461.09
406.81	510.24
407.00	402.57
407.20	395.55
407.39	416.62
407.58	430.66
407.77	437.68
407.96	458.74
408.15	454.06
408.34	390.87
408.54	383.85
408.73	423.64
408.92	421.30
409.11	449.38
409.30	442.36
409.49	400.23
409.68	404.91
409.87	407.25
410.07	444.70
410.26	404.91
410.45	414.27
410.64	454.06
410.83	407.25
411.02	390.87
411.21	414.27
411.40	369.80
411.59	381.51
411.78	388.53
411.98	381.51
412.17	449.38
412.36	397.89
412.55	390.87
412.74	369.80
412.93	454.06
413.12	404.91
413.31	379.17
413.50	458.74
413.69	355.76
413.88	470.45
414.07	482.15
414.26	388.53
414.45	372.15
414.64	479.81
414.83	409.59
415.02	411.93
415.22	393.21
415.41	358.10
415.60	355.76
415.79	379.17
415.98	393.21
416.17	395.55
416.36	304.27
416.55	456.40
416.74	407.25
416.93	428.32
417.12	430.66
417.31	374.49
417.50	390.87
417.69	472.79
417.88	421.30
418.07	407.25
418.26	315.97
418.45	411.93
418.64	454.06
418.83	346.40
419.02	437.68
419.21	379.17
419.39	341.72
419.58	379.17
419.77	454.06
419.96	423.64
420.15	374.49
420.34	411.93
420.53	367.46
420.72	407.25
420.91	409.59
421.10	351.08
421.29	414.27
421.48	411.93
421.67	397.89
421.86	423.64
422.05	372.15
422.24	447.04
422.43	402.57
422.61	390.87
422.80	383.85
422.99	423.64
423.18	414.27
423.37	404.91
423.56	376.83
423.75	383.85
423.94	435.34
424.13	407.25
424.32	397.89
424.50	440.02
424.69	404.91
424.88	475.13
425.07	449.38
425.26	433.00
425.45	475.13
425.64	346.40
425.83	404.91
426.01	379.17
426.20	411.93
426.39	400.23
426.58	379.17
426.77	418.96
426.96	442.36
427.15	440.02
427.33	447.04
427.52	416.62
427.71	327.68
427.90	430.66
428.09	395.55
428.28	404.91
428.46	400.23
428.65	430.66
428.84	430.66
429.03	418.96
429.22	416.62
429.40	374.49
429.59	383.85
429.78	444.70
429.97	435.34
430.16	416.62
430.34	411.93
430.53	442.36
430.72	344.06
430.91	409.59
431.10	358.10
431.28	397.89
431.47	407.25
431.66	390.87
431.85	423.64
432.03	339.38
432.22	465.77
432.41	435.34
432.60	421.30
432.79	374.49
432.97	390.87
433.16	379.17
433.35	402.57
433.54	374.49
433.72	400.23
433.91	411.93
434.10	414.27
434.28	348.74
434.47	411.93
434.66	421.30
434.85	369.80
435.03	444.70
435.22	503.22
435.41	463.43
435.59	390.87
435.78	332.36
435.97	416.62
436.16	402.57
436.34	393.21
436.53	379.17
436.72	395.55
436.90	479.81
437.09	444.70
437.28	332.36
437.46	351.08
437.65	360.44
437.84	418.96
438.02	458.74
438.21	407.25
438.40	376.83
438.58	337.04
438.77	407.25
438.96	395.55
439.14	421.30
439.33	402.57
439.52	386.19
439.70	355.76
439.89	395.55
440.08	425.98
440.26	379.17
440.45	376.83
440.63	376.83
440.82	397.89
441.01	360.44
441.19	428.32
441.38	390.87
441.57	386.19
441.75	435.34
441.94	395.55
442.12	451.72
442.31	407.25
442.50	386.19
442.68	390.87
442.87	372.15
443.05	379.17
443.24	503.22
443.43	430.66
443.61	437.68
443.80	451.72
443.98	395.55
444.17	381.51
444.35	463.43
444.54	407.25
444.73	418.96
444.91	437.68
445.10	423.64
445.28	379.17
445.47	435.34
445.65	337.04
445.84	440.02
446.02	407.25
446.21	409.59
446.39	418.96
446.58	416.62
446.77	433.00
446.95	376.83
447.14	390.87
447.32	409.59
447.51	411.93
447.69	425.98
447.88	404.91
448.06	433.00
448.25	440.02
448.43	430.66
448.62	435.34
448.80	341.72
448.99	479.81
449.17	376.83
449.36	421.30
449.54	402.57
449.73	409.59
449.91	470.45
450.10	414.27
450.28	463.43
450.46	493.85
450.65	416.62
450.83	383.85
451.02	383.85
451.20	440.02
451.39	468.11
451.57	411.93
451.76	475.13
451.94	367.46
452.13	393.21
452.31	430.66
452.49	414.27
452.68	435.34
452.86	381.51
453.05	454.06
453.23	402.57
453.42	393.21
453.60	390.87
453.78	367.46
453.97	407.25
454.15	416.62
454.34	486.83
454.52	428.32
454.70	451.72
454.89	416.62
455.07	442.36
455.26	442.36
455.44	454.06
455.62	411.93
455.81	440.02
455.99	421.30
456.17	468.11
456.36	397.89
456.54	344.06
456.73	348.74
456.91	418.96
457.09	454.06
457.28	475.13
457.46	388.53
457.64	444.70
457.83	433.00
458.01	334.70
458.19	379.17
458.38	353.42
458.56	299.59
458.74	414.27
458.93	381.51
459.11	395.55
459.29	372.15
459.48	416.62
459.66	437.68
459.84	433.00
460.03	463.43
460.21	414.27
460.39	421.30
460.57	433.00
460.76	491.51
460.94	444.70
461.12	489.17
461.31	425.98
461.49	451.72
461.67	372.15
461.85	454.06
462.04	376.83
462.22	763.01
462.40	470.45
462.59	402.57
462.77	442.36
462.95	409.59
463.13	358.10
463.32	437.68
463.50	449.38
463.68	395.55
463.86	367.46
464.05	372.15
464.23	325.33
464.41	484.49
464.59	425.98
464.78	407.25
464.96	416.62
465.14	435.34
465.32	374.49
465.50	425.98
465.69	386.19
465.87	430.66
466.05	414.27
466.23	404.91
466.41	386.19
466.60	383.85
466.78	388.53
466.96	383.85
467.14	435.34
467.32	411.93
467.51	376.83
467.69	430.66
467.87	425.98
468.05	454.06
468.23	411.93
468.41	425.98
468.60	379.17
468.78	337.04
468.96	411.93
469.14	442.36
469.32	461.09
469.50	346.40
469.69	376.83
469.87	423.64
470.05	414.27
470.23	440.02
470.41	411.93
470.59	351.08
470.77	428.32
470.95	428.32
471.14	430.66
471.32	374.49
471.50	458.74
471.68	421.30
471.86	425.98
472.04	428.32
472.22	503.22
472.40	475.13
472.58	383.85
472.77	374.49
472.95	386.19
473.13	449.38
473.31	430.66
473.49	407.25
473.67	421.30
473.85	423.64
474.03	386.19
474.21	416.62
474.39	479.81
474.57	468.11
474.75	433.00
474.93	416.62
475.12	409.59
475.30	423.64
475.48	376.83
475.66	397.89
475.84	360.44
476.02	400.23
476.20	334.70
476.38	461.09
476.56	423.64
476.74	400.23
476.92	475.13
477.10	465.77
477.28	428.32
477.46	348.74
477.64	433.00
477.82	500.87
478.00	330.02
478.18	404.91
478.36	449.38
478.54	404.91
478.72	400.23
478.90	437.68
479.08	425.98
479.26	430.66
479.44	437.68
479.62	418.96
479.80	369.80
479.98	395.55
480.16	395.55
480.34	444.70
480.52	388.53
480.70	383.85
480.88	372.15
481.06	395.55
481.24	409.59
481.41	496.19
481.59	407.25
481.77	390.87
481.95	367.46
482.13	402.57
482.31	372.15
482.49	444.70
482.67	456.40
482.85	400.23
483.03	421.30
483.21	341.72
483.39	428.32
483.57	404.91
483.74	440.02
483.92	454.06
484.10	376.83
484.28	407.25
484.46	388.53
484.64	411.93
484.82	444.70
485.00	454.06
485.18	451.72
485.35	482.15
485.53	449.38
485.71	386.19
485.89	390.87
486.07	404.91
486.25	437.68
486.43	393.21
486.61	430.66
486.78	449.38
486.96	360.44
487.14	411.93
487.32	360.44
487.50	348.74
487.68	440.02
487.85	402.57
488.03	390.87
488.21	428.32
488.39	411.93
488.57	433.00
488.75	393.21
488.92	484.49
489.10	435.34
489.28	489.17
489.46	421.30
489.64	451.72
489.81	383.85
489.99	470.45
490.17	353.42
490.35	447.04
490.53	383.85
490.70	416.62
490.88	372.15
491.06	390.87
491.24	409.59
491.41	414.27
491.59	402.57
491.77	327.68
491.95	397.89
492.13	390.87
492.30	440.02
492.48	423.64
492.66	414.27
492.84	341.72
493.01	397.89
493.19	362.78
493.37	484.49
493.54	440.02
493.72	430.66
493.90	418.96
494.08	496.19
494.25	454.06
494.43	479.81
494.61	409.59
494.79	418.96
494.96	437.68
495.14	493.85
495.32	397.89
495.49	421.30
495.67	397.89
495.85	454.06
496.02	423.64
496.20	402.57
496.38	433.00
496.55	425.98
496.73	458.74
496.91	383.85
497.09	416.62
497.26	369.80
497.44	404.91
497.62	470.45
497.79	383.85
497.97	500.87
498.14	449.38
498.32	411.93
498.50	402.57
498.67	437.68
498.85	369.80
499.03	416.62
499.20	421.30
499.38	414.27
499.56	358.10
499.73	416.62
499.91	484.49
500.08	411.93
500.26	435.34
500.44	374.49
500.61	411.93
500.79	409.59
500.97	456.40
501.14	425.98
501.32	449.38
501.49	365.12
501.67	348.74
501.84	341.72
502.02	358.10
502.20	440.02
502.37	524.28
502.55	332.36
502.72	397.89
502.90	477.47
503.07	376.83
503.25	458.74
503.43	400.23
503.60	411.93
503.78	423.64
503.95	521.94
504.13	454.06
504.30	416.62
504.48	458.74
504.65	489.17
504.83	407.25
505.01	383.85
505.18	418.96
505.36	512.58
505.53	402.57
505.71	395.55
505.88	414.27
506.06	374.49
506.23	379.17
506.41	454.06
506.58	442.36
506.76	386.19
506.93	433.00
507.11	440.02
507.28	409.59
507.46	351.08
507.63	400.23
507.81	388.53
507.98	454.06
508.16	411.93
508.33	374.49
508.50	411.93
508.68	372.15
508.85	449.38
509.03	456.40
509.20	470.45
509.38	421.30
509.55	416.62
509.73	416.62
509.90	414.27
510.08	416.62
510.25	409.59
510.42	341.72
510.60	409.59
510.77	454.06
510.95	545.34
511.12	362.78
511.30	484.49
511.47	444.70
511.64	454.06
511.82	402.57
511.99	411.93
512.17	365.12
512.34	397.89
512.51	414.27
512.69	437.68
512.86	407.25
513.04	425.98
513.21	470.45
513.38	315.97
513.56	425.98
513.73	393.21
513.90	491.51
514.08	416.62
514.25	404.91
514.43	428.32
514.60	386.19
514.77	444.70
514.95	369.80
515.12	360.44
515.29	362.78
515.47	428.32
515.64	388.53
515.81	463.43
515.99	437.68
516.16	386.19
516.33	517.26
516.51	456.40
516.68	428.32
516.85	440.02
517.03	416.62
517.20	404.91
517.37	437.68
517.54	372.15
517.72	447.04
517.89	369.80
518.06	472.79
518.24	449.38
518.41	430.66
518.58	416.62
518.75	393.21
518.93	379.17
519.10	428.32
519.27	397.89
519.45	435.34
519.62	449.38
519.79	369.80
519.96	365.12
520.14	465.77
520.31	376.83
520.48	360.44
520.65	407.25
520.83	486.83
521.00	421.30
521.17	475.13
521.34	393.21
521.52	414.27
521.69	372.15
521.86	407.25
522.03	409.59
522.20	409.59
522.38	435.34
522.55	341.72
522.72	374.49
522.89	493.85
523.07	444.70
523.24	367.46
523.41	379.17
523.58	451.72
523.75	358.10
523.92	418.96
524.10	367.46
524.27	454.06
524.44	444.70
524.61	477.47
524.78	388.53
524.96	388.53
525.13	409.59
525.30	442.36
525.47	397.89
525.64	402.57
525.81	404.91
525.98	425.98
526.16	369.80
526.33	374.49
526.50	374.49
526.67	435.34
526.84	425.98
527.01	374.49
527.18	463.43
527.36	423.64
527.53	409.59
527.70	411.93
527.87	395.55
528.04	486.83
528.21	414.27
528.38	379.17
528.55	369.80
528.72	447.04
528.89	514.92
529.07	451.72
529.24	409.59
529.41	477.47
529.58	414.27
529.75	358.10
529.92	454.06
530.09	498.53
530.26	388.53
530.43	379.17
530.60	430.66
530.77	423.64
530.94	402.57
531.11	437.68
531.28	397.89
531.46	369.80
531.63	367.46
531.80	447.04
531.97	489.17
532.14	400.23
532.31	463.43
532.48	400.23
532.65	433.00
532.82	374.49
532.99	465.77
533.16	360.44
533.33	491.51
533.50	388.53
533.67	271.50
533.84	411.93
534.01	393.21
534.18	447.04
534.35	430.66
534.52	416.62
534.69	395.55
534.86	376.83
535.03	414.27
535.20	390.87
535.37	376.83
535.54	437.68
535.71	402.57
535.88	360.44
536.05	440.02
536.22	477.47
536.38	407.25
536.55	409.59
536.72	484.49
536.89	393.21
537.06	463.43
537.23	425.98
537.40	444.70
537.57	491.51
537.74	440.02
537.91	444.70
538.08	423.64
538.25	362.78
538.42	397.89
538.59	425.98
538.75	428.32
538.92	430.66
539.09	440.02
539.26	341.72
539.43	484.49
539.60	500.87
539.77	409.59
539.94	400.23
540.11	386.19
540.28	442.36
540.44	463.43
540.61	433.00
540.78	390.87
540.95	409.59
541.12	395.55
541.29	397.89
541.46	435.34
541.62	421.30
541.79	454.06
541.96	489.17
542.13	383.85
542.30	397.89
542.47	451.72
542.63	440.02
542.80	421.30
542.97	362.78
543.14	397.89
543.31	421.30
543.48	397.89
543.64	433.00
543.81	433.00
543.98	400.23
544.15	407.25
544.32	449.38
544.48	411.93
544.65	437.68
544.82	414.27
544.99	442.36
545.16	514.92
545.32	454.06
545.49	484.49
545.66	468.11
545.83	435.34
546.00	416.62
546.16	489.17
546.33	435.34
546.50	395.55
546.67	465.77
546.83	400.23
547.00	355.76
547.17	416.62
547.34	465.77
547.50	447.04
547.67	407.25
547.84	381.51
548.00	390.87
548.17	482.15
548.34	468.11
548.51	468.11
548.67	395.55
548.84	451.72
549.01	386.19
549.18	383.85
549.34	404.91
549.51	463.43
549.68	477.47
549.84	526.62
550.01	400.23
550.18	484.49
550.34	475.13
550.51	430.66
550.68	379.17
550.84	400.23
551.01	411.93
551.18	430.66
551.34	414.27
551.51	362.78
551.68	428.32
551.84	463.43
552.01	433.00
552.18	381.51
552.34	383.85
552.51	435.34
552.68	418.96
552.84	454.06
553.01	447.04
553.18	400.23
553.34	428.32
553.51	395.55
553.67	416.62
553.84	500.87
554.01	411.93
554.17	470.45
554.34	404.91
554.51	435.34
554.67	496.19
554.84	503.22
555.00	463.43
555.17	407.25
555.33	379.17
555.50	386.19
555.67	425.98
555.83	433.00
556.00	414.27
556.16	493.85
556.33	372.15
556.50	411.93
556.66	505.56
556.83	416.62
556.99	435.34
557.16	449.38
557.32	402.57
557.49	400.23
557.65	404.91
557.82	358.10
557.98	512.58
558.15	458.74
558.32	379.17
558.48	395.55
558.65	435.34
558.81	428.32
558.98	386.19
559.14	397.89
559.31	404.91
559.47	437.68
559.64	468.11
559.80	465.77
559.97	409.59
560.13	465.77
560.30	374.49
560.46	411.93
560.63	409.59
560.79	362.78
560.96	376.83
561.12	482.15
561.29	390.87
561.45	465.77
561.61	416.62
561.78	428.32
561.94	407.25
562.11	449.38
562.27	383.85
562.44	407.25
562.60	400.23
562.77	440.02
562.93	526.62
563.10	423.64
563.26	365.12
563.42	416.62
563.59	437.68
563.75	346.40
563.92	425.98
564.08	374.49
564.24	430.66
564.41	472.79
564.57	362.78
564.74	444.70
564.90	428.32
565.07	437.68
565.23	442.36
565.39	402.57
565.56	383.85
565.72	418.96
565.88	433.00
566.05	402.57
566.21	433.00
566.38	430.66
566.54	425.98
566.70	425.98
566.87	353.42
567.03	330.02
567.19	456.40
567.36	458.74
567.52	390.87
567.68	360.44
567.85	449.38
568.01	411.93
568.17	381.51
568.34	383.85
568.50	477.47
568.66	425.98
568.83	447.04
568.99	437.68
569.15	414.27
569.32	367.46
569.48	470.45
569.64	465.77
569.81	390.87
569.97	444.70
570.13	430.66
570.30	414.27
570.46	447.04
570.62	421.30
570.78	482.15
570.95	454.06
571.11	418.96
571.27	456.40
571.43	477.47
571.60	416.62
571.76	416.62
571.92	344.06
572.09	362.78
572.25	418.96
572.41	463.43
572.57	404.91
572.74	430.66
572.90	449.38
573.06	425.98
573.22	479.81
573.38	465.77
573.55	496.19
573.71	416.62
573.87	418.96
574.03	447.04
574.20	411.93
574.36	435.34
574.52	372.15
574.68	433.00
574.84	346.40
575.01	435.34
575.17	461.09
575.33	388.53
575.49	489.17
575.65	423.64
575.82	411.93
575.98	416.62
576.14	379.17
576.30	430.66
576.46	374.49
576.62	470.45
576.79	355.76
576.95	395.55
577.11	435.34
577.27	313.63
577.43	463.43
577.59	493.85
577.75	456.40
577.92	425.98
578.08	433.00
578.24	482.15
578.40	402.57
578.56	404.91
578.72	397.89
578.88	423.64
579.04	447.04
579.21	369.80
579.37	444.70
579.53	418.96
579.69	475.13
579.85	395.55
580.01	475.13
580.17	440.02
580.33	468.11
580.49	414.27
580.65	451.72
580.82	423.64
580.98	381.51
581.14	407.25
581.30	369.80
581.46	414.27
581.62	442.36
581.78	351.08
581.94	449.38
582.10	468.11
582.26	435.34
582.42	367.46
582.58	409.59
582.74	393.21
582.90	447.04
583.06	472.79
583.22	411.93
583.38	428.32
583.54	397.89
583.70	390.87
583.86	442.36
584.02	379.17
584.18	372.15
584.34	433.00
584.50	465.77
584.66	449.38
584.82	414.27
584.98	358.10
585.14	440.02
585.30	442.36
585.46	449.38
585.62	393.21
585.78	416.62
585.94	449.38
586.10	449.38
586.26	449.38
586.42	421.30
586.58	416.62
586.74	416.62
586.90	444.70
587.06	435.34
587.22	444.70
587.38	447.04
587.54	372.15
587.70	365.12
587.86	416.62
588.02	477.47
588.18	479.81
588.34	428.32
588.49	421.30
588.65	397.89
588.81	416.62
588.97	456.40
589.13	458.74
589.29	435.34
589.45	489.17
589.61	355.76
589.77	435.34
589.93	435.34
590.08	376.83
590.24	372.15
590.40	409.59
590.56	496.19
590.72	404.91
590.88	444.70
591.04	423.64
591.20	393.21
591.35	397.89
591.51	449.38
591.67	386.19
591.83	475.13
591.99	437.68
592.15	470.45
592.31	440.02
592.46	395.55
592.62	411.93
592.78	435.34
592.94	433.00
593.10	423.64
593.26	414.27
593.41	404.91
593.57	463.43
593.73	421.30
593.89	470.45
594.05	440.02
594.20	332.36
594.36	479.81
594.52	416.62
594.68	409.59
594.84	449.38
594.99	395.55
595.15	428.32
595.31	451.72
595.47	430.66
595.62	388.53
595.78	423.64
595.94	369.80
596.10	454.06
596.25	404.91
596.41	362.78
596.57	461.09
596.73	402.57
596.88	435.34
597.04	458.74
597.20	409.59
597.36	440.02
597.51	449.38
597.67	428.32
597.83	433.00
597.99	388.53
598.14	484.49
598.30	454.06
598.46	402.57
598.61	472.79
598.77	425.98
598.93	397.89
599.09	437.68
599.24	477.47
599.40	327.68
599.56	409.59
599.71	428.32
599.87	430.66
600.03	400.23
600.18	472.79
600.34	472.79
600.50	421.30
600.65	360.44
600.81	444.70
600.97	433.00
601.12	330.02
601.28	421.30
601.44	442.36
601.59	376.83
601.75	440.02
601.91	454.06
602.06	428.32
602.22	505.56
602.37	264.48
602.53	421.30
602.69	428.32
602.84	411.93
603.00	367.46
603.16	489.17
603.31	425.98
603.47	383.85
603.62	409.59
603.78	400.23
603.94	369.80
604.09	404.91
604.25	411.93
604.40	428.32
604.56	484.49
604.71	496.19
604.87	390.87
605.03	397.89
605.18	423.64
605.34	475.13
605.49	465.77
605.65	379.17
605.80	458.74
605.96	458.74
606.12	437.68
606.27	463.43
606.43	425.98
606.58	360.44
606.74	388.53
606.89	393.21
607.05	404.91
607.20	411.93
607.36	421.30
607.51	416.62
607.67	397.89
607.82	376.83
607.98	447.04
608.13	374.49
608.29	435.34
608.44	425.98
608.60	407.25
608.75	428.32
608.91	430.66
609.06	437.68
609.22	400.23
609.37	458.74
609.53	341.72
609.68	416.62
609.84	482.15
609.99	395.55
610.15	421.30
