SpectraSuite Data File
++++++++++++++++++++++++++++++++++++
Date: Fri Oct 25 12:11:15 EDT 2013
User: price-jones
Dark Spectrum Present: No
Reference Spectrum Present: No
Number of Sampled Component Spectra: 1
Spectrometers: USB2+H05261
Integration Time (usec): 100000 (USB2+H05261)
Spectra Averaged: 1 (USB2+H05261)
Boxcar Smoothing: 0 (USB2+H05261)
Correct for Electrical Dark: No (USB2+H05261)
Strobe/Lamp Enabled: No (USB2+H05261)
Correct for Detector Non-linearity: No (USB2+H05261)
Correct for Stray Light: No (USB2+H05261)
Number of Pixels in Processed Spectrum: 2048
>>>>>Begin Processed Spectral Data<<<<<
365.73	383.85
365.92	383.85
366.12	383.85
366.32	287.89
366.52	220.01
366.72	224.69
366.91	236.39
367.11	243.42
367.31	257.46
367.51	262.14
367.70	229.37
367.90	224.69
368.10	234.05
368.30	229.37
368.49	241.08
368.69	152.13
368.89	278.52
369.09	257.46
369.28	241.08
369.48	290.23
369.68	348.74
369.87	273.84
370.07	332.36
370.27	332.36
370.47	344.06
370.66	344.06
370.86	369.80
371.06	360.44
371.25	407.25
371.45	353.42
371.65	454.06
371.84	393.21
372.04	414.27
372.24	360.44
372.44	327.68
372.63	348.74
372.83	404.91
373.03	411.93
373.22	482.15
373.42	402.57
373.62	444.70
373.81	430.66
374.01	430.66
374.21	407.25
374.40	402.57
374.60	468.11
374.79	449.38
374.99	425.98
375.19	433.00
375.38	454.06
375.58	489.17
375.78	416.62
375.97	430.66
376.17	493.85
376.37	433.00
376.56	421.30
376.76	369.80
376.95	379.17
377.15	332.36
377.35	388.53
377.54	435.34
377.74	332.36
377.93	407.25
378.13	390.87
378.33	428.32
378.52	397.89
378.72	386.19
378.91	383.85
379.11	383.85
379.31	400.23
379.50	395.55
379.70	362.78
379.89	433.00
380.09	409.59
380.28	388.53
380.48	428.32
380.68	451.72
380.87	395.55
381.07	376.83
381.26	456.40
381.46	430.66
381.65	421.30
381.85	414.27
382.04	470.45
382.24	404.91
382.43	404.91
382.63	397.89
382.83	397.89
383.02	397.89
383.22	519.60
383.41	400.23
383.61	418.96
383.80	400.23
384.00	421.30
384.19	433.00
384.39	374.49
384.58	362.78
384.78	404.91
384.97	423.64
385.17	362.78
385.36	421.30
385.56	449.38
385.75	433.00
385.95	327.68
386.14	409.59
386.34	397.89
386.53	348.74
386.72	360.44
386.92	418.96
387.11	454.06
387.31	393.21
387.50	407.25
387.70	414.27
387.89	346.40
388.09	395.55
388.28	400.23
388.48	383.85
388.67	407.25
388.86	421.30
389.06	379.17
389.25	327.68
389.45	402.57
389.64	362.78
389.84	367.46
390.03	386.19
390.22	463.43
390.42	318.31
390.61	397.89
390.81	376.83
391.00	372.15
391.19	397.89
391.39	390.87
391.58	393.21
391.78	449.38
391.97	390.87
392.16	379.17
392.36	421.30
392.55	409.59
392.75	416.62
392.94	414.27
393.13	435.34
393.33	372.15
393.52	355.76
393.71	383.85
393.91	409.59
394.10	400.23
394.29	341.72
394.49	428.32
394.68	454.06
394.88	358.10
395.07	414.27
395.26	393.21
395.46	463.43
395.65	362.78
395.84	407.25
396.04	458.74
396.23	397.89
396.42	454.06
396.62	402.57
396.81	409.59
397.00	348.74
397.19	351.08
397.39	402.57
397.58	369.80
397.77	465.77
397.97	351.08
398.16	435.34
398.35	423.64
398.55	383.85
398.74	367.46
398.93	442.36
399.12	386.19
399.32	416.62
399.51	379.17
399.70	367.46
399.90	407.25
400.09	383.85
400.28	482.15
400.47	348.74
400.67	437.68
400.86	465.77
401.05	400.23
401.24	463.43
401.44	430.66
401.63	402.57
401.82	414.27
402.01	449.38
402.21	379.17
402.40	369.80
402.59	407.25
402.78	428.32
402.97	433.00
403.17	414.27
403.36	369.80
403.55	414.27
403.74	470.45
403.93	440.02
404.13	409.59
404.32	440.02
404.51	369.80
404.70	442.36
404.89	421.30
405.09	449.38
405.28	421.30
405.47	376.83
405.66	395.55
405.85	369.80
406.05	397.89
406.24	444.70
406.43	407.25
406.62	435.34
406.81	409.59
407.00	383.85
407.20	390.87
407.39	409.59
407.58	416.62
407.77	428.32
407.96	421.30
408.15	407.25
408.34	362.78
408.54	425.98
408.73	421.30
408.92	390.87
409.11	423.64
409.30	435.34
409.49	433.00
409.68	360.44
409.87	320.65
410.07	379.17
410.26	409.59
410.45	400.23
410.64	437.68
410.83	402.57
411.02	344.06
411.21	353.42
411.40	437.68
411.59	374.49
411.78	402.57
411.98	411.93
412.17	428.32
412.36	374.49
412.55	393.21
412.74	397.89
412.93	493.85
413.12	447.04
413.31	423.64
413.50	425.98
413.69	395.55
413.88	463.43
414.07	433.00
414.26	320.65
414.45	421.30
414.64	400.23
414.83	428.32
415.02	423.64
415.22	402.57
415.41	458.74
415.60	393.21
415.79	299.59
415.98	454.06
416.17	397.89
416.36	416.62
416.55	379.17
416.74	458.74
416.93	409.59
417.12	440.02
417.31	365.12
417.50	404.91
417.69	442.36
417.88	376.83
418.07	308.95
418.26	407.25
418.45	353.42
418.64	454.06
418.83	430.66
419.02	411.93
419.21	435.34
419.39	369.80
419.58	397.89
419.77	418.96
419.96	449.38
420.15	362.78
420.34	353.42
420.53	428.32
420.72	479.81
420.91	435.34
421.10	353.42
421.29	395.55
421.48	451.72
421.67	475.13
421.86	470.45
422.05	367.46
422.24	351.08
422.43	444.70
422.61	365.12
422.80	383.85
422.99	454.06
423.18	358.10
423.37	437.68
423.56	400.23
423.75	463.43
423.94	444.70
424.13	423.64
424.32	447.04
424.50	414.27
424.69	374.49
424.88	463.43
425.07	395.55
425.26	397.89
425.45	451.72
425.64	440.02
425.83	435.34
426.01	388.53
426.20	444.70
426.39	388.53
426.58	379.17
426.77	379.17
426.96	407.25
427.15	390.87
427.33	472.79
427.52	404.91
427.71	404.91
427.90	486.83
428.09	425.98
428.28	449.38
428.46	402.57
428.65	430.66
428.84	381.51
429.03	440.02
429.22	435.34
429.40	409.59
429.59	442.36
429.78	444.70
429.97	463.43
430.16	360.44
430.34	463.43
430.53	409.59
430.72	414.27
430.91	449.38
431.10	423.64
431.28	425.98
431.47	428.32
431.66	390.87
431.85	447.04
432.03	484.49
432.22	472.79
432.41	421.30
432.60	414.27
432.79	414.27
432.97	440.02
433.16	400.23
433.35	348.74
433.54	456.40
433.72	388.53
433.91	395.55
434.10	496.19
434.28	428.32
434.47	437.68
434.66	407.25
434.85	395.55
435.03	374.49
435.22	386.19
435.41	496.19
435.59	418.96
435.78	433.00
435.97	407.25
436.16	475.13
436.34	376.83
436.53	390.87
436.72	425.98
436.90	402.57
437.09	407.25
437.28	503.22
437.46	486.83
437.65	407.25
437.84	351.08
438.02	367.46
438.21	425.98
438.40	369.80
438.58	383.85
438.77	400.23
438.96	416.62
439.14	456.40
439.33	395.55
439.52	465.77
439.70	411.93
439.89	334.70
440.08	376.83
440.26	381.51
440.45	395.55
440.63	404.91
440.82	444.70
441.01	390.87
441.19	407.25
441.38	425.98
441.57	358.10
441.75	390.87
441.94	404.91
442.12	449.38
442.31	390.87
442.50	390.87
442.68	421.30
442.87	409.59
443.05	418.96
443.24	402.57
443.43	442.36
443.61	390.87
443.80	449.38
443.98	397.89
444.17	435.34
444.35	433.00
444.54	440.02
444.73	407.25
444.91	454.06
445.10	444.70
445.28	402.57
445.47	388.53
445.65	465.77
445.84	397.89
446.02	430.66
446.21	367.46
446.39	341.72
446.58	442.36
446.77	423.64
446.95	383.85
447.14	402.57
447.32	468.11
447.51	376.83
447.69	411.93
447.88	395.55
448.06	489.17
448.25	397.89
448.43	322.99
448.62	425.98
448.80	437.68
448.99	430.66
449.17	372.15
449.36	386.19
449.54	458.74
449.73	344.06
449.91	418.96
450.10	390.87
450.28	482.15
450.46	468.11
450.65	456.40
450.83	348.74
451.02	404.91
451.20	416.62
451.39	411.93
451.57	379.17
451.76	388.53
451.94	395.55
452.13	360.44
452.31	376.83
452.49	461.09
452.68	409.59
452.86	447.04
453.05	440.02
453.23	482.15
453.42	404.91
453.60	339.38
453.78	418.96
453.97	397.89
454.15	304.27
454.34	407.25
454.52	404.91
454.70	437.68
454.89	383.85
455.07	388.53
455.26	433.00
455.44	472.79
455.62	388.53
455.81	400.23
455.99	416.62
456.17	407.25
456.36	430.66
456.54	369.80
456.73	369.80
456.91	390.87
457.09	425.98
457.28	437.68
457.46	423.64
457.64	334.70
457.83	388.53
458.01	353.42
458.19	465.77
458.38	461.09
458.56	381.51
458.74	416.62
458.93	425.98
459.11	442.36
459.29	433.00
459.48	400.23
459.66	454.06
459.84	472.79
460.03	489.17
460.21	447.04
460.39	463.43
460.57	449.38
460.76	404.91
460.94	414.27
461.12	440.02
461.31	456.40
461.49	437.68
461.67	442.36
461.85	425.98
462.04	376.83
462.22	800.46
462.40	444.70
462.59	372.15
462.77	409.59
462.95	470.45
463.13	440.02
463.32	409.59
463.50	393.21
463.68	437.68
463.86	372.15
464.05	425.98
464.23	421.30
464.41	440.02
464.59	376.83
464.78	472.79
464.96	409.59
465.14	402.57
465.32	418.96
465.50	379.17
465.69	470.45
465.87	404.91
466.05	379.17
466.23	353.42
466.41	393.21
466.60	456.40
466.78	362.78
466.96	414.27
467.14	437.68
467.32	496.19
467.51	407.25
467.69	437.68
467.87	421.30
468.05	365.12
468.23	435.34
468.41	393.21
468.60	416.62
468.78	435.34
468.96	468.11
469.14	402.57
469.32	386.19
469.50	416.62
469.69	402.57
469.87	493.85
470.05	353.42
470.23	411.93
470.41	355.76
470.59	393.21
470.77	374.49
470.95	400.23
471.14	447.04
471.32	330.02
471.50	383.85
471.68	360.44
471.86	362.78
472.04	421.30
472.22	456.40
472.40	411.93
472.58	383.85
472.77	386.19
472.95	397.89
473.13	409.59
473.31	451.72
473.49	454.06
473.67	458.74
473.85	507.90
474.03	461.09
474.21	393.21
474.39	430.66
474.57	498.53
474.75	514.92
474.93	425.98
475.12	454.06
475.30	388.53
475.48	524.28
475.66	435.34
475.84	388.53
476.02	360.44
476.20	379.17
476.38	421.30
476.56	411.93
476.74	414.27
476.92	447.04
477.10	477.47
477.28	390.87
477.46	400.23
477.64	447.04
477.82	437.68
478.00	433.00
478.18	477.47
478.36	393.21
478.54	484.49
478.72	442.36
478.90	425.98
479.08	458.74
479.26	388.53
479.44	423.64
479.62	402.57
479.80	355.76
479.98	346.40
480.16	393.21
480.34	484.49
480.52	461.09
480.70	411.93
480.88	379.17
481.06	369.80
481.24	409.59
481.41	395.55
481.59	341.72
481.77	402.57
481.95	402.57
482.13	475.13
482.31	430.66
482.49	440.02
482.67	425.98
482.85	365.12
483.03	388.53
483.21	484.49
483.39	449.38
483.57	456.40
483.74	468.11
483.92	430.66
484.10	397.89
484.28	440.02
484.46	456.40
484.64	400.23
484.82	372.15
485.00	433.00
485.18	442.36
485.35	435.34
485.53	423.64
485.71	444.70
485.89	482.15
486.07	447.04
486.25	416.62
486.43	414.27
486.61	341.72
486.78	404.91
486.96	407.25
487.14	404.91
487.32	449.38
487.50	353.42
487.68	346.40
487.85	360.44
488.03	337.04
488.21	465.77
488.39	404.91
488.57	437.68
488.75	383.85
488.92	458.74
489.10	416.62
489.28	449.38
489.46	369.80
489.64	416.62
489.81	358.10
489.99	390.87
490.17	414.27
490.35	479.81
490.53	390.87
490.70	379.17
490.88	416.62
491.06	414.27
491.24	397.89
491.41	472.79
491.59	418.96
491.77	400.23
491.95	407.25
492.13	411.93
492.30	447.04
492.48	367.46
492.66	355.76
492.84	414.27
493.01	428.32
493.19	470.45
493.37	404.91
493.54	456.40
493.72	428.32
493.90	365.12
494.08	430.66
494.25	381.51
494.43	397.89
494.61	374.49
494.79	418.96
494.96	400.23
495.14	444.70
495.32	337.04
495.49	411.93
495.67	484.49
495.85	418.96
496.02	397.89
496.20	442.36
496.38	444.70
496.55	461.09
496.73	365.12
496.91	411.93
497.09	397.89
497.26	421.30
497.44	360.44
497.62	409.59
497.79	339.38
497.97	404.91
498.14	416.62
498.32	402.57
498.50	484.49
498.67	421.30
498.85	402.57
499.03	402.57
499.20	395.55
499.38	411.93
499.56	344.06
499.73	435.34
499.91	449.38
500.08	421.30
500.26	404.91
500.44	458.74
500.61	433.00
500.79	388.53
500.97	414.27
501.14	435.34
501.32	360.44
501.49	430.66
501.67	451.72
501.84	437.68
502.02	449.38
502.20	510.24
502.37	379.17
502.55	348.74
502.72	451.72
502.90	479.81
503.07	381.51
503.25	416.62
503.43	388.53
503.60	449.38
503.78	402.57
503.95	355.76
504.13	404.91
504.30	414.27
504.48	430.66
504.65	425.98
504.83	472.79
505.01	358.10
505.18	437.68
505.36	461.09
505.53	433.00
505.71	381.51
505.88	411.93
506.06	461.09
506.23	376.83
506.41	430.66
506.58	430.66
506.76	470.45
506.93	433.00
507.11	421.30
507.28	367.46
507.46	411.93
507.63	428.32
507.81	383.85
507.98	386.19
508.16	404.91
508.33	409.59
508.50	416.62
508.68	489.17
508.85	395.55
509.03	374.49
509.20	346.40
509.38	425.98
509.55	418.96
509.73	458.74
509.90	430.66
510.08	458.74
510.25	409.59
510.42	372.15
510.60	353.42
510.77	458.74
510.95	528.96
511.12	444.70
511.30	414.27
511.47	383.85
511.64	435.34
511.82	433.00
511.99	468.11
512.17	367.46
512.34	423.64
512.51	374.49
512.69	372.15
512.86	440.02
513.04	358.10
513.21	374.49
513.38	461.09
513.56	360.44
513.73	348.74
513.90	341.72
514.08	299.59
514.25	416.62
514.43	465.77
514.60	447.04
514.77	423.64
514.95	451.72
515.12	388.53
515.29	409.59
515.47	344.06
515.64	421.30
515.81	463.43
515.99	470.45
516.16	367.46
516.33	379.17
516.51	444.70
516.68	372.15
516.85	390.87
517.03	425.98
517.20	400.23
517.37	447.04
517.54	430.66
517.72	444.70
517.89	433.00
518.06	376.83
518.24	451.72
518.41	486.83
518.58	477.47
518.75	346.40
518.93	327.68
519.10	383.85
519.27	465.77
519.45	386.19
519.62	449.38
519.79	425.98
519.96	444.70
520.14	388.53
520.31	461.09
520.48	425.98
520.65	416.62
520.83	440.02
521.00	449.38
521.17	437.68
521.34	379.17
521.52	477.47
521.69	433.00
521.86	409.59
522.03	435.34
522.20	435.34
522.38	444.70
522.55	407.25
522.72	402.57
522.89	496.19
523.07	458.74
523.24	418.96
523.41	390.87
523.58	369.80
523.75	390.87
523.92	409.59
524.10	407.25
524.27	376.83
524.44	437.68
524.61	440.02
524.78	461.09
524.96	465.77
525.13	409.59
525.30	409.59
525.47	437.68
525.64	440.02
525.81	484.49
525.98	407.25
526.16	444.70
526.33	379.17
526.50	379.17
526.67	400.23
526.84	395.55
527.01	397.89
527.18	454.06
527.36	369.80
527.53	447.04
527.70	444.70
527.87	376.83
528.04	409.59
528.21	372.15
528.38	416.62
528.55	451.72
528.72	430.66
528.89	463.43
529.07	472.79
529.24	433.00
529.41	437.68
529.58	355.76
529.75	407.25
529.92	461.09
530.09	351.08
530.26	449.38
530.43	395.55
530.60	425.98
530.77	355.76
530.94	379.17
531.11	454.06
531.28	418.96
531.46	351.08
531.63	414.27
531.80	433.00
531.97	393.21
532.14	435.34
532.31	444.70
532.48	475.13
532.65	374.49
532.82	470.45
532.99	409.59
533.16	447.04
533.33	433.00
533.50	367.46
533.67	451.72
533.84	395.55
534.01	484.49
534.18	433.00
534.35	397.89
534.52	447.04
534.69	397.89
534.86	404.91
535.03	411.93
535.20	430.66
535.37	491.51
535.54	482.15
535.71	437.68
535.88	444.70
536.05	369.80
536.22	416.62
536.38	437.68
536.55	423.64
536.72	433.00
536.89	414.27
537.06	341.72
537.23	465.77
537.40	425.98
537.57	379.17
537.74	409.59
537.91	428.32
538.08	425.98
538.25	400.23
538.42	416.62
538.59	397.89
538.75	376.83
538.92	407.25
539.09	416.62
539.26	390.87
539.43	449.38
539.60	437.68
539.77	425.98
539.94	383.85
540.11	381.51
540.28	437.68
540.44	423.64
540.61	402.57
540.78	397.89
540.95	402.57
541.12	451.72
541.29	456.40
541.46	482.15
541.62	447.04
541.79	454.06
541.96	458.74
542.13	393.21
542.30	416.62
542.47	472.79
542.63	496.19
542.80	470.45
542.97	472.79
543.14	346.40
543.31	395.55
543.48	306.61
543.64	388.53
543.81	409.59
543.98	341.72
544.15	388.53
544.32	451.72
544.48	435.34
544.65	442.36
544.82	386.19
544.99	374.49
545.16	444.70
545.32	397.89
545.49	477.47
545.66	454.06
545.83	365.12
546.00	435.34
546.16	435.34
546.33	437.68
546.50	416.62
546.67	409.59
546.83	456.40
547.00	430.66
547.17	533.64
547.34	454.06
547.50	355.76
547.67	416.62
547.84	423.64
548.00	435.34
548.17	374.49
548.34	393.21
548.51	425.98
548.67	437.68
548.84	360.44
549.01	390.87
549.18	421.30
549.34	397.89
549.51	383.85
549.68	414.27
549.84	489.17
550.01	379.17
550.18	470.45
550.34	423.64
550.51	383.85
550.68	498.53
550.84	369.80
551.01	374.49
551.18	451.72
551.34	451.72
551.51	393.21
551.68	407.25
551.84	379.17
552.01	386.19
552.18	407.25
552.34	430.66
552.51	425.98
552.68	461.09
552.84	447.04
553.01	472.79
553.18	428.32
553.34	528.96
553.51	386.19
553.67	404.91
553.84	449.38
554.01	514.92
554.17	383.85
554.34	301.93
554.51	416.62
554.67	416.62
554.84	505.56
555.00	433.00
555.17	472.79
555.33	447.04
555.50	409.59
555.67	397.89
555.83	360.44
556.00	365.12
556.16	543.00
556.33	451.72
556.50	437.68
556.66	421.30
556.83	421.30
556.99	376.83
557.16	456.40
557.32	442.36
557.49	510.24
557.65	397.89
557.82	425.98
557.98	440.02
558.15	425.98
558.32	397.89
558.48	334.70
558.65	374.49
558.81	360.44
558.98	358.10
559.14	456.40
559.31	365.12
559.47	379.17
559.64	440.02
559.80	425.98
559.97	369.80
560.13	341.72
560.30	348.74
560.46	379.17
560.63	388.53
560.79	465.77
560.96	463.43
561.12	435.34
561.29	456.40
561.45	440.02
561.61	397.89
561.78	397.89
561.94	423.64
562.11	383.85
562.27	421.30
562.44	421.30
562.60	447.04
562.77	414.27
562.93	484.49
563.10	463.43
563.26	433.00
563.42	496.19
563.59	440.02
563.75	423.64
563.92	482.15
564.08	402.57
564.24	421.30
564.41	437.68
564.57	327.68
564.74	449.38
564.90	435.34
565.07	390.87
565.23	437.68
565.39	346.40
565.56	390.87
565.72	416.62
565.88	416.62
566.05	400.23
566.21	341.72
566.38	449.38
566.54	402.57
566.70	433.00
566.87	444.70
567.03	407.25
567.19	461.09
567.36	451.72
567.52	449.38
567.68	505.56
567.85	425.98
568.01	395.55
568.17	407.25
568.34	456.40
568.50	475.13
568.66	477.47
568.83	472.79
568.99	386.19
569.15	395.55
569.32	393.21
569.48	423.64
569.64	416.62
569.81	390.87
569.97	440.02
570.13	484.49
570.30	442.36
570.46	404.91
570.62	341.72
570.78	440.02
570.95	440.02
571.11	421.30
571.27	390.87
571.43	437.68
571.60	468.11
571.76	425.98
571.92	416.62
572.09	425.98
572.25	433.00
572.41	440.02
572.57	444.70
572.74	496.19
572.90	435.34
573.06	442.36
573.22	353.42
573.38	444.70
573.55	442.36
573.71	374.49
573.87	479.81
574.03	409.59
574.20	465.77
574.36	458.74
574.52	472.79
574.68	393.21
574.84	465.77
575.01	411.93
575.17	414.27
575.33	400.23
575.49	472.79
575.65	411.93
575.82	433.00
575.98	402.57
576.14	376.83
576.30	390.87
576.46	423.64
576.62	454.06
576.79	360.44
576.95	470.45
577.11	470.45
577.27	456.40
577.43	400.23
577.59	402.57
577.75	397.89
577.92	454.06
578.08	458.74
578.24	358.10
578.40	451.72
578.56	423.64
578.72	407.25
578.88	360.44
579.04	470.45
579.21	393.21
579.37	458.74
579.53	437.68
579.69	456.40
579.85	379.17
580.01	416.62
580.17	383.85
580.33	482.15
580.49	299.59
580.65	416.62
580.82	451.72
580.98	449.38
581.14	360.44
581.30	414.27
581.46	451.72
581.62	449.38
581.78	479.81
581.94	472.79
582.10	440.02
582.26	409.59
582.42	404.91
582.58	472.79
582.74	418.96
582.90	404.91
583.06	423.64
583.22	383.85
583.38	496.19
583.54	402.57
583.70	463.43
583.86	362.78
584.02	428.32
584.18	437.68
584.34	395.55
584.50	435.34
584.66	451.72
584.82	374.49
584.98	423.64
585.14	444.70
585.30	470.45
585.46	337.04
585.62	402.57
585.78	390.87
585.94	369.80
586.10	418.96
586.26	437.68
586.42	433.00
586.58	440.02
586.74	397.89
586.90	383.85
587.06	393.21
587.22	486.83
587.38	379.17
587.54	397.89
587.70	489.17
587.86	472.79
588.02	386.19
588.18	369.80
588.34	458.74
588.49	416.62
588.65	484.49
588.81	472.79
588.97	388.53
589.13	421.30
589.29	484.49
589.45	397.89
589.61	414.27
589.77	428.32
589.93	379.17
590.08	388.53
590.24	395.55
590.40	437.68
590.56	547.69
590.72	472.79
590.88	440.02
591.04	451.72
591.20	461.09
591.35	458.74
591.51	444.70
591.67	360.44
591.83	418.96
591.99	411.93
592.15	510.24
592.31	423.64
592.46	454.06
592.62	430.66
592.78	437.68
592.94	348.74
593.10	433.00
593.26	395.55
593.41	351.08
593.57	451.72
593.73	346.40
593.89	442.36
594.05	442.36
594.20	369.80
594.36	416.62
594.52	421.30
594.68	400.23
594.84	521.94
594.99	430.66
595.15	470.45
595.31	351.08
595.47	461.09
595.62	447.04
595.78	404.91
595.94	416.62
596.10	400.23
596.25	482.15
596.41	376.83
596.57	484.49
596.73	489.17
596.88	388.53
597.04	470.45
597.20	486.83
597.36	475.13
597.51	388.53
597.67	468.11
597.83	444.70
597.99	395.55
598.14	374.49
598.30	374.49
598.46	346.40
598.61	482.15
598.77	472.79
598.93	404.91
599.09	369.80
599.24	409.59
599.40	454.06
599.56	358.10
599.71	421.30
599.87	339.38
600.03	386.19
600.18	372.15
600.34	425.98
600.50	393.21
600.65	400.23
600.81	414.27
600.97	372.15
601.12	409.59
601.28	444.70
601.44	416.62
601.59	404.91
601.75	390.87
601.91	444.70
602.06	411.93
602.22	440.02
602.37	423.64
602.53	486.83
602.69	407.25
602.84	402.57
603.00	404.91
603.16	416.62
603.31	444.70
603.47	421.30
603.62	383.85
603.78	444.70
603.94	390.87
604.09	425.98
604.25	465.77
604.40	477.47
604.56	433.00
604.71	454.06
604.87	437.68
605.03	367.46
605.18	397.89
605.34	435.34
605.49	407.25
605.65	454.06
605.80	437.68
605.96	383.85
606.12	461.09
606.27	440.02
606.43	447.04
606.58	444.70
606.74	421.30
606.89	376.83
607.05	425.98
607.20	404.91
607.36	411.93
607.51	402.57
607.67	383.85
607.82	330.02
607.98	451.72
608.13	376.83
608.29	407.25
608.44	486.83
608.60	421.30
608.75	423.64
608.91	416.62
609.06	393.21
609.22	433.00
609.37	402.57
609.53	458.74
609.68	365.12
609.84	414.27
609.99	383.85
610.15	423.64
