SpectraSuite Data File
++++++++++++++++++++++++++++++++++++
Date: Fri Oct 25 12:11:40 EDT 2013
User: price-jones
Dark Spectrum Present: No
Reference Spectrum Present: No
Number of Sampled Component Spectra: 1
Spectrometers: USB2+H05261
Integration Time (usec): 100000 (USB2+H05261)
Spectra Averaged: 1 (USB2+H05261)
Boxcar Smoothing: 0 (USB2+H05261)
Correct for Electrical Dark: No (USB2+H05261)
Strobe/Lamp Enabled: No (USB2+H05261)
Correct for Detector Non-linearity: No (USB2+H05261)
Correct for Stray Light: No (USB2+H05261)
Number of Pixels in Processed Spectrum: 2048
>>>>>Begin Processed Spectral Data<<<<<
365.73	369.80
365.92	369.80
366.12	369.80
366.32	341.72
366.52	294.91
366.72	227.03
366.91	184.90
367.11	287.89
367.31	266.82
367.51	227.03
367.70	266.82
367.90	243.42
368.10	208.31
368.30	238.73
368.49	257.46
368.69	215.33
368.89	220.01
369.09	243.42
369.28	227.03
369.48	231.71
369.68	320.65
369.87	280.86
370.07	248.10
370.27	372.15
370.47	360.44
370.66	383.85
370.86	264.48
371.06	397.89
371.25	353.42
371.45	311.29
371.65	411.93
371.84	358.10
372.04	433.00
372.24	386.19
372.44	411.93
372.63	362.78
372.83	402.57
373.03	388.53
373.22	327.68
373.42	416.62
373.62	358.10
373.81	355.76
374.01	458.74
374.21	393.21
374.40	390.87
374.60	484.49
374.79	423.64
374.99	440.02
375.19	379.17
375.38	341.72
375.58	407.25
375.78	421.30
375.97	365.12
376.17	440.02
376.37	348.74
376.56	449.38
376.76	390.87
376.95	404.91
377.15	421.30
377.35	360.44
377.54	369.80
377.74	484.49
377.93	374.49
378.13	454.06
378.33	423.64
378.52	372.15
378.72	397.89
378.91	463.43
379.11	332.36
379.31	360.44
379.50	442.36
379.70	433.00
379.89	414.27
380.09	355.76
380.28	372.15
380.48	409.59
380.68	390.87
380.87	313.63
381.07	435.34
381.26	503.22
381.46	379.17
381.65	486.83
381.85	395.55
382.04	369.80
382.24	468.11
382.43	386.19
382.63	402.57
382.83	433.00
383.02	393.21
383.22	505.56
383.41	374.49
383.61	379.17
383.80	433.00
384.00	327.68
384.19	322.99
384.39	334.70
384.58	367.46
384.78	444.70
384.97	442.36
385.17	411.93
385.36	400.23
385.56	388.53
385.75	318.31
385.95	414.27
386.14	400.23
386.34	376.83
386.53	428.32
386.72	472.79
386.92	407.25
387.11	407.25
387.31	440.02
387.50	416.62
387.70	386.19
387.89	388.53
388.09	447.04
388.28	428.32
388.48	437.68
388.67	386.19
388.86	416.62
389.06	383.85
389.25	402.57
389.45	440.02
389.64	428.32
389.84	458.74
390.03	386.19
390.22	416.62
390.42	388.53
390.61	372.15
390.81	395.55
391.00	383.85
391.19	360.44
391.39	425.98
391.58	435.34
391.78	397.89
391.97	388.53
392.16	395.55
392.36	400.23
392.55	407.25
392.75	498.53
392.94	496.19
393.13	358.10
393.33	416.62
393.52	423.64
393.71	414.27
393.91	351.08
394.10	311.29
394.29	404.91
394.49	393.21
394.68	463.43
394.88	472.79
395.07	341.72
395.26	409.59
395.46	395.55
395.65	386.19
395.84	437.68
396.04	421.30
396.23	411.93
396.42	428.32
396.62	414.27
396.81	425.98
397.00	430.66
397.19	404.91
397.39	430.66
397.58	444.70
397.77	411.93
397.97	386.19
398.16	369.80
398.35	425.98
398.55	430.66
398.74	397.89
398.93	442.36
399.12	379.17
399.32	461.09
399.51	414.27
399.70	423.64
399.90	440.02
400.09	397.89
400.28	402.57
400.47	402.57
400.67	416.62
400.86	393.21
401.05	428.32
401.24	435.34
401.44	411.93
401.63	381.51
401.82	390.87
402.01	372.15
402.21	346.40
402.40	390.87
402.59	493.85
402.78	411.93
402.97	414.27
403.17	388.53
403.36	428.32
403.55	395.55
403.74	425.98
403.93	337.04
404.13	479.81
404.32	393.21
404.51	409.59
404.70	433.00
404.89	416.62
405.09	465.77
405.28	374.49
405.47	388.53
405.66	404.91
405.85	407.25
406.05	355.76
406.24	362.78
406.43	376.83
406.62	418.96
406.81	463.43
407.00	500.87
407.20	444.70
407.39	365.12
407.58	416.62
407.77	461.09
407.96	430.66
408.15	425.98
408.34	456.40
408.54	470.45
408.73	369.80
408.92	463.43
409.11	440.02
409.30	465.77
409.49	463.43
409.68	414.27
409.87	418.96
410.07	379.17
410.26	379.17
410.45	379.17
410.64	397.89
410.83	411.93
411.02	498.53
411.21	461.09
411.40	451.72
411.59	449.38
411.78	353.42
411.98	383.85
412.17	430.66
412.36	411.93
412.55	325.33
412.74	472.79
412.93	383.85
413.12	390.87
413.31	397.89
413.50	407.25
413.69	421.30
413.88	402.57
414.07	299.59
414.26	395.55
414.45	447.04
414.64	386.19
414.83	454.06
415.02	362.78
415.22	470.45
415.41	491.51
415.60	428.32
415.79	362.78
415.98	454.06
416.17	390.87
416.36	390.87
416.55	379.17
416.74	447.04
416.93	423.64
417.12	393.21
417.31	437.68
417.50	379.17
417.69	479.81
417.88	372.15
418.07	423.64
418.26	428.32
418.45	433.00
418.64	463.43
418.83	397.89
419.02	376.83
419.21	449.38
419.39	330.02
419.58	411.93
419.77	388.53
419.96	428.32
420.15	503.22
420.34	421.30
420.53	383.85
420.72	423.64
420.91	447.04
421.10	404.91
421.29	388.53
421.48	447.04
421.67	465.77
421.86	390.87
422.05	374.49
422.24	442.36
422.43	390.87
422.61	510.24
422.80	433.00
422.99	465.77
423.18	372.15
423.37	479.81
423.56	402.57
423.75	447.04
423.94	437.68
424.13	395.55
424.32	393.21
424.50	376.83
424.69	381.51
424.88	416.62
425.07	425.98
425.26	416.62
425.45	409.59
425.64	421.30
425.83	409.59
426.01	374.49
426.20	428.32
426.39	353.42
426.58	390.87
426.77	472.79
426.96	411.93
427.15	451.72
427.33	407.25
427.52	348.74
427.71	440.02
427.90	428.32
428.09	346.40
428.28	351.08
428.46	374.49
428.65	475.13
428.84	388.53
429.03	390.87
429.22	386.19
429.40	376.83
429.59	477.47
429.78	493.85
429.97	390.87
430.16	351.08
430.34	430.66
430.53	428.32
430.72	442.36
430.91	383.85
431.10	407.25
431.28	360.44
431.47	400.23
431.66	430.66
431.85	395.55
432.03	386.19
432.22	395.55
432.41	444.70
432.60	451.72
432.79	451.72
432.97	362.78
433.16	447.04
433.35	369.80
433.54	407.25
433.72	416.62
433.91	421.30
434.10	407.25
434.28	423.64
434.47	421.30
434.66	421.30
434.85	486.83
435.03	423.64
435.22	477.47
435.41	514.92
435.59	397.89
435.78	397.89
435.97	372.15
436.16	416.62
436.34	449.38
436.53	362.78
436.72	430.66
436.90	454.06
437.09	440.02
437.28	383.85
437.46	449.38
437.65	423.64
437.84	454.06
438.02	341.72
438.21	407.25
438.40	421.30
438.58	407.25
438.77	428.32
438.96	449.38
439.14	428.32
439.33	423.64
439.52	407.25
439.70	423.64
439.89	400.23
440.08	351.08
440.26	393.21
440.45	440.02
440.63	393.21
440.82	409.59
441.01	388.53
441.19	411.93
441.38	404.91
441.57	447.04
441.75	428.32
441.94	428.32
442.12	360.44
442.31	458.74
442.50	428.32
442.68	430.66
442.87	379.17
443.05	344.06
443.24	395.55
443.43	423.64
443.61	458.74
443.80	442.36
443.98	365.12
444.17	416.62
444.35	369.80
444.54	404.91
444.73	390.87
444.91	456.40
445.10	411.93
445.28	463.43
445.47	411.93
445.65	360.44
445.84	414.27
446.02	404.91
446.21	376.83
446.39	360.44
446.58	402.57
446.77	444.70
446.95	437.68
447.14	400.23
447.32	456.40
447.51	397.89
447.69	390.87
447.88	421.30
448.06	449.38
448.25	477.47
448.43	430.66
448.62	407.25
448.80	390.87
448.99	461.09
449.17	374.49
449.36	407.25
449.54	404.91
449.73	407.25
449.91	433.00
450.10	397.89
450.28	421.30
450.46	386.19
450.65	463.43
450.83	402.57
451.02	449.38
451.20	418.96
451.39	397.89
451.57	386.19
451.76	318.31
451.94	414.27
452.13	449.38
452.31	400.23
452.49	362.78
452.68	456.40
452.86	440.02
453.05	421.30
453.23	365.12
453.42	454.06
453.60	423.64
453.78	442.36
453.97	397.89
454.15	477.47
454.34	390.87
454.52	376.83
454.70	348.74
454.89	404.91
455.07	390.87
455.26	440.02
455.44	409.59
455.62	409.59
455.81	414.27
455.99	337.04
456.17	414.27
456.36	400.23
456.54	334.70
456.73	416.62
456.91	372.15
457.09	451.72
457.28	428.32
457.46	493.85
457.64	430.66
457.83	386.19
458.01	311.29
458.19	468.11
458.38	447.04
458.56	409.59
458.74	430.66
458.93	425.98
459.11	418.96
459.29	332.36
459.48	423.64
459.66	402.57
459.84	383.85
460.03	475.13
460.21	409.59
460.39	402.57
460.57	477.47
460.76	425.98
460.94	428.32
461.12	486.83
461.31	414.27
461.49	367.46
461.67	409.59
461.85	404.91
462.04	411.93
462.22	723.23
462.40	374.49
462.59	437.68
462.77	348.74
462.95	409.59
463.13	465.77
463.32	461.09
463.50	461.09
463.68	454.06
463.86	414.27
464.05	456.40
464.23	458.74
464.41	418.96
464.59	339.38
464.78	416.62
464.96	346.40
465.14	407.25
465.32	287.89
465.50	367.46
465.69	388.53
465.87	421.30
466.05	386.19
466.23	402.57
466.41	407.25
466.60	397.89
466.78	451.72
466.96	486.83
467.14	421.30
467.32	346.40
467.51	510.24
467.69	491.51
467.87	355.76
468.05	425.98
468.23	414.27
468.41	416.62
468.60	383.85
468.78	428.32
468.96	442.36
469.14	388.53
469.32	388.53
469.50	388.53
469.69	374.49
469.87	395.55
470.05	411.93
470.23	379.17
470.41	383.85
470.59	339.38
470.77	411.93
470.95	346.40
471.14	458.74
471.32	465.77
471.50	433.00
471.68	423.64
471.86	489.17
472.04	428.32
472.22	454.06
472.40	454.06
472.58	393.21
472.77	416.62
472.95	437.68
473.13	440.02
473.31	397.89
473.49	442.36
473.67	372.15
473.85	458.74
474.03	418.96
474.21	454.06
474.39	435.34
474.57	411.93
474.75	425.98
474.93	397.89
475.12	477.47
475.30	393.21
475.48	355.76
475.66	444.70
475.84	449.38
476.02	409.59
476.20	428.32
476.38	383.85
476.56	428.32
476.74	397.89
476.92	421.30
477.10	407.25
477.28	379.17
477.46	379.17
477.64	423.64
477.82	348.74
478.00	348.74
478.18	470.45
478.36	397.89
478.54	440.02
478.72	416.62
478.90	367.46
479.08	346.40
479.26	435.34
479.44	402.57
479.62	407.25
479.80	332.36
479.98	411.93
480.16	334.70
480.34	423.64
480.52	409.59
480.70	451.72
480.88	491.51
481.06	372.15
481.24	379.17
481.41	379.17
481.59	390.87
481.77	393.21
481.95	400.23
482.13	444.70
482.31	411.93
482.49	362.78
482.67	376.83
482.85	472.79
483.03	440.02
483.21	369.80
483.39	463.43
483.57	351.08
483.74	397.89
483.92	468.11
484.10	402.57
484.28	451.72
484.46	442.36
484.64	409.59
484.82	463.43
485.00	337.04
485.18	416.62
485.35	348.74
485.53	430.66
485.71	425.98
485.89	430.66
486.07	353.42
486.25	493.85
486.43	463.43
486.61	425.98
486.78	414.27
486.96	404.91
487.14	454.06
487.32	449.38
487.50	409.59
487.68	416.62
487.85	449.38
488.03	411.93
488.21	461.09
488.39	458.74
488.57	409.59
488.75	397.89
488.92	454.06
489.10	454.06
489.28	433.00
489.46	465.77
489.64	512.58
489.81	484.49
489.99	468.11
490.17	365.12
490.35	376.83
490.53	470.45
490.70	402.57
490.88	402.57
491.06	365.12
491.24	416.62
491.41	418.96
491.59	538.32
491.77	409.59
491.95	433.00
492.13	404.91
492.30	379.17
492.48	362.78
492.66	430.66
492.84	414.27
493.01	475.13
493.19	397.89
493.37	400.23
493.54	414.27
493.72	372.15
493.90	505.56
494.08	449.38
494.25	470.45
494.43	397.89
494.61	447.04
494.79	425.98
494.96	381.51
495.14	362.78
495.32	421.30
495.49	421.30
495.67	418.96
495.85	425.98
496.02	442.36
496.20	374.49
496.38	442.36
496.55	393.21
496.73	510.24
496.91	325.33
497.09	517.26
497.26	383.85
497.44	418.96
497.62	400.23
497.79	461.09
497.97	386.19
498.14	437.68
498.32	416.62
498.50	365.12
498.67	498.53
498.85	440.02
499.03	433.00
499.20	463.43
499.38	437.68
499.56	486.83
499.73	447.04
499.91	465.77
500.08	456.40
500.26	437.68
500.44	430.66
500.61	388.53
500.79	470.45
500.97	442.36
501.14	514.92
501.32	355.76
501.49	423.64
501.67	367.46
501.84	334.70
502.02	416.62
502.20	421.30
502.37	397.89
502.55	402.57
502.72	376.83
502.90	430.66
503.07	362.78
503.25	421.30
503.43	414.27
503.60	409.59
503.78	430.66
503.95	362.78
504.13	425.98
504.30	374.49
504.48	447.04
504.65	500.87
504.83	444.70
505.01	423.64
505.18	404.91
505.36	372.15
505.53	423.64
505.71	374.49
505.88	365.12
506.06	425.98
506.23	407.25
506.41	372.15
506.58	435.34
506.76	404.91
506.93	470.45
507.11	397.89
507.28	435.34
507.46	402.57
507.63	425.98
507.81	411.93
507.98	493.85
508.16	395.55
508.33	451.72
508.50	458.74
508.68	503.22
508.85	465.77
509.03	383.85
509.20	449.38
509.38	367.46
509.55	435.34
509.73	500.87
509.90	414.27
510.08	477.47
510.25	433.00
510.42	402.57
510.60	496.19
510.77	423.64
510.95	454.06
511.12	444.70
511.30	440.02
511.47	435.34
511.64	437.68
511.82	421.30
511.99	470.45
512.17	463.43
512.34	404.91
512.51	425.98
512.69	486.83
512.86	435.34
513.04	402.57
513.21	430.66
513.38	374.49
513.56	353.42
513.73	440.02
513.90	360.44
514.08	458.74
514.25	437.68
514.43	418.96
514.60	376.83
514.77	418.96
514.95	433.00
515.12	341.72
515.29	348.74
515.47	409.59
515.64	379.17
515.81	418.96
515.99	416.62
516.16	510.24
516.33	440.02
516.51	430.66
516.68	376.83
516.85	435.34
517.03	430.66
517.20	390.87
517.37	482.15
517.54	440.02
517.72	407.25
517.89	407.25
518.06	365.12
518.24	510.24
518.41	435.34
518.58	362.78
518.75	404.91
518.93	479.81
519.10	430.66
519.27	428.32
519.45	411.93
519.62	447.04
519.79	433.00
519.96	381.51
520.14	461.09
520.31	440.02
520.48	400.23
520.65	360.44
520.83	386.19
521.00	416.62
521.17	454.06
521.34	379.17
521.52	456.40
521.69	458.74
521.86	496.19
522.03	397.89
522.20	454.06
522.38	433.00
522.55	437.68
522.72	362.78
522.89	425.98
523.07	456.40
523.24	414.27
523.41	437.68
523.58	416.62
523.75	423.64
523.92	393.21
524.10	332.36
524.27	369.80
524.44	423.64
524.61	358.10
524.78	393.21
524.96	358.10
525.13	372.15
525.30	433.00
525.47	505.56
525.64	444.70
525.81	407.25
525.98	379.17
526.16	367.46
526.33	440.02
526.50	393.21
526.67	409.59
526.84	423.64
527.01	512.58
527.18	379.17
527.36	421.30
527.53	454.06
527.70	444.70
527.87	423.64
528.04	404.91
528.21	421.30
528.38	418.96
528.55	437.68
528.72	379.17
528.89	414.27
529.07	442.36
529.24	381.51
529.41	433.00
529.58	423.64
529.75	493.85
529.92	437.68
530.09	447.04
530.26	428.32
530.43	437.68
530.60	470.45
530.77	409.59
530.94	496.19
531.11	440.02
531.28	297.25
531.46	423.64
531.63	369.80
531.80	472.79
531.97	418.96
532.14	433.00
532.31	411.93
532.48	428.32
532.65	465.77
532.82	451.72
532.99	414.27
533.16	437.68
533.33	383.85
533.50	376.83
533.67	416.62
533.84	390.87
534.01	365.12
534.18	372.15
534.35	484.49
534.52	390.87
534.69	358.10
534.86	400.23
535.03	435.34
535.20	393.21
535.37	411.93
535.54	409.59
535.71	416.62
535.88	421.30
536.05	425.98
536.22	449.38
536.38	372.15
536.55	423.64
536.72	496.19
536.89	376.83
537.06	400.23
537.23	395.55
537.40	318.31
537.57	395.55
537.74	414.27
537.91	418.96
538.08	418.96
538.25	442.36
538.42	409.59
538.59	428.32
538.75	395.55
538.92	416.62
539.09	465.77
539.26	418.96
539.43	386.19
539.60	435.34
539.77	414.27
539.94	425.98
540.11	435.34
540.28	489.17
540.44	411.93
540.61	416.62
540.78	411.93
540.95	433.00
541.12	402.57
541.29	402.57
541.46	456.40
541.62	397.89
541.79	409.59
541.96	351.08
542.13	484.49
542.30	409.59
542.47	435.34
542.63	409.59
542.80	397.89
542.97	475.13
543.14	465.77
543.31	372.15
543.48	470.45
543.64	433.00
543.81	421.30
543.98	388.53
544.15	477.47
544.32	428.32
544.48	440.02
544.65	409.59
544.82	344.06
544.99	383.85
545.16	442.36
545.32	425.98
545.49	449.38
545.66	435.34
545.83	409.59
546.00	428.32
546.16	428.32
546.33	433.00
546.50	428.32
546.67	388.53
546.83	475.13
547.00	404.91
547.17	360.44
547.34	390.87
547.50	383.85
547.67	461.09
547.84	404.91
548.00	454.06
548.17	379.17
548.34	388.53
548.51	461.09
548.67	472.79
548.84	411.93
549.01	407.25
549.18	461.09
549.34	341.72
549.51	447.04
549.68	418.96
549.84	421.30
550.01	428.32
550.18	475.13
550.34	447.04
550.51	479.81
550.68	470.45
550.84	475.13
551.01	465.77
551.18	402.57
551.34	463.43
551.51	358.10
551.68	393.21
551.84	358.10
552.01	428.32
552.18	416.62
552.34	428.32
552.51	411.93
552.68	430.66
552.84	367.46
553.01	400.23
553.18	437.68
553.34	423.64
553.51	367.46
553.67	409.59
553.84	489.17
554.01	458.74
554.17	444.70
554.34	503.22
554.51	486.83
554.67	437.68
554.84	435.34
555.00	404.91
555.17	407.25
555.33	411.93
555.50	393.21
555.67	423.64
555.83	381.51
556.00	416.62
556.16	599.18
556.33	475.13
556.50	440.02
556.66	479.81
556.83	409.59
556.99	402.57
557.16	430.66
557.32	430.66
557.49	409.59
557.65	461.09
557.82	468.11
557.98	430.66
558.15	447.04
558.32	444.70
558.48	421.30
558.65	428.32
558.81	365.12
558.98	402.57
559.14	423.64
559.31	355.76
559.47	430.66
559.64	430.66
559.80	390.87
559.97	320.65
560.13	355.76
560.30	372.15
560.46	416.62
560.63	409.59
560.79	411.93
560.96	447.04
561.12	404.91
561.29	437.68
561.45	500.87
561.61	449.38
561.78	435.34
561.94	423.64
562.11	418.96
562.27	367.46
562.44	339.38
562.60	397.89
562.77	379.17
562.93	493.85
563.10	454.06
563.26	358.10
563.42	418.96
563.59	414.27
563.75	456.40
563.92	507.90
564.08	425.98
564.24	437.68
564.41	421.30
564.57	325.33
564.74	409.59
564.90	404.91
565.07	381.51
565.23	456.40
565.39	421.30
565.56	411.93
565.72	442.36
565.88	386.19
566.05	400.23
566.21	435.34
566.38	400.23
566.54	435.34
566.70	362.78
566.87	437.68
567.03	470.45
567.19	409.59
567.36	407.25
567.52	451.72
567.68	493.85
567.85	390.87
568.01	383.85
568.17	463.43
568.34	372.15
568.50	472.79
568.66	442.36
568.83	440.02
568.99	458.74
569.15	400.23
569.32	414.27
569.48	447.04
569.64	414.27
569.81	437.68
569.97	395.55
570.13	484.49
570.30	383.85
570.46	411.93
570.62	379.17
570.78	383.85
570.95	404.91
571.11	423.64
571.27	458.74
571.43	353.42
571.60	414.27
571.76	400.23
571.92	440.02
572.09	425.98
572.25	458.74
572.41	409.59
572.57	376.83
572.74	479.81
572.90	484.49
573.06	386.19
573.22	442.36
573.38	477.47
573.55	463.43
573.71	402.57
573.87	425.98
574.03	435.34
574.20	456.40
574.36	388.53
574.52	353.42
574.68	423.64
574.84	456.40
575.01	393.21
575.17	428.32
575.33	440.02
575.49	393.21
575.65	442.36
575.82	503.22
575.98	386.19
576.14	374.49
576.30	442.36
576.46	423.64
576.62	388.53
576.79	418.96
576.95	379.17
577.11	393.21
577.27	344.06
577.43	435.34
577.59	414.27
577.75	402.57
577.92	395.55
578.08	388.53
578.24	461.09
578.40	451.72
578.56	477.47
578.72	484.49
578.88	435.34
579.04	409.59
579.21	402.57
579.37	414.27
579.53	440.02
579.69	454.06
579.85	393.21
580.01	393.21
580.17	393.21
580.33	482.15
580.49	489.17
580.65	475.13
580.82	416.62
580.98	433.00
581.14	397.89
581.30	411.93
581.46	407.25
581.62	390.87
581.78	433.00
581.94	461.09
582.10	402.57
582.26	393.21
582.42	367.46
582.58	402.57
582.74	423.64
582.90	468.11
583.06	472.79
583.22	435.34
583.38	393.21
583.54	393.21
583.70	402.57
583.86	444.70
584.02	449.38
584.18	486.83
584.34	383.85
584.50	414.27
584.66	428.32
584.82	425.98
584.98	440.02
585.14	416.62
585.30	376.83
585.46	365.12
585.62	388.53
585.78	447.04
585.94	430.66
586.10	414.27
586.26	355.76
586.42	414.27
586.58	416.62
586.74	362.78
586.90	409.59
587.06	449.38
587.22	524.28
587.38	379.17
587.54	393.21
587.70	472.79
587.86	472.79
588.02	341.72
588.18	423.64
588.34	484.49
588.49	433.00
588.65	442.36
588.81	397.89
588.97	374.49
589.13	325.33
589.29	416.62
589.45	404.91
589.61	440.02
589.77	411.93
589.93	437.68
590.08	379.17
590.24	313.63
590.40	374.49
590.56	442.36
590.72	444.70
590.88	435.34
591.04	369.80
591.20	440.02
591.35	388.53
591.51	423.64
591.67	390.87
591.83	402.57
591.99	468.11
592.15	444.70
592.31	456.40
592.46	374.49
592.62	461.09
592.78	472.79
592.94	440.02
593.10	468.11
593.26	444.70
593.41	430.66
593.57	475.13
593.73	421.30
593.89	390.87
594.05	388.53
594.20	409.59
594.36	442.36
594.52	416.62
594.68	437.68
594.84	390.87
594.99	489.17
595.15	418.96
595.31	433.00
595.47	444.70
595.62	423.64
595.78	463.43
595.94	334.70
596.10	447.04
596.25	395.55
596.41	444.70
596.57	411.93
596.73	437.68
596.88	365.12
597.04	334.70
597.20	449.38
597.36	393.21
597.51	456.40
597.67	379.17
597.83	393.21
597.99	430.66
598.14	381.51
598.30	463.43
598.46	435.34
598.61	407.25
598.77	433.00
598.93	372.15
599.09	376.83
599.24	458.74
599.40	402.57
599.56	440.02
599.71	383.85
599.87	351.08
600.03	381.51
600.18	440.02
600.34	379.17
600.50	463.43
600.65	346.40
600.81	442.36
600.97	444.70
601.12	470.45
601.28	479.81
601.44	421.30
601.59	486.83
601.75	393.21
601.91	435.34
602.06	505.56
602.22	491.51
602.37	418.96
602.53	395.55
602.69	393.21
602.84	379.17
603.00	465.77
603.16	341.72
603.31	435.34
603.47	400.23
603.62	395.55
603.78	421.30
603.94	442.36
604.09	451.72
604.25	451.72
604.40	409.59
604.56	440.02
604.71	451.72
604.87	369.80
605.03	409.59
605.18	386.19
605.34	383.85
605.49	383.85
605.65	318.31
605.80	388.53
605.96	421.30
606.12	339.38
606.27	472.79
606.43	437.68
606.58	416.62
606.74	311.29
606.89	442.36
607.05	482.15
607.20	433.00
607.36	411.93
607.51	346.40
607.67	531.30
607.82	430.66
607.98	461.09
608.13	451.72
608.29	374.49
608.44	449.38
608.60	348.74
608.75	451.72
608.91	475.13
609.06	510.24
609.22	470.45
609.37	393.21
609.53	395.55
609.68	407.25
609.84	386.19
609.99	376.83
610.15	397.89
