SpectraSuite Data File
++++++++++++++++++++++++++++++++++++
Date: Fri Oct 25 12:11:45 EDT 2013
User: price-jones
Dark Spectrum Present: No
Reference Spectrum Present: No
Number of Sampled Component Spectra: 1
Spectrometers: USB2+H05261
Integration Time (usec): 100000 (USB2+H05261)
Spectra Averaged: 1 (USB2+H05261)
Boxcar Smoothing: 0 (USB2+H05261)
Correct for Electrical Dark: No (USB2+H05261)
Strobe/Lamp Enabled: No (USB2+H05261)
Correct for Detector Non-linearity: No (USB2+H05261)
Correct for Stray Light: No (USB2+H05261)
Number of Pixels in Processed Spectrum: 2048
>>>>>Begin Processed Spectral Data<<<<<
365.73	334.70
365.92	334.70
366.12	334.70
366.32	220.01
366.52	220.01
366.72	285.55
366.91	212.99
367.11	248.10
367.31	229.37
367.51	285.55
367.70	208.31
367.90	196.60
368.10	248.10
368.30	264.48
368.49	201.29
368.69	299.59
368.89	262.14
369.09	194.26
369.28	273.84
369.48	280.86
369.68	283.20
369.87	250.44
370.07	287.89
370.27	362.78
370.47	369.80
370.66	365.12
370.86	365.12
371.06	337.04
371.25	379.17
371.45	428.32
371.65	423.64
371.84	280.86
372.04	379.17
372.24	442.36
372.44	404.91
372.63	353.42
372.83	397.89
373.03	386.19
373.22	416.62
373.42	397.89
373.62	407.25
373.81	383.85
374.01	421.30
374.21	472.79
374.40	428.32
374.60	458.74
374.79	451.72
374.99	421.30
375.19	421.30
375.38	456.40
375.58	409.59
375.78	493.85
375.97	416.62
376.17	458.74
376.37	414.27
376.56	395.55
376.76	430.66
376.95	379.17
377.15	421.30
377.35	463.43
377.54	454.06
377.74	444.70
377.93	440.02
378.13	358.10
378.33	374.49
378.52	379.17
378.72	322.99
378.91	411.93
379.11	376.83
379.31	397.89
379.50	390.87
379.70	390.87
379.89	362.78
380.09	428.32
380.28	402.57
380.48	416.62
380.68	374.49
380.87	400.23
381.07	433.00
381.26	381.51
381.46	355.76
381.65	449.38
381.85	421.30
382.04	444.70
382.24	454.06
382.43	454.06
382.63	379.17
382.83	376.83
383.02	463.43
383.22	451.72
383.41	353.42
383.61	320.65
383.80	386.19
384.00	451.72
384.19	411.93
384.39	435.34
384.58	407.25
384.78	517.26
384.97	348.74
385.17	463.43
385.36	435.34
385.56	414.27
385.75	442.36
385.95	472.79
386.14	374.49
386.34	418.96
386.53	468.11
386.72	430.66
386.92	472.79
387.11	355.76
387.31	404.91
387.50	472.79
387.70	437.68
387.89	493.85
388.09	433.00
388.28	379.17
388.48	402.57
388.67	470.45
388.86	414.27
389.06	435.34
389.25	465.77
389.45	400.23
389.64	411.93
389.84	369.80
390.03	393.21
390.22	407.25
390.42	444.70
390.61	376.83
390.81	407.25
391.00	409.59
391.19	416.62
391.39	325.33
391.58	425.98
391.78	397.89
391.97	421.30
392.16	407.25
392.36	477.47
392.55	397.89
392.75	430.66
392.94	407.25
393.13	496.19
393.33	383.85
393.52	374.49
393.71	433.00
393.91	409.59
394.10	447.04
394.29	369.80
394.49	404.91
394.68	433.00
394.88	430.66
395.07	404.91
395.26	386.19
395.46	418.96
395.65	531.30
395.84	461.09
396.04	482.15
396.23	327.68
396.42	458.74
396.62	423.64
396.81	388.53
397.00	402.57
397.19	353.42
397.39	362.78
397.58	458.74
397.77	407.25
397.97	411.93
398.16	404.91
398.35	472.79
398.55	294.91
398.74	397.89
398.93	315.97
399.12	383.85
399.32	390.87
399.51	423.64
399.70	440.02
399.90	376.83
400.09	395.55
400.28	416.62
400.47	355.76
400.67	414.27
400.86	440.02
401.05	393.21
401.24	362.78
401.44	381.51
401.63	404.91
401.82	388.53
402.01	372.15
402.21	430.66
402.40	423.64
402.59	390.87
402.78	390.87
402.97	433.00
403.17	393.21
403.36	447.04
403.55	369.80
403.74	409.59
403.93	514.92
404.13	409.59
404.32	367.46
404.51	433.00
404.70	458.74
404.89	376.83
405.09	414.27
405.28	381.51
405.47	334.70
405.66	447.04
405.85	390.87
406.05	386.19
406.24	365.12
406.43	454.06
406.62	388.53
406.81	458.74
407.00	404.91
407.20	500.87
407.39	475.13
407.58	395.55
407.77	367.46
407.96	386.19
408.15	433.00
408.34	407.25
408.54	421.30
408.73	428.32
408.92	411.93
409.11	421.30
409.30	397.89
409.49	379.17
409.68	437.68
409.87	437.68
410.07	428.32
410.26	379.17
410.45	418.96
410.64	358.10
410.83	461.09
411.02	500.87
411.21	386.19
411.40	381.51
411.59	411.93
411.78	365.12
411.98	411.93
412.17	470.45
412.36	414.27
412.55	379.17
412.74	514.92
412.93	362.78
413.12	400.23
413.31	425.98
413.50	374.49
413.69	348.74
413.88	440.02
414.07	379.17
414.26	430.66
414.45	442.36
414.64	353.42
414.83	369.80
415.02	423.64
415.22	381.51
415.41	353.42
415.60	393.21
415.79	358.10
415.98	402.57
416.17	393.21
416.36	440.02
416.55	444.70
416.74	442.36
416.93	442.36
417.12	388.53
417.31	397.89
417.50	449.38
417.69	493.85
417.88	386.19
418.07	386.19
418.26	437.68
418.45	409.59
418.64	421.30
418.83	447.04
419.02	423.64
419.21	428.32
419.39	395.55
419.58	451.72
419.77	437.68
419.96	397.89
420.15	463.43
420.34	355.76
420.53	386.19
420.72	442.36
420.91	477.47
421.10	447.04
421.29	416.62
421.48	358.10
421.67	395.55
421.86	435.34
422.05	358.10
422.24	475.13
422.43	416.62
422.61	465.77
422.80	421.30
422.99	400.23
423.18	360.44
423.37	421.30
423.56	477.47
423.75	442.36
423.94	416.62
424.13	425.98
424.32	334.70
424.50	376.83
424.69	458.74
424.88	411.93
425.07	374.49
425.26	423.64
425.45	482.15
425.64	416.62
425.83	423.64
426.01	390.87
426.20	388.53
426.39	435.34
426.58	383.85
426.77	435.34
426.96	442.36
427.15	451.72
427.33	400.23
427.52	334.70
427.71	379.17
427.90	376.83
428.09	379.17
428.28	409.59
428.46	433.00
428.65	390.87
428.84	381.51
429.03	482.15
429.22	451.72
429.40	402.57
429.59	393.21
429.78	447.04
429.97	390.87
430.16	407.25
430.34	388.53
430.53	414.27
430.72	421.30
430.91	491.51
431.10	348.74
431.28	444.70
431.47	397.89
431.66	365.12
431.85	397.89
432.03	311.29
432.22	411.93
432.41	402.57
432.60	416.62
432.79	421.30
432.97	498.53
433.16	472.79
433.35	416.62
433.54	454.06
433.72	442.36
433.91	383.85
434.10	379.17
434.28	386.19
434.47	477.47
434.66	388.53
434.85	430.66
435.03	360.44
435.22	449.38
435.41	444.70
435.59	393.21
435.78	365.12
435.97	421.30
436.16	442.36
436.34	416.62
436.53	369.80
436.72	379.17
436.90	341.72
437.09	421.30
437.28	444.70
437.46	388.53
437.65	376.83
437.84	440.02
438.02	341.72
438.21	475.13
438.40	479.81
438.58	437.68
438.77	437.68
438.96	449.38
439.14	369.80
439.33	409.59
439.52	383.85
439.70	383.85
439.89	360.44
440.08	386.19
440.26	315.97
440.45	409.59
440.63	465.77
440.82	442.36
441.01	421.30
441.19	397.89
441.38	388.53
441.57	332.36
441.75	414.27
441.94	351.08
442.12	344.06
442.31	397.89
442.50	433.00
442.68	425.98
442.87	416.62
443.05	400.23
443.24	447.04
443.43	430.66
443.61	458.74
443.80	435.34
443.98	395.55
444.17	393.21
444.35	425.98
444.54	416.62
444.73	456.40
444.91	454.06
445.10	397.89
445.28	367.46
445.47	383.85
445.65	437.68
445.84	430.66
446.02	374.49
446.21	430.66
446.39	463.43
446.58	470.45
446.77	470.45
446.95	390.87
447.14	383.85
447.32	369.80
447.51	545.34
447.69	379.17
447.88	381.51
448.06	397.89
448.25	430.66
448.43	433.00
448.62	416.62
448.80	362.78
448.99	421.30
449.17	407.25
449.36	313.63
449.54	423.64
449.73	388.53
449.91	435.34
450.10	447.04
450.28	482.15
450.46	393.21
450.65	482.15
450.83	425.98
451.02	437.68
451.20	477.47
451.39	367.46
451.57	503.22
451.76	379.17
451.94	409.59
452.13	407.25
452.31	372.15
452.49	423.64
452.68	376.83
452.86	447.04
453.05	428.32
453.23	386.19
453.42	414.27
453.60	390.87
453.78	411.93
453.97	362.78
454.15	440.02
454.34	458.74
454.52	411.93
454.70	369.80
454.89	346.40
455.07	437.68
455.26	484.49
455.44	390.87
455.62	395.55
455.81	418.96
455.99	390.87
456.17	470.45
456.36	407.25
456.54	388.53
456.73	379.17
456.91	414.27
457.09	353.42
457.28	463.43
457.46	393.21
457.64	418.96
457.83	430.66
458.01	388.53
458.19	425.98
458.38	395.55
458.56	475.13
458.74	482.15
458.93	461.09
459.11	435.34
459.29	379.17
459.48	416.62
459.66	442.36
459.84	468.11
460.03	468.11
460.21	433.00
460.39	393.21
460.57	437.68
460.76	397.89
460.94	383.85
461.12	454.06
461.31	444.70
461.49	402.57
461.67	428.32
461.85	388.53
462.04	395.55
462.22	800.46
462.40	428.32
462.59	498.53
462.77	472.79
462.95	411.93
463.13	418.96
463.32	449.38
463.50	433.00
463.68	503.22
463.86	447.04
464.05	411.93
464.23	486.83
464.41	451.72
464.59	397.89
464.78	416.62
464.96	393.21
465.14	411.93
465.32	414.27
465.50	404.91
465.69	395.55
465.87	423.64
466.05	395.55
466.23	390.87
466.41	386.19
466.60	381.51
466.78	397.89
466.96	388.53
467.14	428.32
467.32	465.77
467.51	416.62
467.69	346.40
467.87	489.17
468.05	418.96
468.23	407.25
468.41	479.81
468.60	397.89
468.78	416.62
468.96	411.93
469.14	421.30
469.32	472.79
469.50	362.78
469.69	440.02
469.87	414.27
470.05	397.89
470.23	381.51
470.41	423.64
470.59	484.49
470.77	416.62
470.95	409.59
471.14	437.68
471.32	428.32
471.50	456.40
471.68	477.47
471.86	402.57
472.04	383.85
472.22	416.62
472.40	381.51
472.58	416.62
472.77	376.83
472.95	451.72
473.13	393.21
473.31	444.70
473.49	414.27
473.67	344.06
473.85	369.80
474.03	468.11
474.21	435.34
474.39	393.21
474.57	355.76
474.75	433.00
474.93	397.89
475.12	386.19
475.30	430.66
475.48	491.51
475.66	407.25
475.84	374.49
476.02	400.23
476.20	390.87
476.38	444.70
476.56	505.56
476.74	395.55
476.92	355.76
477.10	491.51
477.28	423.64
477.46	400.23
477.64	425.98
477.82	500.87
478.00	362.78
478.18	388.53
478.36	388.53
478.54	421.30
478.72	379.17
478.90	423.64
479.08	393.21
479.26	423.64
479.44	400.23
479.62	383.85
479.80	458.74
479.98	404.91
480.16	379.17
480.34	454.06
480.52	456.40
480.70	421.30
480.88	402.57
481.06	425.98
481.24	379.17
481.41	341.72
481.59	411.93
481.77	475.13
481.95	444.70
482.13	386.19
482.31	425.98
482.49	358.10
482.67	475.13
482.85	458.74
483.03	351.08
483.21	442.36
483.39	365.12
483.57	435.34
483.74	423.64
483.92	383.85
484.10	369.80
484.28	454.06
484.46	414.27
484.64	411.93
484.82	456.40
485.00	430.66
485.18	395.55
485.35	493.85
485.53	444.70
485.71	477.47
485.89	346.40
486.07	397.89
486.25	447.04
486.43	409.59
486.61	454.06
486.78	435.34
486.96	376.83
487.14	435.34
487.32	402.57
487.50	425.98
487.68	428.32
487.85	428.32
488.03	402.57
488.21	428.32
488.39	330.02
488.57	472.79
488.75	449.38
488.92	571.09
489.10	433.00
489.28	418.96
489.46	395.55
489.64	390.87
489.81	421.30
489.99	400.23
490.17	346.40
490.35	458.74
490.53	395.55
490.70	414.27
490.88	428.32
491.06	404.91
491.24	428.32
491.41	493.85
491.59	444.70
491.77	397.89
491.95	472.79
492.13	379.17
492.30	390.87
492.48	409.59
492.66	433.00
492.84	447.04
493.01	407.25
493.19	407.25
493.37	475.13
493.54	498.53
493.72	414.27
493.90	437.68
494.08	435.34
494.25	498.53
494.43	461.09
494.61	397.89
494.79	372.15
494.96	435.34
495.14	449.38
495.32	498.53
495.49	437.68
495.67	397.89
495.85	468.11
496.02	423.64
496.20	428.32
496.38	440.02
496.55	458.74
496.73	414.27
496.91	390.87
497.09	430.66
497.26	430.66
497.44	461.09
497.62	440.02
497.79	409.59
497.97	372.15
498.14	442.36
498.32	430.66
498.50	395.55
498.67	440.02
498.85	447.04
499.03	423.64
499.20	463.43
499.38	386.19
499.56	425.98
499.73	465.77
499.91	437.68
500.08	465.77
500.26	383.85
500.44	374.49
500.61	334.70
500.79	411.93
500.97	442.36
501.14	456.40
501.32	409.59
501.49	430.66
501.67	393.21
501.84	400.23
502.02	437.68
502.20	447.04
502.37	470.45
502.55	404.91
502.72	365.12
502.90	386.19
503.07	411.93
503.25	416.62
503.43	425.98
503.60	383.85
503.78	407.25
503.95	402.57
504.13	407.25
504.30	372.15
504.48	449.38
504.65	409.59
504.83	440.02
505.01	425.98
505.18	421.30
505.36	458.74
505.53	407.25
505.71	437.68
505.88	346.40
506.06	367.46
506.23	400.23
506.41	386.19
506.58	435.34
506.76	414.27
506.93	421.30
507.11	400.23
507.28	479.81
507.46	414.27
507.63	428.32
507.81	369.80
507.98	449.38
508.16	414.27
508.33	393.21
508.50	386.19
508.68	395.55
508.85	475.13
509.03	383.85
509.20	414.27
509.38	395.55
509.55	409.59
509.73	437.68
509.90	402.57
510.08	395.55
510.25	505.56
510.42	360.44
510.60	393.21
510.77	472.79
510.95	449.38
511.12	393.21
511.30	430.66
511.47	400.23
511.64	456.40
511.82	416.62
511.99	493.85
512.17	449.38
512.34	400.23
512.51	442.36
512.69	411.93
512.86	411.93
513.04	369.80
513.21	444.70
513.38	332.36
513.56	491.51
513.73	451.72
513.90	388.53
514.08	404.91
514.25	418.96
514.43	397.89
514.60	397.89
514.77	435.34
514.95	428.32
515.12	454.06
515.29	416.62
515.47	411.93
515.64	393.21
515.81	425.98
515.99	447.04
516.16	465.77
516.33	461.09
516.51	393.21
516.68	423.64
516.85	400.23
517.03	355.76
517.20	365.12
517.37	404.91
517.54	449.38
517.72	454.06
517.89	330.02
518.06	447.04
518.24	472.79
518.41	437.68
518.58	463.43
518.75	395.55
518.93	414.27
519.10	458.74
519.27	374.49
519.45	425.98
519.62	346.40
519.79	404.91
519.96	458.74
520.14	447.04
520.31	447.04
520.48	414.27
520.65	421.30
520.83	517.26
521.00	449.38
521.17	437.68
521.34	388.53
521.52	376.83
521.69	372.15
521.86	376.83
522.03	414.27
522.20	456.40
522.38	402.57
522.55	465.77
522.72	437.68
522.89	418.96
523.07	395.55
523.24	388.53
523.41	425.98
523.58	433.00
523.75	437.68
523.92	404.91
524.10	447.04
524.27	449.38
524.44	404.91
524.61	442.36
524.78	433.00
524.96	440.02
525.13	334.70
525.30	348.74
525.47	491.51
525.64	442.36
525.81	367.46
525.98	463.43
526.16	365.12
526.33	390.87
526.50	379.17
526.67	388.53
526.84	416.62
527.01	486.83
527.18	383.85
527.36	393.21
527.53	362.78
527.70	353.42
527.87	442.36
528.04	451.72
528.21	379.17
528.38	395.55
528.55	500.87
528.72	442.36
528.89	404.91
529.07	400.23
529.24	440.02
529.41	470.45
529.58	409.59
529.75	414.27
529.92	433.00
530.09	390.87
530.26	390.87
530.43	482.15
530.60	346.40
530.77	383.85
530.94	416.62
531.11	437.68
531.28	489.17
531.46	372.15
531.63	362.78
531.80	418.96
531.97	353.42
532.14	510.24
532.31	407.25
532.48	423.64
532.65	390.87
532.82	372.15
532.99	369.80
533.16	390.87
533.33	421.30
533.50	402.57
533.67	374.49
533.84	409.59
534.01	411.93
534.18	421.30
534.35	503.22
534.52	355.76
534.69	402.57
534.86	397.89
535.03	351.08
535.20	414.27
535.37	451.72
535.54	365.12
535.71	411.93
535.88	400.23
536.05	461.09
536.22	463.43
536.38	397.89
536.55	400.23
536.72	440.02
536.89	409.59
537.06	404.91
537.23	402.57
537.40	437.68
537.57	397.89
537.74	477.47
537.91	440.02
538.08	451.72
538.25	390.87
538.42	411.93
538.59	346.40
538.75	409.59
538.92	395.55
539.09	411.93
539.26	449.38
539.43	456.40
539.60	444.70
539.77	416.62
539.94	430.66
540.11	386.19
540.28	416.62
540.44	365.12
540.61	447.04
540.78	393.21
540.95	341.72
541.12	421.30
541.29	418.96
541.46	435.34
541.62	395.55
541.79	468.11
541.96	425.98
542.13	353.42
542.30	475.13
542.47	409.59
542.63	430.66
542.80	440.02
542.97	444.70
543.14	433.00
543.31	430.66
543.48	386.19
543.64	472.79
543.81	517.26
543.98	411.93
544.15	313.63
544.32	479.81
544.48	355.76
544.65	423.64
544.82	425.98
544.99	416.62
545.16	421.30
545.32	372.15
545.49	339.38
545.66	360.44
545.83	416.62
546.00	379.17
546.16	402.57
546.33	477.47
546.50	414.27
546.67	390.87
546.83	381.51
547.00	458.74
547.17	465.77
547.34	421.30
547.50	390.87
547.67	435.34
547.84	454.06
548.00	421.30
548.17	416.62
548.34	496.19
548.51	395.55
548.67	369.80
548.84	458.74
549.01	433.00
549.18	416.62
549.34	393.21
549.51	374.49
549.68	470.45
549.84	400.23
550.01	404.91
550.18	543.00
550.34	491.51
550.51	386.19
550.68	435.34
550.84	395.55
551.01	411.93
551.18	437.68
551.34	468.11
551.51	421.30
551.68	411.93
551.84	416.62
552.01	376.83
552.18	395.55
552.34	379.17
552.51	428.32
552.68	418.96
552.84	437.68
553.01	477.47
553.18	416.62
553.34	358.10
553.51	388.53
553.67	402.57
553.84	493.85
554.01	407.25
554.17	404.91
554.34	425.98
554.51	442.36
554.67	390.87
554.84	341.72
555.00	383.85
555.17	447.04
555.33	463.43
555.50	433.00
555.67	472.79
555.83	402.57
556.00	433.00
556.16	496.19
556.33	489.17
556.50	425.98
556.66	517.26
556.83	402.57
556.99	451.72
557.16	390.87
557.32	383.85
557.49	414.27
557.65	444.70
557.82	355.76
557.98	449.38
558.15	435.34
558.32	435.34
558.48	402.57
558.65	390.87
558.81	447.04
558.98	400.23
559.14	479.81
559.31	374.49
559.47	423.64
559.64	468.11
559.80	428.32
559.97	472.79
560.13	421.30
560.30	369.80
560.46	433.00
560.63	461.09
560.79	468.11
560.96	421.30
561.12	425.98
561.29	468.11
561.45	430.66
561.61	425.98
561.78	533.64
561.94	447.04
562.11	442.36
562.27	411.93
562.44	358.10
562.60	479.81
562.77	379.17
562.93	493.85
563.10	423.64
563.26	486.83
563.42	411.93
563.59	482.15
563.75	468.11
563.92	447.04
564.08	407.25
564.24	433.00
564.41	465.77
564.57	393.21
564.74	365.12
564.90	435.34
565.07	461.09
565.23	386.19
565.39	360.44
565.56	430.66
565.72	414.27
565.88	416.62
566.05	425.98
566.21	418.96
566.38	433.00
566.54	449.38
566.70	447.04
566.87	416.62
567.03	416.62
567.19	458.74
567.36	479.81
567.52	395.55
567.68	386.19
567.85	379.17
568.01	395.55
568.17	386.19
568.34	308.95
568.50	374.49
568.66	393.21
568.83	510.24
568.99	454.06
569.15	472.79
569.32	297.25
569.48	416.62
569.64	374.49
569.81	428.32
569.97	465.77
570.13	416.62
570.30	341.72
570.46	334.70
570.62	437.68
570.78	470.45
570.95	407.25
571.11	400.23
571.27	507.90
571.43	414.27
571.60	369.80
571.76	418.96
571.92	421.30
572.09	397.89
572.25	421.30
572.41	468.11
572.57	435.34
572.74	463.43
572.90	395.55
573.06	369.80
573.22	475.13
573.38	489.17
573.55	454.06
573.71	437.68
573.87	491.51
574.03	414.27
574.20	421.30
574.36	491.51
574.52	425.98
574.68	442.36
574.84	444.70
575.01	404.91
575.17	440.02
575.33	409.59
575.49	428.32
575.65	475.13
575.82	475.13
575.98	433.00
576.14	407.25
576.30	454.06
576.46	430.66
576.62	456.40
576.79	402.57
576.95	376.83
577.11	409.59
577.27	423.64
577.43	395.55
577.59	456.40
577.75	425.98
577.92	348.74
578.08	461.09
578.24	437.68
578.40	437.68
578.56	423.64
578.72	421.30
578.88	407.25
579.04	430.66
579.21	456.40
579.37	447.04
579.53	402.57
579.69	430.66
579.85	437.68
580.01	447.04
580.17	395.55
580.33	330.02
580.49	365.12
580.65	362.78
580.82	430.66
580.98	390.87
581.14	383.85
581.30	444.70
581.46	400.23
581.62	395.55
581.78	365.12
581.94	468.11
582.10	444.70
582.26	477.47
582.42	451.72
582.58	407.25
582.74	458.74
582.90	440.02
583.06	442.36
583.22	430.66
583.38	362.78
583.54	407.25
583.70	404.91
583.86	463.43
584.02	423.64
584.18	486.83
584.34	454.06
584.50	470.45
584.66	402.57
584.82	411.93
584.98	379.17
585.14	435.34
585.30	393.21
585.46	376.83
585.62	388.53
585.78	360.44
585.94	437.68
586.10	421.30
586.26	381.51
586.42	425.98
586.58	449.38
586.74	425.98
586.90	409.59
587.06	411.93
587.22	411.93
587.38	402.57
587.54	440.02
587.70	411.93
587.86	430.66
588.02	430.66
588.18	393.21
588.34	414.27
588.49	390.87
588.65	472.79
588.81	376.83
588.97	409.59
589.13	430.66
589.29	414.27
589.45	425.98
589.61	463.43
589.77	348.74
589.93	397.89
590.08	386.19
590.24	400.23
590.40	407.25
590.56	433.00
590.72	376.83
590.88	397.89
591.04	388.53
591.20	458.74
591.35	496.19
591.51	374.49
591.67	400.23
591.83	402.57
591.99	428.32
592.15	489.17
592.31	404.91
592.46	416.62
592.62	433.00
592.78	407.25
592.94	407.25
593.10	397.89
593.26	334.70
593.41	397.89
593.57	465.77
593.73	346.40
593.89	433.00
594.05	489.17
594.20	423.64
594.36	470.45
594.52	411.93
594.68	433.00
594.84	430.66
594.99	470.45
595.15	433.00
595.31	465.77
595.47	465.77
595.62	433.00
595.78	393.21
595.94	360.44
596.10	433.00
596.25	451.72
596.41	440.02
596.57	374.49
596.73	353.42
596.88	407.25
597.04	491.51
597.20	390.87
597.36	472.79
597.51	400.23
597.67	409.59
597.83	442.36
597.99	435.34
598.14	451.72
598.30	435.34
598.46	418.96
598.61	444.70
598.77	472.79
598.93	411.93
599.09	379.17
599.24	355.76
599.40	433.00
599.56	330.02
599.71	407.25
599.87	482.15
600.03	444.70
600.18	402.57
600.34	402.57
600.50	360.44
600.65	414.27
600.81	414.27
600.97	468.11
601.12	411.93
601.28	475.13
601.44	465.77
601.59	421.30
601.75	409.59
601.91	390.87
602.06	468.11
602.22	512.58
602.37	482.15
602.53	418.96
602.69	327.68
602.84	425.98
603.00	409.59
603.16	423.64
603.31	472.79
603.47	390.87
603.62	386.19
603.78	388.53
603.94	461.09
604.09	390.87
604.25	404.91
604.40	456.40
604.56	444.70
604.71	486.83
604.87	388.53
605.03	421.30
605.18	423.64
605.34	407.25
605.49	402.57
605.65	383.85
605.80	325.33
605.96	442.36
606.12	388.53
606.27	435.34
606.43	437.68
606.58	500.87
606.74	365.12
606.89	428.32
607.05	447.04
607.20	451.72
607.36	402.57
607.51	472.79
607.67	454.06
607.82	411.93
607.98	479.81
608.13	362.78
608.29	374.49
608.44	372.15
608.60	444.70
608.75	496.19
608.91	411.93
609.06	433.00
609.22	402.57
609.37	397.89
609.53	416.62
609.68	400.23
609.84	454.06
609.99	383.85
610.15	482.15
