SpectraSuite Data File
++++++++++++++++++++++++++++++++++++
Date: Fri Oct 25 12:11:15 EDT 2013
User: price-jones
Dark Spectrum Present: No
Reference Spectrum Present: No
Number of Sampled Component Spectra: 1
Spectrometers: USB2+H05261
Integration Time (usec): 100000 (USB2+H05261)
Spectra Averaged: 1 (USB2+H05261)
Boxcar Smoothing: 0 (USB2+H05261)
Correct for Electrical Dark: No (USB2+H05261)
Strobe/Lamp Enabled: No (USB2+H05261)
Correct for Detector Non-linearity: No (USB2+H05261)
Correct for Stray Light: No (USB2+H05261)
Number of Pixels in Processed Spectrum: 2048
>>>>>Begin Processed Spectral Data<<<<<
365.73	358.10
365.92	358.10
366.12	358.10
366.32	248.10
366.52	308.95
366.72	290.23
366.91	212.99
367.11	236.39
367.31	189.58
367.51	285.55
367.70	273.84
367.90	203.63
368.10	175.54
368.30	238.73
368.49	276.18
368.69	262.14
368.89	222.35
369.09	276.18
369.28	315.97
369.48	234.05
369.68	250.44
369.87	344.06
370.07	252.78
370.27	248.10
370.47	313.63
370.66	297.25
370.86	393.21
371.06	395.55
371.25	374.49
371.45	397.89
371.65	395.55
371.84	376.83
372.04	400.23
372.24	390.87
372.44	428.32
372.63	437.68
372.83	440.02
373.03	388.53
373.22	430.66
373.42	404.91
373.62	416.62
373.81	428.32
374.01	472.79
374.21	433.00
374.40	444.70
374.60	414.27
374.79	416.62
374.99	472.79
375.19	409.59
375.38	430.66
375.58	470.45
375.78	465.77
375.97	461.09
376.17	451.72
376.37	430.66
376.56	430.66
376.76	404.91
376.95	402.57
377.15	402.57
377.35	442.36
377.54	362.78
377.74	379.17
377.93	390.87
378.13	470.45
378.33	479.81
378.52	395.55
378.72	451.72
378.91	447.04
379.11	470.45
379.31	395.55
379.50	397.89
379.70	367.46
379.89	461.09
380.09	421.30
380.28	418.96
380.48	421.30
380.68	454.06
380.87	395.55
381.07	372.15
381.26	444.70
381.46	447.04
381.65	461.09
381.85	390.87
382.04	395.55
382.24	437.68
382.43	397.89
382.63	425.98
382.83	374.49
383.02	407.25
383.22	409.59
383.41	351.08
383.61	402.57
383.80	435.34
384.00	461.09
384.19	337.04
384.39	465.77
384.58	393.21
384.78	416.62
384.97	395.55
385.17	381.51
385.36	428.32
385.56	404.91
385.75	414.27
385.95	407.25
386.14	374.49
386.34	404.91
386.53	444.70
386.72	339.38
386.92	402.57
387.11	411.93
387.31	414.27
387.50	344.06
387.70	454.06
387.89	428.32
388.09	362.78
388.28	358.10
388.48	407.25
388.67	482.15
388.86	358.10
389.06	369.80
389.25	416.62
389.45	400.23
389.64	449.38
389.84	411.93
390.03	437.68
390.22	428.32
390.42	376.83
390.61	390.87
390.81	402.57
391.00	390.87
391.19	470.45
391.39	402.57
391.58	440.02
391.78	388.53
391.97	421.30
392.16	437.68
392.36	416.62
392.55	433.00
392.75	486.83
392.94	414.27
393.13	376.83
393.33	447.04
393.52	416.62
393.71	425.98
393.91	493.85
394.10	402.57
394.29	376.83
394.49	383.85
394.68	465.77
394.88	451.72
395.07	456.40
395.26	411.93
395.46	404.91
395.65	430.66
395.84	372.15
396.04	491.51
396.23	456.40
396.42	411.93
396.62	353.42
396.81	341.72
397.00	449.38
397.19	437.68
397.39	390.87
397.58	383.85
397.77	379.17
397.97	400.23
398.16	486.83
398.35	346.40
398.55	454.06
398.74	376.83
398.93	376.83
399.12	531.30
399.32	428.32
399.51	386.19
399.70	475.13
399.90	369.80
400.09	416.62
400.28	369.80
400.47	400.23
400.67	470.45
400.86	381.51
401.05	402.57
401.24	379.17
401.44	437.68
401.63	454.06
401.82	461.09
402.01	337.04
402.21	409.59
402.40	477.47
402.59	428.32
402.78	360.44
402.97	365.12
403.17	369.80
403.36	440.02
403.55	393.21
403.74	390.87
403.93	470.45
404.13	365.12
404.32	346.40
404.51	372.15
404.70	421.30
404.89	402.57
405.09	475.13
405.28	454.06
405.47	395.55
405.66	433.00
405.85	435.34
406.05	388.53
406.24	358.10
406.43	402.57
406.62	447.04
406.81	444.70
407.00	416.62
407.20	404.91
407.39	463.43
407.58	390.87
407.77	435.34
407.96	390.87
408.15	404.91
408.34	435.34
408.54	449.38
408.73	390.87
408.92	400.23
409.11	313.63
409.30	463.43
409.49	379.17
409.68	465.77
409.87	423.64
410.07	393.21
410.26	355.76
410.45	470.45
410.64	376.83
410.83	411.93
411.02	421.30
411.21	425.98
411.40	433.00
411.59	477.47
411.78	465.77
411.98	433.00
412.17	409.59
412.36	365.12
412.55	428.32
412.74	348.74
412.93	416.62
413.12	390.87
413.31	386.19
413.50	440.02
413.69	379.17
413.88	428.32
414.07	407.25
414.26	409.59
414.45	390.87
414.64	418.96
414.83	409.59
415.02	451.72
415.22	437.68
415.41	463.43
415.60	416.62
415.79	376.83
415.98	400.23
416.17	418.96
416.36	369.80
416.55	369.80
416.74	423.64
416.93	425.98
417.12	390.87
417.31	411.93
417.50	397.89
417.69	475.13
417.88	416.62
418.07	414.27
418.26	416.62
418.45	411.93
418.64	437.68
418.83	430.66
419.02	381.51
419.21	472.79
419.39	397.89
419.58	344.06
419.77	465.77
419.96	386.19
420.15	414.27
420.34	449.38
420.53	447.04
420.72	362.78
420.91	416.62
421.10	362.78
421.29	475.13
421.48	486.83
421.67	454.06
421.86	367.46
422.05	442.36
422.24	461.09
422.43	386.19
422.61	435.34
422.80	330.02
422.99	407.25
423.18	400.23
423.37	505.56
423.56	447.04
423.75	383.85
423.94	381.51
424.13	421.30
424.32	397.89
424.50	404.91
424.69	444.70
424.88	472.79
425.07	388.53
425.26	414.27
425.45	472.79
425.64	390.87
425.83	414.27
426.01	414.27
426.20	414.27
426.39	379.17
426.58	430.66
426.77	442.36
426.96	465.77
427.15	437.68
427.33	376.83
427.52	454.06
427.71	388.53
427.90	442.36
428.09	383.85
428.28	454.06
428.46	465.77
428.65	449.38
428.84	414.27
429.03	444.70
429.22	400.23
429.40	435.34
429.59	409.59
429.78	416.62
429.97	463.43
430.16	369.80
430.34	418.96
430.53	386.19
430.72	435.34
430.91	449.38
431.10	416.62
431.28	430.66
431.47	386.19
431.66	388.53
431.85	322.99
432.03	449.38
432.22	482.15
432.41	386.19
432.60	433.00
432.79	388.53
432.97	341.72
433.16	451.72
433.35	383.85
433.54	402.57
433.72	404.91
433.91	407.25
434.10	341.72
434.28	379.17
434.47	355.76
434.66	376.83
434.85	423.64
435.03	444.70
435.22	444.70
435.41	397.89
435.59	444.70
435.78	327.68
435.97	421.30
436.16	447.04
436.34	437.68
436.53	397.89
436.72	435.34
436.90	346.40
437.09	440.02
437.28	447.04
437.46	430.66
437.65	369.80
437.84	395.55
438.02	374.49
438.21	461.09
438.40	421.30
438.58	386.19
438.77	425.98
438.96	407.25
439.14	435.34
439.33	444.70
439.52	423.64
439.70	400.23
439.89	454.06
440.08	388.53
440.26	369.80
440.45	390.87
440.63	390.87
440.82	433.00
441.01	444.70
441.19	360.44
441.38	437.68
441.57	320.65
441.75	390.87
441.94	407.25
442.12	421.30
442.31	390.87
442.50	437.68
442.68	475.13
442.87	433.00
443.05	475.13
443.24	425.98
443.43	482.15
443.61	493.85
443.80	418.96
443.98	355.76
444.17	388.53
444.35	411.93
444.54	454.06
444.73	374.49
444.91	383.85
445.10	433.00
445.28	423.64
445.47	421.30
445.65	421.30
445.84	414.27
446.02	482.15
446.21	365.12
446.39	367.46
446.58	526.62
446.77	461.09
446.95	390.87
447.14	397.89
447.32	493.85
447.51	402.57
447.69	435.34
447.88	421.30
448.06	479.81
448.25	388.53
448.43	383.85
448.62	451.72
448.80	461.09
448.99	404.91
449.17	407.25
449.36	376.83
449.54	451.72
449.73	407.25
449.91	421.30
450.10	416.62
450.28	533.64
450.46	428.32
450.65	409.59
450.83	447.04
451.02	358.10
451.20	367.46
451.39	376.83
451.57	472.79
451.76	397.89
451.94	409.59
452.13	451.72
452.31	402.57
452.49	461.09
452.68	369.80
452.86	433.00
453.05	400.23
453.23	411.93
453.42	458.74
453.60	454.06
453.78	470.45
453.97	311.29
454.15	397.89
454.34	388.53
454.52	388.53
454.70	463.43
454.89	461.09
455.07	409.59
455.26	395.55
455.44	425.98
455.62	496.19
455.81	440.02
455.99	334.70
456.17	379.17
456.36	344.06
456.54	365.12
456.73	407.25
456.91	390.87
457.09	421.30
457.28	428.32
457.46	379.17
457.64	414.27
457.83	395.55
458.01	428.32
458.19	379.17
458.38	332.36
458.56	395.55
458.74	365.12
458.93	451.72
459.11	393.21
459.29	425.98
459.48	416.62
459.66	421.30
459.84	400.23
460.03	461.09
460.21	409.59
460.39	421.30
460.57	437.68
460.76	437.68
460.94	458.74
461.12	482.15
461.31	418.96
461.49	421.30
461.67	411.93
461.85	470.45
462.04	393.21
462.22	758.33
462.40	407.25
462.59	416.62
462.77	437.68
462.95	444.70
463.13	416.62
463.32	390.87
463.50	433.00
463.68	444.70
463.86	344.06
464.05	451.72
464.23	451.72
464.41	411.93
464.59	418.96
464.78	418.96
464.96	397.89
465.14	400.23
465.32	470.45
465.50	428.32
465.69	479.81
465.87	388.53
466.05	423.64
466.23	416.62
466.41	425.98
466.60	409.59
466.78	381.51
466.96	433.00
467.14	395.55
467.32	386.19
467.51	407.25
467.69	395.55
467.87	421.30
468.05	374.49
468.23	379.17
468.41	395.55
468.60	402.57
468.78	418.96
468.96	416.62
469.14	386.19
469.32	383.85
469.50	484.49
469.69	393.21
469.87	411.93
470.05	428.32
470.23	397.89
470.41	407.25
470.59	454.06
470.77	470.45
470.95	463.43
471.14	454.06
471.32	379.17
471.50	414.27
471.68	418.96
471.86	383.85
472.04	386.19
472.22	437.68
472.40	393.21
472.58	447.04
472.77	425.98
472.95	374.49
473.13	479.81
473.31	472.79
473.49	397.89
473.67	416.62
473.85	414.27
474.03	442.36
474.21	395.55
474.39	428.32
474.57	442.36
474.75	381.51
474.93	444.70
475.12	428.32
475.30	468.11
475.48	423.64
475.66	341.72
475.84	449.38
476.02	435.34
476.20	461.09
476.38	514.92
476.56	428.32
476.74	376.83
476.92	334.70
477.10	322.99
477.28	374.49
477.46	383.85
477.64	435.34
477.82	477.47
478.00	444.70
478.18	423.64
478.36	379.17
478.54	337.04
478.72	362.78
478.90	383.85
479.08	383.85
479.26	456.40
479.44	330.02
479.62	411.93
479.80	468.11
479.98	383.85
480.16	440.02
480.34	440.02
480.52	442.36
480.70	388.53
480.88	465.77
481.06	339.38
481.24	409.59
481.41	339.38
481.59	341.72
481.77	362.78
481.95	428.32
482.13	435.34
482.31	421.30
482.49	444.70
482.67	423.64
482.85	404.91
483.03	374.49
483.21	374.49
483.39	362.78
483.57	414.27
483.74	470.45
483.92	444.70
484.10	421.30
484.28	512.58
484.46	510.24
484.64	411.93
484.82	407.25
485.00	451.72
485.18	416.62
485.35	484.49
485.53	395.55
485.71	374.49
485.89	414.27
486.07	416.62
486.25	491.51
486.43	358.10
486.61	482.15
486.78	461.09
486.96	386.19
487.14	369.80
487.32	386.19
487.50	430.66
487.68	383.85
487.85	475.13
488.03	442.36
488.21	425.98
488.39	423.64
488.57	465.77
488.75	444.70
488.92	486.83
489.10	479.81
489.28	447.04
489.46	381.51
489.64	416.62
489.81	418.96
489.99	383.85
490.17	414.27
490.35	484.49
490.53	425.98
490.70	390.87
490.88	365.12
491.06	507.90
491.24	397.89
491.41	416.62
491.59	423.64
491.77	409.59
491.95	447.04
492.13	358.10
492.30	425.98
492.48	376.83
492.66	411.93
492.84	421.30
493.01	461.09
493.19	442.36
493.37	407.25
493.54	407.25
493.72	402.57
493.90	442.36
494.08	414.27
494.25	430.66
494.43	430.66
494.61	433.00
494.79	444.70
494.96	409.59
495.14	428.32
495.32	383.85
495.49	393.21
495.67	437.68
495.85	348.74
496.02	402.57
496.20	461.09
496.38	409.59
496.55	379.17
496.73	397.89
496.91	425.98
497.09	386.19
497.26	395.55
497.44	435.34
497.62	374.49
497.79	381.51
497.97	365.12
498.14	437.68
498.32	400.23
498.50	465.77
498.67	369.80
498.85	402.57
499.03	447.04
499.20	437.68
499.38	404.91
499.56	365.12
499.73	454.06
499.91	353.42
500.08	404.91
500.26	451.72
500.44	348.74
500.61	369.80
500.79	400.23
500.97	435.34
501.14	454.06
501.32	477.47
501.49	416.62
501.67	491.51
501.84	395.55
502.02	365.12
502.20	404.91
502.37	409.59
502.55	465.77
502.72	479.81
502.90	442.36
503.07	379.17
503.25	498.53
503.43	440.02
503.60	416.62
503.78	423.64
503.95	362.78
504.13	379.17
504.30	444.70
504.48	442.36
504.65	435.34
504.83	360.44
505.01	430.66
505.18	421.30
505.36	421.30
505.53	402.57
505.71	444.70
505.88	409.59
506.06	423.64
506.23	444.70
506.41	383.85
506.58	397.89
506.76	355.76
506.93	390.87
507.11	411.93
507.28	393.21
507.46	327.68
507.63	393.21
507.81	435.34
507.98	451.72
508.16	386.19
508.33	440.02
508.50	428.32
508.68	388.53
508.85	421.30
509.03	411.93
509.20	437.68
509.38	444.70
509.55	449.38
509.73	433.00
509.90	430.66
510.08	407.25
510.25	475.13
510.42	353.42
510.60	388.53
510.77	388.53
510.95	512.58
511.12	409.59
511.30	447.04
511.47	402.57
511.64	489.17
511.82	367.46
511.99	355.76
512.17	484.49
512.34	433.00
512.51	423.64
512.69	372.15
512.86	421.30
513.04	423.64
513.21	421.30
513.38	486.83
513.56	437.68
513.73	360.44
513.90	337.04
514.08	351.08
514.25	433.00
514.43	365.12
514.60	414.27
514.77	402.57
514.95	433.00
515.12	470.45
515.29	454.06
515.47	451.72
515.64	456.40
515.81	395.55
515.99	435.34
516.16	411.93
516.33	477.47
516.51	437.68
516.68	372.15
516.85	475.13
517.03	472.79
517.20	465.77
517.37	383.85
517.54	454.06
517.72	433.00
517.89	461.09
518.06	447.04
518.24	477.47
518.41	456.40
518.58	409.59
518.75	409.59
518.93	433.00
519.10	393.21
519.27	379.17
519.45	444.70
519.62	376.83
519.79	507.90
519.96	360.44
520.14	369.80
520.31	390.87
520.48	428.32
520.65	435.34
520.83	418.96
521.00	463.43
521.17	463.43
521.34	423.64
521.52	381.51
521.69	402.57
521.86	433.00
522.03	397.89
522.20	454.06
522.38	507.90
522.55	414.27
522.72	395.55
522.89	411.93
523.07	463.43
523.24	353.42
523.41	442.36
523.58	428.32
523.75	421.30
523.92	425.98
524.10	437.68
524.27	400.23
524.44	442.36
524.61	388.53
524.78	381.51
524.96	451.72
525.13	440.02
525.30	482.15
525.47	503.22
525.64	421.30
525.81	437.68
525.98	407.25
526.16	393.21
526.33	339.38
526.50	425.98
526.67	414.27
526.84	351.08
527.01	322.99
527.18	454.06
527.36	418.96
527.53	416.62
527.70	475.13
527.87	409.59
528.04	484.49
528.21	381.51
528.38	435.34
528.55	458.74
528.72	437.68
528.89	444.70
529.07	440.02
529.24	421.30
529.41	402.57
529.58	435.34
529.75	393.21
529.92	425.98
530.09	362.78
530.26	337.04
530.43	407.25
530.60	421.30
530.77	463.43
530.94	456.40
531.11	470.45
531.28	461.09
531.46	428.32
531.63	444.70
531.80	393.21
531.97	374.49
532.14	416.62
532.31	400.23
532.48	407.25
532.65	390.87
532.82	395.55
532.99	395.55
533.16	458.74
533.33	381.51
533.50	362.78
533.67	449.38
533.84	407.25
534.01	407.25
534.18	418.96
534.35	423.64
534.52	433.00
534.69	447.04
534.86	461.09
535.03	435.34
535.20	407.25
535.37	498.53
535.54	411.93
535.71	440.02
535.88	498.53
536.05	423.64
536.22	461.09
536.38	360.44
536.55	458.74
536.72	428.32
536.89	433.00
537.06	348.74
537.23	411.93
537.40	381.51
537.57	430.66
537.74	465.77
537.91	409.59
538.08	395.55
538.25	437.68
538.42	440.02
538.59	418.96
538.75	456.40
538.92	421.30
539.09	358.10
539.26	400.23
539.43	465.77
539.60	421.30
539.77	351.08
539.94	470.45
540.11	374.49
540.28	475.13
540.44	468.11
540.61	397.89
540.78	461.09
540.95	428.32
541.12	442.36
541.29	376.83
541.46	414.27
541.62	402.57
541.79	461.09
541.96	388.53
542.13	409.59
542.30	423.64
542.47	461.09
542.63	465.77
542.80	407.25
542.97	458.74
543.14	458.74
543.31	379.17
543.48	395.55
543.64	390.87
543.81	416.62
543.98	400.23
544.15	430.66
544.32	465.77
544.48	447.04
544.65	416.62
544.82	379.17
544.99	428.32
545.16	365.12
545.32	433.00
545.49	535.98
545.66	393.21
545.83	479.81
546.00	397.89
546.16	442.36
546.33	411.93
546.50	425.98
546.67	465.77
546.83	402.57
547.00	435.34
547.17	416.62
547.34	367.46
547.50	369.80
547.67	372.15
547.84	402.57
548.00	440.02
548.17	365.12
548.34	496.19
548.51	376.83
548.67	486.83
548.84	414.27
549.01	486.83
549.18	465.77
549.34	482.15
549.51	381.51
549.68	374.49
549.84	437.68
550.01	437.68
550.18	409.59
550.34	517.26
550.51	430.66
550.68	468.11
550.84	372.15
551.01	444.70
551.18	430.66
551.34	482.15
551.51	479.81
551.68	465.77
551.84	379.17
552.01	414.27
552.18	463.43
552.34	482.15
552.51	393.21
552.68	402.57
552.84	451.72
553.01	433.00
553.18	428.32
553.34	407.25
553.51	472.79
553.67	425.98
553.84	510.24
554.01	425.98
554.17	456.40
554.34	444.70
554.51	421.30
554.67	444.70
554.84	430.66
555.00	433.00
555.17	428.32
555.33	376.83
555.50	447.04
555.67	416.62
555.83	428.32
556.00	430.66
556.16	543.00
556.33	491.51
556.50	358.10
556.66	500.87
556.83	411.93
556.99	390.87
557.16	390.87
557.32	496.19
557.49	447.04
557.65	449.38
557.82	374.49
557.98	402.57
558.15	423.64
558.32	433.00
558.48	416.62
558.65	470.45
558.81	435.34
558.98	411.93
559.14	425.98
559.31	458.74
559.47	449.38
559.64	428.32
559.80	475.13
559.97	402.57
560.13	393.21
560.30	440.02
560.46	414.27
560.63	395.55
560.79	411.93
560.96	402.57
561.12	444.70
561.29	463.43
561.45	425.98
561.61	505.56
561.78	519.60
561.94	461.09
562.11	435.34
562.27	379.17
562.44	397.89
562.60	397.89
562.77	390.87
562.93	367.46
563.10	402.57
563.26	381.51
563.42	437.68
563.59	430.66
563.75	451.72
563.92	477.47
564.08	451.72
564.24	440.02
564.41	496.19
564.57	390.87
564.74	430.66
564.90	458.74
565.07	475.13
565.23	454.06
565.39	404.91
565.56	416.62
565.72	423.64
565.88	390.87
566.05	449.38
566.21	351.08
566.38	407.25
566.54	449.38
566.70	360.44
566.87	397.89
567.03	444.70
567.19	440.02
567.36	369.80
567.52	425.98
567.68	423.64
567.85	479.81
568.01	367.46
568.17	393.21
568.34	353.42
568.50	440.02
568.66	437.68
568.83	454.06
568.99	444.70
569.15	458.74
569.32	390.87
569.48	437.68
569.64	411.93
569.81	461.09
569.97	442.36
570.13	365.12
570.30	379.17
570.46	397.89
570.62	411.93
570.78	407.25
570.95	418.96
571.11	430.66
571.27	475.13
571.43	507.90
571.60	461.09
571.76	456.40
571.92	470.45
572.09	351.08
572.25	416.62
572.41	454.06
572.57	449.38
572.74	521.94
572.90	421.30
573.06	421.30
573.22	505.56
573.38	491.51
573.55	416.62
573.71	447.04
573.87	475.13
574.03	433.00
574.20	416.62
574.36	379.17
574.52	425.98
574.68	454.06
574.84	411.93
575.01	348.74
575.17	418.96
575.33	425.98
575.49	381.51
575.65	500.87
575.82	470.45
575.98	482.15
576.14	428.32
576.30	351.08
576.46	400.23
576.62	397.89
576.79	435.34
576.95	475.13
577.11	379.17
577.27	475.13
577.43	407.25
577.59	496.19
577.75	435.34
577.92	418.96
578.08	379.17
578.24	425.98
578.40	386.19
578.56	423.64
578.72	421.30
578.88	461.09
579.04	470.45
579.21	442.36
579.37	372.15
579.53	351.08
579.69	369.80
579.85	418.96
580.01	435.34
580.17	444.70
580.33	404.91
580.49	433.00
580.65	383.85
580.82	379.17
580.98	433.00
581.14	449.38
581.30	496.19
581.46	400.23
581.62	444.70
581.78	404.91
581.94	381.51
582.10	369.80
582.26	379.17
582.42	430.66
582.58	358.10
582.74	421.30
582.90	451.72
583.06	484.49
583.22	500.87
583.38	400.23
583.54	430.66
583.70	503.22
583.86	435.34
584.02	390.87
584.18	468.11
584.34	365.12
584.50	428.32
584.66	397.89
584.82	409.59
584.98	400.23
585.14	430.66
585.30	381.51
585.46	365.12
585.62	402.57
585.78	425.98
585.94	433.00
586.10	348.74
586.26	468.11
586.42	386.19
586.58	409.59
586.74	414.27
586.90	367.46
587.06	409.59
587.22	449.38
587.38	449.38
587.54	395.55
587.70	367.46
587.86	442.36
588.02	330.02
588.18	372.15
588.34	444.70
588.49	334.70
588.65	383.85
588.81	383.85
588.97	430.66
589.13	451.72
589.29	365.12
589.45	538.32
589.61	402.57
589.77	395.55
589.93	411.93
590.08	404.91
590.24	383.85
590.40	402.57
590.56	451.72
590.72	482.15
590.88	442.36
591.04	416.62
591.20	353.42
591.35	402.57
591.51	411.93
591.67	437.68
591.83	390.87
591.99	447.04
592.15	454.06
592.31	475.13
592.46	390.87
592.62	461.09
592.78	428.32
592.94	407.25
593.10	421.30
593.26	372.15
593.41	433.00
593.57	390.87
593.73	414.27
593.89	388.53
594.05	386.19
594.20	393.21
594.36	421.30
594.52	400.23
594.68	470.45
594.84	416.62
594.99	433.00
595.15	461.09
595.31	421.30
595.47	440.02
595.62	397.89
595.78	491.51
595.94	477.47
596.10	358.10
596.25	407.25
596.41	479.81
596.57	390.87
596.73	510.24
596.88	339.38
597.04	468.11
597.20	421.30
597.36	456.40
597.51	465.77
597.67	346.40
597.83	449.38
597.99	491.51
598.14	433.00
598.30	454.06
598.46	524.28
598.61	402.57
598.77	416.62
598.93	418.96
599.09	397.89
599.24	433.00
599.40	409.59
599.56	428.32
599.71	416.62
599.87	475.13
600.03	425.98
600.18	416.62
600.34	454.06
600.50	442.36
600.65	416.62
600.81	468.11
600.97	388.53
601.12	428.32
601.28	465.77
601.44	430.66
601.59	381.51
601.75	383.85
601.91	353.42
602.06	454.06
602.22	416.62
602.37	393.21
602.53	348.74
602.69	461.09
602.84	442.36
603.00	332.36
603.16	498.53
603.31	475.13
603.47	367.46
603.62	428.32
603.78	430.66
603.94	404.91
604.09	463.43
604.25	425.98
604.40	435.34
604.56	435.34
604.71	437.68
604.87	465.77
605.03	409.59
605.18	404.91
605.34	435.34
605.49	416.62
605.65	433.00
605.80	330.02
605.96	285.55
606.12	458.74
606.27	435.34
606.43	428.32
606.58	407.25
606.74	461.09
606.89	437.68
607.05	444.70
607.20	409.59
607.36	393.21
607.51	433.00
607.67	397.89
607.82	402.57
607.98	423.64
608.13	423.64
608.29	428.32
608.44	449.38
608.60	374.49
608.75	456.40
608.91	484.49
609.06	472.79
609.22	442.36
609.37	402.57
609.53	435.34
609.68	402.57
609.84	430.66
609.99	407.25
610.15	383.85
