SpectraSuite Data File
++++++++++++++++++++++++++++++++++++
Date: Fri Oct 25 12:10:12 EDT 2013
User: price-jones
Dark Spectrum Present: No
Reference Spectrum Present: No
Number of Sampled Component Spectra: 1
Spectrometers: USB2+H05261
Integration Time (usec): 100000 (USB2+H05261)
Spectra Averaged: 1 (USB2+H05261)
Boxcar Smoothing: 0 (USB2+H05261)
Correct for Electrical Dark: No (USB2+H05261)
Strobe/Lamp Enabled: No (USB2+H05261)
Correct for Detector Non-linearity: No (USB2+H05261)
Correct for Stray Light: No (USB2+H05261)
Number of Pixels in Processed Spectrum: 2048
>>>>>Begin Processed Spectral Data<<<<<
365.73	313.63
365.92	313.63
366.12	313.63
366.32	283.20
366.52	180.22
366.72	299.59
366.91	196.60
367.11	250.44
367.31	203.63
367.51	266.82
367.70	224.69
367.90	241.08
368.10	205.97
368.30	276.18
368.49	243.42
368.69	250.44
368.89	259.80
369.09	308.95
369.28	278.52
369.48	301.93
369.68	299.59
369.87	334.70
370.07	306.61
370.27	325.33
370.47	379.17
370.66	280.86
370.86	348.74
371.06	463.43
371.25	433.00
371.45	409.59
371.65	411.93
371.84	367.46
372.04	388.53
372.24	402.57
372.44	404.91
372.63	409.59
372.83	407.25
373.03	451.72
373.22	388.53
373.42	381.51
373.62	444.70
373.81	362.78
374.01	451.72
374.21	381.51
374.40	421.30
374.60	484.49
374.79	374.49
374.99	437.68
375.19	388.53
375.38	477.47
375.58	379.17
375.78	484.49
375.97	400.23
376.17	440.02
376.37	346.40
376.56	433.00
376.76	442.36
376.95	400.23
377.15	486.83
377.35	411.93
377.54	440.02
377.74	407.25
377.93	330.02
378.13	442.36
378.33	421.30
378.52	395.55
378.72	383.85
378.91	386.19
379.11	402.57
379.31	411.93
379.50	416.62
379.70	351.08
379.89	430.66
380.09	358.10
380.28	360.44
380.48	381.51
380.68	374.49
380.87	470.45
381.07	318.31
381.26	451.72
381.46	395.55
381.65	433.00
381.85	416.62
382.04	430.66
382.24	418.96
382.43	461.09
382.63	362.78
382.83	451.72
383.02	435.34
383.22	416.62
383.41	428.32
383.61	390.87
383.80	416.62
384.00	421.30
384.19	430.66
384.39	400.23
384.58	454.06
384.78	447.04
384.97	395.55
385.17	367.46
385.36	402.57
385.56	397.89
385.75	418.96
385.95	451.72
386.14	435.34
386.34	362.78
386.53	400.23
386.72	318.31
386.92	416.62
387.11	381.51
387.31	390.87
387.50	365.12
387.70	430.66
387.89	348.74
388.09	351.08
388.28	388.53
388.48	435.34
388.67	404.91
388.86	369.80
389.06	407.25
389.25	360.44
389.45	461.09
389.64	372.15
389.84	435.34
390.03	369.80
390.22	449.38
390.42	395.55
390.61	414.27
390.81	479.81
391.00	451.72
391.19	386.19
391.39	362.78
391.58	402.57
391.78	383.85
391.97	463.43
392.16	383.85
392.36	395.55
392.55	379.17
392.75	402.57
392.94	423.64
393.13	400.23
393.33	332.36
393.52	332.36
393.71	435.34
393.91	433.00
394.10	341.72
394.29	369.80
394.49	353.42
394.68	425.98
394.88	393.21
395.07	425.98
395.26	407.25
395.46	437.68
395.65	505.56
395.84	442.36
396.04	435.34
396.23	402.57
396.42	421.30
396.62	358.10
396.81	390.87
397.00	430.66
397.19	360.44
397.39	372.15
397.58	479.81
397.77	414.27
397.97	416.62
398.16	444.70
398.35	433.00
398.55	484.49
398.74	425.98
398.93	428.32
399.12	390.87
399.32	435.34
399.51	397.89
399.70	416.62
399.90	433.00
400.09	393.21
400.28	402.57
400.47	369.80
400.67	418.96
400.86	390.87
401.05	428.32
401.24	327.68
401.44	425.98
401.63	442.36
401.82	409.59
402.01	449.38
402.21	437.68
402.40	423.64
402.59	470.45
402.78	479.81
402.97	365.12
403.17	449.38
403.36	430.66
403.55	404.91
403.74	334.70
403.93	425.98
404.13	390.87
404.32	421.30
404.51	418.96
404.70	383.85
404.89	358.10
405.09	423.64
405.28	372.15
405.47	395.55
405.66	437.68
405.85	397.89
406.05	425.98
406.24	428.32
406.43	416.62
406.62	437.68
406.81	416.62
407.00	423.64
407.20	367.46
407.39	362.78
407.58	374.49
407.77	358.10
407.96	430.66
408.15	514.92
408.34	463.43
408.54	402.57
408.73	315.97
408.92	388.53
409.11	395.55
409.30	456.40
409.49	332.36
409.68	435.34
409.87	337.04
410.07	383.85
410.26	395.55
410.45	402.57
410.64	468.11
410.83	400.23
411.02	418.96
411.21	383.85
411.40	386.19
411.59	435.34
411.78	418.96
411.98	454.06
412.17	365.12
412.36	423.64
412.55	454.06
412.74	411.93
412.93	435.34
413.12	409.59
413.31	400.23
413.50	374.49
413.69	397.89
413.88	418.96
414.07	423.64
414.26	433.00
414.45	404.91
414.64	449.38
414.83	304.27
415.02	397.89
415.22	447.04
415.41	397.89
415.60	472.79
415.79	376.83
415.98	458.74
416.17	381.51
416.36	397.89
416.55	425.98
416.74	423.64
416.93	454.06
417.12	381.51
417.31	416.62
417.50	433.00
417.69	484.49
417.88	447.04
418.07	360.44
418.26	414.27
418.45	400.23
418.64	479.81
418.83	430.66
419.02	404.91
419.21	409.59
419.39	447.04
419.58	430.66
419.77	376.83
419.96	386.19
420.15	465.77
420.34	430.66
420.53	402.57
420.72	376.83
420.91	365.12
421.10	397.89
421.29	449.38
421.48	423.64
421.67	407.25
421.86	393.21
422.05	458.74
422.24	358.10
422.43	341.72
422.61	337.04
422.80	400.23
422.99	449.38
423.18	414.27
423.37	418.96
423.56	416.62
423.75	423.64
423.94	383.85
424.13	444.70
424.32	400.23
424.50	428.32
424.69	423.64
424.88	360.44
425.07	454.06
425.26	418.96
425.45	404.91
425.64	409.59
425.83	351.08
426.01	425.98
426.20	430.66
426.39	404.91
426.58	451.72
426.77	388.53
426.96	383.85
427.15	404.91
427.33	376.83
427.52	393.21
427.71	381.51
427.90	425.98
428.09	433.00
428.28	372.15
428.46	430.66
428.65	456.40
428.84	318.31
429.03	496.19
429.22	423.64
429.40	372.15
429.59	404.91
429.78	355.76
429.97	381.51
430.16	381.51
430.34	395.55
430.53	360.44
430.72	414.27
430.91	449.38
431.10	421.30
431.28	402.57
431.47	442.36
431.66	393.21
431.85	425.98
432.03	430.66
432.22	395.55
432.41	416.62
432.60	479.81
432.79	379.17
432.97	360.44
433.16	404.91
433.35	346.40
433.54	440.02
433.72	461.09
433.91	400.23
434.10	437.68
434.28	379.17
434.47	353.42
434.66	444.70
434.85	468.11
435.03	442.36
435.22	367.46
435.41	461.09
435.59	414.27
435.78	435.34
435.97	418.96
436.16	414.27
436.34	381.51
436.53	456.40
436.72	442.36
436.90	416.62
437.09	423.64
437.28	435.34
437.46	362.78
437.65	489.17
437.84	372.15
438.02	440.02
438.21	433.00
438.40	390.87
438.58	372.15
438.77	400.23
438.96	388.53
439.14	390.87
439.33	454.06
439.52	390.87
439.70	449.38
439.89	358.10
440.08	447.04
440.26	456.40
440.45	442.36
440.63	393.21
440.82	437.68
441.01	458.74
441.19	407.25
441.38	360.44
441.57	414.27
441.75	418.96
441.94	402.57
442.12	458.74
442.31	482.15
442.50	397.89
442.68	393.21
442.87	376.83
443.05	395.55
443.24	393.21
443.43	404.91
443.61	463.43
443.80	442.36
443.98	449.38
444.17	421.30
444.35	428.32
444.54	409.59
444.73	430.66
444.91	456.40
445.10	470.45
445.28	489.17
445.47	425.98
445.65	418.96
445.84	421.30
446.02	411.93
446.21	454.06
446.39	435.34
446.58	393.21
446.77	414.27
446.95	428.32
447.14	402.57
447.32	390.87
447.51	376.83
447.69	433.00
447.88	407.25
448.06	437.68
448.25	421.30
448.43	475.13
448.62	414.27
448.80	390.87
448.99	400.23
449.17	423.64
449.36	421.30
449.54	393.21
449.73	372.15
449.91	372.15
450.10	461.09
450.28	444.70
450.46	449.38
450.65	414.27
450.83	440.02
451.02	472.79
451.20	397.89
451.39	421.30
451.57	400.23
451.76	393.21
451.94	379.17
452.13	458.74
452.31	437.68
452.49	383.85
452.68	409.59
452.86	423.64
453.05	362.78
453.23	358.10
453.42	477.47
453.60	416.62
453.78	393.21
453.97	372.15
454.15	334.70
454.34	315.97
454.52	451.72
454.70	456.40
454.89	470.45
455.07	386.19
455.26	390.87
455.44	435.34
455.62	372.15
455.81	404.91
455.99	365.12
456.17	386.19
456.36	435.34
456.54	374.49
456.73	367.46
456.91	397.89
457.09	397.89
457.28	451.72
457.46	423.64
457.64	468.11
457.83	421.30
458.01	428.32
458.19	397.89
458.38	428.32
458.56	416.62
458.74	374.49
458.93	390.87
459.11	397.89
459.29	395.55
459.48	400.23
459.66	397.89
459.84	423.64
460.03	540.66
460.21	500.87
460.39	423.64
460.57	386.19
460.76	402.57
460.94	400.23
461.12	496.19
461.31	456.40
461.49	440.02
461.67	409.59
461.85	454.06
462.04	418.96
462.22	795.78
462.40	404.91
462.59	486.83
462.77	348.74
462.95	428.32
463.13	437.68
463.32	451.72
463.50	444.70
463.68	461.09
463.86	402.57
464.05	367.46
464.23	472.79
464.41	465.77
464.59	409.59
464.78	409.59
464.96	388.53
465.14	486.83
465.32	395.55
465.50	461.09
465.69	409.59
465.87	362.78
466.05	447.04
466.23	437.68
466.41	379.17
466.60	442.36
466.78	369.80
466.96	374.49
467.14	454.06
467.32	489.17
467.51	407.25
467.69	454.06
467.87	435.34
468.05	416.62
468.23	463.43
468.41	440.02
468.60	423.64
468.78	358.10
468.96	435.34
469.14	444.70
469.32	437.68
469.50	367.46
469.69	411.93
469.87	440.02
470.05	409.59
470.23	407.25
470.41	451.72
470.59	395.55
470.77	425.98
470.95	437.68
471.14	433.00
471.32	475.13
471.50	320.65
471.68	447.04
471.86	416.62
472.04	477.47
472.22	402.57
472.40	484.49
472.58	425.98
472.77	482.15
472.95	376.83
473.13	463.43
473.31	435.34
473.49	383.85
473.67	383.85
473.85	444.70
474.03	433.00
474.21	468.11
474.39	414.27
474.57	454.06
474.75	423.64
474.93	383.85
475.12	372.15
475.30	395.55
475.48	383.85
475.66	400.23
475.84	430.66
476.02	395.55
476.20	425.98
476.38	416.62
476.56	425.98
476.74	449.38
476.92	407.25
477.10	341.72
477.28	440.02
477.46	411.93
477.64	468.11
477.82	360.44
478.00	404.91
478.18	425.98
478.36	411.93
478.54	397.89
478.72	381.51
478.90	430.66
479.08	430.66
479.26	470.45
479.44	397.89
479.62	369.80
479.80	407.25
479.98	388.53
480.16	428.32
480.34	454.06
480.52	351.08
480.70	339.38
480.88	344.06
481.06	437.68
481.24	442.36
481.41	362.78
481.59	421.30
481.77	400.23
481.95	386.19
482.13	433.00
482.31	418.96
482.49	400.23
482.67	423.64
482.85	447.04
483.03	402.57
483.21	362.78
483.39	449.38
483.57	421.30
483.74	407.25
483.92	400.23
484.10	374.49
484.28	353.42
484.46	440.02
484.64	390.87
484.82	395.55
485.00	414.27
485.18	374.49
485.35	397.89
485.53	418.96
485.71	404.91
485.89	409.59
486.07	407.25
486.25	512.58
486.43	346.40
486.61	430.66
486.78	433.00
486.96	386.19
487.14	411.93
487.32	437.68
487.50	404.91
487.68	496.19
487.85	479.81
488.03	458.74
488.21	411.93
488.39	404.91
488.57	425.98
488.75	409.59
488.92	524.28
489.10	402.57
489.28	414.27
489.46	374.49
489.64	395.55
489.81	390.87
489.99	447.04
490.17	390.87
490.35	470.45
490.53	386.19
490.70	388.53
490.88	442.36
491.06	365.12
491.24	440.02
491.41	418.96
491.59	400.23
491.77	379.17
491.95	421.30
492.13	383.85
492.30	395.55
492.48	444.70
492.66	381.51
492.84	409.59
493.01	472.79
493.19	360.44
493.37	390.87
493.54	498.53
493.72	390.87
493.90	348.74
494.08	435.34
494.25	477.47
494.43	395.55
494.61	489.17
494.79	421.30
494.96	423.64
495.14	468.11
495.32	362.78
495.49	390.87
495.67	428.32
495.85	381.51
496.02	395.55
496.20	379.17
496.38	421.30
496.55	472.79
496.73	447.04
496.91	400.23
497.09	393.21
497.26	334.70
497.44	428.32
497.62	430.66
497.79	414.27
497.97	479.81
498.14	425.98
498.32	425.98
498.50	407.25
498.67	395.55
498.85	414.27
499.03	411.93
499.20	461.09
499.38	479.81
499.56	447.04
499.73	442.36
499.91	463.43
500.08	437.68
500.26	479.81
500.44	444.70
500.61	428.32
500.79	433.00
500.97	458.74
501.14	477.47
501.32	433.00
501.49	393.21
501.67	458.74
501.84	337.04
502.02	404.91
502.20	365.12
502.37	425.98
502.55	386.19
502.72	297.25
502.90	475.13
503.07	505.56
503.25	449.38
503.43	383.85
503.60	400.23
503.78	472.79
503.95	362.78
504.13	390.87
504.30	407.25
504.48	409.59
504.65	409.59
504.83	409.59
505.01	365.12
505.18	397.89
505.36	369.80
505.53	447.04
505.71	365.12
505.88	461.09
506.06	444.70
506.23	337.04
506.41	358.10
506.58	374.49
506.76	461.09
506.93	383.85
507.11	414.27
507.28	390.87
507.46	395.55
507.63	393.21
507.81	397.89
507.98	402.57
508.16	404.91
508.33	395.55
508.50	454.06
508.68	465.77
508.85	388.53
509.03	447.04
509.20	416.62
509.38	437.68
509.55	421.30
509.73	425.98
509.90	458.74
510.08	381.51
510.25	360.44
510.42	425.98
510.60	400.23
510.77	409.59
510.95	461.09
511.12	433.00
511.30	372.15
511.47	428.32
511.64	374.49
511.82	433.00
511.99	395.55
512.17	428.32
512.34	409.59
512.51	390.87
512.69	376.83
512.86	397.89
513.04	543.00
513.21	416.62
513.38	341.72
513.56	383.85
513.73	409.59
513.90	423.64
514.08	421.30
514.25	372.15
514.43	374.49
514.60	425.98
514.77	454.06
514.95	454.06
515.12	341.72
515.29	437.68
515.47	496.19
515.64	409.59
515.81	428.32
515.99	451.72
516.16	449.38
516.33	423.64
516.51	456.40
516.68	418.96
516.85	435.34
517.03	425.98
517.20	376.83
517.37	395.55
517.54	381.51
517.72	379.17
517.89	367.46
518.06	423.64
518.24	493.85
518.41	491.51
518.58	402.57
518.75	365.12
518.93	386.19
519.10	388.53
519.27	367.46
519.45	435.34
519.62	390.87
519.79	430.66
519.96	383.85
520.14	358.10
520.31	489.17
520.48	444.70
520.65	430.66
520.83	468.11
521.00	472.79
521.17	383.85
521.34	437.68
521.52	440.02
521.69	456.40
521.86	390.87
522.03	428.32
522.20	440.02
522.38	369.80
522.55	444.70
522.72	369.80
522.89	470.45
523.07	397.89
523.24	442.36
523.41	437.68
523.58	414.27
523.75	463.43
523.92	454.06
524.10	451.72
524.27	500.87
524.44	386.19
524.61	435.34
524.78	416.62
524.96	400.23
525.13	418.96
525.30	461.09
525.47	440.02
525.64	390.87
525.81	449.38
525.98	442.36
526.16	440.02
526.33	379.17
526.50	437.68
526.67	351.08
526.84	409.59
527.01	437.68
527.18	351.08
527.36	383.85
527.53	407.25
527.70	388.53
527.87	423.64
528.04	484.49
528.21	388.53
528.38	430.66
528.55	449.38
528.72	428.32
528.89	409.59
529.07	381.51
529.24	451.72
529.41	402.57
529.58	463.43
529.75	395.55
529.92	348.74
530.09	458.74
530.26	463.43
530.43	365.12
530.60	404.91
530.77	425.98
530.94	376.83
531.11	346.40
531.28	407.25
531.46	337.04
531.63	348.74
531.80	395.55
531.97	477.47
532.14	369.80
532.31	386.19
532.48	423.64
532.65	433.00
532.82	447.04
532.99	360.44
533.16	393.21
533.33	414.27
533.50	318.31
533.67	454.06
533.84	454.06
534.01	390.87
534.18	360.44
534.35	437.68
534.52	362.78
534.69	381.51
534.86	421.30
535.03	423.64
535.20	444.70
535.37	390.87
535.54	444.70
535.71	409.59
535.88	463.43
536.05	383.85
536.22	372.15
536.38	393.21
536.55	435.34
536.72	458.74
536.89	418.96
537.06	414.27
537.23	418.96
537.40	376.83
537.57	388.53
537.74	493.85
537.91	437.68
538.08	407.25
538.25	393.21
538.42	500.87
538.59	437.68
538.75	433.00
538.92	437.68
539.09	409.59
539.26	381.51
539.43	381.51
539.60	393.21
539.77	411.93
539.94	468.11
540.11	447.04
540.28	500.87
540.44	411.93
540.61	381.51
540.78	468.11
540.95	374.49
541.12	402.57
541.29	437.68
541.46	355.76
541.62	397.89
541.79	425.98
541.96	416.62
542.13	348.74
542.30	411.93
542.47	447.04
542.63	395.55
542.80	421.30
542.97	507.90
543.14	521.94
543.31	498.53
543.48	390.87
543.64	421.30
543.81	407.25
543.98	423.64
544.15	423.64
544.32	360.44
544.48	505.56
544.65	395.55
544.82	411.93
544.99	414.27
545.16	407.25
545.32	376.83
545.49	346.40
545.66	376.83
545.83	435.34
546.00	362.78
546.16	395.55
546.33	402.57
546.50	411.93
546.67	521.94
546.83	416.62
547.00	365.12
547.17	414.27
547.34	418.96
547.50	428.32
547.67	393.21
547.84	428.32
548.00	383.85
548.17	393.21
548.34	440.02
548.51	440.02
548.67	416.62
548.84	381.51
549.01	416.62
549.18	440.02
549.34	435.34
549.51	475.13
549.68	362.78
549.84	449.38
550.01	451.72
550.18	524.28
550.34	451.72
550.51	472.79
550.68	442.36
550.84	407.25
551.01	393.21
551.18	461.09
551.34	418.96
551.51	365.12
551.68	397.89
551.84	454.06
552.01	430.66
552.18	334.70
552.34	444.70
552.51	486.83
552.68	425.98
552.84	456.40
553.01	428.32
553.18	477.47
553.34	409.59
553.51	444.70
553.67	442.36
553.84	447.04
554.01	362.78
554.17	440.02
554.34	414.27
554.51	386.19
554.67	475.13
554.84	416.62
555.00	437.68
555.17	435.34
555.33	475.13
555.50	440.02
555.67	423.64
555.83	444.70
556.00	440.02
556.16	528.96
556.33	400.23
556.50	486.83
556.66	475.13
556.83	430.66
556.99	423.64
557.16	414.27
557.32	393.21
557.49	440.02
557.65	404.91
557.82	444.70
557.98	468.11
558.15	322.99
558.32	322.99
558.48	395.55
558.65	454.06
558.81	440.02
558.98	418.96
559.14	400.23
559.31	463.43
559.47	386.19
559.64	414.27
559.80	444.70
559.97	379.17
560.13	425.98
560.30	372.15
560.46	390.87
560.63	451.72
560.79	395.55
560.96	404.91
561.12	362.78
561.29	472.79
561.45	425.98
561.61	463.43
561.78	514.92
561.94	381.51
562.11	379.17
562.27	411.93
562.44	379.17
562.60	437.68
562.77	381.51
562.93	468.11
563.10	430.66
563.26	393.21
563.42	461.09
563.59	437.68
563.75	400.23
563.92	475.13
564.08	407.25
564.24	484.49
564.41	444.70
564.57	400.23
564.74	458.74
564.90	440.02
565.07	496.19
565.23	486.83
565.39	407.25
565.56	458.74
565.72	414.27
565.88	397.89
566.05	381.51
566.21	461.09
566.38	486.83
566.54	456.40
566.70	451.72
566.87	367.46
567.03	348.74
567.19	376.83
567.36	400.23
567.52	447.04
567.68	425.98
567.85	531.30
568.01	468.11
568.17	367.46
568.34	442.36
568.50	561.73
568.66	337.04
568.83	510.24
568.99	400.23
569.15	386.19
569.32	414.27
569.48	437.68
569.64	390.87
569.81	395.55
569.97	334.70
570.13	447.04
570.30	451.72
570.46	381.51
570.62	421.30
570.78	463.43
570.95	393.21
571.11	409.59
571.27	386.19
571.43	425.98
571.60	449.38
571.76	435.34
571.92	383.85
572.09	404.91
572.25	376.83
572.41	430.66
572.57	379.17
572.74	428.32
572.90	449.38
573.06	454.06
573.22	381.51
573.38	400.23
573.55	430.66
573.71	428.32
573.87	437.68
574.03	404.91
574.20	404.91
574.36	376.83
574.52	407.25
574.68	402.57
574.84	489.17
575.01	479.81
575.17	404.91
575.33	440.02
575.49	430.66
575.65	458.74
575.82	430.66
575.98	416.62
576.14	463.43
576.30	418.96
576.46	383.85
576.62	379.17
576.79	458.74
576.95	430.66
577.11	397.89
577.27	360.44
577.43	414.27
577.59	407.25
577.75	421.30
577.92	404.91
578.08	440.02
578.24	449.38
578.40	470.45
578.56	451.72
578.72	395.55
578.88	449.38
579.04	402.57
579.21	351.08
579.37	444.70
579.53	425.98
579.69	428.32
579.85	428.32
580.01	472.79
580.17	388.53
580.33	491.51
580.49	407.25
580.65	409.59
580.82	458.74
580.98	369.80
581.14	458.74
581.30	435.34
581.46	376.83
581.62	444.70
581.78	421.30
581.94	423.64
582.10	416.62
582.26	407.25
582.42	390.87
582.58	423.64
582.74	383.85
582.90	414.27
583.06	454.06
583.22	491.51
583.38	376.83
583.54	433.00
583.70	444.70
583.86	390.87
584.02	442.36
584.18	447.04
584.34	482.15
584.50	353.42
584.66	461.09
584.82	381.51
584.98	409.59
585.14	402.57
585.30	454.06
585.46	390.87
585.62	440.02
585.78	390.87
585.94	425.98
586.10	404.91
586.26	440.02
586.42	486.83
586.58	388.53
586.74	514.92
586.90	379.17
587.06	418.96
587.22	353.42
587.38	339.38
587.54	383.85
587.70	400.23
587.86	437.68
588.02	411.93
588.18	395.55
588.34	372.15
588.49	451.72
588.65	416.62
588.81	402.57
588.97	458.74
589.13	409.59
589.29	414.27
589.45	414.27
589.61	423.64
589.77	376.83
589.93	360.44
590.08	381.51
590.24	423.64
590.40	397.89
590.56	421.30
590.72	355.76
590.88	418.96
591.04	395.55
591.20	418.96
591.35	381.51
591.51	454.06
591.67	437.68
591.83	433.00
591.99	414.27
592.15	416.62
592.31	362.78
592.46	430.66
592.62	461.09
592.78	400.23
592.94	397.89
593.10	362.78
593.26	416.62
593.41	367.46
593.57	449.38
593.73	423.64
593.89	454.06
594.05	411.93
594.20	430.66
594.36	465.77
594.52	449.38
594.68	449.38
594.84	433.00
594.99	411.93
595.15	437.68
595.31	435.34
595.47	418.96
595.62	383.85
595.78	390.87
595.94	411.93
596.10	435.34
596.25	496.19
596.41	444.70
596.57	475.13
596.73	421.30
596.88	463.43
597.04	402.57
597.20	418.96
597.36	416.62
597.51	437.68
597.67	334.70
597.83	411.93
597.99	472.79
598.14	428.32
598.30	395.55
598.46	444.70
598.61	379.17
598.77	407.25
598.93	442.36
599.09	444.70
599.24	414.27
599.40	456.40
599.56	430.66
599.71	353.42
599.87	397.89
600.03	456.40
600.18	388.53
600.34	505.56
600.50	442.36
600.65	355.76
600.81	400.23
600.97	425.98
601.12	400.23
601.28	493.85
601.44	489.17
601.59	409.59
601.75	421.30
601.91	393.21
602.06	458.74
602.22	449.38
602.37	379.17
602.53	369.80
602.69	475.13
602.84	383.85
603.00	381.51
603.16	475.13
603.31	517.26
603.47	482.15
603.62	411.93
603.78	425.98
603.94	414.27
604.09	386.19
604.25	402.57
604.40	461.09
604.56	479.81
604.71	442.36
604.87	360.44
605.03	449.38
605.18	456.40
605.34	400.23
605.49	416.62
605.65	400.23
605.80	344.06
605.96	402.57
606.12	397.89
606.27	407.25
606.43	362.78
606.58	421.30
606.74	409.59
606.89	407.25
607.05	416.62
607.20	428.32
607.36	409.59
607.51	470.45
607.67	442.36
607.82	376.83
607.98	451.72
608.13	393.21
608.29	374.49
608.44	383.85
608.60	421.30
608.75	381.51
608.91	468.11
609.06	411.93
609.22	421.30
609.37	435.34
609.53	416.62
609.68	423.64
609.84	409.59
609.99	365.12
610.15	421.30
