SpectraSuite Data File
++++++++++++++++++++++++++++++++++++
Date: Fri Oct 25 12:11:25 EDT 2013
User: price-jones
Dark Spectrum Present: No
Reference Spectrum Present: No
Number of Sampled Component Spectra: 1
Spectrometers: USB2+H05261
Integration Time (usec): 100000 (USB2+H05261)
Spectra Averaged: 1 (USB2+H05261)
Boxcar Smoothing: 0 (USB2+H05261)
Correct for Electrical Dark: No (USB2+H05261)
Strobe/Lamp Enabled: No (USB2+H05261)
Correct for Detector Non-linearity: No (USB2+H05261)
Correct for Stray Light: No (USB2+H05261)
Number of Pixels in Processed Spectrum: 2048
>>>>>Begin Processed Spectral Data<<<<<
365.73	337.04
365.92	337.04
366.12	337.04
366.32	241.08
366.52	255.12
366.72	227.03
366.91	238.73
367.11	236.39
367.31	264.48
367.51	142.77
367.70	222.35
367.90	201.29
368.10	250.44
368.30	262.14
368.49	241.08
368.69	259.80
368.89	191.92
369.09	297.25
369.28	290.23
369.48	311.29
369.68	362.78
369.87	351.08
370.07	311.29
370.27	369.80
370.47	381.51
370.66	308.95
370.86	306.61
371.06	461.09
371.25	430.66
371.45	376.83
371.65	379.17
371.84	332.36
372.04	337.04
372.24	372.15
372.44	393.21
372.63	388.53
372.83	362.78
373.03	440.02
373.22	411.93
373.42	395.55
373.62	402.57
373.81	383.85
374.01	404.91
374.21	423.64
374.40	404.91
374.60	472.79
374.79	435.34
374.99	428.32
375.19	449.38
375.38	402.57
375.58	479.81
375.78	430.66
375.97	496.19
376.17	468.11
376.37	433.00
376.56	407.25
376.76	447.04
376.95	458.74
377.15	425.98
377.35	444.70
377.54	372.15
377.74	404.91
377.93	400.23
378.13	449.38
378.33	423.64
378.52	404.91
378.72	418.96
378.91	355.76
379.11	402.57
379.31	367.46
379.50	444.70
379.70	442.36
379.89	383.85
380.09	383.85
380.28	386.19
380.48	407.25
380.68	407.25
380.87	374.49
381.07	437.68
381.26	423.64
381.46	369.80
381.65	458.74
381.85	402.57
382.04	468.11
382.24	418.96
382.43	468.11
382.63	444.70
382.83	374.49
383.02	463.43
383.22	531.30
383.41	379.17
383.61	444.70
383.80	400.23
384.00	390.87
384.19	395.55
384.39	407.25
384.58	369.80
384.78	416.62
384.97	524.28
385.17	416.62
385.36	449.38
385.56	444.70
385.75	393.21
385.95	393.21
386.14	435.34
386.34	402.57
386.53	425.98
386.72	435.34
386.92	437.68
387.11	400.23
387.31	416.62
387.50	435.34
387.70	379.17
387.89	362.78
388.09	383.85
388.28	397.89
388.48	372.15
388.67	395.55
388.86	468.11
389.06	442.36
389.25	435.34
389.45	458.74
389.64	393.21
389.84	383.85
390.03	496.19
390.22	372.15
390.42	430.66
390.61	418.96
390.81	346.40
391.00	447.04
391.19	418.96
391.39	407.25
391.58	425.98
391.78	404.91
391.97	390.87
392.16	362.78
392.36	444.70
392.55	388.53
392.75	402.57
392.94	425.98
393.13	367.46
393.33	414.27
393.52	390.87
393.71	395.55
393.91	397.89
394.10	414.27
394.29	348.74
394.49	444.70
394.68	418.96
394.88	416.62
395.07	388.53
395.26	381.51
395.46	409.59
395.65	454.06
395.84	409.59
396.04	425.98
396.23	463.43
396.42	346.40
396.62	442.36
396.81	482.15
397.00	383.85
397.19	435.34
397.39	308.95
397.58	395.55
397.77	409.59
397.97	449.38
398.16	386.19
398.35	381.51
398.55	390.87
398.74	388.53
398.93	435.34
399.12	318.31
399.32	437.68
399.51	383.85
399.70	407.25
399.90	355.76
400.09	402.57
400.28	470.45
400.47	402.57
400.67	393.21
400.86	397.89
401.05	393.21
401.24	358.10
401.44	449.38
401.63	416.62
401.82	402.57
402.01	444.70
402.21	414.27
402.40	425.98
402.59	491.51
402.78	390.87
402.97	411.93
403.17	498.53
403.36	379.17
403.55	337.04
403.74	395.55
403.93	383.85
404.13	351.08
404.32	433.00
404.51	409.59
404.70	315.97
404.89	407.25
405.09	440.02
405.28	369.80
405.47	416.62
405.66	355.76
405.85	428.32
406.05	423.64
406.24	411.93
406.43	449.38
406.62	397.89
406.81	479.81
407.00	435.34
407.20	416.62
407.39	341.72
407.58	344.06
407.77	433.00
407.96	369.80
408.15	451.72
408.34	402.57
408.54	475.13
408.73	423.64
408.92	496.19
409.11	433.00
409.30	437.68
409.49	416.62
409.68	449.38
409.87	414.27
410.07	395.55
410.26	411.93
410.45	442.36
410.64	465.77
410.83	437.68
411.02	400.23
411.21	393.21
411.40	435.34
411.59	374.49
411.78	390.87
411.98	362.78
412.17	395.55
412.36	376.83
412.55	402.57
412.74	489.17
412.93	454.06
413.12	433.00
413.31	449.38
413.50	407.25
413.69	400.23
413.88	395.55
414.07	393.21
414.26	444.70
414.45	390.87
414.64	409.59
414.83	379.17
415.02	451.72
415.22	388.53
415.41	421.30
415.60	411.93
415.79	404.91
415.98	437.68
416.17	435.34
416.36	416.62
416.55	430.66
416.74	425.98
416.93	437.68
417.12	493.85
417.31	465.77
417.50	393.21
417.69	449.38
417.88	477.47
418.07	407.25
418.26	381.51
418.45	423.64
418.64	421.30
418.83	447.04
419.02	456.40
419.21	437.68
419.39	454.06
419.58	376.83
419.77	393.21
419.96	484.49
420.15	407.25
420.34	376.83
420.53	440.02
420.72	454.06
420.91	470.45
421.10	451.72
421.29	461.09
421.48	404.91
421.67	393.21
421.86	390.87
422.05	407.25
422.24	404.91
422.43	416.62
422.61	390.87
422.80	430.66
422.99	416.62
423.18	369.80
423.37	400.23
423.56	479.81
423.75	498.53
423.94	416.62
424.13	360.44
424.32	411.93
424.50	433.00
424.69	383.85
424.88	465.77
425.07	444.70
425.26	428.32
425.45	456.40
425.64	449.38
425.83	393.21
426.01	381.51
426.20	386.19
426.39	383.85
426.58	440.02
426.77	400.23
426.96	425.98
427.15	433.00
427.33	346.40
427.52	355.76
427.71	416.62
427.90	444.70
428.09	395.55
428.28	365.12
428.46	414.27
428.65	421.30
428.84	348.74
429.03	486.83
429.22	388.53
429.40	369.80
429.59	428.32
429.78	449.38
429.97	376.83
430.16	395.55
430.34	379.17
430.53	447.04
430.72	372.15
430.91	477.47
431.10	411.93
431.28	402.57
431.47	386.19
431.66	430.66
431.85	404.91
432.03	404.91
432.22	388.53
432.41	428.32
432.60	418.96
432.79	428.32
432.97	435.34
433.16	374.49
433.35	404.91
433.54	475.13
433.72	341.72
433.91	358.10
434.10	442.36
434.28	449.38
434.47	428.32
434.66	461.09
434.85	425.98
435.03	397.89
435.22	402.57
435.41	463.43
435.59	395.55
435.78	416.62
435.97	423.64
436.16	416.62
436.34	381.51
436.53	374.49
436.72	447.04
436.90	449.38
437.09	376.83
437.28	409.59
437.46	369.80
437.65	435.34
437.84	393.21
438.02	428.32
438.21	407.25
438.40	388.53
438.58	360.44
438.77	435.34
438.96	425.98
439.14	376.83
439.33	379.17
439.52	428.32
439.70	444.70
439.89	383.85
440.08	430.66
440.26	484.49
440.45	461.09
440.63	425.98
440.82	440.02
441.01	454.06
441.19	388.53
441.38	440.02
441.57	458.74
441.75	393.21
441.94	376.83
442.12	367.46
442.31	351.08
442.50	400.23
442.68	444.70
442.87	369.80
443.05	351.08
443.24	428.32
443.43	425.98
443.61	400.23
443.80	428.32
443.98	379.17
444.17	416.62
444.35	468.11
444.54	433.00
444.73	386.19
444.91	505.56
445.10	379.17
445.28	435.34
445.47	449.38
445.65	423.64
445.84	423.64
446.02	416.62
446.21	360.44
446.39	409.59
446.58	440.02
446.77	402.57
446.95	465.77
447.14	440.02
447.32	390.87
447.51	442.36
447.69	353.42
447.88	381.51
448.06	437.68
448.25	416.62
448.43	437.68
448.62	372.15
448.80	395.55
448.99	472.79
449.17	470.45
449.36	386.19
449.54	421.30
449.73	400.23
449.91	435.34
450.10	463.43
450.28	414.27
450.46	451.72
450.65	409.59
450.83	437.68
451.02	444.70
451.20	381.51
451.39	472.79
451.57	418.96
451.76	428.32
451.94	435.34
452.13	496.19
452.31	334.70
452.49	409.59
452.68	479.81
452.86	383.85
453.05	470.45
453.23	388.53
453.42	465.77
453.60	470.45
453.78	393.21
453.97	397.89
454.15	397.89
454.34	421.30
454.52	442.36
454.70	468.11
454.89	475.13
455.07	425.98
455.26	376.83
455.44	493.85
455.62	402.57
455.81	353.42
455.99	414.27
456.17	465.77
456.36	418.96
456.54	402.57
456.73	407.25
456.91	423.64
457.09	397.89
457.28	388.53
457.46	449.38
457.64	451.72
457.83	395.55
458.01	411.93
458.19	456.40
458.38	444.70
458.56	428.32
458.74	346.40
458.93	390.87
459.11	367.46
459.29	369.80
459.48	334.70
459.66	411.93
459.84	395.55
460.03	482.15
460.21	393.21
460.39	449.38
460.57	470.45
460.76	428.32
460.94	433.00
461.12	440.02
461.31	500.87
461.49	451.72
461.67	486.83
461.85	421.30
462.04	435.34
462.22	819.19
462.40	430.66
462.59	376.83
462.77	418.96
462.95	421.30
463.13	451.72
463.32	372.15
463.50	418.96
463.68	425.98
463.86	369.80
464.05	423.64
464.23	395.55
464.41	479.81
464.59	472.79
464.78	437.68
464.96	393.21
465.14	390.87
465.32	390.87
465.50	428.32
465.69	421.30
465.87	411.93
466.05	430.66
466.23	418.96
466.41	451.72
466.60	372.15
466.78	454.06
466.96	482.15
467.14	484.49
467.32	442.36
467.51	402.57
467.69	447.04
467.87	421.30
468.05	388.53
468.23	454.06
468.41	484.49
468.60	411.93
468.78	393.21
468.96	472.79
469.14	486.83
469.32	421.30
469.50	351.08
469.69	379.17
469.87	402.57
470.05	402.57
470.23	479.81
470.41	379.17
470.59	430.66
470.77	458.74
470.95	400.23
471.14	411.93
471.32	454.06
471.50	388.53
471.68	376.83
471.86	379.17
472.04	362.78
472.22	468.11
472.40	351.08
472.58	430.66
472.77	425.98
472.95	390.87
473.13	454.06
473.31	433.00
473.49	397.89
473.67	428.32
473.85	449.38
474.03	458.74
474.21	376.83
474.39	510.24
474.57	463.43
474.75	440.02
474.93	369.80
475.12	416.62
475.30	386.19
475.48	383.85
475.66	416.62
475.84	386.19
476.02	444.70
476.20	447.04
476.38	433.00
476.56	444.70
476.74	465.77
476.92	374.49
477.10	337.04
477.28	482.15
477.46	482.15
477.64	400.23
477.82	456.40
478.00	365.12
478.18	465.77
478.36	454.06
478.54	386.19
478.72	367.46
478.90	414.27
479.08	479.81
479.26	447.04
479.44	440.02
479.62	418.96
479.80	407.25
479.98	348.74
480.16	425.98
480.34	461.09
480.52	372.15
480.70	360.44
480.88	395.55
481.06	425.98
481.24	388.53
481.41	463.43
481.59	428.32
481.77	332.36
481.95	374.49
482.13	393.21
482.31	428.32
482.49	407.25
482.67	374.49
482.85	388.53
483.03	386.19
483.21	400.23
483.39	435.34
483.57	447.04
483.74	374.49
483.92	393.21
484.10	458.74
484.28	447.04
484.46	428.32
484.64	397.89
484.82	320.65
485.00	393.21
485.18	418.96
485.35	374.49
485.53	404.91
485.71	416.62
485.89	362.78
486.07	414.27
486.25	409.59
486.43	461.09
486.61	451.72
486.78	463.43
486.96	416.62
487.14	386.19
487.32	400.23
487.50	430.66
487.68	404.91
487.85	395.55
488.03	454.06
488.21	362.78
488.39	409.59
488.57	425.98
488.75	454.06
488.92	416.62
489.10	461.09
489.28	437.68
489.46	376.83
489.64	362.78
489.81	421.30
489.99	360.44
490.17	353.42
490.35	402.57
490.53	409.59
490.70	402.57
490.88	409.59
491.06	435.34
491.24	355.76
491.41	500.87
491.59	409.59
491.77	395.55
491.95	397.89
492.13	437.68
492.30	395.55
492.48	381.51
492.66	395.55
492.84	428.32
493.01	395.55
493.19	402.57
493.37	468.11
493.54	379.17
493.72	447.04
493.90	507.90
494.08	351.08
494.25	472.79
494.43	416.62
494.61	433.00
494.79	500.87
494.96	360.44
495.14	456.40
495.32	404.91
495.49	435.34
495.67	404.91
495.85	374.49
496.02	407.25
496.20	447.04
496.38	418.96
496.55	425.98
496.73	461.09
496.91	372.15
497.09	463.43
497.26	496.19
497.44	386.19
497.62	409.59
497.79	444.70
497.97	418.96
498.14	433.00
498.32	456.40
498.50	447.04
498.67	372.15
498.85	423.64
499.03	437.68
499.20	374.49
499.38	430.66
499.56	428.32
499.73	433.00
499.91	430.66
500.08	402.57
500.26	376.83
500.44	428.32
500.61	418.96
500.79	379.17
500.97	491.51
501.14	465.77
501.32	484.49
501.49	358.10
501.67	346.40
501.84	353.42
502.02	484.49
502.20	479.81
502.37	362.78
502.55	430.66
502.72	395.55
502.90	463.43
503.07	386.19
503.25	327.68
503.43	458.74
503.60	383.85
503.78	451.72
503.95	407.25
504.13	337.04
504.30	484.49
504.48	430.66
504.65	486.83
504.83	369.80
505.01	414.27
505.18	440.02
505.36	423.64
505.53	409.59
505.71	360.44
505.88	397.89
506.06	425.98
506.23	404.91
506.41	435.34
506.58	444.70
506.76	433.00
506.93	374.49
507.11	397.89
507.28	433.00
507.46	414.27
507.63	381.51
507.81	376.83
507.98	407.25
508.16	409.59
508.33	454.06
508.50	411.93
508.68	388.53
508.85	411.93
509.03	425.98
509.20	414.27
509.38	437.68
509.55	423.64
509.73	428.32
509.90	486.83
510.08	444.70
510.25	444.70
510.42	416.62
510.60	374.49
510.77	360.44
510.95	433.00
511.12	442.36
511.30	407.25
511.47	393.21
511.64	463.43
511.82	418.96
511.99	442.36
512.17	411.93
512.34	416.62
512.51	407.25
512.69	407.25
512.86	437.68
513.04	393.21
513.21	372.15
513.38	409.59
513.56	449.38
513.73	418.96
513.90	355.76
514.08	475.13
514.25	442.36
514.43	400.23
514.60	400.23
514.77	454.06
514.95	372.15
515.12	395.55
515.29	395.55
515.47	442.36
515.64	428.32
515.81	435.34
515.99	456.40
516.16	423.64
516.33	449.38
516.51	470.45
516.68	367.46
516.85	407.25
517.03	400.23
517.20	418.96
517.37	540.66
517.54	418.96
517.72	395.55
517.89	365.12
518.06	433.00
518.24	498.53
518.41	465.77
518.58	393.21
518.75	461.09
518.93	395.55
519.10	355.76
519.27	449.38
519.45	449.38
519.62	381.51
519.79	433.00
519.96	383.85
520.14	369.80
520.31	440.02
520.48	379.17
520.65	376.83
520.83	402.57
521.00	365.12
521.17	362.78
521.34	444.70
521.52	409.59
521.69	355.76
521.86	444.70
522.03	430.66
522.20	472.79
522.38	479.81
522.55	369.80
522.72	411.93
522.89	390.87
523.07	451.72
523.24	491.51
523.41	402.57
523.58	442.36
523.75	454.06
523.92	395.55
524.10	451.72
524.27	397.89
524.44	472.79
524.61	421.30
524.78	388.53
524.96	425.98
525.13	395.55
525.30	397.89
525.47	393.21
525.64	451.72
525.81	383.85
525.98	423.64
526.16	437.68
526.33	496.19
526.50	383.85
526.67	454.06
526.84	404.91
527.01	411.93
527.18	414.27
527.36	423.64
527.53	414.27
527.70	407.25
527.87	390.87
528.04	395.55
528.21	447.04
528.38	407.25
528.55	463.43
528.72	468.11
528.89	468.11
529.07	454.06
529.24	468.11
529.41	444.70
529.58	433.00
529.75	400.23
529.92	442.36
530.09	428.32
530.26	425.98
530.43	402.57
530.60	442.36
530.77	449.38
530.94	430.66
531.11	379.17
531.28	409.59
531.46	409.59
531.63	404.91
531.80	414.27
531.97	440.02
532.14	365.12
532.31	454.06
532.48	369.80
532.65	402.57
532.82	369.80
532.99	337.04
533.16	411.93
533.33	433.00
533.50	393.21
533.67	430.66
533.84	440.02
534.01	454.06
534.18	491.51
534.35	435.34
534.52	470.45
534.69	379.17
534.86	418.96
535.03	418.96
535.20	414.27
535.37	514.92
535.54	454.06
535.71	430.66
535.88	425.98
536.05	383.85
536.22	397.89
536.38	449.38
536.55	390.87
536.72	395.55
536.89	423.64
537.06	362.78
537.23	411.93
537.40	395.55
537.57	444.70
537.74	486.83
537.91	358.10
538.08	404.91
538.25	449.38
538.42	388.53
538.59	425.98
538.75	479.81
538.92	454.06
539.09	425.98
539.26	425.98
539.43	379.17
539.60	409.59
539.77	353.42
539.94	351.08
540.11	451.72
540.28	500.87
540.44	393.21
540.61	390.87
540.78	430.66
540.95	428.32
541.12	456.40
541.29	376.83
541.46	379.17
541.62	454.06
541.79	416.62
541.96	397.89
542.13	369.80
542.30	458.74
542.47	409.59
542.63	388.53
542.80	433.00
542.97	468.11
543.14	407.25
543.31	461.09
543.48	402.57
543.64	301.93
543.81	482.15
543.98	433.00
544.15	346.40
544.32	348.74
544.48	381.51
544.65	390.87
544.82	358.10
544.99	407.25
545.16	463.43
545.32	360.44
545.49	470.45
545.66	404.91
545.83	397.89
546.00	374.49
546.16	442.36
546.33	388.53
546.50	404.91
546.67	456.40
546.83	444.70
547.00	440.02
547.17	411.93
547.34	390.87
547.50	465.77
547.67	479.81
547.84	369.80
548.00	395.55
548.17	376.83
548.34	409.59
548.51	454.06
548.67	433.00
548.84	411.93
549.01	407.25
549.18	409.59
549.34	440.02
549.51	397.89
549.68	454.06
549.84	395.55
550.01	435.34
550.18	440.02
550.34	503.22
550.51	430.66
550.68	421.30
550.84	386.19
551.01	360.44
551.18	447.04
551.34	433.00
551.51	477.47
551.68	421.30
551.84	447.04
552.01	435.34
552.18	423.64
552.34	388.53
552.51	461.09
552.68	468.11
552.84	498.53
553.01	407.25
553.18	484.49
553.34	360.44
553.51	388.53
553.67	383.85
553.84	447.04
554.01	390.87
554.17	344.06
554.34	369.80
554.51	451.72
554.67	418.96
554.84	423.64
555.00	486.83
555.17	402.57
555.33	458.74
555.50	535.98
555.67	411.93
555.83	388.53
556.00	444.70
556.16	526.62
556.33	477.47
556.50	414.27
556.66	425.98
556.83	390.87
556.99	351.08
557.16	430.66
557.32	381.51
557.49	423.64
557.65	421.30
557.82	411.93
557.98	484.49
558.15	449.38
558.32	489.17
558.48	451.72
558.65	449.38
558.81	407.25
558.98	468.11
559.14	496.19
559.31	367.46
559.47	423.64
559.64	442.36
559.80	458.74
559.97	430.66
560.13	475.13
560.30	425.98
560.46	381.51
560.63	428.32
560.79	388.53
560.96	381.51
561.12	365.12
561.29	449.38
561.45	416.62
561.61	393.21
561.78	512.58
561.94	383.85
562.11	430.66
562.27	369.80
562.44	435.34
562.60	411.93
562.77	491.51
562.93	440.02
563.10	423.64
563.26	390.87
563.42	430.66
563.59	393.21
563.75	447.04
563.92	493.85
564.08	339.38
564.24	470.45
564.41	458.74
564.57	395.55
564.74	379.17
564.90	393.21
565.07	383.85
565.23	346.40
565.39	451.72
565.56	418.96
565.72	475.13
565.88	372.15
566.05	407.25
566.21	442.36
566.38	407.25
566.54	449.38
566.70	430.66
566.87	425.98
567.03	386.19
567.19	379.17
567.36	383.85
567.52	381.51
567.68	475.13
567.85	484.49
568.01	390.87
568.17	379.17
568.34	451.72
568.50	407.25
568.66	430.66
568.83	514.92
568.99	447.04
569.15	397.89
569.32	376.83
569.48	393.21
569.64	341.72
569.81	465.77
569.97	458.74
570.13	402.57
570.30	468.11
570.46	365.12
570.62	400.23
570.78	402.57
570.95	425.98
571.11	379.17
571.27	451.72
571.43	421.30
571.60	379.17
571.76	428.32
571.92	344.06
572.09	404.91
572.25	402.57
572.41	421.30
572.57	330.02
572.74	449.38
572.90	397.89
573.06	442.36
573.22	430.66
573.38	360.44
573.55	425.98
573.71	423.64
573.87	425.98
574.03	430.66
574.20	400.23
574.36	451.72
574.52	423.64
574.68	449.38
574.84	444.70
575.01	461.09
575.17	416.62
575.33	414.27
575.49	421.30
575.65	496.19
575.82	418.96
575.98	423.64
576.14	414.27
576.30	437.68
576.46	423.64
576.62	374.49
576.79	421.30
576.95	397.89
577.11	409.59
577.27	374.49
577.43	393.21
577.59	404.91
577.75	444.70
577.92	475.13
578.08	393.21
578.24	376.83
578.40	458.74
578.56	425.98
578.72	465.77
578.88	479.81
579.04	454.06
579.21	498.53
579.37	379.17
579.53	369.80
579.69	465.77
579.85	360.44
580.01	402.57
580.17	402.57
580.33	458.74
580.49	411.93
580.65	433.00
580.82	430.66
580.98	358.10
581.14	465.77
581.30	472.79
581.46	430.66
581.62	465.77
581.78	409.59
581.94	440.02
582.10	421.30
582.26	414.27
582.42	418.96
582.58	414.27
582.74	433.00
582.90	402.57
583.06	388.53
583.22	381.51
583.38	372.15
583.54	402.57
583.70	475.13
583.86	451.72
584.02	360.44
584.18	472.79
584.34	393.21
584.50	351.08
584.66	402.57
584.82	425.98
584.98	454.06
585.14	404.91
585.30	388.53
585.46	388.53
585.62	397.89
585.78	409.59
585.94	388.53
586.10	435.34
586.26	475.13
586.42	428.32
586.58	416.62
586.74	421.30
586.90	451.72
587.06	447.04
587.22	449.38
587.38	400.23
587.54	475.13
587.70	449.38
587.86	458.74
588.02	433.00
588.18	360.44
588.34	456.40
588.49	435.34
588.65	395.55
588.81	447.04
588.97	409.59
589.13	425.98
589.29	465.77
589.45	435.34
589.61	386.19
589.77	435.34
589.93	393.21
590.08	428.32
590.24	440.02
590.40	458.74
590.56	433.00
590.72	484.49
590.88	404.91
591.04	372.15
591.20	395.55
591.35	521.94
591.51	386.19
591.67	332.36
591.83	465.77
591.99	365.12
592.15	428.32
592.31	407.25
592.46	409.59
592.62	416.62
592.78	433.00
592.94	491.51
593.10	383.85
593.26	402.57
593.41	519.60
593.57	472.79
593.73	381.51
593.89	416.62
594.05	451.72
594.20	418.96
594.36	435.34
594.52	414.27
594.68	407.25
594.84	468.11
594.99	454.06
595.15	486.83
595.31	521.94
595.47	479.81
595.62	472.79
595.78	470.45
595.94	376.83
596.10	416.62
596.25	416.62
596.41	444.70
596.57	437.68
596.73	433.00
596.88	379.17
597.04	442.36
597.20	430.66
597.36	372.15
597.51	407.25
597.67	395.55
597.83	475.13
597.99	463.43
598.14	369.80
598.30	414.27
598.46	463.43
598.61	435.34
598.77	447.04
598.93	435.34
599.09	437.68
599.24	332.36
599.40	386.19
599.56	458.74
599.71	423.64
599.87	402.57
600.03	416.62
600.18	484.49
600.34	491.51
600.50	402.57
600.65	437.68
600.81	449.38
600.97	404.91
601.12	442.36
601.28	479.81
601.44	379.17
601.59	444.70
601.75	381.51
601.91	400.23
602.06	456.40
602.22	547.69
602.37	388.53
602.53	367.46
602.69	421.30
602.84	458.74
603.00	421.30
603.16	386.19
603.31	465.77
603.47	428.32
603.62	440.02
603.78	482.15
603.94	421.30
604.09	337.04
604.25	507.90
604.40	449.38
604.56	383.85
604.71	416.62
604.87	430.66
605.03	468.11
605.18	505.56
605.34	390.87
605.49	421.30
605.65	425.98
605.80	381.51
605.96	440.02
606.12	404.91
606.27	379.17
606.43	477.47
606.58	442.36
606.74	416.62
606.89	468.11
607.05	423.64
607.20	430.66
607.36	379.17
607.51	428.32
607.67	444.70
607.82	409.59
607.98	458.74
608.13	425.98
608.29	407.25
608.44	449.38
608.60	470.45
608.75	463.43
608.91	486.83
609.06	458.74
609.22	358.10
609.37	411.93
609.53	440.02
609.68	425.98
609.84	416.62
609.99	395.55
610.15	414.27
