SpectraSuite Data File
++++++++++++++++++++++++++++++++++++
Date: Fri Oct 25 12:10:50 EDT 2013
User: price-jones
Dark Spectrum Present: No
Reference Spectrum Present: No
Number of Sampled Component Spectra: 1
Spectrometers: USB2+H05261
Integration Time (usec): 100000 (USB2+H05261)
Spectra Averaged: 1 (USB2+H05261)
Boxcar Smoothing: 0 (USB2+H05261)
Correct for Electrical Dark: No (USB2+H05261)
Strobe/Lamp Enabled: No (USB2+H05261)
Correct for Detector Non-linearity: No (USB2+H05261)
Correct for Stray Light: No (USB2+H05261)
Number of Pixels in Processed Spectrum: 2048
>>>>>Begin Processed Spectral Data<<<<<
365.73	395.55
365.92	395.55
366.12	395.55
366.32	304.27
366.52	264.48
366.72	266.82
366.91	257.46
367.11	266.82
367.31	262.14
367.51	177.88
367.70	264.48
367.90	175.54
368.10	222.35
368.30	231.71
368.49	217.67
368.69	227.03
368.89	276.18
369.09	238.73
369.28	297.25
369.48	264.48
369.68	266.82
369.87	339.38
370.07	320.65
370.27	315.97
370.47	299.59
370.66	330.02
370.86	365.12
371.06	416.62
371.25	458.74
371.45	348.74
371.65	322.99
371.84	376.83
372.04	365.12
372.24	440.02
372.44	341.72
372.63	400.23
372.83	416.62
373.03	358.10
373.22	372.15
373.42	456.40
373.62	444.70
373.81	423.64
374.01	465.77
374.21	425.98
374.40	444.70
374.60	414.27
374.79	344.06
374.99	418.96
375.19	369.80
375.38	400.23
375.58	393.21
375.78	451.72
375.97	463.43
376.17	498.53
376.37	411.93
376.56	475.13
376.76	386.19
376.95	451.72
377.15	482.15
377.35	402.57
377.54	330.02
377.74	379.17
377.93	393.21
378.13	374.49
378.33	437.68
378.52	393.21
378.72	367.46
378.91	381.51
379.11	346.40
379.31	409.59
379.50	395.55
379.70	376.83
379.89	437.68
380.09	325.33
380.28	407.25
380.48	416.62
380.68	454.06
380.87	372.15
381.07	369.80
381.26	514.92
381.46	425.98
381.65	449.38
381.85	393.21
382.04	360.44
382.24	383.85
382.43	351.08
382.63	362.78
382.83	379.17
383.02	442.36
383.22	440.02
383.41	386.19
383.61	402.57
383.80	416.62
384.00	465.77
384.19	297.25
384.39	472.79
384.58	430.66
384.78	437.68
384.97	472.79
385.17	376.83
385.36	400.23
385.56	449.38
385.75	407.25
385.95	435.34
386.14	425.98
386.34	407.25
386.53	400.23
386.72	423.64
386.92	360.44
387.11	475.13
387.31	400.23
387.50	397.89
387.70	428.32
387.89	421.30
388.09	365.12
388.28	351.08
388.48	472.79
388.67	433.00
388.86	390.87
389.06	418.96
389.25	425.98
389.45	449.38
389.64	330.02
389.84	475.13
390.03	407.25
390.22	341.72
390.42	449.38
390.61	418.96
390.81	393.21
391.00	402.57
391.19	428.32
391.39	374.49
391.58	479.81
391.78	418.96
391.97	416.62
392.16	351.08
392.36	418.96
392.55	397.89
392.75	425.98
392.94	404.91
393.13	444.70
393.33	411.93
393.52	365.12
393.71	470.45
393.91	404.91
394.10	395.55
394.29	437.68
394.49	423.64
394.68	437.68
394.88	421.30
395.07	390.87
395.26	411.93
395.46	416.62
395.65	428.32
395.84	444.70
396.04	454.06
396.23	458.74
396.42	360.44
396.62	416.62
396.81	437.68
397.00	369.80
397.19	402.57
397.39	433.00
397.58	489.17
397.77	376.83
397.97	402.57
398.16	433.00
398.35	423.64
398.55	358.10
398.74	404.91
398.93	388.53
399.12	376.83
399.32	440.02
399.51	346.40
399.70	428.32
399.90	418.96
400.09	367.46
400.28	365.12
400.47	332.36
400.67	479.81
400.86	418.96
401.05	379.17
401.24	407.25
401.44	423.64
401.63	437.68
401.82	355.76
402.01	388.53
402.21	404.91
402.40	390.87
402.59	351.08
402.78	423.64
402.97	447.04
403.17	409.59
403.36	449.38
403.55	381.51
403.74	468.11
403.93	421.30
404.13	430.66
404.32	409.59
404.51	433.00
404.70	386.19
404.89	386.19
405.09	411.93
405.28	386.19
405.47	390.87
405.66	456.40
405.85	458.74
406.05	395.55
406.24	414.27
406.43	409.59
406.62	433.00
406.81	472.79
407.00	454.06
407.20	390.87
407.39	390.87
407.58	411.93
407.77	433.00
407.96	409.59
408.15	517.26
408.34	386.19
408.54	348.74
408.73	388.53
408.92	440.02
409.11	397.89
409.30	402.57
409.49	315.97
409.68	425.98
409.87	456.40
410.07	404.91
410.26	360.44
410.45	442.36
410.64	433.00
410.83	461.09
411.02	348.74
411.21	383.85
411.40	379.17
411.59	397.89
411.78	411.93
411.98	440.02
412.17	414.27
412.36	397.89
412.55	433.00
412.74	435.34
412.93	479.81
413.12	447.04
413.31	456.40
413.50	365.12
413.69	383.85
413.88	430.66
414.07	414.27
414.26	416.62
414.45	411.93
414.64	430.66
414.83	433.00
415.02	437.68
415.22	395.55
415.41	456.40
415.60	381.51
415.79	461.09
415.98	418.96
416.17	367.46
416.36	395.55
416.55	365.12
416.74	442.36
416.93	465.77
417.12	407.25
417.31	435.34
417.50	418.96
417.69	447.04
417.88	435.34
418.07	395.55
418.26	332.36
418.45	489.17
418.64	470.45
418.83	404.91
419.02	468.11
419.21	414.27
419.39	435.34
419.58	404.91
419.77	393.21
419.96	407.25
420.15	404.91
420.34	388.53
420.53	430.66
420.72	503.22
420.91	351.08
421.10	454.06
421.29	372.15
421.48	461.09
421.67	440.02
421.86	365.12
422.05	374.49
422.24	423.64
422.43	414.27
422.61	362.78
422.80	379.17
422.99	449.38
423.18	374.49
423.37	449.38
423.56	416.62
423.75	472.79
423.94	472.79
424.13	353.42
424.32	444.70
424.50	510.24
424.69	444.70
424.88	442.36
425.07	376.83
425.26	369.80
425.45	395.55
425.64	386.19
425.83	433.00
426.01	442.36
426.20	479.81
426.39	393.21
426.58	369.80
426.77	407.25
426.96	376.83
427.15	425.98
427.33	362.78
427.52	447.04
427.71	400.23
427.90	407.25
428.09	433.00
428.28	367.46
428.46	465.77
428.65	421.30
428.84	369.80
429.03	362.78
429.22	313.63
429.40	421.30
429.59	386.19
429.78	332.36
429.97	433.00
430.16	500.87
430.34	442.36
430.53	418.96
430.72	461.09
430.91	383.85
431.10	418.96
431.28	411.93
431.47	482.15
431.66	472.79
431.85	390.87
432.03	411.93
432.22	433.00
432.41	430.66
432.60	400.23
432.79	339.38
432.97	400.23
433.16	376.83
433.35	376.83
433.54	386.19
433.72	381.51
433.91	458.74
434.10	379.17
434.28	409.59
434.47	451.72
434.66	421.30
434.85	393.21
435.03	400.23
435.22	454.06
435.41	423.64
435.59	402.57
435.78	404.91
435.97	433.00
436.16	430.66
436.34	393.21
436.53	404.91
436.72	416.62
436.90	421.30
437.09	404.91
437.28	449.38
437.46	390.87
437.65	470.45
437.84	472.79
438.02	428.32
438.21	447.04
438.40	409.59
438.58	407.25
438.77	421.30
438.96	454.06
439.14	428.32
439.33	372.15
439.52	430.66
439.70	435.34
439.89	461.09
440.08	402.57
440.26	362.78
440.45	358.10
440.63	423.64
440.82	390.87
441.01	383.85
441.19	498.53
441.38	395.55
441.57	390.87
441.75	482.15
441.94	440.02
442.12	482.15
442.31	397.89
442.50	351.08
442.68	440.02
442.87	430.66
443.05	463.43
443.24	482.15
443.43	425.98
443.61	425.98
443.80	393.21
443.98	423.64
444.17	358.10
444.35	486.83
444.54	425.98
444.73	344.06
444.91	454.06
445.10	301.93
445.28	472.79
445.47	468.11
445.65	400.23
445.84	421.30
446.02	409.59
446.21	477.47
446.39	374.49
446.58	423.64
446.77	353.42
446.95	433.00
447.14	444.70
447.32	482.15
447.51	463.43
447.69	404.91
447.88	381.51
448.06	388.53
448.25	388.53
448.43	425.98
448.62	437.68
448.80	386.19
448.99	425.98
449.17	407.25
449.36	416.62
449.54	444.70
449.73	437.68
449.91	447.04
450.10	421.30
450.28	454.06
450.46	456.40
450.65	475.13
450.83	552.37
451.02	458.74
451.20	423.64
451.39	430.66
451.57	381.51
451.76	437.68
451.94	379.17
452.13	430.66
452.31	393.21
452.49	404.91
452.68	376.83
452.86	322.99
453.05	346.40
453.23	440.02
453.42	400.23
453.60	454.06
453.78	491.51
453.97	428.32
454.15	430.66
454.34	358.10
454.52	414.27
454.70	449.38
454.89	482.15
455.07	400.23
455.26	376.83
455.44	500.87
455.62	400.23
455.81	411.93
455.99	379.17
456.17	458.74
456.36	430.66
456.54	313.63
456.73	409.59
456.91	416.62
457.09	440.02
457.28	416.62
457.46	400.23
457.64	484.49
457.83	358.10
458.01	407.25
458.19	362.78
458.38	372.15
458.56	421.30
458.74	390.87
458.93	463.43
459.11	416.62
459.29	442.36
459.48	477.47
459.66	470.45
459.84	458.74
460.03	489.17
460.21	433.00
460.39	423.64
460.57	407.25
460.76	379.17
460.94	465.77
461.12	463.43
461.31	409.59
461.49	379.17
461.67	393.21
461.85	430.66
462.04	395.55
462.22	805.14
462.40	463.43
462.59	472.79
462.77	397.89
462.95	400.23
463.13	376.83
463.32	498.53
463.50	390.87
463.68	404.91
463.86	458.74
464.05	367.46
464.23	477.47
464.41	355.76
464.59	360.44
464.78	388.53
464.96	433.00
465.14	374.49
465.32	372.15
465.50	449.38
465.69	367.46
465.87	428.32
466.05	400.23
466.23	395.55
466.41	360.44
466.60	388.53
466.78	425.98
466.96	414.27
467.14	407.25
467.32	435.34
467.51	409.59
467.69	358.10
467.87	475.13
468.05	365.12
468.23	440.02
468.41	437.68
468.60	397.89
468.78	351.08
468.96	444.70
469.14	404.91
469.32	379.17
469.50	421.30
469.69	433.00
469.87	428.32
470.05	458.74
470.23	383.85
470.41	313.63
470.59	397.89
470.77	425.98
470.95	449.38
471.14	425.98
471.32	374.49
471.50	402.57
471.68	465.77
471.86	425.98
472.04	463.43
472.22	433.00
472.40	414.27
472.58	388.53
472.77	393.21
472.95	418.96
473.13	381.51
473.31	470.45
473.49	365.12
473.67	379.17
473.85	463.43
474.03	433.00
474.21	393.21
474.39	409.59
474.57	411.93
474.75	442.36
474.93	493.85
475.12	386.19
475.30	407.25
475.48	430.66
475.66	414.27
475.84	388.53
476.02	397.89
476.20	346.40
476.38	407.25
476.56	456.40
476.74	465.77
476.92	404.91
477.10	451.72
477.28	463.43
477.46	341.72
477.64	393.21
477.82	374.49
478.00	353.42
478.18	444.70
478.36	442.36
478.54	346.40
478.72	334.70
478.90	411.93
479.08	421.30
479.26	393.21
479.44	383.85
479.62	369.80
479.80	386.19
479.98	411.93
480.16	423.64
480.34	465.77
480.52	397.89
480.70	425.98
480.88	355.76
481.06	330.02
481.24	400.23
481.41	402.57
481.59	416.62
481.77	369.80
481.95	421.30
482.13	447.04
482.31	355.76
482.49	484.49
482.67	376.83
482.85	388.53
483.03	369.80
483.21	397.89
483.39	423.64
483.57	482.15
483.74	423.64
483.92	393.21
484.10	353.42
484.28	484.49
484.46	521.94
484.64	442.36
484.82	442.36
485.00	421.30
485.18	425.98
485.35	402.57
485.53	411.93
485.71	402.57
485.89	362.78
486.07	362.78
486.25	463.43
486.43	388.53
486.61	428.32
486.78	440.02
486.96	538.32
487.14	395.55
487.32	456.40
487.50	400.23
487.68	470.45
487.85	461.09
488.03	477.47
488.21	442.36
488.39	510.24
488.57	472.79
488.75	451.72
488.92	547.69
489.10	376.83
489.28	475.13
489.46	418.96
489.64	442.36
489.81	383.85
489.99	416.62
490.17	421.30
490.35	437.68
490.53	402.57
490.70	393.21
490.88	500.87
491.06	388.53
491.24	472.79
491.41	421.30
491.59	428.32
491.77	395.55
491.95	430.66
492.13	423.64
492.30	423.64
492.48	397.89
492.66	435.34
492.84	355.76
493.01	388.53
493.19	379.17
493.37	463.43
493.54	414.27
493.72	463.43
493.90	458.74
494.08	379.17
494.25	369.80
494.43	442.36
494.61	442.36
494.79	365.12
494.96	341.72
495.14	407.25
495.32	402.57
495.49	447.04
495.67	463.43
495.85	437.68
496.02	397.89
496.20	440.02
496.38	292.57
496.55	393.21
496.73	512.58
496.91	421.30
497.09	454.06
497.26	374.49
497.44	444.70
497.62	416.62
497.79	383.85
497.97	379.17
498.14	496.19
498.32	477.47
498.50	353.42
498.67	355.76
498.85	386.19
499.03	433.00
499.20	428.32
499.38	383.85
499.56	376.83
499.73	433.00
499.91	318.31
500.08	411.93
500.26	423.64
500.44	411.93
500.61	430.66
500.79	414.27
500.97	454.06
501.14	458.74
501.32	461.09
501.49	423.64
501.67	409.59
501.84	444.70
502.02	440.02
502.20	418.96
502.37	360.44
502.55	409.59
502.72	379.17
502.90	404.91
503.07	435.34
503.25	465.77
503.43	482.15
503.60	440.02
503.78	440.02
503.95	411.93
504.13	376.83
504.30	411.93
504.48	454.06
504.65	444.70
504.83	381.51
505.01	421.30
505.18	400.23
505.36	404.91
505.53	423.64
505.71	411.93
505.88	433.00
506.06	433.00
506.23	414.27
506.41	430.66
506.58	482.15
506.76	390.87
506.93	430.66
507.11	465.77
507.28	451.72
507.46	437.68
507.63	425.98
507.81	458.74
507.98	411.93
508.16	461.09
508.33	440.02
508.50	393.21
508.68	320.65
508.85	477.47
509.03	416.62
509.20	430.66
509.38	400.23
509.55	383.85
509.73	421.30
509.90	423.64
510.08	435.34
510.25	402.57
510.42	442.36
510.60	404.91
510.77	493.85
510.95	435.34
511.12	339.38
511.30	414.27
511.47	404.91
511.64	510.24
511.82	449.38
511.99	433.00
512.17	416.62
512.34	423.64
512.51	407.25
512.69	428.32
512.86	479.81
513.04	372.15
513.21	381.51
513.38	430.66
513.56	472.79
513.73	421.30
513.90	344.06
514.08	402.57
514.25	404.91
514.43	407.25
514.60	482.15
514.77	416.62
514.95	421.30
515.12	428.32
515.29	416.62
515.47	348.74
515.64	414.27
515.81	351.08
515.99	428.32
516.16	449.38
516.33	489.17
516.51	433.00
516.68	458.74
516.85	407.25
517.03	390.87
517.20	477.47
517.37	395.55
517.54	421.30
517.72	423.64
517.89	416.62
518.06	348.74
518.24	402.57
518.41	416.62
518.58	444.70
518.75	404.91
518.93	444.70
519.10	322.99
519.27	425.98
519.45	404.91
519.62	435.34
519.79	369.80
519.96	381.51
520.14	397.89
520.31	463.43
520.48	409.59
520.65	430.66
520.83	461.09
521.00	435.34
521.17	440.02
521.34	348.74
521.52	374.49
521.69	449.38
521.86	435.34
522.03	430.66
522.20	430.66
522.38	400.23
522.55	379.17
522.72	372.15
522.89	395.55
523.07	444.70
523.24	404.91
523.41	435.34
523.58	435.34
523.75	435.34
523.92	404.91
524.10	358.10
524.27	428.32
524.44	383.85
524.61	400.23
524.78	458.74
524.96	433.00
525.13	456.40
525.30	423.64
525.47	402.57
525.64	430.66
525.81	411.93
525.98	407.25
526.16	409.59
526.33	465.77
526.50	400.23
526.67	374.49
526.84	461.09
527.01	407.25
527.18	454.06
527.36	390.87
527.53	351.08
527.70	409.59
527.87	376.83
528.04	484.49
528.21	433.00
528.38	407.25
528.55	423.64
528.72	409.59
528.89	393.21
529.07	400.23
529.24	449.38
529.41	440.02
529.58	393.21
529.75	484.49
529.92	447.04
530.09	465.77
530.26	374.49
530.43	404.91
530.60	393.21
530.77	367.46
530.94	498.53
531.11	454.06
531.28	332.36
531.46	418.96
531.63	423.64
531.80	407.25
531.97	437.68
532.14	423.64
532.31	482.15
532.48	482.15
532.65	433.00
532.82	435.34
532.99	454.06
533.16	367.46
533.33	489.17
533.50	463.43
533.67	433.00
533.84	418.96
534.01	360.44
534.18	437.68
534.35	393.21
534.52	395.55
534.69	423.64
534.86	468.11
535.03	411.93
535.20	418.96
535.37	390.87
535.54	461.09
535.71	435.34
535.88	449.38
536.05	367.46
536.22	397.89
536.38	430.66
536.55	395.55
536.72	458.74
536.89	379.17
537.06	388.53
537.23	381.51
537.40	451.72
537.57	390.87
537.74	388.53
537.91	444.70
538.08	409.59
538.25	402.57
538.42	463.43
538.59	444.70
538.75	372.15
538.92	435.34
539.09	358.10
539.26	423.64
539.43	479.81
539.60	503.22
539.77	423.64
539.94	421.30
540.11	409.59
540.28	395.55
540.44	451.72
540.61	390.87
540.78	437.68
540.95	449.38
541.12	444.70
541.29	407.25
541.46	437.68
541.62	421.30
541.79	402.57
541.96	386.19
542.13	372.15
542.30	376.83
542.47	505.56
542.63	440.02
542.80	376.83
542.97	425.98
543.14	393.21
543.31	458.74
543.48	369.80
543.64	351.08
543.81	425.98
543.98	444.70
544.15	449.38
544.32	465.77
544.48	486.83
544.65	421.30
544.82	348.74
544.99	388.53
545.16	437.68
545.32	407.25
545.49	390.87
545.66	449.38
545.83	416.62
546.00	418.96
546.16	374.49
546.33	365.12
546.50	472.79
546.67	376.83
546.83	433.00
547.00	423.64
547.17	404.91
547.34	409.59
547.50	456.40
547.67	428.32
547.84	404.91
548.00	355.76
548.17	500.87
548.34	409.59
548.51	447.04
548.67	451.72
548.84	374.49
549.01	418.96
549.18	423.64
549.34	440.02
549.51	451.72
549.68	472.79
549.84	411.93
550.01	404.91
550.18	503.22
550.34	512.58
550.51	442.36
550.68	444.70
550.84	451.72
551.01	404.91
551.18	463.43
551.34	428.32
551.51	414.27
551.68	430.66
551.84	433.00
552.01	425.98
552.18	351.08
552.34	388.53
552.51	472.79
552.68	383.85
552.84	444.70
553.01	440.02
553.18	444.70
553.34	381.51
553.51	388.53
553.67	425.98
553.84	355.76
554.01	365.12
554.17	444.70
554.34	402.57
554.51	423.64
554.67	430.66
554.84	437.68
555.00	379.17
555.17	409.59
555.33	447.04
555.50	458.74
555.67	409.59
555.83	440.02
556.00	390.87
556.16	538.32
556.33	463.43
556.50	421.30
556.66	461.09
556.83	423.64
556.99	418.96
557.16	416.62
557.32	470.45
557.49	393.21
557.65	353.42
557.82	386.19
557.98	475.13
558.15	404.91
558.32	482.15
558.48	430.66
558.65	479.81
558.81	390.87
558.98	379.17
559.14	477.47
559.31	428.32
559.47	397.89
559.64	440.02
559.80	381.51
559.97	428.32
560.13	456.40
560.30	400.23
560.46	451.72
560.63	444.70
560.79	463.43
560.96	395.55
561.12	456.40
561.29	395.55
561.45	414.27
561.61	444.70
561.78	503.22
561.94	437.68
562.11	437.68
562.27	390.87
562.44	416.62
562.60	418.96
562.77	369.80
562.93	454.06
563.10	376.83
563.26	479.81
563.42	416.62
563.59	416.62
563.75	376.83
563.92	409.59
564.08	440.02
564.24	428.32
564.41	449.38
564.57	428.32
564.74	407.25
564.90	428.32
565.07	449.38
565.23	461.09
565.39	355.76
565.56	365.12
565.72	376.83
565.88	383.85
566.05	404.91
566.21	489.17
566.38	493.85
566.54	456.40
566.70	355.76
566.87	390.87
567.03	437.68
567.19	451.72
567.36	456.40
567.52	393.21
567.68	425.98
567.85	383.85
568.01	447.04
568.17	486.83
568.34	421.30
568.50	475.13
568.66	400.23
568.83	449.38
568.99	470.45
569.15	477.47
569.32	421.30
569.48	475.13
569.64	442.36
569.81	484.49
569.97	400.23
570.13	360.44
570.30	454.06
570.46	386.19
570.62	472.79
570.78	442.36
570.95	397.89
571.11	479.81
571.27	390.87
571.43	395.55
571.60	414.27
571.76	423.64
571.92	362.78
572.09	425.98
572.25	416.62
572.41	414.27
572.57	463.43
572.74	454.06
572.90	468.11
573.06	449.38
573.22	458.74
573.38	428.32
573.55	449.38
573.71	428.32
573.87	425.98
574.03	442.36
574.20	433.00
574.36	454.06
574.52	393.21
574.68	397.89
574.84	386.19
575.01	463.43
575.17	416.62
575.33	433.00
575.49	510.24
575.65	489.17
575.82	500.87
575.98	465.77
576.14	477.47
576.30	468.11
576.46	416.62
576.62	409.59
576.79	386.19
576.95	393.21
577.11	456.40
577.27	461.09
577.43	449.38
577.59	510.24
577.75	421.30
577.92	390.87
578.08	425.98
578.24	484.49
578.40	397.89
578.56	418.96
578.72	395.55
578.88	447.04
579.04	449.38
579.21	472.79
579.37	458.74
579.53	428.32
579.69	456.40
579.85	458.74
580.01	379.17
580.17	484.49
580.33	407.25
580.49	355.76
580.65	435.34
580.82	425.98
580.98	423.64
581.14	421.30
581.30	421.30
581.46	437.68
581.62	430.66
581.78	367.46
581.94	437.68
582.10	397.89
582.26	372.15
582.42	390.87
582.58	435.34
582.74	449.38
582.90	435.34
583.06	477.47
583.22	435.34
583.38	442.36
583.54	418.96
583.70	470.45
583.86	411.93
584.02	407.25
584.18	414.27
584.34	421.30
584.50	425.98
584.66	358.10
584.82	414.27
584.98	418.96
585.14	461.09
585.30	442.36
585.46	423.64
585.62	395.55
585.78	423.64
585.94	440.02
586.10	425.98
586.26	465.77
586.42	425.98
586.58	428.32
586.74	423.64
586.90	388.53
587.06	416.62
587.22	458.74
587.38	477.47
587.54	461.09
587.70	414.27
587.86	444.70
588.02	390.87
588.18	386.19
588.34	463.43
588.49	397.89
588.65	437.68
588.81	386.19
588.97	456.40
589.13	437.68
589.29	400.23
589.45	365.12
589.61	430.66
589.77	500.87
589.93	418.96
590.08	402.57
590.24	395.55
590.40	367.46
590.56	416.62
590.72	402.57
590.88	444.70
591.04	402.57
591.20	444.70
591.35	479.81
591.51	400.23
591.67	451.72
591.83	404.91
591.99	444.70
592.15	440.02
592.31	311.29
592.46	437.68
592.62	383.85
592.78	414.27
592.94	437.68
593.10	425.98
593.26	395.55
593.41	449.38
593.57	468.11
593.73	414.27
593.89	418.96
594.05	484.49
594.20	388.53
594.36	386.19
594.52	390.87
594.68	421.30
594.84	383.85
594.99	421.30
595.15	348.74
595.31	437.68
595.47	442.36
595.62	437.68
595.78	381.51
595.94	418.96
596.10	442.36
596.25	451.72
596.41	444.70
596.57	402.57
596.73	437.68
596.88	379.17
597.04	433.00
597.20	440.02
597.36	503.22
597.51	423.64
597.67	440.02
597.83	395.55
597.99	402.57
598.14	477.47
598.30	442.36
598.46	414.27
598.61	437.68
598.77	440.02
598.93	433.00
599.09	428.32
599.24	440.02
599.40	428.32
599.56	409.59
599.71	442.36
599.87	447.04
600.03	327.68
600.18	440.02
600.34	421.30
600.50	433.00
600.65	433.00
600.81	461.09
600.97	435.34
601.12	437.68
601.28	404.91
601.44	433.00
601.59	456.40
601.75	400.23
601.91	348.74
602.06	524.28
602.22	500.87
602.37	479.81
602.53	407.25
602.69	407.25
602.84	386.19
603.00	395.55
603.16	381.51
603.31	430.66
603.47	421.30
603.62	383.85
603.78	404.91
603.94	428.32
604.09	411.93
604.25	468.11
604.40	484.49
604.56	400.23
604.71	397.89
604.87	430.66
605.03	376.83
605.18	395.55
605.34	390.87
605.49	416.62
605.65	437.68
605.80	454.06
605.96	390.87
606.12	390.87
606.27	409.59
606.43	428.32
606.58	435.34
606.74	360.44
606.89	334.70
607.05	369.80
607.20	440.02
607.36	411.93
607.51	351.08
607.67	383.85
607.82	381.51
607.98	496.19
608.13	400.23
608.29	400.23
608.44	404.91
608.60	451.72
608.75	390.87
608.91	454.06
609.06	440.02
609.22	418.96
609.37	360.44
609.53	400.23
609.68	376.83
609.84	447.04
609.99	465.77
610.15	374.49
