SpectraSuite Data File
++++++++++++++++++++++++++++++++++++
Date: Fri Oct 25 12:11:13 EDT 2013
User: price-jones
Dark Spectrum Present: No
Reference Spectrum Present: No
Number of Sampled Component Spectra: 1
Spectrometers: USB2+H05261
Integration Time (usec): 100000 (USB2+H05261)
Spectra Averaged: 1 (USB2+H05261)
Boxcar Smoothing: 0 (USB2+H05261)
Correct for Electrical Dark: No (USB2+H05261)
Strobe/Lamp Enabled: No (USB2+H05261)
Correct for Detector Non-linearity: No (USB2+H05261)
Correct for Stray Light: No (USB2+H05261)
Number of Pixels in Processed Spectrum: 2048
>>>>>Begin Processed Spectral Data<<<<<
365.73	332.36
365.92	332.36
366.12	332.36
366.32	236.39
366.52	259.80
366.72	248.10
366.91	191.92
367.11	224.69
367.31	170.86
367.51	194.26
367.70	236.39
367.90	170.86
368.10	250.44
368.30	243.42
368.49	229.37
368.69	280.86
368.89	212.99
369.09	264.48
369.28	264.48
369.48	224.69
369.68	280.86
369.87	280.86
370.07	299.59
370.27	395.55
370.47	337.04
370.66	292.57
370.86	360.44
371.06	393.21
371.25	421.30
371.45	346.40
371.65	433.00
371.84	402.57
372.04	407.25
372.24	353.42
372.44	379.17
372.63	400.23
372.83	348.74
373.03	395.55
373.22	428.32
373.42	491.51
373.62	449.38
373.81	404.91
374.01	475.13
374.21	461.09
374.40	437.68
374.60	400.23
374.79	365.12
374.99	414.27
375.19	433.00
375.38	381.51
375.58	407.25
375.78	435.34
375.97	404.91
376.17	433.00
376.37	411.93
376.56	395.55
376.76	390.87
376.95	421.30
377.15	440.02
377.35	440.02
377.54	531.30
377.74	369.80
377.93	369.80
378.13	440.02
378.33	454.06
378.52	454.06
378.72	486.83
378.91	418.96
379.11	456.40
379.31	449.38
379.50	451.72
379.70	454.06
379.89	465.77
380.09	367.46
380.28	395.55
380.48	425.98
380.68	451.72
380.87	358.10
381.07	433.00
381.26	416.62
381.46	313.63
381.65	390.87
381.85	404.91
382.04	414.27
382.24	458.74
382.43	418.96
382.63	390.87
382.83	358.10
383.02	362.78
383.22	400.23
383.41	470.45
383.61	425.98
383.80	402.57
384.00	428.32
384.19	306.61
384.39	369.80
384.58	369.80
384.78	365.12
384.97	423.64
385.17	379.17
385.36	381.51
385.56	409.59
385.75	393.21
385.95	435.34
386.14	362.78
386.34	365.12
386.53	411.93
386.72	393.21
386.92	372.15
387.11	395.55
387.31	390.87
387.50	369.80
387.70	379.17
387.89	409.59
388.09	407.25
388.28	390.87
388.48	435.34
388.67	416.62
388.86	472.79
389.06	449.38
389.25	397.89
389.45	421.30
389.64	447.04
389.84	409.59
390.03	337.04
390.22	409.59
390.42	416.62
390.61	395.55
390.81	425.98
391.00	440.02
391.19	428.32
391.39	428.32
391.58	409.59
391.78	402.57
391.97	414.27
392.16	409.59
392.36	409.59
392.55	458.74
392.75	416.62
392.94	393.21
393.13	458.74
393.33	362.78
393.52	404.91
393.71	442.36
393.91	411.93
394.10	390.87
394.29	421.30
394.49	379.17
394.68	374.49
394.88	458.74
395.07	430.66
395.26	416.62
395.46	351.08
395.65	425.98
395.84	503.22
396.04	472.79
396.23	386.19
396.42	468.11
396.62	409.59
396.81	411.93
397.00	409.59
397.19	451.72
397.39	423.64
397.58	489.17
397.77	421.30
397.97	418.96
398.16	428.32
398.35	447.04
398.55	383.85
398.74	433.00
398.93	402.57
399.12	362.78
399.32	374.49
399.51	320.65
399.70	353.42
399.90	437.68
400.09	411.93
400.28	463.43
400.47	367.46
400.67	430.66
400.86	318.31
401.05	463.43
401.24	461.09
401.44	484.49
401.63	386.19
401.82	428.32
402.01	416.62
402.21	430.66
402.40	374.49
402.59	442.36
402.78	351.08
402.97	461.09
403.17	379.17
403.36	393.21
403.55	428.32
403.74	468.11
403.93	414.27
404.13	404.91
404.32	379.17
404.51	411.93
404.70	416.62
404.89	388.53
405.09	376.83
405.28	372.15
405.47	393.21
405.66	444.70
405.85	414.27
406.05	379.17
406.24	472.79
406.43	369.80
406.62	447.04
406.81	458.74
407.00	430.66
407.20	386.19
407.39	449.38
407.58	409.59
407.77	407.25
407.96	463.43
408.15	421.30
408.34	463.43
408.54	334.70
408.73	416.62
408.92	451.72
409.11	477.47
409.30	381.51
409.49	315.97
409.68	386.19
409.87	369.80
410.07	430.66
410.26	369.80
410.45	383.85
410.64	388.53
410.83	421.30
411.02	397.89
411.21	414.27
411.40	416.62
411.59	386.19
411.78	374.49
411.98	362.78
412.17	407.25
412.36	365.12
412.55	423.64
412.74	381.51
412.93	442.36
413.12	360.44
413.31	418.96
413.50	402.57
413.69	390.87
413.88	482.15
414.07	437.68
414.26	421.30
414.45	451.72
414.64	374.49
414.83	393.21
415.02	407.25
415.22	393.21
415.41	433.00
415.60	320.65
415.79	397.89
415.98	381.51
416.17	374.49
416.36	409.59
416.55	397.89
416.74	444.70
416.93	400.23
417.12	400.23
417.31	421.30
417.50	369.80
417.69	402.57
417.88	397.89
418.07	395.55
418.26	433.00
418.45	435.34
418.64	456.40
418.83	379.17
419.02	475.13
419.21	472.79
419.39	402.57
419.58	407.25
419.77	383.85
419.96	397.89
420.15	435.34
420.34	470.45
420.53	362.78
420.72	468.11
420.91	468.11
421.10	463.43
421.29	477.47
421.48	428.32
421.67	409.59
421.86	411.93
422.05	421.30
422.24	433.00
422.43	395.55
422.61	360.44
422.80	411.93
422.99	367.46
423.18	395.55
423.37	395.55
423.56	475.13
423.75	428.32
423.94	411.93
424.13	451.72
424.32	381.51
424.50	388.53
424.69	451.72
424.88	458.74
425.07	367.46
425.26	400.23
425.45	491.51
425.64	381.51
425.83	428.32
426.01	440.02
426.20	402.57
426.39	369.80
426.58	393.21
426.77	411.93
426.96	397.89
427.15	435.34
427.33	430.66
427.52	393.21
427.71	395.55
427.90	390.87
428.09	407.25
428.28	383.85
428.46	395.55
428.65	435.34
428.84	421.30
429.03	418.96
429.22	367.46
429.40	381.51
429.59	404.91
429.78	362.78
429.97	430.66
430.16	418.96
430.34	418.96
430.53	411.93
430.72	425.98
430.91	454.06
431.10	379.17
431.28	381.51
431.47	440.02
431.66	344.06
431.85	425.98
432.03	418.96
432.22	423.64
432.41	376.83
432.60	397.89
432.79	482.15
432.97	388.53
433.16	355.76
433.35	444.70
433.54	397.89
433.72	367.46
433.91	430.66
434.10	358.10
434.28	407.25
434.47	402.57
434.66	430.66
434.85	407.25
435.03	386.19
435.22	463.43
435.41	479.81
435.59	442.36
435.78	400.23
435.97	379.17
436.16	421.30
436.34	437.68
436.53	402.57
436.72	440.02
436.90	526.62
437.09	397.89
437.28	425.98
437.46	416.62
437.65	428.32
437.84	442.36
438.02	397.89
438.21	409.59
438.40	404.91
438.58	423.64
438.77	386.19
438.96	402.57
439.14	362.78
439.33	447.04
439.52	346.40
439.70	444.70
439.89	440.02
440.08	395.55
440.26	449.38
440.45	418.96
440.63	386.19
440.82	397.89
441.01	386.19
441.19	400.23
441.38	435.34
441.57	514.92
441.75	454.06
441.94	561.73
442.12	482.15
442.31	400.23
442.50	418.96
442.68	397.89
442.87	409.59
443.05	388.53
443.24	418.96
443.43	433.00
443.61	411.93
443.80	414.27
443.98	301.93
444.17	407.25
444.35	454.06
444.54	341.72
444.73	442.36
444.91	404.91
445.10	425.98
445.28	395.55
445.47	400.23
445.65	407.25
445.84	325.33
446.02	425.98
446.21	365.12
446.39	435.34
446.58	397.89
446.77	442.36
446.95	351.08
447.14	411.93
447.32	411.93
447.51	428.32
447.69	416.62
447.88	414.27
448.06	470.45
448.25	468.11
448.43	386.19
448.62	393.21
448.80	383.85
448.99	458.74
449.17	339.38
449.36	346.40
449.54	433.00
449.73	409.59
449.91	407.25
450.10	416.62
450.28	430.66
450.46	472.79
450.65	423.64
450.83	451.72
451.02	425.98
451.20	372.15
451.39	418.96
451.57	400.23
451.76	430.66
451.94	334.70
452.13	458.74
452.31	491.51
452.49	409.59
452.68	390.87
452.86	479.81
453.05	407.25
453.23	381.51
453.42	423.64
453.60	360.44
453.78	437.68
453.97	376.83
454.15	482.15
454.34	374.49
454.52	372.15
454.70	407.25
454.89	386.19
455.07	379.17
455.26	381.51
455.44	470.45
455.62	421.30
455.81	425.98
455.99	397.89
456.17	451.72
456.36	421.30
456.54	383.85
456.73	411.93
456.91	498.53
457.09	404.91
457.28	414.27
457.46	393.21
457.64	407.25
457.83	435.34
458.01	351.08
458.19	425.98
458.38	414.27
458.56	468.11
458.74	381.51
458.93	472.79
459.11	440.02
459.29	388.53
459.48	386.19
459.66	456.40
459.84	397.89
460.03	517.26
460.21	456.40
460.39	407.25
460.57	411.93
460.76	435.34
460.94	449.38
461.12	456.40
461.31	404.91
461.49	440.02
461.67	332.36
461.85	386.19
462.04	395.55
462.22	765.36
462.40	465.77
462.59	442.36
462.77	388.53
462.95	388.53
463.13	416.62
463.32	484.49
463.50	409.59
463.68	407.25
463.86	362.78
464.05	437.68
464.23	393.21
464.41	388.53
464.59	444.70
464.78	433.00
464.96	390.87
465.14	411.93
465.32	428.32
465.50	433.00
465.69	440.02
465.87	397.89
466.05	418.96
466.23	447.04
466.41	346.40
466.60	393.21
466.78	381.51
466.96	472.79
467.14	423.64
467.32	454.06
467.51	444.70
467.69	461.09
467.87	479.81
468.05	407.25
468.23	507.90
468.41	388.53
468.60	367.46
468.78	447.04
468.96	395.55
469.14	503.22
469.32	400.23
469.50	430.66
469.69	440.02
469.87	360.44
470.05	416.62
470.23	454.06
470.41	451.72
470.59	341.72
470.77	461.09
470.95	388.53
471.14	461.09
471.32	421.30
471.50	505.56
471.68	416.62
471.86	421.30
472.04	454.06
472.22	372.15
472.40	400.23
472.58	388.53
472.77	374.49
472.95	416.62
473.13	362.78
473.31	514.92
473.49	376.83
473.67	337.04
473.85	475.13
474.03	463.43
474.21	444.70
474.39	400.23
474.57	383.85
474.75	411.93
474.93	374.49
475.12	381.51
475.30	416.62
475.48	365.12
475.66	425.98
475.84	416.62
476.02	444.70
476.20	353.42
476.38	442.36
476.56	435.34
476.74	409.59
476.92	451.72
477.10	393.21
477.28	433.00
477.46	402.57
477.64	425.98
477.82	379.17
478.00	472.79
478.18	425.98
478.36	402.57
478.54	390.87
478.72	433.00
478.90	409.59
479.08	454.06
479.26	447.04
479.44	456.40
479.62	388.53
479.80	393.21
479.98	451.72
480.16	449.38
480.34	491.51
480.52	451.72
480.70	423.64
480.88	397.89
481.06	388.53
481.24	421.30
481.41	348.74
481.59	496.19
481.77	440.02
481.95	383.85
482.13	367.46
482.31	409.59
482.49	411.93
482.67	353.42
482.85	465.77
483.03	411.93
483.21	379.17
483.39	425.98
483.57	397.89
483.74	449.38
483.92	381.51
484.10	404.91
484.28	465.77
484.46	404.91
484.64	458.74
484.82	451.72
485.00	437.68
485.18	402.57
485.35	395.55
485.53	395.55
485.71	407.25
485.89	444.70
486.07	400.23
486.25	496.19
486.43	379.17
486.61	440.02
486.78	472.79
486.96	393.21
487.14	339.38
487.32	381.51
487.50	421.30
487.68	461.09
487.85	355.76
488.03	360.44
488.21	468.11
488.39	383.85
488.57	404.91
488.75	390.87
488.92	411.93
489.10	463.43
489.28	416.62
489.46	409.59
489.64	358.10
489.81	454.06
489.99	454.06
490.17	418.96
490.35	498.53
490.53	428.32
490.70	376.83
490.88	397.89
491.06	416.62
491.24	416.62
491.41	414.27
491.59	437.68
491.77	332.36
491.95	369.80
492.13	418.96
492.30	404.91
492.48	383.85
492.66	444.70
492.84	402.57
493.01	407.25
493.19	447.04
493.37	437.68
493.54	381.51
493.72	461.09
493.90	388.53
494.08	416.62
494.25	369.80
494.43	433.00
494.61	414.27
494.79	425.98
494.96	383.85
495.14	435.34
495.32	440.02
495.49	395.55
495.67	409.59
495.85	425.98
496.02	383.85
496.20	447.04
496.38	404.91
496.55	348.74
496.73	423.64
496.91	374.49
497.09	479.81
497.26	425.98
497.44	447.04
497.62	353.42
497.79	435.34
497.97	435.34
498.14	451.72
498.32	414.27
498.50	400.23
498.67	442.36
498.85	454.06
499.03	400.23
499.20	397.89
499.38	447.04
499.56	428.32
499.73	531.30
499.91	346.40
500.08	400.23
500.26	463.43
500.44	414.27
500.61	430.66
500.79	327.68
500.97	456.40
501.14	496.19
501.32	372.15
501.49	386.19
501.67	409.59
501.84	428.32
502.02	447.04
502.20	376.83
502.37	428.32
502.55	397.89
502.72	334.70
502.90	449.38
503.07	397.89
503.25	351.08
503.43	414.27
503.60	430.66
503.78	423.64
503.95	435.34
504.13	383.85
504.30	355.76
504.48	458.74
504.65	430.66
504.83	477.47
505.01	437.68
505.18	440.02
505.36	465.77
505.53	416.62
505.71	372.15
505.88	475.13
506.06	465.77
506.23	444.70
506.41	407.25
506.58	358.10
506.76	470.45
506.93	334.70
507.11	383.85
507.28	341.72
507.46	351.08
507.63	433.00
507.81	456.40
507.98	416.62
508.16	425.98
508.33	454.06
508.50	479.81
508.68	386.19
508.85	454.06
509.03	402.57
509.20	390.87
509.38	362.78
509.55	493.85
509.73	449.38
509.90	493.85
510.08	395.55
510.25	470.45
510.42	421.30
510.60	369.80
510.77	425.98
510.95	444.70
511.12	475.13
511.30	409.59
511.47	379.17
511.64	404.91
511.82	367.46
511.99	470.45
512.17	367.46
512.34	444.70
512.51	440.02
512.69	407.25
512.86	493.85
513.04	404.91
513.21	430.66
513.38	402.57
513.56	416.62
513.73	365.12
513.90	423.64
514.08	400.23
514.25	397.89
514.43	397.89
514.60	367.46
514.77	418.96
514.95	425.98
515.12	442.36
515.29	430.66
515.47	421.30
515.64	435.34
515.81	404.91
515.99	440.02
516.16	482.15
516.33	393.21
516.51	313.63
516.68	444.70
516.85	411.93
517.03	468.11
517.20	456.40
517.37	465.77
517.54	416.62
517.72	416.62
517.89	400.23
518.06	395.55
518.24	428.32
518.41	454.06
518.58	428.32
518.75	400.23
518.93	397.89
519.10	447.04
519.27	351.08
519.45	386.19
519.62	358.10
519.79	468.11
519.96	365.12
520.14	456.40
520.31	435.34
520.48	421.30
520.65	379.17
520.83	393.21
521.00	430.66
521.17	447.04
521.34	397.89
521.52	433.00
521.69	433.00
521.86	358.10
522.03	449.38
522.20	461.09
522.38	404.91
522.55	325.33
522.72	386.19
522.89	344.06
523.07	475.13
523.24	421.30
523.41	379.17
523.58	472.79
523.75	421.30
523.92	449.38
524.10	444.70
524.27	449.38
524.44	418.96
524.61	393.21
524.78	440.02
524.96	390.87
525.13	421.30
525.30	435.34
525.47	423.64
525.64	433.00
525.81	379.17
525.98	393.21
526.16	437.68
526.33	440.02
526.50	407.25
526.67	411.93
526.84	484.49
527.01	400.23
527.18	423.64
527.36	447.04
527.53	489.17
527.70	402.57
527.87	451.72
528.04	463.43
528.21	414.27
528.38	437.68
528.55	479.81
528.72	367.46
528.89	461.09
529.07	442.36
529.24	449.38
529.41	454.06
529.58	383.85
529.75	397.89
529.92	409.59
530.09	372.15
530.26	463.43
530.43	451.72
530.60	418.96
530.77	430.66
530.94	395.55
531.11	444.70
531.28	409.59
531.46	442.36
531.63	416.62
531.80	390.87
531.97	423.64
532.14	383.85
532.31	461.09
532.48	390.87
532.65	390.87
532.82	411.93
532.99	416.62
533.16	425.98
533.33	500.87
533.50	379.17
533.67	425.98
533.84	383.85
534.01	437.68
534.18	423.64
534.35	421.30
534.52	411.93
534.69	435.34
534.86	404.91
535.03	425.98
535.20	369.80
535.37	430.66
535.54	407.25
535.71	390.87
535.88	440.02
536.05	433.00
536.22	351.08
536.38	372.15
536.55	425.98
536.72	470.45
536.89	437.68
537.06	404.91
537.23	358.10
537.40	341.72
537.57	456.40
537.74	507.90
537.91	414.27
538.08	435.34
538.25	411.93
538.42	393.21
538.59	484.49
538.75	456.40
538.92	383.85
539.09	390.87
539.26	428.32
539.43	400.23
539.60	407.25
539.77	397.89
539.94	367.46
540.11	421.30
540.28	437.68
540.44	400.23
540.61	369.80
540.78	390.87
540.95	344.06
541.12	470.45
541.29	390.87
541.46	477.47
541.62	411.93
541.79	430.66
541.96	353.42
542.13	397.89
542.30	400.23
542.47	386.19
542.63	425.98
542.80	479.81
542.97	351.08
543.14	519.60
543.31	444.70
543.48	383.85
543.64	435.34
543.81	397.89
543.98	407.25
544.15	447.04
544.32	325.33
544.48	470.45
544.65	400.23
544.82	433.00
544.99	407.25
545.16	393.21
545.32	351.08
545.49	444.70
545.66	425.98
545.83	404.91
546.00	376.83
546.16	421.30
546.33	442.36
546.50	320.65
546.67	402.57
546.83	383.85
547.00	411.93
547.17	362.78
547.34	442.36
547.50	339.38
547.67	463.43
547.84	355.76
548.00	344.06
548.17	367.46
548.34	402.57
548.51	393.21
548.67	472.79
548.84	428.32
549.01	442.36
549.18	407.25
549.34	407.25
549.51	386.19
549.68	365.12
549.84	346.40
550.01	447.04
550.18	517.26
550.34	465.77
550.51	475.13
550.68	440.02
550.84	390.87
551.01	458.74
551.18	444.70
551.34	353.42
551.51	465.77
551.68	395.55
551.84	390.87
552.01	486.83
552.18	400.23
552.34	423.64
552.51	418.96
552.68	430.66
552.84	493.85
553.01	472.79
553.18	418.96
553.34	423.64
553.51	423.64
553.67	491.51
553.84	444.70
554.01	430.66
554.17	430.66
554.34	425.98
554.51	440.02
554.67	423.64
554.84	395.55
555.00	451.72
555.17	430.66
555.33	477.47
555.50	468.11
555.67	475.13
555.83	407.25
556.00	400.23
556.16	528.96
556.33	395.55
556.50	393.21
556.66	393.21
556.83	379.17
556.99	449.38
557.16	440.02
557.32	393.21
557.49	379.17
557.65	374.49
557.82	386.19
557.98	435.34
558.15	353.42
558.32	404.91
558.48	465.77
558.65	409.59
558.81	486.83
558.98	500.87
559.14	435.34
559.31	421.30
559.47	451.72
559.64	351.08
559.80	367.46
559.97	397.89
560.13	454.06
560.30	418.96
560.46	456.40
560.63	383.85
560.79	376.83
560.96	428.32
561.12	428.32
561.29	442.36
561.45	451.72
561.61	414.27
561.78	517.26
561.94	393.21
562.11	435.34
562.27	425.98
562.44	400.23
562.60	470.45
562.77	369.80
562.93	500.87
563.10	435.34
563.26	414.27
563.42	437.68
563.59	383.85
563.75	388.53
563.92	416.62
564.08	402.57
564.24	388.53
564.41	435.34
564.57	315.97
564.74	440.02
564.90	465.77
565.07	425.98
565.23	390.87
565.39	353.42
565.56	369.80
565.72	430.66
565.88	393.21
566.05	491.51
566.21	369.80
566.38	393.21
566.54	461.09
566.70	355.76
566.87	353.42
567.03	447.04
567.19	393.21
567.36	463.43
567.52	423.64
567.68	440.02
567.85	379.17
568.01	358.10
568.17	379.17
568.34	407.25
568.50	327.68
568.66	400.23
568.83	486.83
568.99	381.51
569.15	463.43
569.32	411.93
569.48	409.59
569.64	447.04
569.81	411.93
569.97	444.70
570.13	428.32
570.30	376.83
570.46	468.11
570.62	472.79
570.78	440.02
570.95	358.10
571.11	425.98
571.27	461.09
571.43	351.08
571.60	465.77
571.76	512.58
571.92	447.04
572.09	334.70
572.25	418.96
572.41	416.62
572.57	428.32
572.74	463.43
572.90	451.72
573.06	447.04
573.22	449.38
573.38	421.30
573.55	437.68
573.71	505.56
573.87	393.21
574.03	397.89
574.20	447.04
574.36	505.56
574.52	367.46
574.68	397.89
574.84	463.43
575.01	411.93
575.17	526.62
575.33	383.85
575.49	447.04
575.65	454.06
575.82	440.02
575.98	416.62
576.14	376.83
576.30	372.15
576.46	409.59
576.62	451.72
576.79	393.21
576.95	482.15
577.11	416.62
577.27	409.59
577.43	477.47
577.59	465.77
577.75	404.91
577.92	348.74
578.08	395.55
578.24	407.25
578.40	442.36
578.56	402.57
578.72	437.68
578.88	414.27
579.04	421.30
579.21	358.10
579.37	435.34
579.53	465.77
579.69	416.62
579.85	379.17
580.01	435.34
580.17	397.89
580.33	381.51
580.49	395.55
580.65	407.25
580.82	447.04
580.98	372.15
581.14	374.49
581.30	458.74
581.46	496.19
581.62	407.25
581.78	407.25
581.94	379.17
582.10	346.40
582.26	451.72
582.42	440.02
582.58	449.38
582.74	381.51
582.90	444.70
583.06	414.27
583.22	393.21
583.38	430.66
583.54	390.87
583.70	376.83
583.86	451.72
584.02	470.45
584.18	470.45
584.34	449.38
584.50	425.98
584.66	416.62
584.82	404.91
584.98	484.49
585.14	477.47
585.30	400.23
585.46	404.91
585.62	493.85
585.78	400.23
585.94	418.96
586.10	381.51
586.26	458.74
586.42	428.32
586.58	421.30
586.74	402.57
586.90	421.30
587.06	458.74
587.22	407.25
587.38	416.62
587.54	437.68
587.70	444.70
587.86	409.59
588.02	423.64
588.18	423.64
588.34	435.34
588.49	351.08
588.65	379.17
588.81	454.06
588.97	423.64
589.13	409.59
589.29	400.23
589.45	437.68
589.61	393.21
589.77	503.22
589.93	456.40
590.08	367.46
590.24	362.78
590.40	381.51
590.56	463.43
590.72	472.79
590.88	407.25
591.04	374.49
591.20	390.87
591.35	435.34
591.51	379.17
591.67	402.57
591.83	383.85
591.99	407.25
592.15	433.00
592.31	428.32
592.46	416.62
592.62	428.32
592.78	404.91
592.94	428.32
593.10	358.10
593.26	425.98
593.41	521.94
593.57	383.85
593.73	353.42
593.89	372.15
594.05	440.02
594.20	433.00
594.36	381.51
594.52	355.76
594.68	411.93
594.84	456.40
594.99	458.74
595.15	503.22
595.31	421.30
595.47	477.47
595.62	402.57
595.78	425.98
595.94	468.11
596.10	507.90
596.25	482.15
596.41	440.02
596.57	388.53
596.73	397.89
596.88	433.00
597.04	454.06
597.20	433.00
597.36	393.21
597.51	423.64
597.67	297.25
597.83	386.19
597.99	423.64
598.14	407.25
598.30	437.68
598.46	402.57
598.61	404.91
598.77	379.17
598.93	418.96
599.09	433.00
599.24	397.89
599.40	430.66
599.56	461.09
599.71	437.68
599.87	477.47
600.03	479.81
600.18	428.32
600.34	416.62
600.50	379.17
600.65	461.09
600.81	383.85
600.97	395.55
601.12	458.74
601.28	470.45
601.44	395.55
601.59	433.00
601.75	425.98
601.91	388.53
602.06	433.00
602.22	458.74
602.37	404.91
602.53	440.02
602.69	346.40
602.84	372.15
603.00	379.17
603.16	416.62
603.31	463.43
603.47	458.74
603.62	402.57
603.78	435.34
603.94	444.70
604.09	404.91
604.25	365.12
604.40	381.51
604.56	444.70
604.71	458.74
604.87	418.96
605.03	353.42
605.18	475.13
605.34	456.40
605.49	458.74
605.65	437.68
605.80	409.59
605.96	379.17
606.12	374.49
606.27	458.74
606.43	334.70
606.58	489.17
606.74	390.87
606.89	440.02
607.05	440.02
607.20	491.51
607.36	442.36
607.51	433.00
607.67	411.93
607.82	421.30
607.98	367.46
608.13	418.96
608.29	404.91
608.44	472.79
608.60	414.27
608.75	421.30
608.91	423.64
609.06	425.98
609.22	465.77
609.37	435.34
609.53	376.83
609.68	416.62
609.84	395.55
609.99	388.53
610.15	451.72
