SpectraSuite Data File
++++++++++++++++++++++++++++++++++++
Date: Fri Oct 25 12:10:22 EDT 2013
User: price-jones
Dark Spectrum Present: No
Reference Spectrum Present: No
Number of Sampled Component Spectra: 1
Spectrometers: USB2+H05261
Integration Time (usec): 100000 (USB2+H05261)
Spectra Averaged: 1 (USB2+H05261)
Boxcar Smoothing: 0 (USB2+H05261)
Correct for Electrical Dark: No (USB2+H05261)
Strobe/Lamp Enabled: No (USB2+H05261)
Correct for Detector Non-linearity: No (USB2+H05261)
Correct for Stray Light: No (USB2+H05261)
Number of Pixels in Processed Spectrum: 2048
>>>>>Begin Processed Spectral Data<<<<<
365.73	411.93
365.92	411.93
366.12	411.93
366.32	203.63
366.52	257.46
366.72	262.14
366.91	217.67
367.11	283.20
367.31	215.33
367.51	231.71
367.70	238.73
367.90	184.90
368.10	198.95
368.30	224.69
368.49	229.37
368.69	243.42
368.89	215.33
369.09	292.57
369.28	285.55
369.48	308.95
369.68	285.55
369.87	276.18
370.07	280.86
370.27	393.21
370.47	369.80
370.66	299.59
370.86	299.59
371.06	411.93
371.25	330.02
371.45	276.18
371.65	395.55
371.84	360.44
372.04	416.62
372.24	414.27
372.44	433.00
372.63	355.76
372.83	400.23
373.03	444.70
373.22	355.76
373.42	454.06
373.62	402.57
373.81	468.11
374.01	440.02
374.21	456.40
374.40	454.06
374.60	421.30
374.79	449.38
374.99	409.59
375.19	397.89
375.38	440.02
375.58	449.38
375.78	383.85
375.97	461.09
376.17	479.81
376.37	397.89
376.56	397.89
376.76	404.91
376.95	470.45
377.15	435.34
377.35	449.38
377.54	400.23
377.74	367.46
377.93	351.08
378.13	397.89
378.33	407.25
378.52	341.72
378.72	365.12
378.91	430.66
379.11	362.78
379.31	428.32
379.50	411.93
379.70	416.62
379.89	374.49
380.09	337.04
380.28	409.59
380.48	379.17
380.68	416.62
380.87	322.99
381.07	397.89
381.26	414.27
381.46	358.10
381.65	444.70
381.85	411.93
382.04	437.68
382.24	458.74
382.43	362.78
382.63	374.49
382.83	322.99
383.02	451.72
383.22	449.38
383.41	376.83
383.61	418.96
383.80	428.32
384.00	468.11
384.19	435.34
384.39	360.44
384.58	416.62
384.78	367.46
384.97	486.83
385.17	442.36
385.36	386.19
385.56	411.93
385.75	418.96
385.95	423.64
386.14	390.87
386.34	388.53
386.53	341.72
386.72	416.62
386.92	475.13
387.11	337.04
387.31	421.30
387.50	367.46
387.70	397.89
387.89	367.46
388.09	383.85
388.28	390.87
388.48	430.66
388.67	428.32
388.86	372.15
389.06	383.85
389.25	468.11
389.45	393.21
389.64	418.96
389.84	437.68
390.03	400.23
390.22	451.72
390.42	358.10
390.61	355.76
390.81	390.87
391.00	393.21
391.19	461.09
391.39	397.89
391.58	451.72
391.78	430.66
391.97	372.15
392.16	397.89
392.36	341.72
392.55	390.87
392.75	388.53
392.94	465.77
393.13	407.25
393.33	411.93
393.52	379.17
393.71	472.79
393.91	379.17
394.10	360.44
394.29	400.23
394.49	425.98
394.68	470.45
394.88	442.36
395.07	353.42
395.26	348.74
395.46	461.09
395.65	421.30
395.84	393.21
396.04	442.36
396.23	437.68
396.42	369.80
396.62	397.89
396.81	482.15
397.00	414.27
397.19	390.87
397.39	383.85
397.58	425.98
397.77	388.53
397.97	404.91
398.16	437.68
398.35	409.59
398.55	437.68
398.74	409.59
398.93	493.85
399.12	386.19
399.32	425.98
399.51	407.25
399.70	475.13
399.90	449.38
400.09	475.13
400.28	348.74
400.47	372.15
400.67	423.64
400.86	365.12
401.05	374.49
401.24	454.06
401.44	341.72
401.63	416.62
401.82	423.64
402.01	430.66
402.21	362.78
402.40	425.98
402.59	362.78
402.78	465.77
402.97	454.06
403.17	404.91
403.36	465.77
403.55	376.83
403.74	327.68
403.93	388.53
404.13	447.04
404.32	355.76
404.51	369.80
404.70	386.19
404.89	402.57
405.09	463.43
405.28	440.02
405.47	421.30
405.66	430.66
405.85	418.96
406.05	334.70
406.24	423.64
406.43	402.57
406.62	372.15
406.81	519.60
407.00	400.23
407.20	430.66
407.39	477.47
407.58	407.25
407.77	379.17
407.96	433.00
408.15	416.62
408.34	402.57
408.54	351.08
408.73	458.74
408.92	407.25
409.11	407.25
409.30	440.02
409.49	360.44
409.68	444.70
409.87	383.85
410.07	355.76
410.26	400.23
410.45	337.04
410.64	369.80
410.83	435.34
411.02	407.25
411.21	407.25
411.40	421.30
411.59	444.70
411.78	386.19
411.98	362.78
412.17	409.59
412.36	339.38
412.55	421.30
412.74	435.34
412.93	484.49
413.12	332.36
413.31	388.53
413.50	425.98
413.69	421.30
413.88	454.06
414.07	400.23
414.26	409.59
414.45	369.80
414.64	360.44
414.83	386.19
415.02	395.55
415.22	470.45
415.41	397.89
415.60	383.85
415.79	440.02
415.98	421.30
416.17	339.38
416.36	414.27
416.55	416.62
416.74	505.56
416.93	411.93
417.12	425.98
417.31	344.06
417.50	386.19
417.69	381.51
417.88	379.17
418.07	346.40
418.26	451.72
418.45	430.66
418.64	456.40
418.83	409.59
419.02	435.34
419.21	418.96
419.39	348.74
419.58	435.34
419.77	458.74
419.96	440.02
420.15	402.57
420.34	404.91
420.53	463.43
420.72	440.02
420.91	484.49
421.10	397.89
421.29	430.66
421.48	435.34
421.67	468.11
421.86	435.34
422.05	400.23
422.24	348.74
422.43	442.36
422.61	416.62
422.80	341.72
422.99	440.02
423.18	451.72
423.37	451.72
423.56	411.93
423.75	362.78
423.94	379.17
424.13	430.66
424.32	402.57
424.50	386.19
424.69	397.89
424.88	435.34
425.07	365.12
425.26	458.74
425.45	484.49
425.64	390.87
425.83	325.33
426.01	416.62
426.20	421.30
426.39	418.96
426.58	334.70
426.77	411.93
426.96	383.85
427.15	383.85
427.33	440.02
427.52	482.15
427.71	430.66
427.90	416.62
428.09	430.66
428.28	407.25
428.46	372.15
428.65	404.91
428.84	367.46
429.03	437.68
429.22	407.25
429.40	400.23
429.59	341.72
429.78	423.64
429.97	372.15
430.16	414.27
430.34	444.70
430.53	372.15
430.72	346.40
430.91	411.93
431.10	393.21
431.28	376.83
431.47	409.59
431.66	465.77
431.85	414.27
432.03	411.93
432.22	470.45
432.41	381.51
432.60	409.59
432.79	402.57
432.97	491.51
433.16	421.30
433.35	475.13
433.54	386.19
433.72	397.89
433.91	421.30
434.10	458.74
434.28	402.57
434.47	393.21
434.66	456.40
434.85	437.68
435.03	517.26
435.22	482.15
435.41	486.83
435.59	365.12
435.78	397.89
435.97	465.77
436.16	388.53
436.34	386.19
436.53	381.51
436.72	433.00
436.90	386.19
437.09	386.19
437.28	409.59
437.46	414.27
437.65	386.19
437.84	437.68
438.02	404.91
438.21	390.87
438.40	355.76
438.58	468.11
438.77	468.11
438.96	386.19
439.14	428.32
439.33	395.55
439.52	409.59
439.70	428.32
439.89	402.57
440.08	407.25
440.26	404.91
440.45	418.96
440.63	470.45
440.82	393.21
441.01	416.62
441.19	449.38
441.38	341.72
441.57	367.46
441.75	393.21
441.94	449.38
442.12	386.19
442.31	390.87
442.50	484.49
442.68	449.38
442.87	428.32
443.05	376.83
443.24	430.66
443.43	444.70
443.61	430.66
443.80	414.27
443.98	393.21
444.17	393.21
444.35	468.11
444.54	353.42
444.73	451.72
444.91	367.46
445.10	411.93
445.28	327.68
445.47	463.43
445.65	416.62
445.84	386.19
446.02	409.59
446.21	339.38
446.39	395.55
446.58	397.89
446.77	421.30
446.95	433.00
447.14	372.15
447.32	346.40
447.51	388.53
447.69	430.66
447.88	449.38
448.06	463.43
448.25	465.77
448.43	386.19
448.62	442.36
448.80	428.32
448.99	362.78
449.17	475.13
449.36	362.78
449.54	449.38
449.73	346.40
449.91	386.19
450.10	423.64
450.28	493.85
450.46	339.38
450.65	393.21
450.83	484.49
451.02	418.96
451.20	449.38
451.39	416.62
451.57	416.62
451.76	435.34
451.94	444.70
452.13	407.25
452.31	400.23
452.49	402.57
452.68	341.72
452.86	407.25
453.05	437.68
453.23	425.98
453.42	348.74
453.60	348.74
453.78	411.93
453.97	365.12
454.15	388.53
454.34	477.47
454.52	423.64
454.70	442.36
454.89	425.98
455.07	355.76
455.26	369.80
455.44	367.46
455.62	362.78
455.81	428.32
455.99	386.19
456.17	411.93
456.36	351.08
456.54	456.40
456.73	381.51
456.91	381.51
457.09	416.62
457.28	393.21
457.46	376.83
457.64	400.23
457.83	346.40
458.01	423.64
458.19	369.80
458.38	362.78
458.56	341.72
458.74	409.59
458.93	425.98
459.11	430.66
459.29	365.12
459.48	404.91
459.66	433.00
459.84	365.12
460.03	538.32
460.21	409.59
460.39	428.32
460.57	414.27
460.76	402.57
460.94	365.12
461.12	442.36
461.31	395.55
461.49	344.06
461.67	404.91
461.85	386.19
462.04	407.25
462.22	706.84
462.40	418.96
462.59	458.74
462.77	407.25
462.95	461.09
463.13	411.93
463.32	428.32
463.50	461.09
463.68	369.80
463.86	433.00
464.05	376.83
464.23	416.62
464.41	409.59
464.59	383.85
464.78	393.21
464.96	472.79
465.14	423.64
465.32	416.62
465.50	423.64
465.69	428.32
465.87	416.62
466.05	447.04
466.23	362.78
466.41	407.25
466.60	425.98
466.78	425.98
466.96	404.91
467.14	461.09
467.32	386.19
467.51	381.51
467.69	458.74
467.87	517.26
468.05	402.57
468.23	435.34
468.41	390.87
468.60	496.19
468.78	465.77
468.96	402.57
469.14	365.12
469.32	341.72
469.50	407.25
469.69	374.49
469.87	395.55
470.05	390.87
470.23	362.78
470.41	418.96
470.59	325.33
470.77	388.53
470.95	423.64
471.14	437.68
471.32	362.78
471.50	461.09
471.68	346.40
471.86	395.55
472.04	327.68
472.22	454.06
472.40	437.68
472.58	475.13
472.77	442.36
472.95	433.00
473.13	425.98
473.31	458.74
473.49	402.57
473.67	447.04
473.85	407.25
474.03	355.76
474.21	454.06
474.39	507.90
474.57	416.62
474.75	393.21
474.93	437.68
475.12	425.98
475.30	407.25
475.48	393.21
475.66	414.27
475.84	425.98
476.02	383.85
476.20	388.53
476.38	423.64
476.56	449.38
476.74	381.51
476.92	465.77
477.10	414.27
477.28	472.79
477.46	390.87
477.64	386.19
477.82	395.55
478.00	421.30
478.18	376.83
478.36	383.85
478.54	355.76
478.72	423.64
478.90	400.23
479.08	407.25
479.26	411.93
479.44	358.10
479.62	428.32
479.80	379.17
479.98	379.17
480.16	447.04
480.34	437.68
480.52	388.53
480.70	519.60
480.88	430.66
481.06	360.44
481.24	449.38
481.41	463.43
481.59	421.30
481.77	404.91
481.95	376.83
482.13	411.93
482.31	362.78
482.49	442.36
482.67	383.85
482.85	425.98
483.03	496.19
483.21	458.74
483.39	376.83
483.57	409.59
483.74	418.96
483.92	414.27
484.10	416.62
484.28	423.64
484.46	430.66
484.64	372.15
484.82	369.80
485.00	400.23
485.18	435.34
485.35	411.93
485.53	425.98
485.71	395.55
485.89	372.15
486.07	470.45
486.25	475.13
486.43	484.49
486.61	430.66
486.78	346.40
486.96	404.91
487.14	440.02
487.32	416.62
487.50	456.40
487.68	416.62
487.85	440.02
488.03	421.30
488.21	428.32
488.39	407.25
488.57	491.51
488.75	346.40
488.92	433.00
489.10	414.27
489.28	411.93
489.46	454.06
489.64	491.51
489.81	390.87
489.99	440.02
490.17	365.12
490.35	433.00
490.53	447.04
490.70	407.25
490.88	486.83
491.06	379.17
491.24	395.55
491.41	482.15
491.59	475.13
491.77	374.49
491.95	428.32
492.13	388.53
492.30	428.32
492.48	379.17
492.66	358.10
492.84	402.57
493.01	451.72
493.19	369.80
493.37	444.70
493.54	416.62
493.72	428.32
493.90	433.00
494.08	447.04
494.25	416.62
494.43	400.23
494.61	435.34
494.79	397.89
494.96	369.80
495.14	414.27
495.32	421.30
495.49	369.80
495.67	362.78
495.85	458.74
496.02	421.30
496.20	365.12
496.38	447.04
496.55	390.87
496.73	440.02
496.91	388.53
497.09	425.98
497.26	463.43
497.44	433.00
497.62	496.19
497.79	327.68
497.97	454.06
498.14	440.02
498.32	451.72
498.50	418.96
498.67	437.68
498.85	369.80
499.03	348.74
499.20	437.68
499.38	353.42
499.56	402.57
499.73	327.68
499.91	376.83
500.08	435.34
500.26	435.34
500.44	362.78
500.61	449.38
500.79	463.43
500.97	437.68
501.14	351.08
501.32	442.36
501.49	418.96
501.67	428.32
501.84	367.46
502.02	411.93
502.20	486.83
502.37	468.11
502.55	390.87
502.72	423.64
502.90	355.76
503.07	430.66
503.25	428.32
503.43	397.89
503.60	428.32
503.78	454.06
503.95	463.43
504.13	374.49
504.30	458.74
504.48	449.38
504.65	484.49
504.83	482.15
505.01	404.91
505.18	372.15
505.36	407.25
505.53	395.55
505.71	402.57
505.88	498.53
506.06	433.00
506.23	393.21
506.41	414.27
506.58	514.92
506.76	451.72
506.93	428.32
507.11	402.57
507.28	409.59
507.46	393.21
507.63	360.44
507.81	491.51
507.98	423.64
508.16	402.57
508.33	393.21
508.50	397.89
508.68	332.36
508.85	407.25
509.03	407.25
509.20	376.83
509.38	379.17
509.55	430.66
509.73	393.21
509.90	423.64
510.08	404.91
510.25	437.68
510.42	393.21
510.60	479.81
510.77	409.59
510.95	402.57
511.12	470.45
511.30	395.55
511.47	411.93
511.64	428.32
511.82	435.34
511.99	353.42
512.17	411.93
512.34	407.25
512.51	425.98
512.69	358.10
512.86	411.93
513.04	379.17
513.21	402.57
513.38	418.96
513.56	416.62
513.73	334.70
513.90	386.19
514.08	402.57
514.25	418.96
514.43	421.30
514.60	447.04
514.77	400.23
514.95	360.44
515.12	397.89
515.29	365.12
515.47	351.08
515.64	402.57
515.81	381.51
515.99	409.59
516.16	519.60
516.33	521.94
516.51	376.83
516.68	418.96
516.85	433.00
517.03	451.72
517.20	388.53
517.37	472.79
517.54	454.06
517.72	360.44
517.89	409.59
518.06	414.27
518.24	440.02
518.41	379.17
518.58	407.25
518.75	365.12
518.93	379.17
519.10	407.25
519.27	402.57
519.45	444.70
519.62	440.02
519.79	433.00
519.96	423.64
520.14	337.04
520.31	458.74
520.48	411.93
520.65	430.66
520.83	416.62
521.00	479.81
521.17	430.66
521.34	440.02
521.52	423.64
521.69	421.30
521.86	475.13
522.03	386.19
522.20	425.98
522.38	416.62
522.55	423.64
522.72	386.19
522.89	395.55
523.07	517.26
523.24	376.83
523.41	428.32
523.58	475.13
523.75	461.09
523.92	428.32
524.10	437.68
524.27	414.27
524.44	379.17
524.61	390.87
524.78	442.36
524.96	400.23
525.13	421.30
525.30	451.72
525.47	484.49
525.64	423.64
525.81	461.09
525.98	388.53
526.16	400.23
526.33	393.21
526.50	416.62
526.67	416.62
526.84	374.49
527.01	360.44
527.18	444.70
527.36	407.25
527.53	393.21
527.70	416.62
527.87	421.30
528.04	414.27
528.21	390.87
528.38	447.04
528.55	433.00
528.72	416.62
528.89	421.30
529.07	433.00
529.24	463.43
529.41	505.56
529.58	400.23
529.75	461.09
529.92	381.51
530.09	409.59
530.26	458.74
530.43	468.11
530.60	486.83
530.77	477.47
530.94	423.64
531.11	369.80
531.28	397.89
531.46	386.19
531.63	433.00
531.80	400.23
531.97	435.34
532.14	440.02
532.31	425.98
532.48	423.64
532.65	393.21
532.82	451.72
532.99	409.59
533.16	390.87
533.33	521.94
533.50	390.87
533.67	449.38
533.84	451.72
534.01	449.38
534.18	425.98
534.35	437.68
534.52	374.49
534.69	416.62
534.86	433.00
535.03	374.49
535.20	423.64
535.37	411.93
535.54	411.93
535.71	414.27
535.88	379.17
536.05	376.83
536.22	374.49
536.38	440.02
536.55	433.00
536.72	468.11
536.89	404.91
537.06	447.04
537.23	351.08
537.40	383.85
537.57	477.47
537.74	423.64
537.91	346.40
538.08	393.21
538.25	447.04
538.42	435.34
538.59	360.44
538.75	362.78
538.92	411.93
539.09	339.38
539.26	388.53
539.43	493.85
539.60	433.00
539.77	458.74
539.94	433.00
540.11	381.51
540.28	472.79
540.44	458.74
540.61	372.15
540.78	400.23
540.95	465.77
541.12	482.15
541.29	362.78
541.46	510.24
541.62	411.93
541.79	449.38
541.96	411.93
542.13	372.15
542.30	383.85
542.47	428.32
542.63	447.04
542.80	358.10
542.97	472.79
543.14	367.46
543.31	421.30
543.48	451.72
543.64	442.36
543.81	458.74
543.98	386.19
544.15	400.23
544.32	454.06
544.48	421.30
544.65	435.34
544.82	402.57
544.99	395.55
545.16	428.32
545.32	355.76
545.49	411.93
545.66	404.91
545.83	390.87
546.00	428.32
546.16	416.62
546.33	458.74
546.50	388.53
546.67	388.53
546.83	393.21
547.00	454.06
547.17	458.74
547.34	447.04
547.50	428.32
547.67	440.02
547.84	369.80
548.00	447.04
548.17	348.74
548.34	393.21
548.51	362.78
548.67	397.89
548.84	442.36
549.01	444.70
549.18	414.27
549.34	365.12
549.51	449.38
549.68	425.98
549.84	475.13
550.01	472.79
550.18	489.17
550.34	533.64
550.51	423.64
550.68	332.36
550.84	346.40
551.01	369.80
551.18	435.34
551.34	421.30
551.51	365.12
551.68	372.15
551.84	500.87
552.01	472.79
552.18	351.08
552.34	386.19
552.51	435.34
552.68	468.11
552.84	433.00
553.01	421.30
553.18	409.59
553.34	449.38
553.51	362.78
553.67	418.96
553.84	451.72
554.01	428.32
554.17	393.21
554.34	430.66
554.51	414.27
554.67	407.25
554.84	479.81
555.00	440.02
555.17	397.89
555.33	428.32
555.50	400.23
555.67	400.23
555.83	447.04
556.00	449.38
556.16	510.24
556.33	491.51
556.50	351.08
556.66	386.19
556.83	421.30
556.99	332.36
557.16	362.78
557.32	325.33
557.49	388.53
557.65	404.91
557.82	376.83
557.98	430.66
558.15	430.66
558.32	390.87
558.48	442.36
558.65	402.57
558.81	440.02
558.98	390.87
559.14	451.72
559.31	444.70
559.47	402.57
559.64	381.51
559.80	430.66
559.97	440.02
560.13	454.06
560.30	440.02
560.46	425.98
560.63	442.36
560.79	461.09
560.96	435.34
561.12	489.17
561.29	444.70
561.45	374.49
561.61	407.25
561.78	449.38
561.94	386.19
562.11	440.02
562.27	416.62
562.44	414.27
562.60	465.77
562.77	484.49
562.93	468.11
563.10	374.49
563.26	407.25
563.42	451.72
563.59	421.30
563.75	418.96
563.92	475.13
564.08	454.06
564.24	402.57
564.41	447.04
564.57	365.12
564.74	388.53
564.90	454.06
565.07	442.36
565.23	437.68
565.39	374.49
565.56	402.57
565.72	395.55
565.88	397.89
566.05	362.78
566.21	472.79
566.38	479.81
566.54	433.00
566.70	444.70
566.87	407.25
567.03	372.15
567.19	374.49
567.36	423.64
567.52	404.91
567.68	379.17
567.85	433.00
568.01	463.43
568.17	418.96
568.34	393.21
568.50	489.17
568.66	416.62
568.83	465.77
568.99	365.12
569.15	430.66
569.32	416.62
569.48	421.30
569.64	362.78
569.81	407.25
569.97	454.06
570.13	393.21
570.30	381.51
570.46	353.42
570.62	367.46
570.78	437.68
570.95	351.08
571.11	479.81
571.27	435.34
571.43	416.62
571.60	402.57
571.76	374.49
571.92	400.23
572.09	365.12
572.25	414.27
572.41	444.70
572.57	449.38
572.74	423.64
572.90	348.74
573.06	341.72
573.22	470.45
573.38	489.17
573.55	421.30
573.71	404.91
573.87	479.81
574.03	465.77
574.20	449.38
574.36	411.93
574.52	510.24
574.68	362.78
574.84	367.46
575.01	430.66
575.17	482.15
575.33	458.74
575.49	425.98
575.65	360.44
575.82	454.06
575.98	498.53
576.14	400.23
576.30	437.68
576.46	418.96
576.62	510.24
576.79	416.62
576.95	454.06
577.11	383.85
577.27	444.70
577.43	463.43
577.59	458.74
577.75	374.49
577.92	447.04
578.08	381.51
578.24	409.59
578.40	388.53
578.56	400.23
578.72	493.85
578.88	425.98
579.04	447.04
579.21	468.11
579.37	404.91
579.53	440.02
579.69	472.79
579.85	430.66
580.01	486.83
580.17	428.32
580.33	449.38
580.49	390.87
580.65	440.02
580.82	430.66
580.98	430.66
581.14	397.89
581.30	498.53
581.46	472.79
581.62	425.98
581.78	451.72
581.94	433.00
582.10	393.21
582.26	465.77
582.42	407.25
582.58	383.85
582.74	407.25
582.90	433.00
583.06	461.09
583.22	409.59
583.38	395.55
583.54	400.23
583.70	454.06
583.86	435.34
584.02	461.09
584.18	451.72
584.34	362.78
584.50	365.12
584.66	360.44
584.82	433.00
584.98	386.19
585.14	440.02
585.30	383.85
585.46	552.37
585.62	367.46
585.78	475.13
585.94	402.57
586.10	411.93
586.26	428.32
586.42	440.02
586.58	442.36
586.74	332.36
586.90	468.11
587.06	440.02
587.22	397.89
587.38	411.93
587.54	416.62
587.70	465.77
587.86	416.62
588.02	402.57
588.18	451.72
588.34	388.53
588.49	409.59
588.65	381.51
588.81	365.12
588.97	355.76
589.13	437.68
589.29	449.38
589.45	379.17
589.61	388.53
589.77	402.57
589.93	430.66
590.08	395.55
590.24	428.32
590.40	416.62
590.56	425.98
590.72	423.64
590.88	409.59
591.04	458.74
591.20	472.79
591.35	447.04
591.51	433.00
591.67	472.79
591.83	435.34
591.99	468.11
592.15	456.40
592.31	414.27
592.46	397.89
592.62	437.68
592.78	416.62
592.94	409.59
593.10	425.98
593.26	397.89
593.41	447.04
593.57	339.38
593.73	425.98
593.89	397.89
594.05	414.27
594.20	409.59
594.36	395.55
594.52	416.62
594.68	402.57
594.84	470.45
594.99	395.55
595.15	411.93
595.31	381.51
595.47	421.30
595.62	393.21
595.78	402.57
595.94	418.96
596.10	470.45
596.25	447.04
596.41	468.11
596.57	400.23
596.73	423.64
596.88	360.44
597.04	430.66
597.20	294.91
597.36	449.38
597.51	376.83
597.67	395.55
597.83	407.25
597.99	409.59
598.14	379.17
598.30	414.27
598.46	433.00
598.61	493.85
598.77	416.62
598.93	372.15
599.09	437.68
599.24	458.74
599.40	428.32
599.56	407.25
599.71	397.89
599.87	550.03
600.03	383.85
600.18	449.38
600.34	437.68
600.50	353.42
600.65	421.30
600.81	402.57
600.97	440.02
601.12	451.72
601.28	463.43
601.44	374.49
601.59	397.89
601.75	425.98
601.91	418.96
602.06	407.25
602.22	510.24
602.37	461.09
602.53	421.30
602.69	390.87
602.84	447.04
603.00	454.06
603.16	337.04
603.31	379.17
603.47	372.15
603.62	482.15
603.78	437.68
603.94	463.43
604.09	447.04
604.25	423.64
604.40	369.80
604.56	423.64
604.71	440.02
604.87	472.79
605.03	423.64
605.18	379.17
605.34	409.59
605.49	456.40
605.65	449.38
605.80	442.36
605.96	397.89
606.12	407.25
606.27	433.00
606.43	510.24
606.58	353.42
606.74	358.10
606.89	435.34
607.05	421.30
607.20	433.00
607.36	442.36
607.51	409.59
607.67	433.00
607.82	482.15
607.98	430.66
608.13	491.51
608.29	447.04
608.44	465.77
608.60	411.93
608.75	414.27
608.91	475.13
609.06	390.87
609.22	407.25
609.37	353.42
609.53	465.77
609.68	299.59
609.84	390.87
609.99	428.32
610.15	458.74
