SpectraSuite Data File
++++++++++++++++++++++++++++++++++++
Date: Fri Oct 25 12:10:50 EDT 2013
User: price-jones
Dark Spectrum Present: No
Reference Spectrum Present: No
Number of Sampled Component Spectra: 1
Spectrometers: USB2+H05261
Integration Time (usec): 100000 (USB2+H05261)
Spectra Averaged: 1 (USB2+H05261)
Boxcar Smoothing: 0 (USB2+H05261)
Correct for Electrical Dark: No (USB2+H05261)
Strobe/Lamp Enabled: No (USB2+H05261)
Correct for Detector Non-linearity: No (USB2+H05261)
Correct for Stray Light: No (USB2+H05261)
Number of Pixels in Processed Spectrum: 2048
>>>>>Begin Processed Spectral Data<<<<<
365.73	383.85
365.92	383.85
366.12	383.85
366.32	337.04
366.52	234.05
366.72	273.84
366.91	255.12
367.11	236.39
367.31	210.65
367.51	285.55
367.70	248.10
367.90	210.65
368.10	227.03
368.30	273.84
368.49	187.24
368.69	175.54
368.89	264.48
369.09	238.73
369.28	322.99
369.48	259.80
369.68	294.91
369.87	292.57
370.07	311.29
370.27	306.61
370.47	322.99
370.66	318.31
370.86	386.19
371.06	353.42
371.25	393.21
371.45	383.85
371.65	332.36
371.84	358.10
372.04	440.02
372.24	348.74
372.44	360.44
372.63	468.11
372.83	402.57
373.03	442.36
373.22	409.59
373.42	397.89
373.62	430.66
373.81	430.66
374.01	379.17
374.21	465.77
374.40	444.70
374.60	393.21
374.79	423.64
374.99	376.83
375.19	418.96
375.38	367.46
375.58	411.93
375.78	475.13
375.97	400.23
376.17	479.81
376.37	428.32
376.56	477.47
376.76	353.42
376.95	402.57
377.15	395.55
377.35	393.21
377.54	402.57
377.74	486.83
377.93	421.30
378.13	454.06
378.33	461.09
378.52	444.70
378.72	428.32
378.91	428.32
379.11	423.64
379.31	418.96
379.50	444.70
379.70	465.77
379.89	444.70
380.09	376.83
380.28	379.17
380.48	381.51
380.68	341.72
380.87	351.08
381.07	440.02
381.26	507.90
381.46	346.40
381.65	435.34
381.85	360.44
382.04	397.89
382.24	390.87
382.43	372.15
382.63	383.85
382.83	461.09
383.02	395.55
383.22	479.81
383.41	372.15
383.61	411.93
383.80	437.68
384.00	444.70
384.19	409.59
384.39	430.66
384.58	393.21
384.78	404.91
384.97	400.23
385.17	360.44
385.36	402.57
385.56	308.95
385.75	428.32
385.95	409.59
386.14	458.74
386.34	388.53
386.53	379.17
386.72	447.04
386.92	449.38
387.11	346.40
387.31	397.89
387.50	374.49
387.70	365.12
387.89	365.12
388.09	367.46
388.28	425.98
388.48	400.23
388.67	454.06
388.86	458.74
389.06	402.57
389.25	393.21
389.45	444.70
389.64	397.89
389.84	477.47
390.03	388.53
390.22	369.80
390.42	362.78
390.61	383.85
390.81	440.02
391.00	388.53
391.19	437.68
391.39	409.59
391.58	397.89
391.78	337.04
391.97	404.91
392.16	365.12
392.36	409.59
392.55	395.55
392.75	400.23
392.94	351.08
393.13	395.55
393.33	355.76
393.52	479.81
393.71	430.66
393.91	428.32
394.10	407.25
394.29	355.76
394.49	442.36
394.68	404.91
394.88	475.13
395.07	458.74
395.26	433.00
395.46	430.66
395.65	465.77
395.84	339.38
396.04	425.98
396.23	390.87
396.42	402.57
396.62	435.34
396.81	433.00
397.00	304.27
397.19	379.17
397.39	379.17
397.58	421.30
397.77	372.15
397.97	416.62
398.16	510.24
398.35	421.30
398.55	395.55
398.74	372.15
398.93	393.21
399.12	311.29
399.32	393.21
399.51	416.62
399.70	388.53
399.90	388.53
400.09	390.87
400.28	388.53
400.47	447.04
400.67	376.83
400.86	346.40
401.05	451.72
401.24	454.06
401.44	421.30
401.63	444.70
401.82	454.06
402.01	362.78
402.21	414.27
402.40	407.25
402.59	447.04
402.78	416.62
402.97	416.62
403.17	444.70
403.36	383.85
403.55	414.27
403.74	409.59
403.93	388.53
404.13	362.78
404.32	402.57
404.51	433.00
404.70	428.32
404.89	404.91
405.09	479.81
405.28	348.74
405.47	369.80
405.66	444.70
405.85	475.13
406.05	379.17
406.24	383.85
406.43	456.40
406.62	421.30
406.81	393.21
407.00	402.57
407.20	404.91
407.39	409.59
407.58	463.43
407.77	470.45
407.96	400.23
408.15	358.10
408.34	470.45
408.54	367.46
408.73	418.96
408.92	463.43
409.11	416.62
409.30	400.23
409.49	344.06
409.68	369.80
409.87	311.29
410.07	379.17
410.26	430.66
410.45	418.96
410.64	428.32
410.83	416.62
411.02	404.91
411.21	409.59
411.40	456.40
411.59	414.27
411.78	348.74
411.98	397.89
412.17	318.31
412.36	337.04
412.55	388.53
412.74	388.53
412.93	383.85
413.12	421.30
413.31	416.62
413.50	379.17
413.69	376.83
413.88	447.04
414.07	390.87
414.26	393.21
414.45	400.23
414.64	400.23
414.83	451.72
415.02	395.55
415.22	421.30
415.41	442.36
415.60	360.44
415.79	355.76
415.98	411.93
416.17	369.80
416.36	449.38
416.55	381.51
416.74	430.66
416.93	372.15
417.12	454.06
417.31	379.17
417.50	421.30
417.69	400.23
417.88	390.87
418.07	479.81
418.26	369.80
418.45	425.98
418.64	514.92
418.83	414.27
419.02	383.85
419.21	433.00
419.39	365.12
419.58	386.19
419.77	360.44
419.96	416.62
420.15	402.57
420.34	379.17
420.53	517.26
420.72	362.78
420.91	339.38
421.10	386.19
421.29	383.85
421.48	435.34
421.67	435.34
421.86	442.36
422.05	411.93
422.24	454.06
422.43	435.34
422.61	400.23
422.80	479.81
422.99	386.19
423.18	320.65
423.37	430.66
423.56	454.06
423.75	409.59
423.94	379.17
424.13	409.59
424.32	414.27
424.50	458.74
424.69	409.59
424.88	416.62
425.07	400.23
425.26	383.85
425.45	400.23
425.64	372.15
425.83	367.46
426.01	475.13
426.20	491.51
426.39	433.00
426.58	374.49
426.77	402.57
426.96	425.98
427.15	365.12
427.33	400.23
427.52	416.62
427.71	430.66
427.90	390.87
428.09	404.91
428.28	442.36
428.46	465.77
428.65	353.42
428.84	334.70
429.03	416.62
429.22	355.76
429.40	411.93
429.59	430.66
429.78	381.51
429.97	348.74
430.16	430.66
430.34	367.46
430.53	411.93
430.72	402.57
430.91	435.34
431.10	430.66
431.28	414.27
431.47	430.66
431.66	463.43
431.85	428.32
432.03	442.36
432.22	416.62
432.41	390.87
432.60	397.89
432.79	472.79
432.97	454.06
433.16	351.08
433.35	395.55
433.54	428.32
433.72	458.74
433.91	414.27
434.10	390.87
434.28	418.96
434.47	351.08
434.66	397.89
434.85	400.23
435.03	447.04
435.22	402.57
435.41	425.98
435.59	421.30
435.78	374.49
435.97	379.17
436.16	437.68
436.34	425.98
436.53	461.09
436.72	411.93
436.90	418.96
437.09	451.72
437.28	423.64
437.46	404.91
437.65	472.79
437.84	435.34
438.02	393.21
438.21	348.74
438.40	355.76
438.58	461.09
438.77	472.79
438.96	435.34
439.14	402.57
439.33	425.98
439.52	390.87
439.70	369.80
439.89	433.00
440.08	404.91
440.26	376.83
440.45	372.15
440.63	430.66
440.82	425.98
441.01	423.64
441.19	437.68
441.38	407.25
441.57	397.89
441.75	425.98
441.94	418.96
442.12	388.53
442.31	489.17
442.50	402.57
442.68	395.55
442.87	379.17
443.05	482.15
443.24	411.93
443.43	430.66
443.61	425.98
443.80	421.30
443.98	360.44
444.17	358.10
444.35	477.47
444.54	454.06
444.73	416.62
444.91	479.81
445.10	393.21
445.28	416.62
445.47	409.59
445.65	489.17
445.84	390.87
446.02	447.04
446.21	437.68
446.39	454.06
446.58	442.36
446.77	386.19
446.95	489.17
447.14	442.36
447.32	444.70
447.51	451.72
447.69	388.53
447.88	379.17
448.06	428.32
448.25	360.44
448.43	421.30
448.62	351.08
448.80	444.70
448.99	514.92
449.17	454.06
449.36	423.64
449.54	458.74
449.73	367.46
449.91	407.25
450.10	404.91
450.28	458.74
450.46	440.02
450.65	414.27
450.83	397.89
451.02	437.68
451.20	395.55
451.39	381.51
451.57	475.13
451.76	404.91
451.94	456.40
452.13	421.30
452.31	470.45
452.49	454.06
452.68	344.06
452.86	444.70
453.05	454.06
453.23	376.83
453.42	435.34
453.60	404.91
453.78	337.04
453.97	388.53
454.15	458.74
454.34	362.78
454.52	341.72
454.70	477.47
454.89	346.40
455.07	341.72
455.26	416.62
455.44	447.04
455.62	416.62
455.81	425.98
455.99	430.66
456.17	423.64
456.36	458.74
456.54	454.06
456.73	433.00
456.91	383.85
457.09	395.55
457.28	390.87
457.46	461.09
457.64	430.66
457.83	348.74
458.01	397.89
458.19	482.15
458.38	456.40
458.56	428.32
458.74	433.00
458.93	369.80
459.11	332.36
459.29	374.49
459.48	425.98
459.66	435.34
459.84	472.79
460.03	489.17
460.21	416.62
460.39	369.80
460.57	362.78
460.76	397.89
460.94	414.27
461.12	475.13
461.31	442.36
461.49	411.93
461.67	482.15
461.85	407.25
462.04	416.62
462.22	798.12
462.40	411.93
462.59	449.38
462.77	472.79
462.95	400.23
463.13	369.80
463.32	449.38
463.50	404.91
463.68	416.62
463.86	404.91
464.05	374.49
464.23	421.30
464.41	447.04
464.59	416.62
464.78	386.19
464.96	348.74
465.14	397.89
465.32	407.25
465.50	444.70
465.69	393.21
465.87	414.27
466.05	425.98
466.23	428.32
466.41	414.27
466.60	418.96
466.78	383.85
466.96	383.85
467.14	423.64
467.32	447.04
467.51	397.89
467.69	418.96
467.87	416.62
468.05	397.89
468.23	519.60
468.41	379.17
468.60	428.32
468.78	454.06
468.96	479.81
469.14	428.32
469.32	482.15
469.50	383.85
469.69	477.47
469.87	386.19
470.05	423.64
470.23	465.77
470.41	418.96
470.59	461.09
470.77	395.55
470.95	444.70
471.14	409.59
471.32	440.02
471.50	451.72
471.68	418.96
471.86	447.04
472.04	449.38
472.22	411.93
472.40	470.45
472.58	294.91
472.77	402.57
472.95	479.81
473.13	433.00
473.31	479.81
473.49	327.68
473.67	414.27
473.85	433.00
474.03	395.55
474.21	379.17
474.39	486.83
474.57	409.59
474.75	421.30
474.93	379.17
475.12	442.36
475.30	397.89
475.48	358.10
475.66	425.98
475.84	390.87
476.02	379.17
476.20	411.93
476.38	395.55
476.56	475.13
476.74	400.23
476.92	428.32
477.10	486.83
477.28	475.13
477.46	451.72
477.64	440.02
477.82	390.87
478.00	470.45
478.18	425.98
478.36	451.72
478.54	421.30
478.72	397.89
478.90	414.27
479.08	437.68
479.26	425.98
479.44	468.11
479.62	458.74
479.80	458.74
479.98	376.83
480.16	437.68
480.34	435.34
480.52	440.02
480.70	411.93
480.88	425.98
481.06	393.21
481.24	416.62
481.41	416.62
481.59	353.42
481.77	351.08
481.95	346.40
482.13	414.27
482.31	428.32
482.49	428.32
482.67	388.53
482.85	416.62
483.03	379.17
483.21	372.15
483.39	400.23
483.57	491.51
483.74	386.19
483.92	365.12
484.10	341.72
484.28	414.27
484.46	528.96
484.64	360.44
484.82	376.83
485.00	440.02
485.18	437.68
485.35	395.55
485.53	461.09
485.71	383.85
485.89	442.36
486.07	379.17
486.25	531.30
486.43	430.66
486.61	407.25
486.78	409.59
486.96	425.98
487.14	337.04
487.32	442.36
487.50	397.89
487.68	512.58
487.85	351.08
488.03	404.91
488.21	360.44
488.39	407.25
488.57	421.30
488.75	428.32
488.92	465.77
489.10	358.10
489.28	430.66
489.46	440.02
489.64	397.89
489.81	461.09
489.99	468.11
490.17	472.79
490.35	547.69
490.53	468.11
490.70	397.89
490.88	435.34
491.06	379.17
491.24	400.23
491.41	411.93
491.59	444.70
491.77	360.44
491.95	416.62
492.13	383.85
492.30	425.98
492.48	397.89
492.66	475.13
492.84	416.62
493.01	367.46
493.19	409.59
493.37	430.66
493.54	407.25
493.72	369.80
493.90	397.89
494.08	514.92
494.25	437.68
494.43	395.55
494.61	451.72
494.79	388.53
494.96	421.30
495.14	404.91
495.32	425.98
495.49	383.85
495.67	428.32
495.85	449.38
496.02	376.83
496.20	334.70
496.38	449.38
496.55	425.98
496.73	472.79
496.91	449.38
497.09	348.74
497.26	421.30
497.44	400.23
497.62	379.17
497.79	388.53
497.97	447.04
498.14	454.06
498.32	418.96
498.50	393.21
498.67	369.80
498.85	402.57
499.03	407.25
499.20	409.59
499.38	409.59
499.56	458.74
499.73	449.38
499.91	484.49
500.08	395.55
500.26	395.55
500.44	425.98
500.61	447.04
500.79	365.12
500.97	379.17
501.14	456.40
501.32	421.30
501.49	456.40
501.67	393.21
501.84	397.89
502.02	407.25
502.20	486.83
502.37	383.85
502.55	430.66
502.72	339.38
502.90	493.85
503.07	390.87
503.25	437.68
503.43	379.17
503.60	395.55
503.78	433.00
503.95	491.51
504.13	402.57
504.30	468.11
504.48	425.98
504.65	461.09
504.83	433.00
505.01	388.53
505.18	425.98
505.36	416.62
505.53	395.55
505.71	355.76
505.88	470.45
506.06	390.87
506.23	454.06
506.41	395.55
506.58	435.34
506.76	414.27
506.93	390.87
507.11	458.74
507.28	407.25
507.46	421.30
507.63	407.25
507.81	376.83
507.98	440.02
508.16	416.62
508.33	454.06
508.50	355.76
508.68	379.17
508.85	423.64
509.03	447.04
509.20	423.64
509.38	327.68
509.55	428.32
509.73	388.53
509.90	461.09
510.08	482.15
510.25	444.70
510.42	320.65
510.60	400.23
510.77	437.68
510.95	386.19
511.12	418.96
511.30	491.51
511.47	456.40
511.64	435.34
511.82	414.27
511.99	409.59
512.17	454.06
512.34	386.19
512.51	386.19
512.69	449.38
512.86	458.74
513.04	367.46
513.21	388.53
513.38	468.11
513.56	479.81
513.73	449.38
513.90	341.72
514.08	407.25
514.25	451.72
514.43	461.09
514.60	362.78
514.77	425.98
514.95	418.96
515.12	379.17
515.29	395.55
515.47	416.62
515.64	423.64
515.81	433.00
515.99	472.79
516.16	433.00
516.33	458.74
516.51	428.32
516.68	418.96
516.85	477.47
517.03	346.40
517.20	402.57
517.37	383.85
517.54	440.02
517.72	379.17
517.89	421.30
518.06	418.96
518.24	491.51
518.41	404.91
518.58	435.34
518.75	461.09
518.93	395.55
519.10	393.21
519.27	409.59
519.45	421.30
519.62	451.72
519.79	414.27
519.96	428.32
520.14	461.09
520.31	454.06
520.48	458.74
520.65	325.33
520.83	409.59
521.00	430.66
521.17	372.15
521.34	407.25
521.52	388.53
521.69	402.57
521.86	456.40
522.03	423.64
522.20	430.66
522.38	414.27
522.55	512.58
522.72	379.17
522.89	421.30
523.07	402.57
523.24	355.76
523.41	404.91
523.58	423.64
523.75	475.13
523.92	437.68
524.10	425.98
524.27	402.57
524.44	367.46
524.61	447.04
524.78	444.70
524.96	379.17
525.13	383.85
525.30	397.89
525.47	435.34
525.64	390.87
525.81	423.64
525.98	400.23
526.16	381.51
526.33	449.38
526.50	421.30
526.67	311.29
526.84	407.25
527.01	400.23
527.18	425.98
527.36	402.57
527.53	433.00
527.70	421.30
527.87	421.30
528.04	402.57
528.21	407.25
528.38	414.27
528.55	428.32
528.72	381.51
528.89	430.66
529.07	430.66
529.24	344.06
529.41	402.57
529.58	451.72
529.75	496.19
529.92	440.02
530.09	444.70
530.26	454.06
530.43	388.53
530.60	451.72
530.77	383.85
530.94	418.96
531.11	440.02
531.28	411.93
531.46	358.10
531.63	409.59
531.80	447.04
531.97	433.00
532.14	388.53
532.31	395.55
532.48	367.46
532.65	507.90
532.82	425.98
532.99	400.23
533.16	447.04
533.33	339.38
533.50	386.19
533.67	414.27
533.84	383.85
534.01	468.11
534.18	397.89
534.35	409.59
534.52	475.13
534.69	461.09
534.86	402.57
535.03	386.19
535.20	447.04
535.37	500.87
535.54	386.19
535.71	393.21
535.88	458.74
536.05	386.19
536.22	442.36
536.38	365.12
536.55	407.25
536.72	465.77
536.89	393.21
537.06	381.51
537.23	416.62
537.40	409.59
537.57	376.83
537.74	482.15
537.91	388.53
538.08	472.79
538.25	409.59
538.42	411.93
538.59	362.78
538.75	383.85
538.92	381.51
539.09	414.27
539.26	383.85
539.43	409.59
539.60	447.04
539.77	440.02
539.94	444.70
540.11	447.04
540.28	479.81
540.44	477.47
540.61	388.53
540.78	390.87
540.95	383.85
541.12	402.57
541.29	465.77
541.46	454.06
541.62	386.19
541.79	414.27
541.96	423.64
542.13	440.02
542.30	470.45
542.47	430.66
542.63	409.59
542.80	461.09
542.97	442.36
543.14	447.04
543.31	482.15
543.48	395.55
543.64	411.93
543.81	381.51
543.98	369.80
544.15	367.46
544.32	503.22
544.48	409.59
544.65	430.66
544.82	386.19
544.99	341.72
545.16	416.62
545.32	411.93
545.49	416.62
545.66	444.70
545.83	428.32
546.00	437.68
546.16	479.81
546.33	437.68
546.50	365.12
546.67	463.43
546.83	482.15
547.00	423.64
547.17	414.27
547.34	367.46
547.50	461.09
547.67	482.15
547.84	404.91
548.00	390.87
548.17	365.12
548.34	416.62
548.51	468.11
548.67	400.23
548.84	407.25
549.01	433.00
549.18	367.46
549.34	390.87
549.51	404.91
549.68	421.30
549.84	423.64
550.01	418.96
550.18	437.68
550.34	435.34
550.51	447.04
550.68	526.62
550.84	381.51
551.01	400.23
551.18	421.30
551.34	358.10
551.51	404.91
551.68	454.06
551.84	430.66
552.01	444.70
552.18	428.32
552.34	421.30
552.51	421.30
552.68	472.79
552.84	409.59
553.01	355.76
553.18	425.98
553.34	414.27
553.51	435.34
553.67	475.13
553.84	484.49
554.01	463.43
554.17	442.36
554.34	433.00
554.51	402.57
554.67	454.06
554.84	463.43
555.00	496.19
555.17	423.64
555.33	418.96
555.50	404.91
555.67	430.66
555.83	461.09
556.00	346.40
556.16	533.64
556.33	423.64
556.50	379.17
556.66	433.00
556.83	390.87
556.99	500.87
557.16	402.57
557.32	381.51
557.49	358.10
557.65	381.51
557.82	383.85
557.98	390.87
558.15	440.02
558.32	425.98
558.48	383.85
558.65	440.02
558.81	379.17
558.98	379.17
559.14	491.51
559.31	409.59
559.47	437.68
559.64	435.34
559.80	372.15
559.97	423.64
560.13	386.19
560.30	372.15
560.46	442.36
560.63	411.93
560.79	433.00
560.96	367.46
561.12	402.57
561.29	482.15
561.45	430.66
561.61	456.40
561.78	496.19
561.94	414.27
562.11	449.38
562.27	449.38
562.44	468.11
562.60	393.21
562.77	393.21
562.93	458.74
563.10	433.00
563.26	491.51
563.42	407.25
563.59	477.47
563.75	411.93
563.92	397.89
564.08	447.04
564.24	489.17
564.41	484.49
564.57	379.17
564.74	351.08
564.90	397.89
565.07	409.59
565.23	456.40
565.39	437.68
565.56	440.02
565.72	381.51
565.88	454.06
566.05	393.21
566.21	444.70
566.38	482.15
566.54	400.23
566.70	425.98
566.87	470.45
567.03	388.53
567.19	442.36
567.36	414.27
567.52	355.76
567.68	454.06
567.85	444.70
568.01	461.09
568.17	435.34
568.34	458.74
568.50	489.17
568.66	393.21
568.83	407.25
568.99	423.64
569.15	442.36
569.32	435.34
569.48	416.62
569.64	482.15
569.81	304.27
569.97	407.25
570.13	369.80
570.30	414.27
570.46	325.33
570.62	440.02
570.78	477.47
570.95	325.33
571.11	449.38
571.27	482.15
571.43	407.25
571.60	379.17
571.76	409.59
571.92	395.55
572.09	376.83
572.25	435.34
572.41	397.89
572.57	489.17
572.74	489.17
572.90	395.55
573.06	451.72
573.22	437.68
573.38	423.64
573.55	386.19
573.71	435.34
573.87	472.79
574.03	433.00
574.20	290.23
574.36	435.34
574.52	407.25
574.68	477.47
574.84	468.11
575.01	461.09
575.17	430.66
575.33	411.93
575.49	444.70
575.65	437.68
575.82	461.09
575.98	444.70
576.14	454.06
576.30	496.19
576.46	360.44
576.62	437.68
576.79	444.70
576.95	416.62
577.11	376.83
577.27	414.27
577.43	484.49
577.59	461.09
577.75	386.19
577.92	458.74
578.08	362.78
578.24	374.49
578.40	418.96
578.56	470.45
578.72	472.79
578.88	442.36
579.04	369.80
579.21	475.13
579.37	397.89
579.53	416.62
579.69	428.32
579.85	402.57
580.01	411.93
580.17	397.89
580.33	386.19
580.49	437.68
580.65	414.27
580.82	416.62
580.98	400.23
581.14	400.23
581.30	449.38
581.46	454.06
581.62	454.06
581.78	463.43
581.94	456.40
582.10	428.32
582.26	376.83
582.42	402.57
582.58	547.69
582.74	442.36
582.90	428.32
583.06	402.57
583.22	444.70
583.38	367.46
583.54	365.12
583.70	414.27
583.86	411.93
584.02	437.68
584.18	395.55
584.34	374.49
584.50	322.99
584.66	400.23
584.82	444.70
584.98	367.46
585.14	372.15
585.30	447.04
585.46	407.25
585.62	386.19
585.78	325.33
585.94	390.87
586.10	390.87
586.26	400.23
586.42	465.77
586.58	386.19
586.74	421.30
586.90	416.62
587.06	397.89
587.22	402.57
587.38	397.89
587.54	428.32
587.70	454.06
587.86	365.12
588.02	337.04
588.18	421.30
588.34	423.64
588.49	397.89
588.65	493.85
588.81	449.38
588.97	430.66
589.13	390.87
589.29	430.66
589.45	440.02
589.61	468.11
589.77	332.36
589.93	402.57
590.08	440.02
590.24	367.46
590.40	379.17
590.56	414.27
590.72	402.57
590.88	449.38
591.04	477.47
591.20	404.91
591.35	493.85
591.51	435.34
591.67	332.36
591.83	425.98
591.99	381.51
592.15	428.32
592.31	437.68
592.46	409.59
592.62	458.74
592.78	390.87
592.94	369.80
593.10	325.33
593.26	369.80
593.41	386.19
593.57	428.32
593.73	409.59
593.89	386.19
594.05	383.85
594.20	395.55
594.36	451.72
594.52	395.55
594.68	379.17
594.84	447.04
594.99	458.74
595.15	404.91
595.31	444.70
595.47	437.68
595.62	416.62
595.78	397.89
595.94	428.32
596.10	404.91
596.25	418.96
596.41	440.02
596.57	451.72
596.73	437.68
596.88	428.32
597.04	418.96
597.20	374.49
597.36	400.23
597.51	430.66
597.67	400.23
597.83	381.51
597.99	386.19
598.14	409.59
598.30	433.00
598.46	320.65
598.61	442.36
598.77	418.96
598.93	414.27
599.09	465.77
599.24	444.70
599.40	407.25
599.56	362.78
599.71	463.43
599.87	428.32
600.03	421.30
600.18	367.46
600.34	451.72
600.50	437.68
600.65	365.12
600.81	442.36
600.97	456.40
601.12	365.12
601.28	411.93
601.44	409.59
601.59	470.45
601.75	498.53
601.91	433.00
602.06	425.98
602.22	444.70
602.37	456.40
602.53	409.59
602.69	489.17
602.84	383.85
603.00	381.51
603.16	496.19
603.31	425.98
603.47	421.30
603.62	423.64
603.78	475.13
603.94	477.47
604.09	428.32
604.25	421.30
604.40	421.30
604.56	430.66
604.71	374.49
604.87	472.79
605.03	320.65
605.18	381.51
605.34	470.45
605.49	397.89
605.65	414.27
605.80	339.38
605.96	372.15
606.12	409.59
606.27	407.25
606.43	428.32
606.58	341.72
606.74	372.15
606.89	355.76
607.05	472.79
607.20	472.79
607.36	351.08
607.51	425.98
607.67	435.34
607.82	500.87
607.98	503.22
608.13	484.49
608.29	416.62
608.44	418.96
608.60	461.09
608.75	472.79
608.91	330.02
609.06	430.66
609.22	402.57
609.37	447.04
609.53	411.93
609.68	376.83
609.84	334.70
609.99	400.23
610.15	491.51
