SpectraSuite Data File
++++++++++++++++++++++++++++++++++++
Date: Fri Oct 25 12:10:27 EDT 2013
User: price-jones
Dark Spectrum Present: No
Reference Spectrum Present: No
Number of Sampled Component Spectra: 1
Spectrometers: USB2+H05261
Integration Time (usec): 100000 (USB2+H05261)
Spectra Averaged: 1 (USB2+H05261)
Boxcar Smoothing: 0 (USB2+H05261)
Correct for Electrical Dark: No (USB2+H05261)
Strobe/Lamp Enabled: No (USB2+H05261)
Correct for Detector Non-linearity: No (USB2+H05261)
Correct for Stray Light: No (USB2+H05261)
Number of Pixels in Processed Spectrum: 2048
>>>>>Begin Processed Spectral Data<<<<<
365.73	346.40
365.92	346.40
366.12	346.40
366.32	320.65
366.52	287.89
366.72	294.91
366.91	285.55
367.11	231.71
367.31	222.35
367.51	238.73
367.70	299.59
367.90	236.39
368.10	262.14
368.30	224.69
368.49	248.10
368.69	236.39
368.89	306.61
369.09	262.14
369.28	285.55
369.48	285.55
369.68	271.50
369.87	280.86
370.07	353.42
370.27	327.68
370.47	374.49
370.66	334.70
370.86	397.89
371.06	374.49
371.25	414.27
371.45	390.87
371.65	430.66
371.84	318.31
372.04	339.38
372.24	372.15
372.44	322.99
372.63	390.87
372.83	395.55
373.03	358.10
373.22	372.15
373.42	374.49
373.62	418.96
373.81	430.66
374.01	379.17
374.21	409.59
374.40	402.57
374.60	493.85
374.79	435.34
374.99	423.64
375.19	402.57
375.38	379.17
375.58	301.93
375.78	372.15
375.97	437.68
376.17	575.77
376.37	393.21
376.56	458.74
376.76	379.17
376.95	407.25
377.15	421.30
377.35	416.62
377.54	402.57
377.74	355.76
377.93	348.74
378.13	423.64
378.33	442.36
378.52	381.51
378.72	442.36
378.91	383.85
379.11	318.31
379.31	344.06
379.50	351.08
379.70	447.04
379.89	442.36
380.09	360.44
380.28	397.89
380.48	407.25
380.68	409.59
380.87	379.17
381.07	376.83
381.26	372.15
381.46	355.76
381.65	397.89
381.85	442.36
382.04	423.64
382.24	390.87
382.43	388.53
382.63	379.17
382.83	463.43
383.02	358.10
383.22	411.93
383.41	346.40
383.61	390.87
383.80	341.72
384.00	393.21
384.19	362.78
384.39	437.68
384.58	468.11
384.78	414.27
384.97	402.57
385.17	353.42
385.36	351.08
385.56	372.15
385.75	315.97
385.95	395.55
386.14	444.70
386.34	430.66
386.53	407.25
386.72	355.76
386.92	400.23
387.11	411.93
387.31	383.85
387.50	374.49
387.70	390.87
387.89	390.87
388.09	407.25
388.28	304.27
388.48	416.62
388.67	411.93
388.86	489.17
389.06	400.23
389.25	390.87
389.45	344.06
389.64	428.32
389.84	374.49
390.03	437.68
390.22	416.62
390.42	472.79
390.61	379.17
390.81	444.70
391.00	404.91
391.19	423.64
391.39	376.83
391.58	395.55
391.78	407.25
391.97	395.55
392.16	423.64
392.36	369.80
392.55	491.51
392.75	491.51
392.94	376.83
393.13	416.62
393.33	369.80
393.52	397.89
393.71	367.46
393.91	458.74
394.10	402.57
394.29	421.30
394.49	400.23
394.68	402.57
394.88	414.27
395.07	346.40
395.26	461.09
395.46	428.32
395.65	425.98
395.84	447.04
396.04	479.81
396.23	414.27
396.42	421.30
396.62	451.72
396.81	437.68
397.00	395.55
397.19	346.40
397.39	425.98
397.58	433.00
397.77	390.87
397.97	484.49
398.16	411.93
398.35	383.85
398.55	339.38
398.74	341.72
398.93	414.27
399.12	367.46
399.32	447.04
399.51	404.91
399.70	395.55
399.90	463.43
400.09	393.21
400.28	423.64
400.47	372.15
400.67	477.47
400.86	430.66
401.05	407.25
401.24	440.02
401.44	411.93
401.63	381.51
401.82	447.04
402.01	362.78
402.21	404.91
402.40	442.36
402.59	472.79
402.78	395.55
402.97	437.68
403.17	374.49
403.36	383.85
403.55	388.53
403.74	423.64
403.93	409.59
404.13	433.00
404.32	472.79
404.51	440.02
404.70	379.17
404.89	327.68
405.09	428.32
405.28	449.38
405.47	430.66
405.66	451.72
405.85	442.36
406.05	421.30
406.24	425.98
406.43	404.91
406.62	409.59
406.81	414.27
407.00	416.62
407.20	454.06
407.39	379.17
407.58	332.36
407.77	421.30
407.96	376.83
408.15	414.27
408.34	372.15
408.54	400.23
408.73	404.91
408.92	447.04
409.11	348.74
409.30	404.91
409.49	379.17
409.68	374.49
409.87	437.68
410.07	386.19
410.26	437.68
410.45	418.96
410.64	395.55
410.83	402.57
411.02	390.87
411.21	407.25
411.40	421.30
411.59	421.30
411.78	430.66
411.98	428.32
412.17	383.85
412.36	425.98
412.55	409.59
412.74	411.93
412.93	433.00
413.12	458.74
413.31	407.25
413.50	411.93
413.69	379.17
413.88	482.15
414.07	449.38
414.26	348.74
414.45	374.49
414.64	407.25
414.83	376.83
415.02	528.96
415.22	433.00
415.41	358.10
415.60	414.27
415.79	376.83
415.98	402.57
416.17	421.30
416.36	393.21
416.55	416.62
416.74	348.74
416.93	447.04
417.12	381.51
417.31	400.23
417.50	454.06
417.69	486.83
417.88	397.89
418.07	409.59
418.26	440.02
418.45	430.66
418.64	418.96
418.83	397.89
419.02	402.57
419.21	493.85
419.39	433.00
419.58	407.25
419.77	428.32
419.96	402.57
420.15	395.55
420.34	404.91
420.53	418.96
420.72	381.51
420.91	442.36
421.10	465.77
421.29	393.21
421.48	421.30
421.67	433.00
421.86	367.46
422.05	372.15
422.24	400.23
422.43	428.32
422.61	404.91
422.80	421.30
422.99	374.49
423.18	400.23
423.37	430.66
423.56	330.02
423.75	425.98
423.94	365.12
424.13	400.23
424.32	404.91
424.50	330.02
424.69	461.09
424.88	430.66
425.07	435.34
425.26	404.91
425.45	386.19
425.64	433.00
425.83	402.57
426.01	346.40
426.20	348.74
426.39	409.59
426.58	425.98
426.77	339.38
426.96	465.77
427.15	491.51
427.33	308.95
427.52	421.30
427.71	442.36
427.90	404.91
428.09	337.04
428.28	320.65
428.46	379.17
428.65	397.89
428.84	407.25
429.03	454.06
429.22	383.85
429.40	365.12
429.59	407.25
429.78	475.13
429.97	489.17
430.16	388.53
430.34	440.02
430.53	440.02
430.72	390.87
430.91	449.38
431.10	379.17
431.28	421.30
431.47	505.56
431.66	461.09
431.85	456.40
432.03	367.46
432.22	393.21
432.41	360.44
432.60	470.45
432.79	341.72
432.97	444.70
433.16	390.87
433.35	358.10
433.54	397.89
433.72	465.77
433.91	465.77
434.10	437.68
434.28	456.40
434.47	433.00
434.66	397.89
434.85	404.91
435.03	365.12
435.22	381.51
435.41	449.38
435.59	430.66
435.78	400.23
435.97	397.89
436.16	449.38
436.34	407.25
436.53	407.25
436.72	442.36
436.90	423.64
437.09	411.93
437.28	402.57
437.46	404.91
437.65	421.30
437.84	402.57
438.02	423.64
438.21	404.91
438.40	430.66
438.58	468.11
438.77	362.78
438.96	468.11
439.14	379.17
439.33	425.98
439.52	402.57
439.70	383.85
439.89	409.59
440.08	428.32
440.26	409.59
440.45	381.51
440.63	407.25
440.82	409.59
441.01	416.62
441.19	395.55
441.38	428.32
441.57	458.74
441.75	416.62
441.94	449.38
442.12	451.72
442.31	435.34
442.50	428.32
442.68	383.85
442.87	386.19
443.05	376.83
443.24	379.17
443.43	437.68
443.61	449.38
443.80	397.89
443.98	500.87
444.17	376.83
444.35	400.23
444.54	379.17
444.73	390.87
444.91	402.57
445.10	388.53
445.28	414.27
445.47	416.62
445.65	442.36
445.84	381.51
446.02	348.74
446.21	433.00
446.39	404.91
446.58	421.30
446.77	496.19
446.95	388.53
447.14	372.15
447.32	449.38
447.51	425.98
447.69	376.83
447.88	428.32
448.06	404.91
448.25	365.12
448.43	425.98
448.62	374.49
448.80	454.06
448.99	379.17
449.17	402.57
449.36	449.38
449.54	418.96
449.73	341.72
449.91	468.11
450.10	407.25
450.28	528.96
450.46	447.04
450.65	421.30
450.83	402.57
451.02	365.12
451.20	470.45
451.39	433.00
451.57	383.85
451.76	341.72
451.94	346.40
452.13	390.87
452.31	435.34
452.49	346.40
452.68	379.17
452.86	404.91
453.05	477.47
453.23	440.02
453.42	433.00
453.60	430.66
453.78	435.34
453.97	395.55
454.15	435.34
454.34	409.59
454.52	400.23
454.70	496.19
454.89	449.38
455.07	393.21
455.26	447.04
455.44	449.38
455.62	344.06
455.81	404.91
455.99	400.23
456.17	463.43
456.36	365.12
456.54	383.85
456.73	386.19
456.91	433.00
457.09	437.68
457.28	437.68
457.46	397.89
457.64	409.59
457.83	423.64
458.01	376.83
458.19	376.83
458.38	353.42
458.56	393.21
458.74	428.32
458.93	442.36
459.11	433.00
459.29	404.91
459.48	461.09
459.66	461.09
459.84	332.36
460.03	479.81
460.21	428.32
460.39	320.65
460.57	418.96
460.76	468.11
460.94	388.53
461.12	409.59
461.31	414.27
461.49	437.68
461.67	416.62
461.85	411.93
462.04	390.87
462.22	784.08
462.40	400.23
462.59	440.02
462.77	414.27
462.95	374.49
463.13	402.57
463.32	435.34
463.50	489.17
463.68	425.98
463.86	451.72
464.05	358.10
464.23	388.53
464.41	444.70
464.59	447.04
464.78	447.04
464.96	367.46
465.14	407.25
465.32	409.59
465.50	400.23
465.69	416.62
465.87	404.91
466.05	418.96
466.23	409.59
466.41	425.98
466.60	435.34
466.78	390.87
466.96	472.79
467.14	414.27
467.32	437.68
467.51	402.57
467.69	425.98
467.87	416.62
468.05	456.40
468.23	409.59
468.41	442.36
468.60	428.32
468.78	451.72
468.96	414.27
469.14	395.55
469.32	437.68
469.50	447.04
469.69	486.83
469.87	416.62
470.05	390.87
470.23	409.59
470.41	409.59
470.59	423.64
470.77	409.59
470.95	461.09
471.14	442.36
471.32	381.51
471.50	437.68
471.68	404.91
471.86	444.70
472.04	428.32
472.22	386.19
472.40	386.19
472.58	400.23
472.77	372.15
472.95	416.62
473.13	428.32
473.31	435.34
473.49	423.64
473.67	390.87
473.85	395.55
474.03	425.98
474.21	463.43
474.39	430.66
474.57	477.47
474.75	454.06
474.93	341.72
475.12	444.70
475.30	402.57
475.48	423.64
475.66	397.89
475.84	437.68
476.02	360.44
476.20	468.11
476.38	400.23
476.56	402.57
476.74	472.79
476.92	404.91
477.10	407.25
477.28	454.06
477.46	465.77
477.64	470.45
477.82	447.04
478.00	400.23
478.18	390.87
478.36	418.96
478.54	437.68
478.72	376.83
478.90	416.62
479.08	369.80
479.26	360.44
479.44	360.44
479.62	397.89
479.80	440.02
479.98	365.12
480.16	381.51
480.34	397.89
480.52	416.62
480.70	421.30
480.88	381.51
481.06	374.49
481.24	395.55
481.41	440.02
481.59	482.15
481.77	416.62
481.95	365.12
482.13	430.66
482.31	365.12
482.49	416.62
482.67	430.66
482.85	463.43
483.03	397.89
483.21	376.83
483.39	383.85
483.57	418.96
483.74	407.25
483.92	411.93
484.10	369.80
484.28	351.08
484.46	407.25
484.64	381.51
484.82	379.17
485.00	374.49
485.18	421.30
485.35	458.74
485.53	437.68
485.71	465.77
485.89	386.19
486.07	411.93
486.25	418.96
486.43	362.78
486.61	463.43
486.78	418.96
486.96	339.38
487.14	367.46
487.32	397.89
487.50	442.36
487.68	477.47
487.85	435.34
488.03	440.02
488.21	489.17
488.39	386.19
488.57	402.57
488.75	454.06
488.92	500.87
489.10	456.40
489.28	458.74
489.46	360.44
489.64	360.44
489.81	428.32
489.99	353.42
490.17	374.49
490.35	423.64
490.53	409.59
490.70	383.85
490.88	440.02
491.06	425.98
491.24	461.09
491.41	458.74
491.59	360.44
491.77	327.68
491.95	383.85
492.13	379.17
492.30	397.89
492.48	383.85
492.66	491.51
492.84	465.77
493.01	428.32
493.19	411.93
493.37	482.15
493.54	425.98
493.72	379.17
493.90	346.40
494.08	411.93
494.25	421.30
494.43	400.23
494.61	397.89
494.79	376.83
494.96	360.44
495.14	386.19
495.32	444.70
495.49	444.70
495.67	456.40
495.85	430.66
496.02	341.72
496.20	351.08
496.38	442.36
496.55	393.21
496.73	496.19
496.91	435.34
497.09	430.66
497.26	383.85
497.44	353.42
497.62	395.55
497.79	418.96
497.97	395.55
498.14	346.40
498.32	463.43
498.50	454.06
498.67	390.87
498.85	479.81
499.03	458.74
499.20	407.25
499.38	374.49
499.56	402.57
499.73	447.04
499.91	472.79
500.08	425.98
500.26	416.62
500.44	425.98
500.61	383.85
500.79	334.70
500.97	433.00
501.14	433.00
501.32	393.21
501.49	411.93
501.67	491.51
501.84	425.98
502.02	402.57
502.20	395.55
502.37	440.02
502.55	447.04
502.72	372.15
502.90	454.06
503.07	430.66
503.25	404.91
503.43	449.38
503.60	374.49
503.78	479.81
503.95	388.53
504.13	402.57
504.30	409.59
504.48	400.23
504.65	458.74
504.83	479.81
505.01	507.90
505.18	421.30
505.36	322.99
505.53	414.27
505.71	372.15
505.88	414.27
506.06	430.66
506.23	411.93
506.41	390.87
506.58	449.38
506.76	423.64
506.93	383.85
507.11	407.25
507.28	388.53
507.46	418.96
507.63	409.59
507.81	395.55
507.98	388.53
508.16	407.25
508.33	430.66
508.50	428.32
508.68	425.98
508.85	395.55
509.03	411.93
509.20	386.19
509.38	423.64
509.55	437.68
509.73	461.09
509.90	440.02
510.08	402.57
510.25	456.40
510.42	360.44
510.60	454.06
510.77	444.70
510.95	365.12
511.12	440.02
511.30	486.83
511.47	402.57
511.64	423.64
511.82	435.34
511.99	402.57
512.17	351.08
512.34	369.80
512.51	388.53
512.69	449.38
512.86	388.53
513.04	444.70
513.21	397.89
513.38	442.36
513.56	348.74
513.73	421.30
513.90	379.17
514.08	367.46
514.25	463.43
514.43	395.55
514.60	374.49
514.77	379.17
514.95	425.98
515.12	440.02
515.29	402.57
515.47	430.66
515.64	397.89
515.81	463.43
515.99	461.09
516.16	421.30
516.33	435.34
516.51	458.74
516.68	388.53
516.85	416.62
517.03	465.77
517.20	447.04
517.37	421.30
517.54	500.87
517.72	395.55
517.89	353.42
518.06	416.62
518.24	414.27
518.41	381.51
518.58	404.91
518.75	381.51
518.93	393.21
519.10	437.68
519.27	404.91
519.45	353.42
519.62	418.96
519.79	482.15
519.96	454.06
520.14	465.77
520.31	428.32
520.48	437.68
520.65	374.49
520.83	463.43
521.00	425.98
521.17	496.19
521.34	421.30
521.52	395.55
521.69	365.12
521.86	444.70
522.03	397.89
522.20	468.11
522.38	428.32
522.55	360.44
522.72	397.89
522.89	510.24
523.07	447.04
523.24	475.13
523.41	444.70
523.58	409.59
523.75	379.17
523.92	418.96
524.10	486.83
524.27	341.72
524.44	458.74
524.61	397.89
524.78	383.85
524.96	493.85
525.13	416.62
525.30	449.38
525.47	414.27
525.64	505.56
525.81	456.40
525.98	418.96
526.16	444.70
526.33	400.23
526.50	430.66
526.67	423.64
526.84	372.15
527.01	393.21
527.18	486.83
527.36	402.57
527.53	390.87
527.70	421.30
527.87	400.23
528.04	440.02
528.21	372.15
528.38	388.53
528.55	400.23
528.72	440.02
528.89	463.43
529.07	407.25
529.24	435.34
529.41	433.00
529.58	440.02
529.75	337.04
529.92	330.02
530.09	346.40
530.26	491.51
530.43	393.21
530.60	402.57
530.77	430.66
530.94	425.98
531.11	489.17
531.28	430.66
531.46	456.40
531.63	479.81
531.80	468.11
531.97	456.40
532.14	435.34
532.31	404.91
532.48	425.98
532.65	428.32
532.82	400.23
532.99	372.15
533.16	372.15
533.33	428.32
533.50	388.53
533.67	477.47
533.84	395.55
534.01	440.02
534.18	477.47
534.35	458.74
534.52	425.98
534.69	383.85
534.86	376.83
535.03	386.19
535.20	351.08
535.37	409.59
535.54	428.32
535.71	416.62
535.88	489.17
536.05	395.55
536.22	400.23
536.38	430.66
536.55	498.53
536.72	486.83
536.89	393.21
537.06	430.66
537.23	344.06
537.40	379.17
537.57	407.25
537.74	521.94
537.91	411.93
538.08	468.11
538.25	470.45
538.42	414.27
538.59	397.89
538.75	374.49
538.92	379.17
539.09	475.13
539.26	475.13
539.43	388.53
539.60	358.10
539.77	435.34
539.94	379.17
540.11	402.57
540.28	386.19
540.44	400.23
540.61	409.59
540.78	423.64
540.95	372.15
541.12	524.28
541.29	402.57
541.46	468.11
541.62	463.43
541.79	425.98
541.96	435.34
542.13	411.93
542.30	416.62
542.47	416.62
542.63	461.09
542.80	402.57
542.97	447.04
543.14	353.42
543.31	418.96
543.48	440.02
543.64	369.80
543.81	449.38
543.98	376.83
544.15	365.12
544.32	358.10
544.48	423.64
544.65	447.04
544.82	407.25
544.99	421.30
545.16	423.64
545.32	372.15
545.49	454.06
545.66	423.64
545.83	362.78
546.00	444.70
546.16	400.23
546.33	383.85
546.50	451.72
546.67	451.72
546.83	404.91
547.00	414.27
547.17	418.96
547.34	374.49
547.50	430.66
547.67	381.51
547.84	393.21
548.00	440.02
548.17	369.80
548.34	304.27
548.51	416.62
548.67	360.44
548.84	360.44
549.01	423.64
549.18	440.02
549.34	425.98
549.51	379.17
549.68	369.80
549.84	372.15
550.01	402.57
550.18	458.74
550.34	430.66
550.51	416.62
550.68	484.49
550.84	351.08
551.01	444.70
551.18	440.02
551.34	433.00
551.51	341.72
551.68	416.62
551.84	404.91
552.01	381.51
552.18	496.19
552.34	435.34
552.51	421.30
552.68	360.44
552.84	411.93
553.01	456.40
553.18	414.27
553.34	372.15
553.51	393.21
553.67	400.23
553.84	465.77
554.01	421.30
554.17	397.89
554.34	390.87
554.51	428.32
554.67	451.72
554.84	440.02
555.00	383.85
555.17	411.93
555.33	428.32
555.50	442.36
555.67	458.74
555.83	362.78
556.00	447.04
556.16	559.39
556.33	505.56
556.50	437.68
556.66	416.62
556.83	444.70
556.99	437.68
557.16	475.13
557.32	444.70
557.49	437.68
557.65	418.96
557.82	411.93
557.98	463.43
558.15	425.98
558.32	390.87
558.48	430.66
558.65	423.64
558.81	449.38
558.98	344.06
559.14	463.43
559.31	414.27
559.47	493.85
559.64	451.72
559.80	444.70
559.97	390.87
560.13	402.57
560.30	297.25
560.46	416.62
560.63	414.27
560.79	388.53
560.96	339.38
561.12	404.91
561.29	322.99
561.45	372.15
561.61	454.06
561.78	416.62
561.94	465.77
562.11	311.29
562.27	479.81
562.44	390.87
562.60	390.87
562.77	447.04
562.93	489.17
563.10	456.40
563.26	428.32
563.42	397.89
563.59	454.06
563.75	390.87
563.92	418.96
564.08	447.04
564.24	444.70
564.41	383.85
564.57	367.46
564.74	367.46
564.90	425.98
565.07	383.85
565.23	397.89
565.39	477.47
565.56	409.59
565.72	442.36
565.88	442.36
566.05	397.89
566.21	400.23
566.38	496.19
566.54	444.70
566.70	416.62
566.87	404.91
567.03	372.15
567.19	461.09
567.36	444.70
567.52	451.72
567.68	447.04
567.85	386.19
568.01	404.91
568.17	449.38
568.34	416.62
568.50	468.11
568.66	346.40
568.83	442.36
568.99	397.89
569.15	447.04
569.32	386.19
569.48	416.62
569.64	430.66
569.81	451.72
569.97	379.17
570.13	409.59
570.30	390.87
570.46	397.89
570.62	491.51
570.78	409.59
570.95	411.93
571.11	477.47
571.27	390.87
571.43	348.74
571.60	428.32
571.76	437.68
571.92	374.49
572.09	407.25
572.25	418.96
572.41	451.72
572.57	503.22
572.74	451.72
572.90	475.13
573.06	477.47
573.22	468.11
573.38	447.04
573.55	454.06
573.71	397.89
573.87	381.51
574.03	421.30
574.20	458.74
574.36	402.57
574.52	407.25
574.68	423.64
574.84	454.06
575.01	482.15
575.17	423.64
575.33	388.53
575.49	444.70
575.65	435.34
575.82	440.02
575.98	414.27
576.14	400.23
576.30	470.45
576.46	402.57
576.62	435.34
576.79	440.02
576.95	454.06
577.11	393.21
577.27	414.27
577.43	482.15
577.59	404.91
577.75	461.09
577.92	379.17
578.08	433.00
578.24	484.49
578.40	425.98
578.56	433.00
578.72	465.77
578.88	416.62
579.04	512.58
579.21	435.34
579.37	465.77
579.53	348.74
579.69	428.32
579.85	372.15
580.01	400.23
580.17	425.98
580.33	381.51
580.49	414.27
580.65	414.27
580.82	437.68
580.98	430.66
581.14	369.80
581.30	400.23
581.46	463.43
581.62	458.74
581.78	409.59
581.94	500.87
582.10	379.17
582.26	437.68
582.42	379.17
582.58	454.06
582.74	395.55
582.90	430.66
583.06	458.74
583.22	376.83
583.38	526.62
583.54	428.32
583.70	433.00
583.86	472.79
584.02	348.74
584.18	428.32
584.34	437.68
584.50	367.46
584.66	376.83
584.82	374.49
584.98	400.23
585.14	339.38
585.30	461.09
585.46	360.44
585.62	383.85
585.78	444.70
585.94	423.64
586.10	409.59
586.26	472.79
586.42	461.09
586.58	465.77
586.74	418.96
586.90	430.66
587.06	418.96
587.22	430.66
587.38	381.51
587.54	451.72
587.70	440.02
587.86	440.02
588.02	390.87
588.18	475.13
588.34	433.00
588.49	409.59
588.65	421.30
588.81	383.85
588.97	390.87
589.13	411.93
589.29	458.74
589.45	503.22
589.61	425.98
589.77	470.45
589.93	397.89
590.08	421.30
590.24	442.36
590.40	435.34
590.56	514.92
590.72	458.74
590.88	435.34
591.04	393.21
591.20	440.02
591.35	397.89
591.51	341.72
591.67	367.46
591.83	388.53
591.99	425.98
592.15	444.70
592.31	482.15
592.46	444.70
592.62	395.55
592.78	402.57
592.94	388.53
593.10	376.83
593.26	386.19
593.41	386.19
593.57	414.27
593.73	444.70
593.89	444.70
594.05	435.34
594.20	456.40
594.36	430.66
594.52	404.91
594.68	447.04
594.84	383.85
594.99	449.38
595.15	372.15
595.31	421.30
595.47	468.11
595.62	353.42
595.78	433.00
595.94	369.80
596.10	428.32
596.25	477.47
596.41	456.40
596.57	397.89
596.73	365.12
596.88	433.00
597.04	386.19
597.20	440.02
597.36	402.57
597.51	337.04
597.67	402.57
597.83	327.68
597.99	376.83
598.14	409.59
598.30	386.19
598.46	421.30
598.61	468.11
598.77	456.40
598.93	498.53
599.09	425.98
599.24	444.70
599.40	489.17
599.56	411.93
599.71	411.93
599.87	447.04
600.03	402.57
600.18	472.79
600.34	428.32
600.50	393.21
600.65	332.36
600.81	468.11
600.97	397.89
601.12	362.78
601.28	468.11
601.44	374.49
601.59	409.59
601.75	421.30
601.91	397.89
602.06	433.00
602.22	486.83
602.37	409.59
602.53	404.91
602.69	463.43
602.84	400.23
603.00	341.72
603.16	458.74
603.31	447.04
603.47	397.89
603.62	388.53
603.78	416.62
603.94	449.38
604.09	390.87
604.25	454.06
604.40	437.68
604.56	414.27
604.71	381.51
604.87	390.87
605.03	514.92
605.18	418.96
605.34	479.81
605.49	416.62
605.65	458.74
605.80	407.25
605.96	425.98
606.12	456.40
606.27	367.46
606.43	393.21
606.58	461.09
606.74	416.62
606.89	514.92
607.05	409.59
607.20	418.96
607.36	425.98
607.51	425.98
607.67	388.53
607.82	395.55
607.98	416.62
608.13	402.57
608.29	372.15
608.44	416.62
608.60	421.30
608.75	465.77
608.91	369.80
609.06	447.04
609.22	425.98
609.37	454.06
609.53	442.36
609.68	430.66
609.84	372.15
609.99	416.62
610.15	376.83
