SpectraSuite Data File
++++++++++++++++++++++++++++++++++++
Date: Fri Oct 25 12:10:37 EDT 2013
User: price-jones
Dark Spectrum Present: No
Reference Spectrum Present: No
Number of Sampled Component Spectra: 1
Spectrometers: USB2+H05261
Integration Time (usec): 100000 (USB2+H05261)
Spectra Averaged: 1 (USB2+H05261)
Boxcar Smoothing: 0 (USB2+H05261)
Correct for Electrical Dark: No (USB2+H05261)
Strobe/Lamp Enabled: No (USB2+H05261)
Correct for Detector Non-linearity: No (USB2+H05261)
Correct for Stray Light: No (USB2+H05261)
Number of Pixels in Processed Spectrum: 2048
>>>>>Begin Processed Spectral Data<<<<<
365.73	393.21
365.92	393.21
366.12	393.21
366.32	276.18
366.52	212.99
366.72	245.76
366.91	271.50
367.11	189.58
367.31	222.35
367.51	250.44
367.70	259.80
367.90	283.20
368.10	262.14
368.30	255.12
368.49	224.69
368.69	280.86
368.89	273.84
369.09	283.20
369.28	243.42
369.48	248.10
369.68	273.84
369.87	287.89
370.07	306.61
370.27	299.59
370.47	360.44
370.66	278.52
370.86	330.02
371.06	344.06
371.25	351.08
371.45	330.02
371.65	388.53
371.84	355.76
372.04	416.62
372.24	355.76
372.44	383.85
372.63	332.36
372.83	369.80
373.03	433.00
373.22	425.98
373.42	449.38
373.62	409.59
373.81	433.00
374.01	430.66
374.21	421.30
374.40	449.38
374.60	433.00
374.79	362.78
374.99	365.12
375.19	423.64
375.38	409.59
375.58	353.42
375.78	449.38
375.97	386.19
376.17	505.56
376.37	463.43
376.56	463.43
376.76	418.96
376.95	348.74
377.15	418.96
377.35	397.89
377.54	346.40
377.74	421.30
377.93	442.36
378.13	425.98
378.33	418.96
378.52	400.23
378.72	421.30
378.91	458.74
379.11	442.36
379.31	388.53
379.50	397.89
379.70	423.64
379.89	428.32
380.09	337.04
380.28	334.70
380.48	461.09
380.68	421.30
380.87	421.30
381.07	409.59
381.26	418.96
381.46	435.34
381.65	428.32
381.85	479.81
382.04	447.04
382.24	414.27
382.43	433.00
382.63	430.66
382.83	379.17
383.02	402.57
383.22	423.64
383.41	348.74
383.61	376.83
383.80	475.13
384.00	418.96
384.19	447.04
384.39	360.44
384.58	386.19
384.78	411.93
384.97	465.77
385.17	351.08
385.36	390.87
385.56	351.08
385.75	440.02
385.95	433.00
386.14	416.62
386.34	365.12
386.53	416.62
386.72	386.19
386.92	402.57
387.11	402.57
387.31	428.32
387.50	489.17
387.70	423.64
387.89	386.19
388.09	374.49
388.28	430.66
388.48	433.00
388.67	418.96
388.86	423.64
389.06	421.30
389.25	468.11
389.45	428.32
389.64	395.55
389.84	393.21
390.03	383.85
390.22	505.56
390.42	376.83
390.61	397.89
390.81	372.15
391.00	404.91
391.19	395.55
391.39	388.53
391.58	360.44
391.78	425.98
391.97	433.00
392.16	383.85
392.36	428.32
392.55	362.78
392.75	355.76
392.94	409.59
393.13	400.23
393.33	463.43
393.52	416.62
393.71	447.04
393.91	402.57
394.10	400.23
394.29	372.15
394.49	388.53
394.68	418.96
394.88	404.91
395.07	376.83
395.26	374.49
395.46	421.30
395.65	369.80
395.84	395.55
396.04	468.11
396.23	454.06
396.42	327.68
396.62	362.78
396.81	423.64
397.00	341.72
397.19	355.76
397.39	442.36
397.58	475.13
397.77	397.89
397.97	404.91
398.16	381.51
398.35	315.97
398.55	386.19
398.74	353.42
398.93	430.66
399.12	397.89
399.32	358.10
399.51	433.00
399.70	393.21
399.90	447.04
400.09	393.21
400.28	491.51
400.47	346.40
400.67	383.85
400.86	425.98
401.05	411.93
401.24	362.78
401.44	404.91
401.63	421.30
401.82	435.34
402.01	381.51
402.21	353.42
402.40	395.55
402.59	381.51
402.78	451.72
402.97	362.78
403.17	421.30
403.36	433.00
403.55	451.72
403.74	418.96
403.93	451.72
404.13	397.89
404.32	461.09
404.51	369.80
404.70	472.79
404.89	383.85
405.09	367.46
405.28	393.21
405.47	374.49
405.66	390.87
405.85	449.38
406.05	369.80
406.24	393.21
406.43	308.95
406.62	425.98
406.81	404.91
407.00	440.02
407.20	407.25
407.39	411.93
407.58	409.59
407.77	383.85
407.96	397.89
408.15	416.62
408.34	444.70
408.54	388.53
408.73	381.51
408.92	414.27
409.11	442.36
409.30	433.00
409.49	479.81
409.68	386.19
409.87	325.33
410.07	414.27
410.26	395.55
410.45	374.49
410.64	451.72
410.83	482.15
411.02	360.44
411.21	465.77
411.40	430.66
411.59	402.57
411.78	421.30
411.98	379.17
412.17	393.21
412.36	360.44
412.55	358.10
412.74	397.89
412.93	437.68
413.12	390.87
413.31	411.93
413.50	346.40
413.69	411.93
413.88	484.49
414.07	411.93
414.26	435.34
414.45	458.74
414.64	449.38
414.83	416.62
415.02	334.70
415.22	440.02
415.41	397.89
415.60	376.83
415.79	423.64
415.98	404.91
416.17	407.25
416.36	400.23
416.55	339.38
416.74	379.17
416.93	358.10
417.12	327.68
417.31	353.42
417.50	402.57
417.69	470.45
417.88	440.02
418.07	348.74
418.26	425.98
418.45	428.32
418.64	440.02
418.83	376.83
419.02	358.10
419.21	376.83
419.39	435.34
419.58	383.85
419.77	372.15
419.96	425.98
420.15	447.04
420.34	428.32
420.53	435.34
420.72	376.83
420.91	425.98
421.10	376.83
421.29	477.47
421.48	407.25
421.67	397.89
421.86	351.08
422.05	383.85
422.24	411.93
422.43	440.02
422.61	491.51
422.80	428.32
422.99	463.43
423.18	407.25
423.37	423.64
423.56	400.23
423.75	477.47
423.94	379.17
424.13	388.53
424.32	416.62
424.50	425.98
424.69	397.89
424.88	367.46
425.07	454.06
425.26	461.09
425.45	416.62
425.64	397.89
425.83	355.76
426.01	430.66
426.20	437.68
426.39	397.89
426.58	395.55
426.77	454.06
426.96	456.40
427.15	365.12
427.33	400.23
427.52	440.02
427.71	334.70
427.90	433.00
428.09	351.08
428.28	358.10
428.46	379.17
428.65	353.42
428.84	456.40
429.03	393.21
429.22	435.34
429.40	388.53
429.59	435.34
429.78	386.19
429.97	393.21
430.16	414.27
430.34	402.57
430.53	411.93
430.72	330.02
430.91	386.19
431.10	440.02
431.28	472.79
431.47	404.91
431.66	414.27
431.85	428.32
432.03	458.74
432.22	397.89
432.41	461.09
432.60	404.91
432.79	383.85
432.97	353.42
433.16	433.00
433.35	330.02
433.54	454.06
433.72	421.30
433.91	423.64
434.10	393.21
434.28	409.59
434.47	402.57
434.66	390.87
434.85	440.02
435.03	402.57
435.22	421.30
435.41	486.83
435.59	428.32
435.78	498.53
435.97	421.30
436.16	435.34
436.34	437.68
436.53	411.93
436.72	348.74
436.90	444.70
437.09	372.15
437.28	404.91
437.46	407.25
437.65	454.06
437.84	451.72
438.02	369.80
438.21	376.83
438.40	440.02
438.58	451.72
438.77	383.85
438.96	465.77
439.14	388.53
439.33	369.80
439.52	407.25
439.70	470.45
439.89	475.13
440.08	416.62
440.26	353.42
440.45	409.59
440.63	430.66
440.82	461.09
441.01	421.30
441.19	407.25
441.38	428.32
441.57	409.59
441.75	353.42
441.94	421.30
442.12	351.08
442.31	400.23
442.50	383.85
442.68	442.36
442.87	421.30
443.05	367.46
443.24	468.11
443.43	475.13
443.61	472.79
443.80	390.87
443.98	397.89
444.17	330.02
444.35	496.19
444.54	369.80
444.73	400.23
444.91	444.70
445.10	393.21
445.28	463.43
445.47	346.40
445.65	395.55
445.84	348.74
446.02	456.40
446.21	386.19
446.39	444.70
446.58	463.43
446.77	367.46
446.95	470.45
447.14	376.83
447.32	449.38
447.51	421.30
447.69	475.13
447.88	390.87
448.06	449.38
448.25	418.96
448.43	367.46
448.62	411.93
448.80	416.62
448.99	423.64
449.17	411.93
449.36	390.87
449.54	353.42
449.73	416.62
449.91	397.89
450.10	421.30
450.28	425.98
450.46	433.00
450.65	496.19
450.83	468.11
451.02	369.80
451.20	463.43
451.39	416.62
451.57	407.25
451.76	362.78
451.94	381.51
452.13	393.21
452.31	404.91
452.49	358.10
452.68	376.83
452.86	390.87
453.05	407.25
453.23	388.53
453.42	454.06
453.60	388.53
453.78	428.32
453.97	472.79
454.15	381.51
454.34	400.23
454.52	421.30
454.70	411.93
454.89	458.74
455.07	402.57
455.26	372.15
455.44	390.87
455.62	390.87
455.81	404.91
455.99	386.19
456.17	388.53
456.36	451.72
456.54	402.57
456.73	393.21
456.91	381.51
457.09	386.19
457.28	428.32
457.46	365.12
457.64	433.00
457.83	423.64
458.01	400.23
458.19	428.32
458.38	437.68
458.56	430.66
458.74	479.81
458.93	381.51
459.11	496.19
459.29	440.02
459.48	386.19
459.66	421.30
459.84	402.57
460.03	442.36
460.21	482.15
460.39	404.91
460.57	358.10
460.76	372.15
460.94	372.15
461.12	550.03
461.31	454.06
461.49	376.83
461.67	444.70
461.85	414.27
462.04	388.53
462.22	772.38
462.40	433.00
462.59	402.57
462.77	418.96
462.95	402.57
463.13	397.89
463.32	430.66
463.50	433.00
463.68	409.59
463.86	365.12
464.05	365.12
464.23	395.55
464.41	390.87
464.59	379.17
464.78	362.78
464.96	390.87
465.14	442.36
465.32	440.02
465.50	440.02
465.69	358.10
465.87	379.17
466.05	454.06
466.23	416.62
466.41	456.40
466.60	388.53
466.78	430.66
466.96	407.25
467.14	386.19
467.32	433.00
467.51	362.78
467.69	456.40
467.87	437.68
468.05	383.85
468.23	472.79
468.41	397.89
468.60	428.32
468.78	395.55
468.96	435.34
469.14	411.93
469.32	418.96
469.50	388.53
469.69	383.85
469.87	433.00
470.05	411.93
470.23	472.79
470.41	433.00
470.59	409.59
470.77	463.43
470.95	404.91
471.14	465.77
471.32	351.08
471.50	465.77
471.68	433.00
471.86	414.27
472.04	404.91
472.22	407.25
472.40	423.64
472.58	411.93
472.77	409.59
472.95	444.70
473.13	428.32
473.31	425.98
473.49	425.98
473.67	376.83
473.85	468.11
474.03	374.49
474.21	423.64
474.39	477.47
474.57	442.36
474.75	437.68
474.93	423.64
475.12	477.47
475.30	362.78
475.48	334.70
475.66	372.15
475.84	393.21
476.02	404.91
476.20	456.40
476.38	322.99
476.56	503.22
476.74	395.55
476.92	393.21
477.10	447.04
477.28	421.30
477.46	435.34
477.64	416.62
477.82	383.85
478.00	341.72
478.18	355.76
478.36	437.68
478.54	428.32
478.72	395.55
478.90	423.64
479.08	369.80
479.26	430.66
479.44	463.43
479.62	449.38
479.80	346.40
479.98	404.91
480.16	395.55
480.34	414.27
480.52	388.53
480.70	369.80
480.88	437.68
481.06	355.76
481.24	444.70
481.41	388.53
481.59	463.43
481.77	397.89
481.95	341.72
482.13	390.87
482.31	395.55
482.49	461.09
482.67	430.66
482.85	472.79
483.03	381.51
483.21	395.55
483.39	400.23
483.57	416.62
483.74	411.93
483.92	421.30
484.10	407.25
484.28	428.32
484.46	470.45
484.64	388.53
484.82	386.19
485.00	346.40
485.18	372.15
485.35	409.59
485.53	360.44
485.71	437.68
485.89	468.11
486.07	435.34
486.25	496.19
486.43	482.15
486.61	416.62
486.78	428.32
486.96	440.02
487.14	433.00
487.32	381.51
487.50	440.02
487.68	454.06
487.85	397.89
488.03	423.64
488.21	444.70
488.39	388.53
488.57	341.72
488.75	393.21
488.92	533.64
489.10	395.55
489.28	369.80
489.46	409.59
489.64	475.13
489.81	414.27
489.99	397.89
490.17	418.96
490.35	444.70
490.53	395.55
490.70	341.72
490.88	444.70
491.06	435.34
491.24	402.57
491.41	393.21
491.59	411.93
491.77	414.27
491.95	393.21
492.13	358.10
492.30	367.46
492.48	437.68
492.66	416.62
492.84	404.91
493.01	386.19
493.19	470.45
493.37	404.91
493.54	416.62
493.72	437.68
493.90	397.89
494.08	454.06
494.25	367.46
494.43	463.43
494.61	407.25
494.79	386.19
494.96	416.62
495.14	388.53
495.32	407.25
495.49	414.27
495.67	421.30
495.85	463.43
496.02	444.70
496.20	433.00
496.38	496.19
496.55	454.06
496.73	437.68
496.91	425.98
497.09	376.83
497.26	374.49
497.44	423.64
497.62	402.57
497.79	379.17
497.97	479.81
498.14	500.87
498.32	388.53
498.50	379.17
498.67	395.55
498.85	433.00
499.03	416.62
499.20	355.76
499.38	465.77
499.56	414.27
499.73	365.12
499.91	482.15
500.08	348.74
500.26	458.74
500.44	397.89
500.61	332.36
500.79	337.04
500.97	463.43
501.14	437.68
501.32	465.77
501.49	454.06
501.67	381.51
501.84	386.19
502.02	390.87
502.20	440.02
502.37	372.15
502.55	379.17
502.72	454.06
502.90	369.80
503.07	365.12
503.25	376.83
503.43	475.13
503.60	388.53
503.78	418.96
503.95	444.70
504.13	482.15
504.30	451.72
504.48	414.27
504.65	383.85
504.83	444.70
505.01	477.47
505.18	444.70
505.36	362.78
505.53	358.10
505.71	360.44
505.88	447.04
506.06	423.64
506.23	463.43
506.41	449.38
506.58	383.85
506.76	416.62
506.93	437.68
507.11	416.62
507.28	416.62
507.46	381.51
507.63	388.53
507.81	444.70
507.98	435.34
508.16	395.55
508.33	433.00
508.50	407.25
508.68	411.93
508.85	414.27
509.03	346.40
509.20	425.98
509.38	353.42
509.55	465.77
509.73	444.70
509.90	433.00
510.08	372.15
510.25	447.04
510.42	458.74
510.60	414.27
510.77	351.08
510.95	348.74
511.12	418.96
511.30	491.51
511.47	470.45
511.64	465.77
511.82	397.89
511.99	409.59
512.17	456.40
512.34	409.59
512.51	383.85
512.69	416.62
512.86	423.64
513.04	461.09
513.21	414.27
513.38	353.42
513.56	360.44
513.73	400.23
513.90	355.76
514.08	477.47
514.25	351.08
514.43	360.44
514.60	390.87
514.77	433.00
514.95	447.04
515.12	444.70
515.29	402.57
515.47	444.70
515.64	400.23
515.81	348.74
515.99	374.49
516.16	418.96
516.33	433.00
516.51	402.57
516.68	393.21
516.85	374.49
517.03	433.00
517.20	442.36
517.37	365.12
517.54	397.89
517.72	463.43
517.89	407.25
518.06	346.40
518.24	430.66
518.41	407.25
518.58	397.89
518.75	351.08
518.93	411.93
519.10	458.74
519.27	397.89
519.45	365.12
519.62	395.55
519.79	390.87
519.96	430.66
520.14	449.38
520.31	393.21
520.48	440.02
520.65	365.12
520.83	451.72
521.00	484.49
521.17	451.72
521.34	414.27
521.52	435.34
521.69	430.66
521.86	440.02
522.03	367.46
522.20	414.27
522.38	428.32
522.55	393.21
522.72	423.64
522.89	395.55
523.07	465.77
523.24	440.02
523.41	393.21
523.58	386.19
523.75	440.02
523.92	376.83
524.10	447.04
524.27	383.85
524.44	411.93
524.61	456.40
524.78	433.00
524.96	404.91
525.13	381.51
525.30	477.47
525.47	414.27
525.64	393.21
525.81	454.06
525.98	451.72
526.16	470.45
526.33	479.81
526.50	330.02
526.67	425.98
526.84	383.85
527.01	465.77
527.18	442.36
527.36	440.02
527.53	301.93
527.70	461.09
527.87	409.59
528.04	463.43
528.21	388.53
528.38	444.70
528.55	444.70
528.72	414.27
528.89	512.58
529.07	461.09
529.24	444.70
529.41	437.68
529.58	454.06
529.75	383.85
529.92	374.49
530.09	430.66
530.26	414.27
530.43	463.43
530.60	475.13
530.77	489.17
530.94	404.91
531.11	414.27
531.28	440.02
531.46	395.55
531.63	313.63
531.80	400.23
531.97	400.23
532.14	442.36
532.31	482.15
532.48	418.96
532.65	393.21
532.82	451.72
532.99	409.59
533.16	479.81
533.33	454.06
533.50	409.59
533.67	440.02
533.84	425.98
534.01	447.04
534.18	351.08
534.35	414.27
534.52	365.12
534.69	465.77
534.86	409.59
535.03	341.72
535.20	423.64
535.37	367.46
535.54	442.36
535.71	360.44
535.88	472.79
536.05	407.25
536.22	442.36
536.38	402.57
536.55	435.34
536.72	428.32
536.89	442.36
537.06	374.49
537.23	374.49
537.40	451.72
537.57	421.30
537.74	498.53
537.91	430.66
538.08	444.70
538.25	383.85
538.42	386.19
538.59	458.74
538.75	449.38
538.92	430.66
539.09	461.09
539.26	376.83
539.43	430.66
539.60	465.77
539.77	386.19
539.94	388.53
540.11	489.17
540.28	440.02
540.44	421.30
540.61	430.66
540.78	449.38
540.95	418.96
541.12	430.66
541.29	421.30
541.46	461.09
541.62	390.87
541.79	334.70
541.96	400.23
542.13	414.27
542.30	418.96
542.47	433.00
542.63	393.21
542.80	386.19
542.97	372.15
543.14	418.96
543.31	458.74
543.48	433.00
543.64	386.19
543.81	388.53
543.98	365.12
544.15	379.17
544.32	386.19
544.48	400.23
544.65	407.25
544.82	440.02
544.99	444.70
545.16	376.83
545.32	468.11
545.49	451.72
545.66	388.53
545.83	348.74
546.00	397.89
546.16	477.47
546.33	390.87
546.50	472.79
546.67	400.23
546.83	463.43
547.00	425.98
547.17	411.93
547.34	374.49
547.50	397.89
547.67	440.02
547.84	376.83
548.00	421.30
548.17	409.59
548.34	404.91
548.51	428.32
548.67	421.30
548.84	388.53
549.01	449.38
549.18	397.89
549.34	362.78
549.51	416.62
549.68	468.11
549.84	496.19
550.01	400.23
550.18	477.47
550.34	554.71
550.51	491.51
550.68	486.83
550.84	435.34
551.01	458.74
551.18	475.13
551.34	400.23
551.51	421.30
551.68	444.70
551.84	421.30
552.01	362.78
552.18	425.98
552.34	360.44
552.51	411.93
552.68	447.04
552.84	409.59
553.01	482.15
553.18	456.40
553.34	472.79
553.51	367.46
553.67	458.74
553.84	433.00
554.01	447.04
554.17	395.55
554.34	383.85
554.51	428.32
554.67	479.81
554.84	418.96
555.00	411.93
555.17	407.25
555.33	465.77
555.50	418.96
555.67	407.25
555.83	393.21
556.00	332.36
556.16	498.53
556.33	458.74
556.50	360.44
556.66	395.55
556.83	423.64
556.99	372.15
557.16	465.77
557.32	414.27
557.49	414.27
557.65	435.34
557.82	346.40
557.98	430.66
558.15	386.19
558.32	433.00
558.48	430.66
558.65	468.11
558.81	435.34
558.98	428.32
559.14	351.08
559.31	374.49
559.47	423.64
559.64	395.55
559.80	486.83
559.97	540.66
560.13	418.96
560.30	402.57
560.46	383.85
560.63	376.83
560.79	463.43
560.96	411.93
561.12	409.59
561.29	407.25
561.45	475.13
561.61	414.27
561.78	503.22
561.94	414.27
562.11	418.96
562.27	386.19
562.44	463.43
562.60	414.27
562.77	444.70
562.93	447.04
563.10	369.80
563.26	411.93
563.42	437.68
563.59	437.68
563.75	402.57
563.92	430.66
564.08	388.53
564.24	409.59
564.41	472.79
564.57	451.72
564.74	411.93
564.90	395.55
565.07	451.72
565.23	386.19
565.39	444.70
565.56	390.87
565.72	395.55
565.88	379.17
566.05	409.59
566.21	404.91
566.38	437.68
566.54	451.72
566.70	442.36
566.87	472.79
567.03	304.27
567.19	388.53
567.36	341.72
567.52	402.57
567.68	421.30
567.85	451.72
568.01	461.09
568.17	428.32
568.34	458.74
568.50	477.47
568.66	374.49
568.83	451.72
568.99	433.00
569.15	442.36
569.32	395.55
569.48	372.15
569.64	388.53
569.81	360.44
569.97	437.68
570.13	433.00
570.30	421.30
570.46	386.19
570.62	409.59
570.78	433.00
570.95	379.17
571.11	421.30
571.27	437.68
571.43	458.74
571.60	395.55
571.76	414.27
571.92	425.98
572.09	411.93
572.25	402.57
572.41	428.32
572.57	411.93
572.74	472.79
572.90	428.32
573.06	428.32
573.22	383.85
573.38	447.04
573.55	447.04
573.71	484.49
573.87	365.12
574.03	477.47
574.20	456.40
574.36	458.74
574.52	437.68
574.68	414.27
574.84	383.85
575.01	425.98
575.17	397.89
575.33	409.59
575.49	437.68
575.65	362.78
575.82	411.93
575.98	440.02
576.14	395.55
576.30	418.96
576.46	409.59
576.62	423.64
576.79	393.21
576.95	444.70
577.11	395.55
577.27	351.08
577.43	402.57
577.59	514.92
577.75	442.36
577.92	353.42
578.08	433.00
578.24	461.09
578.40	358.10
578.56	358.10
578.72	470.45
578.88	362.78
579.04	425.98
579.21	435.34
579.37	395.55
579.53	421.30
579.69	486.83
579.85	353.42
580.01	346.40
580.17	423.64
580.33	416.62
580.49	393.21
580.65	400.23
580.82	388.53
580.98	430.66
581.14	374.49
581.30	418.96
581.46	365.12
581.62	442.36
581.78	479.81
581.94	472.79
582.10	423.64
582.26	411.93
582.42	400.23
582.58	461.09
582.74	404.91
582.90	442.36
583.06	430.66
583.22	447.04
583.38	393.21
583.54	416.62
583.70	423.64
583.86	421.30
584.02	437.68
584.18	374.49
584.34	341.72
584.50	472.79
584.66	444.70
584.82	330.02
584.98	425.98
585.14	447.04
585.30	400.23
585.46	421.30
585.62	449.38
585.78	430.66
585.94	454.06
586.10	463.43
586.26	444.70
586.42	348.74
586.58	388.53
586.74	416.62
586.90	430.66
587.06	372.15
587.22	407.25
587.38	411.93
587.54	507.90
587.70	383.85
587.86	507.90
588.02	353.42
588.18	409.59
588.34	369.80
588.49	348.74
588.65	465.77
588.81	395.55
588.97	360.44
589.13	416.62
589.29	440.02
589.45	437.68
589.61	409.59
589.77	404.91
589.93	437.68
590.08	390.87
590.24	379.17
590.40	376.83
590.56	414.27
590.72	442.36
590.88	430.66
591.04	440.02
591.20	447.04
591.35	461.09
591.51	470.45
591.67	404.91
591.83	400.23
591.99	472.79
592.15	496.19
592.31	383.85
592.46	409.59
592.62	409.59
592.78	458.74
592.94	390.87
593.10	472.79
593.26	383.85
593.41	505.56
593.57	404.91
593.73	430.66
593.89	425.98
594.05	440.02
594.20	386.19
594.36	355.76
594.52	402.57
594.68	386.19
594.84	428.32
594.99	423.64
595.15	395.55
595.31	489.17
595.47	430.66
595.62	409.59
595.78	372.15
595.94	411.93
596.10	409.59
596.25	388.53
596.41	402.57
596.57	346.40
596.73	423.64
596.88	451.72
597.04	390.87
597.20	393.21
597.36	351.08
597.51	496.19
597.67	421.30
597.83	442.36
597.99	468.11
598.14	402.57
598.30	433.00
598.46	411.93
598.61	414.27
598.77	465.77
598.93	346.40
599.09	461.09
599.24	461.09
599.40	454.06
599.56	404.91
599.71	379.17
599.87	360.44
600.03	430.66
600.18	395.55
600.34	447.04
600.50	414.27
600.65	402.57
600.81	388.53
600.97	369.80
601.12	503.22
601.28	407.25
601.44	346.40
601.59	409.59
601.75	444.70
601.91	421.30
602.06	461.09
602.22	477.47
602.37	397.89
602.53	414.27
602.69	458.74
602.84	372.15
603.00	440.02
603.16	491.51
603.31	428.32
603.47	421.30
603.62	374.49
603.78	472.79
603.94	383.85
604.09	353.42
604.25	414.27
604.40	411.93
604.56	447.04
604.71	449.38
604.87	416.62
605.03	449.38
605.18	369.80
605.34	418.96
605.49	428.32
605.65	407.25
605.80	365.12
605.96	322.99
606.12	372.15
606.27	346.40
606.43	456.40
606.58	444.70
606.74	376.83
606.89	461.09
607.05	374.49
607.20	379.17
607.36	367.46
607.51	414.27
607.67	416.62
607.82	409.59
607.98	444.70
608.13	442.36
608.29	470.45
608.44	393.21
608.60	397.89
608.75	423.64
608.91	409.59
609.06	416.62
609.22	470.45
609.37	484.49
609.53	362.78
609.68	458.74
609.84	437.68
609.99	421.30
610.15	397.89
