SpectraSuite Data File
++++++++++++++++++++++++++++++++++++
Date: Fri Oct 25 12:11:07 EDT 2013
User: price-jones
Dark Spectrum Present: No
Reference Spectrum Present: No
Number of Sampled Component Spectra: 1
Spectrometers: USB2+H05261
Integration Time (usec): 100000 (USB2+H05261)
Spectra Averaged: 1 (USB2+H05261)
Boxcar Smoothing: 0 (USB2+H05261)
Correct for Electrical Dark: No (USB2+H05261)
Strobe/Lamp Enabled: No (USB2+H05261)
Correct for Detector Non-linearity: No (USB2+H05261)
Correct for Stray Light: No (USB2+H05261)
Number of Pixels in Processed Spectrum: 2048
>>>>>Begin Processed Spectral Data<<<<<
365.73	407.25
365.92	407.25
366.12	407.25
366.32	238.73
366.52	231.71
366.72	205.97
366.91	222.35
367.11	315.97
367.31	182.56
367.51	187.24
367.70	238.73
367.90	241.08
368.10	241.08
368.30	276.18
368.49	234.05
368.69	248.10
368.89	194.26
369.09	271.50
369.28	304.27
369.48	255.12
369.68	311.29
369.87	257.46
370.07	276.18
370.27	344.06
370.47	339.38
370.66	337.04
370.86	400.23
371.06	327.68
371.25	411.93
371.45	433.00
371.65	407.25
371.84	451.72
372.04	308.95
372.24	379.17
372.44	313.63
372.63	372.15
372.83	433.00
373.03	435.34
373.22	358.10
373.42	468.11
373.62	468.11
373.81	411.93
374.01	449.38
374.21	503.22
374.40	414.27
374.60	461.09
374.79	383.85
374.99	397.89
375.19	440.02
375.38	519.60
375.58	437.68
375.78	365.12
375.97	519.60
376.17	421.30
376.37	416.62
376.56	397.89
376.76	369.80
376.95	521.94
377.15	463.43
377.35	533.64
377.54	477.47
377.74	407.25
377.93	339.38
378.13	447.04
378.33	395.55
378.52	388.53
378.72	451.72
378.91	428.32
379.11	442.36
379.31	379.17
379.50	404.91
379.70	416.62
379.89	409.59
380.09	395.55
380.28	437.68
380.48	409.59
380.68	393.21
380.87	351.08
381.07	374.49
381.26	409.59
381.46	402.57
381.65	404.91
381.85	292.57
382.04	409.59
382.24	390.87
382.43	454.06
382.63	416.62
382.83	369.80
383.02	491.51
383.22	447.04
383.41	421.30
383.61	449.38
383.80	416.62
384.00	440.02
384.19	421.30
384.39	416.62
384.58	437.68
384.78	374.49
384.97	367.46
385.17	351.08
385.36	358.10
385.56	383.85
385.75	402.57
385.95	411.93
386.14	388.53
386.34	379.17
386.53	472.79
386.72	479.81
386.92	383.85
387.11	451.72
387.31	390.87
387.50	407.25
387.70	372.15
387.89	367.46
388.09	386.19
388.28	369.80
388.48	372.15
388.67	465.77
388.86	395.55
389.06	425.98
389.25	470.45
389.45	397.89
389.64	390.87
389.84	472.79
390.03	414.27
390.22	416.62
390.42	383.85
390.61	397.89
390.81	430.66
391.00	372.15
391.19	456.40
391.39	444.70
391.58	433.00
391.78	451.72
391.97	327.68
392.16	369.80
392.36	421.30
392.55	435.34
392.75	423.64
392.94	379.17
393.13	411.93
393.33	369.80
393.52	437.68
393.71	465.77
393.91	397.89
394.10	362.78
394.29	381.51
394.49	383.85
394.68	449.38
394.88	411.93
395.07	458.74
395.26	374.49
395.46	388.53
395.65	386.19
395.84	430.66
396.04	456.40
396.23	397.89
396.42	444.70
396.62	383.85
396.81	400.23
397.00	388.53
397.19	404.91
397.39	418.96
397.58	372.15
397.77	440.02
397.97	416.62
398.16	449.38
398.35	339.38
398.55	458.74
398.74	425.98
398.93	444.70
399.12	381.51
399.32	402.57
399.51	411.93
399.70	456.40
399.90	341.72
400.09	435.34
400.28	404.91
400.47	383.85
400.67	409.59
400.86	367.46
401.05	435.34
401.24	395.55
401.44	442.36
401.63	393.21
401.82	372.15
402.01	397.89
402.21	404.91
402.40	428.32
402.59	404.91
402.78	362.78
402.97	395.55
403.17	388.53
403.36	379.17
403.55	442.36
403.74	440.02
403.93	484.49
404.13	425.98
404.32	496.19
404.51	421.30
404.70	447.04
404.89	458.74
405.09	461.09
405.28	430.66
405.47	451.72
405.66	447.04
405.85	458.74
406.05	435.34
406.24	433.00
406.43	390.87
406.62	404.91
406.81	428.32
407.00	416.62
407.20	411.93
407.39	355.76
407.58	388.53
407.77	395.55
407.96	451.72
408.15	402.57
408.34	400.23
408.54	346.40
408.73	437.68
408.92	433.00
409.11	440.02
409.30	425.98
409.49	318.31
409.68	414.27
409.87	386.19
410.07	437.68
410.26	437.68
410.45	430.66
410.64	393.21
410.83	339.38
411.02	428.32
411.21	327.68
411.40	454.06
411.59	390.87
411.78	454.06
411.98	407.25
412.17	372.15
412.36	390.87
412.55	449.38
412.74	404.91
412.93	367.46
413.12	337.04
413.31	440.02
413.50	451.72
413.69	362.78
413.88	395.55
414.07	360.44
414.26	407.25
414.45	407.25
414.64	458.74
414.83	454.06
415.02	517.26
415.22	418.96
415.41	437.68
415.60	390.87
415.79	409.59
415.98	386.19
416.17	425.98
416.36	414.27
416.55	400.23
416.74	440.02
416.93	433.00
417.12	411.93
417.31	454.06
417.50	454.06
417.69	383.85
417.88	425.98
418.07	435.34
418.26	447.04
418.45	411.93
418.64	414.27
418.83	479.81
419.02	444.70
419.21	360.44
419.39	433.00
419.58	351.08
419.77	369.80
419.96	369.80
420.15	400.23
420.34	388.53
420.53	421.30
420.72	428.32
420.91	358.10
421.10	395.55
421.29	444.70
421.48	395.55
421.67	381.51
421.86	353.42
422.05	475.13
422.24	484.49
422.43	386.19
422.61	482.15
422.80	407.25
422.99	402.57
423.18	365.12
423.37	423.64
423.56	437.68
423.75	418.96
423.94	351.08
424.13	360.44
424.32	404.91
424.50	390.87
424.69	433.00
424.88	451.72
425.07	407.25
425.26	409.59
425.45	503.22
425.64	421.30
425.83	386.19
426.01	376.83
426.20	409.59
426.39	451.72
426.58	435.34
426.77	470.45
426.96	379.17
427.15	421.30
427.33	402.57
427.52	388.53
427.71	388.53
427.90	451.72
428.09	416.62
428.28	435.34
428.46	386.19
428.65	440.02
428.84	414.27
429.03	430.66
429.22	334.70
429.40	414.27
429.59	444.70
429.78	425.98
429.97	386.19
430.16	341.72
430.34	376.83
430.53	411.93
430.72	414.27
430.91	437.68
431.10	351.08
431.28	348.74
431.47	451.72
431.66	428.32
431.85	423.64
432.03	379.17
432.22	449.38
432.41	416.62
432.60	444.70
432.79	348.74
432.97	365.12
433.16	402.57
433.35	351.08
433.54	395.55
433.72	353.42
433.91	421.30
434.10	334.70
434.28	411.93
434.47	376.83
434.66	402.57
434.85	297.25
435.03	437.68
435.22	416.62
435.41	479.81
435.59	374.49
435.78	428.32
435.97	414.27
436.16	423.64
436.34	362.78
436.53	397.89
436.72	414.27
436.90	463.43
437.09	454.06
437.28	458.74
437.46	477.47
437.65	442.36
437.84	367.46
438.02	386.19
438.21	440.02
438.40	353.42
438.58	393.21
438.77	449.38
438.96	358.10
439.14	367.46
439.33	463.43
439.52	320.65
439.70	423.64
439.89	465.77
440.08	463.43
440.26	409.59
440.45	454.06
440.63	409.59
440.82	341.72
441.01	470.45
441.19	416.62
441.38	496.19
441.57	404.91
441.75	477.47
441.94	390.87
442.12	367.46
442.31	418.96
442.50	390.87
442.68	442.36
442.87	367.46
443.05	358.10
443.24	360.44
443.43	416.62
443.61	454.06
443.80	362.78
443.98	484.49
444.17	376.83
444.35	362.78
444.54	355.76
444.73	435.34
444.91	411.93
445.10	360.44
445.28	421.30
445.47	418.96
445.65	397.89
445.84	418.96
446.02	463.43
446.21	404.91
446.39	402.57
446.58	447.04
446.77	435.34
446.95	435.34
447.14	404.91
447.32	437.68
447.51	383.85
447.69	454.06
447.88	484.49
448.06	505.56
448.25	416.62
448.43	400.23
448.62	395.55
448.80	430.66
448.99	451.72
449.17	411.93
449.36	402.57
449.54	442.36
449.73	402.57
449.91	360.44
450.10	381.51
450.28	409.59
450.46	421.30
450.65	393.21
450.83	362.78
451.02	437.68
451.20	428.32
451.39	402.57
451.57	465.77
451.76	421.30
451.94	390.87
452.13	463.43
452.31	369.80
452.49	500.87
452.68	379.17
452.86	409.59
453.05	442.36
453.23	306.61
453.42	386.19
453.60	447.04
453.78	360.44
453.97	409.59
454.15	395.55
454.34	435.34
454.52	458.74
454.70	451.72
454.89	500.87
455.07	374.49
455.26	416.62
455.44	430.66
455.62	472.79
455.81	430.66
455.99	418.96
456.17	421.30
456.36	402.57
456.54	444.70
456.73	376.83
456.91	418.96
457.09	477.47
457.28	433.00
457.46	369.80
457.64	414.27
457.83	395.55
458.01	477.47
458.19	472.79
458.38	512.58
458.56	425.98
458.74	440.02
458.93	411.93
459.11	416.62
459.29	390.87
459.48	444.70
459.66	512.58
459.84	404.91
460.03	482.15
460.21	465.77
460.39	470.45
460.57	465.77
460.76	440.02
460.94	475.13
461.12	425.98
461.31	475.13
461.49	442.36
461.67	388.53
461.85	461.09
462.04	425.98
462.22	870.68
462.40	414.27
462.59	451.72
462.77	407.25
462.95	367.46
463.13	411.93
463.32	428.32
463.50	423.64
463.68	428.32
463.86	428.32
464.05	435.34
464.23	491.51
464.41	411.93
464.59	414.27
464.78	388.53
464.96	390.87
465.14	367.46
465.32	451.72
465.50	404.91
465.69	388.53
465.87	400.23
466.05	409.59
466.23	430.66
466.41	449.38
466.60	390.87
466.78	482.15
466.96	454.06
467.14	397.89
467.32	428.32
467.51	411.93
467.69	353.42
467.87	454.06
468.05	425.98
468.23	433.00
468.41	437.68
468.60	444.70
468.78	414.27
468.96	425.98
469.14	409.59
469.32	477.47
469.50	428.32
469.69	437.68
469.87	397.89
470.05	416.62
470.23	397.89
470.41	376.83
470.59	440.02
470.77	367.46
470.95	367.46
471.14	374.49
471.32	484.49
471.50	440.02
471.68	500.87
471.86	435.34
472.04	390.87
472.22	365.12
472.40	358.10
472.58	454.06
472.77	393.21
472.95	358.10
473.13	404.91
473.31	451.72
473.49	381.51
473.67	404.91
473.85	491.51
474.03	423.64
474.21	435.34
474.39	437.68
474.57	489.17
474.75	479.81
474.93	390.87
475.12	407.25
475.30	442.36
475.48	402.57
475.66	503.22
475.84	353.42
476.02	430.66
476.20	465.77
476.38	437.68
476.56	433.00
476.74	447.04
476.92	409.59
477.10	414.27
477.28	465.77
477.46	365.12
477.64	379.17
477.82	425.98
478.00	383.85
478.18	416.62
478.36	482.15
478.54	358.10
478.72	395.55
478.90	409.59
479.08	418.96
479.26	400.23
479.44	348.74
479.62	407.25
479.80	376.83
479.98	421.30
480.16	388.53
480.34	409.59
480.52	414.27
480.70	486.83
480.88	355.76
481.06	421.30
481.24	395.55
481.41	355.76
481.59	381.51
481.77	390.87
481.95	402.57
482.13	407.25
482.31	393.21
482.49	433.00
482.67	433.00
482.85	362.78
483.03	456.40
483.21	458.74
483.39	393.21
483.57	407.25
483.74	475.13
483.92	400.23
484.10	393.21
484.28	430.66
484.46	430.66
484.64	465.77
484.82	428.32
485.00	409.59
485.18	430.66
485.35	472.79
485.53	423.64
485.71	510.24
485.89	437.68
486.07	449.38
486.25	510.24
486.43	414.27
486.61	409.59
486.78	404.91
486.96	344.06
487.14	437.68
487.32	365.12
487.50	468.11
487.68	451.72
487.85	409.59
488.03	444.70
488.21	395.55
488.39	451.72
488.57	428.32
488.75	418.96
488.92	528.96
489.10	435.34
489.28	475.13
489.46	367.46
489.64	339.38
489.81	383.85
489.99	433.00
490.17	465.77
490.35	360.44
490.53	416.62
490.70	456.40
490.88	500.87
491.06	409.59
491.24	435.34
491.41	430.66
491.59	491.51
491.77	428.32
491.95	383.85
492.13	325.33
492.30	425.98
492.48	388.53
492.66	358.10
492.84	337.04
493.01	409.59
493.19	421.30
493.37	411.93
493.54	449.38
493.72	456.40
493.90	421.30
494.08	367.46
494.25	388.53
494.43	402.57
494.61	388.53
494.79	362.78
494.96	400.23
495.14	442.36
495.32	402.57
495.49	409.59
495.67	437.68
495.85	386.19
496.02	374.49
496.20	496.19
496.38	454.06
496.55	346.40
496.73	437.68
496.91	358.10
497.09	447.04
497.26	449.38
497.44	418.96
497.62	365.12
497.79	381.51
497.97	461.09
498.14	421.30
498.32	433.00
498.50	348.74
498.67	477.47
498.85	409.59
499.03	365.12
499.20	423.64
499.38	369.80
499.56	379.17
499.73	430.66
499.91	484.49
500.08	435.34
500.26	456.40
500.44	381.51
500.61	463.43
500.79	486.83
500.97	451.72
501.14	430.66
501.32	393.21
501.49	472.79
501.67	428.32
501.84	379.17
502.02	393.21
502.20	411.93
502.37	425.98
502.55	437.68
502.72	409.59
502.90	428.32
503.07	416.62
503.25	411.93
503.43	414.27
503.60	372.15
503.78	404.91
503.95	430.66
504.13	416.62
504.30	390.87
504.48	416.62
504.65	444.70
504.83	491.51
505.01	353.42
505.18	386.19
505.36	409.59
505.53	421.30
505.71	332.36
505.88	425.98
506.06	395.55
506.23	379.17
506.41	365.12
506.58	414.27
506.76	355.76
506.93	458.74
507.11	433.00
507.28	435.34
507.46	409.59
507.63	435.34
507.81	449.38
507.98	390.87
508.16	388.53
508.33	416.62
508.50	397.89
508.68	322.99
508.85	416.62
509.03	365.12
509.20	416.62
509.38	395.55
509.55	423.64
509.73	433.00
509.90	482.15
510.08	435.34
510.25	381.51
510.42	383.85
510.60	423.64
510.77	451.72
510.95	437.68
511.12	428.32
511.30	561.73
511.47	416.62
511.64	430.66
511.82	463.43
511.99	435.34
512.17	472.79
512.34	493.85
512.51	400.23
512.69	430.66
512.86	484.49
513.04	365.12
513.21	404.91
513.38	362.78
513.56	393.21
513.73	372.15
513.90	440.02
514.08	409.59
514.25	503.22
514.43	444.70
514.60	449.38
514.77	425.98
514.95	367.46
515.12	411.93
515.29	374.49
515.47	337.04
515.64	435.34
515.81	402.57
515.99	423.64
516.16	449.38
516.33	402.57
516.51	414.27
516.68	433.00
516.85	449.38
517.03	437.68
517.20	407.25
517.37	344.06
517.54	423.64
517.72	407.25
517.89	372.15
518.06	365.12
518.24	470.45
518.41	521.94
518.58	440.02
518.75	444.70
518.93	435.34
519.10	411.93
519.27	334.70
519.45	418.96
519.62	397.89
519.79	430.66
519.96	409.59
520.14	440.02
520.31	416.62
520.48	472.79
520.65	402.57
520.83	409.59
521.00	468.11
521.17	402.57
521.34	421.30
521.52	428.32
521.69	388.53
521.86	367.46
522.03	465.77
522.20	449.38
522.38	437.68
522.55	360.44
522.72	444.70
522.89	379.17
523.07	416.62
523.24	407.25
523.41	411.93
523.58	428.32
523.75	447.04
523.92	400.23
524.10	430.66
524.27	461.09
524.44	358.10
524.61	482.15
524.78	381.51
524.96	430.66
525.13	386.19
525.30	400.23
525.47	425.98
525.64	428.32
525.81	458.74
525.98	407.25
526.16	407.25
526.33	386.19
526.50	379.17
526.67	454.06
526.84	416.62
527.01	374.49
527.18	411.93
527.36	411.93
527.53	402.57
527.70	465.77
527.87	449.38
528.04	500.87
528.21	409.59
528.38	372.15
528.55	496.19
528.72	440.02
528.89	395.55
529.07	358.10
529.24	421.30
529.41	442.36
529.58	496.19
529.75	393.21
529.92	395.55
530.09	484.49
530.26	430.66
530.43	433.00
530.60	379.17
530.77	442.36
530.94	411.93
531.11	449.38
531.28	451.72
531.46	402.57
531.63	409.59
531.80	425.98
531.97	353.42
532.14	407.25
532.31	402.57
532.48	346.40
532.65	365.12
532.82	376.83
532.99	353.42
533.16	407.25
533.33	402.57
533.50	379.17
533.67	430.66
533.84	395.55
534.01	376.83
534.18	367.46
534.35	337.04
534.52	360.44
534.69	428.32
534.86	430.66
535.03	327.68
535.20	414.27
535.37	468.11
535.54	440.02
535.71	404.91
535.88	386.19
536.05	475.13
536.22	435.34
536.38	414.27
536.55	421.30
536.72	369.80
536.89	404.91
537.06	381.51
537.23	430.66
537.40	367.46
537.57	402.57
537.74	428.32
537.91	388.53
538.08	395.55
538.25	463.43
538.42	423.64
538.59	379.17
538.75	365.12
538.92	442.36
539.09	409.59
539.26	397.89
539.43	440.02
539.60	376.83
539.77	451.72
539.94	458.74
540.11	411.93
540.28	477.47
540.44	433.00
540.61	463.43
540.78	393.21
540.95	409.59
541.12	423.64
541.29	404.91
541.46	479.81
541.62	374.49
541.79	374.49
541.96	383.85
542.13	423.64
542.30	311.29
542.47	395.55
542.63	386.19
542.80	437.68
542.97	400.23
543.14	355.76
543.31	465.77
543.48	461.09
543.64	437.68
543.81	362.78
543.98	353.42
544.15	463.43
544.32	337.04
544.48	414.27
544.65	400.23
544.82	376.83
544.99	404.91
545.16	470.45
545.32	395.55
545.49	386.19
545.66	379.17
545.83	383.85
546.00	400.23
546.16	360.44
546.33	346.40
546.50	416.62
546.67	423.64
546.83	414.27
547.00	395.55
547.17	404.91
547.34	381.51
547.50	341.72
547.67	407.25
547.84	407.25
548.00	400.23
548.17	365.12
548.34	388.53
548.51	442.36
548.67	425.98
548.84	442.36
549.01	435.34
549.18	503.22
549.34	428.32
549.51	484.49
549.68	437.68
549.84	393.21
550.01	451.72
550.18	475.13
550.34	475.13
550.51	390.87
550.68	482.15
550.84	416.62
551.01	437.68
551.18	390.87
551.34	482.15
551.51	475.13
551.68	444.70
551.84	428.32
552.01	402.57
552.18	411.93
552.34	414.27
552.51	430.66
552.68	404.91
552.84	397.89
553.01	465.77
553.18	468.11
553.34	409.59
553.51	435.34
553.67	510.24
553.84	472.79
554.01	369.80
554.17	470.45
554.34	400.23
554.51	479.81
554.67	402.57
554.84	428.32
555.00	428.32
555.17	496.19
555.33	447.04
555.50	362.78
555.67	454.06
555.83	409.59
556.00	393.21
556.16	568.75
556.33	421.30
556.50	395.55
556.66	449.38
556.83	465.77
556.99	395.55
557.16	496.19
557.32	437.68
557.49	409.59
557.65	451.72
557.82	477.47
557.98	411.93
558.15	425.98
558.32	414.27
558.48	433.00
558.65	362.78
558.81	414.27
558.98	374.49
559.14	440.02
559.31	423.64
559.47	362.78
559.64	360.44
559.80	440.02
559.97	423.64
560.13	428.32
560.30	395.55
560.46	447.04
560.63	463.43
560.79	393.21
560.96	388.53
561.12	444.70
561.29	407.25
561.45	442.36
561.61	491.51
561.78	430.66
561.94	433.00
562.11	418.96
562.27	411.93
562.44	468.11
562.60	362.78
562.77	390.87
562.93	470.45
563.10	461.09
563.26	465.77
563.42	404.91
563.59	470.45
563.75	369.80
563.92	402.57
564.08	416.62
564.24	390.87
564.41	503.22
564.57	414.27
564.74	376.83
564.90	374.49
565.07	409.59
565.23	402.57
565.39	449.38
565.56	383.85
565.72	339.38
565.88	395.55
566.05	383.85
566.21	395.55
566.38	493.85
566.54	423.64
566.70	400.23
566.87	416.62
567.03	348.74
567.19	388.53
567.36	458.74
567.52	465.77
567.68	337.04
567.85	428.32
568.01	395.55
568.17	388.53
568.34	418.96
568.50	496.19
568.66	425.98
568.83	433.00
568.99	465.77
569.15	376.83
569.32	451.72
569.48	461.09
569.64	442.36
569.81	512.58
569.97	348.74
570.13	390.87
570.30	468.11
570.46	458.74
570.62	418.96
570.78	379.17
570.95	388.53
571.11	465.77
571.27	437.68
571.43	430.66
571.60	334.70
571.76	393.21
571.92	430.66
572.09	425.98
572.25	447.04
572.41	379.17
572.57	381.51
572.74	454.06
572.90	395.55
573.06	440.02
573.22	465.77
573.38	470.45
573.55	386.19
573.71	425.98
573.87	526.62
574.03	411.93
574.20	433.00
574.36	414.27
574.52	337.04
574.68	449.38
574.84	463.43
575.01	435.34
575.17	433.00
575.33	416.62
575.49	407.25
575.65	381.51
575.82	393.21
575.98	421.30
576.14	369.80
576.30	416.62
576.46	386.19
576.62	442.36
576.79	376.83
576.95	447.04
577.11	390.87
577.27	400.23
577.43	435.34
577.59	461.09
577.75	407.25
577.92	454.06
578.08	402.57
578.24	409.59
578.40	447.04
578.56	440.02
578.72	428.32
578.88	421.30
579.04	409.59
579.21	458.74
579.37	461.09
579.53	447.04
579.69	414.27
579.85	425.98
580.01	554.71
580.17	414.27
580.33	442.36
580.49	440.02
580.65	414.27
580.82	430.66
580.98	388.53
581.14	428.32
581.30	425.98
581.46	444.70
581.62	409.59
581.78	456.40
581.94	433.00
582.10	468.11
582.26	447.04
582.42	451.72
582.58	486.83
582.74	505.56
582.90	454.06
583.06	409.59
583.22	390.87
583.38	367.46
583.54	362.78
583.70	477.47
583.86	468.11
584.02	418.96
584.18	388.53
584.34	379.17
584.50	381.51
584.66	430.66
584.82	428.32
584.98	416.62
585.14	407.25
585.30	447.04
585.46	409.59
585.62	428.32
585.78	390.87
585.94	421.30
586.10	379.17
586.26	381.51
586.42	454.06
586.58	435.34
586.74	416.62
586.90	407.25
587.06	475.13
587.22	337.04
587.38	402.57
587.54	393.21
587.70	421.30
587.86	423.64
588.02	351.08
588.18	407.25
588.34	416.62
588.49	388.53
588.65	433.00
588.81	409.59
588.97	322.99
589.13	440.02
589.29	428.32
589.45	482.15
589.61	395.55
589.77	390.87
589.93	402.57
590.08	425.98
590.24	379.17
590.40	322.99
590.56	407.25
590.72	482.15
590.88	334.70
591.04	407.25
591.20	414.27
591.35	390.87
591.51	395.55
591.67	379.17
591.83	428.32
591.99	444.70
592.15	402.57
592.31	484.49
592.46	402.57
592.62	397.89
592.78	468.11
592.94	327.68
593.10	489.17
593.26	388.53
593.41	456.40
593.57	404.91
593.73	437.68
593.89	514.92
594.05	442.36
594.20	341.72
594.36	479.81
594.52	372.15
594.68	404.91
594.84	456.40
594.99	383.85
595.15	428.32
595.31	416.62
595.47	365.12
595.62	416.62
595.78	437.68
595.94	416.62
596.10	395.55
596.25	477.47
596.41	458.74
596.57	430.66
596.73	468.11
596.88	423.64
597.04	383.85
597.20	433.00
597.36	355.76
597.51	517.26
597.67	372.15
597.83	393.21
597.99	472.79
598.14	447.04
598.30	414.27
598.46	388.53
598.61	402.57
598.77	409.59
598.93	402.57
599.09	393.21
599.24	423.64
599.40	411.93
599.56	444.70
599.71	421.30
599.87	409.59
600.03	351.08
600.18	456.40
600.34	423.64
600.50	472.79
600.65	437.68
600.81	486.83
600.97	414.27
601.12	421.30
601.28	440.02
601.44	407.25
601.59	379.17
601.75	365.12
601.91	390.87
602.06	428.32
602.22	491.51
602.37	468.11
602.53	397.89
602.69	395.55
602.84	454.06
603.00	360.44
603.16	465.77
603.31	463.43
603.47	376.83
603.62	388.53
603.78	409.59
603.94	421.30
604.09	404.91
604.25	421.30
604.40	404.91
604.56	444.70
604.71	465.77
604.87	393.21
605.03	409.59
605.18	397.89
605.34	444.70
605.49	514.92
605.65	395.55
605.80	381.51
605.96	355.76
606.12	416.62
606.27	444.70
606.43	456.40
606.58	489.17
606.74	505.56
606.89	388.53
607.05	395.55
607.20	430.66
607.36	437.68
607.51	409.59
607.67	341.72
607.82	402.57
607.98	428.32
608.13	360.44
608.29	374.49
608.44	386.19
608.60	435.34
608.75	505.56
608.91	465.77
609.06	433.00
609.22	404.91
609.37	463.43
609.53	472.79
609.68	463.43
609.84	341.72
609.99	383.85
610.15	430.66
