SpectraSuite Data File
++++++++++++++++++++++++++++++++++++
Date: Fri Oct 25 12:10:17 EDT 2013
User: price-jones
Dark Spectrum Present: No
Reference Spectrum Present: No
Number of Sampled Component Spectra: 1
Spectrometers: USB2+H05261
Integration Time (usec): 100000 (USB2+H05261)
Spectra Averaged: 1 (USB2+H05261)
Boxcar Smoothing: 0 (USB2+H05261)
Correct for Electrical Dark: No (USB2+H05261)
Strobe/Lamp Enabled: No (USB2+H05261)
Correct for Detector Non-linearity: No (USB2+H05261)
Correct for Stray Light: No (USB2+H05261)
Number of Pixels in Processed Spectrum: 2048
>>>>>Begin Processed Spectral Data<<<<<
365.73	358.10
365.92	358.10
366.12	358.10
366.32	243.42
366.52	241.08
366.72	266.82
366.91	203.63
367.11	283.20
367.31	234.05
367.51	220.01
367.70	212.99
367.90	271.50
368.10	175.54
368.30	243.42
368.49	234.05
368.69	308.95
368.89	290.23
369.09	229.37
369.28	276.18
369.48	250.44
369.68	266.82
369.87	257.46
370.07	341.72
370.27	374.49
370.47	367.46
370.66	313.63
370.86	344.06
371.06	425.98
371.25	362.78
371.45	358.10
371.65	355.76
371.84	330.02
372.04	306.61
372.24	390.87
372.44	407.25
372.63	442.36
372.83	390.87
373.03	383.85
373.22	337.04
373.42	376.83
373.62	428.32
373.81	449.38
374.01	444.70
374.21	440.02
374.40	437.68
374.60	425.98
374.79	395.55
374.99	493.85
375.19	442.36
375.38	372.15
375.58	418.96
375.78	425.98
375.97	423.64
376.17	484.49
376.37	468.11
376.56	369.80
376.76	388.53
376.95	346.40
377.15	435.34
377.35	440.02
377.54	493.85
377.74	386.19
377.93	444.70
378.13	404.91
378.33	486.83
378.52	390.87
378.72	444.70
378.91	418.96
379.11	500.87
379.31	461.09
379.50	381.51
379.70	402.57
379.89	397.89
380.09	409.59
380.28	339.38
380.48	421.30
380.68	444.70
380.87	461.09
381.07	437.68
381.26	435.34
381.46	386.19
381.65	435.34
381.85	379.17
382.04	365.12
382.24	472.79
382.43	390.87
382.63	404.91
382.83	388.53
383.02	458.74
383.22	395.55
383.41	425.98
383.61	449.38
383.80	451.72
384.00	393.21
384.19	428.32
384.39	407.25
384.58	390.87
384.78	355.76
384.97	386.19
385.17	379.17
385.36	411.93
385.56	442.36
385.75	395.55
385.95	322.99
386.14	400.23
386.34	390.87
386.53	425.98
386.72	334.70
386.92	404.91
387.11	425.98
387.31	418.96
387.50	454.06
387.70	379.17
387.89	355.76
388.09	444.70
388.28	423.64
388.48	374.49
388.67	437.68
388.86	416.62
389.06	325.33
389.25	400.23
389.45	461.09
389.64	355.76
389.84	381.51
390.03	383.85
390.22	468.11
390.42	402.57
390.61	386.19
390.81	404.91
391.00	416.62
391.19	465.77
391.39	423.64
391.58	505.56
391.78	449.38
391.97	367.46
392.16	341.72
392.36	458.74
392.55	444.70
392.75	400.23
392.94	353.42
393.13	433.00
393.33	414.27
393.52	407.25
393.71	416.62
393.91	341.72
394.10	388.53
394.29	320.65
394.49	425.98
394.68	451.72
394.88	400.23
395.07	463.43
395.26	411.93
395.46	400.23
395.65	379.17
395.84	365.12
396.04	421.30
396.23	351.08
396.42	444.70
396.62	440.02
396.81	341.72
397.00	395.55
397.19	421.30
397.39	369.80
397.58	390.87
397.77	390.87
397.97	475.13
398.16	374.49
398.35	318.31
398.55	367.46
398.74	372.15
398.93	449.38
399.12	362.78
399.32	421.30
399.51	435.34
399.70	404.91
399.90	407.25
400.09	395.55
400.28	344.06
400.47	395.55
400.67	418.96
400.86	374.49
401.05	416.62
401.24	414.27
401.44	430.66
401.63	411.93
401.82	435.34
402.01	395.55
402.21	414.27
402.40	435.34
402.59	409.59
402.78	383.85
402.97	409.59
403.17	442.36
403.36	496.19
403.55	386.19
403.74	395.55
403.93	425.98
404.13	472.79
404.32	369.80
404.51	390.87
404.70	362.78
404.89	411.93
405.09	465.77
405.28	447.04
405.47	386.19
405.66	402.57
405.85	433.00
406.05	442.36
406.24	421.30
406.43	447.04
406.62	407.25
406.81	416.62
407.00	409.59
407.20	451.72
407.39	402.57
407.58	418.96
407.77	369.80
407.96	435.34
408.15	407.25
408.34	423.64
408.54	369.80
408.73	358.10
408.92	381.51
409.11	416.62
409.30	423.64
409.49	390.87
409.68	402.57
409.87	383.85
410.07	390.87
410.26	393.21
410.45	374.49
410.64	360.44
410.83	313.63
411.02	355.76
411.21	535.98
411.40	393.21
411.59	322.99
411.78	442.36
411.98	395.55
412.17	383.85
412.36	351.08
412.55	355.76
412.74	447.04
412.93	423.64
413.12	372.15
413.31	505.56
413.50	407.25
413.69	430.66
413.88	463.43
414.07	386.19
414.26	381.51
414.45	393.21
414.64	404.91
414.83	425.98
415.02	451.72
415.22	409.59
415.41	433.00
415.60	383.85
415.79	421.30
415.98	390.87
416.17	440.02
416.36	416.62
416.55	390.87
416.74	393.21
416.93	477.47
417.12	409.59
417.31	379.17
417.50	374.49
417.69	472.79
417.88	404.91
418.07	414.27
418.26	477.47
418.45	348.74
418.64	383.85
418.83	367.46
419.02	372.15
419.21	421.30
419.39	435.34
419.58	400.23
419.77	383.85
419.96	449.38
420.15	402.57
420.34	379.17
420.53	404.91
420.72	383.85
420.91	411.93
421.10	421.30
421.29	456.40
421.48	404.91
421.67	404.91
421.86	376.83
422.05	390.87
422.24	400.23
422.43	397.89
422.61	428.32
422.80	390.87
422.99	414.27
423.18	402.57
423.37	421.30
423.56	416.62
423.75	489.17
423.94	386.19
424.13	437.68
424.32	472.79
424.50	449.38
424.69	372.15
424.88	379.17
425.07	437.68
425.26	390.87
425.45	430.66
425.64	400.23
425.83	409.59
426.01	444.70
426.20	348.74
426.39	386.19
426.58	390.87
426.77	400.23
426.96	463.43
427.15	404.91
427.33	379.17
427.52	418.96
427.71	416.62
427.90	400.23
428.09	449.38
428.28	320.65
428.46	407.25
428.65	451.72
428.84	355.76
429.03	440.02
429.22	362.78
429.40	369.80
429.59	313.63
429.78	433.00
429.97	447.04
430.16	360.44
430.34	376.83
430.53	400.23
430.72	425.98
430.91	435.34
431.10	451.72
431.28	351.08
431.47	430.66
431.66	404.91
431.85	367.46
432.03	440.02
432.22	421.30
432.41	393.21
432.60	379.17
432.79	442.36
432.97	386.19
433.16	442.36
433.35	379.17
433.54	458.74
433.72	470.45
433.91	411.93
434.10	374.49
434.28	390.87
434.47	449.38
434.66	451.72
434.85	409.59
435.03	449.38
435.22	440.02
435.41	437.68
435.59	383.85
435.78	402.57
435.97	376.83
436.16	393.21
436.34	475.13
436.53	423.64
436.72	433.00
436.90	437.68
437.09	372.15
437.28	449.38
437.46	404.91
437.65	461.09
437.84	407.25
438.02	402.57
438.21	437.68
438.40	397.89
438.58	416.62
438.77	348.74
438.96	409.59
439.14	348.74
439.33	454.06
439.52	313.63
439.70	418.96
439.89	404.91
440.08	409.59
440.26	458.74
440.45	381.51
440.63	421.30
440.82	430.66
441.01	435.34
441.19	442.36
441.38	362.78
441.57	374.49
441.75	416.62
441.94	423.64
442.12	421.30
442.31	372.15
442.50	374.49
442.68	433.00
442.87	444.70
443.05	409.59
443.24	468.11
443.43	489.17
443.61	379.17
443.80	449.38
443.98	402.57
444.17	374.49
444.35	425.98
444.54	402.57
444.73	400.23
444.91	386.19
445.10	369.80
445.28	416.62
445.47	358.10
445.65	425.98
445.84	362.78
446.02	367.46
446.21	374.49
446.39	407.25
446.58	444.70
446.77	400.23
446.95	320.65
447.14	411.93
447.32	418.96
447.51	456.40
447.69	458.74
447.88	327.68
448.06	435.34
448.25	404.91
448.43	477.47
448.62	414.27
448.80	369.80
448.99	463.43
449.17	390.87
449.36	379.17
449.54	365.12
449.73	437.68
449.91	402.57
450.10	372.15
450.28	454.06
450.46	482.15
450.65	428.32
450.83	395.55
451.02	374.49
451.20	425.98
451.39	390.87
451.57	358.10
451.76	451.72
451.94	383.85
452.13	442.36
452.31	404.91
452.49	418.96
452.68	409.59
452.86	430.66
453.05	456.40
453.23	489.17
453.42	395.55
453.60	411.93
453.78	505.56
453.97	428.32
454.15	334.70
454.34	444.70
454.52	404.91
454.70	416.62
454.89	390.87
455.07	383.85
455.26	470.45
455.44	425.98
455.62	393.21
455.81	423.64
455.99	346.40
456.17	402.57
456.36	367.46
456.54	404.91
456.73	435.34
456.91	433.00
457.09	461.09
457.28	425.98
457.46	472.79
457.64	418.96
457.83	397.89
458.01	470.45
458.19	418.96
458.38	315.97
458.56	428.32
458.74	390.87
458.93	449.38
459.11	418.96
459.29	449.38
459.48	411.93
459.66	491.51
459.84	402.57
460.03	451.72
460.21	411.93
460.39	435.34
460.57	367.46
460.76	395.55
460.94	425.98
461.12	449.38
461.31	486.83
461.49	353.42
461.67	435.34
461.85	390.87
462.04	372.15
462.22	847.27
462.40	454.06
462.59	521.94
462.77	390.87
462.95	390.87
463.13	411.93
463.32	414.27
463.50	416.62
463.68	397.89
463.86	475.13
464.05	402.57
464.23	444.70
464.41	465.77
464.59	444.70
464.78	418.96
464.96	411.93
465.14	486.83
465.32	479.81
465.50	423.64
465.69	395.55
465.87	425.98
466.05	493.85
466.23	423.64
466.41	411.93
466.60	344.06
466.78	404.91
466.96	437.68
467.14	381.51
467.32	475.13
467.51	433.00
467.69	421.30
467.87	437.68
468.05	395.55
468.23	458.74
468.41	390.87
468.60	395.55
468.78	456.40
468.96	395.55
469.14	437.68
469.32	430.66
469.50	447.04
469.69	433.00
469.87	451.72
470.05	433.00
470.23	388.53
470.41	437.68
470.59	454.06
470.77	390.87
470.95	440.02
471.14	442.36
471.32	449.38
471.50	411.93
471.68	442.36
471.86	454.06
472.04	425.98
472.22	482.15
472.40	428.32
472.58	430.66
472.77	440.02
472.95	362.78
473.13	486.83
473.31	482.15
473.49	393.21
473.67	358.10
473.85	449.38
474.03	362.78
474.21	355.76
474.39	437.68
474.57	477.47
474.75	461.09
474.93	423.64
475.12	421.30
475.30	456.40
475.48	461.09
475.66	383.85
475.84	397.89
476.02	390.87
476.20	353.42
476.38	402.57
476.56	465.77
476.74	423.64
476.92	437.68
477.10	402.57
477.28	341.72
477.46	365.12
477.64	444.70
477.82	414.27
478.00	346.40
478.18	435.34
478.36	414.27
478.54	421.30
478.72	449.38
478.90	351.08
479.08	360.44
479.26	404.91
479.44	360.44
479.62	463.43
479.80	433.00
479.98	383.85
480.16	374.49
480.34	503.22
480.52	447.04
480.70	454.06
480.88	386.19
481.06	414.27
481.24	472.79
481.41	402.57
481.59	386.19
481.77	428.32
481.95	404.91
482.13	500.87
482.31	468.11
482.49	374.49
482.67	390.87
482.85	390.87
483.03	397.89
483.21	449.38
483.39	475.13
483.57	383.85
483.74	428.32
483.92	440.02
484.10	365.12
484.28	388.53
484.46	451.72
484.64	390.87
484.82	372.15
485.00	465.77
485.18	493.85
485.35	367.46
485.53	404.91
485.71	435.34
485.89	379.17
486.07	409.59
486.25	456.40
486.43	444.70
486.61	402.57
486.78	395.55
486.96	381.51
487.14	390.87
487.32	376.83
487.50	421.30
487.68	421.30
487.85	402.57
488.03	437.68
488.21	447.04
488.39	407.25
488.57	407.25
488.75	374.49
488.92	484.49
489.10	435.34
489.28	517.26
489.46	468.11
489.64	433.00
489.81	407.25
489.99	397.89
490.17	458.74
490.35	507.90
490.53	449.38
490.70	402.57
490.88	479.81
491.06	447.04
491.24	416.62
491.41	451.72
491.59	414.27
491.77	376.83
491.95	393.21
492.13	344.06
492.30	369.80
492.48	351.08
492.66	477.47
492.84	409.59
493.01	388.53
493.19	383.85
493.37	379.17
493.54	472.79
493.72	400.23
493.90	463.43
494.08	416.62
494.25	449.38
494.43	334.70
494.61	376.83
494.79	400.23
494.96	374.49
495.14	400.23
495.32	444.70
495.49	409.59
495.67	465.77
495.85	369.80
496.02	393.21
496.20	461.09
496.38	337.04
496.55	402.57
496.73	428.32
496.91	423.64
497.09	430.66
497.26	433.00
497.44	428.32
497.62	397.89
497.79	451.72
497.97	468.11
498.14	435.34
498.32	425.98
498.50	379.17
498.67	421.30
498.85	470.45
499.03	418.96
499.20	484.49
499.38	397.89
499.56	402.57
499.73	482.15
499.91	430.66
500.08	543.00
500.26	393.21
500.44	447.04
500.61	470.45
500.79	381.51
500.97	465.77
501.14	472.79
501.32	397.89
501.49	428.32
501.67	383.85
501.84	407.25
502.02	397.89
502.20	390.87
502.37	325.33
502.55	397.89
502.72	409.59
502.90	390.87
503.07	468.11
503.25	437.68
503.43	428.32
503.60	514.92
503.78	468.11
503.95	428.32
504.13	411.93
504.30	458.74
504.48	472.79
504.65	430.66
504.83	397.89
505.01	372.15
505.18	451.72
505.36	475.13
505.53	433.00
505.71	418.96
505.88	514.92
506.06	383.85
506.23	425.98
506.41	334.70
506.58	449.38
506.76	372.15
506.93	444.70
507.11	395.55
507.28	411.93
507.46	379.17
507.63	430.66
507.81	383.85
507.98	346.40
508.16	362.78
508.33	416.62
508.50	447.04
508.68	411.93
508.85	400.23
509.03	425.98
509.20	400.23
509.38	477.47
509.55	416.62
509.73	418.96
509.90	411.93
510.08	435.34
510.25	416.62
510.42	358.10
510.60	458.74
510.77	365.12
510.95	465.77
511.12	400.23
511.30	411.93
511.47	411.93
511.64	470.45
511.82	381.51
511.99	365.12
512.17	341.72
512.34	416.62
512.51	397.89
512.69	360.44
512.86	437.68
513.04	411.93
513.21	433.00
513.38	337.04
513.56	369.80
513.73	341.72
513.90	423.64
514.08	348.74
514.25	472.79
514.43	400.23
514.60	395.55
514.77	395.55
514.95	393.21
515.12	381.51
515.29	395.55
515.47	386.19
515.64	451.72
515.81	362.78
515.99	397.89
516.16	482.15
516.33	430.66
516.51	444.70
516.68	404.91
516.85	390.87
517.03	409.59
517.20	465.77
517.37	440.02
517.54	444.70
517.72	402.57
517.89	339.38
518.06	444.70
518.24	479.81
518.41	491.51
518.58	425.98
518.75	468.11
518.93	433.00
519.10	482.15
519.27	437.68
519.45	381.51
519.62	341.72
519.79	444.70
519.96	418.96
520.14	414.27
520.31	386.19
520.48	400.23
520.65	337.04
520.83	444.70
521.00	367.46
521.17	365.12
521.34	383.85
521.52	390.87
521.69	440.02
521.86	414.27
522.03	414.27
522.20	442.36
522.38	411.93
522.55	470.45
522.72	358.10
522.89	451.72
523.07	365.12
523.24	407.25
523.41	393.21
523.58	376.83
523.75	418.96
523.92	411.93
524.10	367.46
524.27	444.70
524.44	365.12
524.61	449.38
524.78	395.55
524.96	416.62
525.13	365.12
525.30	475.13
525.47	362.78
525.64	393.21
525.81	442.36
525.98	325.33
526.16	393.21
526.33	400.23
526.50	418.96
526.67	355.76
526.84	393.21
527.01	372.15
527.18	409.59
527.36	369.80
527.53	477.47
527.70	482.15
527.87	428.32
528.04	386.19
528.21	411.93
528.38	411.93
528.55	454.06
528.72	409.59
528.89	484.49
529.07	461.09
529.24	402.57
529.41	409.59
529.58	456.40
529.75	430.66
529.92	393.21
530.09	376.83
530.26	425.98
530.43	444.70
530.60	351.08
530.77	388.53
530.94	421.30
531.11	447.04
531.28	423.64
531.46	475.13
531.63	444.70
531.80	365.12
531.97	468.11
532.14	402.57
532.31	409.59
532.48	414.27
532.65	468.11
532.82	367.46
532.99	418.96
533.16	435.34
533.33	435.34
533.50	397.89
533.67	463.43
533.84	407.25
534.01	461.09
534.18	372.15
534.35	390.87
534.52	442.36
534.69	528.96
534.86	451.72
535.03	428.32
535.20	458.74
535.37	411.93
535.54	404.91
535.71	416.62
535.88	444.70
536.05	400.23
536.22	449.38
536.38	416.62
536.55	472.79
536.72	369.80
536.89	433.00
537.06	482.15
537.23	358.10
537.40	355.76
537.57	381.51
537.74	451.72
537.91	463.43
538.08	463.43
538.25	379.17
538.42	468.11
538.59	400.23
538.75	425.98
538.92	351.08
539.09	482.15
539.26	393.21
539.43	454.06
539.60	437.68
539.77	461.09
539.94	355.76
540.11	393.21
540.28	444.70
540.44	463.43
540.61	430.66
540.78	465.77
540.95	550.03
541.12	465.77
541.29	463.43
541.46	430.66
541.62	407.25
541.79	440.02
541.96	425.98
542.13	435.34
542.30	414.27
542.47	437.68
542.63	365.12
542.80	477.47
542.97	369.80
543.14	355.76
543.31	437.68
543.48	418.96
543.64	454.06
543.81	397.89
543.98	290.23
544.15	451.72
544.32	325.33
544.48	437.68
544.65	409.59
544.82	351.08
544.99	418.96
545.16	425.98
545.32	386.19
545.49	379.17
545.66	433.00
545.83	383.85
546.00	407.25
546.16	407.25
546.33	414.27
546.50	376.83
546.67	447.04
546.83	416.62
547.00	458.74
547.17	355.76
547.34	393.21
547.50	463.43
547.67	402.57
547.84	437.68
548.00	435.34
548.17	454.06
548.34	528.96
548.51	442.36
548.67	395.55
548.84	414.27
549.01	379.17
549.18	451.72
549.34	435.34
549.51	463.43
549.68	463.43
549.84	442.36
550.01	435.34
550.18	479.81
550.34	454.06
550.51	433.00
550.68	365.12
550.84	458.74
551.01	440.02
551.18	447.04
551.34	334.70
551.51	428.32
551.68	337.04
551.84	393.21
552.01	409.59
552.18	418.96
552.34	468.11
552.51	430.66
552.68	414.27
552.84	454.06
553.01	435.34
553.18	379.17
553.34	444.70
553.51	418.96
553.67	440.02
553.84	449.38
554.01	449.38
554.17	416.62
554.34	397.89
554.51	440.02
554.67	449.38
554.84	433.00
555.00	416.62
555.17	433.00
555.33	463.43
555.50	461.09
555.67	402.57
555.83	390.87
556.00	433.00
556.16	543.00
556.33	437.68
556.50	442.36
556.66	407.25
556.83	397.89
556.99	447.04
557.16	442.36
557.32	388.53
557.49	456.40
557.65	449.38
557.82	395.55
557.98	355.76
558.15	451.72
558.32	461.09
558.48	402.57
558.65	351.08
558.81	411.93
558.98	484.49
559.14	451.72
559.31	407.25
559.47	437.68
559.64	484.49
559.80	472.79
559.97	404.91
560.13	414.27
560.30	411.93
560.46	433.00
560.63	442.36
560.79	454.06
560.96	447.04
561.12	447.04
561.29	395.55
561.45	402.57
561.61	362.78
561.78	486.83
561.94	374.49
562.11	325.33
562.27	383.85
562.44	367.46
562.60	332.36
562.77	437.68
562.93	458.74
563.10	470.45
563.26	386.19
563.42	421.30
563.59	442.36
563.75	402.57
563.92	418.96
564.08	433.00
564.24	404.91
564.41	437.68
564.57	383.85
564.74	362.78
564.90	395.55
565.07	442.36
565.23	468.11
565.39	421.30
565.56	376.83
565.72	390.87
565.88	393.21
566.05	442.36
566.21	425.98
566.38	407.25
566.54	395.55
566.70	362.78
566.87	376.83
567.03	376.83
567.19	463.43
567.36	435.34
567.52	411.93
567.68	454.06
567.85	407.25
568.01	470.45
568.17	435.34
568.34	383.85
568.50	512.58
568.66	367.46
568.83	510.24
568.99	372.15
569.15	463.43
569.32	388.53
569.48	402.57
569.64	372.15
569.81	421.30
569.97	402.57
570.13	397.89
570.30	407.25
570.46	428.32
570.62	435.34
570.78	461.09
570.95	507.90
571.11	449.38
571.27	456.40
571.43	416.62
571.60	451.72
571.76	379.17
571.92	451.72
572.09	334.70
572.25	425.98
572.41	393.21
572.57	360.44
572.74	451.72
572.90	472.79
573.06	397.89
573.22	454.06
573.38	421.30
573.55	409.59
573.71	449.38
573.87	498.53
574.03	454.06
574.20	428.32
574.36	416.62
574.52	379.17
574.68	407.25
574.84	416.62
575.01	393.21
575.17	346.40
575.33	423.64
575.49	468.11
575.65	393.21
575.82	468.11
575.98	524.28
576.14	461.09
576.30	404.91
576.46	332.36
576.62	330.02
576.79	397.89
576.95	414.27
577.11	442.36
577.27	404.91
577.43	475.13
577.59	451.72
577.75	510.24
577.92	484.49
578.08	482.15
578.24	388.53
578.40	416.62
578.56	468.11
578.72	493.85
578.88	444.70
579.04	496.19
579.21	514.92
579.37	402.57
579.53	449.38
579.69	437.68
579.85	402.57
580.01	535.98
580.17	388.53
580.33	449.38
580.49	449.38
580.65	468.11
580.82	365.12
580.98	409.59
581.14	346.40
581.30	475.13
581.46	365.12
581.62	372.15
581.78	416.62
581.94	500.87
582.10	386.19
582.26	418.96
582.42	369.80
582.58	400.23
582.74	463.43
582.90	423.64
583.06	456.40
583.22	428.32
583.38	430.66
583.54	386.19
583.70	393.21
583.86	489.17
584.02	402.57
584.18	465.77
584.34	320.65
584.50	411.93
584.66	411.93
584.82	386.19
584.98	470.45
585.14	442.36
585.30	449.38
585.46	454.06
585.62	425.98
585.78	423.64
585.94	477.47
586.10	367.46
586.26	341.72
586.42	456.40
586.58	491.51
586.74	479.81
586.90	470.45
587.06	468.11
587.22	458.74
587.38	383.85
587.54	454.06
587.70	465.77
587.86	428.32
588.02	440.02
588.18	465.77
588.34	461.09
588.49	400.23
588.65	351.08
588.81	430.66
588.97	425.98
589.13	425.98
589.29	430.66
589.45	477.47
589.61	414.27
589.77	416.62
589.93	404.91
590.08	538.32
590.24	440.02
590.40	390.87
590.56	465.77
590.72	400.23
590.88	402.57
591.04	400.23
591.20	397.89
591.35	503.22
591.51	484.49
591.67	379.17
591.83	435.34
591.99	428.32
592.15	437.68
592.31	449.38
592.46	444.70
592.62	442.36
592.78	409.59
592.94	440.02
593.10	468.11
593.26	409.59
593.41	397.89
593.57	449.38
593.73	414.27
593.89	383.85
594.05	381.51
594.20	425.98
594.36	402.57
594.52	458.74
594.68	318.31
594.84	470.45
594.99	423.64
595.15	409.59
595.31	543.00
595.47	433.00
595.62	404.91
595.78	428.32
595.94	437.68
596.10	514.92
596.25	423.64
596.41	444.70
596.57	428.32
596.73	418.96
596.88	407.25
597.04	482.15
597.20	456.40
597.36	416.62
597.51	409.59
597.67	404.91
597.83	395.55
597.99	386.19
598.14	414.27
598.30	496.19
598.46	402.57
598.61	351.08
598.77	428.32
598.93	421.30
599.09	402.57
599.24	486.83
599.40	428.32
599.56	365.12
599.71	400.23
599.87	351.08
600.03	430.66
600.18	435.34
600.34	376.83
600.50	362.78
600.65	442.36
600.81	477.47
600.97	388.53
601.12	475.13
601.28	444.70
601.44	411.93
601.59	379.17
601.75	383.85
601.91	437.68
602.06	411.93
602.22	496.19
602.37	416.62
602.53	442.36
602.69	444.70
602.84	376.83
603.00	353.42
603.16	447.04
603.31	411.93
603.47	411.93
603.62	367.46
603.78	437.68
603.94	425.98
604.09	526.62
604.25	414.27
604.40	322.99
604.56	447.04
604.71	402.57
604.87	390.87
605.03	428.32
605.18	442.36
605.34	430.66
605.49	421.30
605.65	388.53
605.80	465.77
605.96	360.44
606.12	479.81
606.27	421.30
606.43	400.23
606.58	428.32
606.74	425.98
606.89	397.89
607.05	433.00
607.20	418.96
607.36	428.32
607.51	393.21
607.67	407.25
607.82	407.25
607.98	433.00
608.13	388.53
608.29	388.53
608.44	465.77
608.60	451.72
608.75	409.59
608.91	414.27
609.06	440.02
609.22	404.91
609.37	393.21
609.53	463.43
609.68	388.53
609.84	362.78
609.99	465.77
610.15	421.30
