SpectraSuite Data File
++++++++++++++++++++++++++++++++++++
Date: Fri Oct 25 12:10:40 EDT 2013
User: price-jones
Dark Spectrum Present: No
Reference Spectrum Present: No
Number of Sampled Component Spectra: 1
Spectrometers: USB2+H05261
Integration Time (usec): 100000 (USB2+H05261)
Spectra Averaged: 1 (USB2+H05261)
Boxcar Smoothing: 0 (USB2+H05261)
Correct for Electrical Dark: No (USB2+H05261)
Strobe/Lamp Enabled: No (USB2+H05261)
Correct for Detector Non-linearity: No (USB2+H05261)
Correct for Stray Light: No (USB2+H05261)
Number of Pixels in Processed Spectrum: 2048
>>>>>Begin Processed Spectral Data<<<<<
365.73	330.02
365.92	330.02
366.12	330.02
366.32	243.42
366.52	334.70
366.72	231.71
366.91	257.46
367.11	262.14
367.31	271.50
367.51	243.42
367.70	245.76
367.90	210.65
368.10	208.31
368.30	229.37
368.49	243.42
368.69	351.08
368.89	227.03
369.09	259.80
369.28	337.04
369.48	271.50
369.68	262.14
369.87	220.01
370.07	292.57
370.27	334.70
370.47	271.50
370.66	358.10
370.86	301.93
371.06	304.27
371.25	404.91
371.45	362.78
371.65	337.04
371.84	395.55
372.04	437.68
372.24	390.87
372.44	360.44
372.63	351.08
372.83	369.80
373.03	395.55
373.22	404.91
373.42	414.27
373.62	330.02
373.81	383.85
374.01	442.36
374.21	449.38
374.40	435.34
374.60	313.63
374.79	418.96
374.99	430.66
375.19	383.85
375.38	444.70
375.58	428.32
375.78	400.23
375.97	433.00
376.17	414.27
376.37	451.72
376.56	484.49
376.76	409.59
376.95	433.00
377.15	444.70
377.35	451.72
377.54	454.06
377.74	379.17
377.93	407.25
378.13	395.55
378.33	362.78
378.52	442.36
378.72	353.42
378.91	461.09
379.11	440.02
379.31	400.23
379.50	374.49
379.70	430.66
379.89	395.55
380.09	395.55
380.28	376.83
380.48	442.36
380.68	341.72
380.87	351.08
381.07	477.47
381.26	433.00
381.46	407.25
381.65	351.08
381.85	442.36
382.04	367.46
382.24	442.36
382.43	337.04
382.63	374.49
382.83	388.53
383.02	407.25
383.22	454.06
383.41	458.74
383.61	454.06
383.80	411.93
384.00	379.17
384.19	404.91
384.39	367.46
384.58	400.23
384.78	383.85
384.97	416.62
385.17	386.19
385.36	411.93
385.56	447.04
385.75	411.93
385.95	313.63
386.14	442.36
386.34	353.42
386.53	339.38
386.72	390.87
386.92	393.21
387.11	374.49
387.31	454.06
387.50	390.87
387.70	465.77
387.89	388.53
388.09	468.11
388.28	425.98
388.48	428.32
388.67	358.10
388.86	386.19
389.06	388.53
389.25	451.72
389.45	430.66
389.64	344.06
389.84	379.17
390.03	484.49
390.22	411.93
390.42	353.42
390.61	395.55
390.81	423.64
391.00	442.36
391.19	440.02
391.39	433.00
391.58	402.57
391.78	351.08
391.97	451.72
392.16	348.74
392.36	449.38
392.55	428.32
392.75	430.66
392.94	430.66
393.13	395.55
393.33	393.21
393.52	360.44
393.71	416.62
393.91	409.59
394.10	393.21
394.29	472.79
394.49	400.23
394.68	374.49
394.88	430.66
395.07	330.02
395.26	376.83
395.46	440.02
395.65	463.43
395.84	425.98
396.04	507.90
396.23	433.00
396.42	379.17
396.62	411.93
396.81	320.65
397.00	339.38
397.19	397.89
397.39	386.19
397.58	454.06
397.77	383.85
397.97	416.62
398.16	437.68
398.35	435.34
398.55	332.36
398.74	362.78
398.93	397.89
399.12	383.85
399.32	472.79
399.51	381.51
399.70	383.85
399.90	442.36
400.09	386.19
400.28	407.25
400.47	367.46
400.67	386.19
400.86	376.83
401.05	404.91
401.24	358.10
401.44	397.89
401.63	447.04
401.82	376.83
402.01	458.74
402.21	418.96
402.40	402.57
402.59	449.38
402.78	353.42
402.97	365.12
403.17	421.30
403.36	404.91
403.55	425.98
403.74	416.62
403.93	386.19
404.13	416.62
404.32	325.33
404.51	397.89
404.70	447.04
404.89	416.62
405.09	437.68
405.28	341.72
405.47	325.33
405.66	428.32
405.85	470.45
406.05	402.57
406.24	442.36
406.43	365.12
406.62	423.64
406.81	428.32
407.00	423.64
407.20	386.19
407.39	491.51
407.58	437.68
407.77	388.53
407.96	397.89
408.15	379.17
408.34	362.78
408.54	418.96
408.73	355.76
408.92	297.25
409.11	341.72
409.30	409.59
409.49	447.04
409.68	423.64
409.87	400.23
410.07	355.76
410.26	390.87
410.45	468.11
410.64	456.40
410.83	482.15
411.02	383.85
411.21	428.32
411.40	414.27
411.59	414.27
411.78	346.40
411.98	447.04
412.17	440.02
412.36	381.51
412.55	383.85
412.74	400.23
412.93	491.51
413.12	425.98
413.31	418.96
413.50	332.36
413.69	442.36
413.88	365.12
414.07	393.21
414.26	428.32
414.45	414.27
414.64	390.87
414.83	402.57
415.02	353.42
415.22	388.53
415.41	390.87
415.60	372.15
415.79	409.59
415.98	416.62
416.17	283.20
416.36	360.44
416.55	353.42
416.74	358.10
416.93	397.89
417.12	447.04
417.31	365.12
417.50	409.59
417.69	430.66
417.88	386.19
418.07	421.30
418.26	379.17
418.45	414.27
418.64	411.93
418.83	327.68
419.02	411.93
419.21	411.93
419.39	311.29
419.58	416.62
419.77	346.40
419.96	400.23
420.15	430.66
420.34	404.91
420.53	442.36
420.72	416.62
420.91	421.30
421.10	365.12
421.29	390.87
421.48	421.30
421.67	383.85
421.86	421.30
422.05	365.12
422.24	402.57
422.43	479.81
422.61	372.15
422.80	461.09
422.99	442.36
423.18	325.33
423.37	486.83
423.56	414.27
423.75	395.55
423.94	430.66
424.13	456.40
424.32	407.25
424.50	404.91
424.69	428.32
424.88	423.64
425.07	376.83
425.26	458.74
425.45	348.74
425.64	414.27
425.83	395.55
426.01	503.22
426.20	423.64
426.39	421.30
426.58	395.55
426.77	409.59
426.96	393.21
427.15	374.49
427.33	388.53
427.52	390.87
427.71	477.47
427.90	449.38
428.09	423.64
428.28	341.72
428.46	402.57
428.65	411.93
428.84	395.55
429.03	404.91
429.22	360.44
429.40	358.10
429.59	376.83
429.78	395.55
429.97	393.21
430.16	390.87
430.34	440.02
430.53	337.04
430.72	374.49
430.91	470.45
431.10	369.80
431.28	308.95
431.47	425.98
431.66	447.04
431.85	421.30
432.03	397.89
432.22	493.85
432.41	362.78
432.60	390.87
432.79	433.00
432.97	440.02
433.16	388.53
433.35	367.46
433.54	388.53
433.72	393.21
433.91	404.91
434.10	454.06
434.28	402.57
434.47	400.23
434.66	430.66
434.85	449.38
435.03	468.11
435.22	444.70
435.41	444.70
435.59	451.72
435.78	400.23
435.97	411.93
436.16	400.23
436.34	414.27
436.53	418.96
436.72	397.89
436.90	423.64
437.09	456.40
437.28	456.40
437.46	447.04
437.65	418.96
437.84	454.06
438.02	465.77
438.21	425.98
438.40	472.79
438.58	395.55
438.77	433.00
438.96	402.57
439.14	390.87
439.33	425.98
439.52	418.96
439.70	416.62
439.89	397.89
440.08	383.85
440.26	404.91
440.45	423.64
440.63	442.36
440.82	435.34
441.01	400.23
441.19	400.23
441.38	491.51
441.57	381.51
441.75	433.00
441.94	456.40
442.12	423.64
442.31	421.30
442.50	510.24
442.68	489.17
442.87	498.53
443.05	358.10
443.24	388.53
443.43	449.38
443.61	381.51
443.80	418.96
443.98	395.55
444.17	433.00
444.35	430.66
444.54	435.34
444.73	440.02
444.91	561.73
445.10	386.19
445.28	332.36
445.47	449.38
445.65	369.80
445.84	421.30
446.02	430.66
446.21	397.89
446.39	400.23
446.58	414.27
446.77	414.27
446.95	400.23
447.14	423.64
447.32	512.58
447.51	348.74
447.69	416.62
447.88	402.57
448.06	461.09
448.25	362.78
448.43	425.98
448.62	390.87
448.80	390.87
448.99	330.02
449.17	404.91
449.36	449.38
449.54	451.72
449.73	397.89
449.91	416.62
450.10	435.34
450.28	458.74
450.46	425.98
450.65	409.59
450.83	433.00
451.02	351.08
451.20	430.66
451.39	465.77
451.57	414.27
451.76	442.36
451.94	411.93
452.13	362.78
452.31	437.68
452.49	461.09
452.68	383.85
452.86	461.09
453.05	447.04
453.23	421.30
453.42	428.32
453.60	386.19
453.78	376.83
453.97	344.06
454.15	365.12
454.34	465.77
454.52	484.49
454.70	458.74
454.89	472.79
455.07	374.49
455.26	444.70
455.44	416.62
455.62	425.98
455.81	388.53
455.99	461.09
456.17	404.91
456.36	517.26
456.54	468.11
456.73	393.21
456.91	404.91
457.09	463.43
457.28	393.21
457.46	418.96
457.64	461.09
457.83	409.59
458.01	414.27
458.19	489.17
458.38	440.02
458.56	395.55
458.74	407.25
458.93	437.68
459.11	383.85
459.29	376.83
459.48	484.49
459.66	435.34
459.84	475.13
460.03	435.34
460.21	435.34
460.39	397.89
460.57	493.85
460.76	465.77
460.94	376.83
461.12	433.00
461.31	435.34
461.49	374.49
461.67	367.46
461.85	374.49
462.04	416.62
462.22	674.07
462.40	458.74
462.59	409.59
462.77	411.93
462.95	442.36
463.13	374.49
463.32	416.62
463.50	411.93
463.68	376.83
463.86	348.74
464.05	433.00
464.23	470.45
464.41	390.87
464.59	379.17
464.78	482.15
464.96	386.19
465.14	353.42
465.32	421.30
465.50	430.66
465.69	362.78
465.87	437.68
466.05	430.66
466.23	386.19
466.41	461.09
466.60	437.68
466.78	421.30
466.96	430.66
467.14	451.72
467.32	414.27
467.51	414.27
467.69	409.59
467.87	416.62
468.05	360.44
468.23	437.68
468.41	463.43
468.60	400.23
468.78	393.21
468.96	360.44
469.14	421.30
469.32	421.30
469.50	397.89
469.69	416.62
469.87	418.96
470.05	489.17
470.23	360.44
470.41	320.65
470.59	353.42
470.77	400.23
470.95	421.30
471.14	388.53
471.32	397.89
471.50	472.79
471.68	388.53
471.86	423.64
472.04	386.19
472.22	409.59
472.40	365.12
472.58	414.27
472.77	442.36
472.95	449.38
473.13	463.43
473.31	397.89
473.49	362.78
473.67	409.59
473.85	428.32
474.03	379.17
474.21	421.30
474.39	442.36
474.57	402.57
474.75	430.66
474.93	430.66
475.12	447.04
475.30	402.57
475.48	440.02
475.66	470.45
475.84	428.32
476.02	395.55
476.20	428.32
476.38	416.62
476.56	425.98
476.74	341.72
476.92	376.83
477.10	465.77
477.28	411.93
477.46	348.74
477.64	390.87
477.82	440.02
478.00	428.32
478.18	358.10
478.36	414.27
478.54	397.89
478.72	416.62
478.90	397.89
479.08	390.87
479.26	404.91
479.44	451.72
479.62	383.85
479.80	395.55
479.98	376.83
480.16	458.74
480.34	430.66
480.52	416.62
480.70	388.53
480.88	404.91
481.06	404.91
481.24	425.98
481.41	409.59
481.59	386.19
481.77	416.62
481.95	449.38
482.13	442.36
482.31	475.13
482.49	437.68
482.67	496.19
482.85	458.74
483.03	414.27
483.21	418.96
483.39	425.98
483.57	435.34
483.74	433.00
483.92	437.68
484.10	407.25
484.28	440.02
484.46	421.30
484.64	362.78
484.82	383.85
485.00	449.38
485.18	379.17
485.35	435.34
485.53	397.89
485.71	451.72
485.89	353.42
486.07	423.64
486.25	416.62
486.43	400.23
486.61	407.25
486.78	390.87
486.96	358.10
487.14	372.15
487.32	390.87
487.50	402.57
487.68	404.91
487.85	456.40
488.03	451.72
488.21	397.89
488.39	423.64
488.57	332.36
488.75	388.53
488.92	442.36
489.10	416.62
489.28	468.11
489.46	440.02
489.64	486.83
489.81	421.30
489.99	430.66
490.17	435.34
490.35	433.00
490.53	465.77
490.70	409.59
490.88	477.47
491.06	355.76
491.24	379.17
491.41	505.56
491.59	435.34
491.77	390.87
491.95	404.91
492.13	411.93
492.30	433.00
492.48	418.96
492.66	400.23
492.84	379.17
493.01	400.23
493.19	428.32
493.37	397.89
493.54	451.72
493.72	435.34
493.90	404.91
494.08	397.89
494.25	458.74
494.43	451.72
494.61	404.91
494.79	372.15
494.96	397.89
495.14	383.85
495.32	437.68
495.49	390.87
495.67	407.25
495.85	402.57
496.02	414.27
496.20	360.44
496.38	388.53
496.55	367.46
496.73	393.21
496.91	414.27
497.09	456.40
497.26	388.53
497.44	353.42
497.62	400.23
497.79	409.59
497.97	437.68
498.14	395.55
498.32	498.53
498.50	425.98
498.67	395.55
498.85	458.74
499.03	393.21
499.20	383.85
499.38	348.74
499.56	482.15
499.73	470.45
499.91	451.72
500.08	423.64
500.26	421.30
500.44	451.72
500.61	465.77
500.79	388.53
500.97	397.89
501.14	353.42
501.32	440.02
501.49	456.40
501.67	407.25
501.84	379.17
502.02	440.02
502.20	421.30
502.37	425.98
502.55	411.93
502.72	395.55
502.90	367.46
503.07	440.02
503.25	402.57
503.43	390.87
503.60	379.17
503.78	404.91
503.95	425.98
504.13	397.89
504.30	451.72
504.48	388.53
504.65	383.85
504.83	411.93
505.01	423.64
505.18	430.66
505.36	372.15
505.53	381.51
505.71	442.36
505.88	437.68
506.06	440.02
506.23	418.96
506.41	383.85
506.58	393.21
506.76	456.40
506.93	390.87
507.11	423.64
507.28	400.23
507.46	334.70
507.63	393.21
507.81	421.30
507.98	388.53
508.16	395.55
508.33	407.25
508.50	461.09
508.68	402.57
508.85	407.25
509.03	444.70
509.20	383.85
509.38	411.93
509.55	402.57
509.73	390.87
509.90	479.81
510.08	442.36
510.25	454.06
510.42	435.34
510.60	388.53
510.77	444.70
510.95	374.49
511.12	456.40
511.30	409.59
511.47	444.70
511.64	416.62
511.82	423.64
511.99	414.27
512.17	397.89
512.34	379.17
512.51	423.64
512.69	407.25
512.86	442.36
513.04	461.09
513.21	421.30
513.38	437.68
513.56	404.91
513.73	397.89
513.90	414.27
514.08	428.32
514.25	414.27
514.43	397.89
514.60	433.00
514.77	402.57
514.95	418.96
515.12	376.83
515.29	334.70
515.47	386.19
515.64	390.87
515.81	435.34
515.99	416.62
516.16	435.34
516.33	416.62
516.51	428.32
516.68	388.53
516.85	411.93
517.03	442.36
517.20	402.57
517.37	358.10
517.54	449.38
517.72	390.87
517.89	411.93
518.06	430.66
518.24	456.40
518.41	468.11
518.58	465.77
518.75	388.53
518.93	341.72
519.10	388.53
519.27	374.49
519.45	334.70
519.62	479.81
519.79	376.83
519.96	383.85
520.14	369.80
520.31	416.62
520.48	425.98
520.65	404.91
520.83	418.96
521.00	489.17
521.17	390.87
521.34	444.70
521.52	395.55
521.69	376.83
521.86	351.08
522.03	449.38
522.20	407.25
522.38	433.00
522.55	416.62
522.72	308.95
522.89	496.19
523.07	449.38
523.24	411.93
523.41	404.91
523.58	400.23
523.75	465.77
523.92	346.40
524.10	425.98
524.27	470.45
524.44	430.66
524.61	447.04
524.78	388.53
524.96	383.85
525.13	402.57
525.30	442.36
525.47	468.11
525.64	393.21
525.81	465.77
525.98	400.23
526.16	463.43
526.33	404.91
526.50	407.25
526.67	365.12
526.84	414.27
527.01	388.53
527.18	395.55
527.36	416.62
527.53	449.38
527.70	442.36
527.87	383.85
528.04	402.57
528.21	435.34
528.38	440.02
528.55	458.74
528.72	414.27
528.89	423.64
529.07	411.93
529.24	458.74
529.41	470.45
529.58	381.51
529.75	428.32
529.92	435.34
530.09	451.72
530.26	440.02
530.43	386.19
530.60	397.89
530.77	355.76
530.94	400.23
531.11	379.17
531.28	449.38
531.46	428.32
531.63	390.87
531.80	325.33
531.97	386.19
532.14	416.62
532.31	463.43
532.48	388.53
532.65	404.91
532.82	400.23
532.99	400.23
533.16	400.23
533.33	433.00
533.50	433.00
533.67	393.21
533.84	390.87
534.01	423.64
534.18	383.85
534.35	451.72
534.52	491.51
534.69	472.79
534.86	416.62
535.03	304.27
535.20	404.91
535.37	395.55
535.54	486.83
535.71	463.43
535.88	404.91
536.05	425.98
536.22	411.93
536.38	386.19
536.55	442.36
536.72	414.27
536.89	442.36
537.06	458.74
537.23	456.40
537.40	411.93
537.57	449.38
537.74	489.17
537.91	433.00
538.08	407.25
538.25	458.74
538.42	397.89
538.59	320.65
538.75	475.13
538.92	451.72
539.09	409.59
539.26	393.21
539.43	416.62
539.60	409.59
539.77	372.15
539.94	360.44
540.11	414.27
540.28	435.34
540.44	454.06
540.61	376.83
540.78	407.25
540.95	430.66
541.12	425.98
541.29	517.26
541.46	484.49
541.62	388.53
541.79	442.36
541.96	346.40
542.13	407.25
542.30	346.40
542.47	479.81
542.63	451.72
542.80	447.04
542.97	461.09
543.14	383.85
543.31	416.62
543.48	423.64
543.64	498.53
543.81	418.96
543.98	369.80
544.15	437.68
544.32	416.62
544.48	430.66
544.65	416.62
544.82	463.43
544.99	440.02
545.16	433.00
545.32	430.66
545.49	411.93
545.66	425.98
545.83	425.98
546.00	440.02
546.16	409.59
546.33	451.72
546.50	400.23
546.67	390.87
546.83	374.49
547.00	388.53
547.17	367.46
547.34	402.57
547.50	414.27
547.67	351.08
547.84	315.97
548.00	358.10
548.17	423.64
548.34	521.94
548.51	423.64
548.67	397.89
548.84	461.09
549.01	332.36
549.18	400.23
549.34	369.80
549.51	425.98
549.68	346.40
549.84	407.25
550.01	299.59
550.18	564.07
550.34	496.19
550.51	482.15
550.68	496.19
550.84	379.17
551.01	458.74
551.18	444.70
551.34	423.64
551.51	437.68
551.68	393.21
551.84	433.00
552.01	397.89
552.18	416.62
552.34	449.38
552.51	442.36
552.68	454.06
552.84	454.06
553.01	292.57
553.18	496.19
553.34	416.62
553.51	409.59
553.67	498.53
553.84	369.80
554.01	397.89
554.17	411.93
554.34	407.25
554.51	383.85
554.67	421.30
554.84	430.66
555.00	360.44
555.17	395.55
555.33	477.47
555.50	447.04
555.67	372.15
555.83	358.10
556.00	409.59
556.16	535.98
556.33	454.06
556.50	414.27
556.66	414.27
556.83	440.02
556.99	374.49
557.16	421.30
557.32	339.38
557.49	418.96
557.65	381.51
557.82	430.66
557.98	311.29
558.15	404.91
558.32	425.98
558.48	395.55
558.65	416.62
558.81	381.51
558.98	442.36
559.14	430.66
559.31	327.68
559.47	449.38
559.64	421.30
559.80	388.53
559.97	402.57
560.13	409.59
560.30	409.59
560.46	407.25
560.63	397.89
560.79	369.80
560.96	379.17
561.12	444.70
561.29	461.09
561.45	395.55
561.61	374.49
561.78	440.02
561.94	475.13
562.11	418.96
562.27	348.74
562.44	381.51
562.60	484.49
562.77	360.44
562.93	397.89
563.10	447.04
563.26	463.43
563.42	320.65
563.59	472.79
563.75	390.87
563.92	447.04
564.08	407.25
564.24	430.66
564.41	437.68
564.57	397.89
564.74	351.08
564.90	472.79
565.07	423.64
565.23	442.36
565.39	437.68
565.56	449.38
565.72	404.91
565.88	425.98
566.05	437.68
566.21	437.68
566.38	423.64
566.54	365.12
566.70	465.77
566.87	367.46
567.03	414.27
567.19	381.51
567.36	397.89
567.52	425.98
567.68	360.44
567.85	514.92
568.01	479.81
568.17	444.70
568.34	477.47
568.50	430.66
568.66	444.70
568.83	517.26
568.99	369.80
569.15	465.77
569.32	372.15
569.48	395.55
569.64	423.64
569.81	454.06
569.97	362.78
570.13	489.17
570.30	379.17
570.46	482.15
570.62	472.79
570.78	456.40
570.95	510.24
571.11	479.81
571.27	479.81
571.43	416.62
571.60	454.06
571.76	374.49
571.92	418.96
572.09	472.79
572.25	475.13
572.41	407.25
572.57	491.51
572.74	465.77
572.90	430.66
573.06	358.10
573.22	365.12
573.38	414.27
573.55	388.53
573.71	407.25
573.87	430.66
574.03	411.93
574.20	369.80
574.36	334.70
574.52	414.27
574.68	454.06
574.84	376.83
575.01	465.77
575.17	468.11
575.33	404.91
575.49	425.98
575.65	360.44
575.82	376.83
575.98	407.25
576.14	404.91
576.30	442.36
576.46	376.83
576.62	402.57
576.79	482.15
576.95	454.06
577.11	400.23
577.27	390.87
577.43	423.64
577.59	468.11
577.75	383.85
577.92	397.89
578.08	337.04
578.24	367.46
578.40	367.46
578.56	339.38
578.72	475.13
578.88	400.23
579.04	386.19
579.21	430.66
579.37	454.06
579.53	402.57
579.69	470.45
579.85	442.36
580.01	477.47
580.17	472.79
580.33	465.77
580.49	376.83
580.65	390.87
580.82	386.19
580.98	339.38
581.14	407.25
581.30	430.66
581.46	411.93
581.62	379.17
581.78	360.44
581.94	442.36
582.10	395.55
582.26	362.78
582.42	435.34
582.58	383.85
582.74	416.62
582.90	425.98
583.06	435.34
583.22	440.02
583.38	365.12
583.54	416.62
583.70	402.57
583.86	346.40
584.02	425.98
584.18	421.30
584.34	390.87
584.50	444.70
584.66	390.87
584.82	395.55
584.98	425.98
585.14	388.53
585.30	461.09
585.46	411.93
585.62	355.76
585.78	376.83
585.94	348.74
586.10	381.51
586.26	482.15
586.42	505.56
586.58	484.49
586.74	337.04
586.90	353.42
587.06	344.06
587.22	430.66
587.38	346.40
587.54	430.66
587.70	411.93
587.86	475.13
588.02	472.79
588.18	451.72
588.34	383.85
588.49	367.46
588.65	397.89
588.81	383.85
588.97	407.25
589.13	409.59
589.29	393.21
589.45	404.91
589.61	362.78
589.77	465.77
589.93	407.25
590.08	383.85
590.24	332.36
590.40	421.30
590.56	407.25
590.72	346.40
590.88	397.89
591.04	456.40
591.20	409.59
591.35	451.72
591.51	395.55
591.67	372.15
591.83	411.93
591.99	484.49
592.15	404.91
592.31	440.02
592.46	416.62
592.62	383.85
592.78	374.49
592.94	411.93
593.10	402.57
593.26	395.55
593.41	404.91
593.57	425.98
593.73	437.68
593.89	472.79
594.05	425.98
594.20	339.38
594.36	475.13
594.52	409.59
594.68	395.55
594.84	437.68
594.99	510.24
595.15	411.93
595.31	404.91
595.47	510.24
595.62	390.87
595.78	425.98
595.94	461.09
596.10	468.11
596.25	416.62
596.41	442.36
596.57	435.34
596.73	411.93
596.88	442.36
597.04	416.62
597.20	468.11
597.36	381.51
597.51	418.96
597.67	355.76
597.83	365.12
597.99	475.13
598.14	433.00
598.30	444.70
598.46	447.04
598.61	428.32
598.77	444.70
598.93	351.08
599.09	348.74
599.24	447.04
599.40	369.80
599.56	479.81
599.71	376.83
599.87	409.59
600.03	388.53
600.18	397.89
600.34	428.32
600.50	411.93
600.65	386.19
600.81	465.77
600.97	386.19
601.12	407.25
601.28	421.30
601.44	418.96
601.59	372.15
601.75	425.98
601.91	376.83
602.06	463.43
602.22	486.83
602.37	435.34
602.53	458.74
602.69	456.40
602.84	470.45
603.00	360.44
603.16	465.77
603.31	397.89
603.47	444.70
603.62	362.78
603.78	362.78
603.94	425.98
604.09	442.36
604.25	442.36
604.40	430.66
604.56	465.77
604.71	435.34
604.87	374.49
605.03	346.40
605.18	440.02
605.34	440.02
605.49	411.93
605.65	468.11
605.80	395.55
605.96	418.96
606.12	449.38
606.27	463.43
606.43	468.11
606.58	395.55
606.74	330.02
606.89	311.29
607.05	472.79
607.20	418.96
607.36	369.80
607.51	395.55
607.67	402.57
607.82	425.98
607.98	416.62
608.13	358.10
608.29	409.59
608.44	390.87
608.60	390.87
608.75	397.89
608.91	449.38
609.06	440.02
609.22	421.30
609.37	376.83
609.53	444.70
609.68	397.89
609.84	454.06
609.99	449.38
610.15	355.76
