SpectraSuite Data File
++++++++++++++++++++++++++++++++++++
Date: Fri Oct 25 12:11:28 EDT 2013
User: price-jones
Dark Spectrum Present: No
Reference Spectrum Present: No
Number of Sampled Component Spectra: 1
Spectrometers: USB2+H05261
Integration Time (usec): 100000 (USB2+H05261)
Spectra Averaged: 1 (USB2+H05261)
Boxcar Smoothing: 0 (USB2+H05261)
Correct for Electrical Dark: No (USB2+H05261)
Strobe/Lamp Enabled: No (USB2+H05261)
Correct for Detector Non-linearity: No (USB2+H05261)
Correct for Stray Light: No (USB2+H05261)
Number of Pixels in Processed Spectrum: 2048
>>>>>Begin Processed Spectral Data<<<<<
365.73	332.36
365.92	332.36
366.12	332.36
366.32	250.44
366.52	234.05
366.72	325.33
366.91	229.37
367.11	250.44
367.31	252.78
367.51	215.33
367.70	245.76
367.90	212.99
368.10	238.73
368.30	236.39
368.49	269.16
368.69	292.57
368.89	250.44
369.09	227.03
369.28	273.84
369.48	229.37
369.68	257.46
369.87	311.29
370.07	337.04
370.27	383.85
370.47	346.40
370.66	381.51
370.86	313.63
371.06	390.87
371.25	475.13
371.45	360.44
371.65	344.06
371.84	362.78
372.04	407.25
372.24	360.44
372.44	332.36
372.63	451.72
372.83	367.46
373.03	404.91
373.22	456.40
373.42	458.74
373.62	442.36
373.81	430.66
374.01	428.32
374.21	451.72
374.40	388.53
374.60	346.40
374.79	374.49
374.99	390.87
375.19	430.66
375.38	418.96
375.58	430.66
375.78	414.27
375.97	456.40
376.17	442.36
376.37	416.62
376.56	444.70
376.76	402.57
376.95	315.97
377.15	440.02
377.35	362.78
377.54	472.79
377.74	315.97
377.93	381.51
378.13	397.89
378.33	393.21
378.52	369.80
378.72	376.83
378.91	463.43
379.11	393.21
379.31	442.36
379.50	355.76
379.70	461.09
379.89	472.79
380.09	430.66
380.28	449.38
380.48	411.93
380.68	351.08
380.87	414.27
381.07	400.23
381.26	395.55
381.46	355.76
381.65	496.19
381.85	421.30
382.04	402.57
382.24	390.87
382.43	367.46
382.63	425.98
382.83	374.49
383.02	451.72
383.22	435.34
383.41	290.23
383.61	388.53
383.80	390.87
384.00	383.85
384.19	454.06
384.39	416.62
384.58	425.98
384.78	386.19
384.97	461.09
385.17	414.27
385.36	425.98
385.56	463.43
385.75	433.00
385.95	416.62
386.14	442.36
386.34	433.00
386.53	418.96
386.72	386.19
386.92	430.66
387.11	423.64
387.31	430.66
387.50	421.30
387.70	447.04
387.89	444.70
388.09	376.83
388.28	386.19
388.48	388.53
388.67	402.57
388.86	365.12
389.06	397.89
389.25	423.64
389.45	400.23
389.64	386.19
389.84	416.62
390.03	486.83
390.22	390.87
390.42	353.42
390.61	344.06
390.81	374.49
391.00	346.40
391.19	397.89
391.39	465.77
391.58	393.21
391.78	409.59
391.97	393.21
392.16	381.51
392.36	475.13
392.55	451.72
392.75	428.32
392.94	369.80
393.13	440.02
393.33	425.98
393.52	383.85
393.71	451.72
393.91	437.68
394.10	440.02
394.29	395.55
394.49	386.19
394.68	414.27
394.88	444.70
395.07	390.87
395.26	330.02
395.46	435.34
395.65	421.30
395.84	407.25
396.04	519.60
396.23	416.62
396.42	425.98
396.62	404.91
396.81	348.74
397.00	388.53
397.19	414.27
397.39	437.68
397.58	351.08
397.77	421.30
397.97	414.27
398.16	409.59
398.35	449.38
398.55	482.15
398.74	414.27
398.93	400.23
399.12	430.66
399.32	477.47
399.51	374.49
399.70	372.15
399.90	386.19
400.09	423.64
400.28	397.89
400.47	423.64
400.67	411.93
400.86	402.57
401.05	416.62
401.24	430.66
401.44	449.38
401.63	433.00
401.82	402.57
402.01	346.40
402.21	386.19
402.40	463.43
402.59	388.53
402.78	400.23
402.97	325.33
403.17	379.17
403.36	374.49
403.55	409.59
403.74	437.68
403.93	294.91
404.13	353.42
404.32	414.27
404.51	383.85
404.70	444.70
404.89	388.53
405.09	416.62
405.28	418.96
405.47	393.21
405.66	372.15
405.85	435.34
406.05	440.02
406.24	428.32
406.43	395.55
406.62	374.49
406.81	421.30
407.00	386.19
407.20	435.34
407.39	369.80
407.58	444.70
407.77	428.32
407.96	482.15
408.15	416.62
408.34	411.93
408.54	407.25
408.73	418.96
408.92	416.62
409.11	397.89
409.30	449.38
409.49	418.96
409.68	390.87
409.87	379.17
410.07	325.33
410.26	411.93
410.45	400.23
410.64	435.34
410.83	397.89
411.02	414.27
411.21	430.66
411.40	395.55
411.59	379.17
411.78	402.57
411.98	397.89
412.17	360.44
412.36	414.27
412.55	367.46
412.74	416.62
412.93	409.59
413.12	416.62
413.31	468.11
413.50	367.46
413.69	395.55
413.88	393.21
414.07	397.89
414.26	386.19
414.45	411.93
414.64	435.34
414.83	437.68
415.02	421.30
415.22	447.04
415.41	451.72
415.60	425.98
415.79	383.85
415.98	451.72
416.17	430.66
416.36	407.25
416.55	423.64
416.74	407.25
416.93	437.68
417.12	418.96
417.31	362.78
417.50	456.40
417.69	409.59
417.88	334.70
418.07	416.62
418.26	468.11
418.45	414.27
418.64	433.00
418.83	447.04
419.02	465.77
419.21	449.38
419.39	449.38
419.58	379.17
419.77	454.06
419.96	372.15
420.15	503.22
420.34	425.98
420.53	388.53
420.72	365.12
420.91	425.98
421.10	465.77
421.29	430.66
421.48	376.83
421.67	458.74
421.86	416.62
422.05	411.93
422.24	430.66
422.43	482.15
422.61	383.85
422.80	362.78
422.99	400.23
423.18	454.06
423.37	355.76
423.56	395.55
423.75	461.09
423.94	444.70
424.13	430.66
424.32	444.70
424.50	435.34
424.69	411.93
424.88	512.58
425.07	358.10
425.26	390.87
425.45	461.09
425.64	402.57
425.83	421.30
426.01	454.06
426.20	411.93
426.39	346.40
426.58	355.76
426.77	369.80
426.96	458.74
427.15	421.30
427.33	351.08
427.52	330.02
427.71	461.09
427.90	414.27
428.09	388.53
428.28	390.87
428.46	341.72
428.65	449.38
428.84	386.19
429.03	444.70
429.22	402.57
429.40	440.02
429.59	430.66
429.78	449.38
429.97	346.40
430.16	447.04
430.34	407.25
430.53	449.38
430.72	414.27
430.91	498.53
431.10	400.23
431.28	435.34
431.47	430.66
431.66	425.98
431.85	433.00
432.03	512.58
432.22	440.02
432.41	451.72
432.60	472.79
432.79	379.17
432.97	449.38
433.16	482.15
433.35	355.76
433.54	397.89
433.72	428.32
433.91	489.17
434.10	386.19
434.28	458.74
434.47	425.98
434.66	414.27
434.85	411.93
435.03	423.64
435.22	451.72
435.41	503.22
435.59	458.74
435.78	418.96
435.97	416.62
436.16	423.64
436.34	355.76
436.53	430.66
436.72	397.89
436.90	381.51
437.09	454.06
437.28	409.59
437.46	348.74
437.65	409.59
437.84	369.80
438.02	388.53
438.21	404.91
438.40	400.23
438.58	447.04
438.77	418.96
438.96	407.25
439.14	367.46
439.33	449.38
439.52	334.70
439.70	447.04
439.89	475.13
440.08	369.80
440.26	393.21
440.45	411.93
440.63	402.57
440.82	397.89
441.01	341.72
441.19	395.55
441.38	337.04
441.57	400.23
441.75	409.59
441.94	444.70
442.12	444.70
442.31	390.87
442.50	322.99
442.68	442.36
442.87	402.57
443.05	435.34
443.24	414.27
443.43	468.11
443.61	440.02
443.80	367.46
443.98	437.68
444.17	397.89
444.35	374.49
444.54	402.57
444.73	376.83
444.91	472.79
445.10	435.34
445.28	407.25
445.47	414.27
445.65	386.19
445.84	379.17
446.02	440.02
446.21	414.27
446.39	362.78
446.58	393.21
446.77	390.87
446.95	451.72
447.14	454.06
447.32	421.30
447.51	461.09
447.69	435.34
447.88	454.06
448.06	442.36
448.25	369.80
448.43	294.91
448.62	428.32
448.80	437.68
448.99	369.80
449.17	395.55
449.36	393.21
449.54	355.76
449.73	393.21
449.91	437.68
450.10	451.72
450.28	547.69
450.46	418.96
450.65	433.00
450.83	381.51
451.02	365.12
451.20	404.91
451.39	449.38
451.57	418.96
451.76	425.98
451.94	379.17
452.13	372.15
452.31	456.40
452.49	379.17
452.68	397.89
452.86	390.87
453.05	433.00
453.23	423.64
453.42	362.78
453.60	423.64
453.78	400.23
453.97	421.30
454.15	475.13
454.34	383.85
454.52	407.25
454.70	449.38
454.89	472.79
455.07	367.46
455.26	397.89
455.44	444.70
455.62	421.30
455.81	449.38
455.99	463.43
456.17	404.91
456.36	414.27
456.54	437.68
456.73	348.74
456.91	430.66
457.09	451.72
457.28	447.04
457.46	409.59
457.64	440.02
457.83	388.53
458.01	407.25
458.19	318.31
458.38	383.85
458.56	367.46
458.74	416.62
458.93	409.59
459.11	423.64
459.29	360.44
459.48	388.53
459.66	486.83
459.84	416.62
460.03	456.40
460.21	409.59
460.39	367.46
460.57	381.51
460.76	395.55
460.94	451.72
461.12	414.27
461.31	444.70
461.49	386.19
461.67	393.21
461.85	372.15
462.04	383.85
462.22	802.80
462.40	411.93
462.59	496.19
462.77	461.09
462.95	376.83
463.13	337.04
463.32	451.72
463.50	414.27
463.68	428.32
463.86	440.02
464.05	444.70
464.23	437.68
464.41	386.19
464.59	369.80
464.78	447.04
464.96	395.55
465.14	404.91
465.32	407.25
465.50	402.57
465.69	372.15
465.87	397.89
466.05	411.93
466.23	435.34
466.41	407.25
466.60	402.57
466.78	395.55
466.96	479.81
467.14	428.32
467.32	418.96
467.51	407.25
467.69	482.15
467.87	447.04
468.05	381.51
468.23	437.68
468.41	362.78
468.60	451.72
468.78	390.87
468.96	449.38
469.14	404.91
469.32	402.57
469.50	416.62
469.69	348.74
469.87	355.76
470.05	397.89
470.23	430.66
470.41	411.93
470.59	379.17
470.77	397.89
470.95	383.85
471.14	512.58
471.32	468.11
471.50	444.70
471.68	388.53
471.86	414.27
472.04	383.85
472.22	430.66
472.40	425.98
472.58	381.51
472.77	411.93
472.95	416.62
473.13	383.85
473.31	484.49
473.49	404.91
473.67	465.77
473.85	402.57
474.03	435.34
474.21	372.15
474.39	484.49
474.57	493.85
474.75	411.93
474.93	397.89
475.12	379.17
475.30	482.15
475.48	433.00
475.66	390.87
475.84	400.23
476.02	423.64
476.20	433.00
476.38	430.66
476.56	496.19
476.74	388.53
476.92	435.34
477.10	407.25
477.28	442.36
477.46	374.49
477.64	493.85
477.82	458.74
478.00	404.91
478.18	395.55
478.36	428.32
478.54	435.34
478.72	433.00
478.90	390.87
479.08	355.76
479.26	437.68
479.44	374.49
479.62	386.19
479.80	402.57
479.98	402.57
480.16	397.89
480.34	484.49
480.52	421.30
480.70	440.02
480.88	395.55
481.06	339.38
481.24	437.68
481.41	451.72
481.59	351.08
481.77	472.79
481.95	435.34
482.13	454.06
482.31	421.30
482.49	425.98
482.67	472.79
482.85	423.64
483.03	407.25
483.21	414.27
483.39	416.62
483.57	435.34
483.74	437.68
483.92	276.18
484.10	451.72
484.28	411.93
484.46	430.66
484.64	400.23
484.82	386.19
485.00	351.08
485.18	456.40
485.35	454.06
485.53	388.53
485.71	463.43
485.89	477.47
486.07	463.43
486.25	472.79
486.43	456.40
486.61	454.06
486.78	386.19
486.96	507.90
487.14	421.30
487.32	332.36
487.50	421.30
487.68	486.83
487.85	433.00
488.03	491.51
488.21	369.80
488.39	395.55
488.57	400.23
488.75	411.93
488.92	421.30
489.10	400.23
489.28	440.02
489.46	418.96
489.64	379.17
489.81	395.55
489.99	360.44
490.17	332.36
490.35	458.74
490.53	397.89
490.70	337.04
490.88	379.17
491.06	393.21
491.24	404.91
491.41	482.15
491.59	472.79
491.77	428.32
491.95	447.04
492.13	440.02
492.30	425.98
492.48	411.93
492.66	425.98
492.84	369.80
493.01	456.40
493.19	423.64
493.37	479.81
493.54	330.02
493.72	505.56
493.90	409.59
494.08	395.55
494.25	390.87
494.43	411.93
494.61	418.96
494.79	332.36
494.96	482.15
495.14	444.70
495.32	372.15
495.49	440.02
495.67	479.81
495.85	430.66
496.02	454.06
496.20	454.06
496.38	404.91
496.55	472.79
496.73	383.85
496.91	334.70
497.09	390.87
497.26	433.00
497.44	493.85
497.62	458.74
497.79	390.87
497.97	395.55
498.14	458.74
498.32	440.02
498.50	456.40
498.67	428.32
498.85	376.83
499.03	423.64
499.20	400.23
499.38	493.85
499.56	402.57
499.73	411.93
499.91	393.21
500.08	365.12
500.26	418.96
500.44	442.36
500.61	456.40
500.79	386.19
500.97	428.32
501.14	416.62
501.32	388.53
501.49	386.19
501.67	444.70
501.84	428.32
502.02	381.51
502.20	416.62
502.37	402.57
502.55	468.11
502.72	430.66
502.90	456.40
503.07	442.36
503.25	369.80
503.43	444.70
503.60	353.42
503.78	402.57
503.95	411.93
504.13	369.80
504.30	470.45
504.48	475.13
504.65	444.70
504.83	465.77
505.01	351.08
505.18	388.53
505.36	313.63
505.53	386.19
505.71	374.49
505.88	449.38
506.06	411.93
506.23	482.15
506.41	454.06
506.58	402.57
506.76	440.02
506.93	395.55
507.11	411.93
507.28	463.43
507.46	428.32
507.63	423.64
507.81	416.62
507.98	421.30
508.16	400.23
508.33	418.96
508.50	411.93
508.68	496.19
508.85	388.53
509.03	435.34
509.20	404.91
509.38	440.02
509.55	451.72
509.73	430.66
509.90	388.53
510.08	386.19
510.25	341.72
510.42	458.74
510.60	423.64
510.77	393.21
510.95	470.45
511.12	397.89
511.30	407.25
511.47	409.59
511.64	498.53
511.82	379.17
511.99	425.98
512.17	421.30
512.34	414.27
512.51	339.38
512.69	388.53
512.86	397.89
513.04	365.12
513.21	421.30
513.38	411.93
513.56	393.21
513.73	360.44
513.90	353.42
514.08	435.34
514.25	430.66
514.43	456.40
514.60	365.12
514.77	444.70
514.95	404.91
515.12	404.91
515.29	409.59
515.47	379.17
515.64	383.85
515.81	346.40
515.99	435.34
516.16	430.66
516.33	470.45
516.51	397.89
516.68	444.70
516.85	393.21
517.03	425.98
517.20	418.96
517.37	402.57
517.54	435.34
517.72	355.76
517.89	400.23
518.06	416.62
518.24	475.13
518.41	409.59
518.58	416.62
518.75	325.33
518.93	433.00
519.10	397.89
519.27	367.46
519.45	440.02
519.62	456.40
519.79	362.78
519.96	383.85
520.14	400.23
520.31	440.02
520.48	421.30
520.65	348.74
520.83	409.59
521.00	383.85
521.17	400.23
521.34	435.34
521.52	388.53
521.69	395.55
521.86	428.32
522.03	379.17
522.20	435.34
522.38	397.89
522.55	407.25
522.72	440.02
522.89	465.77
523.07	425.98
523.24	372.15
523.41	369.80
523.58	383.85
523.75	414.27
523.92	428.32
524.10	430.66
524.27	416.62
524.44	456.40
524.61	409.59
524.78	435.34
524.96	360.44
525.13	395.55
525.30	512.58
525.47	400.23
525.64	418.96
525.81	365.12
525.98	470.45
526.16	421.30
526.33	367.46
526.50	411.93
526.67	386.19
526.84	355.76
527.01	400.23
527.18	395.55
527.36	369.80
527.53	400.23
527.70	475.13
527.87	428.32
528.04	381.51
528.21	390.87
528.38	456.40
528.55	407.25
528.72	416.62
528.89	367.46
529.07	425.98
529.24	442.36
529.41	404.91
529.58	379.17
529.75	433.00
529.92	365.12
530.09	433.00
530.26	402.57
530.43	423.64
530.60	330.02
530.77	404.91
530.94	390.87
531.11	344.06
531.28	383.85
531.46	374.49
531.63	402.57
531.80	409.59
531.97	444.70
532.14	395.55
532.31	416.62
532.48	451.72
532.65	351.08
532.82	442.36
532.99	411.93
533.16	397.89
533.33	395.55
533.50	423.64
533.67	465.77
533.84	409.59
534.01	456.40
534.18	407.25
534.35	404.91
534.52	458.74
534.69	393.21
534.86	447.04
535.03	425.98
535.20	386.19
535.37	414.27
535.54	409.59
535.71	386.19
535.88	407.25
536.05	362.78
536.22	390.87
536.38	367.46
536.55	454.06
536.72	409.59
536.89	418.96
537.06	454.06
537.23	411.93
537.40	383.85
537.57	351.08
537.74	435.34
537.91	414.27
538.08	458.74
538.25	470.45
538.42	447.04
538.59	465.77
538.75	407.25
538.92	390.87
539.09	461.09
539.26	400.23
539.43	411.93
539.60	360.44
539.77	334.70
539.94	430.66
540.11	454.06
540.28	463.43
540.44	461.09
540.61	418.96
540.78	374.49
540.95	425.98
541.12	423.64
541.29	416.62
541.46	498.53
541.62	435.34
541.79	407.25
541.96	500.87
542.13	421.30
542.30	440.02
542.47	461.09
542.63	486.83
542.80	414.27
542.97	444.70
543.14	334.70
543.31	383.85
543.48	330.02
543.64	367.46
543.81	458.74
543.98	400.23
544.15	435.34
544.32	418.96
544.48	344.06
544.65	383.85
544.82	397.89
544.99	395.55
545.16	407.25
545.32	360.44
545.49	451.72
545.66	418.96
545.83	320.65
546.00	393.21
546.16	411.93
546.33	402.57
546.50	468.11
546.67	435.34
546.83	454.06
547.00	395.55
547.17	393.21
547.34	348.74
547.50	437.68
547.67	372.15
547.84	381.51
548.00	435.34
548.17	388.53
548.34	428.32
548.51	386.19
548.67	397.89
548.84	367.46
549.01	472.79
549.18	437.68
549.34	428.32
549.51	428.32
549.68	461.09
549.84	435.34
550.01	423.64
550.18	507.90
550.34	463.43
550.51	376.83
550.68	444.70
550.84	339.38
551.01	397.89
551.18	449.38
551.34	521.94
551.51	395.55
551.68	437.68
551.84	440.02
552.01	470.45
552.18	400.23
552.34	449.38
552.51	416.62
552.68	423.64
552.84	425.98
553.01	374.49
553.18	388.53
553.34	437.68
553.51	383.85
553.67	395.55
553.84	465.77
554.01	414.27
554.17	425.98
554.34	332.36
554.51	379.17
554.67	390.87
554.84	388.53
555.00	475.13
555.17	498.53
555.33	458.74
555.50	428.32
555.67	404.91
555.83	395.55
556.00	416.62
556.16	552.37
556.33	463.43
556.50	386.19
556.66	444.70
556.83	442.36
556.99	416.62
557.16	418.96
557.32	425.98
557.49	411.93
557.65	411.93
557.82	416.62
557.98	428.32
558.15	390.87
558.32	411.93
558.48	425.98
558.65	451.72
558.81	454.06
558.98	423.64
559.14	440.02
559.31	447.04
559.47	355.76
559.64	358.10
559.80	341.72
559.97	353.42
560.13	341.72
560.30	425.98
560.46	423.64
560.63	369.80
560.79	493.85
560.96	433.00
561.12	322.99
561.29	393.21
561.45	444.70
561.61	437.68
561.78	543.00
561.94	360.44
562.11	454.06
562.27	416.62
562.44	421.30
562.60	435.34
562.77	468.11
562.93	486.83
563.10	395.55
563.26	421.30
563.42	430.66
563.59	400.23
563.75	451.72
563.92	458.74
564.08	444.70
564.24	430.66
564.41	442.36
564.57	444.70
564.74	411.93
564.90	388.53
565.07	416.62
565.23	447.04
565.39	348.74
565.56	400.23
565.72	400.23
565.88	433.00
566.05	477.47
566.21	414.27
566.38	449.38
566.54	416.62
566.70	414.27
566.87	500.87
567.03	423.64
567.19	386.19
567.36	423.64
567.52	437.68
567.68	440.02
567.85	423.64
568.01	372.15
568.17	365.12
568.34	444.70
568.50	489.17
568.66	381.51
568.83	479.81
568.99	498.53
569.15	437.68
569.32	346.40
569.48	400.23
569.64	477.47
569.81	388.53
569.97	447.04
570.13	440.02
570.30	440.02
570.46	451.72
570.62	449.38
570.78	402.57
570.95	437.68
571.11	416.62
571.27	397.89
571.43	409.59
571.60	435.34
571.76	454.06
571.92	402.57
572.09	381.51
572.25	379.17
572.41	437.68
572.57	376.83
572.74	435.34
572.90	512.58
573.06	458.74
573.22	397.89
573.38	395.55
573.55	402.57
573.71	433.00
573.87	447.04
574.03	379.17
574.20	381.51
574.36	507.90
574.52	388.53
574.68	451.72
574.84	425.98
575.01	341.72
575.17	489.17
575.33	437.68
575.49	475.13
575.65	376.83
575.82	461.09
575.98	390.87
576.14	374.49
576.30	404.91
576.46	414.27
576.62	435.34
576.79	444.70
576.95	430.66
577.11	383.85
577.27	376.83
577.43	386.19
577.59	379.17
577.75	468.11
577.92	393.21
578.08	325.33
578.24	521.94
578.40	444.70
578.56	507.90
578.72	447.04
578.88	348.74
579.04	397.89
579.21	393.21
579.37	475.13
579.53	390.87
579.69	430.66
579.85	468.11
580.01	379.17
580.17	440.02
580.33	472.79
580.49	437.68
580.65	458.74
580.82	369.80
580.98	470.45
581.14	393.21
581.30	475.13
581.46	477.47
581.62	437.68
581.78	456.40
581.94	386.19
582.10	402.57
582.26	435.34
582.42	381.51
582.58	411.93
582.74	433.00
582.90	386.19
583.06	372.15
583.22	496.19
583.38	404.91
583.54	423.64
583.70	397.89
583.86	451.72
584.02	447.04
584.18	369.80
584.34	404.91
584.50	440.02
584.66	388.53
584.82	428.32
584.98	395.55
585.14	397.89
585.30	397.89
585.46	470.45
585.62	404.91
585.78	383.85
585.94	458.74
586.10	430.66
586.26	451.72
586.42	407.25
586.58	498.53
586.74	418.96
586.90	400.23
587.06	400.23
587.22	374.49
587.38	400.23
587.54	449.38
587.70	447.04
587.86	472.79
588.02	440.02
588.18	428.32
588.34	414.27
588.49	411.93
588.65	327.68
588.81	369.80
588.97	433.00
589.13	411.93
589.29	437.68
589.45	388.53
589.61	456.40
589.77	435.34
589.93	425.98
590.08	395.55
590.24	400.23
590.40	393.21
590.56	430.66
590.72	433.00
590.88	367.46
591.04	463.43
591.20	451.72
591.35	479.81
591.51	411.93
591.67	428.32
591.83	437.68
591.99	421.30
592.15	472.79
592.31	404.91
592.46	404.91
592.62	468.11
592.78	369.80
592.94	351.08
593.10	461.09
593.26	402.57
593.41	400.23
593.57	468.11
593.73	423.64
593.89	395.55
594.05	428.32
594.20	454.06
594.36	421.30
594.52	454.06
594.68	421.30
594.84	388.53
594.99	409.59
595.15	454.06
595.31	423.64
595.47	435.34
595.62	381.51
595.78	386.19
595.94	421.30
596.10	440.02
596.25	374.49
596.41	372.15
596.57	400.23
596.73	418.96
596.88	388.53
597.04	414.27
597.20	376.83
597.36	489.17
597.51	447.04
597.67	435.34
597.83	416.62
597.99	400.23
598.14	435.34
598.30	430.66
598.46	358.10
598.61	470.45
598.77	482.15
598.93	383.85
599.09	400.23
599.24	369.80
599.40	421.30
599.56	409.59
599.71	423.64
599.87	437.68
600.03	416.62
600.18	390.87
600.34	418.96
600.50	418.96
600.65	442.36
600.81	416.62
600.97	381.51
601.12	428.32
601.28	390.87
601.44	472.79
601.59	425.98
601.75	451.72
601.91	433.00
602.06	416.62
602.22	484.49
602.37	465.77
602.53	367.46
602.69	416.62
602.84	418.96
603.00	423.64
603.16	423.64
603.31	531.30
603.47	517.26
603.62	468.11
603.78	482.15
603.94	428.32
604.09	428.32
604.25	447.04
604.40	461.09
604.56	475.13
604.71	388.53
604.87	433.00
605.03	395.55
605.18	461.09
605.34	400.23
605.49	425.98
605.65	489.17
605.80	358.10
605.96	346.40
606.12	425.98
606.27	421.30
606.43	390.87
606.58	430.66
606.74	402.57
606.89	372.15
607.05	369.80
607.20	386.19
607.36	486.83
607.51	388.53
607.67	442.36
607.82	414.27
607.98	477.47
608.13	461.09
608.29	423.64
608.44	411.93
608.60	493.85
608.75	437.68
608.91	402.57
609.06	418.96
609.22	425.98
609.37	454.06
609.53	381.51
609.68	423.64
609.84	440.02
609.99	362.78
610.15	440.02
