SpectraSuite Data File
++++++++++++++++++++++++++++++++++++
Date: Fri Oct 25 12:10:36 EDT 2013
User: price-jones
Dark Spectrum Present: No
Reference Spectrum Present: No
Number of Sampled Component Spectra: 1
Spectrometers: USB2+H05261
Integration Time (usec): 100000 (USB2+H05261)
Spectra Averaged: 1 (USB2+H05261)
Boxcar Smoothing: 0 (USB2+H05261)
Correct for Electrical Dark: No (USB2+H05261)
Strobe/Lamp Enabled: No (USB2+H05261)
Correct for Detector Non-linearity: No (USB2+H05261)
Correct for Stray Light: No (USB2+H05261)
Number of Pixels in Processed Spectrum: 2048
>>>>>Begin Processed Spectral Data<<<<<
365.73	332.36
365.92	332.36
366.12	332.36
366.32	205.97
366.52	311.29
366.72	278.52
366.91	196.60
367.11	252.78
367.31	194.26
367.51	212.99
367.70	149.79
367.90	280.86
368.10	203.63
368.30	220.01
368.49	245.76
368.69	273.84
368.89	280.86
369.09	297.25
369.28	271.50
369.48	205.97
369.68	245.76
369.87	255.12
370.07	262.14
370.27	322.99
370.47	341.72
370.66	353.42
370.86	330.02
371.06	407.25
371.25	397.89
371.45	372.15
371.65	421.30
371.84	411.93
372.04	308.95
372.24	425.98
372.44	400.23
372.63	390.87
372.83	411.93
373.03	395.55
373.22	367.46
373.42	351.08
373.62	430.66
373.81	442.36
374.01	393.21
374.21	449.38
374.40	383.85
374.60	451.72
374.79	449.38
374.99	369.80
375.19	470.45
375.38	435.34
375.58	437.68
375.78	421.30
375.97	372.15
376.17	526.62
376.37	374.49
376.56	449.38
376.76	447.04
376.95	411.93
377.15	437.68
377.35	433.00
377.54	402.57
377.74	435.34
377.93	383.85
378.13	351.08
378.33	435.34
378.52	437.68
378.72	454.06
378.91	414.27
379.11	428.32
379.31	461.09
379.50	425.98
379.70	409.59
379.89	376.83
380.09	379.17
380.28	365.12
380.48	355.76
380.68	449.38
380.87	463.43
381.07	346.40
381.26	440.02
381.46	423.64
381.65	376.83
381.85	393.21
382.04	360.44
382.24	477.47
382.43	362.78
382.63	433.00
382.83	386.19
383.02	430.66
383.22	475.13
383.41	383.85
383.61	423.64
383.80	383.85
384.00	409.59
384.19	402.57
384.39	383.85
384.58	313.63
384.78	393.21
384.97	411.93
385.17	484.49
385.36	435.34
385.56	444.70
385.75	465.77
385.95	353.42
386.14	409.59
386.34	477.47
386.53	484.49
386.72	416.62
386.92	393.21
387.11	409.59
387.31	449.38
387.50	397.89
387.70	444.70
387.89	421.30
388.09	393.21
388.28	433.00
388.48	421.30
388.67	430.66
388.86	341.72
389.06	423.64
389.25	447.04
389.45	346.40
389.64	386.19
389.84	407.25
390.03	404.91
390.22	425.98
390.42	360.44
390.61	376.83
390.81	358.10
391.00	355.76
391.19	388.53
391.39	369.80
391.58	374.49
391.78	404.91
391.97	334.70
392.16	379.17
392.36	454.06
392.55	383.85
392.75	383.85
392.94	411.93
393.13	430.66
393.33	379.17
393.52	395.55
393.71	367.46
393.91	454.06
394.10	423.64
394.29	355.76
394.49	423.64
394.68	411.93
394.88	386.19
395.07	388.53
395.26	376.83
395.46	433.00
395.65	414.27
395.84	435.34
396.04	449.38
396.23	367.46
396.42	477.47
396.62	386.19
396.81	374.49
397.00	440.02
397.19	400.23
397.39	442.36
397.58	421.30
397.77	451.72
397.97	416.62
398.16	423.64
398.35	418.96
398.55	372.15
398.74	447.04
398.93	418.96
399.12	433.00
399.32	383.85
399.51	404.91
399.70	414.27
399.90	454.06
400.09	379.17
400.28	404.91
400.47	351.08
400.67	447.04
400.86	362.78
401.05	409.59
401.24	484.49
401.44	477.47
401.63	461.09
401.82	418.96
402.01	339.38
402.21	409.59
402.40	440.02
402.59	379.17
402.78	388.53
402.97	411.93
403.17	444.70
403.36	458.74
403.55	423.64
403.74	393.21
403.93	374.49
404.13	372.15
404.32	444.70
404.51	330.02
404.70	393.21
404.89	440.02
405.09	414.27
405.28	360.44
405.47	442.36
405.66	484.49
405.85	475.13
406.05	428.32
406.24	449.38
406.43	381.51
406.62	411.93
406.81	393.21
407.00	475.13
407.20	442.36
407.39	423.64
407.58	355.76
407.77	379.17
407.96	444.70
408.15	395.55
408.34	477.47
408.54	409.59
408.73	397.89
408.92	360.44
409.11	381.51
409.30	372.15
409.49	397.89
409.68	409.59
409.87	395.55
410.07	353.42
410.26	358.10
410.45	381.51
410.64	376.83
410.83	444.70
411.02	397.89
411.21	414.27
411.40	390.87
411.59	393.21
411.78	348.74
411.98	365.12
412.17	355.76
412.36	447.04
412.55	484.49
412.74	458.74
412.93	449.38
413.12	428.32
413.31	367.46
413.50	425.98
413.69	395.55
413.88	409.59
414.07	409.59
414.26	425.98
414.45	376.83
414.64	425.98
414.83	437.68
415.02	355.76
415.22	433.00
415.41	430.66
415.60	437.68
415.79	435.34
415.98	449.38
416.17	365.12
416.36	383.85
416.55	304.27
416.74	477.47
416.93	440.02
417.12	374.49
417.31	470.45
417.50	411.93
417.69	414.27
417.88	442.36
418.07	400.23
418.26	367.46
418.45	358.10
418.64	407.25
418.83	447.04
419.02	393.21
419.21	428.32
419.39	414.27
419.58	418.96
419.77	416.62
419.96	423.64
420.15	496.19
420.34	395.55
420.53	454.06
420.72	456.40
420.91	456.40
421.10	428.32
421.29	400.23
421.48	491.51
421.67	444.70
421.86	430.66
422.05	360.44
422.24	454.06
422.43	402.57
422.61	463.43
422.80	383.85
422.99	341.72
423.18	376.83
423.37	454.06
423.56	425.98
423.75	454.06
423.94	369.80
424.13	367.46
424.32	358.10
424.50	418.96
424.69	407.25
424.88	505.56
425.07	362.78
425.26	402.57
425.45	386.19
425.64	379.17
425.83	416.62
426.01	451.72
426.20	390.87
426.39	435.34
426.58	390.87
426.77	404.91
426.96	416.62
427.15	376.83
427.33	411.93
427.52	353.42
427.71	372.15
427.90	386.19
428.09	425.98
428.28	435.34
428.46	367.46
428.65	395.55
428.84	374.49
429.03	454.06
429.22	479.81
429.40	372.15
429.59	393.21
429.78	454.06
429.97	381.51
430.16	355.76
430.34	393.21
430.53	395.55
430.72	374.49
430.91	472.79
431.10	447.04
431.28	428.32
431.47	454.06
431.66	369.80
431.85	409.59
432.03	381.51
432.22	449.38
432.41	388.53
432.60	344.06
432.79	379.17
432.97	435.34
433.16	451.72
433.35	470.45
433.54	435.34
433.72	470.45
433.91	514.92
434.10	489.17
434.28	395.55
434.47	395.55
434.66	404.91
434.85	362.78
435.03	353.42
435.22	411.93
435.41	407.25
435.59	411.93
435.78	395.55
435.97	428.32
436.16	440.02
436.34	381.51
436.53	428.32
436.72	444.70
436.90	386.19
437.09	339.38
437.28	454.06
437.46	444.70
437.65	447.04
437.84	449.38
438.02	437.68
438.21	397.89
438.40	362.78
438.58	400.23
438.77	404.91
438.96	454.06
439.14	416.62
439.33	437.68
439.52	444.70
439.70	475.13
439.89	411.93
440.08	372.15
440.26	503.22
440.45	451.72
440.63	458.74
440.82	444.70
441.01	461.09
441.19	400.23
441.38	449.38
441.57	360.44
441.75	402.57
441.94	444.70
442.12	440.02
442.31	411.93
442.50	379.17
442.68	447.04
442.87	379.17
443.05	395.55
443.24	416.62
443.43	428.32
443.61	454.06
443.80	425.98
443.98	393.21
444.17	400.23
444.35	442.36
444.54	414.27
444.73	458.74
444.91	393.21
445.10	376.83
445.28	358.10
445.47	475.13
445.65	454.06
445.84	355.76
446.02	339.38
446.21	428.32
446.39	423.64
446.58	388.53
446.77	449.38
446.95	374.49
447.14	418.96
447.32	433.00
447.51	479.81
447.69	418.96
447.88	456.40
448.06	400.23
448.25	430.66
448.43	414.27
448.62	461.09
448.80	461.09
448.99	435.34
449.17	418.96
449.36	407.25
449.54	411.93
449.73	351.08
449.91	346.40
450.10	418.96
450.28	407.25
450.46	433.00
450.65	404.91
450.83	355.76
451.02	416.62
451.20	423.64
451.39	390.87
451.57	334.70
451.76	409.59
451.94	369.80
452.13	388.53
452.31	456.40
452.49	409.59
452.68	411.93
452.86	411.93
453.05	533.64
453.23	468.11
453.42	433.00
453.60	362.78
453.78	440.02
453.97	308.95
454.15	435.34
454.34	442.36
454.52	360.44
454.70	386.19
454.89	461.09
455.07	425.98
455.26	449.38
455.44	465.77
455.62	442.36
455.81	372.15
455.99	440.02
456.17	437.68
456.36	372.15
456.54	404.91
456.73	416.62
456.91	383.85
457.09	404.91
457.28	454.06
457.46	334.70
457.64	390.87
457.83	416.62
458.01	390.87
458.19	390.87
458.38	388.53
458.56	418.96
458.74	397.89
458.93	355.76
459.11	376.83
459.29	372.15
459.48	404.91
459.66	393.21
459.84	477.47
460.03	500.87
460.21	383.85
460.39	360.44
460.57	409.59
460.76	442.36
460.94	395.55
461.12	435.34
461.31	521.94
461.49	372.15
461.67	437.68
461.85	397.89
462.04	449.38
462.22	767.70
462.40	442.36
462.59	454.06
462.77	402.57
462.95	444.70
463.13	472.79
463.32	383.85
463.50	414.27
463.68	365.12
463.86	372.15
464.05	414.27
464.23	421.30
464.41	447.04
464.59	372.15
464.78	414.27
464.96	411.93
465.14	379.17
465.32	430.66
465.50	447.04
465.69	414.27
465.87	334.70
466.05	421.30
466.23	444.70
466.41	451.72
466.60	397.89
466.78	440.02
466.96	435.34
467.14	454.06
467.32	395.55
467.51	390.87
467.69	477.47
467.87	428.32
468.05	397.89
468.23	458.74
468.41	409.59
468.60	440.02
468.78	374.49
468.96	374.49
469.14	440.02
469.32	404.91
469.50	435.34
469.69	428.32
469.87	458.74
470.05	498.53
470.23	440.02
470.41	411.93
470.59	407.25
470.77	402.57
470.95	423.64
471.14	428.32
471.32	477.47
471.50	468.11
471.68	425.98
471.86	365.12
472.04	367.46
472.22	383.85
472.40	442.36
472.58	365.12
472.77	437.68
472.95	489.17
473.13	381.51
473.31	435.34
473.49	407.25
473.67	418.96
473.85	531.30
474.03	451.72
474.21	489.17
474.39	367.46
474.57	414.27
474.75	456.40
474.93	428.32
475.12	404.91
475.30	430.66
475.48	397.89
475.66	449.38
475.84	348.74
476.02	353.42
476.20	444.70
476.38	430.66
476.56	444.70
476.74	524.28
476.92	407.25
477.10	351.08
477.28	404.91
477.46	440.02
477.64	423.64
477.82	402.57
478.00	430.66
478.18	458.74
478.36	402.57
478.54	388.53
478.72	390.87
478.90	421.30
479.08	367.46
479.26	404.91
479.44	454.06
479.62	428.32
479.80	379.17
479.98	386.19
480.16	440.02
480.34	402.57
480.52	475.13
480.70	440.02
480.88	386.19
481.06	332.36
481.24	369.80
481.41	423.64
481.59	425.98
481.77	358.10
481.95	362.78
482.13	402.57
482.31	395.55
482.49	376.83
482.67	524.28
482.85	374.49
483.03	421.30
483.21	461.09
483.39	395.55
483.57	421.30
483.74	447.04
483.92	414.27
484.10	362.78
484.28	423.64
484.46	484.49
484.64	465.77
484.82	411.93
485.00	418.96
485.18	362.78
485.35	346.40
485.53	416.62
485.71	484.49
485.89	404.91
486.07	360.44
486.25	430.66
486.43	383.85
486.61	402.57
486.78	411.93
486.96	411.93
487.14	390.87
487.32	395.55
487.50	435.34
487.68	449.38
487.85	383.85
488.03	402.57
488.21	353.42
488.39	463.43
488.57	404.91
488.75	430.66
488.92	451.72
489.10	409.59
489.28	440.02
489.46	404.91
489.64	435.34
489.81	470.45
489.99	407.25
490.17	472.79
490.35	393.21
490.53	454.06
490.70	390.87
490.88	444.70
491.06	407.25
491.24	430.66
491.41	482.15
491.59	451.72
491.77	407.25
491.95	390.87
492.13	365.12
492.30	430.66
492.48	393.21
492.66	346.40
492.84	447.04
493.01	475.13
493.19	472.79
493.37	442.36
493.54	451.72
493.72	423.64
493.90	393.21
494.08	411.93
494.25	379.17
494.43	379.17
494.61	369.80
494.79	365.12
494.96	374.49
495.14	440.02
495.32	367.46
495.49	423.64
495.67	355.76
495.85	428.32
496.02	472.79
496.20	376.83
496.38	461.09
496.55	411.93
496.73	430.66
496.91	430.66
497.09	498.53
497.26	353.42
497.44	440.02
497.62	444.70
497.79	437.68
497.97	416.62
498.14	442.36
498.32	388.53
498.50	381.51
498.67	409.59
498.85	433.00
499.03	468.11
499.20	433.00
499.38	402.57
499.56	421.30
499.73	463.43
499.91	423.64
500.08	477.47
500.26	463.43
500.44	423.64
500.61	482.15
500.79	383.85
500.97	477.47
501.14	433.00
501.32	400.23
501.49	463.43
501.67	411.93
501.84	407.25
502.02	365.12
502.20	479.81
502.37	383.85
502.55	339.38
502.72	418.96
502.90	360.44
503.07	374.49
503.25	433.00
503.43	421.30
503.60	468.11
503.78	479.81
503.95	423.64
504.13	362.78
504.30	393.21
504.48	423.64
504.65	454.06
504.83	465.77
505.01	433.00
505.18	372.15
505.36	428.32
505.53	442.36
505.71	423.64
505.88	444.70
506.06	470.45
506.23	372.15
506.41	435.34
506.58	393.21
506.76	418.96
506.93	421.30
507.11	482.15
507.28	348.74
507.46	409.59
507.63	381.51
507.81	461.09
507.98	463.43
508.16	358.10
508.33	435.34
508.50	358.10
508.68	383.85
508.85	423.64
509.03	416.62
509.20	395.55
509.38	418.96
509.55	465.77
509.73	433.00
509.90	418.96
510.08	407.25
510.25	442.36
510.42	428.32
510.60	358.10
510.77	440.02
510.95	440.02
511.12	449.38
511.30	409.59
511.47	477.47
511.64	482.15
511.82	390.87
511.99	442.36
512.17	489.17
512.34	395.55
512.51	369.80
512.69	407.25
512.86	383.85
513.04	402.57
513.21	435.34
513.38	409.59
513.56	430.66
513.73	428.32
513.90	444.70
514.08	421.30
514.25	416.62
514.43	435.34
514.60	381.51
514.77	463.43
514.95	388.53
515.12	435.34
515.29	423.64
515.47	428.32
515.64	409.59
515.81	348.74
515.99	404.91
516.16	386.19
516.33	430.66
516.51	433.00
516.68	451.72
516.85	339.38
517.03	397.89
517.20	386.19
517.37	557.05
517.54	404.91
517.72	416.62
517.89	435.34
518.06	393.21
518.24	365.12
518.41	435.34
518.58	416.62
518.75	367.46
518.93	428.32
519.10	416.62
519.27	341.72
519.45	381.51
519.62	477.47
519.79	362.78
519.96	355.76
520.14	360.44
520.31	330.02
520.48	423.64
520.65	416.62
520.83	507.90
521.00	423.64
521.17	334.70
521.34	400.23
521.52	388.53
521.69	395.55
521.86	416.62
522.03	374.49
522.20	482.15
522.38	374.49
522.55	451.72
522.72	433.00
522.89	433.00
523.07	472.79
523.24	437.68
523.41	376.83
523.58	416.62
523.75	440.02
523.92	440.02
524.10	423.64
524.27	468.11
524.44	423.64
524.61	423.64
524.78	472.79
524.96	346.40
525.13	425.98
525.30	510.24
525.47	409.59
525.64	416.62
525.81	409.59
525.98	461.09
526.16	444.70
526.33	451.72
526.50	437.68
526.67	423.64
526.84	442.36
527.01	397.89
527.18	400.23
527.36	341.72
527.53	386.19
527.70	369.80
527.87	390.87
528.04	486.83
528.21	416.62
528.38	437.68
528.55	472.79
528.72	418.96
528.89	390.87
529.07	395.55
529.24	393.21
529.41	409.59
529.58	407.25
529.75	435.34
529.92	404.91
530.09	486.83
530.26	383.85
530.43	376.83
530.60	400.23
530.77	440.02
530.94	386.19
531.11	402.57
531.28	421.30
531.46	360.44
531.63	397.89
531.80	444.70
531.97	449.38
532.14	433.00
532.31	514.92
532.48	374.49
532.65	423.64
532.82	447.04
532.99	386.19
533.16	430.66
533.33	425.98
533.50	449.38
533.67	428.32
533.84	411.93
534.01	383.85
534.18	388.53
534.35	437.68
534.52	407.25
534.69	381.51
534.86	383.85
535.03	402.57
535.20	414.27
535.37	404.91
535.54	416.62
535.71	416.62
535.88	404.91
536.05	505.56
536.22	402.57
536.38	344.06
536.55	433.00
536.72	386.19
536.89	444.70
537.06	358.10
537.23	346.40
537.40	383.85
537.57	372.15
537.74	397.89
537.91	456.40
538.08	402.57
538.25	428.32
538.42	447.04
538.59	498.53
538.75	461.09
538.92	428.32
539.09	444.70
539.26	411.93
539.43	435.34
539.60	334.70
539.77	395.55
539.94	386.19
540.11	465.77
540.28	423.64
540.44	545.34
540.61	425.98
540.78	367.46
540.95	362.78
541.12	458.74
541.29	435.34
541.46	428.32
541.62	346.40
541.79	461.09
541.96	374.49
542.13	430.66
542.30	395.55
542.47	449.38
542.63	402.57
542.80	458.74
542.97	416.62
543.14	430.66
543.31	390.87
543.48	472.79
543.64	535.98
543.81	411.93
543.98	416.62
544.15	388.53
544.32	395.55
544.48	435.34
544.65	358.10
544.82	348.74
544.99	383.85
545.16	390.87
545.32	365.12
545.49	372.15
545.66	369.80
545.83	437.68
546.00	430.66
546.16	383.85
546.33	465.77
546.50	351.08
546.67	477.47
546.83	416.62
547.00	353.42
547.17	402.57
547.34	493.85
547.50	355.76
547.67	397.89
547.84	379.17
548.00	465.77
548.17	421.30
548.34	475.13
548.51	409.59
548.67	395.55
548.84	400.23
549.01	433.00
549.18	397.89
549.34	367.46
549.51	428.32
549.68	423.64
549.84	437.68
550.01	393.21
550.18	533.64
550.34	470.45
550.51	423.64
550.68	402.57
550.84	365.12
551.01	393.21
551.18	505.56
551.34	407.25
551.51	388.53
551.68	430.66
551.84	411.93
552.01	425.98
552.18	454.06
552.34	395.55
552.51	440.02
552.68	435.34
552.84	348.74
553.01	383.85
553.18	425.98
553.34	449.38
553.51	458.74
553.67	402.57
553.84	456.40
554.01	447.04
554.17	461.09
554.34	393.21
554.51	358.10
554.67	435.34
554.84	465.77
555.00	456.40
555.17	423.64
555.33	367.46
555.50	400.23
555.67	386.19
555.83	418.96
556.00	409.59
556.16	589.82
556.33	479.81
556.50	346.40
556.66	437.68
556.83	444.70
556.99	379.17
557.16	477.47
557.32	353.42
557.49	451.72
557.65	404.91
557.82	404.91
557.98	442.36
558.15	430.66
558.32	395.55
558.48	486.83
558.65	440.02
558.81	444.70
558.98	498.53
559.14	397.89
559.31	498.53
559.47	411.93
559.64	512.58
559.80	397.89
559.97	388.53
560.13	449.38
560.30	346.40
560.46	418.96
560.63	381.51
560.79	505.56
560.96	458.74
561.12	489.17
561.29	430.66
561.45	409.59
561.61	416.62
561.78	484.49
561.94	379.17
562.11	423.64
562.27	423.64
562.44	428.32
562.60	475.13
562.77	440.02
562.93	470.45
563.10	435.34
563.26	416.62
563.42	484.49
563.59	404.91
563.75	414.27
563.92	461.09
564.08	379.17
564.24	463.43
564.41	475.13
564.57	400.23
564.74	386.19
564.90	421.30
565.07	514.92
565.23	407.25
565.39	393.21
565.56	454.06
565.72	393.21
565.88	468.11
566.05	425.98
566.21	428.32
566.38	362.78
566.54	409.59
566.70	411.93
566.87	428.32
567.03	383.85
567.19	374.49
567.36	435.34
567.52	423.64
567.68	449.38
567.85	411.93
568.01	416.62
568.17	435.34
568.34	447.04
568.50	461.09
568.66	346.40
568.83	538.32
568.99	388.53
569.15	463.43
569.32	362.78
569.48	362.78
569.64	386.19
569.81	461.09
569.97	442.36
570.13	400.23
570.30	411.93
570.46	393.21
570.62	437.68
570.78	365.12
570.95	437.68
571.11	400.23
571.27	414.27
571.43	454.06
571.60	425.98
571.76	442.36
571.92	416.62
572.09	458.74
572.25	428.32
572.41	397.89
572.57	369.80
572.74	390.87
572.90	428.32
573.06	461.09
573.22	456.40
573.38	463.43
573.55	449.38
573.71	386.19
573.87	353.42
574.03	437.68
574.20	423.64
574.36	472.79
574.52	369.80
574.68	348.74
574.84	411.93
575.01	383.85
575.17	449.38
575.33	341.72
575.49	381.51
575.65	454.06
575.82	430.66
575.98	458.74
576.14	435.34
576.30	404.91
576.46	421.30
576.62	351.08
576.79	407.25
576.95	365.12
577.11	437.68
577.27	407.25
577.43	414.27
577.59	461.09
577.75	379.17
577.92	425.98
578.08	369.80
578.24	475.13
578.40	430.66
578.56	395.55
578.72	447.04
578.88	400.23
579.04	379.17
579.21	421.30
579.37	400.23
579.53	376.83
579.69	400.23
579.85	433.00
580.01	463.43
580.17	416.62
580.33	482.15
580.49	454.06
580.65	430.66
580.82	407.25
580.98	435.34
581.14	304.27
581.30	407.25
581.46	475.13
581.62	381.51
581.78	407.25
581.94	489.17
582.10	440.02
582.26	414.27
582.42	425.98
582.58	440.02
582.74	418.96
582.90	430.66
583.06	486.83
583.22	430.66
583.38	388.53
583.54	367.46
583.70	472.79
583.86	496.19
584.02	379.17
584.18	435.34
584.34	451.72
584.50	423.64
584.66	411.93
584.82	341.72
584.98	402.57
585.14	430.66
585.30	461.09
585.46	425.98
585.62	437.68
585.78	411.93
585.94	397.89
586.10	395.55
586.26	388.53
586.42	353.42
586.58	451.72
586.74	327.68
586.90	418.96
587.06	397.89
587.22	416.62
587.38	337.04
587.54	440.02
587.70	404.91
587.86	465.77
588.02	402.57
588.18	360.44
588.34	437.68
588.49	430.66
588.65	388.53
588.81	437.68
588.97	372.15
589.13	465.77
589.29	435.34
589.45	500.87
589.61	463.43
589.77	423.64
589.93	383.85
590.08	404.91
590.24	414.27
590.40	416.62
590.56	374.49
590.72	383.85
590.88	325.33
591.04	428.32
591.20	447.04
591.35	456.40
591.51	402.57
591.67	388.53
591.83	416.62
591.99	435.34
592.15	440.02
592.31	477.47
592.46	418.96
592.62	421.30
592.78	418.96
592.94	451.72
593.10	402.57
593.26	348.74
593.41	369.80
593.57	475.13
593.73	390.87
593.89	383.85
594.05	395.55
594.20	379.17
594.36	428.32
594.52	395.55
594.68	411.93
594.84	379.17
594.99	503.22
595.15	484.49
595.31	470.45
595.47	411.93
595.62	367.46
595.78	381.51
595.94	330.02
596.10	433.00
596.25	386.19
596.41	393.21
596.57	479.81
596.73	388.53
596.88	397.89
597.04	433.00
597.20	440.02
597.36	489.17
597.51	414.27
597.67	365.12
597.83	372.15
597.99	470.45
598.14	449.38
598.30	386.19
598.46	402.57
598.61	414.27
598.77	416.62
598.93	440.02
599.09	484.49
599.24	447.04
599.40	489.17
599.56	461.09
599.71	447.04
599.87	430.66
600.03	458.74
600.18	322.99
600.34	421.30
600.50	388.53
600.65	308.95
600.81	374.49
600.97	411.93
601.12	414.27
601.28	418.96
601.44	365.12
601.59	390.87
601.75	451.72
601.91	423.64
602.06	442.36
602.22	430.66
602.37	388.53
602.53	381.51
602.69	404.91
602.84	458.74
603.00	344.06
603.16	414.27
603.31	430.66
603.47	428.32
603.62	407.25
603.78	444.70
603.94	383.85
604.09	430.66
604.25	444.70
604.40	477.47
604.56	454.06
604.71	479.81
604.87	463.43
605.03	395.55
605.18	425.98
605.34	407.25
605.49	428.32
605.65	379.17
605.80	418.96
605.96	472.79
606.12	376.83
606.27	430.66
606.43	400.23
606.58	414.27
606.74	447.04
606.89	374.49
607.05	442.36
607.20	416.62
607.36	416.62
607.51	404.91
607.67	388.53
607.82	332.36
607.98	496.19
608.13	379.17
608.29	510.24
608.44	418.96
608.60	386.19
608.75	463.43
608.91	372.15
609.06	358.10
609.22	437.68
609.37	404.91
609.53	414.27
609.68	421.30
609.84	425.98
609.99	470.45
610.15	367.46
