SpectraSuite Data File
++++++++++++++++++++++++++++++++++++
Date: Fri Oct 25 12:11:43 EDT 2013
User: price-jones
Dark Spectrum Present: No
Reference Spectrum Present: No
Number of Sampled Component Spectra: 1
Spectrometers: USB2+H05261
Integration Time (usec): 100000 (USB2+H05261)
Spectra Averaged: 1 (USB2+H05261)
Boxcar Smoothing: 0 (USB2+H05261)
Correct for Electrical Dark: No (USB2+H05261)
Strobe/Lamp Enabled: No (USB2+H05261)
Correct for Detector Non-linearity: No (USB2+H05261)
Correct for Stray Light: No (USB2+H05261)
Number of Pixels in Processed Spectrum: 2048
>>>>>Begin Processed Spectral Data<<<<<
365.73	280.86
365.92	280.86
366.12	280.86
366.32	290.23
366.52	241.08
366.72	283.20
366.91	290.23
367.11	187.24
367.31	196.60
367.51	198.95
367.70	191.92
367.90	264.48
368.10	248.10
368.30	257.46
368.49	259.80
368.69	325.33
368.89	259.80
369.09	276.18
369.28	304.27
369.48	238.73
369.68	297.25
369.87	280.86
370.07	315.97
370.27	330.02
370.47	334.70
370.66	362.78
370.86	365.12
371.06	344.06
371.25	416.62
371.45	374.49
371.65	416.62
371.84	397.89
372.04	353.42
372.24	355.76
372.44	388.53
372.63	409.59
372.83	425.98
373.03	374.49
373.22	423.64
373.42	435.34
373.62	379.17
373.81	418.96
374.01	493.85
374.21	404.91
374.40	421.30
374.60	437.68
374.79	461.09
374.99	475.13
375.19	433.00
375.38	353.42
375.58	437.68
375.78	437.68
375.97	477.47
376.17	500.87
376.37	393.21
376.56	451.72
376.76	435.34
376.95	397.89
377.15	428.32
377.35	409.59
377.54	379.17
377.74	386.19
377.93	470.45
378.13	372.15
378.33	468.11
378.52	440.02
378.72	430.66
378.91	418.96
379.11	397.89
379.31	348.74
379.50	344.06
379.70	355.76
379.89	381.51
380.09	463.43
380.28	393.21
380.48	390.87
380.68	397.89
380.87	386.19
381.07	416.62
381.26	416.62
381.46	400.23
381.65	395.55
381.85	358.10
382.04	468.11
382.24	451.72
382.43	416.62
382.63	402.57
382.83	416.62
383.02	442.36
383.22	390.87
383.41	444.70
383.61	433.00
383.80	393.21
384.00	461.09
384.19	358.10
384.39	465.77
384.58	425.98
384.78	421.30
384.97	393.21
385.17	372.15
385.36	407.25
385.56	472.79
385.75	437.68
385.95	362.78
386.14	428.32
386.34	341.72
386.53	430.66
386.72	390.87
386.92	489.17
387.11	428.32
387.31	367.46
387.50	416.62
387.70	407.25
387.89	383.85
388.09	442.36
388.28	404.91
388.48	451.72
388.67	402.57
388.86	367.46
389.06	461.09
389.25	390.87
389.45	409.59
389.64	418.96
389.84	442.36
390.03	404.91
390.22	374.49
390.42	435.34
390.61	421.30
390.81	376.83
391.00	381.51
391.19	397.89
391.39	355.76
391.58	383.85
391.78	397.89
391.97	437.68
392.16	404.91
392.36	451.72
392.55	433.00
392.75	435.34
392.94	390.87
393.13	367.46
393.33	411.93
393.52	355.76
393.71	454.06
393.91	386.19
394.10	416.62
394.29	458.74
394.49	360.44
394.68	372.15
394.88	493.85
395.07	411.93
395.26	442.36
395.46	442.36
395.65	411.93
395.84	423.64
396.04	451.72
396.23	397.89
396.42	374.49
396.62	465.77
396.81	390.87
397.00	383.85
397.19	416.62
397.39	402.57
397.58	351.08
397.77	444.70
397.97	341.72
398.16	365.12
398.35	444.70
398.55	400.23
398.74	421.30
398.93	386.19
399.12	428.32
399.32	381.51
399.51	411.93
399.70	400.23
399.90	435.34
400.09	496.19
400.28	390.87
400.47	353.42
400.67	374.49
400.86	414.27
401.05	416.62
401.24	414.27
401.44	442.36
401.63	395.55
401.82	393.21
402.01	358.10
402.21	334.70
402.40	416.62
402.59	425.98
402.78	381.51
402.97	440.02
403.17	423.64
403.36	442.36
403.55	421.30
403.74	418.96
403.93	402.57
404.13	468.11
404.32	393.21
404.51	393.21
404.70	484.49
404.89	433.00
405.09	479.81
405.28	440.02
405.47	433.00
405.66	470.45
405.85	475.13
406.05	383.85
406.24	351.08
406.43	447.04
406.62	461.09
406.81	404.91
407.00	393.21
407.20	425.98
407.39	430.66
407.58	400.23
407.77	423.64
407.96	409.59
408.15	369.80
408.34	449.38
408.54	409.59
408.73	397.89
408.92	409.59
409.11	421.30
409.30	454.06
409.49	367.46
409.68	369.80
409.87	402.57
410.07	461.09
410.26	493.85
410.45	428.32
410.64	381.51
410.83	334.70
411.02	365.12
411.21	374.49
411.40	409.59
411.59	367.46
411.78	400.23
411.98	437.68
412.17	351.08
412.36	430.66
412.55	472.79
412.74	407.25
412.93	472.79
413.12	451.72
413.31	416.62
413.50	353.42
413.69	404.91
413.88	407.25
414.07	449.38
414.26	433.00
414.45	365.12
414.64	514.92
414.83	404.91
415.02	374.49
415.22	383.85
415.41	386.19
415.60	381.51
415.79	407.25
415.98	390.87
416.17	414.27
416.36	411.93
416.55	416.62
416.74	402.57
416.93	381.51
417.12	360.44
417.31	482.15
417.50	423.64
417.69	430.66
417.88	423.64
418.07	376.83
418.26	451.72
418.45	421.30
418.64	414.27
418.83	444.70
419.02	435.34
419.21	386.19
419.39	442.36
419.58	334.70
419.77	348.74
419.96	442.36
420.15	421.30
420.34	369.80
420.53	407.25
420.72	496.19
420.91	386.19
421.10	428.32
421.29	475.13
421.48	404.91
421.67	454.06
421.86	442.36
422.05	400.23
422.24	437.68
422.43	372.15
422.61	416.62
422.80	411.93
422.99	362.78
423.18	435.34
423.37	416.62
423.56	393.21
423.75	388.53
423.94	428.32
424.13	376.83
424.32	451.72
424.50	407.25
424.69	472.79
424.88	477.47
425.07	442.36
425.26	437.68
425.45	458.74
425.64	407.25
425.83	430.66
426.01	447.04
426.20	393.21
426.39	418.96
426.58	339.38
426.77	404.91
426.96	458.74
427.15	440.02
427.33	358.10
427.52	458.74
427.71	437.68
427.90	442.36
428.09	353.42
428.28	337.04
428.46	404.91
428.65	404.91
428.84	390.87
429.03	430.66
429.22	372.15
429.40	372.15
429.59	402.57
429.78	397.89
429.97	423.64
430.16	458.74
430.34	454.06
430.53	381.51
430.72	421.30
430.91	442.36
431.10	388.53
431.28	421.30
431.47	479.81
431.66	414.27
431.85	416.62
432.03	449.38
432.22	456.40
432.41	456.40
432.60	397.89
432.79	395.55
432.97	489.17
433.16	458.74
433.35	351.08
433.54	390.87
433.72	425.98
433.91	458.74
434.10	423.64
434.28	451.72
434.47	379.17
434.66	444.70
434.85	435.34
435.03	395.55
435.22	451.72
435.41	428.32
435.59	423.64
435.78	442.36
435.97	423.64
436.16	409.59
436.34	402.57
436.53	383.85
436.72	428.32
436.90	393.21
437.09	461.09
437.28	365.12
437.46	451.72
437.65	442.36
437.84	489.17
438.02	468.11
438.21	435.34
438.40	369.80
438.58	383.85
438.77	351.08
438.96	393.21
439.14	435.34
439.33	465.77
439.52	404.91
439.70	428.32
439.89	449.38
440.08	418.96
440.26	498.53
440.45	484.49
440.63	407.25
440.82	381.51
441.01	449.38
441.19	330.02
441.38	437.68
441.57	358.10
441.75	423.64
441.94	435.34
442.12	428.32
442.31	386.19
442.50	421.30
442.68	503.22
442.87	449.38
443.05	451.72
443.24	472.79
443.43	428.32
443.61	433.00
443.80	470.45
443.98	409.59
444.17	411.93
444.35	421.30
444.54	397.89
444.73	416.62
444.91	465.77
445.10	386.19
445.28	407.25
445.47	510.24
445.65	477.47
445.84	402.57
446.02	470.45
446.21	468.11
446.39	447.04
446.58	447.04
446.77	430.66
446.95	425.98
447.14	433.00
447.32	358.10
447.51	454.06
447.69	456.40
447.88	440.02
448.06	425.98
448.25	395.55
448.43	421.30
448.62	444.70
448.80	411.93
448.99	461.09
449.17	423.64
449.36	376.83
449.54	418.96
449.73	423.64
449.91	365.12
450.10	337.04
450.28	397.89
450.46	404.91
450.65	414.27
450.83	409.59
451.02	393.21
451.20	404.91
451.39	344.06
451.57	421.30
451.76	330.02
451.94	407.25
452.13	477.47
452.31	461.09
452.49	430.66
452.68	376.83
452.86	383.85
453.05	461.09
453.23	397.89
453.42	379.17
453.60	449.38
453.78	409.59
453.97	402.57
454.15	383.85
454.34	463.43
454.52	433.00
454.70	451.72
454.89	463.43
455.07	411.93
455.26	381.51
455.44	430.66
455.62	475.13
455.81	351.08
455.99	404.91
456.17	416.62
456.36	411.93
456.54	416.62
456.73	454.06
456.91	400.23
457.09	468.11
457.28	418.96
457.46	409.59
457.64	397.89
457.83	374.49
458.01	395.55
458.19	465.77
458.38	418.96
458.56	346.40
458.74	379.17
458.93	440.02
459.11	458.74
459.29	379.17
459.48	428.32
459.66	493.85
459.84	411.93
460.03	475.13
460.21	351.08
460.39	381.51
460.57	390.87
460.76	461.09
460.94	461.09
461.12	430.66
461.31	411.93
461.49	390.87
461.67	374.49
461.85	465.77
462.04	423.64
462.22	720.88
462.40	421.30
462.59	369.80
462.77	414.27
462.95	428.32
463.13	416.62
463.32	479.81
463.50	437.68
463.68	458.74
463.86	451.72
464.05	454.06
464.23	486.83
464.41	447.04
464.59	381.51
464.78	325.33
464.96	393.21
465.14	397.89
465.32	425.98
465.50	444.70
465.69	346.40
465.87	404.91
466.05	470.45
466.23	395.55
466.41	418.96
466.60	496.19
466.78	416.62
466.96	461.09
467.14	437.68
467.32	365.12
467.51	468.11
467.69	465.77
467.87	433.00
468.05	500.87
468.23	512.58
468.41	411.93
468.60	423.64
468.78	376.83
468.96	416.62
469.14	414.27
469.32	365.12
469.50	421.30
469.69	386.19
469.87	442.36
470.05	397.89
470.23	447.04
470.41	376.83
470.59	425.98
470.77	425.98
470.95	411.93
471.14	456.40
471.32	411.93
471.50	388.53
471.68	463.43
471.86	433.00
472.04	348.74
472.22	414.27
472.40	428.32
472.58	400.23
472.77	423.64
472.95	423.64
473.13	465.77
473.31	430.66
473.49	397.89
473.67	400.23
473.85	409.59
474.03	489.17
474.21	397.89
474.39	444.70
474.57	454.06
474.75	491.51
474.93	376.83
475.12	390.87
475.30	425.98
475.48	486.83
475.66	411.93
475.84	435.34
476.02	383.85
476.20	442.36
476.38	379.17
476.56	470.45
476.74	433.00
476.92	433.00
477.10	433.00
477.28	402.57
477.46	421.30
477.64	416.62
477.82	388.53
478.00	383.85
478.18	411.93
478.36	428.32
478.54	390.87
478.72	397.89
478.90	411.93
479.08	437.68
479.26	411.93
479.44	397.89
479.62	346.40
479.80	430.66
479.98	423.64
480.16	388.53
480.34	388.53
480.52	362.78
480.70	428.32
480.88	465.77
481.06	449.38
481.24	365.12
481.41	376.83
481.59	416.62
481.77	456.40
481.95	411.93
482.13	428.32
482.31	484.49
482.49	362.78
482.67	435.34
482.85	442.36
483.03	390.87
483.21	388.53
483.39	374.49
483.57	482.15
483.74	428.32
483.92	386.19
484.10	411.93
484.28	461.09
484.46	461.09
484.64	456.40
484.82	456.40
485.00	447.04
485.18	390.87
485.35	416.62
485.53	369.80
485.71	468.11
485.89	414.27
486.07	440.02
486.25	472.79
486.43	425.98
486.61	489.17
486.78	395.55
486.96	423.64
487.14	498.53
487.32	376.83
487.50	376.83
487.68	442.36
487.85	397.89
488.03	437.68
488.21	468.11
488.39	442.36
488.57	454.06
488.75	351.08
488.92	484.49
489.10	430.66
489.28	442.36
489.46	348.74
489.64	421.30
489.81	463.43
489.99	437.68
490.17	425.98
490.35	498.53
490.53	393.21
490.70	416.62
490.88	372.15
491.06	414.27
491.24	407.25
491.41	407.25
491.59	454.06
491.77	440.02
491.95	423.64
492.13	362.78
492.30	390.87
492.48	428.32
492.66	374.49
492.84	465.77
493.01	383.85
493.19	444.70
493.37	372.15
493.54	486.83
493.72	386.19
493.90	344.06
494.08	381.51
494.25	524.28
494.43	409.59
494.61	358.10
494.79	409.59
494.96	393.21
495.14	440.02
495.32	388.53
495.49	416.62
495.67	470.45
495.85	444.70
496.02	433.00
496.20	393.21
496.38	519.60
496.55	449.38
496.73	477.47
496.91	393.21
497.09	472.79
497.26	433.00
497.44	411.93
497.62	390.87
497.79	400.23
497.97	404.91
498.14	440.02
498.32	383.85
498.50	421.30
498.67	449.38
498.85	400.23
499.03	404.91
499.20	465.77
499.38	395.55
499.56	416.62
499.73	540.66
499.91	407.25
500.08	379.17
500.26	437.68
500.44	433.00
500.61	451.72
500.79	402.57
500.97	461.09
501.14	425.98
501.32	407.25
501.49	461.09
501.67	325.33
501.84	444.70
502.02	355.76
502.20	395.55
502.37	369.80
502.55	430.66
502.72	433.00
502.90	440.02
503.07	393.21
503.25	442.36
503.43	407.25
503.60	437.68
503.78	468.11
503.95	428.32
504.13	418.96
504.30	404.91
504.48	421.30
504.65	461.09
504.83	407.25
505.01	416.62
505.18	418.96
505.36	353.42
505.53	383.85
505.71	447.04
505.88	416.62
506.06	404.91
506.23	344.06
506.41	393.21
506.58	421.30
506.76	404.91
506.93	421.30
507.11	421.30
507.28	346.40
507.46	465.77
507.63	442.36
507.81	404.91
507.98	351.08
508.16	372.15
508.33	404.91
508.50	376.83
508.68	440.02
508.85	430.66
509.03	418.96
509.20	379.17
509.38	458.74
509.55	390.87
509.73	390.87
509.90	381.51
510.08	383.85
510.25	393.21
510.42	447.04
510.60	444.70
510.77	451.72
510.95	482.15
511.12	360.44
511.30	327.68
511.47	402.57
511.64	421.30
511.82	348.74
511.99	414.27
512.17	383.85
512.34	400.23
512.51	447.04
512.69	383.85
512.86	409.59
513.04	365.12
513.21	379.17
513.38	447.04
513.56	395.55
513.73	416.62
513.90	393.21
514.08	470.45
514.25	416.62
514.43	407.25
514.60	388.53
514.77	390.87
514.95	442.36
515.12	332.36
515.29	421.30
515.47	442.36
515.64	472.79
515.81	351.08
515.99	353.42
516.16	365.12
516.33	421.30
516.51	444.70
516.68	454.06
516.85	444.70
517.03	402.57
517.20	381.51
517.37	433.00
517.54	421.30
517.72	344.06
517.89	411.93
518.06	425.98
518.24	428.32
518.41	395.55
518.58	402.57
518.75	402.57
518.93	388.53
519.10	430.66
519.27	489.17
519.45	435.34
519.62	433.00
519.79	388.53
519.96	362.78
520.14	472.79
520.31	517.26
520.48	428.32
520.65	421.30
520.83	407.25
521.00	355.76
521.17	418.96
521.34	430.66
521.52	435.34
521.69	503.22
521.86	402.57
522.03	351.08
522.20	479.81
522.38	374.49
522.55	491.51
522.72	404.91
522.89	435.34
523.07	416.62
523.24	395.55
523.41	418.96
523.58	421.30
523.75	395.55
523.92	348.74
524.10	409.59
524.27	425.98
524.44	451.72
524.61	362.78
524.78	395.55
524.96	449.38
525.13	433.00
525.30	454.06
525.47	425.98
525.64	468.11
525.81	383.85
525.98	442.36
526.16	393.21
526.33	388.53
526.50	472.79
526.67	416.62
526.84	367.46
527.01	482.15
527.18	381.51
527.36	402.57
527.53	414.27
527.70	442.36
527.87	360.44
528.04	449.38
528.21	433.00
528.38	411.93
528.55	428.32
528.72	428.32
528.89	461.09
529.07	479.81
529.24	404.91
529.41	416.62
529.58	491.51
529.75	411.93
529.92	393.21
530.09	444.70
530.26	454.06
530.43	477.47
530.60	390.87
530.77	397.89
530.94	372.15
531.11	397.89
531.28	348.74
531.46	327.68
531.63	498.53
531.80	458.74
531.97	397.89
532.14	416.62
532.31	458.74
532.48	411.93
532.65	451.72
532.82	395.55
532.99	416.62
533.16	416.62
533.33	433.00
533.50	458.74
533.67	379.17
533.84	404.91
534.01	498.53
534.18	360.44
534.35	416.62
534.52	411.93
534.69	416.62
534.86	484.49
535.03	433.00
535.20	477.47
535.37	428.32
535.54	411.93
535.71	435.34
535.88	407.25
536.05	437.68
536.22	461.09
536.38	404.91
536.55	418.96
536.72	416.62
536.89	416.62
537.06	379.17
537.23	395.55
537.40	465.77
537.57	411.93
537.74	514.92
537.91	421.30
538.08	451.72
538.25	418.96
538.42	400.23
538.59	411.93
538.75	341.72
538.92	475.13
539.09	442.36
539.26	463.43
539.43	531.30
539.60	388.53
539.77	421.30
539.94	411.93
540.11	447.04
540.28	428.32
540.44	437.68
540.61	369.80
540.78	376.83
540.95	367.46
541.12	414.27
541.29	358.10
541.46	407.25
541.62	447.04
541.79	433.00
541.96	390.87
542.13	416.62
542.30	386.19
542.47	444.70
542.63	433.00
542.80	430.66
542.97	397.89
543.14	493.85
543.31	374.49
543.48	430.66
543.64	489.17
543.81	482.15
543.98	348.74
544.15	444.70
544.32	451.72
544.48	393.21
544.65	379.17
544.82	440.02
544.99	470.45
545.16	442.36
545.32	383.85
545.49	437.68
545.66	416.62
545.83	418.96
546.00	435.34
546.16	337.04
546.33	393.21
546.50	475.13
546.67	402.57
546.83	421.30
547.00	369.80
547.17	360.44
547.34	454.06
547.50	433.00
547.67	435.34
547.84	388.53
548.00	461.09
548.17	407.25
548.34	423.64
548.51	404.91
548.67	423.64
548.84	489.17
549.01	416.62
549.18	465.77
549.34	456.40
549.51	500.87
549.68	428.32
549.84	435.34
550.01	360.44
550.18	493.85
550.34	465.77
550.51	454.06
550.68	372.15
550.84	409.59
551.01	425.98
551.18	425.98
551.34	407.25
551.51	416.62
551.68	507.90
551.84	411.93
552.01	400.23
552.18	433.00
552.34	463.43
552.51	430.66
552.68	444.70
552.84	388.53
553.01	463.43
553.18	425.98
553.34	383.85
553.51	402.57
553.67	407.25
553.84	498.53
554.01	428.32
554.17	447.04
554.34	353.42
554.51	407.25
554.67	442.36
554.84	456.40
555.00	442.36
555.17	390.87
555.33	397.89
555.50	393.21
555.67	447.04
555.83	395.55
556.00	411.93
556.16	596.84
556.33	477.47
556.50	428.32
556.66	423.64
556.83	456.40
556.99	404.91
557.16	440.02
557.32	454.06
557.49	400.23
557.65	388.53
557.82	425.98
557.98	484.49
558.15	414.27
558.32	437.68
558.48	456.40
558.65	440.02
558.81	477.47
558.98	409.59
559.14	472.79
559.31	411.93
559.47	449.38
559.64	421.30
559.80	402.57
559.97	402.57
560.13	421.30
560.30	379.17
560.46	386.19
560.63	418.96
560.79	458.74
560.96	489.17
561.12	435.34
561.29	440.02
561.45	367.46
561.61	442.36
561.78	496.19
561.94	444.70
562.11	376.83
562.27	362.78
562.44	461.09
562.60	388.53
562.77	402.57
562.93	500.87
563.10	440.02
563.26	393.21
563.42	379.17
563.59	505.56
563.75	472.79
563.92	482.15
564.08	493.85
564.24	393.21
564.41	425.98
564.57	400.23
564.74	360.44
564.90	479.81
565.07	414.27
565.23	353.42
565.39	404.91
565.56	407.25
565.72	393.21
565.88	395.55
566.05	404.91
566.21	372.15
566.38	393.21
566.54	468.11
566.70	451.72
566.87	388.53
567.03	409.59
567.19	355.76
567.36	400.23
567.52	423.64
567.68	437.68
567.85	475.13
568.01	433.00
568.17	421.30
568.34	402.57
568.50	435.34
568.66	383.85
568.83	461.09
568.99	362.78
569.15	482.15
569.32	409.59
569.48	449.38
569.64	418.96
569.81	376.83
569.97	386.19
570.13	395.55
570.30	503.22
570.46	365.12
570.62	428.32
570.78	456.40
570.95	433.00
571.11	433.00
571.27	425.98
571.43	358.10
571.60	470.45
571.76	435.34
571.92	444.70
572.09	418.96
572.25	411.93
572.41	360.44
572.57	447.04
572.74	493.85
572.90	404.91
573.06	447.04
573.22	395.55
573.38	418.96
573.55	397.89
573.71	435.34
573.87	423.64
574.03	400.23
574.20	360.44
574.36	456.40
574.52	409.59
574.68	449.38
574.84	505.56
575.01	362.78
575.17	437.68
575.33	395.55
575.49	507.90
575.65	444.70
575.82	400.23
575.98	454.06
576.14	416.62
576.30	456.40
576.46	393.21
576.62	430.66
576.79	393.21
576.95	407.25
577.11	428.32
577.27	475.13
577.43	458.74
577.59	470.45
577.75	433.00
577.92	341.72
578.08	449.38
578.24	465.77
578.40	437.68
578.56	444.70
578.72	456.40
578.88	465.77
579.04	376.83
579.21	470.45
579.37	440.02
579.53	468.11
579.69	472.79
579.85	421.30
580.01	402.57
580.17	346.40
580.33	407.25
580.49	428.32
580.65	414.27
580.82	430.66
580.98	409.59
581.14	393.21
581.30	397.89
581.46	379.17
581.62	470.45
581.78	407.25
581.94	395.55
582.10	330.02
582.26	372.15
582.42	313.63
582.58	421.30
582.74	397.89
582.90	458.74
583.06	449.38
583.22	428.32
583.38	425.98
583.54	322.99
583.70	416.62
583.86	425.98
584.02	414.27
584.18	456.40
584.34	381.51
584.50	365.12
584.66	381.51
584.82	435.34
584.98	407.25
585.14	479.81
585.30	435.34
585.46	358.10
585.62	482.15
585.78	447.04
585.94	402.57
586.10	383.85
586.26	437.68
586.42	482.15
586.58	503.22
586.74	421.30
586.90	334.70
587.06	367.46
587.22	393.21
587.38	360.44
587.54	404.91
587.70	458.74
587.86	409.59
588.02	383.85
588.18	414.27
588.34	414.27
588.49	449.38
588.65	390.87
588.81	383.85
588.97	416.62
589.13	465.77
589.29	428.32
589.45	449.38
589.61	400.23
589.77	454.06
589.93	360.44
590.08	390.87
590.24	421.30
590.40	381.51
590.56	444.70
590.72	358.10
590.88	400.23
591.04	435.34
591.20	409.59
591.35	482.15
591.51	395.55
591.67	381.51
591.83	402.57
591.99	458.74
592.15	433.00
592.31	447.04
592.46	400.23
592.62	454.06
592.78	433.00
592.94	397.89
593.10	470.45
593.26	418.96
593.41	386.19
593.57	461.09
593.73	425.98
593.89	393.21
594.05	404.91
594.20	440.02
594.36	381.51
594.52	421.30
594.68	400.23
594.84	430.66
594.99	433.00
595.15	418.96
595.31	397.89
595.47	400.23
595.62	458.74
595.78	383.85
595.94	454.06
596.10	425.98
596.25	374.49
596.41	416.62
596.57	435.34
596.73	486.83
596.88	395.55
597.04	369.80
597.20	404.91
597.36	393.21
597.51	428.32
597.67	465.77
597.83	444.70
597.99	491.51
598.14	451.72
598.30	433.00
598.46	423.64
598.61	395.55
598.77	390.87
598.93	409.59
599.09	437.68
599.24	517.26
599.40	470.45
599.56	461.09
599.71	454.06
599.87	456.40
600.03	477.47
600.18	388.53
600.34	428.32
600.50	351.08
600.65	425.98
600.81	407.25
600.97	430.66
601.12	507.90
601.28	458.74
601.44	437.68
601.59	484.49
601.75	437.68
601.91	416.62
602.06	442.36
602.22	402.57
602.37	444.70
602.53	444.70
602.69	442.36
602.84	409.59
603.00	423.64
603.16	421.30
603.31	430.66
603.47	465.77
603.62	421.30
603.78	423.64
603.94	461.09
604.09	388.53
604.25	379.17
604.40	433.00
604.56	397.89
604.71	407.25
604.87	430.66
605.03	369.80
605.18	411.93
605.34	449.38
605.49	386.19
605.65	383.85
605.80	374.49
605.96	428.32
606.12	372.15
606.27	437.68
606.43	379.17
606.58	449.38
606.74	383.85
606.89	381.51
607.05	454.06
607.20	484.49
607.36	372.15
607.51	409.59
607.67	491.51
607.82	493.85
607.98	493.85
608.13	425.98
608.29	421.30
608.44	414.27
608.60	468.11
608.75	458.74
608.91	416.62
609.06	458.74
609.22	393.21
609.37	397.89
609.53	369.80
609.68	423.64
609.84	409.59
609.99	449.38
610.15	493.85
