SpectraSuite Data File
++++++++++++++++++++++++++++++++++++
Date: Fri Oct 25 12:10:21 EDT 2013
User: price-jones
Dark Spectrum Present: No
Reference Spectrum Present: No
Number of Sampled Component Spectra: 1
Spectrometers: USB2+H05261
Integration Time (usec): 100000 (USB2+H05261)
Spectra Averaged: 1 (USB2+H05261)
Boxcar Smoothing: 0 (USB2+H05261)
Correct for Electrical Dark: No (USB2+H05261)
Strobe/Lamp Enabled: No (USB2+H05261)
Correct for Detector Non-linearity: No (USB2+H05261)
Correct for Stray Light: No (USB2+H05261)
Number of Pixels in Processed Spectrum: 2048
>>>>>Begin Processed Spectral Data<<<<<
365.73	365.12
365.92	365.12
366.12	365.12
366.32	262.14
366.52	280.86
366.72	238.73
366.91	243.42
367.11	227.03
367.31	269.16
367.51	173.20
367.70	255.12
367.90	283.20
368.10	215.33
368.30	262.14
368.49	257.46
368.69	322.99
368.89	217.67
369.09	217.67
369.28	236.39
369.48	266.82
369.68	299.59
369.87	379.17
370.07	238.73
370.27	330.02
370.47	301.93
370.66	315.97
370.86	376.83
371.06	411.93
371.25	393.21
371.45	344.06
371.65	294.91
371.84	365.12
372.04	383.85
372.24	334.70
372.44	360.44
372.63	425.98
372.83	442.36
373.03	369.80
373.22	397.89
373.42	390.87
373.62	435.34
373.81	407.25
374.01	449.38
374.21	440.02
374.40	430.66
374.60	411.93
374.79	456.40
374.99	451.72
375.19	416.62
375.38	456.40
375.58	351.08
375.78	451.72
375.97	409.59
376.17	437.68
376.37	386.19
376.56	451.72
376.76	376.83
376.95	472.79
377.15	423.64
377.35	449.38
377.54	484.49
377.74	449.38
377.93	374.49
378.13	369.80
378.33	339.38
378.52	423.64
378.72	365.12
378.91	355.76
379.11	428.32
379.31	390.87
379.50	437.68
379.70	416.62
379.89	440.02
380.09	423.64
380.28	339.38
380.48	397.89
380.68	435.34
380.87	381.51
381.07	304.27
381.26	418.96
381.46	337.04
381.65	428.32
381.85	369.80
382.04	362.78
382.24	440.02
382.43	383.85
382.63	397.89
382.83	423.64
383.02	376.83
383.22	376.83
383.41	411.93
383.61	388.53
383.80	332.36
384.00	451.72
384.19	454.06
384.39	461.09
384.58	330.02
384.78	409.59
384.97	411.93
385.17	456.40
385.36	437.68
385.56	374.49
385.75	416.62
385.95	444.70
386.14	388.53
386.34	442.36
386.53	374.49
386.72	379.17
386.92	395.55
387.11	421.30
387.31	386.19
387.50	390.87
387.70	461.09
387.89	383.85
388.09	400.23
388.28	397.89
388.48	355.76
388.67	433.00
388.86	388.53
389.06	437.68
389.25	423.64
389.45	411.93
389.64	390.87
389.84	428.32
390.03	430.66
390.22	416.62
390.42	407.25
390.61	369.80
390.81	388.53
391.00	444.70
391.19	442.36
391.39	451.72
391.58	360.44
391.78	358.10
391.97	383.85
392.16	365.12
392.36	400.23
392.55	489.17
392.75	423.64
392.94	428.32
393.13	475.13
393.33	444.70
393.52	402.57
393.71	444.70
393.91	437.68
394.10	414.27
394.29	461.09
394.49	402.57
394.68	404.91
394.88	397.89
395.07	407.25
395.26	374.49
395.46	362.78
395.65	421.30
395.84	465.77
396.04	430.66
396.23	322.99
396.42	362.78
396.62	386.19
396.81	386.19
397.00	404.91
397.19	362.78
397.39	369.80
397.58	388.53
397.77	388.53
397.97	388.53
398.16	440.02
398.35	421.30
398.55	372.15
398.74	510.24
398.93	472.79
399.12	360.44
399.32	365.12
399.51	346.40
399.70	383.85
399.90	458.74
400.09	437.68
400.28	348.74
400.47	362.78
400.67	374.49
400.86	404.91
401.05	458.74
401.24	472.79
401.44	334.70
401.63	379.17
401.82	430.66
402.01	447.04
402.21	402.57
402.40	367.46
402.59	451.72
402.78	360.44
402.97	437.68
403.17	341.72
403.36	344.06
403.55	440.02
403.74	365.12
403.93	409.59
404.13	423.64
404.32	409.59
404.51	407.25
404.70	360.44
404.89	418.96
405.09	416.62
405.28	397.89
405.47	393.21
405.66	308.95
405.85	440.02
406.05	454.06
406.24	435.34
406.43	388.53
406.62	423.64
406.81	374.49
407.00	433.00
407.20	395.55
407.39	390.87
407.58	425.98
407.77	414.27
407.96	470.45
408.15	477.47
408.34	423.64
408.54	393.21
408.73	425.98
408.92	358.10
409.11	437.68
409.30	369.80
409.49	372.15
409.68	449.38
409.87	379.17
410.07	428.32
410.26	411.93
410.45	379.17
410.64	355.76
410.83	372.15
411.02	383.85
411.21	442.36
411.40	465.77
411.59	404.91
411.78	444.70
411.98	367.46
412.17	339.38
412.36	315.97
412.55	390.87
412.74	346.40
412.93	423.64
413.12	435.34
413.31	421.30
413.50	362.78
413.69	407.25
413.88	465.77
414.07	440.02
414.26	442.36
414.45	388.53
414.64	465.77
414.83	388.53
415.02	470.45
415.22	437.68
415.41	454.06
415.60	386.19
415.79	355.76
415.98	346.40
416.17	395.55
416.36	444.70
416.55	414.27
416.74	355.76
416.93	465.77
417.12	402.57
417.31	428.32
417.50	435.34
417.69	402.57
417.88	360.44
418.07	369.80
418.26	433.00
418.45	449.38
418.64	404.91
418.83	456.40
419.02	393.21
419.21	414.27
419.39	411.93
419.58	390.87
419.77	393.21
419.96	461.09
420.15	484.49
420.34	454.06
420.53	423.64
420.72	395.55
420.91	444.70
421.10	411.93
421.29	374.49
421.48	437.68
421.67	423.64
421.86	334.70
422.05	425.98
422.24	409.59
422.43	362.78
422.61	437.68
422.80	437.68
422.99	430.66
423.18	353.42
423.37	435.34
423.56	447.04
423.75	339.38
423.94	390.87
424.13	440.02
424.32	390.87
424.50	409.59
424.69	388.53
424.88	468.11
425.07	421.30
425.26	418.96
425.45	418.96
425.64	383.85
425.83	404.91
426.01	484.49
426.20	430.66
426.39	437.68
426.58	393.21
426.77	400.23
426.96	411.93
427.15	430.66
427.33	489.17
427.52	395.55
427.71	404.91
427.90	402.57
428.09	379.17
428.28	311.29
428.46	400.23
428.65	390.87
428.84	404.91
429.03	409.59
429.22	400.23
429.40	423.64
429.59	365.12
429.78	395.55
429.97	461.09
430.16	397.89
430.34	451.72
430.53	428.32
430.72	367.46
430.91	379.17
431.10	442.36
431.28	381.51
431.47	421.30
431.66	411.93
431.85	435.34
432.03	374.49
432.22	425.98
432.41	337.04
432.60	428.32
432.79	395.55
432.97	440.02
433.16	395.55
433.35	372.15
433.54	397.89
433.72	351.08
433.91	418.96
434.10	484.49
434.28	437.68
434.47	376.83
434.66	388.53
434.85	404.91
435.03	425.98
435.22	444.70
435.41	451.72
435.59	379.17
435.78	407.25
435.97	390.87
436.16	376.83
436.34	369.80
436.53	449.38
436.72	482.15
436.90	397.89
437.09	433.00
437.28	360.44
437.46	435.34
437.65	390.87
437.84	362.78
438.02	454.06
438.21	407.25
438.40	465.77
438.58	353.42
438.77	372.15
438.96	395.55
439.14	456.40
439.33	435.34
439.52	416.62
439.70	397.89
439.89	451.72
440.08	454.06
440.26	379.17
440.45	435.34
440.63	411.93
440.82	393.21
441.01	463.43
441.19	477.47
441.38	468.11
441.57	397.89
441.75	388.53
441.94	507.90
442.12	388.53
442.31	390.87
442.50	383.85
442.68	365.12
442.87	402.57
443.05	423.64
443.24	376.83
443.43	449.38
443.61	451.72
443.80	479.81
443.98	393.21
444.17	433.00
444.35	341.72
444.54	390.87
444.73	386.19
444.91	430.66
445.10	379.17
445.28	402.57
445.47	383.85
445.65	388.53
445.84	376.83
446.02	428.32
446.21	388.53
446.39	437.68
446.58	341.72
446.77	374.49
446.95	358.10
447.14	484.49
447.32	454.06
447.51	477.47
447.69	423.64
447.88	444.70
448.06	409.59
448.25	472.79
448.43	395.55
448.62	337.04
448.80	444.70
448.99	381.51
449.17	369.80
449.36	404.91
449.54	493.85
449.73	425.98
449.91	414.27
450.10	388.53
450.28	437.68
450.46	484.49
450.65	440.02
450.83	369.80
451.02	414.27
451.20	423.64
451.39	423.64
451.57	437.68
451.76	414.27
451.94	414.27
452.13	433.00
452.31	407.25
452.49	447.04
452.68	383.85
452.86	339.38
453.05	433.00
453.23	461.09
453.42	358.10
453.60	484.49
453.78	400.23
453.97	451.72
454.15	402.57
454.34	404.91
454.52	379.17
454.70	468.11
454.89	423.64
455.07	395.55
455.26	397.89
455.44	386.19
455.62	428.32
455.81	383.85
455.99	421.30
456.17	414.27
456.36	353.42
456.54	390.87
456.73	411.93
456.91	404.91
457.09	433.00
457.28	461.09
457.46	411.93
457.64	421.30
457.83	444.70
458.01	386.19
458.19	376.83
458.38	454.06
458.56	409.59
458.74	407.25
458.93	449.38
459.11	393.21
459.29	376.83
459.48	369.80
459.66	379.17
459.84	367.46
460.03	470.45
460.21	390.87
460.39	421.30
460.57	411.93
460.76	388.53
460.94	421.30
461.12	442.36
461.31	461.09
461.49	484.49
461.67	376.83
461.85	465.77
462.04	386.19
462.22	877.70
462.40	444.70
462.59	393.21
462.77	353.42
462.95	458.74
463.13	416.62
463.32	400.23
463.50	414.27
463.68	421.30
463.86	341.72
464.05	428.32
464.23	465.77
464.41	402.57
464.59	465.77
464.78	386.19
464.96	442.36
465.14	409.59
465.32	344.06
465.50	496.19
465.69	454.06
465.87	395.55
466.05	512.58
466.23	414.27
466.41	433.00
466.60	365.12
466.78	383.85
466.96	472.79
467.14	388.53
467.32	433.00
467.51	393.21
467.69	449.38
467.87	442.36
468.05	395.55
468.23	428.32
468.41	430.66
468.60	430.66
468.78	435.34
468.96	339.38
469.14	411.93
469.32	367.46
469.50	430.66
469.69	496.19
469.87	416.62
470.05	388.53
470.23	435.34
470.41	383.85
470.59	433.00
470.77	388.53
470.95	454.06
471.14	421.30
471.32	362.78
471.50	411.93
471.68	449.38
471.86	477.47
472.04	442.36
472.22	376.83
472.40	407.25
472.58	395.55
472.77	409.59
472.95	454.06
473.13	470.45
473.31	517.26
473.49	362.78
473.67	367.46
473.85	433.00
474.03	451.72
474.21	386.19
474.39	421.30
474.57	407.25
474.75	404.91
474.93	425.98
475.12	376.83
475.30	369.80
475.48	365.12
475.66	372.15
475.84	400.23
476.02	397.89
476.20	475.13
476.38	397.89
476.56	468.11
476.74	404.91
476.92	477.47
477.10	372.15
477.28	383.85
477.46	430.66
477.64	421.30
477.82	402.57
478.00	451.72
478.18	379.17
478.36	444.70
478.54	402.57
478.72	475.13
478.90	397.89
479.08	451.72
479.26	421.30
479.44	414.27
479.62	404.91
479.80	388.53
479.98	409.59
480.16	362.78
480.34	433.00
480.52	351.08
480.70	430.66
480.88	393.21
481.06	376.83
481.24	402.57
481.41	374.49
481.59	435.34
481.77	411.93
481.95	369.80
482.13	468.11
482.31	409.59
482.49	465.77
482.67	507.90
482.85	400.23
483.03	386.19
483.21	374.49
483.39	416.62
483.57	358.10
483.74	456.40
483.92	458.74
484.10	402.57
484.28	456.40
484.46	411.93
484.64	437.68
484.82	451.72
485.00	433.00
485.18	437.68
485.35	458.74
485.53	442.36
485.71	388.53
485.89	379.17
486.07	411.93
486.25	514.92
486.43	416.62
486.61	400.23
486.78	463.43
486.96	374.49
487.14	491.51
487.32	451.72
487.50	418.96
487.68	367.46
487.85	400.23
488.03	393.21
488.21	486.83
488.39	376.83
488.57	449.38
488.75	374.49
488.92	496.19
489.10	477.47
489.28	444.70
489.46	379.17
489.64	468.11
489.81	388.53
489.99	465.77
490.17	320.65
490.35	486.83
490.53	451.72
490.70	372.15
490.88	423.64
491.06	425.98
491.24	428.32
491.41	433.00
491.59	351.08
491.77	470.45
491.95	442.36
492.13	407.25
492.30	400.23
492.48	379.17
492.66	456.40
492.84	414.27
493.01	393.21
493.19	395.55
493.37	440.02
493.54	442.36
493.72	468.11
493.90	409.59
494.08	393.21
494.25	421.30
494.43	447.04
494.61	418.96
494.79	311.29
494.96	425.98
495.14	360.44
495.32	472.79
495.49	440.02
495.67	428.32
495.85	444.70
496.02	418.96
496.20	465.77
496.38	372.15
496.55	423.64
496.73	400.23
496.91	390.87
497.09	393.21
497.26	367.46
497.44	449.38
497.62	454.06
497.79	454.06
497.97	355.76
498.14	470.45
498.32	435.34
498.50	400.23
498.67	404.91
498.85	491.51
499.03	414.27
499.20	416.62
499.38	454.06
499.56	437.68
499.73	402.57
499.91	451.72
500.08	390.87
500.26	360.44
500.44	353.42
500.61	458.74
500.79	489.17
500.97	489.17
501.14	425.98
501.32	433.00
501.49	486.83
501.67	430.66
501.84	404.91
502.02	451.72
502.20	444.70
502.37	416.62
502.55	418.96
502.72	461.09
502.90	465.77
503.07	421.30
503.25	425.98
503.43	334.70
503.60	383.85
503.78	418.96
503.95	404.91
504.13	383.85
504.30	409.59
504.48	423.64
504.65	404.91
504.83	372.15
505.01	334.70
505.18	409.59
505.36	402.57
505.53	372.15
505.71	376.83
505.88	440.02
506.06	376.83
506.23	390.87
506.41	465.77
506.58	484.49
506.76	402.57
506.93	358.10
507.11	430.66
507.28	362.78
507.46	376.83
507.63	423.64
507.81	400.23
507.98	423.64
508.16	365.12
508.33	435.34
508.50	386.19
508.68	437.68
508.85	433.00
509.03	362.78
509.20	468.11
509.38	411.93
509.55	440.02
509.73	444.70
509.90	444.70
510.08	372.15
510.25	407.25
510.42	404.91
510.60	404.91
510.77	444.70
510.95	407.25
511.12	433.00
511.30	430.66
511.47	491.51
511.64	447.04
511.82	374.49
511.99	461.09
512.17	416.62
512.34	332.36
512.51	376.83
512.69	381.51
512.86	383.85
513.04	423.64
513.21	397.89
513.38	383.85
513.56	381.51
513.73	365.12
513.90	337.04
514.08	425.98
514.25	365.12
514.43	388.53
514.60	421.30
514.77	472.79
514.95	339.38
515.12	447.04
515.29	463.43
515.47	397.89
515.64	461.09
515.81	383.85
515.99	414.27
516.16	400.23
516.33	381.51
516.51	390.87
516.68	418.96
516.85	409.59
517.03	447.04
517.20	449.38
517.37	353.42
517.54	437.68
517.72	463.43
517.89	397.89
518.06	379.17
518.24	463.43
518.41	402.57
518.58	425.98
518.75	393.21
518.93	379.17
519.10	411.93
519.27	458.74
519.45	437.68
519.62	409.59
519.79	477.47
519.96	348.74
520.14	346.40
520.31	458.74
520.48	411.93
520.65	461.09
520.83	409.59
521.00	395.55
521.17	444.70
521.34	362.78
521.52	447.04
521.69	425.98
521.86	367.46
522.03	449.38
522.20	402.57
522.38	388.53
522.55	407.25
522.72	402.57
522.89	521.94
523.07	416.62
523.24	416.62
523.41	372.15
523.58	367.46
523.75	390.87
523.92	355.76
524.10	379.17
524.27	425.98
524.44	388.53
524.61	437.68
524.78	425.98
524.96	341.72
525.13	376.83
525.30	472.79
525.47	360.44
525.64	372.15
525.81	402.57
525.98	416.62
526.16	365.12
526.33	416.62
526.50	397.89
526.67	411.93
526.84	374.49
527.01	402.57
527.18	397.89
527.36	386.19
527.53	365.12
527.70	423.64
527.87	411.93
528.04	456.40
528.21	355.76
528.38	395.55
528.55	423.64
528.72	477.47
528.89	498.53
529.07	341.72
529.24	491.51
529.41	395.55
529.58	447.04
529.75	465.77
529.92	435.34
530.09	397.89
530.26	461.09
530.43	304.27
530.60	395.55
530.77	425.98
530.94	381.51
531.11	390.87
531.28	477.47
531.46	465.77
531.63	395.55
531.80	388.53
531.97	454.06
532.14	374.49
532.31	381.51
532.48	416.62
532.65	437.68
532.82	468.11
532.99	425.98
533.16	425.98
533.33	468.11
533.50	407.25
533.67	339.38
533.84	376.83
534.01	407.25
534.18	465.77
534.35	454.06
534.52	437.68
534.69	416.62
534.86	344.06
535.03	428.32
535.20	388.53
535.37	379.17
535.54	367.46
535.71	397.89
535.88	390.87
536.05	369.80
536.22	379.17
536.38	414.27
536.55	388.53
536.72	416.62
536.89	428.32
537.06	463.43
537.23	442.36
537.40	421.30
537.57	365.12
537.74	500.87
537.91	482.15
538.08	409.59
538.25	440.02
538.42	348.74
538.59	472.79
538.75	397.89
538.92	369.80
539.09	404.91
539.26	465.77
539.43	344.06
539.60	486.83
539.77	421.30
539.94	348.74
540.11	402.57
540.28	433.00
540.44	456.40
540.61	430.66
540.78	414.27
540.95	369.80
541.12	390.87
541.29	423.64
541.46	386.19
541.62	383.85
541.79	423.64
541.96	381.51
542.13	428.32
542.30	454.06
542.47	454.06
542.63	489.17
542.80	411.93
542.97	505.56
543.14	454.06
543.31	435.34
543.48	404.91
543.64	421.30
543.81	351.08
543.98	414.27
544.15	416.62
544.32	442.36
544.48	402.57
544.65	388.53
544.82	400.23
544.99	428.32
545.16	402.57
545.32	397.89
545.49	409.59
545.66	461.09
545.83	435.34
546.00	407.25
546.16	498.53
546.33	468.11
546.50	430.66
546.67	409.59
546.83	402.57
547.00	475.13
547.17	348.74
547.34	425.98
547.50	454.06
547.67	409.59
547.84	362.78
548.00	381.51
548.17	444.70
548.34	400.23
548.51	416.62
548.67	397.89
548.84	365.12
549.01	339.38
549.18	411.93
549.34	440.02
549.51	440.02
549.68	489.17
549.84	383.85
550.01	421.30
550.18	507.90
550.34	454.06
550.51	425.98
550.68	470.45
550.84	463.43
551.01	423.64
551.18	433.00
551.34	416.62
551.51	400.23
551.68	451.72
551.84	433.00
552.01	358.10
552.18	458.74
552.34	393.21
552.51	454.06
552.68	421.30
552.84	444.70
553.01	430.66
553.18	496.19
553.34	381.51
553.51	421.30
553.67	383.85
553.84	463.43
554.01	435.34
554.17	397.89
554.34	374.49
554.51	468.11
554.67	421.30
554.84	507.90
555.00	409.59
555.17	503.22
555.33	433.00
555.50	407.25
555.67	428.32
555.83	414.27
556.00	400.23
556.16	533.64
556.33	461.09
556.50	379.17
556.66	344.06
556.83	397.89
556.99	430.66
557.16	505.56
557.32	430.66
557.49	379.17
557.65	418.96
557.82	475.13
557.98	454.06
558.15	353.42
558.32	435.34
558.48	416.62
558.65	470.45
558.81	477.47
558.98	435.34
559.14	386.19
559.31	409.59
559.47	411.93
559.64	374.49
559.80	418.96
559.97	381.51
560.13	418.96
560.30	418.96
560.46	409.59
560.63	409.59
560.79	456.40
560.96	451.72
561.12	395.55
561.29	451.72
561.45	339.38
561.61	374.49
561.78	517.26
561.94	414.27
562.11	428.32
562.27	456.40
562.44	418.96
562.60	388.53
562.77	437.68
562.93	435.34
563.10	397.89
563.26	470.45
563.42	484.49
563.59	383.85
563.75	435.34
563.92	447.04
564.08	477.47
564.24	454.06
564.41	465.77
564.57	425.98
564.74	430.66
564.90	461.09
565.07	407.25
565.23	400.23
565.39	428.32
565.56	475.13
565.72	470.45
565.88	365.12
566.05	428.32
566.21	390.87
566.38	386.19
566.54	418.96
566.70	393.21
566.87	386.19
567.03	381.51
567.19	369.80
567.36	411.93
567.52	402.57
567.68	521.94
567.85	437.68
568.01	418.96
568.17	339.38
568.34	407.25
568.50	449.38
568.66	477.47
568.83	491.51
568.99	433.00
569.15	421.30
569.32	482.15
569.48	468.11
569.64	393.21
569.81	461.09
569.97	447.04
570.13	365.12
570.30	484.49
570.46	400.23
570.62	414.27
570.78	491.51
570.95	409.59
571.11	486.83
571.27	463.43
571.43	423.64
571.60	425.98
571.76	372.15
571.92	458.74
572.09	386.19
572.25	360.44
572.41	390.87
572.57	451.72
572.74	411.93
572.90	409.59
573.06	411.93
573.22	400.23
573.38	503.22
573.55	374.49
573.71	367.46
573.87	444.70
574.03	374.49
574.20	332.36
574.36	493.85
574.52	390.87
574.68	407.25
574.84	498.53
575.01	367.46
575.17	407.25
575.33	409.59
575.49	353.42
575.65	454.06
575.82	416.62
575.98	386.19
576.14	407.25
576.30	379.17
576.46	355.76
576.62	435.34
576.79	456.40
576.95	514.92
577.11	404.91
577.27	339.38
577.43	402.57
577.59	423.64
577.75	435.34
577.92	360.44
578.08	348.74
578.24	334.70
578.40	442.36
578.56	458.74
578.72	442.36
578.88	393.21
579.04	388.53
579.21	428.32
579.37	390.87
579.53	435.34
579.69	444.70
579.85	435.34
580.01	388.53
580.17	447.04
580.33	416.62
580.49	393.21
580.65	498.53
580.82	386.19
580.98	397.89
581.14	461.09
581.30	409.59
581.46	390.87
581.62	454.06
581.78	393.21
581.94	484.49
582.10	414.27
582.26	407.25
582.42	372.15
582.58	400.23
582.74	386.19
582.90	379.17
583.06	400.23
583.22	423.64
583.38	409.59
583.54	365.12
583.70	433.00
583.86	428.32
584.02	311.29
584.18	449.38
584.34	390.87
584.50	409.59
584.66	447.04
584.82	430.66
584.98	351.08
585.14	449.38
585.30	475.13
585.46	428.32
585.62	386.19
585.78	397.89
585.94	463.43
586.10	393.21
586.26	435.34
586.42	456.40
586.58	397.89
586.74	430.66
586.90	376.83
587.06	442.36
587.22	433.00
587.38	376.83
587.54	435.34
587.70	402.57
587.86	444.70
588.02	470.45
588.18	521.94
588.34	383.85
588.49	376.83
588.65	416.62
588.81	411.93
588.97	458.74
589.13	416.62
589.29	409.59
589.45	482.15
589.61	430.66
589.77	437.68
589.93	379.17
590.08	383.85
590.24	440.02
590.40	383.85
590.56	449.38
590.72	374.49
590.88	433.00
591.04	425.98
591.20	414.27
591.35	428.32
591.51	421.30
591.67	440.02
591.83	372.15
591.99	465.77
592.15	503.22
592.31	411.93
592.46	379.17
592.62	358.10
592.78	353.42
592.94	362.78
593.10	418.96
593.26	402.57
593.41	404.91
593.57	365.12
593.73	430.66
593.89	376.83
594.05	351.08
594.20	369.80
594.36	402.57
594.52	369.80
594.68	423.64
594.84	468.11
594.99	447.04
595.15	540.66
595.31	390.87
595.47	425.98
595.62	416.62
595.78	477.47
595.94	425.98
596.10	444.70
596.25	444.70
596.41	437.68
596.57	414.27
596.73	444.70
596.88	393.21
597.04	456.40
597.20	374.49
597.36	428.32
597.51	447.04
597.67	463.43
597.83	489.17
597.99	456.40
598.14	491.51
598.30	458.74
598.46	376.83
598.61	351.08
598.77	472.79
598.93	451.72
599.09	411.93
599.24	414.27
599.40	442.36
599.56	479.81
599.71	435.34
599.87	351.08
600.03	404.91
600.18	472.79
600.34	491.51
600.50	496.19
600.65	484.49
600.81	489.17
600.97	423.64
601.12	411.93
601.28	407.25
601.44	454.06
601.59	360.44
601.75	451.72
601.91	400.23
602.06	437.68
602.22	416.62
602.37	435.34
602.53	418.96
602.69	388.53
602.84	365.12
603.00	456.40
603.16	437.68
603.31	468.11
603.47	383.85
603.62	386.19
603.78	400.23
603.94	379.17
604.09	411.93
604.25	381.51
604.40	418.96
604.56	358.10
604.71	381.51
604.87	498.53
605.03	449.38
605.18	402.57
605.34	496.19
605.49	404.91
605.65	388.53
605.80	416.62
605.96	423.64
606.12	430.66
606.27	456.40
606.43	407.25
606.58	433.00
606.74	376.83
606.89	465.77
607.05	430.66
607.20	475.13
607.36	447.04
607.51	423.64
607.67	400.23
607.82	344.06
607.98	397.89
608.13	416.62
608.29	365.12
608.44	416.62
608.60	393.21
608.75	440.02
608.91	421.30
609.06	383.85
609.22	388.53
609.37	372.15
609.53	404.91
609.68	411.93
609.84	435.34
609.99	404.91
610.15	404.91
