SpectraSuite Data File
++++++++++++++++++++++++++++++++++++
Date: Fri Oct 25 12:11:20 EDT 2013
User: price-jones
Dark Spectrum Present: No
Reference Spectrum Present: No
Number of Sampled Component Spectra: 1
Spectrometers: USB2+H05261
Integration Time (usec): 100000 (USB2+H05261)
Spectra Averaged: 1 (USB2+H05261)
Boxcar Smoothing: 0 (USB2+H05261)
Correct for Electrical Dark: No (USB2+H05261)
Strobe/Lamp Enabled: No (USB2+H05261)
Correct for Detector Non-linearity: No (USB2+H05261)
Correct for Stray Light: No (USB2+H05261)
Number of Pixels in Processed Spectrum: 2048
>>>>>Begin Processed Spectral Data<<<<<
365.73	315.97
365.92	315.97
366.12	315.97
366.32	278.52
366.52	236.39
366.72	229.37
366.91	191.92
367.11	210.65
367.31	227.03
367.51	227.03
367.70	257.46
367.90	283.20
368.10	187.24
368.30	187.24
368.49	201.29
368.69	262.14
368.89	222.35
369.09	236.39
369.28	290.23
369.48	273.84
369.68	287.89
369.87	351.08
370.07	276.18
370.27	388.53
370.47	320.65
370.66	355.76
370.86	306.61
371.06	381.51
371.25	397.89
371.45	341.72
371.65	397.89
371.84	341.72
372.04	360.44
372.24	346.40
372.44	425.98
372.63	449.38
372.83	379.17
373.03	423.64
373.22	433.00
373.42	437.68
373.62	376.83
373.81	416.62
374.01	411.93
374.21	425.98
374.40	428.32
374.60	507.90
374.79	369.80
374.99	428.32
375.19	507.90
375.38	461.09
375.58	372.15
375.78	430.66
375.97	409.59
376.17	486.83
376.37	428.32
376.56	423.64
376.76	360.44
376.95	440.02
377.15	444.70
377.35	358.10
377.54	388.53
377.74	442.36
377.93	337.04
378.13	430.66
378.33	458.74
378.52	386.19
378.72	540.66
378.91	440.02
379.11	348.74
379.31	430.66
379.50	407.25
379.70	421.30
379.89	430.66
380.09	346.40
380.28	458.74
380.48	430.66
380.68	395.55
380.87	425.98
381.07	423.64
381.26	416.62
381.46	360.44
381.65	425.98
381.85	393.21
382.04	416.62
382.24	425.98
382.43	383.85
382.63	362.78
382.83	451.72
383.02	379.17
383.22	458.74
383.41	402.57
383.61	369.80
383.80	404.91
384.00	454.06
384.19	355.76
384.39	447.04
384.58	421.30
384.78	388.53
384.97	411.93
385.17	351.08
385.36	358.10
385.56	393.21
385.75	388.53
385.95	383.85
386.14	407.25
386.34	365.12
386.53	393.21
386.72	458.74
386.92	388.53
387.11	376.83
387.31	425.98
387.50	416.62
387.70	332.36
387.89	430.66
388.09	404.91
388.28	390.87
388.48	435.34
388.67	344.06
388.86	414.27
389.06	416.62
389.25	397.89
389.45	461.09
389.64	465.77
389.84	409.59
390.03	395.55
390.22	433.00
390.42	372.15
390.61	458.74
390.81	376.83
391.00	463.43
391.19	444.70
391.39	383.85
391.58	416.62
391.78	390.87
391.97	470.45
392.16	416.62
392.36	444.70
392.55	465.77
392.75	369.80
392.94	395.55
393.13	383.85
393.33	365.12
393.52	404.91
393.71	447.04
393.91	435.34
394.10	454.06
394.29	449.38
394.49	489.17
394.68	418.96
394.88	409.59
395.07	482.15
395.26	407.25
395.46	486.83
395.65	449.38
395.84	451.72
396.04	433.00
396.23	381.51
396.42	423.64
396.62	414.27
396.81	442.36
397.00	425.98
397.19	330.02
397.39	447.04
397.58	454.06
397.77	484.49
397.97	397.89
398.16	374.49
398.35	400.23
398.55	374.49
398.74	381.51
398.93	390.87
399.12	383.85
399.32	404.91
399.51	421.30
399.70	430.66
399.90	461.09
400.09	435.34
400.28	409.59
400.47	409.59
400.67	395.55
400.86	308.95
401.05	390.87
401.24	444.70
401.44	416.62
401.63	411.93
401.82	358.10
402.01	440.02
402.21	365.12
402.40	386.19
402.59	395.55
402.78	372.15
402.97	395.55
403.17	383.85
403.36	393.21
403.55	402.57
403.74	428.32
403.93	428.32
404.13	468.11
404.32	444.70
404.51	383.85
404.70	433.00
404.89	411.93
405.09	458.74
405.28	414.27
405.47	418.96
405.66	447.04
405.85	386.19
406.05	458.74
406.24	444.70
406.43	400.23
406.62	322.99
406.81	397.89
407.00	454.06
407.20	435.34
407.39	468.11
407.58	421.30
407.77	407.25
407.96	416.62
408.15	386.19
408.34	428.32
408.54	416.62
408.73	437.68
408.92	411.93
409.11	470.45
409.30	519.60
409.49	449.38
409.68	372.15
409.87	393.21
410.07	400.23
410.26	425.98
410.45	435.34
410.64	383.85
410.83	404.91
411.02	372.15
411.21	475.13
411.40	383.85
411.59	477.47
411.78	313.63
411.98	376.83
412.17	411.93
412.36	400.23
412.55	379.17
412.74	465.77
412.93	437.68
413.12	428.32
413.31	486.83
413.50	404.91
413.69	416.62
413.88	365.12
414.07	381.51
414.26	353.42
414.45	477.47
414.64	414.27
414.83	428.32
415.02	451.72
415.22	395.55
415.41	390.87
415.60	388.53
415.79	435.34
415.98	472.79
416.17	425.98
416.36	404.91
416.55	425.98
416.74	454.06
416.93	465.77
417.12	458.74
417.31	411.93
417.50	421.30
417.69	442.36
417.88	390.87
418.07	388.53
418.26	416.62
418.45	430.66
418.64	374.49
418.83	414.27
419.02	383.85
419.21	472.79
419.39	437.68
419.58	428.32
419.77	390.87
419.96	449.38
420.15	393.21
420.34	414.27
420.53	372.15
420.72	416.62
420.91	402.57
421.10	491.51
421.29	416.62
421.48	475.13
421.67	409.59
421.86	442.36
422.05	425.98
422.24	442.36
422.43	416.62
422.61	451.72
422.80	407.25
422.99	430.66
423.18	360.44
423.37	449.38
423.56	454.06
423.75	362.78
423.94	404.91
424.13	444.70
424.32	407.25
424.50	421.30
424.69	425.98
424.88	374.49
425.07	475.13
425.26	458.74
425.45	521.94
425.64	437.68
425.83	379.17
426.01	402.57
426.20	400.23
426.39	435.34
426.58	433.00
426.77	447.04
426.96	428.32
427.15	411.93
427.33	447.04
427.52	472.79
427.71	430.66
427.90	411.93
428.09	503.22
428.28	430.66
428.46	425.98
428.65	393.21
428.84	407.25
429.03	428.32
429.22	404.91
429.40	386.19
429.59	339.38
429.78	435.34
429.97	383.85
430.16	386.19
430.34	449.38
430.53	423.64
430.72	458.74
430.91	423.64
431.10	346.40
431.28	416.62
431.47	365.12
431.66	414.27
431.85	421.30
432.03	433.00
432.22	489.17
432.41	449.38
432.60	386.19
432.79	360.44
432.97	449.38
433.16	425.98
433.35	379.17
433.54	381.51
433.72	416.62
433.91	395.55
434.10	414.27
434.28	449.38
434.47	383.85
434.66	393.21
434.85	383.85
435.03	381.51
435.22	510.24
435.41	447.04
435.59	416.62
435.78	367.46
435.97	411.93
436.16	524.28
436.34	491.51
436.53	484.49
436.72	418.96
436.90	468.11
437.09	451.72
437.28	400.23
437.46	449.38
437.65	449.38
437.84	411.93
438.02	414.27
438.21	411.93
438.40	383.85
438.58	362.78
438.77	428.32
438.96	489.17
439.14	425.98
439.33	505.56
439.52	498.53
439.70	383.85
439.89	428.32
440.08	461.09
440.26	430.66
440.45	449.38
440.63	372.15
440.82	372.15
441.01	456.40
441.19	372.15
441.38	351.08
441.57	423.64
441.75	498.53
441.94	418.96
442.12	421.30
442.31	374.49
442.50	358.10
442.68	414.27
442.87	449.38
443.05	411.93
443.24	451.72
443.43	491.51
443.61	449.38
443.80	393.21
443.98	402.57
444.17	433.00
444.35	383.85
444.54	407.25
444.73	390.87
444.91	454.06
445.10	365.12
445.28	458.74
445.47	400.23
445.65	411.93
445.84	458.74
446.02	393.21
446.21	449.38
446.39	425.98
446.58	512.58
446.77	386.19
446.95	444.70
447.14	428.32
447.32	435.34
447.51	425.98
447.69	421.30
447.88	463.43
448.06	503.22
448.25	383.85
448.43	393.21
448.62	416.62
448.80	381.51
448.99	425.98
449.17	411.93
449.36	381.51
449.54	362.78
449.73	456.40
449.91	454.06
450.10	440.02
450.28	498.53
450.46	418.96
450.65	367.46
450.83	383.85
451.02	416.62
451.20	411.93
451.39	416.62
451.57	423.64
451.76	463.43
451.94	411.93
452.13	418.96
452.31	386.19
452.49	437.68
452.68	374.49
452.86	374.49
453.05	395.55
453.23	365.12
453.42	472.79
453.60	425.98
453.78	454.06
453.97	381.51
454.15	437.68
454.34	390.87
454.52	430.66
454.70	435.34
454.89	409.59
455.07	379.17
455.26	404.91
455.44	458.74
455.62	449.38
455.81	437.68
455.99	416.62
456.17	402.57
456.36	334.70
456.54	428.32
456.73	351.08
456.91	386.19
457.09	521.94
457.28	435.34
457.46	425.98
457.64	440.02
457.83	423.64
458.01	428.32
458.19	376.83
458.38	428.32
458.56	400.23
458.74	360.44
458.93	451.72
459.11	477.47
459.29	421.30
459.48	447.04
459.66	400.23
459.84	433.00
460.03	477.47
460.21	416.62
460.39	430.66
460.57	418.96
460.76	400.23
460.94	353.42
461.12	484.49
461.31	479.81
461.49	404.91
461.67	376.83
461.85	407.25
462.04	362.78
462.22	772.38
462.40	484.49
462.59	414.27
462.77	447.04
462.95	430.66
463.13	372.15
463.32	461.09
463.50	437.68
463.68	418.96
463.86	400.23
464.05	463.43
464.23	442.36
464.41	395.55
464.59	353.42
464.78	372.15
464.96	407.25
465.14	411.93
465.32	411.93
465.50	402.57
465.69	491.51
465.87	449.38
466.05	423.64
466.23	339.38
466.41	411.93
466.60	374.49
466.78	442.36
466.96	493.85
467.14	402.57
467.32	463.43
467.51	351.08
467.69	409.59
467.87	376.83
468.05	447.04
468.23	484.49
468.41	411.93
468.60	428.32
468.78	383.85
468.96	472.79
469.14	430.66
469.32	437.68
469.50	404.91
469.69	402.57
469.87	486.83
470.05	447.04
470.23	395.55
470.41	421.30
470.59	414.27
470.77	416.62
470.95	381.51
471.14	463.43
471.32	404.91
471.50	489.17
471.68	442.36
471.86	449.38
472.04	379.17
472.22	463.43
472.40	435.34
472.58	421.30
472.77	423.64
472.95	369.80
473.13	472.79
473.31	465.77
473.49	454.06
473.67	430.66
473.85	430.66
474.03	428.32
474.21	451.72
474.39	442.36
474.57	423.64
474.75	334.70
474.93	430.66
475.12	433.00
475.30	411.93
475.48	423.64
475.66	400.23
475.84	482.15
476.02	386.19
476.20	463.43
476.38	433.00
476.56	454.06
476.74	444.70
476.92	362.78
477.10	334.70
477.28	421.30
477.46	409.59
477.64	416.62
477.82	374.49
478.00	425.98
478.18	468.11
478.36	395.55
478.54	360.44
478.72	444.70
478.90	456.40
479.08	456.40
479.26	348.74
479.44	386.19
479.62	379.17
479.80	442.36
479.98	498.53
480.16	463.43
480.34	393.21
480.52	461.09
480.70	386.19
480.88	428.32
481.06	477.47
481.24	395.55
481.41	447.04
481.59	355.76
481.77	411.93
481.95	353.42
482.13	409.59
482.31	407.25
482.49	416.62
482.67	404.91
482.85	468.11
483.03	425.98
483.21	376.83
483.39	393.21
483.57	442.36
483.74	407.25
483.92	367.46
484.10	372.15
484.28	458.74
484.46	470.45
484.64	421.30
484.82	407.25
485.00	430.66
485.18	440.02
485.35	409.59
485.53	444.70
485.71	470.45
485.89	409.59
486.07	470.45
486.25	430.66
486.43	376.83
486.61	407.25
486.78	444.70
486.96	430.66
487.14	425.98
487.32	390.87
487.50	353.42
487.68	428.32
487.85	461.09
488.03	397.89
488.21	421.30
488.39	374.49
488.57	407.25
488.75	465.77
488.92	587.47
489.10	372.15
489.28	510.24
489.46	374.49
489.64	348.74
489.81	442.36
489.99	425.98
490.17	437.68
490.35	423.64
490.53	367.46
490.70	411.93
490.88	379.17
491.06	423.64
491.24	470.45
491.41	395.55
491.59	404.91
491.77	369.80
491.95	479.81
492.13	489.17
492.30	437.68
492.48	414.27
492.66	404.91
492.84	421.30
493.01	411.93
493.19	402.57
493.37	416.62
493.54	470.45
493.72	486.83
493.90	400.23
494.08	418.96
494.25	390.87
494.43	418.96
494.61	372.15
494.79	390.87
494.96	433.00
495.14	395.55
495.32	444.70
495.49	367.46
495.67	444.70
495.85	388.53
496.02	418.96
496.20	416.62
496.38	395.55
496.55	402.57
496.73	470.45
496.91	402.57
497.09	376.83
497.26	402.57
497.44	421.30
497.62	341.72
497.79	440.02
497.97	437.68
498.14	444.70
498.32	404.91
498.50	348.74
498.67	421.30
498.85	423.64
499.03	440.02
499.20	461.09
499.38	433.00
499.56	379.17
499.73	447.04
499.91	423.64
500.08	454.06
500.26	407.25
500.44	365.12
500.61	433.00
500.79	416.62
500.97	475.13
501.14	440.02
501.32	400.23
501.49	435.34
501.67	437.68
501.84	418.96
502.02	372.15
502.20	461.09
502.37	414.27
502.55	360.44
502.72	381.51
502.90	381.51
503.07	454.06
503.25	470.45
503.43	477.47
503.60	367.46
503.78	440.02
503.95	367.46
504.13	346.40
504.30	482.15
504.48	397.89
504.65	477.47
504.83	442.36
505.01	411.93
505.18	421.30
505.36	341.72
505.53	472.79
505.71	393.21
505.88	388.53
506.06	411.93
506.23	386.19
506.41	390.87
506.58	435.34
506.76	409.59
506.93	402.57
507.11	386.19
507.28	390.87
507.46	409.59
507.63	400.23
507.81	390.87
507.98	402.57
508.16	402.57
508.33	430.66
508.50	393.21
508.68	409.59
508.85	447.04
509.03	433.00
509.20	447.04
509.38	461.09
509.55	486.83
509.73	437.68
509.90	411.93
510.08	411.93
510.25	369.80
510.42	390.87
510.60	358.10
510.77	411.93
510.95	411.93
511.12	332.36
511.30	348.74
511.47	449.38
511.64	430.66
511.82	407.25
511.99	365.12
512.17	465.77
512.34	414.27
512.51	374.49
512.69	440.02
512.86	449.38
513.04	433.00
513.21	395.55
513.38	372.15
513.56	477.47
513.73	411.93
513.90	416.62
514.08	402.57
514.25	449.38
514.43	472.79
514.60	454.06
514.77	390.87
514.95	430.66
515.12	353.42
515.29	402.57
515.47	430.66
515.64	388.53
515.81	414.27
515.99	414.27
516.16	458.74
516.33	437.68
516.51	458.74
516.68	479.81
516.85	358.10
517.03	435.34
517.20	379.17
517.37	447.04
517.54	463.43
517.72	456.40
517.89	339.38
518.06	374.49
518.24	437.68
518.41	465.77
518.58	388.53
518.75	416.62
518.93	423.64
519.10	435.34
519.27	456.40
519.45	440.02
519.62	346.40
519.79	372.15
519.96	390.87
520.14	418.96
520.31	435.34
520.48	400.23
520.65	400.23
520.83	395.55
521.00	449.38
521.17	425.98
521.34	409.59
521.52	400.23
521.69	430.66
521.86	421.30
522.03	418.96
522.20	433.00
522.38	404.91
522.55	430.66
522.72	428.32
522.89	402.57
523.07	517.26
523.24	430.66
523.41	374.49
523.58	395.55
523.75	423.64
523.92	414.27
524.10	461.09
524.27	423.64
524.44	346.40
524.61	468.11
524.78	381.51
524.96	351.08
525.13	360.44
525.30	416.62
525.47	437.68
525.64	423.64
525.81	463.43
525.98	390.87
526.16	386.19
526.33	374.49
526.50	421.30
526.67	428.32
526.84	397.89
527.01	404.91
527.18	458.74
527.36	383.85
527.53	421.30
527.70	458.74
527.87	440.02
528.04	451.72
528.21	463.43
528.38	428.32
528.55	454.06
528.72	404.91
528.89	407.25
529.07	425.98
529.24	484.49
529.41	367.46
529.58	397.89
529.75	470.45
529.92	414.27
530.09	393.21
530.26	440.02
530.43	447.04
530.60	437.68
530.77	437.68
530.94	496.19
531.11	409.59
531.28	404.91
531.46	400.23
531.63	341.72
531.80	430.66
531.97	381.51
532.14	404.91
532.31	486.83
532.48	416.62
532.65	411.93
532.82	376.83
532.99	428.32
533.16	430.66
533.33	456.40
533.50	514.92
533.67	468.11
533.84	472.79
534.01	404.91
534.18	362.78
534.35	449.38
534.52	360.44
534.69	362.78
534.86	468.11
535.03	454.06
535.20	491.51
535.37	416.62
535.54	379.17
535.71	437.68
535.88	421.30
536.05	437.68
536.22	463.43
536.38	393.21
536.55	433.00
536.72	461.09
536.89	332.36
537.06	306.61
537.23	348.74
537.40	435.34
537.57	381.51
537.74	416.62
537.91	421.30
538.08	376.83
538.25	428.32
538.42	390.87
538.59	393.21
538.75	444.70
538.92	454.06
539.09	479.81
539.26	400.23
539.43	458.74
539.60	454.06
539.77	421.30
539.94	393.21
540.11	447.04
540.28	440.02
540.44	414.27
540.61	423.64
540.78	397.89
540.95	390.87
541.12	472.79
541.29	435.34
541.46	437.68
541.62	374.49
541.79	461.09
541.96	458.74
542.13	421.30
542.30	404.91
542.47	433.00
542.63	390.87
542.80	390.87
542.97	442.36
543.14	386.19
543.31	498.53
543.48	418.96
543.64	503.22
543.81	470.45
543.98	395.55
544.15	458.74
544.32	447.04
544.48	383.85
544.65	442.36
544.82	386.19
544.99	360.44
545.16	442.36
545.32	383.85
545.49	430.66
545.66	407.25
545.83	397.89
546.00	383.85
546.16	505.56
546.33	362.78
546.50	425.98
546.67	458.74
546.83	400.23
547.00	428.32
547.17	451.72
547.34	334.70
547.50	421.30
547.67	468.11
547.84	411.93
548.00	395.55
548.17	416.62
548.34	346.40
548.51	461.09
548.67	435.34
548.84	393.21
549.01	465.77
549.18	451.72
549.34	409.59
549.51	421.30
549.68	489.17
549.84	461.09
550.01	372.15
550.18	491.51
550.34	461.09
550.51	395.55
550.68	447.04
550.84	437.68
551.01	404.91
551.18	386.19
551.34	461.09
551.51	444.70
551.68	407.25
551.84	404.91
552.01	374.49
552.18	395.55
552.34	433.00
552.51	416.62
552.68	395.55
552.84	461.09
553.01	437.68
553.18	388.53
553.34	421.30
553.51	362.78
553.67	407.25
553.84	437.68
554.01	341.72
554.17	397.89
554.34	437.68
554.51	461.09
554.67	423.64
554.84	404.91
555.00	383.85
555.17	374.49
555.33	437.68
555.50	428.32
555.67	379.17
555.83	440.02
556.00	411.93
556.16	554.71
556.33	482.15
556.50	362.78
556.66	449.38
556.83	458.74
556.99	423.64
557.16	451.72
557.32	379.17
557.49	400.23
557.65	435.34
557.82	463.43
557.98	484.49
558.15	461.09
558.32	430.66
558.48	388.53
558.65	367.46
558.81	454.06
558.98	449.38
559.14	416.62
559.31	346.40
559.47	425.98
559.64	500.87
559.80	390.87
559.97	409.59
560.13	381.51
560.30	421.30
560.46	358.10
560.63	397.89
560.79	451.72
560.96	402.57
561.12	461.09
561.29	388.53
561.45	358.10
561.61	477.47
561.78	458.74
561.94	421.30
562.11	468.11
562.27	418.96
562.44	369.80
562.60	409.59
562.77	447.04
562.93	517.26
563.10	430.66
563.26	416.62
563.42	409.59
563.59	458.74
563.75	365.12
563.92	477.47
564.08	477.47
564.24	430.66
564.41	390.87
564.57	442.36
564.74	395.55
564.90	374.49
565.07	477.47
565.23	503.22
565.39	472.79
565.56	369.80
565.72	388.53
565.88	454.06
566.05	379.17
566.21	365.12
566.38	440.02
566.54	461.09
566.70	390.87
566.87	416.62
567.03	454.06
567.19	400.23
567.36	425.98
567.52	365.12
567.68	510.24
567.85	388.53
568.01	484.49
568.17	414.27
568.34	388.53
568.50	416.62
568.66	360.44
568.83	503.22
568.99	390.87
569.15	475.13
569.32	437.68
569.48	449.38
569.64	421.30
569.81	430.66
569.97	425.98
570.13	456.40
570.30	337.04
570.46	353.42
570.62	379.17
570.78	404.91
570.95	318.31
571.11	433.00
571.27	440.02
571.43	374.49
571.60	344.06
571.76	449.38
571.92	390.87
572.09	430.66
572.25	421.30
572.41	416.62
572.57	395.55
572.74	444.70
572.90	416.62
573.06	362.78
573.22	503.22
573.38	451.72
573.55	477.47
573.71	404.91
573.87	425.98
574.03	430.66
574.20	470.45
574.36	437.68
574.52	449.38
574.68	330.02
574.84	449.38
575.01	435.34
575.17	519.60
575.33	451.72
575.49	451.72
575.65	447.04
575.82	458.74
575.98	402.57
576.14	402.57
576.30	372.15
576.46	437.68
576.62	486.83
576.79	451.72
576.95	451.72
577.11	477.47
577.27	433.00
577.43	367.46
577.59	442.36
577.75	425.98
577.92	355.76
578.08	386.19
578.24	379.17
578.40	444.70
578.56	477.47
578.72	475.13
578.88	447.04
579.04	381.51
579.21	428.32
579.37	400.23
579.53	454.06
579.69	461.09
579.85	425.98
580.01	411.93
580.17	369.80
580.33	456.40
580.49	493.85
580.65	428.32
580.82	372.15
580.98	454.06
581.14	430.66
581.30	409.59
581.46	416.62
581.62	395.55
581.78	461.09
581.94	400.23
582.10	447.04
582.26	440.02
582.42	409.59
582.58	411.93
582.74	409.59
582.90	423.64
583.06	355.76
583.22	369.80
583.38	383.85
583.54	409.59
583.70	498.53
583.86	435.34
584.02	423.64
584.18	470.45
584.34	433.00
584.50	416.62
584.66	390.87
584.82	390.87
584.98	390.87
585.14	470.45
585.30	404.91
585.46	423.64
585.62	369.80
585.78	327.68
585.94	337.04
586.10	404.91
586.26	388.53
586.42	428.32
586.58	404.91
586.74	435.34
586.90	440.02
587.06	444.70
587.22	374.49
587.38	444.70
587.54	409.59
587.70	379.17
587.86	496.19
588.02	425.98
588.18	400.23
588.34	489.17
588.49	360.44
588.65	402.57
588.81	379.17
588.97	447.04
589.13	444.70
589.29	475.13
589.45	444.70
589.61	433.00
589.77	440.02
589.93	409.59
590.08	433.00
590.24	332.36
590.40	435.34
590.56	421.30
590.72	351.08
590.88	465.77
591.04	489.17
591.20	358.10
591.35	433.00
591.51	411.93
591.67	407.25
591.83	393.21
591.99	407.25
592.15	416.62
592.31	435.34
592.46	400.23
592.62	449.38
592.78	468.11
592.94	416.62
593.10	449.38
593.26	348.74
593.41	449.38
593.57	332.36
593.73	468.11
593.89	414.27
594.05	386.19
594.20	374.49
594.36	418.96
594.52	416.62
594.68	435.34
594.84	393.21
594.99	503.22
595.15	285.55
595.31	428.32
595.47	470.45
595.62	435.34
595.78	435.34
595.94	430.66
596.10	404.91
596.25	425.98
596.41	461.09
596.57	489.17
596.73	418.96
596.88	423.64
597.04	358.10
597.20	381.51
597.36	428.32
597.51	358.10
597.67	433.00
597.83	386.19
597.99	468.11
598.14	386.19
598.30	477.47
598.46	428.32
598.61	440.02
598.77	454.06
598.93	489.17
599.09	498.53
599.24	362.78
599.40	395.55
599.56	416.62
599.71	440.02
599.87	414.27
600.03	418.96
600.18	435.34
600.34	456.40
600.50	423.64
600.65	374.49
600.81	477.47
600.97	407.25
601.12	409.59
601.28	360.44
601.44	386.19
601.59	421.30
601.75	418.96
601.91	479.81
602.06	458.74
602.22	498.53
602.37	451.72
602.53	440.02
602.69	470.45
602.84	479.81
603.00	402.57
603.16	482.15
603.31	383.85
603.47	491.51
603.62	465.77
603.78	397.89
603.94	444.70
604.09	430.66
604.25	470.45
604.40	454.06
604.56	404.91
604.71	397.89
604.87	397.89
605.03	404.91
605.18	381.51
605.34	418.96
605.49	400.23
605.65	416.62
605.80	353.42
605.96	353.42
606.12	404.91
606.27	465.77
606.43	423.64
606.58	418.96
606.74	454.06
606.89	475.13
607.05	479.81
607.20	433.00
607.36	428.32
607.51	428.32
607.67	407.25
607.82	400.23
607.98	433.00
608.13	449.38
608.29	409.59
608.44	475.13
608.60	440.02
608.75	440.02
608.91	463.43
609.06	409.59
609.22	493.85
609.37	447.04
609.53	449.38
609.68	461.09
609.84	430.66
609.99	404.91
610.15	498.53
