SpectraSuite Data File
++++++++++++++++++++++++++++++++++++
Date: Fri Oct 25 12:11:12 EDT 2013
User: price-jones
Dark Spectrum Present: No
Reference Spectrum Present: No
Number of Sampled Component Spectra: 1
Spectrometers: USB2+H05261
Integration Time (usec): 100000 (USB2+H05261)
Spectra Averaged: 1 (USB2+H05261)
Boxcar Smoothing: 0 (USB2+H05261)
Correct for Electrical Dark: No (USB2+H05261)
Strobe/Lamp Enabled: No (USB2+H05261)
Correct for Detector Non-linearity: No (USB2+H05261)
Correct for Stray Light: No (USB2+H05261)
Number of Pixels in Processed Spectrum: 2048
>>>>>Begin Processed Spectral Data<<<<<
365.73	306.61
365.92	306.61
366.12	306.61
366.32	250.44
366.52	212.99
366.72	306.61
366.91	222.35
367.11	236.39
367.31	241.08
367.51	278.52
367.70	234.05
367.90	243.42
368.10	285.55
368.30	276.18
368.49	154.48
368.69	257.46
368.89	278.52
369.09	311.29
369.28	262.14
369.48	215.33
369.68	299.59
369.87	276.18
370.07	322.99
370.27	332.36
370.47	355.76
370.66	322.99
370.86	346.40
371.06	367.46
371.25	458.74
371.45	409.59
371.65	320.65
371.84	344.06
372.04	367.46
372.24	339.38
372.44	353.42
372.63	362.78
372.83	383.85
373.03	365.12
373.22	318.31
373.42	360.44
373.62	433.00
373.81	440.02
374.01	484.49
374.21	372.15
374.40	355.76
374.60	407.25
374.79	404.91
374.99	430.66
375.19	402.57
375.38	397.89
375.58	430.66
375.78	386.19
375.97	409.59
376.17	386.19
376.37	404.91
376.56	402.57
376.76	376.83
376.95	390.87
377.15	418.96
377.35	430.66
377.54	449.38
377.74	353.42
377.93	397.89
378.13	395.55
378.33	514.92
378.52	374.49
378.72	411.93
378.91	444.70
379.11	397.89
379.31	365.12
379.50	402.57
379.70	430.66
379.89	475.13
380.09	409.59
380.28	358.10
380.48	390.87
380.68	339.38
380.87	388.53
381.07	379.17
381.26	470.45
381.46	337.04
381.65	425.98
381.85	423.64
382.04	430.66
382.24	451.72
382.43	454.06
382.63	444.70
382.83	416.62
383.02	468.11
383.22	463.43
383.41	470.45
383.61	414.27
383.80	444.70
384.00	388.53
384.19	397.89
384.39	430.66
384.58	437.68
384.78	402.57
384.97	372.15
385.17	435.34
385.36	456.40
385.56	425.98
385.75	383.85
385.95	449.38
386.14	411.93
386.34	451.72
386.53	388.53
386.72	339.38
386.92	379.17
387.11	374.49
387.31	447.04
387.50	423.64
387.70	402.57
387.89	440.02
388.09	362.78
388.28	376.83
388.48	355.76
388.67	418.96
388.86	472.79
389.06	393.21
389.25	496.19
389.45	409.59
389.64	418.96
389.84	479.81
390.03	430.66
390.22	442.36
390.42	435.34
390.61	402.57
390.81	404.91
391.00	383.85
391.19	383.85
391.39	388.53
391.58	395.55
391.78	381.51
391.97	355.76
392.16	451.72
392.36	414.27
392.55	440.02
392.75	411.93
392.94	411.93
393.13	355.76
393.33	433.00
393.52	435.34
393.71	346.40
393.91	423.64
394.10	355.76
394.29	461.09
394.49	376.83
394.68	463.43
394.88	313.63
395.07	482.15
395.26	468.11
395.46	337.04
395.65	400.23
395.84	477.47
396.04	367.46
396.23	362.78
396.42	388.53
396.62	449.38
396.81	346.40
397.00	465.77
397.19	395.55
397.39	348.74
397.58	409.59
397.77	428.32
397.97	376.83
398.16	360.44
398.35	503.22
398.55	430.66
398.74	437.68
398.93	411.93
399.12	337.04
399.32	383.85
399.51	344.06
399.70	451.72
399.90	433.00
400.09	430.66
400.28	421.30
400.47	456.40
400.67	418.96
400.86	444.70
401.05	433.00
401.24	400.23
401.44	379.17
401.63	416.62
401.82	444.70
402.01	360.44
402.21	425.98
402.40	463.43
402.59	442.36
402.78	376.83
402.97	386.19
403.17	339.38
403.36	372.15
403.55	369.80
403.74	425.98
403.93	416.62
404.13	489.17
404.32	367.46
404.51	367.46
404.70	369.80
404.89	376.83
405.09	468.11
405.28	367.46
405.47	472.79
405.66	407.25
405.85	397.89
406.05	348.74
406.24	404.91
406.43	393.21
406.62	421.30
406.81	463.43
407.00	358.10
407.20	404.91
407.39	348.74
407.58	449.38
407.77	341.72
407.96	447.04
408.15	475.13
408.34	421.30
408.54	402.57
408.73	416.62
408.92	397.89
409.11	411.93
409.30	470.45
409.49	390.87
409.68	386.19
409.87	383.85
410.07	425.98
410.26	397.89
410.45	400.23
410.64	425.98
410.83	395.55
411.02	351.08
411.21	358.10
411.40	367.46
411.59	416.62
411.78	449.38
411.98	433.00
412.17	367.46
412.36	374.49
412.55	400.23
412.74	447.04
412.93	433.00
413.12	362.78
413.31	428.32
413.50	435.34
413.69	414.27
413.88	435.34
414.07	379.17
414.26	425.98
414.45	358.10
414.64	369.80
414.83	496.19
415.02	386.19
415.22	451.72
415.41	421.30
415.60	409.59
415.79	395.55
415.98	430.66
416.17	388.53
416.36	360.44
416.55	374.49
416.74	444.70
416.93	421.30
417.12	414.27
417.31	416.62
417.50	421.30
417.69	496.19
417.88	351.08
418.07	383.85
418.26	416.62
418.45	423.64
418.64	486.83
418.83	393.21
419.02	390.87
419.21	393.21
419.39	421.30
419.58	430.66
419.77	402.57
419.96	465.77
420.15	411.93
420.34	425.98
420.53	381.51
420.72	418.96
420.91	428.32
421.10	430.66
421.29	386.19
421.48	498.53
421.67	404.91
421.86	418.96
422.05	430.66
422.24	444.70
422.43	468.11
422.61	451.72
422.80	369.80
422.99	341.72
423.18	454.06
423.37	435.34
423.56	379.17
423.75	454.06
423.94	379.17
424.13	451.72
424.32	442.36
424.50	397.89
424.69	411.93
424.88	360.44
425.07	393.21
425.26	372.15
425.45	437.68
425.64	418.96
425.83	411.93
426.01	404.91
426.20	355.76
426.39	315.97
426.58	428.32
426.77	414.27
426.96	463.43
427.15	470.45
427.33	400.23
427.52	437.68
427.71	418.96
427.90	362.78
428.09	372.15
428.28	390.87
428.46	414.27
428.65	404.91
428.84	416.62
429.03	416.62
429.22	372.15
429.40	442.36
429.59	498.53
429.78	463.43
429.97	421.30
430.16	407.25
430.34	322.99
430.53	423.64
430.72	362.78
430.91	458.74
431.10	383.85
431.28	409.59
431.47	461.09
431.66	486.83
431.85	390.87
432.03	465.77
432.22	449.38
432.41	440.02
432.60	360.44
432.79	418.96
432.97	447.04
433.16	437.68
433.35	379.17
433.54	397.89
433.72	500.87
433.91	411.93
434.10	437.68
434.28	418.96
434.47	390.87
434.66	489.17
434.85	393.21
435.03	444.70
435.22	451.72
435.41	400.23
435.59	421.30
435.78	379.17
435.97	418.96
436.16	435.34
436.34	365.12
436.53	458.74
436.72	435.34
436.90	463.43
437.09	409.59
437.28	381.51
437.46	402.57
437.65	404.91
437.84	425.98
438.02	418.96
438.21	411.93
438.40	381.51
438.58	388.53
438.77	496.19
438.96	514.92
439.14	393.21
439.33	472.79
439.52	407.25
439.70	416.62
439.89	390.87
440.08	425.98
440.26	451.72
440.45	407.25
440.63	383.85
440.82	390.87
441.01	388.53
441.19	465.77
441.38	353.42
441.57	416.62
441.75	428.32
441.94	433.00
442.12	299.59
442.31	390.87
442.50	376.83
442.68	416.62
442.87	423.64
443.05	395.55
443.24	433.00
443.43	421.30
443.61	383.85
443.80	414.27
443.98	355.76
444.17	395.55
444.35	477.47
444.54	369.80
444.73	362.78
444.91	404.91
445.10	414.27
445.28	388.53
445.47	454.06
445.65	505.56
445.84	456.40
446.02	365.12
446.21	425.98
446.39	381.51
446.58	418.96
446.77	416.62
446.95	440.02
447.14	367.46
447.32	414.27
447.51	393.21
447.69	449.38
447.88	437.68
448.06	425.98
448.25	425.98
448.43	402.57
448.62	386.19
448.80	411.93
448.99	486.83
449.17	376.83
449.36	397.89
449.54	493.85
449.73	430.66
449.91	505.56
450.10	397.89
450.28	472.79
450.46	409.59
450.65	402.57
450.83	428.32
451.02	472.79
451.20	381.51
451.39	397.89
451.57	404.91
451.76	430.66
451.94	437.68
452.13	421.30
452.31	423.64
452.49	433.00
452.68	397.89
452.86	379.17
453.05	444.70
453.23	365.12
453.42	425.98
453.60	393.21
453.78	447.04
453.97	337.04
454.15	411.93
454.34	404.91
454.52	393.21
454.70	428.32
454.89	423.64
455.07	330.02
455.26	428.32
455.44	390.87
455.62	500.87
455.81	435.34
455.99	423.64
456.17	404.91
456.36	428.32
456.54	454.06
456.73	416.62
456.91	374.49
457.09	447.04
457.28	512.58
457.46	351.08
457.64	454.06
457.83	376.83
458.01	451.72
458.19	416.62
458.38	388.53
458.56	437.68
458.74	376.83
458.93	444.70
459.11	374.49
459.29	383.85
459.48	447.04
459.66	418.96
459.84	437.68
460.03	449.38
460.21	416.62
460.39	409.59
460.57	435.34
460.76	402.57
460.94	437.68
461.12	486.83
461.31	374.49
461.49	397.89
461.67	400.23
461.85	440.02
462.04	404.91
462.22	709.18
462.40	409.59
462.59	433.00
462.77	423.64
462.95	418.96
463.13	362.78
463.32	402.57
463.50	395.55
463.68	451.72
463.86	451.72
464.05	444.70
464.23	425.98
464.41	395.55
464.59	449.38
464.78	400.23
464.96	379.17
465.14	430.66
465.32	379.17
465.50	447.04
465.69	339.38
465.87	322.99
466.05	456.40
466.23	444.70
466.41	395.55
466.60	411.93
466.78	411.93
466.96	374.49
467.14	491.51
467.32	493.85
467.51	461.09
467.69	435.34
467.87	430.66
468.05	407.25
468.23	416.62
468.41	517.26
468.60	418.96
468.78	435.34
468.96	435.34
469.14	360.44
469.32	404.91
469.50	381.51
469.69	395.55
469.87	416.62
470.05	463.43
470.23	404.91
470.41	341.72
470.59	374.49
470.77	388.53
470.95	376.83
471.14	463.43
471.32	374.49
471.50	360.44
471.68	435.34
471.86	425.98
472.04	402.57
472.22	381.51
472.40	414.27
472.58	395.55
472.77	367.46
472.95	414.27
473.13	498.53
473.31	435.34
473.49	367.46
473.67	416.62
473.85	463.43
474.03	360.44
474.21	430.66
474.39	454.06
474.57	383.85
474.75	416.62
474.93	425.98
475.12	475.13
475.30	461.09
475.48	425.98
475.66	465.77
475.84	451.72
476.02	402.57
476.20	507.90
476.38	386.19
476.56	477.47
476.74	418.96
476.92	379.17
477.10	411.93
477.28	430.66
477.46	430.66
477.64	437.68
477.82	381.51
478.00	362.78
478.18	409.59
478.36	414.27
478.54	400.23
478.72	423.64
478.90	383.85
479.08	468.11
479.26	365.12
479.44	486.83
479.62	341.72
479.80	397.89
479.98	376.83
480.16	437.68
480.34	411.93
480.52	461.09
480.70	470.45
480.88	423.64
481.06	458.74
481.24	421.30
481.41	423.64
481.59	367.46
481.77	425.98
481.95	355.76
482.13	435.34
482.31	411.93
482.49	418.96
482.67	425.98
482.85	411.93
483.03	400.23
483.21	369.80
483.39	425.98
483.57	402.57
483.74	512.58
483.92	437.68
484.10	425.98
484.28	486.83
484.46	472.79
484.64	409.59
484.82	409.59
485.00	365.12
485.18	423.64
485.35	414.27
485.53	451.72
485.71	395.55
485.89	315.97
486.07	458.74
486.25	475.13
486.43	440.02
486.61	404.91
486.78	475.13
486.96	486.83
487.14	435.34
487.32	381.51
487.50	374.49
487.68	440.02
487.85	362.78
488.03	372.15
488.21	566.41
488.39	444.70
488.57	376.83
488.75	386.19
488.92	470.45
489.10	498.53
489.28	482.15
489.46	411.93
489.64	472.79
489.81	402.57
489.99	437.68
490.17	428.32
490.35	442.36
490.53	440.02
490.70	444.70
490.88	456.40
491.06	407.25
491.24	465.77
491.41	315.97
491.59	390.87
491.77	330.02
491.95	376.83
492.13	435.34
492.30	390.87
492.48	390.87
492.66	348.74
492.84	390.87
493.01	440.02
493.19	369.80
493.37	456.40
493.54	390.87
493.72	451.72
493.90	414.27
494.08	475.13
494.25	433.00
494.43	346.40
494.61	414.27
494.79	461.09
494.96	430.66
495.14	468.11
495.32	510.24
495.49	435.34
495.67	358.10
495.85	360.44
496.02	397.89
496.20	507.90
496.38	421.30
496.55	416.62
496.73	353.42
496.91	416.62
497.09	393.21
497.26	407.25
497.44	444.70
497.62	376.83
497.79	411.93
497.97	479.81
498.14	393.21
498.32	484.49
498.50	433.00
498.67	393.21
498.85	496.19
499.03	440.02
499.20	393.21
499.38	440.02
499.56	498.53
499.73	451.72
499.91	491.51
500.08	428.32
500.26	374.49
500.44	388.53
500.61	428.32
500.79	404.91
500.97	449.38
501.14	468.11
501.32	423.64
501.49	461.09
501.67	353.42
501.84	496.19
502.02	416.62
502.20	416.62
502.37	388.53
502.55	388.53
502.72	386.19
502.90	409.59
503.07	475.13
503.25	425.98
503.43	360.44
503.60	362.78
503.78	442.36
503.95	411.93
504.13	414.27
504.30	421.30
504.48	449.38
504.65	479.81
504.83	402.57
505.01	451.72
505.18	393.21
505.36	407.25
505.53	358.10
505.71	421.30
505.88	428.32
506.06	470.45
506.23	421.30
506.41	376.83
506.58	425.98
506.76	440.02
506.93	472.79
507.11	372.15
507.28	411.93
507.46	383.85
507.63	477.47
507.81	388.53
507.98	428.32
508.16	486.83
508.33	374.49
508.50	416.62
508.68	400.23
508.85	454.06
509.03	428.32
509.20	512.58
509.38	425.98
509.55	465.77
509.73	435.34
509.90	463.43
510.08	409.59
510.25	447.04
510.42	372.15
510.60	477.47
510.77	451.72
510.95	482.15
511.12	468.11
511.30	374.49
511.47	390.87
511.64	470.45
511.82	477.47
511.99	449.38
512.17	423.64
512.34	374.49
512.51	428.32
512.69	402.57
512.86	493.85
513.04	332.36
513.21	498.53
513.38	444.70
513.56	442.36
513.73	402.57
513.90	388.53
514.08	353.42
514.25	416.62
514.43	444.70
514.60	390.87
514.77	423.64
514.95	479.81
515.12	393.21
515.29	442.36
515.47	351.08
515.64	400.23
515.81	472.79
515.99	482.15
516.16	465.77
516.33	442.36
516.51	372.15
516.68	383.85
516.85	435.34
517.03	416.62
517.20	433.00
517.37	430.66
517.54	468.11
517.72	461.09
517.89	402.57
518.06	425.98
518.24	355.76
518.41	397.89
518.58	428.32
518.75	400.23
518.93	414.27
519.10	472.79
519.27	444.70
519.45	442.36
519.62	374.49
519.79	421.30
519.96	400.23
520.14	395.55
520.31	479.81
520.48	428.32
520.65	409.59
520.83	390.87
521.00	383.85
521.17	344.06
521.34	358.10
521.52	425.98
521.69	475.13
521.86	397.89
522.03	397.89
522.20	521.94
522.38	383.85
522.55	376.83
522.72	454.06
522.89	407.25
523.07	472.79
523.24	433.00
523.41	372.15
523.58	456.40
523.75	334.70
523.92	362.78
524.10	400.23
524.27	351.08
524.44	362.78
524.61	423.64
524.78	400.23
524.96	397.89
525.13	428.32
525.30	435.34
525.47	390.87
525.64	428.32
525.81	379.17
525.98	416.62
526.16	395.55
526.33	386.19
526.50	449.38
526.67	337.04
526.84	416.62
527.01	365.12
527.18	383.85
527.36	425.98
527.53	437.68
527.70	479.81
527.87	425.98
528.04	435.34
528.21	393.21
528.38	383.85
528.55	390.87
528.72	456.40
528.89	395.55
529.07	369.80
529.24	423.64
529.41	451.72
529.58	449.38
529.75	407.25
529.92	376.83
530.09	454.06
530.26	456.40
530.43	454.06
530.60	414.27
530.77	421.30
530.94	407.25
531.11	367.46
531.28	435.34
531.46	430.66
531.63	346.40
531.80	447.04
531.97	430.66
532.14	418.96
532.31	470.45
532.48	433.00
532.65	407.25
532.82	355.76
532.99	526.62
533.16	416.62
533.33	444.70
533.50	409.59
533.67	440.02
533.84	496.19
534.01	456.40
534.18	430.66
534.35	418.96
534.52	379.17
534.69	484.49
534.86	383.85
535.03	379.17
535.20	454.06
535.37	425.98
535.54	409.59
535.71	400.23
535.88	423.64
536.05	351.08
536.22	435.34
536.38	421.30
536.55	418.96
536.72	435.34
536.89	489.17
537.06	433.00
537.23	456.40
537.40	433.00
537.57	292.57
537.74	374.49
537.91	374.49
538.08	428.32
538.25	395.55
538.42	376.83
538.59	393.21
538.75	437.68
538.92	379.17
539.09	379.17
539.26	358.10
539.43	435.34
539.60	458.74
539.77	444.70
539.94	430.66
540.11	423.64
540.28	395.55
540.44	418.96
540.61	451.72
540.78	400.23
540.95	393.21
541.12	500.87
541.29	472.79
541.46	428.32
541.62	381.51
541.79	440.02
541.96	458.74
542.13	374.49
542.30	407.25
542.47	393.21
542.63	358.10
542.80	456.40
542.97	447.04
543.14	454.06
543.31	409.59
543.48	430.66
543.64	451.72
543.81	437.68
543.98	360.44
544.15	425.98
544.32	430.66
544.48	388.53
544.65	430.66
544.82	421.30
544.99	433.00
545.16	477.47
545.32	421.30
545.49	475.13
545.66	355.76
545.83	372.15
546.00	390.87
546.16	395.55
546.33	369.80
546.50	379.17
546.67	484.49
546.83	348.74
547.00	440.02
547.17	407.25
547.34	346.40
547.50	444.70
547.67	456.40
547.84	362.78
548.00	386.19
548.17	454.06
548.34	437.68
548.51	444.70
548.67	425.98
548.84	400.23
549.01	383.85
549.18	456.40
549.34	353.42
549.51	451.72
549.68	465.77
549.84	407.25
550.01	416.62
550.18	517.26
550.34	489.17
550.51	404.91
550.68	442.36
550.84	430.66
551.01	437.68
551.18	468.11
551.34	428.32
551.51	461.09
551.68	421.30
551.84	458.74
552.01	407.25
552.18	493.85
552.34	379.17
552.51	421.30
552.68	477.47
552.84	402.57
553.01	351.08
553.18	458.74
553.34	442.36
553.51	475.13
553.67	388.53
553.84	442.36
554.01	379.17
554.17	407.25
554.34	407.25
554.51	451.72
554.67	433.00
554.84	428.32
555.00	423.64
555.17	414.27
555.33	388.53
555.50	444.70
555.67	423.64
555.83	428.32
556.00	433.00
556.16	543.00
556.33	444.70
556.50	360.44
556.66	390.87
556.83	390.87
556.99	393.21
557.16	348.74
557.32	456.40
557.49	351.08
557.65	379.17
557.82	388.53
557.98	393.21
558.15	404.91
558.32	461.09
558.48	449.38
558.65	447.04
558.81	400.23
558.98	444.70
559.14	507.90
559.31	383.85
559.47	409.59
559.64	416.62
559.80	383.85
559.97	404.91
560.13	409.59
560.30	449.38
560.46	334.70
560.63	400.23
560.79	437.68
560.96	402.57
561.12	428.32
561.29	475.13
561.45	383.85
561.61	512.58
561.78	505.56
561.94	458.74
562.11	400.23
562.27	409.59
562.44	421.30
562.60	507.90
562.77	341.72
562.93	468.11
563.10	428.32
563.26	458.74
563.42	472.79
563.59	456.40
563.75	414.27
563.92	386.19
564.08	496.19
564.24	477.47
564.41	444.70
564.57	400.23
564.74	430.66
564.90	454.06
565.07	416.62
565.23	381.51
565.39	386.19
565.56	416.62
565.72	442.36
565.88	418.96
566.05	456.40
566.21	449.38
566.38	454.06
566.54	374.49
566.70	362.78
566.87	397.89
567.03	435.34
567.19	365.12
567.36	379.17
567.52	397.89
567.68	407.25
567.85	411.93
568.01	472.79
568.17	402.57
568.34	507.90
568.50	477.47
568.66	402.57
568.83	477.47
568.99	386.19
569.15	442.36
569.32	442.36
569.48	435.34
569.64	388.53
569.81	477.47
569.97	435.34
570.13	458.74
570.30	447.04
570.46	423.64
570.62	407.25
570.78	407.25
570.95	421.30
571.11	484.49
571.27	442.36
571.43	337.04
571.60	400.23
571.76	355.76
571.92	458.74
572.09	346.40
572.25	477.47
572.41	425.98
572.57	407.25
572.74	528.96
572.90	435.34
573.06	421.30
573.22	425.98
573.38	472.79
573.55	468.11
573.71	416.62
573.87	416.62
574.03	355.76
574.20	393.21
574.36	510.24
574.52	383.85
574.68	369.80
574.84	421.30
575.01	407.25
575.17	318.31
575.33	379.17
575.49	395.55
575.65	425.98
575.82	470.45
575.98	463.43
576.14	367.46
576.30	374.49
576.46	454.06
576.62	395.55
576.79	425.98
576.95	421.30
577.11	407.25
577.27	449.38
577.43	444.70
577.59	444.70
577.75	411.93
577.92	411.93
578.08	409.59
578.24	437.68
578.40	435.34
578.56	461.09
578.72	456.40
578.88	390.87
579.04	458.74
579.21	381.51
579.37	353.42
579.53	449.38
579.69	435.34
579.85	397.89
580.01	418.96
580.17	416.62
580.33	470.45
580.49	442.36
580.65	362.78
580.82	425.98
580.98	416.62
581.14	423.64
581.30	442.36
581.46	400.23
581.62	423.64
581.78	414.27
581.94	353.42
582.10	442.36
582.26	360.44
582.42	376.83
582.58	383.85
582.74	390.87
582.90	510.24
583.06	440.02
583.22	421.30
583.38	475.13
583.54	500.87
583.70	381.51
583.86	435.34
584.02	404.91
584.18	409.59
584.34	367.46
584.50	451.72
584.66	442.36
584.82	402.57
584.98	393.21
585.14	482.15
585.30	428.32
585.46	351.08
585.62	440.02
585.78	411.93
585.94	393.21
586.10	397.89
586.26	463.43
586.42	449.38
586.58	468.11
586.74	430.66
586.90	360.44
587.06	362.78
587.22	440.02
587.38	407.25
587.54	393.21
587.70	423.64
587.86	454.06
588.02	381.51
588.18	451.72
588.34	435.34
588.49	409.59
588.65	486.83
588.81	367.46
588.97	425.98
589.13	500.87
589.29	444.70
589.45	472.79
589.61	444.70
589.77	383.85
589.93	442.36
590.08	461.09
590.24	388.53
590.40	386.19
590.56	428.32
590.72	447.04
590.88	428.32
591.04	430.66
591.20	372.15
591.35	393.21
591.51	348.74
591.67	416.62
591.83	404.91
591.99	437.68
592.15	416.62
592.31	456.40
592.46	472.79
592.62	444.70
592.78	440.02
592.94	411.93
593.10	400.23
593.26	418.96
593.41	390.87
593.57	437.68
593.73	388.53
593.89	395.55
594.05	423.64
594.20	430.66
594.36	423.64
594.52	374.49
594.68	360.44
594.84	477.47
594.99	397.89
595.15	395.55
595.31	374.49
595.47	388.53
595.62	402.57
595.78	358.10
595.94	376.83
596.10	437.68
596.25	437.68
596.41	468.11
596.57	414.27
596.73	425.98
596.88	425.98
597.04	388.53
597.20	454.06
597.36	484.49
597.51	351.08
597.67	414.27
597.83	341.72
597.99	468.11
598.14	444.70
598.30	433.00
598.46	383.85
598.61	421.30
598.77	381.51
598.93	421.30
599.09	346.40
599.24	430.66
599.40	407.25
599.56	395.55
599.71	477.47
599.87	402.57
600.03	437.68
600.18	397.89
600.34	421.30
600.50	444.70
600.65	369.80
600.81	404.91
600.97	393.21
601.12	346.40
601.28	477.47
601.44	374.49
601.59	395.55
601.75	404.91
601.91	449.38
602.06	395.55
602.22	461.09
602.37	447.04
602.53	411.93
602.69	390.87
602.84	400.23
603.00	482.15
603.16	430.66
603.31	423.64
603.47	444.70
603.62	358.10
603.78	388.53
603.94	435.34
604.09	390.87
604.25	493.85
604.40	461.09
604.56	433.00
604.71	430.66
604.87	404.91
605.03	383.85
605.18	409.59
605.34	433.00
605.49	421.30
605.65	444.70
605.80	397.89
605.96	428.32
606.12	423.64
606.27	374.49
606.43	386.19
606.58	339.38
606.74	447.04
606.89	477.47
607.05	430.66
607.20	381.51
607.36	514.92
607.51	409.59
607.67	386.19
607.82	409.59
607.98	449.38
608.13	475.13
608.29	416.62
608.44	416.62
608.60	428.32
608.75	442.36
608.91	433.00
609.06	393.21
609.22	451.72
609.37	418.96
609.53	421.30
609.68	365.12
609.84	381.51
609.99	332.36
610.15	472.79
