SpectraSuite Data File
++++++++++++++++++++++++++++++++++++
Date: Fri Oct 25 12:10:51 EDT 2013
User: price-jones
Dark Spectrum Present: No
Reference Spectrum Present: No
Number of Sampled Component Spectra: 1
Spectrometers: USB2+H05261
Integration Time (usec): 100000 (USB2+H05261)
Spectra Averaged: 1 (USB2+H05261)
Boxcar Smoothing: 0 (USB2+H05261)
Correct for Electrical Dark: No (USB2+H05261)
Strobe/Lamp Enabled: No (USB2+H05261)
Correct for Detector Non-linearity: No (USB2+H05261)
Correct for Stray Light: No (USB2+H05261)
Number of Pixels in Processed Spectrum: 2048
>>>>>Begin Processed Spectral Data<<<<<
365.73	311.29
365.92	311.29
366.12	311.29
366.32	250.44
366.52	248.10
366.72	299.59
366.91	264.48
367.11	175.54
367.31	156.82
367.51	224.69
367.70	191.92
367.90	222.35
368.10	248.10
368.30	224.69
368.49	222.35
368.69	330.02
368.89	236.39
369.09	297.25
369.28	278.52
369.48	299.59
369.68	262.14
369.87	292.57
370.07	330.02
370.27	304.27
370.47	334.70
370.66	360.44
370.86	390.87
371.06	346.40
371.25	388.53
371.45	297.25
371.65	421.30
371.84	425.98
372.04	341.72
372.24	397.89
372.44	400.23
372.63	454.06
372.83	379.17
373.03	386.19
373.22	297.25
373.42	493.85
373.62	369.80
373.81	425.98
374.01	418.96
374.21	449.38
374.40	379.17
374.60	404.91
374.79	360.44
374.99	395.55
375.19	477.47
375.38	374.49
375.58	376.83
375.78	435.34
375.97	407.25
376.17	374.49
376.37	383.85
376.56	447.04
376.76	351.08
376.95	404.91
377.15	374.49
377.35	428.32
377.54	468.11
377.74	454.06
377.93	430.66
378.13	402.57
378.33	397.89
378.52	395.55
378.72	442.36
378.91	437.68
379.11	425.98
379.31	407.25
379.50	306.61
379.70	407.25
379.89	365.12
380.09	365.12
380.28	365.12
380.48	444.70
380.68	435.34
380.87	367.46
381.07	383.85
381.26	444.70
381.46	440.02
381.65	416.62
381.85	369.80
382.04	334.70
382.24	407.25
382.43	395.55
382.63	304.27
382.83	395.55
383.02	463.43
383.22	404.91
383.41	421.30
383.61	400.23
383.80	435.34
384.00	327.68
384.19	414.27
384.39	315.97
384.58	409.59
384.78	390.87
384.97	395.55
385.17	411.93
385.36	447.04
385.56	447.04
385.75	367.46
385.95	407.25
386.14	418.96
386.34	353.42
386.53	463.43
386.72	409.59
386.92	444.70
387.11	402.57
387.31	425.98
387.50	372.15
387.70	383.85
387.89	393.21
388.09	379.17
388.28	407.25
388.48	355.76
388.67	376.83
388.86	308.95
389.06	414.27
389.25	454.06
389.45	404.91
389.64	440.02
389.84	430.66
390.03	428.32
390.22	486.83
390.42	454.06
390.61	454.06
390.81	407.25
391.00	447.04
391.19	421.30
391.39	430.66
391.58	367.46
391.78	409.59
391.97	423.64
392.16	365.12
392.36	365.12
392.55	397.89
392.75	402.57
392.94	388.53
393.13	341.72
393.33	435.34
393.52	390.87
393.71	372.15
393.91	423.64
394.10	397.89
394.29	416.62
394.49	416.62
394.68	423.64
394.88	337.04
395.07	458.74
395.26	402.57
395.46	425.98
395.65	397.89
395.84	390.87
396.04	421.30
396.23	360.44
396.42	404.91
396.62	365.12
396.81	388.53
397.00	425.98
397.19	444.70
397.39	365.12
397.58	449.38
397.77	472.79
397.97	440.02
398.16	404.91
398.35	416.62
398.55	411.93
398.74	407.25
398.93	442.36
399.12	386.19
399.32	334.70
399.51	407.25
399.70	482.15
399.90	491.51
400.09	477.47
400.28	409.59
400.47	411.93
400.67	425.98
400.86	449.38
401.05	400.23
401.24	472.79
401.44	425.98
401.63	402.57
401.82	435.34
402.01	355.76
402.21	440.02
402.40	381.51
402.59	423.64
402.78	383.85
402.97	334.70
403.17	397.89
403.36	365.12
403.55	402.57
403.74	433.00
403.93	477.47
404.13	428.32
404.32	388.53
404.51	362.78
404.70	386.19
404.89	442.36
405.09	402.57
405.28	423.64
405.47	428.32
405.66	475.13
405.85	372.15
406.05	383.85
406.24	454.06
406.43	416.62
406.62	447.04
406.81	351.08
407.00	451.72
407.20	416.62
407.39	402.57
407.58	376.83
407.77	402.57
407.96	458.74
408.15	456.40
408.34	458.74
408.54	404.91
408.73	402.57
408.92	362.78
409.11	393.21
409.30	414.27
409.49	407.25
409.68	423.64
409.87	379.17
410.07	411.93
410.26	421.30
410.45	376.83
410.64	390.87
410.83	430.66
411.02	372.15
411.21	388.53
411.40	440.02
411.59	442.36
411.78	435.34
411.98	351.08
412.17	433.00
412.36	355.76
412.55	388.53
412.74	402.57
412.93	395.55
413.12	386.19
413.31	444.70
413.50	397.89
413.69	381.51
413.88	386.19
414.07	395.55
414.26	402.57
414.45	383.85
414.64	449.38
414.83	388.53
415.02	397.89
415.22	514.92
415.41	423.64
415.60	386.19
415.79	402.57
415.98	458.74
416.17	458.74
416.36	362.78
416.55	397.89
416.74	444.70
416.93	430.66
417.12	348.74
417.31	367.46
417.50	390.87
417.69	411.93
417.88	407.25
418.07	425.98
418.26	454.06
418.45	395.55
418.64	388.53
418.83	362.78
419.02	421.30
419.21	435.34
419.39	414.27
419.58	367.46
419.77	461.09
419.96	444.70
420.15	358.10
420.34	372.15
420.53	353.42
420.72	428.32
420.91	397.89
421.10	386.19
421.29	386.19
421.48	437.68
421.67	468.11
421.86	442.36
422.05	379.17
422.24	348.74
422.43	400.23
422.61	372.15
422.80	423.64
422.99	418.96
423.18	435.34
423.37	395.55
423.56	402.57
423.75	451.72
423.94	355.76
424.13	416.62
424.32	418.96
424.50	360.44
424.69	416.62
424.88	440.02
425.07	360.44
425.26	442.36
425.45	482.15
425.64	395.55
425.83	351.08
426.01	379.17
426.20	411.93
426.39	383.85
426.58	416.62
426.77	428.32
426.96	425.98
427.15	402.57
427.33	390.87
427.52	383.85
427.71	374.49
427.90	383.85
428.09	390.87
428.28	353.42
428.46	435.34
428.65	379.17
428.84	337.04
429.03	440.02
429.22	437.68
429.40	442.36
429.59	372.15
429.78	433.00
429.97	414.27
430.16	500.87
430.34	381.51
430.53	409.59
430.72	411.93
430.91	390.87
431.10	409.59
431.28	435.34
431.47	369.80
431.66	381.51
431.85	379.17
432.03	451.72
432.22	437.68
432.41	393.21
432.60	437.68
432.79	393.21
432.97	339.38
433.16	379.17
433.35	388.53
433.54	376.83
433.72	369.80
433.91	418.96
434.10	456.40
434.28	437.68
434.47	425.98
434.66	388.53
434.85	428.32
435.03	409.59
435.22	435.34
435.41	456.40
435.59	484.49
435.78	418.96
435.97	369.80
436.16	395.55
436.34	372.15
436.53	379.17
436.72	468.11
436.90	407.25
437.09	407.25
437.28	423.64
437.46	402.57
437.65	477.47
437.84	409.59
438.02	414.27
438.21	421.30
438.40	430.66
438.58	390.87
438.77	425.98
438.96	433.00
439.14	397.89
439.33	418.96
439.52	425.98
439.70	393.21
439.89	381.51
440.08	383.85
440.26	372.15
440.45	456.40
440.63	421.30
440.82	407.25
441.01	425.98
441.19	388.53
441.38	440.02
441.57	404.91
441.75	486.83
441.94	447.04
442.12	421.30
442.31	440.02
442.50	437.68
442.68	393.21
442.87	456.40
443.05	423.64
443.24	433.00
443.43	402.57
443.61	416.62
443.80	470.45
443.98	315.97
444.17	404.91
444.35	383.85
444.54	346.40
444.73	376.83
444.91	344.06
445.10	376.83
445.28	414.27
445.47	454.06
445.65	397.89
445.84	433.00
446.02	423.64
446.21	330.02
446.39	418.96
446.58	379.17
446.77	379.17
446.95	449.38
447.14	451.72
447.32	425.98
447.51	400.23
447.69	416.62
447.88	435.34
448.06	353.42
448.25	421.30
448.43	388.53
448.62	423.64
448.80	404.91
448.99	388.53
449.17	351.08
449.36	372.15
449.54	482.15
449.73	362.78
449.91	362.78
450.10	390.87
450.28	418.96
450.46	418.96
450.65	386.19
450.83	465.77
451.02	348.74
451.20	437.68
451.39	409.59
451.57	348.74
451.76	397.89
451.94	367.46
452.13	376.83
452.31	414.27
452.49	416.62
452.68	353.42
452.86	400.23
453.05	447.04
453.23	362.78
453.42	386.19
453.60	421.30
453.78	449.38
453.97	407.25
454.15	437.68
454.34	463.43
454.52	381.51
454.70	428.32
454.89	451.72
455.07	386.19
455.26	475.13
455.44	418.96
455.62	390.87
455.81	458.74
455.99	416.62
456.17	393.21
456.36	360.44
456.54	388.53
456.73	416.62
456.91	390.87
457.09	325.33
457.28	472.79
457.46	433.00
457.64	369.80
457.83	360.44
458.01	409.59
458.19	465.77
458.38	360.44
458.56	404.91
458.74	320.65
458.93	344.06
459.11	463.43
459.29	386.19
459.48	381.51
459.66	456.40
459.84	416.62
460.03	454.06
460.21	437.68
460.39	449.38
460.57	397.89
460.76	393.21
460.94	404.91
461.12	484.49
461.31	451.72
461.49	386.19
461.67	414.27
461.85	411.93
462.04	404.91
462.22	725.57
462.40	451.72
462.59	397.89
462.77	407.25
462.95	442.36
463.13	402.57
463.32	374.49
463.50	407.25
463.68	468.11
463.86	411.93
464.05	402.57
464.23	456.40
464.41	365.12
464.59	449.38
464.78	402.57
464.96	383.85
465.14	456.40
465.32	491.51
465.50	428.32
465.69	433.00
465.87	353.42
466.05	306.61
466.23	425.98
466.41	393.21
466.60	397.89
466.78	482.15
466.96	351.08
467.14	358.10
467.32	423.64
467.51	468.11
467.69	400.23
467.87	496.19
468.05	381.51
468.23	437.68
468.41	468.11
468.60	414.27
468.78	451.72
468.96	435.34
469.14	409.59
469.32	411.93
469.50	369.80
469.69	414.27
469.87	409.59
470.05	414.27
470.23	437.68
470.41	409.59
470.59	409.59
470.77	465.77
470.95	461.09
471.14	496.19
471.32	379.17
471.50	461.09
471.68	437.68
471.86	430.66
472.04	461.09
472.22	440.02
472.40	479.81
472.58	344.06
472.77	428.32
472.95	437.68
473.13	472.79
473.31	444.70
473.49	414.27
473.67	369.80
473.85	486.83
474.03	358.10
474.21	320.65
474.39	451.72
474.57	498.53
474.75	400.23
474.93	383.85
475.12	367.46
475.30	416.62
475.48	402.57
475.66	437.68
475.84	367.46
476.02	400.23
476.20	423.64
476.38	386.19
476.56	458.74
476.74	409.59
476.92	362.78
477.10	404.91
477.28	484.49
477.46	407.25
477.64	437.68
477.82	402.57
478.00	491.51
478.18	437.68
478.36	395.55
478.54	407.25
478.72	458.74
478.90	433.00
479.08	341.72
479.26	468.11
479.44	447.04
479.62	400.23
479.80	435.34
479.98	435.34
480.16	475.13
480.34	423.64
480.52	383.85
480.70	362.78
480.88	393.21
481.06	367.46
481.24	383.85
481.41	414.27
481.59	482.15
481.77	442.36
481.95	383.85
482.13	433.00
482.31	435.34
482.49	475.13
482.67	451.72
482.85	440.02
483.03	351.08
483.21	411.93
483.39	390.87
483.57	456.40
483.74	465.77
483.92	390.87
484.10	393.21
484.28	423.64
484.46	454.06
484.64	397.89
484.82	339.38
485.00	461.09
485.18	423.64
485.35	416.62
485.53	421.30
485.71	397.89
485.89	451.72
486.07	430.66
486.25	400.23
486.43	404.91
486.61	423.64
486.78	458.74
486.96	421.30
487.14	449.38
487.32	390.87
487.50	395.55
487.68	386.19
487.85	402.57
488.03	376.83
488.21	519.60
488.39	353.42
488.57	402.57
488.75	428.32
488.92	507.90
489.10	407.25
489.28	402.57
489.46	332.36
489.64	409.59
489.81	423.64
489.99	334.70
490.17	369.80
490.35	463.43
490.53	355.76
490.70	425.98
490.88	402.57
491.06	388.53
491.24	395.55
491.41	496.19
491.59	400.23
491.77	365.12
491.95	437.68
492.13	454.06
492.30	386.19
492.48	383.85
492.66	479.81
492.84	376.83
493.01	416.62
493.19	416.62
493.37	479.81
493.54	449.38
493.72	411.93
493.90	402.57
494.08	423.64
494.25	440.02
494.43	440.02
494.61	437.68
494.79	479.81
494.96	397.89
495.14	407.25
495.32	404.91
495.49	458.74
495.67	360.44
495.85	421.30
496.02	414.27
496.20	440.02
496.38	395.55
496.55	407.25
496.73	435.34
496.91	437.68
497.09	449.38
497.26	404.91
497.44	416.62
497.62	386.19
497.79	409.59
497.97	442.36
498.14	411.93
498.32	404.91
498.50	360.44
498.67	367.46
498.85	365.12
499.03	376.83
499.20	339.38
499.38	397.89
499.56	454.06
499.73	500.87
499.91	496.19
500.08	423.64
500.26	407.25
500.44	493.85
500.61	421.30
500.79	411.93
500.97	507.90
501.14	416.62
501.32	449.38
501.49	482.15
501.67	397.89
501.84	358.10
502.02	383.85
502.20	423.64
502.37	351.08
502.55	416.62
502.72	388.53
502.90	374.49
503.07	379.17
503.25	383.85
503.43	454.06
503.60	409.59
503.78	407.25
503.95	395.55
504.13	376.83
504.30	479.81
504.48	339.38
504.65	465.77
504.83	451.72
505.01	353.42
505.18	456.40
505.36	440.02
505.53	428.32
505.71	440.02
505.88	447.04
506.06	428.32
506.23	386.19
506.41	433.00
506.58	393.21
506.76	388.53
506.93	414.27
507.11	442.36
507.28	393.21
507.46	376.83
507.63	479.81
507.81	388.53
507.98	461.09
508.16	465.77
508.33	421.30
508.50	393.21
508.68	496.19
508.85	409.59
509.03	372.15
509.20	425.98
509.38	442.36
509.55	454.06
509.73	381.51
509.90	451.72
510.08	416.62
510.25	447.04
510.42	374.49
510.60	313.63
510.77	386.19
510.95	437.68
511.12	409.59
511.30	442.36
511.47	442.36
511.64	425.98
511.82	409.59
511.99	454.06
512.17	470.45
512.34	447.04
512.51	397.89
512.69	400.23
512.86	355.76
513.04	416.62
513.21	402.57
513.38	433.00
513.56	388.53
513.73	369.80
513.90	416.62
514.08	407.25
514.25	418.96
514.43	348.74
514.60	388.53
514.77	461.09
514.95	437.68
515.12	425.98
515.29	386.19
515.47	456.40
515.64	430.66
515.81	468.11
515.99	433.00
516.16	386.19
516.33	428.32
516.51	449.38
516.68	362.78
516.85	411.93
517.03	449.38
517.20	482.15
517.37	344.06
517.54	428.32
517.72	402.57
517.89	390.87
518.06	458.74
518.24	447.04
518.41	440.02
518.58	386.19
518.75	397.89
518.93	479.81
519.10	423.64
519.27	383.85
519.45	395.55
519.62	388.53
519.79	388.53
519.96	442.36
520.14	379.17
520.31	458.74
520.48	332.36
520.65	404.91
520.83	381.51
521.00	449.38
521.17	433.00
521.34	404.91
521.52	386.19
521.69	367.46
521.86	437.68
522.03	414.27
522.20	444.70
522.38	397.89
522.55	390.87
522.72	402.57
522.89	416.62
523.07	400.23
523.24	421.30
523.41	407.25
523.58	472.79
523.75	365.12
523.92	362.78
524.10	388.53
524.27	362.78
524.44	416.62
524.61	433.00
524.78	447.04
524.96	479.81
525.13	360.44
525.30	409.59
525.47	428.32
525.64	400.23
525.81	372.15
525.98	376.83
526.16	395.55
526.33	451.72
526.50	341.72
526.67	358.10
526.84	414.27
527.01	386.19
527.18	437.68
527.36	414.27
527.53	423.64
527.70	404.91
527.87	449.38
528.04	493.85
528.21	447.04
528.38	402.57
528.55	444.70
528.72	456.40
528.89	407.25
529.07	358.10
529.24	447.04
529.41	524.28
529.58	433.00
529.75	374.49
529.92	395.55
530.09	365.12
530.26	447.04
530.43	435.34
530.60	348.74
530.77	402.57
530.94	425.98
531.11	447.04
531.28	456.40
531.46	388.53
531.63	447.04
531.80	465.77
531.97	507.90
532.14	355.76
532.31	362.78
532.48	440.02
532.65	360.44
532.82	444.70
532.99	444.70
533.16	381.51
533.33	407.25
533.50	409.59
533.67	383.85
533.84	414.27
534.01	362.78
534.18	407.25
534.35	465.77
534.52	416.62
534.69	355.76
534.86	346.40
535.03	407.25
535.20	421.30
535.37	423.64
535.54	440.02
535.71	390.87
535.88	430.66
536.05	451.72
536.22	461.09
536.38	470.45
536.55	407.25
536.72	409.59
536.89	421.30
537.06	421.30
537.23	428.32
537.40	454.06
537.57	348.74
537.74	477.47
537.91	404.91
538.08	463.43
538.25	416.62
538.42	360.44
538.59	348.74
538.75	442.36
538.92	435.34
539.09	437.68
539.26	416.62
539.43	416.62
539.60	444.70
539.77	447.04
539.94	512.58
540.11	442.36
540.28	449.38
540.44	465.77
540.61	435.34
540.78	393.21
540.95	416.62
541.12	465.77
541.29	437.68
541.46	475.13
541.62	475.13
541.79	416.62
541.96	447.04
542.13	442.36
542.30	437.68
542.47	437.68
542.63	393.21
542.80	376.83
542.97	449.38
543.14	416.62
543.31	489.17
543.48	472.79
543.64	414.27
543.81	458.74
543.98	442.36
544.15	351.08
544.32	442.36
544.48	416.62
544.65	374.49
544.82	381.51
544.99	395.55
545.16	435.34
545.32	423.64
545.49	531.30
545.66	484.49
545.83	416.62
546.00	418.96
546.16	433.00
546.33	423.64
546.50	454.06
546.67	444.70
546.83	390.87
547.00	390.87
547.17	365.12
547.34	458.74
547.50	308.95
547.67	386.19
547.84	379.17
548.00	304.27
548.17	470.45
548.34	428.32
548.51	435.34
548.67	425.98
548.84	430.66
549.01	444.70
549.18	484.49
549.34	449.38
549.51	468.11
549.68	421.30
549.84	421.30
550.01	447.04
550.18	440.02
550.34	400.23
550.51	404.91
550.68	449.38
550.84	404.91
551.01	484.49
551.18	383.85
551.34	409.59
551.51	510.24
551.68	425.98
551.84	449.38
552.01	393.21
552.18	376.83
552.34	442.36
552.51	376.83
552.68	358.10
552.84	390.87
553.01	425.98
553.18	454.06
553.34	416.62
553.51	367.46
553.67	397.89
553.84	421.30
554.01	423.64
554.17	400.23
554.34	475.13
554.51	416.62
554.67	395.55
554.84	468.11
555.00	411.93
555.17	437.68
555.33	421.30
555.50	414.27
555.67	456.40
555.83	400.23
556.00	421.30
556.16	496.19
556.33	353.42
556.50	449.38
556.66	479.81
556.83	428.32
556.99	402.57
557.16	407.25
557.32	376.83
557.49	386.19
557.65	407.25
557.82	374.49
557.98	454.06
558.15	421.30
558.32	425.98
558.48	369.80
558.65	528.96
558.81	458.74
558.98	425.98
559.14	472.79
559.31	393.21
559.47	388.53
559.64	379.17
559.80	416.62
559.97	411.93
560.13	409.59
560.30	409.59
560.46	372.15
560.63	365.12
560.79	418.96
560.96	407.25
561.12	468.11
561.29	381.51
561.45	379.17
561.61	407.25
561.78	479.81
561.94	397.89
562.11	409.59
562.27	437.68
562.44	383.85
562.60	477.47
562.77	442.36
562.93	521.94
563.10	507.90
563.26	451.72
563.42	381.51
563.59	447.04
563.75	386.19
563.92	425.98
564.08	437.68
564.24	407.25
564.41	440.02
564.57	433.00
564.74	400.23
564.90	531.30
565.07	491.51
565.23	386.19
565.39	407.25
565.56	425.98
565.72	337.04
565.88	414.27
566.05	411.93
566.21	421.30
566.38	430.66
566.54	437.68
566.70	414.27
566.87	348.74
567.03	383.85
567.19	416.62
567.36	456.40
567.52	409.59
567.68	418.96
567.85	470.45
568.01	369.80
568.17	430.66
568.34	425.98
568.50	381.51
568.66	372.15
568.83	451.72
568.99	411.93
569.15	425.98
569.32	484.49
569.48	449.38
569.64	395.55
569.81	465.77
569.97	379.17
570.13	430.66
570.30	365.12
570.46	442.36
570.62	433.00
570.78	430.66
570.95	414.27
571.11	472.79
571.27	440.02
571.43	402.57
571.60	395.55
571.76	376.83
571.92	386.19
572.09	402.57
572.25	451.72
572.41	381.51
572.57	376.83
572.74	407.25
572.90	444.70
573.06	367.46
573.22	400.23
573.38	430.66
573.55	367.46
573.71	414.27
573.87	418.96
574.03	397.89
574.20	372.15
574.36	496.19
574.52	416.62
574.68	351.08
574.84	409.59
575.01	414.27
575.17	449.38
575.33	447.04
575.49	383.85
575.65	461.09
575.82	442.36
575.98	475.13
576.14	458.74
576.30	409.59
576.46	388.53
576.62	402.57
576.79	362.78
576.95	416.62
577.11	409.59
577.27	304.27
577.43	433.00
577.59	454.06
577.75	411.93
577.92	409.59
578.08	372.15
578.24	428.32
578.40	437.68
578.56	402.57
578.72	435.34
578.88	435.34
579.04	397.89
579.21	458.74
579.37	416.62
579.53	367.46
579.69	447.04
579.85	416.62
580.01	437.68
580.17	388.53
580.33	442.36
580.49	435.34
580.65	395.55
580.82	351.08
580.98	440.02
581.14	395.55
581.30	383.85
581.46	381.51
581.62	400.23
581.78	433.00
581.94	411.93
582.10	442.36
582.26	447.04
582.42	479.81
582.58	416.62
582.74	416.62
582.90	393.21
583.06	472.79
583.22	423.64
583.38	435.34
583.54	383.85
583.70	393.21
583.86	330.02
584.02	376.83
584.18	477.47
584.34	341.72
584.50	477.47
584.66	379.17
584.82	421.30
584.98	416.62
585.14	411.93
585.30	465.77
585.46	404.91
585.62	409.59
585.78	411.93
585.94	393.21
586.10	381.51
586.26	442.36
586.42	402.57
586.58	353.42
586.74	404.91
586.90	430.66
587.06	423.64
587.22	400.23
587.38	388.53
587.54	421.30
587.70	409.59
587.86	367.46
588.02	395.55
588.18	404.91
588.34	369.80
588.49	402.57
588.65	402.57
588.81	337.04
588.97	407.25
589.13	475.13
589.29	435.34
589.45	461.09
589.61	376.83
589.77	425.98
589.93	418.96
590.08	395.55
590.24	421.30
590.40	337.04
590.56	463.43
590.72	444.70
590.88	428.32
591.04	404.91
591.20	367.46
591.35	442.36
591.51	435.34
591.67	346.40
591.83	383.85
591.99	435.34
592.15	428.32
592.31	428.32
592.46	442.36
592.62	477.47
592.78	383.85
592.94	477.47
593.10	482.15
593.26	421.30
593.41	402.57
593.57	418.96
593.73	458.74
593.89	407.25
594.05	407.25
594.20	360.44
594.36	362.78
594.52	404.91
594.68	348.74
594.84	425.98
594.99	475.13
595.15	383.85
595.31	416.62
595.47	428.32
595.62	358.10
595.78	379.17
595.94	423.64
596.10	416.62
596.25	470.45
596.41	400.23
596.57	351.08
596.73	390.87
596.88	418.96
597.04	374.49
597.20	381.51
597.36	358.10
597.51	372.15
597.67	454.06
597.83	440.02
597.99	454.06
598.14	440.02
598.30	440.02
598.46	423.64
598.61	440.02
598.77	411.93
598.93	416.62
599.09	493.85
599.24	393.21
599.40	498.53
599.56	423.64
599.71	430.66
599.87	458.74
600.03	397.89
600.18	407.25
600.34	397.89
600.50	407.25
600.65	369.80
600.81	482.15
600.97	388.53
601.12	369.80
601.28	421.30
601.44	421.30
601.59	327.68
601.75	423.64
601.91	437.68
602.06	379.17
602.22	407.25
602.37	407.25
602.53	444.70
602.69	330.02
602.84	353.42
603.00	463.43
603.16	425.98
603.31	372.15
603.47	414.27
603.62	374.49
603.78	423.64
603.94	444.70
604.09	379.17
604.25	418.96
604.40	418.96
604.56	353.42
604.71	470.45
604.87	433.00
605.03	437.68
605.18	442.36
605.34	456.40
605.49	472.79
605.65	341.72
605.80	383.85
605.96	496.19
606.12	425.98
606.27	435.34
606.43	421.30
606.58	489.17
606.74	411.93
606.89	393.21
607.05	421.30
607.20	332.36
607.36	447.04
607.51	411.93
607.67	477.47
607.82	433.00
607.98	470.45
608.13	390.87
608.29	348.74
608.44	418.96
608.60	433.00
608.75	456.40
608.91	463.43
609.06	475.13
609.22	362.78
609.37	472.79
609.53	365.12
609.68	440.02
609.84	465.77
609.99	418.96
610.15	383.85
