SpectraSuite Data File
++++++++++++++++++++++++++++++++++++
Date: Fri Oct 25 12:11:39 EDT 2013
User: price-jones
Dark Spectrum Present: No
Reference Spectrum Present: No
Number of Sampled Component Spectra: 1
Spectrometers: USB2+H05261
Integration Time (usec): 100000 (USB2+H05261)
Spectra Averaged: 1 (USB2+H05261)
Boxcar Smoothing: 0 (USB2+H05261)
Correct for Electrical Dark: No (USB2+H05261)
Strobe/Lamp Enabled: No (USB2+H05261)
Correct for Detector Non-linearity: No (USB2+H05261)
Correct for Stray Light: No (USB2+H05261)
Number of Pixels in Processed Spectrum: 2048
>>>>>Begin Processed Spectral Data<<<<<
365.73	390.87
365.92	390.87
366.12	390.87
366.32	250.44
366.52	229.37
366.72	315.97
366.91	236.39
367.11	234.05
367.31	182.56
367.51	224.69
367.70	215.33
367.90	245.76
368.10	205.97
368.30	220.01
368.49	217.67
368.69	238.73
368.89	187.24
369.09	212.99
369.28	266.82
369.48	285.55
369.68	234.05
369.87	297.25
370.07	283.20
370.27	245.76
370.47	313.63
370.66	313.63
370.86	372.15
371.06	435.34
371.25	414.27
371.45	390.87
371.65	395.55
371.84	346.40
372.04	334.70
372.24	369.80
372.44	351.08
372.63	400.23
372.83	395.55
373.03	435.34
373.22	379.17
373.42	381.51
373.62	444.70
373.81	402.57
374.01	531.30
374.21	400.23
374.40	393.21
374.60	496.19
374.79	461.09
374.99	421.30
375.19	425.98
375.38	402.57
375.58	386.19
375.78	456.40
375.97	447.04
376.17	404.91
376.37	437.68
376.56	355.76
376.76	400.23
376.95	421.30
377.15	416.62
377.35	440.02
377.54	447.04
377.74	348.74
377.93	362.78
378.13	327.68
378.33	435.34
378.52	444.70
378.72	442.36
378.91	374.49
379.11	418.96
379.31	461.09
379.50	374.49
379.70	414.27
379.89	482.15
380.09	414.27
380.28	491.51
380.48	348.74
380.68	456.40
380.87	337.04
381.07	393.21
381.26	472.79
381.46	430.66
381.65	395.55
381.85	423.64
382.04	395.55
382.24	447.04
382.43	411.93
382.63	353.42
382.83	332.36
383.02	428.32
383.22	503.22
383.41	353.42
383.61	355.76
383.80	397.89
384.00	414.27
384.19	411.93
384.39	372.15
384.58	360.44
384.78	386.19
384.97	379.17
385.17	433.00
385.36	414.27
385.56	414.27
385.75	433.00
385.95	376.83
386.14	404.91
386.34	397.89
386.53	433.00
386.72	423.64
386.92	395.55
387.11	367.46
387.31	402.57
387.50	372.15
387.70	365.12
387.89	475.13
388.09	341.72
388.28	409.59
388.48	416.62
388.67	472.79
388.86	393.21
389.06	416.62
389.25	489.17
389.45	421.30
389.64	428.32
389.84	433.00
390.03	404.91
390.22	376.83
390.42	411.93
390.61	402.57
390.81	402.57
391.00	383.85
391.19	421.30
391.39	369.80
391.58	395.55
391.78	411.93
391.97	360.44
392.16	266.82
392.36	421.30
392.55	421.30
392.75	404.91
392.94	376.83
393.13	388.53
393.33	390.87
393.52	369.80
393.71	400.23
393.91	433.00
394.10	447.04
394.29	381.51
394.49	407.25
394.68	416.62
394.88	374.49
395.07	498.53
395.26	381.51
395.46	376.83
395.65	418.96
395.84	374.49
396.04	493.85
396.23	402.57
396.42	400.23
396.62	418.96
396.81	383.85
397.00	428.32
397.19	374.49
397.39	442.36
397.58	409.59
397.77	388.53
397.97	416.62
398.16	409.59
398.35	390.87
398.55	395.55
398.74	496.19
398.93	393.21
399.12	374.49
399.32	456.40
399.51	369.80
399.70	390.87
399.90	393.21
400.09	367.46
400.28	428.32
400.47	362.78
400.67	393.21
400.86	374.49
401.05	425.98
401.24	451.72
401.44	440.02
401.63	402.57
401.82	421.30
402.01	358.10
402.21	442.36
402.40	423.64
402.59	393.21
402.78	383.85
402.97	433.00
403.17	395.55
403.36	409.59
403.55	477.47
403.74	332.36
403.93	400.23
404.13	444.70
404.32	423.64
404.51	418.96
404.70	437.68
404.89	383.85
405.09	411.93
405.28	346.40
405.47	411.93
405.66	456.40
405.85	411.93
406.05	374.49
406.24	411.93
406.43	400.23
406.62	374.49
406.81	374.49
407.00	404.91
407.20	353.42
407.39	369.80
407.58	444.70
407.77	411.93
407.96	435.34
408.15	475.13
408.34	397.89
408.54	454.06
408.73	411.93
408.92	393.21
409.11	456.40
409.30	456.40
409.49	404.91
409.68	425.98
409.87	339.38
410.07	463.43
410.26	395.55
410.45	407.25
410.64	372.15
410.83	451.72
411.02	353.42
411.21	386.19
411.40	414.27
411.59	390.87
411.78	484.49
411.98	451.72
412.17	484.49
412.36	425.98
412.55	388.53
412.74	379.17
412.93	468.11
413.12	447.04
413.31	407.25
413.50	395.55
413.69	367.46
413.88	468.11
414.07	444.70
414.26	404.91
414.45	334.70
414.64	393.21
414.83	372.15
415.02	353.42
415.22	454.06
415.41	461.09
415.60	409.59
415.79	475.13
415.98	416.62
416.17	477.47
416.36	428.32
416.55	465.77
416.74	411.93
416.93	463.43
417.12	365.12
417.31	367.46
417.50	482.15
417.69	468.11
417.88	383.85
418.07	437.68
418.26	416.62
418.45	416.62
418.64	437.68
418.83	416.62
419.02	418.96
419.21	402.57
419.39	353.42
419.58	458.74
419.77	416.62
419.96	418.96
420.15	472.79
420.34	402.57
420.53	367.46
420.72	362.78
420.91	397.89
421.10	393.21
421.29	444.70
421.48	447.04
421.67	482.15
421.86	379.17
422.05	440.02
422.24	397.89
422.43	475.13
422.61	477.47
422.80	418.96
422.99	369.80
423.18	397.89
423.37	442.36
423.56	390.87
423.75	372.15
423.94	346.40
424.13	332.36
424.32	383.85
424.50	416.62
424.69	425.98
424.88	411.93
425.07	442.36
425.26	461.09
425.45	372.15
425.64	451.72
425.83	414.27
426.01	451.72
426.20	425.98
426.39	404.91
426.58	383.85
426.77	409.59
426.96	400.23
427.15	447.04
427.33	449.38
427.52	442.36
427.71	449.38
427.90	435.34
428.09	395.55
428.28	395.55
428.46	360.44
428.65	437.68
428.84	437.68
429.03	421.30
429.22	435.34
429.40	411.93
429.59	435.34
429.78	407.25
429.97	512.58
430.16	369.80
430.34	428.32
430.53	367.46
430.72	313.63
430.91	440.02
431.10	440.02
431.28	411.93
431.47	433.00
431.66	409.59
431.85	400.23
432.03	489.17
432.22	491.51
432.41	421.30
432.60	461.09
432.79	421.30
432.97	390.87
433.16	383.85
433.35	390.87
433.54	463.43
433.72	458.74
433.91	418.96
434.10	421.30
434.28	386.19
434.47	440.02
434.66	418.96
434.85	440.02
435.03	409.59
435.22	358.10
435.41	409.59
435.59	428.32
435.78	437.68
435.97	425.98
436.16	479.81
436.34	435.34
436.53	470.45
436.72	404.91
436.90	381.51
437.09	402.57
437.28	353.42
437.46	428.32
437.65	372.15
437.84	369.80
438.02	414.27
438.21	498.53
438.40	407.25
438.58	437.68
438.77	351.08
438.96	430.66
439.14	374.49
439.33	470.45
439.52	521.94
439.70	362.78
439.89	393.21
440.08	423.64
440.26	390.87
440.45	407.25
440.63	435.34
440.82	339.38
441.01	411.93
441.19	334.70
441.38	425.98
441.57	444.70
441.75	456.40
441.94	407.25
442.12	383.85
442.31	440.02
442.50	400.23
442.68	421.30
442.87	390.87
443.05	376.83
443.24	430.66
443.43	386.19
443.61	332.36
443.80	360.44
443.98	435.34
444.17	395.55
444.35	418.96
444.54	475.13
444.73	374.49
444.91	496.19
445.10	409.59
445.28	444.70
445.47	456.40
445.65	418.96
445.84	390.87
446.02	430.66
446.21	325.33
446.39	444.70
446.58	449.38
446.77	400.23
446.95	383.85
447.14	421.30
447.32	421.30
447.51	404.91
447.69	369.80
447.88	442.36
448.06	444.70
448.25	465.77
448.43	379.17
448.62	388.53
448.80	383.85
448.99	397.89
449.17	451.72
449.36	447.04
449.54	456.40
449.73	400.23
449.91	447.04
450.10	423.64
450.28	414.27
450.46	468.11
450.65	423.64
450.83	388.53
451.02	414.27
451.20	414.27
451.39	390.87
451.57	421.30
451.76	440.02
451.94	397.89
452.13	411.93
452.31	444.70
452.49	411.93
452.68	411.93
452.86	493.85
453.05	463.43
453.23	423.64
453.42	458.74
453.60	479.81
453.78	360.44
453.97	388.53
454.15	425.98
454.34	416.62
454.52	428.32
454.70	397.89
454.89	411.93
455.07	437.68
455.26	414.27
455.44	428.32
455.62	454.06
455.81	400.23
455.99	430.66
456.17	435.34
456.36	365.12
456.54	313.63
456.73	433.00
456.91	465.77
457.09	482.15
457.28	407.25
457.46	440.02
457.64	374.49
457.83	421.30
458.01	381.51
458.19	379.17
458.38	535.98
458.56	451.72
458.74	414.27
458.93	421.30
459.11	407.25
459.29	297.25
459.48	465.77
459.66	479.81
459.84	470.45
460.03	447.04
460.21	407.25
460.39	395.55
460.57	463.43
460.76	379.17
460.94	425.98
461.12	449.38
461.31	470.45
461.49	451.72
461.67	407.25
461.85	472.79
462.04	454.06
462.22	786.42
462.40	365.12
462.59	484.49
462.77	414.27
462.95	379.17
463.13	381.51
463.32	437.68
463.50	409.59
463.68	402.57
463.86	383.85
464.05	404.91
464.23	388.53
464.41	430.66
464.59	339.38
464.78	388.53
464.96	409.59
465.14	332.36
465.32	409.59
465.50	496.19
465.69	442.36
465.87	397.89
466.05	388.53
466.23	425.98
466.41	451.72
466.60	430.66
466.78	454.06
466.96	444.70
467.14	421.30
467.32	517.26
467.51	437.68
467.69	468.11
467.87	372.15
468.05	423.64
468.23	451.72
468.41	428.32
468.60	433.00
468.78	395.55
468.96	428.32
469.14	416.62
469.32	449.38
469.50	433.00
469.69	337.04
469.87	411.93
470.05	435.34
470.23	444.70
470.41	437.68
470.59	498.53
470.77	334.70
470.95	381.51
471.14	463.43
471.32	390.87
471.50	418.96
471.68	416.62
471.86	381.51
472.04	402.57
472.22	470.45
472.40	425.98
472.58	416.62
472.77	463.43
472.95	475.13
473.13	411.93
473.31	428.32
473.49	442.36
473.67	411.93
473.85	418.96
474.03	468.11
474.21	423.64
474.39	435.34
474.57	418.96
474.75	428.32
474.93	468.11
475.12	365.12
475.30	400.23
475.48	463.43
475.66	402.57
475.84	458.74
476.02	409.59
476.20	451.72
476.38	418.96
476.56	479.81
476.74	484.49
476.92	433.00
477.10	400.23
477.28	437.68
477.46	402.57
477.64	428.32
477.82	404.91
478.00	484.49
478.18	418.96
478.36	407.25
478.54	402.57
478.72	447.04
478.90	365.12
479.08	463.43
479.26	463.43
479.44	404.91
479.62	421.30
479.80	421.30
479.98	428.32
480.16	360.44
480.34	411.93
480.52	367.46
480.70	451.72
480.88	400.23
481.06	339.38
481.24	367.46
481.41	456.40
481.59	402.57
481.77	376.83
481.95	411.93
482.13	468.11
482.31	402.57
482.49	379.17
482.67	435.34
482.85	512.58
483.03	449.38
483.21	423.64
483.39	395.55
483.57	374.49
483.74	470.45
483.92	463.43
484.10	423.64
484.28	449.38
484.46	421.30
484.64	421.30
484.82	402.57
485.00	414.27
485.18	416.62
485.35	477.47
485.53	348.74
485.71	437.68
485.89	435.34
486.07	505.56
486.25	365.12
486.43	414.27
486.61	440.02
486.78	344.06
486.96	468.11
487.14	400.23
487.32	437.68
487.50	418.96
487.68	428.32
487.85	383.85
488.03	447.04
488.21	489.17
488.39	386.19
488.57	421.30
488.75	325.33
488.92	484.49
489.10	428.32
489.28	470.45
489.46	395.55
489.64	407.25
489.81	440.02
489.99	381.51
490.17	341.72
490.35	500.87
490.53	411.93
490.70	416.62
490.88	416.62
491.06	397.89
491.24	421.30
491.41	418.96
491.59	411.93
491.77	409.59
491.95	416.62
492.13	435.34
492.30	393.21
492.48	407.25
492.66	430.66
492.84	435.34
493.01	418.96
493.19	414.27
493.37	416.62
493.54	430.66
493.72	353.42
493.90	440.02
494.08	418.96
494.25	402.57
494.43	442.36
494.61	430.66
494.79	437.68
494.96	414.27
495.14	435.34
495.32	437.68
495.49	454.06
495.67	458.74
495.85	435.34
496.02	341.72
496.20	376.83
496.38	442.36
496.55	395.55
496.73	440.02
496.91	442.36
497.09	418.96
497.26	404.91
497.44	442.36
497.62	360.44
497.79	358.10
497.97	444.70
498.14	447.04
498.32	423.64
498.50	409.59
498.67	397.89
498.85	383.85
499.03	358.10
499.20	418.96
499.38	402.57
499.56	367.46
499.73	491.51
499.91	409.59
500.08	500.87
500.26	376.83
500.44	414.27
500.61	437.68
500.79	428.32
500.97	379.17
501.14	418.96
501.32	388.53
501.49	430.66
501.67	372.15
501.84	407.25
502.02	395.55
502.20	418.96
502.37	449.38
502.55	433.00
502.72	400.23
502.90	433.00
503.07	472.79
503.25	451.72
503.43	390.87
503.60	428.32
503.78	428.32
503.95	545.34
504.13	414.27
504.30	475.13
504.48	367.46
504.65	397.89
504.83	472.79
505.01	444.70
505.18	341.72
505.36	463.43
505.53	376.83
505.71	407.25
505.88	402.57
506.06	421.30
506.23	435.34
506.41	404.91
506.58	430.66
506.76	397.89
506.93	334.70
507.11	334.70
507.28	381.51
507.46	339.38
507.63	454.06
507.81	411.93
507.98	428.32
508.16	383.85
508.33	407.25
508.50	444.70
508.68	395.55
508.85	285.55
509.03	402.57
509.20	437.68
509.38	416.62
509.55	479.81
509.73	390.87
509.90	454.06
510.08	344.06
510.25	374.49
510.42	414.27
510.60	393.21
510.77	379.17
510.95	447.04
511.12	367.46
511.30	447.04
511.47	430.66
511.64	433.00
511.82	411.93
511.99	393.21
512.17	337.04
512.34	381.51
512.51	344.06
512.69	395.55
512.86	437.68
513.04	397.89
513.21	435.34
513.38	421.30
513.56	381.51
513.73	437.68
513.90	449.38
514.08	386.19
514.25	360.44
514.43	428.32
514.60	374.49
514.77	428.32
514.95	447.04
515.12	390.87
515.29	454.06
515.47	395.55
515.64	465.77
515.81	397.89
515.99	425.98
516.16	442.36
516.33	402.57
516.51	451.72
516.68	468.11
516.85	414.27
517.03	395.55
517.20	433.00
517.37	425.98
517.54	552.37
517.72	447.04
517.89	416.62
518.06	409.59
518.24	416.62
518.41	465.77
518.58	404.91
518.75	381.51
518.93	388.53
519.10	428.32
519.27	421.30
519.45	428.32
519.62	482.15
519.79	430.66
519.96	381.51
520.14	437.68
520.31	418.96
520.48	437.68
520.65	369.80
520.83	397.89
521.00	407.25
521.17	393.21
521.34	409.59
521.52	407.25
521.69	402.57
521.86	449.38
522.03	395.55
522.20	421.30
522.38	461.09
522.55	409.59
522.72	444.70
522.89	421.30
523.07	482.15
523.24	510.24
523.41	435.34
523.58	425.98
523.75	362.78
523.92	409.59
524.10	386.19
524.27	386.19
524.44	351.08
524.61	463.43
524.78	423.64
524.96	299.59
525.13	388.53
525.30	465.77
525.47	362.78
525.64	367.46
525.81	411.93
525.98	397.89
526.16	402.57
526.33	423.64
526.50	411.93
526.67	447.04
526.84	411.93
527.01	395.55
527.18	404.91
527.36	404.91
527.53	367.46
527.70	421.30
527.87	400.23
528.04	435.34
528.21	397.89
528.38	414.27
528.55	442.36
528.72	486.83
528.89	421.30
529.07	411.93
529.24	383.85
529.41	468.11
529.58	369.80
529.75	472.79
529.92	386.19
530.09	447.04
530.26	421.30
530.43	383.85
530.60	440.02
530.77	402.57
530.94	404.91
531.11	423.64
531.28	451.72
531.46	404.91
531.63	444.70
531.80	397.89
531.97	433.00
532.14	465.77
532.31	440.02
532.48	421.30
532.65	421.30
532.82	367.46
532.99	386.19
533.16	400.23
533.33	395.55
533.50	409.59
533.67	440.02
533.84	402.57
534.01	437.68
534.18	411.93
534.35	414.27
534.52	383.85
534.69	393.21
534.86	482.15
535.03	458.74
535.20	404.91
535.37	362.78
535.54	470.45
535.71	442.36
535.88	430.66
536.05	341.72
536.22	381.51
536.38	411.93
536.55	423.64
536.72	498.53
536.89	465.77
537.06	386.19
537.23	465.77
537.40	423.64
537.57	367.46
537.74	442.36
537.91	437.68
538.08	362.78
538.25	468.11
538.42	440.02
538.59	425.98
538.75	461.09
538.92	423.64
539.09	479.81
539.26	442.36
539.43	402.57
539.60	423.64
539.77	386.19
539.94	430.66
540.11	423.64
540.28	442.36
540.44	528.96
540.61	449.38
540.78	390.87
540.95	468.11
541.12	477.47
541.29	451.72
541.46	395.55
541.62	362.78
541.79	404.91
541.96	402.57
542.13	421.30
542.30	376.83
542.47	381.51
542.63	402.57
542.80	449.38
542.97	437.68
543.14	425.98
543.31	458.74
543.48	421.30
543.64	472.79
543.81	430.66
543.98	435.34
544.15	393.21
544.32	404.91
544.48	362.78
544.65	386.19
544.82	477.47
544.99	454.06
545.16	442.36
545.32	416.62
545.49	383.85
545.66	440.02
545.83	397.89
546.00	428.32
546.16	456.40
546.33	437.68
546.50	496.19
546.67	414.27
546.83	400.23
547.00	404.91
547.17	372.15
547.34	416.62
547.50	402.57
547.67	416.62
547.84	376.83
548.00	456.40
548.17	451.72
548.34	407.25
548.51	482.15
548.67	411.93
548.84	397.89
549.01	472.79
549.18	449.38
549.34	390.87
549.51	503.22
549.68	489.17
549.84	381.51
550.01	402.57
550.18	475.13
550.34	477.47
550.51	402.57
550.68	482.15
550.84	362.78
551.01	423.64
551.18	404.91
551.34	458.74
551.51	425.98
551.68	395.55
551.84	442.36
552.01	393.21
552.18	484.49
552.34	458.74
552.51	454.06
552.68	425.98
552.84	433.00
553.01	404.91
553.18	507.90
553.34	383.85
553.51	381.51
553.67	421.30
553.84	507.90
554.01	404.91
554.17	386.19
554.34	344.06
554.51	477.47
554.67	444.70
554.84	507.90
555.00	433.00
555.17	362.78
555.33	477.47
555.50	388.53
555.67	395.55
555.83	388.53
556.00	425.98
556.16	566.41
556.33	411.93
556.50	369.80
556.66	414.27
556.83	407.25
556.99	390.87
557.16	447.04
557.32	416.62
557.49	461.09
557.65	414.27
557.82	447.04
557.98	447.04
558.15	447.04
558.32	458.74
558.48	449.38
558.65	472.79
558.81	440.02
558.98	425.98
559.14	449.38
559.31	447.04
559.47	433.00
559.64	414.27
559.80	475.13
559.97	423.64
560.13	440.02
560.30	383.85
560.46	433.00
560.63	421.30
560.79	376.83
560.96	407.25
561.12	477.47
561.29	493.85
561.45	449.38
561.61	423.64
561.78	484.49
561.94	421.30
562.11	393.21
562.27	407.25
562.44	355.76
562.60	456.40
562.77	458.74
562.93	486.83
563.10	465.77
563.26	524.28
563.42	461.09
563.59	458.74
563.75	444.70
563.92	470.45
564.08	475.13
564.24	486.83
564.41	465.77
564.57	304.27
564.74	416.62
564.90	449.38
565.07	418.96
565.23	437.68
565.39	458.74
565.56	381.51
565.72	433.00
565.88	358.10
566.05	409.59
566.21	409.59
566.38	388.53
566.54	346.40
566.70	390.87
566.87	390.87
567.03	421.30
567.19	433.00
567.36	416.62
567.52	489.17
567.68	477.47
567.85	514.92
568.01	407.25
568.17	383.85
568.34	442.36
568.50	433.00
568.66	379.17
568.83	437.68
568.99	374.49
569.15	477.47
569.32	440.02
569.48	404.91
569.64	388.53
569.81	411.93
569.97	421.30
570.13	409.59
570.30	393.21
570.46	330.02
570.62	416.62
570.78	468.11
570.95	423.64
571.11	444.70
571.27	414.27
571.43	369.80
571.60	470.45
571.76	404.91
571.92	409.59
572.09	404.91
572.25	503.22
572.41	390.87
572.57	390.87
572.74	500.87
572.90	503.22
573.06	463.43
573.22	421.30
573.38	498.53
573.55	411.93
573.71	395.55
573.87	486.83
574.03	428.32
574.20	423.64
574.36	442.36
574.52	456.40
574.68	414.27
574.84	451.72
575.01	400.23
575.17	437.68
575.33	386.19
575.49	435.34
575.65	411.93
575.82	409.59
575.98	402.57
576.14	400.23
576.30	416.62
576.46	437.68
576.62	433.00
576.79	416.62
576.95	386.19
577.11	484.49
577.27	418.96
577.43	393.21
577.59	447.04
577.75	404.91
577.92	440.02
578.08	411.93
578.24	449.38
578.40	433.00
578.56	421.30
578.72	442.36
578.88	425.98
579.04	374.49
579.21	465.77
579.37	437.68
579.53	390.87
579.69	486.83
579.85	425.98
580.01	395.55
580.17	425.98
580.33	456.40
580.49	346.40
580.65	423.64
580.82	456.40
580.98	414.27
581.14	341.72
581.30	479.81
581.46	418.96
581.62	395.55
581.78	414.27
581.94	376.83
582.10	472.79
582.26	372.15
582.42	430.66
582.58	409.59
582.74	388.53
582.90	428.32
583.06	372.15
583.22	454.06
583.38	383.85
583.54	416.62
583.70	404.91
583.86	505.56
584.02	472.79
584.18	484.49
584.34	425.98
584.50	421.30
584.66	400.23
584.82	425.98
584.98	423.64
585.14	339.38
585.30	477.47
585.46	423.64
585.62	442.36
585.78	409.59
585.94	304.27
586.10	491.51
586.26	470.45
586.42	379.17
586.58	470.45
586.74	421.30
586.90	393.21
587.06	397.89
587.22	381.51
587.38	451.72
587.54	386.19
587.70	425.98
587.86	411.93
588.02	400.23
588.18	400.23
588.34	418.96
588.49	437.68
588.65	351.08
588.81	360.44
588.97	388.53
589.13	397.89
589.29	411.93
589.45	393.21
589.61	416.62
589.77	423.64
589.93	423.64
590.08	428.32
590.24	395.55
590.40	374.49
590.56	433.00
590.72	468.11
590.88	458.74
591.04	402.57
591.20	416.62
591.35	407.25
591.51	409.59
591.67	400.23
591.83	416.62
591.99	451.72
592.15	484.49
592.31	404.91
592.46	416.62
592.62	430.66
592.78	360.44
592.94	484.49
593.10	449.38
593.26	411.93
593.41	402.57
593.57	447.04
593.73	395.55
593.89	423.64
594.05	414.27
594.20	327.68
594.36	379.17
594.52	416.62
594.68	374.49
594.84	449.38
594.99	451.72
595.15	433.00
595.31	468.11
595.47	472.79
595.62	358.10
595.78	397.89
595.94	404.91
596.10	456.40
596.25	421.30
596.41	454.06
596.57	430.66
596.73	313.63
596.88	482.15
597.04	411.93
597.20	337.04
597.36	416.62
597.51	486.83
597.67	440.02
597.83	423.64
597.99	425.98
598.14	369.80
598.30	376.83
598.46	402.57
598.61	505.56
598.77	440.02
598.93	383.85
599.09	435.34
599.24	442.36
599.40	447.04
599.56	404.91
599.71	425.98
599.87	428.32
600.03	442.36
600.18	468.11
600.34	449.38
600.50	393.21
600.65	423.64
600.81	440.02
600.97	454.06
601.12	493.85
601.28	517.26
601.44	400.23
601.59	442.36
601.75	383.85
601.91	397.89
602.06	423.64
602.22	470.45
602.37	400.23
602.53	493.85
602.69	423.64
602.84	362.78
603.00	435.34
603.16	421.30
603.31	393.21
603.47	374.49
603.62	435.34
603.78	433.00
603.94	388.53
604.09	503.22
604.25	428.32
604.40	435.34
604.56	395.55
604.71	365.12
604.87	463.43
605.03	402.57
605.18	414.27
605.34	463.43
605.49	491.51
605.65	393.21
605.80	456.40
605.96	477.47
606.12	358.10
606.27	379.17
606.43	416.62
606.58	416.62
606.74	393.21
606.89	489.17
607.05	409.59
607.20	393.21
607.36	416.62
607.51	430.66
607.67	430.66
607.82	461.09
607.98	428.32
608.13	423.64
608.29	397.89
608.44	341.72
608.60	468.11
608.75	449.38
608.91	421.30
609.06	400.23
609.22	482.15
609.37	374.49
609.53	409.59
609.68	479.81
609.84	393.21
609.99	369.80
610.15	458.74
