SpectraSuite Data File
++++++++++++++++++++++++++++++++++++
Date: Fri Oct 25 12:10:05 EDT 2013
User: price-jones
Dark Spectrum Present: No
Reference Spectrum Present: No
Number of Sampled Component Spectra: 1
Spectrometers: USB2+H05261
Integration Time (usec): 100000 (USB2+H05261)
Spectra Averaged: 1 (USB2+H05261)
Boxcar Smoothing: 0 (USB2+H05261)
Correct for Electrical Dark: No (USB2+H05261)
Strobe/Lamp Enabled: No (USB2+H05261)
Correct for Detector Non-linearity: No (USB2+H05261)
Correct for Stray Light: No (USB2+H05261)
Number of Pixels in Processed Spectrum: 2048
>>>>>Begin Processed Spectral Data<<<<<
365.73	341.72
365.92	341.72
366.12	341.72
366.32	262.14
366.52	250.44
366.72	231.71
366.91	201.29
367.11	227.03
367.31	224.69
367.51	208.31
367.70	217.67
367.90	287.89
368.10	238.73
368.30	262.14
368.49	278.52
368.69	238.73
368.89	292.57
369.09	212.99
369.28	238.73
369.48	264.48
369.68	306.61
369.87	318.31
370.07	285.55
370.27	362.78
370.47	332.36
370.66	280.86
370.86	315.97
371.06	397.89
371.25	465.77
371.45	299.59
371.65	458.74
371.84	313.63
372.04	447.04
372.24	400.23
372.44	409.59
372.63	376.83
372.83	383.85
373.03	430.66
373.22	393.21
373.42	407.25
373.62	411.93
373.81	425.98
374.01	468.11
374.21	440.02
374.40	414.27
374.60	353.42
374.79	440.02
374.99	369.80
375.19	421.30
375.38	383.85
375.58	379.17
375.78	409.59
375.97	374.49
376.17	472.79
376.37	414.27
376.56	437.68
376.76	381.51
376.95	444.70
377.15	454.06
377.35	451.72
377.54	423.64
377.74	454.06
377.93	407.25
378.13	484.49
378.33	421.30
378.52	404.91
378.72	479.81
378.91	421.30
379.11	400.23
379.31	496.19
379.50	407.25
379.70	430.66
379.89	414.27
380.09	463.43
380.28	374.49
380.48	386.19
380.68	397.89
380.87	383.85
381.07	418.96
381.26	390.87
381.46	367.46
381.65	381.51
381.85	404.91
382.04	372.15
382.24	416.62
382.43	372.15
382.63	442.36
382.83	447.04
383.02	388.53
383.22	477.47
383.41	454.06
383.61	416.62
383.80	395.55
384.00	358.10
384.19	395.55
384.39	425.98
384.58	374.49
384.78	395.55
384.97	433.00
385.17	411.93
385.36	444.70
385.56	423.64
385.75	372.15
385.95	418.96
386.14	386.19
386.34	486.83
386.53	470.45
386.72	418.96
386.92	390.87
387.11	442.36
387.31	423.64
387.50	353.42
387.70	421.30
387.89	395.55
388.09	337.04
388.28	358.10
388.48	400.23
388.67	435.34
388.86	351.08
389.06	404.91
389.25	407.25
389.45	416.62
389.64	388.53
389.84	440.02
390.03	456.40
390.22	358.10
390.42	465.77
390.61	404.91
390.81	362.78
391.00	386.19
391.19	386.19
391.39	346.40
391.58	451.72
391.78	395.55
391.97	395.55
392.16	435.34
392.36	386.19
392.55	393.21
392.75	418.96
392.94	444.70
393.13	386.19
393.33	437.68
393.52	386.19
393.71	402.57
393.91	379.17
394.10	397.89
394.29	379.17
394.49	416.62
394.68	355.76
394.88	479.81
395.07	458.74
395.26	353.42
395.46	411.93
395.65	418.96
395.84	425.98
396.04	463.43
396.23	442.36
396.42	418.96
396.62	470.45
396.81	454.06
397.00	369.80
397.19	421.30
397.39	395.55
397.58	456.40
397.77	374.49
397.97	400.23
398.16	381.51
398.35	341.72
398.55	365.12
398.74	390.87
398.93	395.55
399.12	447.04
399.32	430.66
399.51	360.44
399.70	369.80
399.90	430.66
400.09	365.12
400.28	428.32
400.47	400.23
400.67	414.27
400.86	425.98
401.05	304.27
401.24	386.19
401.44	409.59
401.63	444.70
401.82	369.80
402.01	425.98
402.21	407.25
402.40	416.62
402.59	440.02
402.78	433.00
402.97	414.27
403.17	374.49
403.36	416.62
403.55	395.55
403.74	365.12
403.93	470.45
404.13	428.32
404.32	390.87
404.51	386.19
404.70	468.11
404.89	355.76
405.09	414.27
405.28	407.25
405.47	372.15
405.66	397.89
405.85	428.32
406.05	421.30
406.24	407.25
406.43	416.62
406.62	421.30
406.81	451.72
407.00	414.27
407.20	395.55
407.39	341.72
407.58	404.91
407.77	362.78
407.96	388.53
408.15	358.10
408.34	367.46
408.54	351.08
408.73	433.00
408.92	435.34
409.11	400.23
409.30	479.81
409.49	407.25
409.68	400.23
409.87	404.91
410.07	421.30
410.26	430.66
410.45	409.59
410.64	402.57
410.83	423.64
411.02	423.64
411.21	456.40
411.40	418.96
411.59	433.00
411.78	402.57
411.98	414.27
412.17	404.91
412.36	374.49
412.55	416.62
412.74	383.85
412.93	388.53
413.12	322.99
413.31	414.27
413.50	372.15
413.69	386.19
413.88	407.25
414.07	374.49
414.26	390.87
414.45	369.80
414.64	407.25
414.83	472.79
415.02	507.90
415.22	397.89
415.41	465.77
415.60	435.34
415.79	416.62
415.98	388.53
416.17	369.80
416.36	425.98
416.55	437.68
416.74	407.25
416.93	428.32
417.12	337.04
417.31	428.32
417.50	360.44
417.69	407.25
417.88	397.89
418.07	416.62
418.26	433.00
418.45	437.68
418.64	440.02
418.83	435.34
419.02	383.85
419.21	418.96
419.39	423.64
419.58	397.89
419.77	376.83
419.96	451.72
420.15	388.53
420.34	390.87
420.53	353.42
420.72	423.64
420.91	402.57
421.10	395.55
421.29	414.27
421.48	397.89
421.67	379.17
421.86	407.25
422.05	374.49
422.24	311.29
422.43	355.76
422.61	470.45
422.80	470.45
422.99	386.19
423.18	318.31
423.37	433.00
423.56	400.23
423.75	334.70
423.94	465.77
424.13	442.36
424.32	447.04
424.50	430.66
424.69	442.36
424.88	421.30
425.07	411.93
425.26	374.49
425.45	395.55
425.64	430.66
425.83	404.91
426.01	407.25
426.20	402.57
426.39	407.25
426.58	404.91
426.77	381.51
426.96	442.36
427.15	423.64
427.33	451.72
427.52	407.25
427.71	390.87
427.90	393.21
428.09	360.44
428.28	430.66
428.46	479.81
428.65	402.57
428.84	355.76
429.03	442.36
429.22	430.66
429.40	360.44
429.59	355.76
429.78	428.32
429.97	437.68
430.16	379.17
430.34	440.02
430.53	411.93
430.72	365.12
430.91	360.44
431.10	367.46
431.28	425.98
431.47	372.15
431.66	425.98
431.85	416.62
432.03	369.80
432.22	444.70
432.41	418.96
432.60	440.02
432.79	358.10
432.97	397.89
433.16	440.02
433.35	379.17
433.54	393.21
433.72	451.72
433.91	374.49
434.10	437.68
434.28	437.68
434.47	348.74
434.66	472.79
434.85	341.72
435.03	402.57
435.22	360.44
435.41	404.91
435.59	463.43
435.78	376.83
435.97	393.21
436.16	433.00
436.34	397.89
436.53	411.93
436.72	395.55
436.90	498.53
437.09	374.49
437.28	463.43
437.46	390.87
437.65	355.76
437.84	383.85
438.02	353.42
438.21	395.55
438.40	376.83
438.58	393.21
438.77	416.62
438.96	454.06
439.14	447.04
439.33	395.55
439.52	360.44
439.70	449.38
439.89	454.06
440.08	435.34
440.26	365.12
440.45	421.30
440.63	435.34
440.82	428.32
441.01	435.34
441.19	423.64
441.38	390.87
441.57	411.93
441.75	402.57
441.94	491.51
442.12	390.87
442.31	369.80
442.50	358.10
442.68	369.80
442.87	421.30
443.05	416.62
443.24	454.06
443.43	372.15
443.61	472.79
443.80	470.45
443.98	414.27
444.17	416.62
444.35	458.74
444.54	458.74
444.73	388.53
444.91	479.81
445.10	456.40
445.28	362.78
445.47	425.98
445.65	390.87
445.84	348.74
446.02	346.40
446.21	421.30
446.39	379.17
446.58	416.62
446.77	447.04
446.95	407.25
447.14	404.91
447.32	393.21
447.51	461.09
447.69	472.79
447.88	421.30
448.06	421.30
448.25	433.00
448.43	409.59
448.62	353.42
448.80	425.98
448.99	458.74
449.17	440.02
449.36	390.87
449.54	416.62
449.73	374.49
449.91	512.58
450.10	376.83
450.28	435.34
450.46	447.04
450.65	437.68
450.83	440.02
451.02	458.74
451.20	458.74
451.39	442.36
451.57	409.59
451.76	423.64
451.94	425.98
452.13	472.79
452.31	465.77
452.49	451.72
452.68	367.46
452.86	367.46
453.05	505.56
453.23	402.57
453.42	322.99
453.60	416.62
453.78	461.09
453.97	423.64
454.15	400.23
454.34	379.17
454.52	418.96
454.70	493.85
454.89	461.09
455.07	402.57
455.26	465.77
455.44	484.49
455.62	416.62
455.81	423.64
455.99	418.96
456.17	351.08
456.36	379.17
456.54	423.64
456.73	400.23
456.91	430.66
457.09	395.55
457.28	470.45
457.46	442.36
457.64	409.59
457.83	425.98
458.01	358.10
458.19	470.45
458.38	337.04
458.56	444.70
458.74	411.93
458.93	447.04
459.11	425.98
459.29	411.93
459.48	468.11
459.66	493.85
459.84	400.23
460.03	491.51
460.21	433.00
460.39	409.59
460.57	472.79
460.76	484.49
460.94	440.02
461.12	386.19
461.31	433.00
461.49	411.93
461.67	301.93
461.85	451.72
462.04	404.91
462.22	795.78
462.40	475.13
462.59	444.70
462.77	451.72
462.95	454.06
463.13	358.10
463.32	425.98
463.50	367.46
463.68	418.96
463.86	447.04
464.05	400.23
464.23	451.72
464.41	381.51
464.59	475.13
464.78	404.91
464.96	409.59
465.14	360.44
465.32	397.89
465.50	404.91
465.69	465.77
465.87	437.68
466.05	437.68
466.23	388.53
466.41	416.62
466.60	376.83
466.78	435.34
466.96	451.72
467.14	428.32
467.32	479.81
467.51	395.55
467.69	458.74
467.87	418.96
468.05	423.64
468.23	449.38
468.41	449.38
468.60	451.72
468.78	416.62
468.96	425.98
469.14	442.36
469.32	458.74
469.50	425.98
469.69	367.46
469.87	409.59
470.05	430.66
470.23	362.78
470.41	428.32
470.59	360.44
470.77	447.04
470.95	498.53
471.14	433.00
471.32	383.85
471.50	465.77
471.68	409.59
471.86	407.25
472.04	440.02
472.22	355.76
472.40	411.93
472.58	468.11
472.77	367.46
472.95	418.96
473.13	418.96
473.31	379.17
473.49	449.38
473.67	409.59
473.85	430.66
474.03	458.74
474.21	503.22
474.39	454.06
474.57	468.11
474.75	402.57
474.93	414.27
475.12	423.64
475.30	440.02
475.48	425.98
475.66	421.30
475.84	390.87
476.02	458.74
476.20	423.64
476.38	402.57
476.56	559.39
476.74	383.85
476.92	411.93
477.10	397.89
477.28	449.38
477.46	365.12
477.64	416.62
477.82	397.89
478.00	372.15
478.18	435.34
478.36	358.10
478.54	423.64
478.72	407.25
478.90	362.78
479.08	390.87
479.26	451.72
479.44	390.87
479.62	374.49
479.80	404.91
479.98	463.43
480.16	360.44
480.34	449.38
480.52	400.23
480.70	484.49
480.88	393.21
481.06	390.87
481.24	449.38
481.41	341.72
481.59	458.74
481.77	407.25
481.95	458.74
482.13	421.30
482.31	416.62
482.49	479.81
482.67	416.62
482.85	395.55
483.03	418.96
483.21	414.27
483.39	437.68
483.57	425.98
483.74	409.59
483.92	402.57
484.10	437.68
484.28	344.06
484.46	430.66
484.64	383.85
484.82	365.12
485.00	440.02
485.18	376.83
485.35	425.98
485.53	379.17
485.71	449.38
485.89	423.64
486.07	447.04
486.25	496.19
486.43	433.00
486.61	397.89
486.78	404.91
486.96	386.19
487.14	390.87
487.32	397.89
487.50	341.72
487.68	440.02
487.85	388.53
488.03	451.72
488.21	435.34
488.39	411.93
488.57	402.57
488.75	351.08
488.92	479.81
489.10	437.68
489.28	386.19
489.46	442.36
489.64	442.36
489.81	414.27
489.99	358.10
490.17	367.46
490.35	510.24
490.53	418.96
490.70	421.30
490.88	433.00
491.06	414.27
491.24	397.89
491.41	435.34
491.59	360.44
491.77	360.44
491.95	456.40
492.13	425.98
492.30	416.62
492.48	447.04
492.66	463.43
492.84	337.04
493.01	444.70
493.19	346.40
493.37	425.98
493.54	463.43
493.72	411.93
493.90	444.70
494.08	430.66
494.25	423.64
494.43	477.47
494.61	365.12
494.79	351.08
494.96	372.15
495.14	454.06
495.32	461.09
495.49	362.78
495.67	433.00
495.85	402.57
496.02	416.62
496.20	435.34
496.38	374.49
496.55	322.99
496.73	510.24
496.91	386.19
497.09	414.27
497.26	355.76
497.44	423.64
497.62	365.12
497.79	383.85
497.97	407.25
498.14	437.68
498.32	454.06
498.50	395.55
498.67	414.27
498.85	414.27
499.03	383.85
499.20	386.19
499.38	430.66
499.56	442.36
499.73	437.68
499.91	425.98
500.08	465.77
500.26	475.13
500.44	369.80
500.61	451.72
500.79	433.00
500.97	428.32
501.14	503.22
501.32	451.72
501.49	475.13
501.67	437.68
501.84	294.91
502.02	428.32
502.20	442.36
502.37	505.56
502.55	409.59
502.72	372.15
502.90	362.78
503.07	433.00
503.25	395.55
503.43	346.40
503.60	454.06
503.78	397.89
503.95	400.23
504.13	414.27
504.30	521.94
504.48	388.53
504.65	395.55
504.83	444.70
505.01	393.21
505.18	400.23
505.36	414.27
505.53	383.85
505.71	376.83
505.88	435.34
506.06	381.51
506.23	372.15
506.41	383.85
506.58	390.87
506.76	461.09
506.93	383.85
507.11	477.47
507.28	379.17
507.46	390.87
507.63	407.25
507.81	479.81
507.98	493.85
508.16	379.17
508.33	440.02
508.50	397.89
508.68	430.66
508.85	447.04
509.03	395.55
509.20	372.15
509.38	416.62
509.55	444.70
509.73	400.23
509.90	493.85
510.08	440.02
510.25	386.19
510.42	308.95
510.60	437.68
510.77	465.77
510.95	407.25
511.12	411.93
511.30	486.83
511.47	404.91
511.64	449.38
511.82	425.98
511.99	468.11
512.17	362.78
512.34	458.74
512.51	423.64
512.69	372.15
512.86	442.36
513.04	414.27
513.21	425.98
513.38	386.19
513.56	414.27
513.73	376.83
513.90	447.04
514.08	400.23
514.25	451.72
514.43	409.59
514.60	332.36
514.77	411.93
514.95	372.15
515.12	414.27
515.29	369.80
515.47	348.74
515.64	416.62
515.81	400.23
515.99	437.68
516.16	362.78
516.33	416.62
516.51	404.91
516.68	486.83
516.85	491.51
517.03	451.72
517.20	397.89
517.37	397.89
517.54	418.96
517.72	421.30
517.89	430.66
518.06	344.06
518.24	404.91
518.41	503.22
518.58	430.66
518.75	423.64
518.93	360.44
519.10	386.19
519.27	381.51
519.45	437.68
519.62	437.68
519.79	383.85
519.96	421.30
520.14	470.45
520.31	456.40
520.48	444.70
520.65	430.66
520.83	400.23
521.00	463.43
521.17	414.27
521.34	379.17
521.52	409.59
521.69	388.53
521.86	376.83
522.03	402.57
522.20	365.12
522.38	435.34
522.55	409.59
522.72	404.91
522.89	421.30
523.07	374.49
523.24	428.32
523.41	428.32
523.58	388.53
523.75	418.96
523.92	402.57
524.10	440.02
524.27	421.30
524.44	447.04
524.61	517.26
524.78	360.44
524.96	463.43
525.13	416.62
525.30	362.78
525.47	388.53
525.64	404.91
525.81	477.47
525.98	390.87
526.16	404.91
526.33	425.98
526.50	461.09
526.67	411.93
526.84	383.85
527.01	418.96
527.18	418.96
527.36	416.62
527.53	433.00
527.70	468.11
527.87	425.98
528.04	425.98
528.21	468.11
528.38	418.96
528.55	421.30
528.72	468.11
528.89	489.17
529.07	465.77
529.24	358.10
529.41	411.93
529.58	397.89
529.75	374.49
529.92	423.64
530.09	414.27
530.26	388.53
530.43	365.12
530.60	472.79
530.77	376.83
530.94	425.98
531.11	428.32
531.28	383.85
531.46	451.72
531.63	428.32
531.80	456.40
531.97	425.98
532.14	411.93
532.31	465.77
532.48	500.87
532.65	444.70
532.82	428.32
532.99	444.70
533.16	369.80
533.33	414.27
533.50	456.40
533.67	430.66
533.84	493.85
534.01	374.49
534.18	409.59
534.35	425.98
534.52	428.32
534.69	430.66
534.86	395.55
535.03	472.79
535.20	376.83
535.37	498.53
535.54	470.45
535.71	451.72
535.88	414.27
536.05	416.62
536.22	440.02
536.38	411.93
536.55	386.19
536.72	482.15
536.89	430.66
537.06	411.93
537.23	400.23
537.40	388.53
537.57	386.19
537.74	482.15
537.91	372.15
538.08	454.06
538.25	414.27
538.42	411.93
538.59	456.40
538.75	447.04
538.92	425.98
539.09	397.89
539.26	383.85
539.43	414.27
539.60	437.68
539.77	360.44
539.94	353.42
540.11	372.15
540.28	421.30
540.44	381.51
540.61	381.51
540.78	404.91
540.95	334.70
541.12	465.77
541.29	444.70
541.46	416.62
541.62	374.49
541.79	416.62
541.96	447.04
542.13	400.23
542.30	383.85
542.47	414.27
542.63	479.81
542.80	395.55
542.97	468.11
543.14	400.23
543.31	365.12
543.48	435.34
543.64	449.38
543.81	440.02
543.98	369.80
544.15	376.83
544.32	435.34
544.48	400.23
544.65	472.79
544.82	442.36
544.99	402.57
545.16	421.30
545.32	395.55
545.49	367.46
545.66	414.27
545.83	362.78
546.00	383.85
546.16	353.42
546.33	411.93
546.50	440.02
546.67	456.40
546.83	444.70
547.00	376.83
547.17	430.66
547.34	404.91
547.50	365.12
547.67	451.72
547.84	430.66
548.00	470.45
548.17	386.19
548.34	362.78
548.51	454.06
548.67	421.30
548.84	337.04
549.01	383.85
549.18	482.15
549.34	430.66
549.51	351.08
549.68	381.51
549.84	409.59
550.01	465.77
550.18	540.66
550.34	479.81
550.51	390.87
550.68	451.72
550.84	388.53
551.01	425.98
551.18	393.21
551.34	414.27
551.51	397.89
551.68	381.51
551.84	458.74
552.01	418.96
552.18	362.78
552.34	425.98
552.51	351.08
552.68	390.87
552.84	463.43
553.01	449.38
553.18	458.74
553.34	407.25
553.51	447.04
553.67	435.34
553.84	339.38
554.01	440.02
554.17	470.45
554.34	337.04
554.51	461.09
554.67	437.68
554.84	440.02
555.00	369.80
555.17	383.85
555.33	411.93
555.50	397.89
555.67	411.93
555.83	414.27
556.00	421.30
556.16	615.56
556.33	470.45
556.50	498.53
556.66	411.93
556.83	423.64
556.99	482.15
557.16	454.06
557.32	421.30
557.49	475.13
557.65	411.93
557.82	461.09
557.98	402.57
558.15	416.62
558.32	365.12
558.48	409.59
558.65	440.02
558.81	400.23
558.98	458.74
559.14	489.17
559.31	400.23
559.47	433.00
559.64	393.21
559.80	400.23
559.97	433.00
560.13	425.98
560.30	428.32
560.46	505.56
560.63	463.43
560.79	430.66
560.96	411.93
561.12	313.63
561.29	444.70
561.45	411.93
561.61	444.70
561.78	472.79
561.94	362.78
562.11	416.62
562.27	472.79
562.44	411.93
562.60	428.32
562.77	416.62
562.93	437.68
563.10	447.04
563.26	411.93
563.42	388.53
563.59	414.27
563.75	402.57
563.92	367.46
564.08	411.93
564.24	423.64
564.41	444.70
564.57	416.62
564.74	381.51
564.90	390.87
565.07	430.66
565.23	461.09
565.39	416.62
565.56	428.32
565.72	297.25
565.88	388.53
566.05	400.23
566.21	458.74
566.38	430.66
566.54	393.21
566.70	383.85
566.87	461.09
567.03	416.62
567.19	433.00
567.36	430.66
567.52	393.21
567.68	393.21
567.85	477.47
568.01	414.27
568.17	402.57
568.34	425.98
568.50	456.40
568.66	402.57
568.83	407.25
568.99	437.68
569.15	402.57
569.32	449.38
569.48	374.49
569.64	407.25
569.81	437.68
569.97	388.53
570.13	472.79
570.30	386.19
570.46	430.66
570.62	379.17
570.78	372.15
570.95	362.78
571.11	402.57
571.27	461.09
571.43	456.40
571.60	428.32
571.76	374.49
571.92	379.17
572.09	442.36
572.25	433.00
572.41	458.74
572.57	433.00
572.74	428.32
572.90	437.68
573.06	454.06
573.22	449.38
573.38	472.79
573.55	449.38
573.71	430.66
573.87	496.19
574.03	411.93
574.20	484.49
574.36	428.32
574.52	416.62
574.68	397.89
574.84	402.57
575.01	418.96
575.17	423.64
575.33	411.93
575.49	397.89
575.65	507.90
575.82	416.62
575.98	468.11
576.14	449.38
576.30	465.77
576.46	397.89
576.62	407.25
576.79	500.87
576.95	524.28
577.11	383.85
577.27	416.62
577.43	390.87
577.59	444.70
577.75	454.06
577.92	411.93
578.08	421.30
578.24	404.91
578.40	489.17
578.56	428.32
578.72	435.34
578.88	428.32
579.04	327.68
579.21	505.56
579.37	416.62
579.53	414.27
579.69	456.40
579.85	379.17
580.01	486.83
580.17	360.44
580.33	470.45
580.49	369.80
580.65	407.25
580.82	423.64
580.98	418.96
581.14	425.98
581.30	444.70
581.46	374.49
581.62	449.38
581.78	407.25
581.94	369.80
582.10	372.15
582.26	376.83
582.42	454.06
582.58	365.12
582.74	430.66
582.90	374.49
583.06	404.91
583.22	365.12
583.38	372.15
583.54	355.76
583.70	421.30
583.86	451.72
584.02	456.40
584.18	489.17
584.34	468.11
584.50	369.80
584.66	437.68
584.82	402.57
584.98	390.87
585.14	393.21
585.30	414.27
585.46	461.09
585.62	397.89
585.78	484.49
585.94	463.43
586.10	395.55
586.26	381.51
586.42	393.21
586.58	376.83
586.74	383.85
586.90	376.83
587.06	379.17
587.22	400.23
587.38	402.57
587.54	393.21
587.70	425.98
587.86	397.89
588.02	461.09
588.18	425.98
588.34	463.43
588.49	374.49
588.65	388.53
588.81	358.10
588.97	407.25
589.13	463.43
589.29	355.76
589.45	440.02
589.61	428.32
589.77	456.40
589.93	468.11
590.08	372.15
590.24	374.49
590.40	430.66
590.56	393.21
590.72	383.85
590.88	327.68
591.04	470.45
591.20	409.59
591.35	409.59
591.51	444.70
591.67	383.85
591.83	334.70
591.99	454.06
592.15	379.17
592.31	440.02
592.46	423.64
592.62	447.04
592.78	451.72
592.94	388.53
593.10	461.09
593.26	297.25
593.41	414.27
593.57	379.17
593.73	440.02
593.89	468.11
594.05	465.77
594.20	404.91
594.36	475.13
594.52	409.59
594.68	442.36
594.84	404.91
594.99	437.68
595.15	404.91
595.31	468.11
595.47	468.11
595.62	454.06
595.78	397.89
595.94	369.80
596.10	442.36
596.25	507.90
596.41	479.81
596.57	374.49
596.73	449.38
596.88	416.62
597.04	458.74
597.20	402.57
597.36	437.68
597.51	414.27
597.67	372.15
597.83	402.57
597.99	447.04
598.14	400.23
598.30	411.93
598.46	383.85
598.61	404.91
598.77	465.77
598.93	451.72
599.09	332.36
599.24	435.34
599.40	449.38
599.56	477.47
599.71	428.32
599.87	390.87
600.03	414.27
600.18	379.17
600.34	390.87
600.50	369.80
600.65	407.25
600.81	472.79
600.97	400.23
601.12	372.15
601.28	470.45
601.44	437.68
601.59	325.33
601.75	447.04
601.91	409.59
602.06	379.17
602.22	458.74
602.37	458.74
602.53	379.17
602.69	449.38
602.84	409.59
603.00	425.98
603.16	353.42
603.31	449.38
603.47	418.96
603.62	409.59
603.78	414.27
603.94	418.96
604.09	418.96
604.25	397.89
604.40	393.21
604.56	397.89
604.71	397.89
604.87	369.80
605.03	411.93
605.18	404.91
605.34	461.09
605.49	315.97
605.65	397.89
605.80	461.09
605.96	416.62
606.12	444.70
606.27	428.32
606.43	407.25
606.58	428.32
606.74	512.58
606.89	425.98
607.05	362.78
607.20	341.72
607.36	428.32
607.51	423.64
607.67	423.64
607.82	379.17
607.98	507.90
608.13	477.47
608.29	330.02
608.44	479.81
608.60	379.17
608.75	477.47
608.91	369.80
609.06	383.85
609.22	486.83
609.37	468.11
609.53	351.08
609.68	383.85
609.84	407.25
609.99	421.30
610.15	456.40
