SpectraSuite Data File
++++++++++++++++++++++++++++++++++++
Date: Fri Oct 25 12:11:16 EDT 2013
User: price-jones
Dark Spectrum Present: No
Reference Spectrum Present: No
Number of Sampled Component Spectra: 1
Spectrometers: USB2+H05261
Integration Time (usec): 100000 (USB2+H05261)
Spectra Averaged: 1 (USB2+H05261)
Boxcar Smoothing: 0 (USB2+H05261)
Correct for Electrical Dark: No (USB2+H05261)
Strobe/Lamp Enabled: No (USB2+H05261)
Correct for Detector Non-linearity: No (USB2+H05261)
Correct for Stray Light: No (USB2+H05261)
Number of Pixels in Processed Spectrum: 2048
>>>>>Begin Processed Spectral Data<<<<<
365.73	346.40
365.92	346.40
366.12	346.40
366.32	212.99
366.52	322.99
366.72	245.76
366.91	287.89
367.11	182.56
367.31	222.35
367.51	273.84
367.70	203.63
367.90	280.86
368.10	205.97
368.30	294.91
368.49	217.67
368.69	315.97
368.89	250.44
369.09	201.29
369.28	290.23
369.48	285.55
369.68	250.44
369.87	325.33
370.07	322.99
370.27	346.40
370.47	308.95
370.66	236.39
370.86	297.25
371.06	341.72
371.25	433.00
371.45	402.57
371.65	395.55
371.84	353.42
372.04	425.98
372.24	351.08
372.44	386.19
372.63	395.55
372.83	451.72
373.03	465.77
373.22	472.79
373.42	456.40
373.62	475.13
373.81	402.57
374.01	425.98
374.21	435.34
374.40	454.06
374.60	425.98
374.79	386.19
374.99	435.34
375.19	503.22
375.38	444.70
375.58	489.17
375.78	379.17
375.97	365.12
376.17	475.13
376.37	379.17
376.56	362.78
376.76	421.30
376.95	428.32
377.15	407.25
377.35	416.62
377.54	442.36
377.74	456.40
377.93	388.53
378.13	404.91
378.33	372.15
378.52	362.78
378.72	402.57
378.91	414.27
379.11	390.87
379.31	400.23
379.50	444.70
379.70	449.38
379.89	512.58
380.09	463.43
380.28	374.49
380.48	454.06
380.68	372.15
380.87	330.02
381.07	421.30
381.26	416.62
381.46	407.25
381.65	491.51
381.85	428.32
382.04	402.57
382.24	468.11
382.43	386.19
382.63	381.51
382.83	397.89
383.02	425.98
383.22	421.30
383.41	440.02
383.61	397.89
383.80	421.30
384.00	381.51
384.19	437.68
384.39	442.36
384.58	381.51
384.78	390.87
384.97	355.76
385.17	365.12
385.36	402.57
385.56	383.85
385.75	346.40
385.95	372.15
386.14	414.27
386.34	360.44
386.53	447.04
386.72	355.76
386.92	407.25
387.11	444.70
387.31	433.00
387.50	376.83
387.70	374.49
387.89	358.10
388.09	400.23
388.28	514.92
388.48	390.87
388.67	423.64
388.86	414.27
389.06	400.23
389.25	393.21
389.45	418.96
389.64	416.62
389.84	416.62
390.03	442.36
390.22	374.49
390.42	435.34
390.61	367.46
390.81	390.87
391.00	402.57
391.19	404.91
391.39	386.19
391.58	367.46
391.78	404.91
391.97	409.59
392.16	404.91
392.36	379.17
392.55	416.62
392.75	351.08
392.94	404.91
393.13	348.74
393.33	315.97
393.52	351.08
393.71	468.11
393.91	381.51
394.10	425.98
394.29	416.62
394.49	390.87
394.68	376.83
394.88	397.89
395.07	470.45
395.26	409.59
395.46	463.43
395.65	477.47
395.84	454.06
396.04	379.17
396.23	344.06
396.42	397.89
396.62	376.83
396.81	435.34
397.00	454.06
397.19	404.91
397.39	369.80
397.58	430.66
397.77	411.93
397.97	421.30
398.16	435.34
398.35	430.66
398.55	390.87
398.74	402.57
398.93	440.02
399.12	339.38
399.32	372.15
399.51	444.70
399.70	482.15
399.90	430.66
400.09	404.91
400.28	390.87
400.47	447.04
400.67	449.38
400.86	407.25
401.05	313.63
401.24	449.38
401.44	411.93
401.63	418.96
401.82	386.19
402.01	393.21
402.21	400.23
402.40	402.57
402.59	400.23
402.78	386.19
402.97	360.44
403.17	416.62
403.36	376.83
403.55	402.57
403.74	503.22
403.93	454.06
404.13	418.96
404.32	395.55
404.51	351.08
404.70	379.17
404.89	409.59
405.09	482.15
405.28	477.47
405.47	442.36
405.66	390.87
405.85	409.59
406.05	447.04
406.24	404.91
406.43	433.00
406.62	369.80
406.81	430.66
407.00	475.13
407.20	400.23
407.39	383.85
407.58	374.49
407.77	421.30
407.96	437.68
408.15	524.28
408.34	386.19
408.54	388.53
408.73	358.10
408.92	416.62
409.11	433.00
409.30	367.46
409.49	355.76
409.68	313.63
409.87	484.49
410.07	421.30
410.26	411.93
410.45	402.57
410.64	383.85
410.83	390.87
411.02	407.25
411.21	428.32
411.40	479.81
411.59	395.55
411.78	421.30
411.98	351.08
412.17	374.49
412.36	404.91
412.55	433.00
412.74	409.59
412.93	437.68
413.12	386.19
413.31	500.87
413.50	355.76
413.69	454.06
413.88	447.04
414.07	437.68
414.26	386.19
414.45	397.89
414.64	393.21
414.83	418.96
415.02	440.02
415.22	362.78
415.41	402.57
415.60	428.32
415.79	454.06
415.98	454.06
416.17	360.44
416.36	388.53
416.55	430.66
416.74	411.93
416.93	418.96
417.12	442.36
417.31	433.00
417.50	470.45
417.69	402.57
417.88	433.00
418.07	353.42
418.26	393.21
418.45	461.09
418.64	376.83
418.83	388.53
419.02	407.25
419.21	388.53
419.39	330.02
419.58	355.76
419.77	395.55
419.96	423.64
420.15	407.25
420.34	444.70
420.53	414.27
420.72	386.19
420.91	416.62
421.10	397.89
421.29	393.21
421.48	454.06
421.67	447.04
421.86	458.74
422.05	379.17
422.24	407.25
422.43	409.59
422.61	313.63
422.80	425.98
422.99	493.85
423.18	395.55
423.37	397.89
423.56	433.00
423.75	388.53
423.94	425.98
424.13	437.68
424.32	344.06
424.50	386.19
424.69	433.00
424.88	407.25
425.07	416.62
425.26	444.70
425.45	440.02
425.64	423.64
425.83	390.87
426.01	358.10
426.20	421.30
426.39	400.23
426.58	376.83
426.77	407.25
426.96	430.66
427.15	372.15
427.33	454.06
427.52	397.89
427.71	442.36
427.90	411.93
428.09	388.53
428.28	491.51
428.46	386.19
428.65	397.89
428.84	379.17
429.03	404.91
429.22	435.34
429.40	409.59
429.59	402.57
429.78	400.23
429.97	442.36
430.16	440.02
430.34	456.40
430.53	346.40
430.72	449.38
430.91	390.87
431.10	428.32
431.28	365.12
431.47	440.02
431.66	482.15
431.85	402.57
432.03	414.27
432.22	428.32
432.41	397.89
432.60	400.23
432.79	472.79
432.97	440.02
433.16	386.19
433.35	404.91
433.54	376.83
433.72	449.38
433.91	493.85
434.10	407.25
434.28	451.72
434.47	372.15
434.66	393.21
434.85	421.30
435.03	475.13
435.22	404.91
435.41	421.30
435.59	404.91
435.78	376.83
435.97	388.53
436.16	468.11
436.34	372.15
436.53	365.12
436.72	393.21
436.90	388.53
437.09	388.53
437.28	437.68
437.46	388.53
437.65	442.36
437.84	374.49
438.02	395.55
438.21	435.34
438.40	383.85
438.58	369.80
438.77	388.53
438.96	451.72
439.14	433.00
439.33	351.08
439.52	449.38
439.70	456.40
439.89	372.15
440.08	386.19
440.26	454.06
440.45	390.87
440.63	421.30
440.82	444.70
441.01	404.91
441.19	418.96
441.38	379.17
441.57	367.46
441.75	414.27
441.94	428.32
442.12	379.17
442.31	423.64
442.50	437.68
442.68	400.23
442.87	477.47
443.05	442.36
443.24	428.32
443.43	381.51
443.61	442.36
443.80	418.96
443.98	409.59
444.17	362.78
444.35	454.06
444.54	444.70
444.73	437.68
444.91	437.68
445.10	402.57
445.28	470.45
445.47	470.45
445.65	463.43
445.84	379.17
446.02	442.36
446.21	379.17
446.39	472.79
446.58	416.62
446.77	437.68
446.95	440.02
447.14	390.87
447.32	407.25
447.51	418.96
447.69	440.02
447.88	388.53
448.06	440.02
448.25	411.93
448.43	397.89
448.62	400.23
448.80	465.77
448.99	411.93
449.17	428.32
449.36	477.47
449.54	468.11
449.73	390.87
449.91	376.83
450.10	428.32
450.28	451.72
450.46	390.87
450.65	353.42
450.83	372.15
451.02	437.68
451.20	395.55
451.39	437.68
451.57	425.98
451.76	505.56
451.94	381.51
452.13	421.30
452.31	442.36
452.49	407.25
452.68	444.70
452.86	407.25
453.05	484.49
453.23	425.98
453.42	358.10
453.60	421.30
453.78	404.91
453.97	393.21
454.15	425.98
454.34	440.02
454.52	435.34
454.70	437.68
454.89	379.17
455.07	376.83
455.26	447.04
455.44	442.36
455.62	379.17
455.81	409.59
455.99	346.40
456.17	465.77
456.36	393.21
456.54	400.23
456.73	360.44
456.91	414.27
457.09	505.56
457.28	409.59
457.46	390.87
457.64	402.57
457.83	433.00
458.01	416.62
458.19	411.93
458.38	367.46
458.56	341.72
458.74	409.59
458.93	521.94
459.11	444.70
459.29	421.30
459.48	435.34
459.66	435.34
459.84	433.00
460.03	538.32
460.21	484.49
460.39	397.89
460.57	376.83
460.76	421.30
460.94	437.68
461.12	482.15
461.31	477.47
461.49	454.06
461.67	421.30
461.85	390.87
462.04	388.53
462.22	819.19
462.40	393.21
462.59	449.38
462.77	418.96
462.95	386.19
463.13	360.44
463.32	379.17
463.50	374.49
463.68	451.72
463.86	379.17
464.05	397.89
464.23	512.58
464.41	500.87
464.59	383.85
464.78	383.85
464.96	395.55
465.14	397.89
465.32	388.53
465.50	390.87
465.69	411.93
465.87	390.87
466.05	379.17
466.23	423.64
466.41	496.19
466.60	414.27
466.78	393.21
466.96	482.15
467.14	528.96
467.32	451.72
467.51	425.98
467.69	409.59
467.87	463.43
468.05	517.26
468.23	407.25
468.41	400.23
468.60	388.53
468.78	447.04
468.96	472.79
469.14	400.23
469.32	367.46
469.50	334.70
469.69	358.10
469.87	315.97
470.05	477.47
470.23	421.30
470.41	348.74
470.59	404.91
470.77	397.89
470.95	486.83
471.14	407.25
471.32	423.64
471.50	440.02
471.68	393.21
471.86	411.93
472.04	355.76
472.22	386.19
472.40	428.32
472.58	381.51
472.77	411.93
472.95	388.53
473.13	470.45
473.31	444.70
473.49	397.89
473.67	397.89
473.85	367.46
474.03	458.74
474.21	472.79
474.39	451.72
474.57	421.30
474.75	393.21
474.93	376.83
475.12	383.85
475.30	444.70
475.48	409.59
475.66	407.25
475.84	461.09
476.02	442.36
476.20	393.21
476.38	367.46
476.56	416.62
476.74	397.89
476.92	400.23
477.10	416.62
477.28	435.34
477.46	407.25
477.64	440.02
477.82	388.53
478.00	442.36
478.18	440.02
478.36	414.27
478.54	409.59
478.72	383.85
478.90	409.59
479.08	447.04
479.26	409.59
479.44	430.66
479.62	393.21
479.80	367.46
479.98	379.17
480.16	372.15
480.34	390.87
480.52	416.62
480.70	428.32
480.88	397.89
481.06	414.27
481.24	486.83
481.41	430.66
481.59	477.47
481.77	421.30
481.95	379.17
482.13	447.04
482.31	463.43
482.49	376.83
482.67	374.49
482.85	479.81
483.03	365.12
483.21	416.62
483.39	421.30
483.57	407.25
483.74	388.53
483.92	409.59
484.10	400.23
484.28	454.06
484.46	428.32
484.64	322.99
484.82	393.21
485.00	425.98
485.18	355.76
485.35	402.57
485.53	440.02
485.71	433.00
485.89	374.49
486.07	395.55
486.25	465.77
486.43	435.34
486.61	404.91
486.78	437.68
486.96	423.64
487.14	386.19
487.32	411.93
487.50	351.08
487.68	395.55
487.85	400.23
488.03	409.59
488.21	421.30
488.39	461.09
488.57	449.38
488.75	470.45
488.92	498.53
489.10	425.98
489.28	484.49
489.46	393.21
489.64	461.09
489.81	447.04
489.99	451.72
490.17	418.96
490.35	519.60
490.53	435.34
490.70	355.76
490.88	423.64
491.06	402.57
491.24	433.00
491.41	449.38
491.59	451.72
491.77	395.55
491.95	386.19
492.13	337.04
492.30	444.70
492.48	386.19
492.66	386.19
492.84	348.74
493.01	433.00
493.19	437.68
493.37	449.38
493.54	372.15
493.72	374.49
493.90	397.89
494.08	503.22
494.25	369.80
494.43	409.59
494.61	437.68
494.79	369.80
494.96	423.64
495.14	449.38
495.32	397.89
495.49	369.80
495.67	332.36
495.85	433.00
496.02	423.64
496.20	414.27
496.38	430.66
496.55	416.62
496.73	386.19
496.91	395.55
497.09	425.98
497.26	344.06
497.44	435.34
497.62	421.30
497.79	409.59
497.97	404.91
498.14	407.25
498.32	400.23
498.50	440.02
498.67	421.30
498.85	409.59
499.03	383.85
499.20	397.89
499.38	409.59
499.56	379.17
499.73	440.02
499.91	397.89
500.08	458.74
500.26	437.68
500.44	381.51
500.61	374.49
500.79	369.80
500.97	461.09
501.14	421.30
501.32	451.72
501.49	416.62
501.67	418.96
501.84	388.53
502.02	374.49
502.20	451.72
502.37	416.62
502.55	365.12
502.72	409.59
502.90	407.25
503.07	449.38
503.25	414.27
503.43	397.89
503.60	442.36
503.78	454.06
503.95	381.51
504.13	465.77
504.30	472.79
504.48	440.02
504.65	418.96
504.83	475.13
505.01	339.38
505.18	374.49
505.36	425.98
505.53	372.15
505.71	346.40
505.88	433.00
506.06	454.06
506.23	353.42
506.41	400.23
506.58	409.59
506.76	407.25
506.93	362.78
507.11	423.64
507.28	454.06
507.46	430.66
507.63	400.23
507.81	315.97
507.98	423.64
508.16	388.53
508.33	451.72
508.50	390.87
508.68	400.23
508.85	411.93
509.03	369.80
509.20	449.38
509.38	449.38
509.55	430.66
509.73	365.12
509.90	367.46
510.08	397.89
510.25	393.21
510.42	376.83
510.60	372.15
510.77	461.09
510.95	435.34
511.12	433.00
511.30	500.87
511.47	358.10
511.64	423.64
511.82	379.17
511.99	416.62
512.17	381.51
512.34	416.62
512.51	393.21
512.69	353.42
512.86	416.62
513.04	454.06
513.21	393.21
513.38	444.70
513.56	360.44
513.73	451.72
513.90	393.21
514.08	477.47
514.25	418.96
514.43	386.19
514.60	470.45
514.77	379.17
514.95	360.44
515.12	414.27
515.29	386.19
515.47	423.64
515.64	418.96
515.81	348.74
515.99	491.51
516.16	449.38
516.33	458.74
516.51	381.51
516.68	390.87
516.85	372.15
517.03	407.25
517.20	433.00
517.37	430.66
517.54	435.34
517.72	414.27
517.89	362.78
518.06	418.96
518.24	493.85
518.41	442.36
518.58	425.98
518.75	337.04
518.93	376.83
519.10	444.70
519.27	423.64
519.45	458.74
519.62	409.59
519.79	414.27
519.96	358.10
520.14	416.62
520.31	447.04
520.48	393.21
520.65	425.98
520.83	414.27
521.00	397.89
521.17	491.51
521.34	360.44
521.52	428.32
521.69	379.17
521.86	344.06
522.03	418.96
522.20	414.27
522.38	369.80
522.55	409.59
522.72	395.55
522.89	430.66
523.07	463.43
523.24	416.62
523.41	435.34
523.58	447.04
523.75	383.85
523.92	456.40
524.10	447.04
524.27	397.89
524.44	418.96
524.61	433.00
524.78	358.10
524.96	369.80
525.13	451.72
525.30	465.77
525.47	458.74
525.64	390.87
525.81	416.62
525.98	351.08
526.16	421.30
526.33	393.21
526.50	423.64
526.67	400.23
526.84	353.42
527.01	411.93
527.18	402.57
527.36	468.11
527.53	395.55
527.70	442.36
527.87	449.38
528.04	451.72
528.21	409.59
528.38	444.70
528.55	433.00
528.72	463.43
528.89	512.58
529.07	402.57
529.24	388.53
529.41	381.51
529.58	437.68
529.75	409.59
529.92	369.80
530.09	393.21
530.26	360.44
530.43	418.96
530.60	390.87
530.77	444.70
530.94	355.76
531.11	463.43
531.28	421.30
531.46	444.70
531.63	400.23
531.80	477.47
531.97	393.21
532.14	433.00
532.31	390.87
532.48	395.55
532.65	388.53
532.82	386.19
532.99	475.13
533.16	369.80
533.33	433.00
533.50	390.87
533.67	418.96
533.84	442.36
534.01	369.80
534.18	454.06
534.35	442.36
534.52	360.44
534.69	444.70
534.86	379.17
535.03	409.59
535.20	407.25
535.37	449.38
535.54	374.49
535.71	437.68
535.88	458.74
536.05	390.87
536.22	416.62
536.38	414.27
536.55	435.34
536.72	430.66
536.89	390.87
537.06	341.72
537.23	386.19
537.40	489.17
537.57	407.25
537.74	388.53
537.91	416.62
538.08	358.10
538.25	395.55
538.42	395.55
538.59	379.17
538.75	447.04
538.92	365.12
539.09	465.77
539.26	383.85
539.43	486.83
539.60	374.49
539.77	493.85
539.94	454.06
540.11	400.23
540.28	397.89
540.44	465.77
540.61	440.02
540.78	402.57
540.95	456.40
541.12	498.53
541.29	402.57
541.46	451.72
541.62	423.64
541.79	322.99
541.96	402.57
542.13	484.49
542.30	388.53
542.47	369.80
542.63	383.85
542.80	327.68
542.97	440.02
543.14	468.11
543.31	416.62
543.48	430.66
543.64	440.02
543.81	423.64
543.98	397.89
544.15	400.23
544.32	423.64
544.48	465.77
544.65	418.96
544.82	381.51
544.99	463.43
545.16	479.81
545.32	353.42
545.49	418.96
545.66	409.59
545.83	414.27
546.00	353.42
546.16	430.66
546.33	372.15
546.50	397.89
546.67	447.04
546.83	388.53
547.00	416.62
547.17	379.17
547.34	400.23
547.50	472.79
547.67	367.46
547.84	397.89
548.00	418.96
548.17	395.55
548.34	442.36
548.51	454.06
548.67	404.91
548.84	449.38
549.01	337.04
549.18	411.93
549.34	456.40
549.51	376.83
549.68	397.89
549.84	374.49
550.01	395.55
550.18	430.66
550.34	465.77
550.51	388.53
550.68	414.27
550.84	416.62
551.01	451.72
551.18	447.04
551.34	395.55
551.51	468.11
551.68	425.98
551.84	341.72
552.01	454.06
552.18	472.79
552.34	388.53
552.51	423.64
552.68	428.32
552.84	428.32
553.01	393.21
553.18	369.80
553.34	390.87
553.51	388.53
553.67	416.62
553.84	414.27
554.01	381.51
554.17	400.23
554.34	442.36
554.51	428.32
554.67	449.38
554.84	447.04
555.00	421.30
555.17	388.53
555.33	379.17
555.50	358.10
555.67	390.87
555.83	381.51
556.00	407.25
556.16	468.11
556.33	437.68
556.50	444.70
556.66	461.09
556.83	437.68
556.99	421.30
557.16	404.91
557.32	416.62
557.49	367.46
557.65	341.72
557.82	388.53
557.98	374.49
558.15	400.23
558.32	465.77
558.48	411.93
558.65	381.51
558.81	454.06
558.98	376.83
559.14	374.49
559.31	416.62
559.47	365.12
559.64	440.02
559.80	404.91
559.97	334.70
560.13	381.51
560.30	388.53
560.46	369.80
560.63	444.70
560.79	447.04
560.96	395.55
561.12	365.12
561.29	484.49
561.45	402.57
561.61	397.89
561.78	538.32
561.94	372.15
562.11	379.17
562.27	489.17
562.44	456.40
562.60	400.23
562.77	397.89
562.93	376.83
563.10	411.93
563.26	383.85
563.42	407.25
563.59	470.45
563.75	411.93
563.92	437.68
564.08	435.34
564.24	402.57
564.41	514.92
564.57	468.11
564.74	395.55
564.90	440.02
565.07	428.32
565.23	425.98
565.39	362.78
565.56	449.38
565.72	386.19
565.88	379.17
566.05	437.68
566.21	388.53
566.38	463.43
566.54	444.70
566.70	386.19
566.87	402.57
567.03	390.87
567.19	437.68
567.36	381.51
567.52	425.98
567.68	442.36
567.85	409.59
568.01	395.55
568.17	388.53
568.34	358.10
568.50	461.09
568.66	465.77
568.83	465.77
568.99	374.49
569.15	404.91
569.32	416.62
569.48	372.15
569.64	411.93
569.81	386.19
569.97	379.17
570.13	428.32
570.30	430.66
570.46	379.17
570.62	491.51
570.78	444.70
570.95	430.66
571.11	423.64
571.27	461.09
571.43	425.98
571.60	442.36
571.76	425.98
571.92	428.32
572.09	493.85
572.25	475.13
572.41	472.79
572.57	388.53
572.74	433.00
572.90	362.78
573.06	451.72
573.22	414.27
573.38	491.51
573.55	360.44
573.71	454.06
573.87	470.45
574.03	393.21
574.20	418.96
574.36	395.55
574.52	383.85
574.68	470.45
574.84	458.74
575.01	449.38
575.17	423.64
575.33	482.15
575.49	440.02
575.65	407.25
575.82	423.64
575.98	383.85
576.14	400.23
576.30	325.33
576.46	327.68
576.62	423.64
576.79	435.34
576.95	433.00
577.11	407.25
577.27	395.55
577.43	447.04
577.59	442.36
577.75	390.87
577.92	383.85
578.08	425.98
578.24	367.46
578.40	437.68
578.56	482.15
578.72	468.11
578.88	433.00
579.04	365.12
579.21	440.02
579.37	437.68
579.53	425.98
579.69	472.79
579.85	437.68
580.01	416.62
580.17	416.62
580.33	435.34
580.49	468.11
580.65	353.42
580.82	411.93
580.98	397.89
581.14	437.68
581.30	433.00
581.46	458.74
581.62	409.59
581.78	472.79
581.94	440.02
582.10	451.72
582.26	442.36
582.42	461.09
582.58	454.06
582.74	440.02
582.90	465.77
583.06	458.74
583.22	383.85
583.38	468.11
583.54	390.87
583.70	472.79
583.86	486.83
584.02	458.74
584.18	397.89
584.34	437.68
584.50	456.40
584.66	456.40
584.82	421.30
584.98	421.30
585.14	425.98
585.30	388.53
585.46	388.53
585.62	369.80
585.78	442.36
585.94	407.25
586.10	365.12
586.26	498.53
586.42	535.98
586.58	433.00
586.74	388.53
586.90	449.38
587.06	449.38
587.22	482.15
587.38	383.85
587.54	397.89
587.70	437.68
587.86	430.66
588.02	393.21
588.18	451.72
588.34	503.22
588.49	372.15
588.65	430.66
588.81	433.00
588.97	400.23
589.13	360.44
589.29	365.12
589.45	400.23
589.61	421.30
589.77	404.91
589.93	437.68
590.08	365.12
590.24	404.91
590.40	416.62
590.56	379.17
590.72	376.83
590.88	421.30
591.04	458.74
591.20	322.99
591.35	437.68
591.51	430.66
591.67	456.40
591.83	341.72
591.99	465.77
592.15	440.02
592.31	400.23
592.46	341.72
592.62	456.40
592.78	437.68
592.94	447.04
593.10	437.68
593.26	411.93
593.41	407.25
593.57	440.02
593.73	433.00
593.89	451.72
594.05	353.42
594.20	444.70
594.36	465.77
594.52	376.83
594.68	430.66
594.84	479.81
594.99	486.83
595.15	395.55
595.31	418.96
595.47	416.62
595.62	411.93
595.78	390.87
595.94	458.74
596.10	449.38
596.25	418.96
596.41	423.64
596.57	416.62
596.73	402.57
596.88	397.89
597.04	414.27
597.20	395.55
597.36	416.62
597.51	393.21
597.67	390.87
597.83	451.72
597.99	425.98
598.14	397.89
598.30	463.43
598.46	454.06
598.61	437.68
598.77	500.87
598.93	341.72
599.09	428.32
599.24	440.02
599.40	430.66
599.56	423.64
599.71	418.96
599.87	454.06
600.03	418.96
600.18	479.81
600.34	409.59
600.50	400.23
600.65	428.32
600.81	402.57
600.97	358.10
601.12	386.19
601.28	416.62
601.44	344.06
601.59	402.57
601.75	390.87
601.91	407.25
602.06	418.96
602.22	482.15
602.37	454.06
602.53	463.43
602.69	456.40
602.84	372.15
603.00	428.32
603.16	409.59
603.31	351.08
603.47	344.06
603.62	386.19
603.78	393.21
603.94	463.43
604.09	383.85
604.25	414.27
604.40	367.46
604.56	390.87
604.71	456.40
604.87	397.89
605.03	390.87
605.18	454.06
605.34	400.23
605.49	430.66
605.65	397.89
605.80	425.98
605.96	407.25
606.12	486.83
606.27	507.90
606.43	425.98
606.58	423.64
606.74	414.27
606.89	379.17
607.05	491.51
607.20	425.98
607.36	437.68
607.51	486.83
607.67	440.02
607.82	344.06
607.98	358.10
608.13	409.59
608.29	411.93
608.44	416.62
608.60	461.09
608.75	496.19
608.91	397.89
609.06	447.04
609.22	479.81
609.37	449.38
609.53	388.53
609.68	402.57
609.84	454.06
609.99	421.30
610.15	435.34
