SpectraSuite Data File
++++++++++++++++++++++++++++++++++++
Date: Fri Oct 25 12:11:15 EDT 2013
User: price-jones
Dark Spectrum Present: No
Reference Spectrum Present: No
Number of Sampled Component Spectra: 1
Spectrometers: USB2+H05261
Integration Time (usec): 100000 (USB2+H05261)
Spectra Averaged: 1 (USB2+H05261)
Boxcar Smoothing: 0 (USB2+H05261)
Correct for Electrical Dark: No (USB2+H05261)
Strobe/Lamp Enabled: No (USB2+H05261)
Correct for Detector Non-linearity: No (USB2+H05261)
Correct for Stray Light: No (USB2+H05261)
Number of Pixels in Processed Spectrum: 2048
>>>>>Begin Processed Spectral Data<<<<<
365.73	362.78
365.92	362.78
366.12	362.78
366.32	273.84
366.52	241.08
366.72	227.03
366.91	222.35
367.11	290.23
367.31	196.60
367.51	278.52
367.70	245.76
367.90	294.91
368.10	243.42
368.30	173.20
368.49	234.05
368.69	304.27
368.89	264.48
369.09	276.18
369.28	276.18
369.48	245.76
369.68	266.82
369.87	320.65
370.07	315.97
370.27	383.85
370.47	297.25
370.66	332.36
370.86	320.65
371.06	337.04
371.25	404.91
371.45	379.17
371.65	344.06
371.84	358.10
372.04	372.15
372.24	451.72
372.44	386.19
372.63	409.59
372.83	404.91
373.03	444.70
373.22	444.70
373.42	437.68
373.62	395.55
373.81	346.40
374.01	397.89
374.21	372.15
374.40	397.89
374.60	458.74
374.79	428.32
374.99	418.96
375.19	390.87
375.38	425.98
375.58	409.59
375.78	369.80
375.97	393.21
376.17	484.49
376.37	358.10
376.56	421.30
376.76	355.76
376.95	372.15
377.15	400.23
377.35	360.44
377.54	418.96
377.74	379.17
377.93	409.59
378.13	374.49
378.33	433.00
378.52	355.76
378.72	437.68
378.91	442.36
379.11	395.55
379.31	440.02
379.50	435.34
379.70	381.51
379.89	374.49
380.09	381.51
380.28	425.98
380.48	381.51
380.68	379.17
380.87	390.87
381.07	341.72
381.26	465.77
381.46	421.30
381.65	379.17
381.85	386.19
382.04	362.78
382.24	397.89
382.43	440.02
382.63	388.53
382.83	400.23
383.02	404.91
383.22	461.09
383.41	344.06
383.61	388.53
383.80	468.11
384.00	435.34
384.19	449.38
384.39	400.23
384.58	332.36
384.78	470.45
384.97	381.51
385.17	376.83
385.36	423.64
385.56	510.24
385.75	379.17
385.95	376.83
386.14	402.57
386.34	447.04
386.53	430.66
386.72	362.78
386.92	411.93
387.11	444.70
387.31	458.74
387.50	418.96
387.70	425.98
387.89	416.62
388.09	428.32
388.28	414.27
388.48	414.27
388.67	393.21
388.86	404.91
389.06	386.19
389.25	423.64
389.45	381.51
389.64	395.55
389.84	386.19
390.03	383.85
390.22	442.36
390.42	367.46
390.61	397.89
390.81	395.55
391.00	449.38
391.19	369.80
391.39	416.62
391.58	369.80
391.78	418.96
391.97	376.83
392.16	425.98
392.36	435.34
392.55	477.47
392.75	325.33
392.94	369.80
393.13	365.12
393.33	404.91
393.52	407.25
393.71	362.78
393.91	442.36
394.10	421.30
394.29	400.23
394.49	425.98
394.68	346.40
394.88	400.23
395.07	386.19
395.26	388.53
395.46	468.11
395.65	402.57
395.84	437.68
396.04	484.49
396.23	367.46
396.42	318.31
396.62	402.57
396.81	383.85
397.00	458.74
397.19	461.09
397.39	294.91
397.58	411.93
397.77	416.62
397.97	407.25
398.16	402.57
398.35	447.04
398.55	440.02
398.74	428.32
398.93	418.96
399.12	444.70
399.32	411.93
399.51	418.96
399.70	381.51
399.90	423.64
400.09	440.02
400.28	379.17
400.47	404.91
400.67	409.59
400.86	440.02
401.05	442.36
401.24	479.81
401.44	437.68
401.63	407.25
401.82	372.15
402.01	327.68
402.21	461.09
402.40	339.38
402.59	376.83
402.78	400.23
402.97	388.53
403.17	437.68
403.36	463.43
403.55	386.19
403.74	346.40
403.93	414.27
404.13	437.68
404.32	381.51
404.51	330.02
404.70	411.93
404.89	411.93
405.09	461.09
405.28	416.62
405.47	470.45
405.66	447.04
405.85	437.68
406.05	395.55
406.24	407.25
406.43	418.96
406.62	423.64
406.81	430.66
407.00	397.89
407.20	409.59
407.39	425.98
407.58	428.32
407.77	393.21
407.96	465.77
408.15	418.96
408.34	463.43
408.54	475.13
408.73	344.06
408.92	386.19
409.11	449.38
409.30	470.45
409.49	388.53
409.68	416.62
409.87	423.64
410.07	376.83
410.26	444.70
410.45	390.87
410.64	402.57
410.83	372.15
411.02	400.23
411.21	418.96
411.40	430.66
411.59	404.91
411.78	425.98
411.98	395.55
412.17	383.85
412.36	383.85
412.55	411.93
412.74	489.17
412.93	433.00
413.12	442.36
413.31	449.38
413.50	397.89
413.69	318.31
413.88	395.55
414.07	437.68
414.26	411.93
414.45	383.85
414.64	428.32
414.83	404.91
415.02	418.96
415.22	430.66
415.41	477.47
415.60	362.78
415.79	365.12
415.98	421.30
416.17	397.89
416.36	339.38
416.55	383.85
416.74	421.30
416.93	414.27
417.12	407.25
417.31	386.19
417.50	390.87
417.69	479.81
417.88	430.66
418.07	386.19
418.26	470.45
418.45	456.40
418.64	402.57
418.83	463.43
419.02	376.83
419.21	374.49
419.39	449.38
419.58	437.68
419.77	447.04
419.96	447.04
420.15	444.70
420.34	397.89
420.53	425.98
420.72	407.25
420.91	425.98
421.10	411.93
421.29	430.66
421.48	430.66
421.67	379.17
421.86	409.59
422.05	456.40
422.24	367.46
422.43	400.23
422.61	414.27
422.80	428.32
422.99	397.89
423.18	404.91
423.37	451.72
423.56	404.91
423.75	383.85
423.94	456.40
424.13	421.30
424.32	339.38
424.50	402.57
424.69	416.62
424.88	458.74
425.07	381.51
425.26	411.93
425.45	442.36
425.64	444.70
425.83	510.24
426.01	425.98
426.20	372.15
426.39	423.64
426.58	447.04
426.77	351.08
426.96	491.51
427.15	507.90
427.33	442.36
427.52	454.06
427.71	397.89
427.90	540.66
428.09	386.19
428.28	379.17
428.46	425.98
428.65	400.23
428.84	416.62
429.03	404.91
429.22	475.13
429.40	440.02
429.59	407.25
429.78	395.55
429.97	430.66
430.16	409.59
430.34	449.38
430.53	362.78
430.72	395.55
430.91	468.11
431.10	442.36
431.28	425.98
431.47	440.02
431.66	517.26
431.85	379.17
432.03	386.19
432.22	472.79
432.41	463.43
432.60	489.17
432.79	346.40
432.97	458.74
433.16	425.98
433.35	465.77
433.54	423.64
433.72	444.70
433.91	402.57
434.10	346.40
434.28	400.23
434.47	374.49
434.66	482.15
434.85	418.96
435.03	442.36
435.22	437.68
435.41	475.13
435.59	383.85
435.78	383.85
435.97	397.89
436.16	430.66
436.34	437.68
436.53	500.87
436.72	421.30
436.90	416.62
437.09	430.66
437.28	430.66
437.46	369.80
437.65	421.30
437.84	479.81
438.02	449.38
438.21	449.38
438.40	437.68
438.58	360.44
438.77	383.85
438.96	428.32
439.14	360.44
439.33	360.44
439.52	395.55
439.70	402.57
439.89	470.45
440.08	442.36
440.26	421.30
440.45	447.04
440.63	400.23
440.82	404.91
441.01	444.70
441.19	386.19
441.38	418.96
441.57	407.25
441.75	463.43
441.94	444.70
442.12	435.34
442.31	458.74
442.50	376.83
442.68	444.70
442.87	437.68
443.05	423.64
443.24	358.10
443.43	414.27
443.61	435.34
443.80	418.96
443.98	440.02
444.17	456.40
444.35	393.21
444.54	463.43
444.73	386.19
444.91	409.59
445.10	423.64
445.28	407.25
445.47	409.59
445.65	409.59
445.84	461.09
446.02	402.57
446.21	327.68
446.39	400.23
446.58	465.77
446.77	414.27
446.95	416.62
447.14	383.85
447.32	402.57
447.51	318.31
447.69	409.59
447.88	374.49
448.06	402.57
448.25	416.62
448.43	304.27
448.62	447.04
448.80	456.40
448.99	444.70
449.17	463.43
449.36	444.70
449.54	414.27
449.73	458.74
449.91	447.04
450.10	334.70
450.28	451.72
450.46	433.00
450.65	472.79
450.83	423.64
451.02	423.64
451.20	402.57
451.39	463.43
451.57	421.30
451.76	465.77
451.94	409.59
452.13	421.30
452.31	430.66
452.49	447.04
452.68	379.17
452.86	479.81
453.05	395.55
453.23	449.38
453.42	395.55
453.60	346.40
453.78	433.00
453.97	465.77
454.15	489.17
454.34	472.79
454.52	360.44
454.70	503.22
454.89	430.66
455.07	451.72
455.26	400.23
455.44	414.27
455.62	341.72
455.81	416.62
455.99	423.64
456.17	444.70
456.36	512.58
456.54	365.12
456.73	421.30
456.91	454.06
457.09	374.49
457.28	458.74
457.46	433.00
457.64	477.47
457.83	425.98
458.01	400.23
458.19	425.98
458.38	475.13
458.56	355.76
458.74	374.49
458.93	418.96
459.11	442.36
459.29	472.79
459.48	390.87
459.66	358.10
459.84	381.51
460.03	519.60
460.21	442.36
460.39	416.62
460.57	461.09
460.76	414.27
460.94	390.87
461.12	470.45
461.31	393.21
461.49	430.66
461.67	472.79
461.85	470.45
462.04	463.43
462.22	755.99
462.40	475.13
462.59	393.21
462.77	472.79
462.95	437.68
463.13	388.53
463.32	400.23
463.50	290.23
463.68	479.81
463.86	418.96
464.05	372.15
464.23	411.93
464.41	423.64
464.59	451.72
464.78	440.02
464.96	409.59
465.14	461.09
465.32	400.23
465.50	484.49
465.69	437.68
465.87	472.79
466.05	440.02
466.23	404.91
466.41	395.55
466.60	374.49
466.78	369.80
466.96	444.70
467.14	402.57
467.32	418.96
467.51	465.77
467.69	510.24
467.87	423.64
468.05	395.55
468.23	400.23
468.41	428.32
468.60	360.44
468.78	479.81
468.96	428.32
469.14	372.15
469.32	449.38
469.50	348.74
469.69	435.34
469.87	465.77
470.05	557.05
470.23	402.57
470.41	468.11
470.59	411.93
470.77	379.17
470.95	386.19
471.14	395.55
471.32	437.68
471.50	489.17
471.68	451.72
471.86	461.09
472.04	395.55
472.22	458.74
472.40	372.15
472.58	369.80
472.77	477.47
472.95	365.12
473.13	440.02
473.31	470.45
473.49	503.22
473.67	430.66
473.85	425.98
474.03	372.15
474.21	456.40
474.39	397.89
474.57	454.06
474.75	449.38
474.93	397.89
475.12	437.68
475.30	435.34
475.48	379.17
475.66	475.13
475.84	390.87
476.02	409.59
476.20	433.00
476.38	383.85
476.56	484.49
476.74	407.25
476.92	416.62
477.10	477.47
477.28	447.04
477.46	433.00
477.64	447.04
477.82	444.70
478.00	449.38
478.18	421.30
478.36	449.38
478.54	400.23
478.72	393.21
478.90	430.66
479.08	447.04
479.26	430.66
479.44	379.17
479.62	367.46
479.80	430.66
479.98	411.93
480.16	458.74
480.34	440.02
480.52	416.62
480.70	468.11
480.88	428.32
481.06	393.21
481.24	411.93
481.41	416.62
481.59	442.36
481.77	393.21
481.95	358.10
482.13	442.36
482.31	433.00
482.49	402.57
482.67	435.34
482.85	498.53
483.03	461.09
483.21	383.85
483.39	402.57
483.57	416.62
483.74	461.09
483.92	479.81
484.10	486.83
484.28	482.15
484.46	428.32
484.64	433.00
484.82	393.21
485.00	435.34
485.18	404.91
485.35	365.12
485.53	381.51
485.71	435.34
485.89	430.66
486.07	386.19
486.25	447.04
486.43	386.19
486.61	390.87
486.78	407.25
486.96	362.78
487.14	421.30
487.32	451.72
487.50	444.70
487.68	442.36
487.85	414.27
488.03	388.53
488.21	454.06
488.39	407.25
488.57	393.21
488.75	435.34
488.92	447.04
489.10	402.57
489.28	435.34
489.46	369.80
489.64	346.40
489.81	449.38
489.99	397.89
490.17	428.32
490.35	465.77
490.53	332.36
490.70	458.74
490.88	330.02
491.06	395.55
491.24	358.10
491.41	465.77
491.59	463.43
491.77	397.89
491.95	418.96
492.13	433.00
492.30	409.59
492.48	404.91
492.66	430.66
492.84	320.65
493.01	383.85
493.19	451.72
493.37	491.51
493.54	435.34
493.72	444.70
493.90	383.85
494.08	397.89
494.25	428.32
494.43	442.36
494.61	404.91
494.79	395.55
494.96	404.91
495.14	442.36
495.32	416.62
495.49	390.87
495.67	388.53
495.85	418.96
496.02	397.89
496.20	425.98
496.38	465.77
496.55	486.83
496.73	386.19
496.91	421.30
497.09	362.78
497.26	423.64
497.44	482.15
497.62	404.91
497.79	367.46
497.97	397.89
498.14	437.68
498.32	465.77
498.50	386.19
498.67	402.57
498.85	428.32
499.03	423.64
499.20	458.74
499.38	472.79
499.56	440.02
499.73	468.11
499.91	463.43
500.08	409.59
500.26	383.85
500.44	470.45
500.61	470.45
500.79	433.00
500.97	416.62
501.14	407.25
501.32	458.74
501.49	388.53
501.67	458.74
501.84	411.93
502.02	433.00
502.20	458.74
502.37	461.09
502.55	475.13
502.72	442.36
502.90	463.43
503.07	365.12
503.25	526.62
503.43	360.44
503.60	451.72
503.78	386.19
503.95	418.96
504.13	376.83
504.30	437.68
504.48	454.06
504.65	479.81
504.83	430.66
505.01	355.76
505.18	404.91
505.36	461.09
505.53	416.62
505.71	397.89
505.88	414.27
506.06	376.83
506.23	374.49
506.41	437.68
506.58	393.21
506.76	428.32
506.93	402.57
507.11	369.80
507.28	437.68
507.46	404.91
507.63	411.93
507.81	376.83
507.98	458.74
508.16	372.15
508.33	400.23
508.50	414.27
508.68	458.74
508.85	390.87
509.03	369.80
509.20	348.74
509.38	407.25
509.55	451.72
509.73	348.74
509.90	416.62
510.08	486.83
510.25	428.32
510.42	423.64
510.60	362.78
510.77	411.93
510.95	425.98
511.12	430.66
511.30	444.70
511.47	411.93
511.64	435.34
511.82	409.59
511.99	475.13
512.17	416.62
512.34	341.72
512.51	400.23
512.69	437.68
512.86	449.38
513.04	463.43
513.21	421.30
513.38	402.57
513.56	423.64
513.73	393.21
513.90	425.98
514.08	428.32
514.25	372.15
514.43	374.49
514.60	353.42
514.77	397.89
514.95	437.68
515.12	402.57
515.29	402.57
515.47	402.57
515.64	472.79
515.81	414.27
515.99	423.64
516.16	479.81
516.33	369.80
516.51	360.44
516.68	409.59
516.85	463.43
517.03	454.06
517.20	418.96
517.37	428.32
517.54	428.32
517.72	400.23
517.89	423.64
518.06	437.68
518.24	423.64
518.41	418.96
518.58	447.04
518.75	374.49
518.93	489.17
519.10	423.64
519.27	402.57
519.45	383.85
519.62	444.70
519.79	386.19
519.96	416.62
520.14	407.25
520.31	423.64
520.48	341.72
520.65	449.38
520.83	425.98
521.00	386.19
521.17	395.55
521.34	416.62
521.52	428.32
521.69	425.98
521.86	451.72
522.03	428.32
522.20	442.36
522.38	393.21
522.55	477.47
522.72	411.93
522.89	440.02
523.07	423.64
523.24	416.62
523.41	411.93
523.58	337.04
523.75	400.23
523.92	400.23
524.10	416.62
524.27	397.89
524.44	461.09
524.61	491.51
524.78	421.30
524.96	456.40
525.13	447.04
525.30	367.46
525.47	470.45
525.64	374.49
525.81	456.40
525.98	456.40
526.16	447.04
526.33	442.36
526.50	425.98
526.67	468.11
526.84	428.32
527.01	381.51
527.18	430.66
527.36	482.15
527.53	463.43
527.70	449.38
527.87	411.93
528.04	388.53
528.21	416.62
528.38	411.93
528.55	416.62
528.72	472.79
528.89	423.64
529.07	430.66
529.24	423.64
529.41	346.40
529.58	421.30
529.75	477.47
529.92	425.98
530.09	337.04
530.26	418.96
530.43	425.98
530.60	425.98
530.77	465.77
530.94	416.62
531.11	451.72
531.28	402.57
531.46	428.32
531.63	353.42
531.80	411.93
531.97	425.98
532.14	444.70
532.31	379.17
532.48	397.89
532.65	472.79
532.82	402.57
532.99	418.96
533.16	416.62
533.33	409.59
533.50	400.23
533.67	379.17
533.84	386.19
534.01	421.30
534.18	416.62
534.35	348.74
534.52	451.72
534.69	451.72
534.86	341.72
535.03	407.25
535.20	425.98
535.37	451.72
535.54	451.72
535.71	344.06
535.88	388.53
536.05	411.93
536.22	416.62
536.38	407.25
536.55	407.25
536.72	470.45
536.89	418.96
537.06	337.04
537.23	402.57
537.40	334.70
537.57	454.06
537.74	433.00
537.91	402.57
538.08	367.46
538.25	404.91
538.42	411.93
538.59	463.43
538.75	301.93
538.92	418.96
539.09	397.89
539.26	430.66
539.43	414.27
539.60	386.19
539.77	454.06
539.94	465.77
540.11	456.40
540.28	496.19
540.44	482.15
540.61	386.19
540.78	454.06
540.95	397.89
541.12	440.02
541.29	332.36
541.46	395.55
541.62	425.98
541.79	376.83
541.96	433.00
542.13	454.06
542.30	372.15
542.47	404.91
542.63	430.66
542.80	411.93
542.97	463.43
543.14	383.85
543.31	411.93
543.48	458.74
543.64	386.19
543.81	440.02
543.98	421.30
544.15	418.96
544.32	386.19
544.48	358.10
544.65	407.25
544.82	421.30
544.99	442.36
545.16	315.97
545.32	414.27
545.49	428.32
545.66	454.06
545.83	369.80
546.00	367.46
546.16	341.72
546.33	379.17
546.50	379.17
546.67	447.04
546.83	482.15
547.00	358.10
547.17	351.08
547.34	404.91
547.50	486.83
547.67	395.55
547.84	414.27
548.00	444.70
548.17	423.64
548.34	440.02
548.51	461.09
548.67	465.77
548.84	442.36
549.01	407.25
549.18	433.00
549.34	475.13
549.51	313.63
549.68	463.43
549.84	376.83
550.01	524.28
550.18	435.34
550.34	388.53
550.51	430.66
550.68	386.19
550.84	447.04
551.01	402.57
551.18	414.27
551.34	433.00
551.51	479.81
551.68	414.27
551.84	421.30
552.01	362.78
552.18	388.53
552.34	425.98
552.51	395.55
552.68	386.19
552.84	414.27
553.01	444.70
553.18	421.30
553.34	437.68
553.51	468.11
553.67	433.00
553.84	433.00
554.01	402.57
554.17	381.51
554.34	461.09
554.51	465.77
554.67	470.45
554.84	407.25
555.00	411.93
555.17	404.91
555.33	435.34
555.50	423.64
555.67	421.30
555.83	407.25
556.00	383.85
556.16	524.28
556.33	430.66
556.50	367.46
556.66	362.78
556.83	383.85
556.99	421.30
557.16	376.83
557.32	409.59
557.49	374.49
557.65	369.80
557.82	369.80
557.98	400.23
558.15	397.89
558.32	388.53
558.48	418.96
558.65	388.53
558.81	440.02
558.98	407.25
559.14	451.72
559.31	437.68
559.47	397.89
559.64	435.34
559.80	437.68
559.97	430.66
560.13	435.34
560.30	376.83
560.46	447.04
560.63	402.57
560.79	458.74
560.96	421.30
561.12	390.87
561.29	456.40
561.45	433.00
561.61	390.87
561.78	400.23
561.94	386.19
562.11	477.47
562.27	435.34
562.44	383.85
562.60	440.02
562.77	416.62
562.93	442.36
563.10	447.04
563.26	421.30
563.42	449.38
563.59	367.46
563.75	416.62
563.92	444.70
564.08	411.93
564.24	414.27
564.41	442.36
564.57	388.53
564.74	414.27
564.90	458.74
565.07	470.45
565.23	397.89
565.39	440.02
565.56	435.34
565.72	416.62
565.88	376.83
566.05	423.64
566.21	411.93
566.38	402.57
566.54	353.42
566.70	463.43
566.87	456.40
567.03	353.42
567.19	404.91
567.36	414.27
567.52	374.49
567.68	428.32
567.85	470.45
568.01	404.91
568.17	423.64
568.34	461.09
568.50	449.38
568.66	433.00
568.83	386.19
568.99	451.72
569.15	456.40
569.32	402.57
569.48	381.51
569.64	414.27
569.81	421.30
569.97	386.19
570.13	416.62
570.30	390.87
570.46	423.64
570.62	409.59
570.78	435.34
570.95	418.96
571.11	421.30
571.27	402.57
571.43	416.62
571.60	477.47
571.76	463.43
571.92	435.34
572.09	402.57
572.25	433.00
572.41	393.21
572.57	456.40
572.74	461.09
572.90	496.19
573.06	437.68
573.22	418.96
573.38	458.74
573.55	402.57
573.71	379.17
573.87	505.56
574.03	355.76
574.20	414.27
574.36	479.81
574.52	383.85
574.68	423.64
574.84	435.34
575.01	400.23
575.17	386.19
575.33	402.57
575.49	484.49
575.65	440.02
575.82	458.74
575.98	388.53
576.14	400.23
576.30	397.89
576.46	435.34
576.62	395.55
576.79	397.89
576.95	407.25
577.11	437.68
577.27	362.78
577.43	407.25
577.59	475.13
577.75	379.17
577.92	390.87
578.08	454.06
578.24	470.45
578.40	381.51
578.56	395.55
578.72	451.72
578.88	496.19
579.04	404.91
579.21	440.02
579.37	423.64
579.53	397.89
579.69	400.23
579.85	472.79
580.01	383.85
580.17	360.44
580.33	409.59
580.49	416.62
580.65	407.25
580.82	463.43
580.98	339.38
581.14	442.36
581.30	430.66
581.46	447.04
581.62	409.59
581.78	454.06
581.94	491.51
582.10	395.55
582.26	461.09
582.42	477.47
582.58	430.66
582.74	360.44
582.90	437.68
583.06	489.17
583.22	318.31
583.38	369.80
583.54	400.23
583.70	397.89
583.86	456.40
584.02	393.21
584.18	369.80
584.34	468.11
584.50	397.89
584.66	362.78
584.82	437.68
584.98	390.87
585.14	407.25
585.30	433.00
585.46	409.59
585.62	388.53
585.78	425.98
585.94	449.38
586.10	503.22
586.26	402.57
586.42	526.62
586.58	407.25
586.74	404.91
586.90	353.42
587.06	477.47
587.22	435.34
587.38	400.23
587.54	322.99
587.70	428.32
587.86	454.06
588.02	440.02
588.18	383.85
588.34	400.23
588.49	379.17
588.65	463.43
588.81	440.02
588.97	395.55
589.13	421.30
589.29	411.93
589.45	500.87
589.61	465.77
589.77	341.72
589.93	440.02
590.08	423.64
590.24	489.17
590.40	496.19
590.56	463.43
590.72	383.85
590.88	416.62
591.04	383.85
591.20	409.59
591.35	479.81
591.51	451.72
591.67	465.77
591.83	496.19
591.99	416.62
592.15	383.85
592.31	416.62
592.46	463.43
592.62	386.19
592.78	428.32
592.94	435.34
593.10	425.98
593.26	440.02
593.41	447.04
593.57	388.53
593.73	388.53
593.89	440.02
594.05	411.93
594.20	435.34
594.36	404.91
594.52	397.89
594.68	423.64
594.84	404.91
594.99	421.30
595.15	374.49
595.31	477.47
595.47	468.11
595.62	395.55
595.78	388.53
595.94	472.79
596.10	374.49
596.25	463.43
596.41	400.23
596.57	440.02
596.73	449.38
596.88	381.51
597.04	372.15
597.20	369.80
597.36	440.02
597.51	423.64
597.67	386.19
597.83	451.72
597.99	416.62
598.14	433.00
598.30	379.17
598.46	397.89
598.61	442.36
598.77	308.95
598.93	374.49
599.09	416.62
599.24	458.74
599.40	479.81
599.56	444.70
599.71	400.23
599.87	393.21
600.03	409.59
600.18	407.25
600.34	411.93
600.50	454.06
600.65	400.23
600.81	500.87
600.97	430.66
601.12	484.49
601.28	423.64
601.44	461.09
601.59	381.51
601.75	456.40
601.91	437.68
602.06	461.09
602.22	489.17
602.37	402.57
602.53	425.98
602.69	386.19
602.84	388.53
603.00	423.64
603.16	430.66
603.31	423.64
603.47	428.32
603.62	463.43
603.78	423.64
603.94	421.30
604.09	390.87
604.25	458.74
604.40	365.12
604.56	479.81
604.71	416.62
604.87	339.38
605.03	362.78
605.18	409.59
605.34	442.36
605.49	444.70
605.65	421.30
605.80	360.44
605.96	456.40
606.12	409.59
606.27	402.57
606.43	390.87
606.58	421.30
606.74	393.21
606.89	360.44
607.05	404.91
607.20	369.80
607.36	416.62
607.51	458.74
607.67	409.59
607.82	437.68
607.98	484.49
608.13	470.45
608.29	465.77
608.44	493.85
608.60	407.25
608.75	477.47
608.91	393.21
609.06	395.55
609.22	407.25
609.37	449.38
609.53	409.59
609.68	416.62
609.84	308.95
609.99	397.89
610.15	440.02
