SpectraSuite Data File
++++++++++++++++++++++++++++++++++++
Date: Fri Oct 25 12:11:16 EDT 2013
User: price-jones
Dark Spectrum Present: No
Reference Spectrum Present: No
Number of Sampled Component Spectra: 1
Spectrometers: USB2+H05261
Integration Time (usec): 100000 (USB2+H05261)
Spectra Averaged: 1 (USB2+H05261)
Boxcar Smoothing: 0 (USB2+H05261)
Correct for Electrical Dark: No (USB2+H05261)
Strobe/Lamp Enabled: No (USB2+H05261)
Correct for Detector Non-linearity: No (USB2+H05261)
Correct for Stray Light: No (USB2+H05261)
Number of Pixels in Processed Spectrum: 2048
>>>>>Begin Processed Spectral Data<<<<<
365.73	341.72
365.92	341.72
366.12	341.72
366.32	327.68
366.52	191.92
366.72	241.08
366.91	231.71
367.11	227.03
367.31	231.71
367.51	229.37
367.70	269.16
367.90	238.73
368.10	248.10
368.30	236.39
368.49	259.80
368.69	205.97
368.89	264.48
369.09	238.73
369.28	367.46
369.48	280.86
369.68	250.44
369.87	306.61
370.07	344.06
370.27	280.86
370.47	355.76
370.66	294.91
370.86	276.18
371.06	411.93
371.25	437.68
371.45	318.31
371.65	383.85
371.84	348.74
372.04	393.21
372.24	404.91
372.44	365.12
372.63	390.87
372.83	386.19
373.03	423.64
373.22	425.98
373.42	372.15
373.62	400.23
373.81	407.25
374.01	397.89
374.21	449.38
374.40	386.19
374.60	454.06
374.79	479.81
374.99	433.00
375.19	472.79
375.38	435.34
375.58	456.40
375.78	435.34
375.97	479.81
376.17	454.06
376.37	444.70
376.56	416.62
376.76	409.59
376.95	383.85
377.15	472.79
377.35	423.64
377.54	442.36
377.74	344.06
377.93	423.64
378.13	461.09
378.33	395.55
378.52	418.96
378.72	458.74
378.91	418.96
379.11	454.06
379.31	397.89
379.50	409.59
379.70	372.15
379.89	360.44
380.09	425.98
380.28	486.83
380.48	411.93
380.68	367.46
380.87	428.32
381.07	472.79
381.26	465.77
381.46	344.06
381.65	437.68
381.85	395.55
382.04	442.36
382.24	386.19
382.43	402.57
382.63	407.25
382.83	404.91
383.02	454.06
383.22	395.55
383.41	362.78
383.61	414.27
383.80	440.02
384.00	327.68
384.19	337.04
384.39	423.64
384.58	411.93
384.78	395.55
384.97	449.38
385.17	404.91
385.36	409.59
385.56	447.04
385.75	341.72
385.95	463.43
386.14	442.36
386.34	369.80
386.53	360.44
386.72	388.53
386.92	418.96
387.11	475.13
387.31	369.80
387.50	367.46
387.70	379.17
387.89	435.34
388.09	358.10
388.28	362.78
388.48	325.33
388.67	402.57
388.86	411.93
389.06	433.00
389.25	444.70
389.45	421.30
389.64	397.89
389.84	402.57
390.03	341.72
390.22	334.70
390.42	334.70
390.61	409.59
390.81	454.06
391.00	402.57
391.19	425.98
391.39	418.96
391.58	425.98
391.78	365.12
391.97	372.15
392.16	423.64
392.36	430.66
392.55	409.59
392.75	393.21
392.94	407.25
393.13	376.83
393.33	383.85
393.52	360.44
393.71	440.02
393.91	404.91
394.10	374.49
394.29	383.85
394.49	351.08
394.68	355.76
394.88	334.70
395.07	463.43
395.26	411.93
395.46	395.55
395.65	351.08
395.84	418.96
396.04	404.91
396.23	414.27
396.42	409.59
396.62	407.25
396.81	414.27
397.00	468.11
397.19	416.62
397.39	369.80
397.58	433.00
397.77	423.64
397.97	458.74
398.16	421.30
398.35	442.36
398.55	390.87
398.74	414.27
398.93	430.66
399.12	407.25
399.32	489.17
399.51	416.62
399.70	442.36
399.90	367.46
400.09	428.32
400.28	367.46
400.47	390.87
400.67	447.04
400.86	421.30
401.05	402.57
401.24	463.43
401.44	402.57
401.63	393.21
401.82	348.74
402.01	442.36
402.21	414.27
402.40	374.49
402.59	416.62
402.78	447.04
402.97	411.93
403.17	414.27
403.36	400.23
403.55	330.02
403.74	461.09
403.93	383.85
404.13	407.25
404.32	416.62
404.51	463.43
404.70	397.89
404.89	369.80
405.09	475.13
405.28	430.66
405.47	397.89
405.66	334.70
405.85	517.26
406.05	440.02
406.24	334.70
406.43	449.38
406.62	386.19
406.81	430.66
407.00	484.49
407.20	428.32
407.39	337.04
407.58	346.40
407.77	404.91
407.96	440.02
408.15	379.17
408.34	358.10
408.54	425.98
408.73	463.43
408.92	362.78
409.11	451.72
409.30	435.34
409.49	388.53
409.68	372.15
409.87	451.72
410.07	325.33
410.26	397.89
410.45	386.19
410.64	360.44
410.83	418.96
411.02	482.15
411.21	395.55
411.40	402.57
411.59	381.51
411.78	402.57
411.98	435.34
412.17	416.62
412.36	390.87
412.55	388.53
412.74	472.79
412.93	437.68
413.12	477.47
413.31	493.85
413.50	456.40
413.69	407.25
413.88	435.34
414.07	454.06
414.26	376.83
414.45	327.68
414.64	395.55
414.83	390.87
415.02	423.64
415.22	430.66
415.41	472.79
415.60	404.91
415.79	355.76
415.98	390.87
416.17	365.12
416.36	348.74
416.55	454.06
416.74	437.68
416.93	479.81
417.12	428.32
417.31	397.89
417.50	423.64
417.69	376.83
417.88	390.87
418.07	369.80
418.26	402.57
418.45	362.78
418.64	404.91
418.83	407.25
419.02	386.19
419.21	332.36
419.39	435.34
419.58	404.91
419.77	383.85
419.96	407.25
420.15	484.49
420.34	400.23
420.53	456.40
420.72	332.36
420.91	442.36
421.10	409.59
421.29	353.42
421.48	402.57
421.67	475.13
421.86	292.57
422.05	423.64
422.24	332.36
422.43	407.25
422.61	367.46
422.80	479.81
422.99	390.87
423.18	421.30
423.37	447.04
423.56	353.42
423.75	486.83
423.94	383.85
424.13	353.42
424.32	416.62
424.50	454.06
424.69	402.57
424.88	428.32
425.07	362.78
425.26	498.53
425.45	461.09
425.64	442.36
425.83	397.89
426.01	393.21
426.20	440.02
426.39	369.80
426.58	393.21
426.77	369.80
426.96	346.40
427.15	372.15
427.33	418.96
427.52	418.96
427.71	381.51
427.90	407.25
428.09	425.98
428.28	468.11
428.46	400.23
428.65	428.32
428.84	451.72
429.03	414.27
429.22	372.15
429.40	388.53
429.59	388.53
429.78	402.57
429.97	433.00
430.16	374.49
430.34	454.06
430.53	383.85
430.72	372.15
430.91	374.49
431.10	362.78
431.28	381.51
431.47	463.43
431.66	468.11
431.85	416.62
432.03	397.89
432.22	484.49
432.41	395.55
432.60	468.11
432.79	447.04
432.97	393.21
433.16	435.34
433.35	337.04
433.54	376.83
433.72	437.68
433.91	407.25
434.10	402.57
434.28	430.66
434.47	425.98
434.66	411.93
434.85	447.04
435.03	402.57
435.22	397.89
435.41	421.30
435.59	414.27
435.78	404.91
435.97	425.98
436.16	449.38
436.34	442.36
436.53	423.64
436.72	465.77
436.90	393.21
437.09	451.72
437.28	421.30
437.46	447.04
437.65	503.22
437.84	451.72
438.02	470.45
438.21	376.83
438.40	351.08
438.58	381.51
438.77	475.13
438.96	468.11
439.14	322.99
439.33	475.13
439.52	416.62
439.70	355.76
439.89	367.46
440.08	414.27
440.26	390.87
440.45	409.59
440.63	407.25
440.82	414.27
441.01	388.53
441.19	395.55
441.38	402.57
441.57	390.87
441.75	475.13
441.94	468.11
442.12	472.79
442.31	407.25
442.50	386.19
442.68	435.34
442.87	433.00
443.05	416.62
443.24	379.17
443.43	496.19
443.61	512.58
443.80	451.72
443.98	374.49
444.17	416.62
444.35	421.30
444.54	425.98
444.73	376.83
444.91	411.93
445.10	374.49
445.28	402.57
445.47	433.00
445.65	430.66
445.84	418.96
446.02	374.49
446.21	430.66
446.39	402.57
446.58	433.00
446.77	407.25
446.95	346.40
447.14	409.59
447.32	423.64
447.51	444.70
447.69	425.98
447.88	372.15
448.06	451.72
448.25	449.38
448.43	435.34
448.62	351.08
448.80	416.62
448.99	468.11
449.17	423.64
449.36	458.74
449.54	423.64
449.73	379.17
449.91	362.78
450.10	397.89
450.28	411.93
450.46	444.70
450.65	414.27
450.83	393.21
451.02	414.27
451.20	451.72
451.39	475.13
451.57	414.27
451.76	449.38
451.94	393.21
452.13	465.77
452.31	416.62
452.49	416.62
452.68	369.80
452.86	407.25
453.05	414.27
453.23	416.62
453.42	386.19
453.60	433.00
453.78	351.08
453.97	421.30
454.15	365.12
454.34	435.34
454.52	472.79
454.70	400.23
454.89	381.51
455.07	355.76
455.26	442.36
455.44	428.32
455.62	447.04
455.81	369.80
455.99	395.55
456.17	404.91
456.36	423.64
456.54	435.34
456.73	421.30
456.91	440.02
457.09	465.77
457.28	451.72
457.46	428.32
457.64	451.72
457.83	437.68
458.01	404.91
458.19	458.74
458.38	409.59
458.56	451.72
458.74	430.66
458.93	379.17
459.11	423.64
459.29	379.17
459.48	444.70
459.66	440.02
459.84	451.72
460.03	475.13
460.21	348.74
460.39	433.00
460.57	425.98
460.76	402.57
460.94	397.89
461.12	484.49
461.31	461.09
461.49	383.85
461.67	390.87
461.85	402.57
462.04	339.38
462.22	674.07
462.40	461.09
462.59	372.15
462.77	425.98
462.95	395.55
463.13	416.62
463.32	400.23
463.50	339.38
463.68	442.36
463.86	423.64
464.05	374.49
464.23	355.76
464.41	418.96
464.59	390.87
464.78	400.23
464.96	390.87
465.14	472.79
465.32	414.27
465.50	442.36
465.69	486.83
465.87	404.91
466.05	404.91
466.23	442.36
466.41	376.83
466.60	447.04
466.78	409.59
466.96	416.62
467.14	360.44
467.32	367.46
467.51	468.11
467.69	468.11
467.87	493.85
468.05	463.43
468.23	402.57
468.41	468.11
468.60	362.78
468.78	433.00
468.96	418.96
469.14	397.89
469.32	458.74
469.50	376.83
469.69	428.32
469.87	416.62
470.05	421.30
470.23	407.25
470.41	421.30
470.59	395.55
470.77	451.72
470.95	393.21
471.14	402.57
471.32	383.85
471.50	367.46
471.68	404.91
471.86	465.77
472.04	386.19
472.22	477.47
472.40	381.51
472.58	416.62
472.77	411.93
472.95	435.34
473.13	407.25
473.31	454.06
473.49	435.34
473.67	407.25
473.85	407.25
474.03	369.80
474.21	400.23
474.39	540.66
474.57	449.38
474.75	393.21
474.93	421.30
475.12	423.64
475.30	351.08
475.48	402.57
475.66	395.55
475.84	402.57
476.02	407.25
476.20	475.13
476.38	428.32
476.56	435.34
476.74	388.53
476.92	395.55
477.10	430.66
477.28	421.30
477.46	407.25
477.64	388.53
477.82	425.98
478.00	463.43
478.18	444.70
478.36	421.30
478.54	465.77
478.72	402.57
478.90	428.32
479.08	531.30
479.26	404.91
479.44	451.72
479.62	315.97
479.80	425.98
479.98	381.51
480.16	489.17
480.34	465.77
480.52	402.57
480.70	421.30
480.88	409.59
481.06	381.51
481.24	514.92
481.41	402.57
481.59	428.32
481.77	383.85
481.95	475.13
482.13	425.98
482.31	458.74
482.49	386.19
482.67	395.55
482.85	421.30
483.03	428.32
483.21	421.30
483.39	311.29
483.57	393.21
483.74	512.58
483.92	381.51
484.10	425.98
484.28	519.60
484.46	454.06
484.64	433.00
484.82	376.83
485.00	449.38
485.18	400.23
485.35	486.83
485.53	428.32
485.71	421.30
485.89	395.55
486.07	383.85
486.25	421.30
486.43	442.36
486.61	486.83
486.78	404.91
486.96	390.87
487.14	449.38
487.32	433.00
487.50	425.98
487.68	414.27
487.85	374.49
488.03	383.85
488.21	383.85
488.39	472.79
488.57	451.72
488.75	454.06
488.92	526.62
489.10	430.66
489.28	423.64
489.46	418.96
489.64	421.30
489.81	409.59
489.99	402.57
490.17	381.51
490.35	463.43
490.53	381.51
490.70	454.06
490.88	458.74
491.06	353.42
491.24	449.38
491.41	414.27
491.59	383.85
491.77	388.53
491.95	442.36
492.13	409.59
492.30	458.74
492.48	440.02
492.66	512.58
492.84	381.51
493.01	425.98
493.19	358.10
493.37	461.09
493.54	381.51
493.72	472.79
493.90	400.23
494.08	416.62
494.25	451.72
494.43	395.55
494.61	381.51
494.79	374.49
494.96	433.00
495.14	449.38
495.32	381.51
495.49	404.91
495.67	411.93
495.85	430.66
496.02	442.36
496.20	521.94
496.38	428.32
496.55	407.25
496.73	400.23
496.91	465.77
497.09	416.62
497.26	393.21
497.44	442.36
497.62	337.04
497.79	404.91
497.97	393.21
498.14	423.64
498.32	400.23
498.50	423.64
498.67	421.30
498.85	386.19
499.03	479.81
499.20	409.59
499.38	440.02
499.56	404.91
499.73	440.02
499.91	407.25
500.08	470.45
500.26	400.23
500.44	388.53
500.61	411.93
500.79	425.98
500.97	447.04
501.14	411.93
501.32	472.79
501.49	454.06
501.67	430.66
501.84	402.57
502.02	393.21
502.20	409.59
502.37	395.55
502.55	369.80
502.72	388.53
502.90	416.62
503.07	423.64
503.25	454.06
503.43	423.64
503.60	423.64
503.78	484.49
503.95	454.06
504.13	400.23
504.30	507.90
504.48	358.10
504.65	418.96
504.83	440.02
505.01	435.34
505.18	407.25
505.36	395.55
505.53	376.83
505.71	393.21
505.88	393.21
506.06	407.25
506.23	358.10
506.41	421.30
506.58	482.15
506.76	306.61
506.93	369.80
507.11	435.34
507.28	449.38
507.46	367.46
507.63	372.15
507.81	442.36
507.98	425.98
508.16	489.17
508.33	355.76
508.50	425.98
508.68	425.98
508.85	332.36
509.03	337.04
509.20	461.09
509.38	433.00
509.55	447.04
509.73	477.47
509.90	437.68
510.08	470.45
510.25	440.02
510.42	451.72
510.60	486.83
510.77	444.70
510.95	416.62
511.12	454.06
511.30	440.02
511.47	381.51
511.64	428.32
511.82	409.59
511.99	402.57
512.17	447.04
512.34	369.80
512.51	327.68
512.69	437.68
512.86	458.74
513.04	411.93
513.21	388.53
513.38	362.78
513.56	367.46
513.73	425.98
513.90	393.21
514.08	332.36
514.25	407.25
514.43	381.51
514.60	360.44
514.77	362.78
514.95	463.43
515.12	369.80
515.29	442.36
515.47	423.64
515.64	409.59
515.81	416.62
515.99	430.66
516.16	458.74
516.33	463.43
516.51	348.74
516.68	456.40
516.85	313.63
517.03	318.31
517.20	393.21
517.37	454.06
517.54	451.72
517.72	374.49
517.89	369.80
518.06	362.78
518.24	505.56
518.41	479.81
518.58	463.43
518.75	428.32
518.93	491.51
519.10	402.57
519.27	461.09
519.45	435.34
519.62	430.66
519.79	395.55
519.96	402.57
520.14	428.32
520.31	423.64
520.48	463.43
520.65	390.87
520.83	437.68
521.00	414.27
521.17	400.23
521.34	397.89
521.52	486.83
521.69	437.68
521.86	418.96
522.03	449.38
522.20	475.13
522.38	416.62
522.55	390.87
522.72	379.17
522.89	503.22
523.07	435.34
523.24	442.36
523.41	416.62
523.58	365.12
523.75	327.68
523.92	369.80
524.10	395.55
524.27	465.77
524.44	372.15
524.61	416.62
524.78	367.46
524.96	414.27
525.13	423.64
525.30	409.59
525.47	393.21
525.64	353.42
525.81	433.00
525.98	369.80
526.16	507.90
526.33	430.66
526.50	423.64
526.67	430.66
526.84	440.02
527.01	404.91
527.18	386.19
527.36	395.55
527.53	397.89
527.70	447.04
527.87	461.09
528.04	421.30
528.21	351.08
528.38	397.89
528.55	493.85
528.72	400.23
528.89	379.17
529.07	397.89
529.24	489.17
529.41	444.70
529.58	425.98
529.75	355.76
529.92	388.53
530.09	425.98
530.26	449.38
530.43	383.85
530.60	379.17
530.77	437.68
530.94	428.32
531.11	444.70
531.28	381.51
531.46	416.62
531.63	374.49
531.80	454.06
531.97	472.79
532.14	440.02
532.31	437.68
532.48	360.44
532.65	449.38
532.82	393.21
532.99	400.23
533.16	475.13
533.33	465.77
533.50	409.59
533.67	388.53
533.84	449.38
534.01	451.72
534.18	437.68
534.35	400.23
534.52	386.19
534.69	423.64
534.86	362.78
535.03	381.51
535.20	428.32
535.37	430.66
535.54	421.30
535.71	447.04
535.88	512.58
536.05	437.68
536.22	528.96
536.38	402.57
536.55	418.96
536.72	395.55
536.89	433.00
537.06	369.80
537.23	454.06
537.40	397.89
537.57	376.83
537.74	376.83
537.91	400.23
538.08	472.79
538.25	388.53
538.42	409.59
538.59	376.83
538.75	346.40
538.92	404.91
539.09	442.36
539.26	423.64
539.43	491.51
539.60	433.00
539.77	442.36
539.94	458.74
540.11	390.87
540.28	486.83
540.44	468.11
540.61	416.62
540.78	388.53
540.95	447.04
541.12	430.66
541.29	437.68
541.46	381.51
541.62	409.59
541.79	433.00
541.96	472.79
542.13	470.45
542.30	428.32
542.47	517.26
542.63	437.68
542.80	388.53
542.97	442.36
543.14	435.34
543.31	411.93
543.48	397.89
543.64	470.45
543.81	393.21
543.98	379.17
544.15	376.83
544.32	456.40
544.48	465.77
544.65	423.64
544.82	500.87
544.99	458.74
545.16	435.34
545.32	409.59
545.49	428.32
545.66	430.66
545.83	425.98
546.00	414.27
546.16	428.32
546.33	416.62
546.50	397.89
546.67	477.47
546.83	402.57
547.00	362.78
547.17	395.55
547.34	393.21
547.50	468.11
547.67	418.96
547.84	423.64
548.00	430.66
548.17	393.21
548.34	418.96
548.51	463.43
548.67	477.47
548.84	404.91
549.01	468.11
549.18	411.93
549.34	407.25
549.51	430.66
549.68	395.55
549.84	383.85
550.01	461.09
550.18	423.64
550.34	402.57
550.51	493.85
550.68	395.55
550.84	442.36
551.01	386.19
551.18	379.17
551.34	351.08
551.51	374.49
551.68	402.57
551.84	409.59
552.01	409.59
552.18	409.59
552.34	444.70
552.51	428.32
552.68	454.06
552.84	390.87
553.01	374.49
553.18	421.30
553.34	423.64
553.51	421.30
553.67	379.17
553.84	458.74
554.01	381.51
554.17	423.64
554.34	470.45
554.51	425.98
554.67	442.36
554.84	393.21
555.00	369.80
555.17	514.92
555.33	407.25
555.50	430.66
555.67	388.53
555.83	486.83
556.00	425.98
556.16	505.56
556.33	423.64
556.50	402.57
556.66	465.77
556.83	411.93
556.99	442.36
557.16	414.27
557.32	447.04
557.49	449.38
557.65	315.97
557.82	440.02
557.98	440.02
558.15	435.34
558.32	423.64
558.48	435.34
558.65	393.21
558.81	458.74
558.98	461.09
559.14	402.57
559.31	395.55
559.47	383.85
559.64	458.74
559.80	416.62
559.97	468.11
560.13	395.55
560.30	463.43
560.46	435.34
560.63	388.53
560.79	435.34
560.96	416.62
561.12	407.25
561.29	376.83
561.45	376.83
561.61	468.11
561.78	435.34
561.94	463.43
562.11	425.98
562.27	421.30
562.44	486.83
562.60	383.85
562.77	449.38
562.93	475.13
563.10	348.74
563.26	402.57
563.42	423.64
563.59	486.83
563.75	451.72
563.92	468.11
564.08	393.21
564.24	393.21
564.41	411.93
564.57	437.68
564.74	393.21
564.90	428.32
565.07	479.81
565.23	437.68
565.39	369.80
565.56	404.91
565.72	362.78
565.88	367.46
566.05	362.78
566.21	430.66
566.38	388.53
566.54	444.70
566.70	421.30
566.87	376.83
567.03	409.59
567.19	437.68
567.36	463.43
567.52	395.55
567.68	463.43
567.85	437.68
568.01	400.23
568.17	486.83
568.34	423.64
568.50	514.92
568.66	440.02
568.83	411.93
568.99	411.93
569.15	451.72
569.32	395.55
569.48	421.30
569.64	451.72
569.81	423.64
569.97	475.13
570.13	393.21
570.30	477.47
570.46	451.72
570.62	433.00
570.78	425.98
570.95	402.57
571.11	454.06
571.27	454.06
571.43	390.87
571.60	409.59
571.76	397.89
571.92	454.06
572.09	348.74
572.25	458.74
572.41	447.04
572.57	470.45
572.74	472.79
572.90	402.57
573.06	416.62
573.22	447.04
573.38	470.45
573.55	440.02
573.71	402.57
573.87	376.83
574.03	379.17
574.20	435.34
574.36	444.70
574.52	428.32
574.68	400.23
574.84	383.85
575.01	421.30
575.17	442.36
575.33	430.66
575.49	428.32
575.65	430.66
575.82	479.81
575.98	433.00
576.14	376.83
576.30	430.66
576.46	425.98
576.62	409.59
576.79	407.25
576.95	435.34
577.11	397.89
577.27	423.64
577.43	435.34
577.59	496.19
577.75	447.04
577.92	493.85
578.08	472.79
578.24	407.25
578.40	493.85
578.56	433.00
578.72	433.00
578.88	449.38
579.04	447.04
579.21	407.25
579.37	402.57
579.53	444.70
579.69	409.59
579.85	395.55
580.01	381.51
580.17	423.64
580.33	451.72
580.49	440.02
580.65	404.91
580.82	379.17
580.98	369.80
581.14	421.30
581.30	484.49
581.46	409.59
581.62	423.64
581.78	454.06
581.94	402.57
582.10	411.93
582.26	360.44
582.42	369.80
582.58	421.30
582.74	393.21
582.90	430.66
583.06	381.51
583.22	404.91
583.38	388.53
583.54	425.98
583.70	477.47
583.86	421.30
584.02	449.38
584.18	416.62
584.34	402.57
584.50	386.19
584.66	393.21
584.82	451.72
584.98	418.96
585.14	451.72
585.30	390.87
585.46	393.21
585.62	461.09
585.78	388.53
585.94	440.02
586.10	451.72
586.26	362.78
586.42	447.04
586.58	358.10
586.74	360.44
586.90	430.66
587.06	461.09
587.22	423.64
587.38	330.02
587.54	386.19
587.70	430.66
587.86	468.11
588.02	383.85
588.18	416.62
588.34	374.49
588.49	395.55
588.65	416.62
588.81	425.98
588.97	402.57
589.13	456.40
589.29	404.91
589.45	433.00
589.61	491.51
589.77	418.96
589.93	451.72
590.08	416.62
590.24	393.21
590.40	428.32
590.56	468.11
590.72	510.24
590.88	379.17
591.04	435.34
591.20	430.66
591.35	449.38
591.51	409.59
591.67	472.79
591.83	414.27
591.99	390.87
592.15	433.00
592.31	379.17
592.46	456.40
592.62	454.06
592.78	395.55
592.94	440.02
593.10	379.17
593.26	442.36
593.41	442.36
593.57	393.21
593.73	404.91
593.89	444.70
594.05	411.93
594.20	461.09
594.36	440.02
594.52	395.55
594.68	418.96
594.84	397.89
594.99	498.53
595.15	451.72
595.31	421.30
595.47	344.06
595.62	393.21
595.78	425.98
595.94	463.43
596.10	407.25
596.25	477.47
596.41	449.38
596.57	372.15
596.73	449.38
596.88	402.57
597.04	425.98
597.20	454.06
597.36	514.92
597.51	433.00
597.67	409.59
597.83	472.79
597.99	444.70
598.14	374.49
598.30	468.11
598.46	468.11
598.61	383.85
598.77	402.57
598.93	337.04
599.09	456.40
599.24	437.68
599.40	454.06
599.56	444.70
599.71	418.96
599.87	435.34
600.03	430.66
600.18	381.51
600.34	388.53
600.50	418.96
600.65	425.98
600.81	454.06
600.97	386.19
601.12	454.06
601.28	442.36
601.44	428.32
601.59	390.87
601.75	435.34
601.91	362.78
602.06	447.04
602.22	444.70
602.37	386.19
602.53	418.96
602.69	400.23
602.84	388.53
603.00	416.62
603.16	479.81
603.31	362.78
603.47	379.17
603.62	390.87
603.78	477.47
603.94	428.32
604.09	428.32
604.25	362.78
604.40	454.06
604.56	379.17
604.71	400.23
604.87	360.44
605.03	440.02
605.18	493.85
605.34	461.09
605.49	433.00
605.65	400.23
605.80	400.23
605.96	393.21
606.12	395.55
606.27	416.62
606.43	393.21
606.58	451.72
606.74	393.21
606.89	470.45
607.05	444.70
607.20	468.11
607.36	402.57
607.51	341.72
607.67	386.19
607.82	418.96
607.98	416.62
608.13	482.15
608.29	444.70
608.44	479.81
608.60	404.91
608.75	477.47
608.91	458.74
609.06	395.55
609.22	418.96
609.37	414.27
609.53	411.93
609.68	383.85
609.84	414.27
609.99	461.09
610.15	440.02
