SpectraSuite Data File
++++++++++++++++++++++++++++++++++++
Date: Fri Oct 25 12:10:45 EDT 2013
User: price-jones
Dark Spectrum Present: No
Reference Spectrum Present: No
Number of Sampled Component Spectra: 1
Spectrometers: USB2+H05261
Integration Time (usec): 100000 (USB2+H05261)
Spectra Averaged: 1 (USB2+H05261)
Boxcar Smoothing: 0 (USB2+H05261)
Correct for Electrical Dark: No (USB2+H05261)
Strobe/Lamp Enabled: No (USB2+H05261)
Correct for Detector Non-linearity: No (USB2+H05261)
Correct for Stray Light: No (USB2+H05261)
Number of Pixels in Processed Spectrum: 2048
>>>>>Begin Processed Spectral Data<<<<<
365.73	287.89
365.92	287.89
366.12	287.89
366.32	262.14
366.52	252.78
366.72	301.93
366.91	283.20
367.11	262.14
367.31	241.08
367.51	201.29
367.70	201.29
367.90	255.12
368.10	238.73
368.30	236.39
368.49	201.29
368.69	229.37
368.89	245.76
369.09	194.26
369.28	252.78
369.48	311.29
369.68	313.63
369.87	362.78
370.07	315.97
370.27	332.36
370.47	334.70
370.66	365.12
370.86	404.91
371.06	339.38
371.25	425.98
371.45	400.23
371.65	334.70
371.84	409.59
372.04	311.29
372.24	390.87
372.44	435.34
372.63	376.83
372.83	458.74
373.03	444.70
373.22	362.78
373.42	451.72
373.62	430.66
373.81	444.70
374.01	477.47
374.21	353.42
374.40	449.38
374.60	442.36
374.79	411.93
374.99	407.25
375.19	461.09
375.38	409.59
375.58	395.55
375.78	519.60
375.97	386.19
376.17	454.06
376.37	409.59
376.56	425.98
376.76	440.02
376.95	414.27
377.15	383.85
377.35	409.59
377.54	458.74
377.74	425.98
377.93	346.40
378.13	341.72
378.33	437.68
378.52	440.02
378.72	390.87
378.91	388.53
379.11	472.79
379.31	475.13
379.50	447.04
379.70	381.51
379.89	418.96
380.09	360.44
380.28	397.89
380.48	416.62
380.68	355.76
380.87	367.46
381.07	442.36
381.26	433.00
381.46	386.19
381.65	414.27
381.85	330.02
382.04	498.53
382.24	367.46
382.43	423.64
382.63	407.25
382.83	440.02
383.02	430.66
383.22	386.19
383.41	411.93
383.61	393.21
383.80	360.44
384.00	334.70
384.19	341.72
384.39	407.25
384.58	433.00
384.78	372.15
384.97	456.40
385.17	454.06
385.36	407.25
385.56	353.42
385.75	407.25
385.95	355.76
386.14	437.68
386.34	425.98
386.53	449.38
386.72	299.59
386.92	449.38
387.11	435.34
387.31	425.98
387.50	421.30
387.70	395.55
387.89	421.30
388.09	381.51
388.28	416.62
388.48	397.89
388.67	435.34
388.86	325.33
389.06	402.57
389.25	407.25
389.45	449.38
389.64	404.91
389.84	376.83
390.03	435.34
390.22	442.36
390.42	447.04
390.61	498.53
390.81	428.32
391.00	365.12
391.19	395.55
391.39	383.85
391.58	386.19
391.78	421.30
391.97	418.96
392.16	341.72
392.36	430.66
392.55	388.53
392.75	379.17
392.94	463.43
393.13	411.93
393.33	362.78
393.52	395.55
393.71	449.38
393.91	444.70
394.10	369.80
394.29	423.64
394.49	360.44
394.68	409.59
394.88	411.93
395.07	414.27
395.26	428.32
395.46	425.98
395.65	437.68
395.84	433.00
396.04	397.89
396.23	353.42
396.42	383.85
396.62	430.66
396.81	496.19
397.00	449.38
397.19	503.22
397.39	400.23
397.58	458.74
397.77	411.93
397.97	379.17
398.16	416.62
398.35	400.23
398.55	341.72
398.74	334.70
398.93	402.57
399.12	423.64
399.32	451.72
399.51	451.72
399.70	383.85
399.90	418.96
400.09	407.25
400.28	400.23
400.47	451.72
400.67	444.70
400.86	400.23
401.05	381.51
401.24	362.78
401.44	461.09
401.63	421.30
401.82	411.93
402.01	409.59
402.21	409.59
402.40	430.66
402.59	393.21
402.78	411.93
402.97	444.70
403.17	435.34
403.36	383.85
403.55	402.57
403.74	433.00
403.93	447.04
404.13	442.36
404.32	388.53
404.51	322.99
404.70	402.57
404.89	358.10
405.09	430.66
405.28	376.83
405.47	379.17
405.66	416.62
405.85	433.00
406.05	395.55
406.24	367.46
406.43	433.00
406.62	383.85
406.81	397.89
407.00	437.68
407.20	411.93
407.39	379.17
407.58	308.95
407.77	451.72
407.96	421.30
408.15	376.83
408.34	407.25
408.54	409.59
408.73	404.91
408.92	400.23
409.11	461.09
409.30	383.85
409.49	418.96
409.68	330.02
409.87	402.57
410.07	404.91
410.26	418.96
410.45	411.93
410.64	358.10
410.83	461.09
411.02	397.89
411.21	372.15
411.40	402.57
411.59	388.53
411.78	393.21
411.98	402.57
412.17	358.10
412.36	400.23
412.55	374.49
412.74	411.93
412.93	454.06
413.12	400.23
413.31	447.04
413.50	463.43
413.69	433.00
413.88	458.74
414.07	388.53
414.26	393.21
414.45	334.70
414.64	358.10
414.83	437.68
415.02	491.51
415.22	454.06
415.41	423.64
415.60	367.46
415.79	437.68
415.98	407.25
416.17	351.08
416.36	379.17
416.55	433.00
416.74	411.93
416.93	444.70
417.12	465.77
417.31	421.30
417.50	365.12
417.69	414.27
417.88	390.87
418.07	362.78
418.26	437.68
418.45	444.70
418.64	404.91
418.83	395.55
419.02	440.02
419.21	447.04
419.39	386.19
419.58	372.15
419.77	388.53
419.96	367.46
420.15	381.51
420.34	449.38
420.53	449.38
420.72	433.00
420.91	416.62
421.10	423.64
421.29	353.42
421.48	449.38
421.67	383.85
421.86	470.45
422.05	463.43
422.24	411.93
422.43	442.36
422.61	383.85
422.80	428.32
422.99	421.30
423.18	409.59
423.37	407.25
423.56	351.08
423.75	358.10
423.94	430.66
424.13	388.53
424.32	386.19
424.50	428.32
424.69	440.02
424.88	447.04
425.07	388.53
425.26	358.10
425.45	430.66
425.64	425.98
425.83	407.25
426.01	442.36
426.20	526.62
426.39	472.79
426.58	395.55
426.77	374.49
426.96	390.87
427.15	383.85
427.33	428.32
427.52	472.79
427.71	493.85
427.90	435.34
428.09	409.59
428.28	400.23
428.46	423.64
428.65	365.12
428.84	400.23
429.03	397.89
429.22	400.23
429.40	397.89
429.59	414.27
429.78	418.96
429.97	489.17
430.16	393.21
430.34	353.42
430.53	315.97
430.72	365.12
430.91	421.30
431.10	447.04
431.28	437.68
431.47	379.17
431.66	313.63
431.85	379.17
432.03	365.12
432.22	468.11
432.41	451.72
432.60	451.72
432.79	435.34
432.97	416.62
433.16	397.89
433.35	362.78
433.54	407.25
433.72	489.17
433.91	397.89
434.10	409.59
434.28	397.89
434.47	411.93
434.66	400.23
434.85	433.00
435.03	451.72
435.22	468.11
435.41	414.27
435.59	388.53
435.78	411.93
435.97	395.55
436.16	456.40
436.34	337.04
436.53	425.98
436.72	393.21
436.90	390.87
437.09	381.51
437.28	430.66
437.46	423.64
437.65	416.62
437.84	454.06
438.02	374.49
438.21	435.34
438.40	416.62
438.58	374.49
438.77	383.85
438.96	393.21
439.14	407.25
439.33	393.21
439.52	379.17
439.70	433.00
439.89	456.40
440.08	411.93
440.26	386.19
440.45	442.36
440.63	442.36
440.82	393.21
441.01	367.46
441.19	468.11
441.38	421.30
441.57	442.36
441.75	386.19
441.94	428.32
442.12	414.27
442.31	428.32
442.50	367.46
442.68	386.19
442.87	425.98
443.05	372.15
443.24	407.25
443.43	411.93
443.61	454.06
443.80	393.21
443.98	442.36
444.17	404.91
444.35	407.25
444.54	374.49
444.73	437.68
444.91	390.87
445.10	454.06
445.28	397.89
445.47	404.91
445.65	388.53
445.84	332.36
446.02	379.17
446.21	423.64
446.39	421.30
446.58	430.66
446.77	423.64
446.95	423.64
447.14	456.40
447.32	482.15
447.51	437.68
447.69	454.06
447.88	383.85
448.06	414.27
448.25	435.34
448.43	425.98
448.62	430.66
448.80	475.13
448.99	454.06
449.17	418.96
449.36	430.66
449.54	376.83
449.73	379.17
449.91	376.83
450.10	447.04
450.28	451.72
450.46	437.68
450.65	423.64
450.83	416.62
451.02	362.78
451.20	505.56
451.39	379.17
451.57	425.98
451.76	409.59
451.94	372.15
452.13	442.36
452.31	411.93
452.49	433.00
452.68	437.68
452.86	435.34
453.05	465.77
453.23	428.32
453.42	477.47
453.60	322.99
453.78	402.57
453.97	393.21
454.15	379.17
454.34	435.34
454.52	437.68
454.70	423.64
454.89	423.64
455.07	365.12
455.26	379.17
455.44	402.57
455.62	409.59
455.81	388.53
455.99	367.46
456.17	397.89
456.36	433.00
456.54	367.46
456.73	421.30
456.91	428.32
457.09	425.98
457.28	421.30
457.46	404.91
457.64	442.36
457.83	447.04
458.01	442.36
458.19	437.68
458.38	376.83
458.56	414.27
458.74	440.02
458.93	416.62
459.11	393.21
459.29	411.93
459.48	444.70
459.66	507.90
459.84	428.32
460.03	500.87
460.21	456.40
460.39	444.70
460.57	437.68
460.76	437.68
460.94	442.36
461.12	500.87
461.31	472.79
461.49	376.83
461.67	454.06
461.85	407.25
462.04	390.87
462.22	798.12
462.40	451.72
462.59	440.02
462.77	428.32
462.95	374.49
463.13	390.87
463.32	428.32
463.50	374.49
463.68	351.08
463.86	348.74
464.05	411.93
464.23	444.70
464.41	440.02
464.59	442.36
464.78	362.78
464.96	404.91
465.14	451.72
465.32	287.89
465.50	479.81
465.69	351.08
465.87	383.85
466.05	418.96
466.23	451.72
466.41	395.55
466.60	397.89
466.78	440.02
466.96	456.40
467.14	367.46
467.32	360.44
467.51	395.55
467.69	449.38
467.87	414.27
468.05	477.47
468.23	411.93
468.41	514.92
468.60	386.19
468.78	451.72
468.96	430.66
469.14	461.09
469.32	423.64
469.50	409.59
469.69	418.96
469.87	435.34
470.05	360.44
470.23	463.43
470.41	257.46
470.59	433.00
470.77	428.32
470.95	423.64
471.14	369.80
471.32	468.11
471.50	397.89
471.68	465.77
471.86	372.15
472.04	411.93
472.22	407.25
472.40	383.85
472.58	341.72
472.77	444.70
472.95	449.38
473.13	407.25
473.31	409.59
473.49	397.89
473.67	400.23
473.85	358.10
474.03	374.49
474.21	404.91
474.39	444.70
474.57	505.56
474.75	411.93
474.93	341.72
475.12	393.21
475.30	447.04
475.48	397.89
475.66	430.66
475.84	379.17
476.02	423.64
476.20	503.22
476.38	376.83
476.56	395.55
476.74	362.78
476.92	388.53
477.10	400.23
477.28	444.70
477.46	388.53
477.64	430.66
477.82	397.89
478.00	393.21
478.18	402.57
478.36	463.43
478.54	423.64
478.72	411.93
478.90	386.19
479.08	383.85
479.26	397.89
479.44	444.70
479.62	449.38
479.80	374.49
479.98	388.53
480.16	386.19
480.34	461.09
480.52	472.79
480.70	383.85
480.88	404.91
481.06	372.15
481.24	458.74
481.41	374.49
481.59	388.53
481.77	514.92
481.95	444.70
482.13	407.25
482.31	372.15
482.49	454.06
482.67	451.72
482.85	444.70
483.03	407.25
483.21	442.36
483.39	444.70
483.57	386.19
483.74	383.85
483.92	402.57
484.10	458.74
484.28	397.89
484.46	498.53
484.64	411.93
484.82	468.11
485.00	372.15
485.18	395.55
485.35	409.59
485.53	472.79
485.71	360.44
485.89	407.25
486.07	461.09
486.25	472.79
486.43	393.21
486.61	372.15
486.78	332.36
486.96	386.19
487.14	477.47
487.32	330.02
487.50	313.63
487.68	381.51
487.85	479.81
488.03	465.77
488.21	418.96
488.39	367.46
488.57	411.93
488.75	404.91
488.92	521.94
489.10	400.23
489.28	496.19
489.46	418.96
489.64	397.89
489.81	400.23
489.99	433.00
490.17	346.40
490.35	498.53
490.53	395.55
490.70	379.17
490.88	505.56
491.06	379.17
491.24	421.30
491.41	444.70
491.59	444.70
491.77	325.33
491.95	404.91
492.13	458.74
492.30	411.93
492.48	437.68
492.66	404.91
492.84	325.33
493.01	423.64
493.19	456.40
493.37	517.26
493.54	435.34
493.72	486.83
493.90	442.36
494.08	402.57
494.25	454.06
494.43	388.53
494.61	334.70
494.79	383.85
494.96	372.15
495.14	402.57
495.32	477.47
495.49	341.72
495.67	390.87
495.85	454.06
496.02	400.23
496.20	379.17
496.38	395.55
496.55	395.55
496.73	435.34
496.91	393.21
497.09	437.68
497.26	447.04
497.44	339.38
497.62	334.70
497.79	479.81
497.97	386.19
498.14	435.34
498.32	454.06
498.50	348.74
498.67	390.87
498.85	430.66
499.03	475.13
499.20	402.57
499.38	386.19
499.56	456.40
499.73	479.81
499.91	456.40
500.08	395.55
500.26	369.80
500.44	353.42
500.61	386.19
500.79	444.70
500.97	456.40
501.14	400.23
501.32	421.30
501.49	447.04
501.67	442.36
501.84	430.66
502.02	397.89
502.20	505.56
502.37	395.55
502.55	411.93
502.72	451.72
502.90	386.19
503.07	444.70
503.25	376.83
503.43	365.12
503.60	442.36
503.78	369.80
503.95	402.57
504.13	437.68
504.30	407.25
504.48	440.02
504.65	463.43
504.83	454.06
505.01	369.80
505.18	421.30
505.36	404.91
505.53	362.78
505.71	451.72
505.88	440.02
506.06	423.64
506.23	475.13
506.41	433.00
506.58	454.06
506.76	381.51
506.93	447.04
507.11	409.59
507.28	397.89
507.46	428.32
507.63	341.72
507.81	376.83
507.98	461.09
508.16	498.53
508.33	402.57
508.50	386.19
508.68	358.10
508.85	381.51
509.03	423.64
509.20	365.12
509.38	500.87
509.55	491.51
509.73	379.17
509.90	376.83
510.08	475.13
510.25	463.43
510.42	395.55
510.60	486.83
510.77	390.87
510.95	451.72
511.12	344.06
511.30	395.55
511.47	449.38
511.64	418.96
511.82	414.27
511.99	430.66
512.17	449.38
512.34	418.96
512.51	416.62
512.69	447.04
512.86	430.66
513.04	381.51
513.21	407.25
513.38	463.43
513.56	463.43
513.73	388.53
513.90	362.78
514.08	421.30
514.25	404.91
514.43	397.89
514.60	355.76
514.77	404.91
514.95	428.32
515.12	418.96
515.29	425.98
515.47	440.02
515.64	369.80
515.81	344.06
515.99	428.32
516.16	430.66
516.33	416.62
516.51	402.57
516.68	433.00
516.85	470.45
517.03	383.85
517.20	386.19
517.37	393.21
517.54	407.25
517.72	430.66
517.89	498.53
518.06	397.89
518.24	440.02
518.41	390.87
518.58	428.32
518.75	388.53
518.93	433.00
519.10	353.42
519.27	440.02
519.45	423.64
519.62	517.26
519.79	503.22
519.96	393.21
520.14	397.89
520.31	505.56
520.48	386.19
520.65	449.38
520.83	369.80
521.00	374.49
521.17	428.32
521.34	418.96
521.52	449.38
521.69	393.21
521.86	411.93
522.03	404.91
522.20	477.47
522.38	428.32
522.55	421.30
522.72	400.23
522.89	390.87
523.07	458.74
523.24	430.66
523.41	433.00
523.58	414.27
523.75	435.34
523.92	414.27
524.10	418.96
524.27	320.65
524.44	381.51
524.61	425.98
524.78	409.59
524.96	402.57
525.13	461.09
525.30	386.19
525.47	416.62
525.64	440.02
525.81	397.89
525.98	383.85
526.16	454.06
526.33	409.59
526.50	416.62
526.67	463.43
526.84	435.34
527.01	423.64
527.18	393.21
527.36	379.17
527.53	433.00
527.70	341.72
527.87	362.78
528.04	390.87
528.21	433.00
528.38	339.38
528.55	416.62
528.72	470.45
528.89	425.98
529.07	416.62
529.24	456.40
529.41	430.66
529.58	379.17
529.75	402.57
529.92	425.98
530.09	430.66
530.26	435.34
530.43	404.91
530.60	418.96
530.77	381.51
530.94	402.57
531.11	456.40
531.28	393.21
531.46	435.34
531.63	435.34
531.80	418.96
531.97	423.64
532.14	482.15
532.31	367.46
532.48	386.19
532.65	418.96
532.82	404.91
532.99	456.40
533.16	454.06
533.33	381.51
533.50	383.85
533.67	433.00
533.84	379.17
534.01	447.04
534.18	400.23
534.35	461.09
534.52	468.11
534.69	409.59
534.86	414.27
535.03	374.49
535.20	404.91
535.37	454.06
535.54	442.36
535.71	372.15
535.88	519.60
536.05	486.83
536.22	470.45
536.38	379.17
536.55	477.47
536.72	470.45
536.89	376.83
537.06	365.12
537.23	437.68
537.40	421.30
537.57	374.49
537.74	503.22
537.91	416.62
538.08	416.62
538.25	421.30
538.42	367.46
538.59	449.38
538.75	444.70
538.92	414.27
539.09	454.06
539.26	430.66
539.43	416.62
539.60	428.32
539.77	411.93
539.94	437.68
540.11	486.83
540.28	491.51
540.44	470.45
540.61	367.46
540.78	414.27
540.95	404.91
541.12	409.59
541.29	416.62
541.46	470.45
541.62	447.04
541.79	372.15
541.96	447.04
542.13	402.57
542.30	386.19
542.47	425.98
542.63	386.19
542.80	423.64
542.97	498.53
543.14	409.59
543.31	374.49
543.48	325.33
543.64	421.30
543.81	362.78
543.98	367.46
544.15	365.12
544.32	358.10
544.48	423.64
544.65	440.02
544.82	404.91
544.99	428.32
545.16	451.72
545.32	475.13
545.49	379.17
545.66	470.45
545.83	409.59
546.00	418.96
546.16	421.30
546.33	421.30
546.50	376.83
546.67	383.85
546.83	477.47
547.00	365.12
547.17	428.32
547.34	390.87
547.50	414.27
547.67	372.15
547.84	393.21
548.00	414.27
548.17	402.57
548.34	414.27
548.51	524.28
548.67	456.40
548.84	447.04
549.01	411.93
549.18	437.68
549.34	493.85
549.51	430.66
549.68	440.02
549.84	388.53
550.01	407.25
550.18	479.81
550.34	414.27
550.51	486.83
550.68	500.87
550.84	383.85
551.01	388.53
551.18	482.15
551.34	388.53
551.51	346.40
551.68	414.27
551.84	428.32
552.01	442.36
552.18	447.04
552.34	470.45
552.51	381.51
552.68	465.77
552.84	428.32
553.01	484.49
553.18	442.36
553.34	388.53
553.51	423.64
553.67	447.04
553.84	465.77
554.01	414.27
554.17	437.68
554.34	425.98
554.51	454.06
554.67	479.81
554.84	435.34
555.00	440.02
555.17	475.13
555.33	397.89
555.50	428.32
555.67	421.30
555.83	407.25
556.00	383.85
556.16	521.94
556.33	479.81
556.50	416.62
556.66	468.11
556.83	386.19
556.99	372.15
557.16	374.49
557.32	390.87
557.49	369.80
557.65	425.98
557.82	369.80
557.98	449.38
558.15	402.57
558.32	433.00
558.48	402.57
558.65	407.25
558.81	421.30
558.98	472.79
559.14	463.43
559.31	416.62
559.47	407.25
559.64	440.02
559.80	315.97
559.97	388.53
560.13	463.43
560.30	390.87
560.46	416.62
560.63	358.10
560.79	437.68
560.96	411.93
561.12	390.87
561.29	379.17
561.45	430.66
561.61	433.00
561.78	451.72
561.94	451.72
562.11	421.30
562.27	451.72
562.44	465.77
562.60	418.96
562.77	379.17
562.93	440.02
563.10	444.70
563.26	498.53
563.42	479.81
563.59	433.00
563.75	489.17
563.92	449.38
564.08	451.72
564.24	468.11
564.41	519.60
564.57	365.12
564.74	414.27
564.90	423.64
565.07	437.68
565.23	447.04
565.39	442.36
565.56	451.72
565.72	400.23
565.88	388.53
566.05	330.02
566.21	442.36
566.38	404.91
566.54	538.32
566.70	416.62
566.87	463.43
567.03	409.59
567.19	393.21
567.36	433.00
567.52	433.00
567.68	440.02
567.85	482.15
568.01	402.57
568.17	496.19
568.34	393.21
568.50	496.19
568.66	404.91
568.83	535.98
568.99	409.59
569.15	418.96
569.32	435.34
569.48	414.27
569.64	379.17
569.81	449.38
569.97	440.02
570.13	472.79
570.30	414.27
570.46	372.15
570.62	449.38
570.78	503.22
570.95	381.51
571.11	456.40
571.27	451.72
571.43	395.55
571.60	428.32
571.76	454.06
571.92	386.19
572.09	444.70
572.25	409.59
572.41	393.21
572.57	456.40
572.74	468.11
572.90	425.98
573.06	414.27
573.22	463.43
573.38	428.32
573.55	482.15
573.71	425.98
573.87	423.64
574.03	341.72
574.20	372.15
574.36	430.66
574.52	449.38
574.68	374.49
574.84	425.98
575.01	411.93
575.17	463.43
575.33	416.62
575.49	395.55
575.65	433.00
575.82	491.51
575.98	390.87
576.14	486.83
576.30	400.23
576.46	416.62
576.62	433.00
576.79	365.12
576.95	411.93
577.11	428.32
577.27	461.09
577.43	479.81
577.59	381.51
577.75	444.70
577.92	383.85
578.08	418.96
578.24	334.70
578.40	465.77
578.56	435.34
578.72	355.76
578.88	444.70
579.04	465.77
579.21	442.36
579.37	348.74
579.53	416.62
579.69	519.60
579.85	355.76
580.01	411.93
580.17	404.91
580.33	372.15
580.49	447.04
580.65	425.98
580.82	381.51
580.98	423.64
581.14	360.44
581.30	512.58
581.46	367.46
581.62	477.47
581.78	414.27
581.94	437.68
582.10	407.25
582.26	451.72
582.42	477.47
582.58	493.85
582.74	327.68
582.90	421.30
583.06	449.38
583.22	416.62
583.38	334.70
583.54	451.72
583.70	456.40
583.86	477.47
584.02	409.59
584.18	425.98
584.34	379.17
584.50	486.83
584.66	451.72
584.82	430.66
584.98	374.49
585.14	454.06
585.30	409.59
585.46	390.87
585.62	383.85
585.78	489.17
585.94	479.81
586.10	416.62
586.26	393.21
586.42	456.40
586.58	416.62
586.74	393.21
586.90	423.64
587.06	374.49
587.22	411.93
587.38	493.85
587.54	402.57
587.70	423.64
587.86	440.02
588.02	341.72
588.18	395.55
588.34	458.74
588.49	423.64
588.65	402.57
588.81	447.04
588.97	379.17
589.13	379.17
589.29	428.32
589.45	430.66
589.61	440.02
589.77	463.43
589.93	416.62
590.08	383.85
590.24	383.85
590.40	397.89
590.56	404.91
590.72	351.08
590.88	458.74
591.04	402.57
591.20	458.74
591.35	528.96
591.51	383.85
591.67	358.10
591.83	402.57
591.99	386.19
592.15	479.81
592.31	451.72
592.46	402.57
592.62	447.04
592.78	435.34
592.94	421.30
593.10	365.12
593.26	409.59
593.41	486.83
593.57	442.36
593.73	388.53
593.89	407.25
594.05	369.80
594.20	400.23
594.36	390.87
594.52	390.87
594.68	468.11
594.84	414.27
594.99	456.40
595.15	461.09
595.31	418.96
595.47	451.72
595.62	421.30
595.78	365.12
595.94	374.49
596.10	383.85
596.25	355.76
596.41	437.68
596.57	430.66
596.73	365.12
596.88	402.57
597.04	449.38
597.20	390.87
597.36	440.02
597.51	407.25
597.67	433.00
597.83	430.66
597.99	430.66
598.14	454.06
598.30	458.74
598.46	456.40
598.61	437.68
598.77	379.17
598.93	400.23
599.09	407.25
599.24	362.78
599.40	449.38
599.56	402.57
599.71	430.66
599.87	414.27
600.03	425.98
600.18	425.98
600.34	367.46
600.50	407.25
600.65	355.76
600.81	355.76
600.97	425.98
601.12	402.57
601.28	390.87
601.44	433.00
601.59	395.55
601.75	393.21
601.91	379.17
602.06	475.13
602.22	447.04
602.37	451.72
602.53	416.62
602.69	543.00
602.84	386.19
603.00	351.08
603.16	425.98
603.31	449.38
603.47	395.55
603.62	458.74
603.78	397.89
603.94	433.00
604.09	433.00
604.25	428.32
604.40	489.17
604.56	367.46
604.71	470.45
604.87	447.04
605.03	381.51
605.18	376.83
605.34	425.98
605.49	365.12
605.65	512.58
605.80	447.04
605.96	418.96
606.12	447.04
606.27	418.96
606.43	355.76
606.58	386.19
606.74	411.93
606.89	414.27
607.05	454.06
607.20	461.09
607.36	458.74
607.51	418.96
607.67	407.25
607.82	472.79
607.98	355.76
608.13	421.30
608.29	428.32
608.44	402.57
608.60	433.00
608.75	486.83
608.91	407.25
609.06	475.13
609.22	395.55
609.37	407.25
609.53	386.19
609.68	393.21
609.84	362.78
609.99	409.59
610.15	423.64
