SpectraSuite Data File
++++++++++++++++++++++++++++++++++++
Date: Fri Oct 25 12:11:27 EDT 2013
User: price-jones
Dark Spectrum Present: No
Reference Spectrum Present: No
Number of Sampled Component Spectra: 1
Spectrometers: USB2+H05261
Integration Time (usec): 100000 (USB2+H05261)
Spectra Averaged: 1 (USB2+H05261)
Boxcar Smoothing: 0 (USB2+H05261)
Correct for Electrical Dark: No (USB2+H05261)
Strobe/Lamp Enabled: No (USB2+H05261)
Correct for Detector Non-linearity: No (USB2+H05261)
Correct for Stray Light: No (USB2+H05261)
Number of Pixels in Processed Spectrum: 2048
>>>>>Begin Processed Spectral Data<<<<<
365.73	325.33
365.92	325.33
366.12	325.33
366.32	311.29
366.52	205.97
366.72	383.85
366.91	262.14
367.11	248.10
367.31	210.65
367.51	297.25
367.70	271.50
367.90	257.46
368.10	273.84
368.30	252.78
368.49	248.10
368.69	304.27
368.89	196.60
369.09	245.76
369.28	264.48
369.48	353.42
369.68	292.57
369.87	297.25
370.07	332.36
370.27	341.72
370.47	327.68
370.66	353.42
370.86	351.08
371.06	348.74
371.25	437.68
371.45	360.44
371.65	339.38
371.84	367.46
372.04	348.74
372.24	351.08
372.44	313.63
372.63	369.80
372.83	383.85
373.03	454.06
373.22	414.27
373.42	430.66
373.62	449.38
373.81	442.36
374.01	421.30
374.21	400.23
374.40	355.76
374.60	440.02
374.79	390.87
374.99	395.55
375.19	465.77
375.38	510.24
375.58	416.62
375.78	372.15
375.97	423.64
376.17	465.77
376.37	454.06
376.56	372.15
376.76	423.64
376.95	355.76
377.15	442.36
377.35	423.64
377.54	388.53
377.74	400.23
377.93	362.78
378.13	362.78
378.33	386.19
378.52	383.85
378.72	425.98
378.91	416.62
379.11	400.23
379.31	407.25
379.50	294.91
379.70	449.38
379.89	407.25
380.09	430.66
380.28	435.34
380.48	411.93
380.68	367.46
380.87	353.42
381.07	383.85
381.26	421.30
381.46	407.25
381.65	404.91
381.85	454.06
382.04	388.53
382.24	428.32
382.43	393.21
382.63	458.74
382.83	449.38
383.02	470.45
383.22	447.04
383.41	407.25
383.61	327.68
383.80	390.87
384.00	423.64
384.19	428.32
384.39	465.77
384.58	397.89
384.78	440.02
384.97	388.53
385.17	395.55
385.36	470.45
385.56	433.00
385.75	379.17
385.95	374.49
386.14	414.27
386.34	395.55
386.53	383.85
386.72	421.30
386.92	449.38
387.11	407.25
387.31	383.85
387.50	339.38
387.70	400.23
387.89	395.55
388.09	402.57
388.28	383.85
388.48	402.57
388.67	451.72
388.86	407.25
389.06	475.13
389.25	444.70
389.45	322.99
389.64	390.87
389.84	437.68
390.03	435.34
390.22	353.42
390.42	393.21
390.61	311.29
390.81	435.34
391.00	372.15
391.19	414.27
391.39	400.23
391.58	390.87
391.78	369.80
391.97	376.83
392.16	400.23
392.36	456.40
392.55	372.15
392.75	433.00
392.94	430.66
393.13	447.04
393.33	395.55
393.52	407.25
393.71	411.93
393.91	367.46
394.10	421.30
394.29	489.17
394.49	376.83
394.68	383.85
394.88	447.04
395.07	393.21
395.26	418.96
395.46	337.04
395.65	407.25
395.84	362.78
396.04	468.11
396.23	425.98
396.42	418.96
396.62	416.62
396.81	433.00
397.00	376.83
397.19	414.27
397.39	390.87
397.58	442.36
397.77	348.74
397.97	400.23
398.16	414.27
398.35	479.81
398.55	435.34
398.74	393.21
398.93	390.87
399.12	393.21
399.32	393.21
399.51	470.45
399.70	397.89
399.90	465.77
400.09	442.36
400.28	409.59
400.47	418.96
400.67	437.68
400.86	440.02
401.05	458.74
401.24	451.72
401.44	425.98
401.63	409.59
401.82	365.12
402.01	369.80
402.21	404.91
402.40	367.46
402.59	414.27
402.78	458.74
402.97	435.34
403.17	428.32
403.36	388.53
403.55	348.74
403.74	425.98
403.93	428.32
404.13	447.04
404.32	430.66
404.51	451.72
404.70	444.70
404.89	400.23
405.09	484.49
405.28	458.74
405.47	414.27
405.66	435.34
405.85	428.32
406.05	402.57
406.24	346.40
406.43	444.70
406.62	442.36
406.81	418.96
407.00	393.21
407.20	402.57
407.39	404.91
407.58	362.78
407.77	461.09
407.96	442.36
408.15	379.17
408.34	416.62
408.54	435.34
408.73	461.09
408.92	360.44
409.11	397.89
409.30	437.68
409.49	388.53
409.68	372.15
409.87	421.30
410.07	442.36
410.26	444.70
410.45	430.66
410.64	339.38
410.83	404.91
411.02	435.34
411.21	435.34
411.40	444.70
411.59	461.09
411.78	442.36
411.98	449.38
412.17	318.31
412.36	395.55
412.55	423.64
412.74	402.57
412.93	454.06
413.12	465.77
413.31	449.38
413.50	386.19
413.69	444.70
413.88	435.34
414.07	428.32
414.26	404.91
414.45	414.27
414.64	430.66
414.83	409.59
415.02	395.55
415.22	367.46
415.41	423.64
415.60	372.15
415.79	411.93
415.98	447.04
416.17	404.91
416.36	421.30
416.55	337.04
416.74	372.15
416.93	390.87
417.12	416.62
417.31	409.59
417.50	444.70
417.69	433.00
417.88	449.38
418.07	411.93
418.26	428.32
418.45	355.76
418.64	360.44
418.83	379.17
419.02	416.62
419.21	402.57
419.39	381.51
419.58	418.96
419.77	423.64
419.96	346.40
420.15	425.98
420.34	465.77
420.53	416.62
420.72	493.85
420.91	409.59
421.10	376.83
421.29	437.68
421.48	369.80
421.67	437.68
421.86	416.62
422.05	454.06
422.24	416.62
422.43	397.89
422.61	421.30
422.80	454.06
422.99	451.72
423.18	421.30
423.37	442.36
423.56	433.00
423.75	397.89
423.94	440.02
424.13	461.09
424.32	360.44
424.50	379.17
424.69	416.62
424.88	411.93
425.07	379.17
425.26	491.51
425.45	423.64
425.64	437.68
425.83	400.23
426.01	374.49
426.20	397.89
426.39	367.46
426.58	404.91
426.77	437.68
426.96	454.06
427.15	402.57
427.33	383.85
427.52	430.66
427.71	393.21
427.90	447.04
428.09	397.89
428.28	386.19
428.46	458.74
428.65	379.17
428.84	395.55
429.03	404.91
429.22	411.93
429.40	397.89
429.59	341.72
429.78	433.00
429.97	397.89
430.16	393.21
430.34	383.85
430.53	402.57
430.72	407.25
430.91	416.62
431.10	477.47
431.28	416.62
431.47	475.13
431.66	334.70
431.85	418.96
432.03	477.47
432.22	484.49
432.41	330.02
432.60	470.45
432.79	428.32
432.97	416.62
433.16	409.59
433.35	430.66
433.54	360.44
433.72	390.87
433.91	468.11
434.10	393.21
434.28	402.57
434.47	397.89
434.66	456.40
434.85	425.98
435.03	395.55
435.22	433.00
435.41	475.13
435.59	393.21
435.78	421.30
435.97	381.51
436.16	360.44
436.34	421.30
436.53	411.93
436.72	418.96
436.90	472.79
437.09	322.99
437.28	400.23
437.46	348.74
437.65	397.89
437.84	458.74
438.02	390.87
438.21	428.32
438.40	451.72
438.58	430.66
438.77	470.45
438.96	376.83
439.14	400.23
439.33	386.19
439.52	337.04
439.70	395.55
439.89	440.02
440.08	393.21
440.26	486.83
440.45	461.09
440.63	416.62
440.82	416.62
441.01	376.83
441.19	440.02
441.38	402.57
441.57	383.85
441.75	379.17
441.94	428.32
442.12	404.91
442.31	379.17
442.50	447.04
442.68	435.34
442.87	418.96
443.05	339.38
443.24	416.62
443.43	383.85
443.61	411.93
443.80	425.98
443.98	397.89
444.17	447.04
444.35	437.68
444.54	430.66
444.73	486.83
444.91	433.00
445.10	372.15
445.28	334.70
445.47	456.40
445.65	428.32
445.84	468.11
446.02	414.27
446.21	409.59
446.39	362.78
446.58	458.74
446.77	416.62
446.95	465.77
447.14	430.66
447.32	470.45
447.51	393.21
447.69	390.87
447.88	435.34
448.06	470.45
448.25	423.64
448.43	376.83
448.62	379.17
448.80	444.70
448.99	400.23
449.17	365.12
449.36	355.76
449.54	449.38
449.73	337.04
449.91	421.30
450.10	407.25
450.28	468.11
450.46	388.53
450.65	451.72
450.83	428.32
451.02	463.43
451.20	423.64
451.39	388.53
451.57	440.02
451.76	381.51
451.94	440.02
452.13	388.53
452.31	407.25
452.49	468.11
452.68	425.98
452.86	521.94
453.05	479.81
453.23	414.27
453.42	379.17
453.60	402.57
453.78	437.68
453.97	294.91
454.15	379.17
454.34	461.09
454.52	433.00
454.70	369.80
454.89	486.83
455.07	456.40
455.26	423.64
455.44	400.23
455.62	365.12
455.81	355.76
455.99	383.85
456.17	388.53
456.36	423.64
456.54	418.96
456.73	470.45
456.91	322.99
457.09	540.66
457.28	491.51
457.46	428.32
457.64	430.66
457.83	379.17
458.01	444.70
458.19	421.30
458.38	402.57
458.56	449.38
458.74	430.66
458.93	428.32
459.11	365.12
459.29	367.46
459.48	423.64
459.66	456.40
459.84	472.79
460.03	442.36
460.21	407.25
460.39	437.68
460.57	435.34
460.76	430.66
460.94	465.77
461.12	468.11
461.31	379.17
461.49	442.36
461.67	407.25
461.85	454.06
462.04	372.15
462.22	779.40
462.40	447.04
462.59	414.27
462.77	428.32
462.95	456.40
463.13	411.93
463.32	435.34
463.50	379.17
463.68	355.76
463.86	463.43
464.05	376.83
464.23	454.06
464.41	421.30
464.59	442.36
464.78	411.93
464.96	461.09
465.14	461.09
465.32	325.33
465.50	404.91
465.69	416.62
465.87	344.06
466.05	416.62
466.23	423.64
466.41	393.21
466.60	355.76
466.78	493.85
466.96	493.85
467.14	386.19
467.32	414.27
467.51	437.68
467.69	428.32
467.87	454.06
468.05	442.36
468.23	437.68
468.41	374.49
468.60	374.49
468.78	435.34
468.96	404.91
469.14	409.59
469.32	407.25
469.50	428.32
469.69	411.93
469.87	482.15
470.05	484.49
470.23	400.23
470.41	360.44
470.59	437.68
470.77	430.66
470.95	437.68
471.14	330.02
471.32	379.17
471.50	386.19
471.68	407.25
471.86	409.59
472.04	465.77
472.22	334.70
472.40	355.76
472.58	449.38
472.77	348.74
472.95	374.49
473.13	393.21
473.31	479.81
473.49	409.59
473.67	447.04
473.85	348.74
474.03	351.08
474.21	365.12
474.39	404.91
474.57	500.87
474.75	433.00
474.93	447.04
475.12	388.53
475.30	407.25
475.48	442.36
475.66	418.96
475.84	365.12
476.02	402.57
476.20	379.17
476.38	390.87
476.56	433.00
476.74	435.34
476.92	428.32
477.10	397.89
477.28	376.83
477.46	348.74
477.64	470.45
477.82	365.12
478.00	425.98
478.18	428.32
478.36	411.93
478.54	433.00
478.72	416.62
478.90	493.85
479.08	456.40
479.26	451.72
479.44	447.04
479.62	360.44
479.80	362.78
479.98	402.57
480.16	458.74
480.34	428.32
480.52	374.49
480.70	421.30
480.88	451.72
481.06	409.59
481.24	414.27
481.41	339.38
481.59	379.17
481.77	423.64
481.95	383.85
482.13	458.74
482.31	414.27
482.49	418.96
482.67	388.53
482.85	379.17
483.03	440.02
483.21	489.17
483.39	367.46
483.57	393.21
483.74	468.11
483.92	472.79
484.10	409.59
484.28	383.85
484.46	404.91
484.64	353.42
484.82	440.02
485.00	372.15
485.18	395.55
485.35	458.74
485.53	381.51
485.71	423.64
485.89	393.21
486.07	425.98
486.25	465.77
486.43	411.93
486.61	440.02
486.78	428.32
486.96	355.76
487.14	496.19
487.32	444.70
487.50	447.04
487.68	381.51
487.85	390.87
488.03	416.62
488.21	435.34
488.39	318.31
488.57	360.44
488.75	409.59
488.92	498.53
489.10	428.32
489.28	435.34
489.46	365.12
489.64	388.53
489.81	428.32
489.99	400.23
490.17	393.21
490.35	482.15
490.53	355.76
490.70	395.55
490.88	404.91
491.06	425.98
491.24	440.02
491.41	491.51
491.59	435.34
491.77	475.13
491.95	346.40
492.13	372.15
492.30	402.57
492.48	404.91
492.66	482.15
492.84	360.44
493.01	395.55
493.19	440.02
493.37	472.79
493.54	388.53
493.72	395.55
493.90	414.27
494.08	393.21
494.25	355.76
494.43	411.93
494.61	463.43
494.79	449.38
494.96	397.89
495.14	360.44
495.32	430.66
495.49	463.43
495.67	409.59
495.85	341.72
496.02	433.00
496.20	470.45
496.38	451.72
496.55	376.83
496.73	393.21
496.91	346.40
497.09	440.02
497.26	437.68
497.44	404.91
497.62	414.27
497.79	416.62
497.97	407.25
498.14	470.45
498.32	442.36
498.50	475.13
498.67	395.55
498.85	421.30
499.03	482.15
499.20	454.06
499.38	397.89
499.56	430.66
499.73	411.93
499.91	489.17
500.08	456.40
500.26	449.38
500.44	407.25
500.61	360.44
500.79	512.58
500.97	447.04
501.14	482.15
501.32	421.30
501.49	447.04
501.67	425.98
501.84	454.06
502.02	414.27
502.20	402.57
502.37	393.21
502.55	365.12
502.72	386.19
502.90	461.09
503.07	421.30
503.25	376.83
503.43	388.53
503.60	444.70
503.78	507.90
503.95	400.23
504.13	376.83
504.30	372.15
504.48	409.59
504.65	437.68
504.83	440.02
505.01	402.57
505.18	440.02
505.36	430.66
505.53	386.19
505.71	393.21
505.88	358.10
506.06	395.55
506.23	414.27
506.41	456.40
506.58	421.30
506.76	482.15
506.93	367.46
507.11	498.53
507.28	430.66
507.46	390.87
507.63	416.62
507.81	374.49
507.98	414.27
508.16	440.02
508.33	374.49
508.50	372.15
508.68	411.93
508.85	372.15
509.03	404.91
509.20	409.59
509.38	468.11
509.55	456.40
509.73	458.74
509.90	458.74
510.08	386.19
510.25	390.87
510.42	395.55
510.60	433.00
510.77	416.62
510.95	397.89
511.12	423.64
511.30	372.15
511.47	348.74
511.64	475.13
511.82	414.27
511.99	390.87
512.17	423.64
512.34	393.21
512.51	442.36
512.69	458.74
512.86	411.93
513.04	423.64
513.21	435.34
513.38	390.87
513.56	430.66
513.73	386.19
513.90	381.51
514.08	425.98
514.25	353.42
514.43	404.91
514.60	470.45
514.77	411.93
514.95	404.91
515.12	407.25
515.29	472.79
515.47	430.66
515.64	376.83
515.81	402.57
515.99	465.77
516.16	442.36
516.33	454.06
516.51	468.11
516.68	397.89
516.85	353.42
517.03	465.77
517.20	411.93
517.37	404.91
517.54	393.21
517.72	463.43
517.89	414.27
518.06	395.55
518.24	458.74
518.41	418.96
518.58	390.87
518.75	402.57
518.93	465.77
519.10	472.79
519.27	416.62
519.45	362.78
519.62	454.06
519.79	423.64
519.96	397.89
520.14	507.90
520.31	496.19
520.48	390.87
520.65	461.09
520.83	421.30
521.00	416.62
521.17	451.72
521.34	421.30
521.52	365.12
521.69	388.53
521.86	381.51
522.03	390.87
522.20	444.70
522.38	400.23
522.55	414.27
522.72	407.25
522.89	472.79
523.07	503.22
523.24	475.13
523.41	418.96
523.58	470.45
523.75	468.11
523.92	383.85
524.10	402.57
524.27	433.00
524.44	442.36
524.61	397.89
524.78	383.85
524.96	423.64
525.13	393.21
525.30	404.91
525.47	543.00
525.64	421.30
525.81	411.93
525.98	374.49
526.16	404.91
526.33	454.06
526.50	421.30
526.67	423.64
526.84	435.34
527.01	428.32
527.18	414.27
527.36	416.62
527.53	435.34
527.70	383.85
527.87	470.45
528.04	491.51
528.21	374.49
528.38	440.02
528.55	425.98
528.72	414.27
528.89	423.64
529.07	416.62
529.24	428.32
529.41	437.68
529.58	472.79
529.75	447.04
529.92	414.27
530.09	409.59
530.26	400.23
530.43	397.89
530.60	477.47
530.77	400.23
530.94	386.19
531.11	388.53
531.28	414.27
531.46	390.87
531.63	407.25
531.80	397.89
531.97	425.98
532.14	425.98
532.31	407.25
532.48	353.42
532.65	348.74
532.82	365.12
532.99	411.93
533.16	404.91
533.33	414.27
533.50	404.91
533.67	447.04
533.84	393.21
534.01	451.72
534.18	397.89
534.35	435.34
534.52	498.53
534.69	351.08
534.86	372.15
535.03	463.43
535.20	430.66
535.37	444.70
535.54	458.74
535.71	456.40
535.88	435.34
536.05	393.21
536.22	433.00
536.38	390.87
536.55	440.02
536.72	433.00
536.89	386.19
537.06	393.21
537.23	386.19
537.40	433.00
537.57	341.72
537.74	425.98
537.91	449.38
538.08	435.34
538.25	388.53
538.42	379.17
538.59	437.68
538.75	411.93
538.92	433.00
539.09	423.64
539.26	437.68
539.43	451.72
539.60	468.11
539.77	440.02
539.94	381.51
540.11	407.25
540.28	475.13
540.44	376.83
540.61	379.17
540.78	456.40
540.95	388.53
541.12	395.55
541.29	379.17
541.46	421.30
541.62	418.96
541.79	458.74
541.96	416.62
542.13	409.59
542.30	472.79
542.47	390.87
542.63	365.12
542.80	454.06
542.97	407.25
543.14	393.21
543.31	447.04
543.48	421.30
543.64	421.30
543.81	433.00
543.98	421.30
544.15	369.80
544.32	482.15
544.48	425.98
544.65	395.55
544.82	381.51
544.99	372.15
545.16	379.17
545.32	430.66
545.49	454.06
545.66	449.38
545.83	402.57
546.00	383.85
546.16	514.92
546.33	418.96
546.50	425.98
546.67	517.26
546.83	407.25
547.00	444.70
547.17	414.27
547.34	355.76
547.50	388.53
547.67	351.08
547.84	334.70
548.00	435.34
548.17	409.59
548.34	430.66
548.51	475.13
548.67	395.55
548.84	444.70
549.01	451.72
549.18	397.89
549.34	393.21
549.51	463.43
549.68	341.72
549.84	379.17
550.01	379.17
550.18	477.47
550.34	500.87
550.51	418.96
550.68	440.02
550.84	416.62
551.01	416.62
551.18	414.27
551.34	423.64
551.51	383.85
551.68	416.62
551.84	451.72
552.01	395.55
552.18	365.12
552.34	402.57
552.51	407.25
552.68	472.79
552.84	458.74
553.01	381.51
553.18	407.25
553.34	418.96
553.51	421.30
553.67	402.57
553.84	435.34
554.01	482.15
554.17	442.36
554.34	433.00
554.51	482.15
554.67	404.91
554.84	428.32
555.00	430.66
555.17	388.53
555.33	451.72
555.50	458.74
555.67	395.55
555.83	423.64
556.00	421.30
556.16	641.31
556.33	428.32
556.50	475.13
556.66	383.85
556.83	407.25
556.99	433.00
557.16	407.25
557.32	355.76
557.49	414.27
557.65	463.43
557.82	411.93
557.98	395.55
558.15	477.47
558.32	397.89
558.48	355.76
558.65	421.30
558.81	486.83
558.98	404.91
559.14	430.66
559.31	407.25
559.47	411.93
559.64	393.21
559.80	383.85
559.97	376.83
560.13	454.06
560.30	355.76
560.46	346.40
560.63	435.34
560.79	440.02
560.96	348.74
561.12	386.19
561.29	423.64
561.45	414.27
561.61	393.21
561.78	442.36
561.94	400.23
562.11	418.96
562.27	472.79
562.44	386.19
562.60	425.98
562.77	376.83
562.93	486.83
563.10	379.17
563.26	409.59
563.42	442.36
563.59	449.38
563.75	358.10
563.92	386.19
564.08	423.64
564.24	479.81
564.41	425.98
564.57	407.25
564.74	425.98
564.90	402.57
565.07	407.25
565.23	484.49
565.39	409.59
565.56	524.28
565.72	435.34
565.88	433.00
566.05	451.72
566.21	449.38
566.38	402.57
566.54	388.53
566.70	486.83
566.87	423.64
567.03	390.87
567.19	430.66
567.36	393.21
567.52	418.96
567.68	362.78
567.85	416.62
568.01	437.68
568.17	414.27
568.34	337.04
568.50	416.62
568.66	416.62
568.83	524.28
568.99	411.93
569.15	442.36
569.32	421.30
569.48	433.00
569.64	440.02
569.81	493.85
569.97	425.98
570.13	437.68
570.30	463.43
570.46	440.02
570.62	355.76
570.78	407.25
570.95	379.17
571.11	463.43
571.27	463.43
571.43	409.59
571.60	451.72
571.76	433.00
571.92	430.66
572.09	362.78
572.25	383.85
572.41	381.51
572.57	437.68
572.74	430.66
572.90	456.40
573.06	440.02
573.22	496.19
573.38	397.89
573.55	433.00
573.71	376.83
573.87	397.89
574.03	418.96
574.20	414.27
574.36	421.30
574.52	447.04
574.68	327.68
574.84	425.98
575.01	433.00
575.17	437.68
575.33	383.85
575.49	451.72
575.65	430.66
575.82	500.87
575.98	423.64
576.14	388.53
576.30	442.36
576.46	433.00
576.62	397.89
576.79	479.81
576.95	435.34
577.11	393.21
577.27	369.80
577.43	400.23
577.59	454.06
577.75	482.15
577.92	390.87
578.08	404.91
578.24	367.46
578.40	416.62
578.56	407.25
578.72	475.13
578.88	407.25
579.04	430.66
579.21	407.25
579.37	320.65
579.53	433.00
579.69	397.89
579.85	388.53
580.01	383.85
580.17	444.70
580.33	468.11
580.49	353.42
580.65	365.12
580.82	425.98
580.98	386.19
581.14	358.10
581.30	386.19
581.46	507.90
581.62	423.64
581.78	395.55
581.94	421.30
582.10	416.62
582.26	463.43
582.42	407.25
582.58	444.70
582.74	458.74
582.90	369.80
583.06	479.81
583.22	358.10
583.38	416.62
583.54	409.59
583.70	475.13
583.86	411.93
584.02	454.06
584.18	449.38
584.34	365.12
584.50	395.55
584.66	437.68
584.82	447.04
584.98	409.59
585.14	334.70
585.30	430.66
585.46	397.89
585.62	416.62
585.78	482.15
585.94	418.96
586.10	388.53
586.26	430.66
586.42	456.40
586.58	416.62
586.74	320.65
586.90	411.93
587.06	463.43
587.22	428.32
587.38	437.68
587.54	411.93
587.70	430.66
587.86	407.25
588.02	395.55
588.18	440.02
588.34	402.57
588.49	404.91
588.65	423.64
588.81	332.36
588.97	411.93
589.13	463.43
589.29	463.43
589.45	456.40
589.61	400.23
589.77	404.91
589.93	393.21
590.08	390.87
590.24	409.59
590.40	421.30
590.56	463.43
590.72	411.93
590.88	409.59
591.04	430.66
591.20	383.85
591.35	395.55
591.51	416.62
591.67	440.02
591.83	456.40
591.99	425.98
592.15	437.68
592.31	414.27
592.46	437.68
592.62	456.40
592.78	379.17
592.94	472.79
593.10	346.40
593.26	379.17
593.41	409.59
593.57	365.12
593.73	339.38
593.89	330.02
594.05	365.12
594.20	428.32
594.36	416.62
594.52	451.72
594.68	421.30
594.84	454.06
594.99	397.89
595.15	423.64
595.31	416.62
595.47	395.55
595.62	442.36
595.78	409.59
595.94	383.85
596.10	444.70
596.25	463.43
596.41	409.59
596.57	393.21
596.73	416.62
596.88	407.25
597.04	397.89
597.20	505.56
597.36	388.53
597.51	425.98
597.67	381.51
597.83	346.40
597.99	386.19
598.14	334.70
598.30	486.83
598.46	390.87
598.61	376.83
598.77	435.34
598.93	414.27
599.09	423.64
599.24	379.17
599.40	461.09
599.56	440.02
599.71	404.91
599.87	435.34
600.03	404.91
600.18	440.02
600.34	376.83
600.50	404.91
600.65	381.51
600.81	430.66
600.97	437.68
601.12	351.08
601.28	472.79
601.44	519.60
601.59	416.62
601.75	369.80
601.91	411.93
602.06	505.56
602.22	517.26
602.37	505.56
602.53	463.43
602.69	430.66
602.84	362.78
603.00	449.38
603.16	456.40
603.31	367.46
603.47	475.13
603.62	414.27
603.78	388.53
603.94	435.34
604.09	386.19
604.25	395.55
604.40	458.74
604.56	409.59
604.71	461.09
604.87	374.49
605.03	383.85
605.18	402.57
605.34	489.17
605.49	383.85
605.65	388.53
605.80	355.76
605.96	395.55
606.12	444.70
606.27	416.62
606.43	374.49
606.58	402.57
606.74	442.36
606.89	444.70
607.05	442.36
607.20	400.23
607.36	463.43
607.51	409.59
607.67	437.68
607.82	404.91
607.98	423.64
608.13	463.43
608.29	423.64
608.44	409.59
608.60	428.32
608.75	425.98
608.91	407.25
609.06	463.43
609.22	447.04
609.37	348.74
609.53	407.25
609.68	456.40
609.84	430.66
609.99	407.25
610.15	381.51
