SpectraSuite Data File
++++++++++++++++++++++++++++++++++++
Date: Fri Oct 25 12:10:38 EDT 2013
User: price-jones
Dark Spectrum Present: No
Reference Spectrum Present: No
Number of Sampled Component Spectra: 1
Spectrometers: USB2+H05261
Integration Time (usec): 100000 (USB2+H05261)
Spectra Averaged: 1 (USB2+H05261)
Boxcar Smoothing: 0 (USB2+H05261)
Correct for Electrical Dark: No (USB2+H05261)
Strobe/Lamp Enabled: No (USB2+H05261)
Correct for Detector Non-linearity: No (USB2+H05261)
Correct for Stray Light: No (USB2+H05261)
Number of Pixels in Processed Spectrum: 2048
>>>>>Begin Processed Spectral Data<<<<<
365.73	315.97
365.92	315.97
366.12	315.97
366.32	238.73
366.52	236.39
366.72	264.48
366.91	250.44
367.11	201.29
367.31	236.39
367.51	238.73
367.70	161.50
367.90	234.05
368.10	222.35
368.30	243.42
368.49	227.03
368.69	250.44
368.89	264.48
369.09	180.22
369.28	285.55
369.48	297.25
369.68	229.37
369.87	311.29
370.07	280.86
370.27	369.80
370.47	339.38
370.66	320.65
370.86	379.17
371.06	351.08
371.25	374.49
371.45	372.15
371.65	409.59
371.84	376.83
372.04	351.08
372.24	397.89
372.44	320.65
372.63	369.80
372.83	411.93
373.03	358.10
373.22	447.04
373.42	379.17
373.62	358.10
373.81	416.62
374.01	423.64
374.21	404.91
374.40	456.40
374.60	440.02
374.79	456.40
374.99	388.53
375.19	416.62
375.38	411.93
375.58	423.64
375.78	458.74
375.97	472.79
376.17	507.90
376.37	372.15
376.56	395.55
376.76	348.74
376.95	334.70
377.15	407.25
377.35	390.87
377.54	407.25
377.74	383.85
377.93	411.93
378.13	390.87
378.33	428.32
378.52	440.02
378.72	456.40
378.91	383.85
379.11	325.33
379.31	351.08
379.50	322.99
379.70	440.02
379.89	423.64
380.09	411.93
380.28	435.34
380.48	353.42
380.68	407.25
380.87	320.65
381.07	369.80
381.26	404.91
381.46	451.72
381.65	414.27
381.85	425.98
382.04	390.87
382.24	421.30
382.43	381.51
382.63	341.72
382.83	360.44
383.02	423.64
383.22	376.83
383.41	407.25
383.61	376.83
383.80	433.00
384.00	355.76
384.19	411.93
384.39	451.72
384.58	407.25
384.78	458.74
384.97	475.13
385.17	393.21
385.36	365.12
385.56	367.46
385.75	332.36
385.95	428.32
386.14	435.34
386.34	372.15
386.53	404.91
386.72	407.25
386.92	404.91
387.11	435.34
387.31	465.77
387.50	435.34
387.70	472.79
387.89	449.38
388.09	372.15
388.28	390.87
388.48	390.87
388.67	360.44
388.86	402.57
389.06	430.66
389.25	365.12
389.45	383.85
389.64	423.64
389.84	449.38
390.03	447.04
390.22	379.17
390.42	418.96
390.61	428.32
390.81	372.15
391.00	386.19
391.19	472.79
391.39	423.64
391.58	397.89
391.78	360.44
391.97	388.53
392.16	355.76
392.36	444.70
392.55	458.74
392.75	425.98
392.94	334.70
393.13	414.27
393.33	437.68
393.52	411.93
393.71	454.06
393.91	395.55
394.10	447.04
394.29	433.00
394.49	440.02
394.68	425.98
394.88	362.78
395.07	416.62
395.26	322.99
395.46	433.00
395.65	418.96
395.84	423.64
396.04	498.53
396.23	437.68
396.42	393.21
396.62	404.91
396.81	475.13
397.00	355.76
397.19	468.11
397.39	437.68
397.58	402.57
397.77	358.10
397.97	421.30
398.16	341.72
398.35	386.19
398.55	362.78
398.74	393.21
398.93	496.19
399.12	372.15
399.32	428.32
399.51	365.12
399.70	376.83
399.90	404.91
400.09	425.98
400.28	423.64
400.47	381.51
400.67	493.85
400.86	397.89
401.05	409.59
401.24	390.87
401.44	313.63
401.63	418.96
401.82	477.47
402.01	430.66
402.21	397.89
402.40	425.98
402.59	409.59
402.78	458.74
402.97	376.83
403.17	390.87
403.36	451.72
403.55	507.90
403.74	456.40
403.93	463.43
404.13	486.83
404.32	379.17
404.51	411.93
404.70	388.53
404.89	393.21
405.09	372.15
405.28	369.80
405.47	454.06
405.66	454.06
405.85	407.25
406.05	348.74
406.24	454.06
406.43	383.85
406.62	454.06
406.81	416.62
407.00	411.93
407.20	414.27
407.39	407.25
407.58	418.96
407.77	404.91
407.96	383.85
408.15	444.70
408.34	430.66
408.54	418.96
408.73	435.34
408.92	374.49
409.11	395.55
409.30	414.27
409.49	383.85
409.68	381.51
409.87	423.64
410.07	369.80
410.26	388.53
410.45	440.02
410.64	425.98
410.83	437.68
411.02	388.53
411.21	449.38
411.40	362.78
411.59	440.02
411.78	367.46
411.98	372.15
412.17	404.91
412.36	374.49
412.55	388.53
412.74	454.06
412.93	430.66
413.12	423.64
413.31	465.77
413.50	358.10
413.69	428.32
413.88	430.66
414.07	381.51
414.26	447.04
414.45	414.27
414.64	456.40
414.83	372.15
415.02	383.85
415.22	461.09
415.41	355.76
415.60	430.66
415.79	411.93
415.98	458.74
416.17	421.30
416.36	386.19
416.55	416.62
416.74	465.77
416.93	381.51
417.12	381.51
417.31	409.59
417.50	397.89
417.69	414.27
417.88	341.72
418.07	456.40
418.26	365.12
418.45	379.17
418.64	437.68
418.83	458.74
419.02	435.34
419.21	348.74
419.39	299.59
419.58	386.19
419.77	433.00
419.96	414.27
420.15	386.19
420.34	416.62
420.53	379.17
420.72	407.25
420.91	397.89
421.10	465.77
421.29	360.44
421.48	402.57
421.67	477.47
421.86	411.93
422.05	428.32
422.24	402.57
422.43	372.15
422.61	360.44
422.80	437.68
422.99	428.32
423.18	435.34
423.37	514.92
423.56	407.25
423.75	400.23
423.94	409.59
424.13	374.49
424.32	430.66
424.50	486.83
424.69	465.77
424.88	355.76
425.07	433.00
425.26	383.85
425.45	442.36
425.64	367.46
425.83	414.27
426.01	397.89
426.20	360.44
426.39	454.06
426.58	351.08
426.77	470.45
426.96	461.09
427.15	400.23
427.33	362.78
427.52	337.04
427.71	400.23
427.90	454.06
428.09	409.59
428.28	379.17
428.46	435.34
428.65	482.15
428.84	433.00
429.03	503.22
429.22	365.12
429.40	393.21
429.59	367.46
429.78	393.21
429.97	477.47
430.16	468.11
430.34	376.83
430.53	416.62
430.72	386.19
430.91	454.06
431.10	372.15
431.28	407.25
431.47	400.23
431.66	430.66
431.85	470.45
432.03	379.17
432.22	423.64
432.41	463.43
432.60	395.55
432.79	367.46
432.97	400.23
433.16	365.12
433.35	351.08
433.54	360.44
433.72	416.62
433.91	423.64
434.10	374.49
434.28	393.21
434.47	400.23
434.66	372.15
434.85	435.34
435.03	425.98
435.22	402.57
435.41	500.87
435.59	365.12
435.78	358.10
435.97	397.89
436.16	444.70
436.34	322.99
436.53	435.34
436.72	458.74
436.90	428.32
437.09	351.08
437.28	409.59
437.46	388.53
437.65	421.30
437.84	423.64
438.02	440.02
438.21	395.55
438.40	409.59
438.58	355.76
438.77	444.70
438.96	400.23
439.14	395.55
439.33	470.45
439.52	353.42
439.70	404.91
439.89	428.32
440.08	404.91
440.26	407.25
440.45	491.51
440.63	444.70
440.82	454.06
441.01	395.55
441.19	433.00
441.38	423.64
441.57	414.27
441.75	423.64
441.94	505.56
442.12	414.27
442.31	388.53
442.50	423.64
442.68	362.78
442.87	388.53
443.05	423.64
443.24	435.34
443.43	337.04
443.61	425.98
443.80	341.72
443.98	393.21
444.17	393.21
444.35	435.34
444.54	416.62
444.73	402.57
444.91	428.32
445.10	395.55
445.28	388.53
445.47	390.87
445.65	409.59
445.84	388.53
446.02	416.62
446.21	484.49
446.39	386.19
446.58	411.93
446.77	367.46
446.95	351.08
447.14	416.62
447.32	397.89
447.51	362.78
447.69	372.15
447.88	390.87
448.06	409.59
448.25	458.74
448.43	397.89
448.62	440.02
448.80	418.96
448.99	472.79
449.17	428.32
449.36	416.62
449.54	395.55
449.73	475.13
449.91	379.17
450.10	355.76
450.28	468.11
450.46	449.38
450.65	477.47
450.83	400.23
451.02	402.57
451.20	435.34
451.39	442.36
451.57	407.25
451.76	362.78
451.94	451.72
452.13	383.85
452.31	477.47
452.49	444.70
452.68	395.55
452.86	449.38
453.05	388.53
453.23	444.70
453.42	437.68
453.60	451.72
453.78	430.66
453.97	423.64
454.15	390.87
454.34	369.80
454.52	404.91
454.70	411.93
454.89	404.91
455.07	428.32
455.26	409.59
455.44	423.64
455.62	372.15
455.81	393.21
455.99	360.44
456.17	442.36
456.36	362.78
456.54	360.44
456.73	355.76
456.91	386.19
457.09	346.40
457.28	383.85
457.46	362.78
457.64	451.72
457.83	423.64
458.01	484.49
458.19	404.91
458.38	386.19
458.56	444.70
458.74	381.51
458.93	388.53
459.11	423.64
459.29	418.96
459.48	400.23
459.66	421.30
459.84	423.64
460.03	517.26
460.21	442.36
460.39	360.44
460.57	449.38
460.76	451.72
460.94	400.23
461.12	409.59
461.31	463.43
461.49	454.06
461.67	416.62
461.85	414.27
462.04	428.32
462.22	758.33
462.40	379.17
462.59	489.17
462.77	440.02
462.95	425.98
463.13	381.51
463.32	435.34
463.50	479.81
463.68	383.85
463.86	414.27
464.05	320.65
464.23	409.59
464.41	425.98
464.59	447.04
464.78	418.96
464.96	374.49
465.14	360.44
465.32	400.23
465.50	421.30
465.69	444.70
465.87	433.00
466.05	318.31
466.23	414.27
466.41	407.25
466.60	430.66
466.78	486.83
466.96	407.25
467.14	423.64
467.32	428.32
467.51	421.30
467.69	496.19
467.87	409.59
468.05	423.64
468.23	472.79
468.41	411.93
468.60	411.93
468.78	409.59
468.96	409.59
469.14	395.55
469.32	402.57
469.50	327.68
469.69	461.09
469.87	449.38
470.05	442.36
470.23	465.77
470.41	442.36
470.59	409.59
470.77	393.21
470.95	461.09
471.14	444.70
471.32	470.45
471.50	416.62
471.68	334.70
471.86	414.27
472.04	421.30
472.22	416.62
472.40	383.85
472.58	418.96
472.77	397.89
472.95	393.21
473.13	428.32
473.31	484.49
473.49	383.85
473.67	383.85
473.85	411.93
474.03	402.57
474.21	381.51
474.39	433.00
474.57	458.74
474.75	428.32
474.93	372.15
475.12	421.30
475.30	470.45
475.48	381.51
475.66	461.09
475.84	425.98
476.02	444.70
476.20	383.85
476.38	409.59
476.56	484.49
476.74	402.57
476.92	409.59
477.10	437.68
477.28	416.62
477.46	454.06
477.64	425.98
477.82	449.38
478.00	393.21
478.18	472.79
478.36	311.29
478.54	353.42
478.72	428.32
478.90	346.40
479.08	393.21
479.26	437.68
479.44	437.68
479.62	470.45
479.80	430.66
479.98	297.25
480.16	411.93
480.34	353.42
480.52	475.13
480.70	341.72
480.88	355.76
481.06	332.36
481.24	411.93
481.41	428.32
481.59	393.21
481.77	404.91
481.95	437.68
482.13	388.53
482.31	447.04
482.49	404.91
482.67	489.17
482.85	388.53
483.03	369.80
483.21	451.72
483.39	397.89
483.57	411.93
483.74	416.62
483.92	461.09
484.10	416.62
484.28	407.25
484.46	440.02
484.64	451.72
484.82	402.57
485.00	404.91
485.18	360.44
485.35	348.74
485.53	397.89
485.71	372.15
485.89	397.89
486.07	308.95
486.25	503.22
486.43	355.76
486.61	428.32
486.78	423.64
486.96	402.57
487.14	344.06
487.32	416.62
487.50	433.00
487.68	442.36
487.85	383.85
488.03	482.15
488.21	369.80
488.39	400.23
488.57	416.62
488.75	355.76
488.92	484.49
489.10	444.70
489.28	433.00
489.46	440.02
489.64	411.93
489.81	423.64
489.99	461.09
490.17	400.23
490.35	435.34
490.53	409.59
490.70	421.30
490.88	435.34
491.06	360.44
491.24	365.12
491.41	402.57
491.59	468.11
491.77	411.93
491.95	339.38
492.13	315.97
492.30	390.87
492.48	400.23
492.66	402.57
492.84	440.02
493.01	505.56
493.19	393.21
493.37	465.77
493.54	477.47
493.72	430.66
493.90	440.02
494.08	355.76
494.25	400.23
494.43	482.15
494.61	449.38
494.79	379.17
494.96	383.85
495.14	383.85
495.32	433.00
495.49	423.64
495.67	428.32
495.85	386.19
496.02	341.72
496.20	390.87
496.38	360.44
496.55	369.80
496.73	444.70
496.91	461.09
497.09	465.77
497.26	418.96
497.44	416.62
497.62	376.83
497.79	390.87
497.97	421.30
498.14	440.02
498.32	409.59
498.50	383.85
498.67	421.30
498.85	395.55
499.03	451.72
499.20	416.62
499.38	379.17
499.56	451.72
499.73	423.64
499.91	390.87
500.08	442.36
500.26	407.25
500.44	381.51
500.61	414.27
500.79	334.70
500.97	456.40
501.14	456.40
501.32	425.98
501.49	423.64
501.67	400.23
501.84	395.55
502.02	414.27
502.20	500.87
502.37	428.32
502.55	390.87
502.72	351.08
502.90	517.26
503.07	418.96
503.25	447.04
503.43	414.27
503.60	430.66
503.78	386.19
503.95	447.04
504.13	454.06
504.30	395.55
504.48	407.25
504.65	423.64
504.83	447.04
505.01	404.91
505.18	362.78
505.36	444.70
505.53	461.09
505.71	332.36
505.88	383.85
506.06	451.72
506.23	456.40
506.41	435.34
506.58	404.91
506.76	423.64
506.93	402.57
507.11	425.98
507.28	383.85
507.46	435.34
507.63	381.51
507.81	458.74
507.98	496.19
508.16	383.85
508.33	451.72
508.50	402.57
508.68	381.51
508.85	461.09
509.03	390.87
509.20	407.25
509.38	444.70
509.55	397.89
509.73	402.57
509.90	519.60
510.08	475.13
510.25	332.36
510.42	344.06
510.60	416.62
510.77	456.40
510.95	472.79
511.12	416.62
511.30	472.79
511.47	411.93
511.64	351.08
511.82	393.21
511.99	430.66
512.17	369.80
512.34	367.46
512.51	388.53
512.69	409.59
512.86	388.53
513.04	442.36
513.21	430.66
513.38	374.49
513.56	418.96
513.73	381.51
513.90	418.96
514.08	400.23
514.25	409.59
514.43	433.00
514.60	400.23
514.77	447.04
514.95	489.17
515.12	360.44
515.29	465.77
515.47	440.02
515.64	461.09
515.81	489.17
515.99	500.87
516.16	393.21
516.33	454.06
516.51	479.81
516.68	428.32
516.85	400.23
517.03	475.13
517.20	397.89
517.37	454.06
517.54	386.19
517.72	465.77
517.89	400.23
518.06	418.96
518.24	451.72
518.41	496.19
518.58	381.51
518.75	400.23
518.93	470.45
519.10	372.15
519.27	374.49
519.45	428.32
519.62	463.43
519.79	421.30
519.96	411.93
520.14	404.91
520.31	430.66
520.48	400.23
520.65	421.30
520.83	421.30
521.00	388.53
521.17	433.00
521.34	437.68
521.52	442.36
521.69	386.19
521.86	407.25
522.03	433.00
522.20	388.53
522.38	442.36
522.55	423.64
522.72	400.23
522.89	402.57
523.07	444.70
523.24	397.89
523.41	376.83
523.58	458.74
523.75	461.09
523.92	447.04
524.10	383.85
524.27	351.08
524.44	416.62
524.61	404.91
524.78	400.23
524.96	383.85
525.13	437.68
525.30	475.13
525.47	418.96
525.64	440.02
525.81	404.91
525.98	386.19
526.16	409.59
526.33	379.17
526.50	376.83
526.67	414.27
526.84	470.45
527.01	390.87
527.18	355.76
527.36	390.87
527.53	409.59
527.70	461.09
527.87	379.17
528.04	493.85
528.21	393.21
528.38	454.06
528.55	477.47
528.72	425.98
528.89	491.51
529.07	397.89
529.24	367.46
529.41	470.45
529.58	435.34
529.75	393.21
529.92	388.53
530.09	444.70
530.26	458.74
530.43	444.70
530.60	397.89
530.77	402.57
530.94	379.17
531.11	404.91
531.28	468.11
531.46	362.78
531.63	444.70
531.80	421.30
531.97	477.47
532.14	376.83
532.31	449.38
532.48	503.22
532.65	458.74
532.82	397.89
532.99	409.59
533.16	367.46
533.33	395.55
533.50	402.57
533.67	355.76
533.84	411.93
534.01	393.21
534.18	376.83
534.35	425.98
534.52	374.49
534.69	428.32
534.86	442.36
535.03	402.57
535.20	421.30
535.37	554.71
535.54	386.19
535.71	404.91
535.88	397.89
536.05	372.15
536.22	444.70
536.38	444.70
536.55	395.55
536.72	428.32
536.89	376.83
537.06	386.19
537.23	388.53
537.40	365.12
537.57	400.23
537.74	475.13
537.91	425.98
538.08	421.30
538.25	444.70
538.42	421.30
538.59	322.99
538.75	454.06
538.92	449.38
539.09	463.43
539.26	479.81
539.43	477.47
539.60	461.09
539.77	477.47
539.94	477.47
540.11	409.59
540.28	433.00
540.44	447.04
540.61	440.02
540.78	381.51
540.95	388.53
541.12	465.77
541.29	449.38
541.46	456.40
541.62	470.45
541.79	433.00
541.96	393.21
542.13	430.66
542.30	442.36
542.47	297.25
542.63	404.91
542.80	472.79
542.97	409.59
543.14	421.30
543.31	435.34
543.48	395.55
543.64	393.21
543.81	486.83
543.98	393.21
544.15	397.89
544.32	421.30
544.48	409.59
544.65	365.12
544.82	409.59
544.99	414.27
545.16	447.04
545.32	447.04
545.49	444.70
545.66	498.53
545.83	454.06
546.00	440.02
546.16	449.38
546.33	472.79
546.50	461.09
546.67	423.64
546.83	433.00
547.00	435.34
547.17	353.42
547.34	388.53
547.50	449.38
547.67	407.25
547.84	433.00
548.00	444.70
548.17	404.91
548.34	444.70
548.51	463.43
548.67	393.21
548.84	383.85
549.01	397.89
549.18	416.62
549.34	428.32
549.51	386.19
549.68	435.34
549.84	435.34
550.01	447.04
550.18	449.38
550.34	475.13
550.51	367.46
550.68	379.17
550.84	390.87
551.01	409.59
551.18	430.66
551.34	479.81
551.51	437.68
551.68	404.91
551.84	411.93
552.01	397.89
552.18	388.53
552.34	404.91
552.51	393.21
552.68	442.36
552.84	416.62
553.01	379.17
553.18	449.38
553.34	458.74
553.51	367.46
553.67	477.47
553.84	395.55
554.01	369.80
554.17	400.23
554.34	358.10
554.51	421.30
554.67	470.45
554.84	433.00
555.00	402.57
555.17	355.76
555.33	428.32
555.50	449.38
555.67	454.06
555.83	416.62
556.00	381.51
556.16	517.26
556.33	430.66
556.50	421.30
556.66	407.25
556.83	425.98
556.99	386.19
557.16	435.34
557.32	383.85
557.49	400.23
557.65	360.44
557.82	372.15
557.98	465.77
558.15	425.98
558.32	423.64
558.48	402.57
558.65	475.13
558.81	442.36
558.98	440.02
559.14	428.32
559.31	369.80
559.47	433.00
559.64	393.21
559.80	395.55
559.97	409.59
560.13	416.62
560.30	393.21
560.46	475.13
560.63	362.78
560.79	430.66
560.96	437.68
561.12	388.53
561.29	461.09
561.45	379.17
561.61	454.06
561.78	433.00
561.94	421.30
562.11	447.04
562.27	433.00
562.44	390.87
562.60	411.93
562.77	397.89
562.93	472.79
563.10	386.19
563.26	430.66
563.42	421.30
563.59	440.02
563.75	388.53
563.92	489.17
564.08	339.38
564.24	491.51
564.41	425.98
564.57	376.83
564.74	442.36
564.90	397.89
565.07	468.11
565.23	435.34
565.39	374.49
565.56	528.96
565.72	407.25
565.88	458.74
566.05	383.85
566.21	463.43
566.38	433.00
566.54	339.38
566.70	470.45
566.87	435.34
567.03	416.62
567.19	397.89
567.36	451.72
567.52	465.77
567.68	437.68
567.85	421.30
568.01	425.98
568.17	341.72
568.34	409.59
568.50	451.72
568.66	383.85
568.83	482.15
568.99	390.87
569.15	433.00
569.32	369.80
569.48	390.87
569.64	430.66
569.81	390.87
569.97	383.85
570.13	383.85
570.30	433.00
570.46	365.12
570.62	440.02
570.78	433.00
570.95	381.51
571.11	496.19
571.27	414.27
571.43	444.70
571.60	472.79
571.76	451.72
571.92	386.19
572.09	414.27
572.25	407.25
572.41	379.17
572.57	442.36
572.74	493.85
572.90	421.30
573.06	416.62
573.22	465.77
573.38	437.68
573.55	465.77
573.71	435.34
573.87	447.04
574.03	442.36
574.20	416.62
574.36	430.66
574.52	395.55
574.68	372.15
574.84	374.49
575.01	411.93
575.17	381.51
575.33	393.21
575.49	456.40
575.65	470.45
575.82	411.93
575.98	407.25
576.14	383.85
576.30	388.53
576.46	470.45
576.62	325.33
576.79	414.27
576.95	479.81
577.11	414.27
577.27	421.30
577.43	409.59
577.59	404.91
577.75	402.57
577.92	425.98
578.08	444.70
578.24	428.32
578.40	425.98
578.56	418.96
578.72	512.58
578.88	428.32
579.04	458.74
579.21	463.43
579.37	498.53
579.53	437.68
579.69	433.00
579.85	409.59
580.01	465.77
580.17	416.62
580.33	414.27
580.49	447.04
580.65	454.06
580.82	500.87
580.98	411.93
581.14	379.17
581.30	433.00
581.46	482.15
581.62	461.09
581.78	402.57
581.94	454.06
582.10	355.76
582.26	395.55
582.42	468.11
582.58	465.77
582.74	409.59
582.90	437.68
583.06	454.06
583.22	454.06
583.38	386.19
583.54	440.02
583.70	444.70
583.86	369.80
584.02	489.17
584.18	362.78
584.34	404.91
584.50	365.12
584.66	388.53
584.82	365.12
584.98	383.85
585.14	461.09
585.30	465.77
585.46	433.00
585.62	388.53
585.78	421.30
585.94	428.32
586.10	435.34
586.26	414.27
586.42	479.81
586.58	458.74
586.74	409.59
586.90	437.68
587.06	433.00
587.22	400.23
587.38	435.34
587.54	404.91
587.70	465.77
587.86	470.45
588.02	409.59
588.18	428.32
588.34	407.25
588.49	416.62
588.65	301.93
588.81	400.23
588.97	435.34
589.13	421.30
589.29	428.32
589.45	393.21
589.61	360.44
589.77	409.59
589.93	418.96
590.08	315.97
590.24	383.85
590.40	376.83
590.56	374.49
590.72	388.53
590.88	421.30
591.04	444.70
591.20	465.77
591.35	482.15
591.51	393.21
591.67	423.64
591.83	435.34
591.99	428.32
592.15	360.44
592.31	463.43
592.46	435.34
592.62	397.89
592.78	365.12
592.94	470.45
593.10	395.55
593.26	379.17
593.41	449.38
593.57	428.32
593.73	421.30
593.89	440.02
594.05	397.89
594.20	369.80
594.36	376.83
594.52	393.21
594.68	395.55
594.84	475.13
594.99	395.55
595.15	327.68
595.31	440.02
595.47	423.64
595.62	465.77
595.78	393.21
595.94	421.30
596.10	484.49
596.25	390.87
596.41	425.98
596.57	444.70
596.73	386.19
596.88	407.25
597.04	407.25
597.20	402.57
597.36	425.98
597.51	451.72
597.67	372.15
597.83	393.21
597.99	461.09
598.14	388.53
598.30	477.47
598.46	418.96
598.61	465.77
598.77	472.79
598.93	409.59
599.09	447.04
599.24	414.27
599.40	472.79
599.56	479.81
599.71	390.87
599.87	372.15
600.03	402.57
600.18	355.76
600.34	414.27
600.50	461.09
600.65	404.91
600.81	498.53
600.97	447.04
601.12	344.06
601.28	433.00
601.44	435.34
601.59	362.78
601.75	404.91
601.91	409.59
602.06	521.94
602.22	491.51
602.37	409.59
602.53	465.77
602.69	416.62
602.84	421.30
603.00	425.98
603.16	421.30
603.31	442.36
603.47	400.23
603.62	360.44
603.78	404.91
603.94	421.30
604.09	444.70
604.25	390.87
604.40	454.06
604.56	358.10
604.71	337.04
604.87	416.62
605.03	409.59
605.18	437.68
605.34	442.36
605.49	390.87
605.65	458.74
605.80	425.98
605.96	461.09
606.12	451.72
606.27	442.36
606.43	402.57
606.58	456.40
606.74	407.25
606.89	409.59
607.05	404.91
607.20	421.30
607.36	461.09
607.51	397.89
607.67	472.79
607.82	442.36
607.98	463.43
608.13	425.98
608.29	416.62
608.44	479.81
608.60	402.57
608.75	437.68
608.91	472.79
609.06	409.59
609.22	374.49
609.37	358.10
609.53	409.59
609.68	428.32
609.84	414.27
609.99	430.66
610.15	437.68
