SpectraSuite Data File
++++++++++++++++++++++++++++++++++++
Date: Fri Oct 25 12:10:47 EDT 2013
User: price-jones
Dark Spectrum Present: No
Reference Spectrum Present: No
Number of Sampled Component Spectra: 1
Spectrometers: USB2+H05261
Integration Time (usec): 100000 (USB2+H05261)
Spectra Averaged: 1 (USB2+H05261)
Boxcar Smoothing: 0 (USB2+H05261)
Correct for Electrical Dark: No (USB2+H05261)
Strobe/Lamp Enabled: No (USB2+H05261)
Correct for Detector Non-linearity: No (USB2+H05261)
Correct for Stray Light: No (USB2+H05261)
Number of Pixels in Processed Spectrum: 2048
>>>>>Begin Processed Spectral Data<<<<<
365.73	383.85
365.92	383.85
366.12	383.85
366.32	215.33
366.52	210.65
366.72	259.80
366.91	234.05
367.11	257.46
367.31	138.09
367.51	156.82
367.70	287.89
367.90	252.78
368.10	222.35
368.30	294.91
368.49	210.65
368.69	231.71
368.89	238.73
369.09	318.31
369.28	266.82
369.48	294.91
369.68	252.78
369.87	327.68
370.07	339.38
370.27	322.99
370.47	355.76
370.66	341.72
370.86	372.15
371.06	367.46
371.25	414.27
371.45	390.87
371.65	308.95
371.84	390.87
372.04	425.98
372.24	374.49
372.44	379.17
372.63	411.93
372.83	411.93
373.03	433.00
373.22	461.09
373.42	442.36
373.62	416.62
373.81	421.30
374.01	404.91
374.21	447.04
374.40	454.06
374.60	477.47
374.79	407.25
374.99	463.43
375.19	372.15
375.38	416.62
375.58	440.02
375.78	418.96
375.97	451.72
376.17	484.49
376.37	463.43
376.56	390.87
376.76	313.63
376.95	449.38
377.15	376.83
377.35	397.89
377.54	423.64
377.74	442.36
377.93	376.83
378.13	390.87
378.33	409.59
378.52	416.62
378.72	456.40
378.91	416.62
379.11	386.19
379.31	423.64
379.50	386.19
379.70	344.06
379.89	428.32
380.09	409.59
380.28	341.72
380.48	390.87
380.68	362.78
380.87	435.34
381.07	395.55
381.26	468.11
381.46	322.99
381.65	456.40
381.85	395.55
382.04	416.62
382.24	381.51
382.43	411.93
382.63	423.64
382.83	353.42
383.02	468.11
383.22	454.06
383.41	365.12
383.61	428.32
383.80	451.72
384.00	372.15
384.19	397.89
384.39	435.34
384.58	433.00
384.78	484.49
384.97	367.46
385.17	390.87
385.36	423.64
385.56	365.12
385.75	358.10
385.95	400.23
386.14	435.34
386.34	332.36
386.53	433.00
386.72	416.62
386.92	477.47
387.11	409.59
387.31	430.66
387.50	414.27
387.70	327.68
387.89	437.68
388.09	458.74
388.28	433.00
388.48	388.53
388.67	318.31
388.86	444.70
389.06	411.93
389.25	402.57
389.45	372.15
389.64	416.62
389.84	463.43
390.03	435.34
390.22	421.30
390.42	390.87
390.61	421.30
390.81	447.04
391.00	512.58
391.19	430.66
391.39	318.31
391.58	493.85
391.78	299.59
391.97	397.89
392.16	327.68
392.36	463.43
392.55	442.36
392.75	374.49
392.94	360.44
393.13	416.62
393.33	423.64
393.52	409.59
393.71	435.34
393.91	456.40
394.10	416.62
394.29	397.89
394.49	358.10
394.68	418.96
394.88	437.68
395.07	402.57
395.26	402.57
395.46	383.85
395.65	351.08
395.84	376.83
396.04	428.32
396.23	435.34
396.42	327.68
396.62	400.23
396.81	454.06
397.00	442.36
397.19	447.04
397.39	348.74
397.58	425.98
397.77	334.70
397.97	402.57
398.16	437.68
398.35	372.15
398.55	341.72
398.74	407.25
398.93	423.64
399.12	397.89
399.32	393.21
399.51	423.64
399.70	442.36
399.90	423.64
400.09	437.68
400.28	400.23
400.47	430.66
400.67	418.96
400.86	353.42
401.05	374.49
401.24	468.11
401.44	430.66
401.63	372.15
401.82	423.64
402.01	386.19
402.21	355.76
402.40	362.78
402.59	458.74
402.78	358.10
402.97	428.32
403.17	334.70
403.36	442.36
403.55	379.17
403.74	411.93
403.93	390.87
404.13	400.23
404.32	442.36
404.51	416.62
404.70	397.89
404.89	383.85
405.09	477.47
405.28	379.17
405.47	386.19
405.66	428.32
405.85	383.85
406.05	414.27
406.24	461.09
406.43	393.21
406.62	320.65
406.81	498.53
407.00	433.00
407.20	428.32
407.39	386.19
407.58	365.12
407.77	365.12
407.96	404.91
408.15	409.59
408.34	365.12
408.54	390.87
408.73	447.04
408.92	346.40
409.11	386.19
409.30	444.70
409.49	369.80
409.68	388.53
409.87	292.57
410.07	393.21
410.26	381.51
410.45	423.64
410.64	449.38
410.83	449.38
411.02	440.02
411.21	397.89
411.40	397.89
411.59	407.25
411.78	447.04
411.98	442.36
412.17	407.25
412.36	407.25
412.55	381.51
412.74	421.30
412.93	437.68
413.12	400.23
413.31	440.02
413.50	416.62
413.69	400.23
413.88	463.43
414.07	505.56
414.26	435.34
414.45	423.64
414.64	390.87
414.83	440.02
415.02	437.68
415.22	425.98
415.41	428.32
415.60	386.19
415.79	334.70
415.98	421.30
416.17	395.55
416.36	381.51
416.55	423.64
416.74	409.59
416.93	433.00
417.12	393.21
417.31	411.93
417.50	454.06
417.69	451.72
417.88	327.68
418.07	442.36
418.26	458.74
418.45	390.87
418.64	482.15
418.83	379.17
419.02	395.55
419.21	367.46
419.39	416.62
419.58	334.70
419.77	400.23
419.96	402.57
420.15	411.93
420.34	409.59
420.53	397.89
420.72	390.87
420.91	383.85
421.10	491.51
421.29	341.72
421.48	472.79
421.67	468.11
421.86	381.51
422.05	374.49
422.24	437.68
422.43	461.09
422.61	447.04
422.80	395.55
422.99	421.30
423.18	421.30
423.37	463.43
423.56	381.51
423.75	404.91
423.94	404.91
424.13	386.19
424.32	418.96
424.50	416.62
424.69	383.85
424.88	454.06
425.07	404.91
425.26	463.43
425.45	404.91
425.64	416.62
425.83	428.32
426.01	411.93
426.20	397.89
426.39	444.70
426.58	353.42
426.77	442.36
426.96	428.32
427.15	437.68
427.33	393.21
427.52	379.17
427.71	381.51
427.90	409.59
428.09	451.72
428.28	404.91
428.46	411.93
428.65	388.53
428.84	397.89
429.03	454.06
429.22	383.85
429.40	414.27
429.59	402.57
429.78	451.72
429.97	416.62
430.16	423.64
430.34	414.27
430.53	423.64
430.72	407.25
430.91	435.34
431.10	437.68
431.28	388.53
431.47	416.62
431.66	348.74
431.85	411.93
432.03	404.91
432.22	430.66
432.41	482.15
432.60	425.98
432.79	416.62
432.97	465.77
433.16	416.62
433.35	374.49
433.54	388.53
433.72	376.83
433.91	383.85
434.10	358.10
434.28	381.51
434.47	416.62
434.66	449.38
434.85	379.17
435.03	456.40
435.22	393.21
435.41	393.21
435.59	465.77
435.78	404.91
435.97	400.23
436.16	470.45
436.34	428.32
436.53	397.89
436.72	451.72
436.90	479.81
437.09	451.72
437.28	421.30
437.46	388.53
437.65	463.43
437.84	390.87
438.02	465.77
438.21	414.27
438.40	397.89
438.58	418.96
438.77	390.87
438.96	390.87
439.14	390.87
439.33	451.72
439.52	470.45
439.70	358.10
439.89	393.21
440.08	383.85
440.26	411.93
440.45	418.96
440.63	437.68
440.82	386.19
441.01	463.43
441.19	404.91
441.38	402.57
441.57	402.57
441.75	433.00
441.94	386.19
442.12	397.89
442.31	393.21
442.50	458.74
442.68	451.72
442.87	421.30
443.05	512.58
443.24	449.38
443.43	388.53
443.61	397.89
443.80	437.68
443.98	458.74
444.17	421.30
444.35	407.25
444.54	440.02
444.73	416.62
444.91	393.21
445.10	402.57
445.28	407.25
445.47	447.04
445.65	447.04
445.84	437.68
446.02	353.42
446.21	369.80
446.39	400.23
446.58	435.34
446.77	454.06
446.95	355.76
447.14	456.40
447.32	425.98
447.51	386.19
447.69	425.98
447.88	437.68
448.06	425.98
448.25	334.70
448.43	318.31
448.62	407.25
448.80	395.55
448.99	442.36
449.17	351.08
449.36	369.80
449.54	486.83
449.73	379.17
449.91	304.27
450.10	353.42
450.28	447.04
450.46	442.36
450.65	423.64
450.83	330.02
451.02	337.04
451.20	456.40
451.39	423.64
451.57	372.15
451.76	395.55
451.94	315.97
452.13	409.59
452.31	463.43
452.49	386.19
452.68	376.83
452.86	428.32
453.05	395.55
453.23	372.15
453.42	404.91
453.60	386.19
453.78	407.25
453.97	397.89
454.15	433.00
454.34	379.17
454.52	379.17
454.70	407.25
454.89	409.59
455.07	372.15
455.26	421.30
455.44	477.47
455.62	409.59
455.81	400.23
455.99	395.55
456.17	330.02
456.36	456.40
456.54	393.21
456.73	430.66
456.91	498.53
457.09	458.74
457.28	440.02
457.46	442.36
457.64	423.64
457.83	418.96
458.01	355.76
458.19	444.70
458.38	428.32
458.56	372.15
458.74	381.51
458.93	428.32
459.11	416.62
459.29	433.00
459.48	402.57
459.66	456.40
459.84	381.51
460.03	418.96
460.21	498.53
460.39	505.56
460.57	433.00
460.76	414.27
460.94	348.74
461.12	402.57
461.31	365.12
461.49	449.38
461.67	470.45
461.85	421.30
462.04	435.34
462.22	720.88
462.40	360.44
462.59	458.74
462.77	435.34
462.95	428.32
463.13	383.85
463.32	369.80
463.50	393.21
463.68	486.83
463.86	475.13
464.05	355.76
464.23	402.57
464.41	437.68
464.59	421.30
464.78	437.68
464.96	374.49
465.14	433.00
465.32	383.85
465.50	425.98
465.69	367.46
465.87	341.72
466.05	367.46
466.23	383.85
466.41	320.65
466.60	416.62
466.78	433.00
466.96	393.21
467.14	383.85
467.32	442.36
467.51	444.70
467.69	414.27
467.87	479.81
468.05	393.21
468.23	472.79
468.41	428.32
468.60	388.53
468.78	482.15
468.96	421.30
469.14	423.64
469.32	358.10
469.50	351.08
469.69	414.27
469.87	461.09
470.05	358.10
470.23	479.81
470.41	395.55
470.59	404.91
470.77	437.68
470.95	414.27
471.14	475.13
471.32	444.70
471.50	498.53
471.68	442.36
471.86	372.15
472.04	407.25
472.22	388.53
472.40	428.32
472.58	421.30
472.77	358.10
472.95	390.87
473.13	430.66
473.31	404.91
473.49	472.79
473.67	339.38
473.85	489.17
474.03	458.74
474.21	393.21
474.39	458.74
474.57	472.79
474.75	468.11
474.93	409.59
475.12	337.04
475.30	395.55
475.48	353.42
475.66	447.04
475.84	458.74
476.02	404.91
476.20	418.96
476.38	421.30
476.56	451.72
476.74	362.78
476.92	411.93
477.10	390.87
477.28	425.98
477.46	404.91
477.64	440.02
477.82	358.10
478.00	379.17
478.18	418.96
478.36	414.27
478.54	390.87
478.72	383.85
478.90	425.98
479.08	430.66
479.26	355.76
479.44	444.70
479.62	393.21
479.80	463.43
479.98	339.38
480.16	400.23
480.34	367.46
480.52	318.31
480.70	456.40
480.88	402.57
481.06	409.59
481.24	409.59
481.41	407.25
481.59	402.57
481.77	486.83
481.95	390.87
482.13	402.57
482.31	470.45
482.49	337.04
482.67	447.04
482.85	381.51
483.03	454.06
483.21	416.62
483.39	393.21
483.57	339.38
483.74	388.53
483.92	393.21
484.10	341.72
484.28	393.21
484.46	414.27
484.64	411.93
484.82	395.55
485.00	411.93
485.18	461.09
485.35	454.06
485.53	425.98
485.71	372.15
485.89	404.91
486.07	437.68
486.25	416.62
486.43	421.30
486.61	449.38
486.78	444.70
486.96	353.42
487.14	435.34
487.32	372.15
487.50	351.08
487.68	383.85
487.85	376.83
488.03	423.64
488.21	428.32
488.39	416.62
488.57	435.34
488.75	437.68
488.92	552.37
489.10	341.72
489.28	454.06
489.46	423.64
489.64	411.93
489.81	418.96
489.99	472.79
490.17	437.68
490.35	454.06
490.53	433.00
490.70	390.87
490.88	468.11
491.06	428.32
491.24	411.93
491.41	458.74
491.59	442.36
491.77	416.62
491.95	425.98
492.13	416.62
492.30	444.70
492.48	414.27
492.66	449.38
492.84	388.53
493.01	468.11
493.19	444.70
493.37	498.53
493.54	435.34
493.72	458.74
493.90	397.89
494.08	414.27
494.25	447.04
494.43	451.72
494.61	470.45
494.79	418.96
494.96	337.04
495.14	472.79
495.32	367.46
495.49	437.68
495.67	454.06
495.85	358.10
496.02	475.13
496.20	433.00
496.38	447.04
496.55	461.09
496.73	421.30
496.91	447.04
497.09	468.11
497.26	414.27
497.44	397.89
497.62	423.64
497.79	418.96
497.97	423.64
498.14	407.25
498.32	461.09
498.50	416.62
498.67	461.09
498.85	407.25
499.03	360.44
499.20	407.25
499.38	407.25
499.56	351.08
499.73	479.81
499.91	376.83
500.08	461.09
500.26	458.74
500.44	418.96
500.61	458.74
500.79	447.04
500.97	456.40
501.14	376.83
501.32	416.62
501.49	400.23
501.67	351.08
501.84	383.85
502.02	367.46
502.20	411.93
502.37	482.15
502.55	379.17
502.72	402.57
502.90	393.21
503.07	456.40
503.25	369.80
503.43	454.06
503.60	407.25
503.78	367.46
503.95	402.57
504.13	386.19
504.30	411.93
504.48	435.34
504.65	407.25
504.83	390.87
505.01	393.21
505.18	407.25
505.36	444.70
505.53	381.51
505.71	404.91
505.88	442.36
506.06	433.00
506.23	344.06
506.41	409.59
506.58	362.78
506.76	409.59
506.93	416.62
507.11	430.66
507.28	433.00
507.46	409.59
507.63	416.62
507.81	402.57
507.98	440.02
508.16	351.08
508.33	423.64
508.50	404.91
508.68	437.68
508.85	390.87
509.03	461.09
509.20	386.19
509.38	489.17
509.55	369.80
509.73	390.87
509.90	500.87
510.08	393.21
510.25	355.76
510.42	407.25
510.60	360.44
510.77	395.55
510.95	444.70
511.12	376.83
511.30	421.30
511.47	491.51
511.64	468.11
511.82	395.55
511.99	435.34
512.17	348.74
512.34	430.66
512.51	414.27
512.69	379.17
512.86	397.89
513.04	456.40
513.21	416.62
513.38	468.11
513.56	416.62
513.73	449.38
513.90	428.32
514.08	402.57
514.25	416.62
514.43	379.17
514.60	386.19
514.77	418.96
514.95	395.55
515.12	341.72
515.29	430.66
515.47	428.32
515.64	395.55
515.81	416.62
515.99	472.79
516.16	369.80
516.33	400.23
516.51	414.27
516.68	454.06
516.85	397.89
517.03	470.45
517.20	318.31
517.37	449.38
517.54	372.15
517.72	404.91
517.89	325.33
518.06	425.98
518.24	397.89
518.41	505.56
518.58	360.44
518.75	447.04
518.93	433.00
519.10	379.17
519.27	428.32
519.45	411.93
519.62	489.17
519.79	475.13
519.96	447.04
520.14	414.27
520.31	463.43
520.48	404.91
520.65	374.49
520.83	407.25
521.00	395.55
521.17	465.77
521.34	472.79
521.52	388.53
521.69	381.51
521.86	376.83
522.03	433.00
522.20	463.43
522.38	442.36
522.55	425.98
522.72	444.70
522.89	449.38
523.07	425.98
523.24	456.40
523.41	479.81
523.58	458.74
523.75	416.62
523.92	400.23
524.10	421.30
524.27	388.53
524.44	367.46
524.61	430.66
524.78	456.40
524.96	381.51
525.13	458.74
525.30	442.36
525.47	369.80
525.64	416.62
525.81	435.34
525.98	407.25
526.16	390.87
526.33	383.85
526.50	433.00
526.67	433.00
526.84	402.57
527.01	397.89
527.18	397.89
527.36	414.27
527.53	369.80
527.70	414.27
527.87	402.57
528.04	435.34
528.21	416.62
528.38	444.70
528.55	440.02
528.72	451.72
528.89	482.15
529.07	477.47
529.24	416.62
529.41	489.17
529.58	475.13
529.75	404.91
529.92	447.04
530.09	442.36
530.26	444.70
530.43	381.51
530.60	440.02
530.77	475.13
530.94	444.70
531.11	442.36
531.28	430.66
531.46	454.06
531.63	404.91
531.80	433.00
531.97	425.98
532.14	397.89
532.31	435.34
532.48	397.89
532.65	383.85
532.82	430.66
532.99	414.27
533.16	367.46
533.33	400.23
533.50	486.83
533.67	416.62
533.84	376.83
534.01	353.42
534.18	435.34
534.35	379.17
534.52	414.27
534.69	388.53
534.86	376.83
535.03	440.02
535.20	367.46
535.37	486.83
535.54	416.62
535.71	393.21
535.88	465.77
536.05	390.87
536.22	430.66
536.38	379.17
536.55	440.02
536.72	451.72
536.89	437.68
537.06	383.85
537.23	470.45
537.40	360.44
537.57	435.34
537.74	470.45
537.91	472.79
538.08	425.98
538.25	416.62
538.42	430.66
538.59	386.19
538.75	393.21
538.92	470.45
539.09	374.49
539.26	414.27
539.43	407.25
539.60	395.55
539.77	435.34
539.94	418.96
540.11	489.17
540.28	496.19
540.44	407.25
540.61	388.53
540.78	437.68
540.95	379.17
541.12	465.77
541.29	421.30
541.46	407.25
541.62	381.51
541.79	449.38
541.96	418.96
542.13	360.44
542.30	402.57
542.47	477.47
542.63	346.40
542.80	374.49
542.97	482.15
543.14	397.89
543.31	449.38
543.48	411.93
543.64	437.68
543.81	395.55
543.98	442.36
544.15	451.72
544.32	435.34
544.48	463.43
544.65	482.15
544.82	411.93
544.99	430.66
545.16	437.68
545.32	430.66
545.49	449.38
545.66	430.66
545.83	442.36
546.00	341.72
546.16	397.89
546.33	425.98
546.50	381.51
546.67	404.91
546.83	407.25
547.00	416.62
547.17	388.53
547.34	425.98
547.50	360.44
547.67	430.66
547.84	395.55
548.00	437.68
548.17	397.89
548.34	430.66
548.51	393.21
548.67	358.10
548.84	435.34
549.01	461.09
549.18	360.44
549.34	397.89
549.51	402.57
549.68	339.38
549.84	428.32
550.01	360.44
550.18	496.19
550.34	500.87
550.51	449.38
550.68	463.43
550.84	367.46
551.01	397.89
551.18	505.56
551.34	449.38
551.51	383.85
551.68	351.08
551.84	411.93
552.01	374.49
552.18	435.34
552.34	379.17
552.51	423.64
552.68	365.12
552.84	390.87
553.01	423.64
553.18	383.85
553.34	442.36
553.51	409.59
553.67	418.96
553.84	465.77
554.01	524.28
554.17	407.25
554.34	442.36
554.51	407.25
554.67	425.98
554.84	465.77
555.00	386.19
555.17	461.09
555.33	454.06
555.50	449.38
555.67	475.13
555.83	416.62
556.00	449.38
556.16	477.47
556.33	463.43
556.50	437.68
556.66	411.93
556.83	418.96
556.99	447.04
557.16	454.06
557.32	397.89
557.49	386.19
557.65	435.34
557.82	411.93
557.98	418.96
558.15	379.17
558.32	404.91
558.48	425.98
558.65	449.38
558.81	468.11
558.98	353.42
559.14	428.32
559.31	381.51
559.47	475.13
559.64	353.42
559.80	416.62
559.97	418.96
560.13	416.62
560.30	421.30
560.46	449.38
560.63	400.23
560.79	372.15
560.96	365.12
561.12	444.70
561.29	402.57
561.45	404.91
561.61	386.19
561.78	475.13
561.94	404.91
562.11	360.44
562.27	454.06
562.44	395.55
562.60	362.78
562.77	388.53
562.93	447.04
563.10	416.62
563.26	435.34
563.42	381.51
563.59	416.62
563.75	379.17
563.92	428.32
564.08	440.02
564.24	470.45
564.41	489.17
564.57	383.85
564.74	425.98
564.90	397.89
565.07	461.09
565.23	402.57
565.39	411.93
565.56	458.74
565.72	386.19
565.88	423.64
566.05	416.62
566.21	393.21
566.38	465.77
566.54	409.59
566.70	395.55
566.87	437.68
567.03	442.36
567.19	437.68
567.36	461.09
567.52	463.43
567.68	425.98
567.85	386.19
568.01	428.32
568.17	362.78
568.34	425.98
568.50	463.43
568.66	477.47
568.83	444.70
568.99	390.87
569.15	449.38
569.32	428.32
569.48	465.77
569.64	411.93
569.81	486.83
569.97	390.87
570.13	416.62
570.30	435.34
570.46	454.06
570.62	451.72
570.78	440.02
570.95	395.55
571.11	418.96
571.27	383.85
571.43	428.32
571.60	444.70
571.76	472.79
571.92	423.64
572.09	440.02
572.25	449.38
572.41	365.12
572.57	402.57
572.74	454.06
572.90	435.34
573.06	493.85
573.22	444.70
573.38	447.04
573.55	456.40
573.71	433.00
573.87	416.62
574.03	437.68
574.20	414.27
574.36	442.36
574.52	409.59
574.68	433.00
574.84	416.62
575.01	435.34
575.17	435.34
575.33	353.42
575.49	437.68
575.65	510.24
575.82	425.98
575.98	395.55
576.14	451.72
576.30	397.89
576.46	442.36
576.62	465.77
576.79	449.38
576.95	348.74
577.11	428.32
577.27	404.91
577.43	418.96
577.59	505.56
577.75	437.68
577.92	440.02
578.08	470.45
578.24	416.62
578.40	433.00
578.56	344.06
578.72	470.45
578.88	475.13
579.04	397.89
579.21	437.68
579.37	411.93
579.53	388.53
579.69	444.70
579.85	416.62
580.01	379.17
580.17	411.93
580.33	433.00
580.49	463.43
580.65	397.89
580.82	390.87
580.98	400.23
581.14	374.49
581.30	461.09
581.46	456.40
581.62	440.02
581.78	369.80
581.94	372.15
582.10	372.15
582.26	397.89
582.42	411.93
582.58	409.59
582.74	428.32
582.90	433.00
583.06	379.17
583.22	442.36
583.38	421.30
583.54	430.66
583.70	402.57
583.86	486.83
584.02	407.25
584.18	358.10
584.34	463.43
584.50	468.11
584.66	423.64
584.82	402.57
584.98	468.11
585.14	430.66
585.30	421.30
585.46	463.43
585.62	386.19
585.78	430.66
585.94	449.38
586.10	325.33
586.26	433.00
586.42	472.79
586.58	430.66
586.74	435.34
586.90	428.32
587.06	440.02
587.22	435.34
587.38	402.57
587.54	454.06
587.70	461.09
587.86	472.79
588.02	421.30
588.18	423.64
588.34	409.59
588.49	367.46
588.65	397.89
588.81	444.70
588.97	393.21
589.13	360.44
589.29	372.15
589.45	433.00
589.61	449.38
589.77	456.40
589.93	430.66
590.08	362.78
590.24	411.93
590.40	369.80
590.56	418.96
590.72	397.89
590.88	454.06
591.04	442.36
591.20	372.15
591.35	461.09
591.51	308.95
591.67	379.17
591.83	425.98
591.99	440.02
592.15	477.47
592.31	400.23
592.46	430.66
592.62	330.02
592.78	477.47
592.94	458.74
593.10	374.49
593.26	397.89
593.41	444.70
593.57	470.45
593.73	416.62
593.89	489.17
594.05	414.27
594.20	383.85
594.36	451.72
594.52	409.59
594.68	362.78
594.84	447.04
594.99	493.85
595.15	433.00
595.31	421.30
595.47	468.11
595.62	327.68
595.78	437.68
595.94	447.04
596.10	393.21
596.25	484.49
596.41	470.45
596.57	430.66
596.73	388.53
596.88	360.44
597.04	451.72
597.20	475.13
597.36	435.34
597.51	416.62
597.67	423.64
597.83	386.19
597.99	498.53
598.14	514.92
598.30	421.30
598.46	449.38
598.61	430.66
598.77	388.53
598.93	358.10
599.09	458.74
599.24	454.06
599.40	440.02
599.56	433.00
599.71	425.98
599.87	484.49
600.03	444.70
600.18	409.59
600.34	435.34
600.50	388.53
600.65	437.68
600.81	397.89
600.97	402.57
601.12	425.98
601.28	367.46
601.44	407.25
601.59	393.21
601.75	437.68
601.91	348.74
602.06	400.23
602.22	479.81
602.37	430.66
602.53	484.49
602.69	519.60
602.84	388.53
603.00	400.23
603.16	383.85
603.31	458.74
603.47	421.30
603.62	437.68
603.78	437.68
603.94	372.15
604.09	414.27
604.25	451.72
604.40	428.32
604.56	388.53
604.71	402.57
604.87	311.29
605.03	400.23
605.18	355.76
605.34	414.27
605.49	416.62
605.65	416.62
605.80	351.08
605.96	409.59
606.12	376.83
606.27	358.10
606.43	397.89
606.58	463.43
606.74	447.04
606.89	421.30
607.05	355.76
607.20	440.02
607.36	390.87
607.51	444.70
607.67	379.17
607.82	454.06
607.98	440.02
608.13	461.09
608.29	374.49
608.44	435.34
608.60	433.00
608.75	390.87
608.91	479.81
609.06	437.68
609.22	435.34
609.37	351.08
609.53	390.87
609.68	505.56
609.84	404.91
609.99	407.25
610.15	454.06
